Time:125Hz,Epoch,FP1,FP2,C3,C4,P7,P8,O1,O2,F7,F8,F3,F4,T7,T8,P3,P4
166.2879999,649,79.71402532,39.11863846,0,2.653411865,48.64438132,0,14.55842229,-52.39072511,86.1422392,-53.22004959,331.0061065,-75.80212728,186.6132221,0,334.874886,130.5063676
166.2959999,649,45.18250614,61.31319124,0,63.06651562,-27.8900771,0,23.8746722,66.07697264,-163.2653416,93.83530711,-231.0597929,93.56067881,-98.69176384,0,-1.26188504,227.5649272
166.3039999,649,6.67199771,-45.50341509,0,-90.70016241,118.0892656,0,80.39420056,-40.6510627,31.81124438,-24.05690183,-35.9197996,-33.19487722,24.37853113,0,205.7658684,237.2232734
166.3119999,649,133.4732253,145.555059,0,143.9133108,-55.91640551,0,-31.44788122,7.955541533,-21.68356944,15.51043979,179.3185229,36.06498489,84.89347707,0,197.0214146,101.1177695
166.3199999,649,14.7336478,-2.598106339,0,-20.69283522,97.81797881,0,82.17383502,42.96400034,-97.32874919,77.84163927,-376.4104481,120.2986272,-166.0202089,0,-24.20732269,311.1516978
166.3279999,649,133.8022519,100.2161796,0,66.85168406,55.79892304,0,-1.748082439,-60.98007114,115.9017073,-44.88772546,326.7582703,-27.28753182,160.2538936,0,314.2242556,125.1103169
166.3359999,649,52.84159258,76.77148672,0,78.50820149,-12.26591614,0,12.57802341,58.33716763,-111.9588782,108.9892819,-209.9885474,141.5601275,-123.225543,0,-25.43424488,234.5192735
166.3439999,649,-23.79134301,-71.82780926,0,-115.1096193,128.9241227,0,78.88536348,-63.34171027,42.37310367,-15.07030728,-28.58812853,-28.44794536,0.903212184,0,190.6357558,243.7486156
166.3519999,649,156.6281708,170.4261157,0,176.3834057,-44.85329574,0,-41.41597101,-34.32508511,-35.48149668,18.12946215,183.8204817,16.13140556,75.98218089,0,199.3317653,94.2779039
166.3599999,649,31.39165152,20.4944913,0,4.544923398,116.9419015,0,69.46424441,0.934396398,-70.33671317,89.42885574,-372.5141156,143.3143263,-178.6389325,0,-43.63613272,309.3436757
166.3679999,649,73.1494734,44.57792954,0,1.722058506,75.33427806,0,1.756959398,-100.955301,136.6860139,-41.75601684,330.3556657,-41.48198294,151.4819741,0,300.3788057,121.1761951
166.3759999,649,51.91660516,77.94522267,0,76.09568657,2.214083191,0,10.44142963,21.66900603,-136.802626,99.47942568,-216.8782943,80.45711512,-120.5193135,0,-17.12149395,205.9007869
166.3839999,649,-1.675131993,-46.39124464,0,-94.96306696,150.5730755,0,73.65697559,-88.4654894,53.53591786,-13.05160999,-39.56613571,-30.23827724,1.120095882,0,181.2845402,222.6276673
166.3919999,649,107.1841538,125.8381899,0,124.3428925,-32.98202853,0,-35.3880814,-57.21258265,-14.93452031,16.72357056,193.3112743,2.329467961,83.54762033,0,193.167788,74.58994354
166.3999999,650,12.21536047,7.78385801,0,0.484030307,114.2358838,0,70.81798461,-23.80390633,-95.85026492,77.54685251,-382.6856776,96.26970255,-172.3812218,0,-42.72676234,277.7084459
166.4079999,650,70.62956366,50.80028793,0,17.44225155,70.41964493,0,-0.529932403,-129.4006316,127.8816494,-48.81256708,319.0848044,-48.81475848,157.0558109,0,295.4547942,99.96936004
166.4159999,650,0.995286821,38.85827848,0,42.42748163,-15.8445175,0,16.48403998,-12.30586869,-152.9220858,91.79327475,-213.6763381,63.60280866,-112.3696265,0,-21.88206884,188.9572938
166.4239999,650,-36.49995099,-70.5483926,0,-106.7669035,133.3053538,0,78.88900103,-125.1282398,6.836595895,-25.15294666,-54.62801482,-66.5061219,0.434601576,0,174.296812,205.8106824
166.4319999,650,78.45257404,106.5498931,0,108.4391337,-43.32938708,0,-35.00868098,-91.56127869,-38.18809455,4.219115695,184.7650483,-19.94786499,83.84961983,0,191.0523854,60.99769397
166.4399999,650,-36.52155972,-32.5322357,0,-43.67714133,101.4010449,0,80.10934194,-49.11549251,-117.7076527,65.86420518,-401.9624728,61.44975205,-175.311395,0,-38.07223695,261.4879233
166.4479999,650,69.69600679,53.32826126,0,26.62483773,66.90438863,0,3.911051096,-152.9493451,113.7780978,-57.84546708,291.4961562,-70.65491283,151.3974234,0,303.2941198,82.49328471
166.4559999,650,30.3042578,67.87205322,0,79.07485767,-12.03547554,0,-0.394144154,-31.35184514,-122.1588199,88.54492806,-226.8754479,89.03829806,-118.1588355,0,-29.24201118,176.0848541
166.4639999,650,-40.25282554,-76.59324148,0,-111.4448673,140.4655491,0,63.13187224,-130.8390012,46.21875985,-29.04686233,-71.88119999,-49.23798312,-11.88521904,0,154.9903875,197.767994
166.4719999,650,56.40659332,85.63008754,0,89.9807413,-43.84433174,0,-46.16036945,-94.11689425,-26.27420102,-8.693117636,175.1051227,-37.26860896,76.2997677,0,180.1965536,46.82322227
166.4799999,650,-59.55360893,-53.35112116,0,-59.52162936,84.94193291,0,63.71832921,-51.67139611,-129.768131,49.83496142,-423.8775931,43.5928699,-185.5660023,0,-55.64328342,238.7021425
166.4879999,650,63.89114826,45.85562992,0,29.08582296,59.08556472,0,-14.760579,-151.7787538,98.90355309,-74.23620624,262.3986815,-74.04164829,136.5957003,0,280.5221085,48.30909694
166.4959999,650,54.12250249,96.49835422,0,121.648786,-2.693114577,0,-16.81120432,-19.27267585,-135.8279626,78.41184256,-239.983369,100.0585267,-129.4493839,0,-54.52705922,140.7026701
166.5039999,650,-1.295149005,-25.74964974,0,-52.66494382,167.998481,0,59.45716356,-100.7407817,60.98813343,-17.68439278,-75.05521104,-3.054627901,-17.46819223,0,123.3713601,190.292405
166.5119999,650,106.184762,144.8938012,0,149.9757137,3.056497561,0,-43.07134735,-54.71253496,24.07293608,19.50204587,201.873554,39.00100991,88.32873047,0,155.9001913,60.25280137
166.5199999,650,-48.97495372,-43.95101356,0,-50.52570973,122.9844241,0,71.5617126,-15.81214162,-107.0239683,77.05023038,-396.489776,86.16083868,-171.3696621,0,-78.15569106,261.2395941
166.5279999,650,45.16561363,18.69348176,0,-2.531872276,73.72758524,0,1.333205381,-122.6670869,95.34859313,-59.38435095,281.168073,-77.09164659,146.5546356,0,267.8236533,75.25095916
166.5359999,650,56.58091347,100.010974,0,109.9953663,-5.459706792,0,-2.454530476,3.064447081,-136.6542538,86.40011563,-214.6167214,99.96001835,-119.934208,0,-56.22322586,161.6587308
166.5439999,650,-31.60995937,-52.63610955,0,-95.84433238,135.9572315,0,70.79821254,-98.89352938,38.08202769,-12.79535466,-65.46433891,-18.14803781,-18.63273208,0,124.2444937,202.5371518
166.5519999,650,67.794237,104.4061875,0,103.3821701,-62.39038315,0,-40.7184179,-70.86812561,-16.78099642,12.78186394,205.098704,-7.747627592,81.79894413,0,164.8596255,49.71751099
166.5599999,650,-39.38451746,-27.31950462,0,-44.71118461,59.13160718,0,65.42056814,-26.50331665,-123.5511799,71.98096763,-402.7171512,70.20190619,-187.8283705,0,-81.65191243,244.2594888
166.5679999,650,49.83327387,36.20338257,0,-1.404422203,25.13294254,0,-2.513548248,-127.9305808,103.1281094,-54.88523804,275.314855,-75.95180788,130.6777341,0,258.9629996,63.86740768
166.5759999,650,33.64676596,89.04588033,0,94.30422226,-55.85808115,0,-6.039477503,6.278748265,-129.5504588,89.73151333,-216.0995826,88.70808916,-128.4358594,0,-64.0380615,140.8210257
166.5839999,650,-49.89077608,-64.2063094,0,-115.8601736,91.33684024,0,68.33852912,-87.71733499,43.65720625,-15.00192315,-78.57977444,-27.63540224,-32.2214515,0,113.1443249,182.1763179
166.5919999,650,87.6620106,117.4864229,0,101.281238,-102.1419565,0,-46.45883353,-65.45648303,-7.55418658,1.912229857,202.2532609,-27.37689869,73.57230666,0,165.9841743,19.95888777
166.5999999,650,14.60527451,23.0120549,0,3.898674033,28.21297531,0,51.94396734,-12.35179242,-82.41825202,69.21572294,-394.5565711,102.0299531,-194.2309287,0,-94.32743153,216.3822912
166.6079999,650,72.96974792,65.30736262,0,33.28326286,20.28106868,0,-13.51451505,-104.0751516,177.388222,-44.88849094,311.6319427,-9.226006116,131.3729919,0,236.5555941,62.63156444
166.6159999,650,26.76999179,85.76531416,0,101.4389493,-52.3813099,0,-13.38168348,27.00433492,-87.98520345,93.92379586,-170.9186441,95.66973728,-117.6671465,0,-73.76262966,138.6364335
166.6239999,650,-42.57407439,-58.67195925,0,-96.31762993,90.64344524,0,61.29363953,-61.99120226,61.65017211,-11.26367613,-54.23155738,-31.33293673,-27.1601402,0,98.4705867,176.1284177
166.6319999,650,48.21575142,77.64883808,0,67.23122406,-104.1879184,0,-44.96327639,-28.20610463,22.45497604,8.84835833,246.5254682,-20.50191712,84.00876515,0,151.7712365,17.64929522
166.6399999,650,-60.30689546,-44.49113903,0,-59.65943882,15.12011217,0,62.67891984,28.85094749,-113.2571424,62.48065502,-371.1590348,45.63487396,-182.349561,0,-90.61247498,200.1941116
166.6479999,650,53.12968935,49.67871365,0,14.63362979,-17.0988051,0,-8.861907954,-71.01095115,114.7769237,-63.63030228,304.9483399,-78.82280067,136.5629203,0,253.252874,32.98873571
166.6559999,651,34.603424,91.0529443,0,94.95833897,-97.24656518,0,-17.11171945,61.84649161,-84.17843237,86.339471,-161.2267042,111.7427229,-117.0783596,0,-72.3761912,111.5408742
166.6639999,651,-19.68978964,-34.8144679,0,-72.15506292,77.5774758,0,55.68069723,-21.8984775,80.82478908,-12.7433648,-51.50116052,0.371946312,-30.25541695,0,90.13295039,156.1953572
166.6719999,651,72.99230435,107.5263548,0,103.1716362,-94.88468418,0,-55.09405627,3.450657512,29.13264818,5.47594398,248.3653484,-15.95647281,83.13014887,0,149.129991,-0.419184386
166.6799999,651,-98.67233987,-78.20664885,0,-95.31827671,36.84357688,0,54.28570339,53.85620391,-95.1524353,66.33889508,-370.5684149,64.26652879,-192.9929154,0,-106.2626541,182.1274373
166.6879999,651,-3.985455982,-4.4699421,0,-43.6644009,29.60488958,0,-10.5717751,-57.41524922,103.6678575,-73.21671186,296.4227733,-115.3070612,132.2590307,0,251.6037978,-3.233936325
166.6959999,651,0.529988208,55.30985768,0,54.15558088,-49.70093118,0,-16.34803587,61.62997801,-120.8522831,61.39960956,-181.9074965,34.56205197,-108.4962808,0,-55.89968825,61.3375583
166.7039999,651,-50.9254934,-69.75559594,0,-113.4068423,118.8113705,0,56.1259205,-23.83288233,67.85701969,-31.72883649,-82.74928425,-28.0202785,-30.86157801,0,93.12257433,118.7081331
166.7119999,651,60.88827547,97.52409712,0,95.60445323,-58.89443576,0,-59.05491065,5.780004447,24.38099571,-14.93426072,233.0106062,-30.84884101,87.9954343,0,150.2330511,-36.88853856
166.7199999,651,-85.90440422,-62.08379099,0,-65.08708015,55.22520436,0,48.36472248,62.96613366,-103.1534985,49.87174912,-395.0004151,63.41381859,-188.0208081,0,-112.9628922,153.9915353
166.7279999,651,7.296369285,8.955481429,0,-13.80266563,42.61916828,0,-13.7344257,-41.73116334,116.5698237,-72.5113233,282.6865338,-72.40277966,133.4688612,0,238.9798364,-5.512471949
166.7359999,651,-11.86591647,48.76573073,0,64.56896191,-40.19318738,0,-14.32021108,80.68474676,-127.758313,67.09755308,-172.2187807,52.08361579,-100.3217334,0,-58.86155852,60.50613482
166.7439999,651,-72.29932425,-87.9134488,0,-109.5196067,123.1369815,0,60.19820937,-11.26146926,40.64919542,-27.44067308,-84.08369559,-33.30012029,-27.59706326,0,93.96654309,111.2342956
166.7519999,651,44.16044685,77.34264578,0,92.02592893,-50.22912641,0,-57.20749538,7.63813695,12.62580309,-10.39079507,246.2527601,-15.62898359,90.33129087,0,158.4627497,-46.33387668
166.7599999,651,-116.1007432,-96.03744267,0,-97.98230885,64.39088481,0,56.72764834,55.07473278,-140.1415184,45.99224181,-385.6916551,44.29993504,-187.122238,0,-98.17027167,132.6749134
166.7679999,651,-35.13426048,-34.17761534,0,-54.5108226,42.99856657,0,-5.16636245,-64.60528707,64.96326411,-86.94031578,282.693584,-114.8718064,132.5665039,0,260.6277411,-42.35643728
166.7759999,651,-38.35352086,28.38517827,0,50.0244237,-48.12649015,0,-17.02208328,53.25554725,-180.3589359,50.52530955,-174.2076342,28.22450572,-102.8631133,0,-36.08253467,18.09359396
166.7839999,651,-80.49508612,-83.44312905,0,-112.3155269,119.5454881,0,57.04497411,-38.36987172,-10.8280549,-41.40222274,-102.6388642,-47.76547325,-32.13609552,0,110.6154136,73.58101456
166.7919999,651,54.27885015,102.8933239,0,112.3588224,-49.65675888,0,-61.41546147,-19.85795077,2.743917373,-15.61224953,246.7503506,-0.287527952,95.77182667,0,174.4164872,-74.21228614
166.7999999,651,-66.76662626,-36.48256601,0,-30.3401821,67.83180434,0,50.80692322,42.33611194,-115.6737314,54.91291388,-380.4903552,93.07972669,-182.0956945,0,-94.65295119,130.9342624
166.8079999,651,14.69342057,18.14178876,0,-1.50152418,52.9433614,0,-6.105956456,-67.48103673,128.2529125,-71.76392463,296.1925229,-55.52609079,140.249574,0,254.3734804,-26.45017827
166.8159999,651,-32.90465772,41.78795762,0,56.72016831,-47.7830459,0,-17.54183195,51.13066381,-112.4793918,61.74657353,-148.1681035,71.3575557,-95.64415173,0,-47.17195191,24.13643551
166.8239999,651,-77.46225436,-74.13614309,0,-98.56623016,110.4449486,0,60.77600786,-35.8515147,10.01066827,-38.22016194,-94.28954884,-38.28965459,-36.09091999,0,99.4576165,72.61353104
166.8319999,651,62.09483641,110.8450656,0,127.9301228,-60.11565923,0,-55.2766236,-16.5847971,13.54874308,-15.89020655,268.406401,-2.058392333,101.937839,0,178.2045719,-79.04484806
166.8399999,651,-108.2342647,-73.5157436,0,-70.72647583,53.79474033,0,57.09668107,42.37085515,-117.5163528,53.48930646,-363.664901,78.11975185,-177.6828372,0,-88.08152574,115.4714935
166.8479999,651,-29.21300043,-26.75989559,0,-48.91680416,38.38248146,0,-0.691182929,-70.95651381,87.32391776,-81.78054462,300.1804821,-97.19015918,136.969061,0,271.8671456,-54.15355593
166.8559999,651,-18.53336045,49.1744602,0,71.14170145,-57.08487327,0,-22.69444329,50.09237274,-151.119025,53.84156021,-135.6941001,50.88481187,-93.96188665,0,-24.51470733,-2.663853136
166.8639999,651,-59.26223852,-60.78417121,0,-87.04776381,125.3103301,0,52.94271591,-35.24968587,14.9261376,-35.92052554,-83.63236733,-13.58437397,-36.996178,0,102.9208542,59.63024579
166.8719999,651,66.56707804,109.1867078,0,119.3088165,-31.78582522,0,-67.89512603,-19.92636635,33.07708887,-14.82065059,286.1356212,19.648556,97.90027507,0,177.1435009,-89.67477876
166.8799999,651,-80.56165222,-47.97889092,0,-38.93099335,74.65144861,0,32.77975944,39.53067284,-118.0115155,49.00285847,-363.151355,77.3988424,-189.3120708,0,-95.94699558,106.2797048
166.8879999,651,19.99745114,31.80825418,0,15.18683034,67.37726626,0,-23.20362235,-69.69039444,106.1341824,-84.10223439,303.6407157,-62.87220222,130.2269331,0,254.5140492,-52.72121421
166.8959999,651,0.392686038,76.618615,0,99.48196941,-28.95260287,0,-33.97659954,60.8607127,-108.3221965,65.09164992,-110.6138855,112.7726048,-90.88694748,0,-43.30235243,11.99260988
166.9039999,651,-92.32662816,-94.03090538,0,-118.6289191,125.9377038,0,47.10222344,-27.18522922,30.1071896,-30.8948334,-74.18425334,-13.51287529,-32.69702806,0,92.801383,70.58405289
166.9119999,652,69.45515766,116.9841533,0,126.1050765,-47.19011372,0,-79.0894184,-20.85490183,26.07272767,-21.51440071,301.1954836,2.574806581,107.4495868,0,181.347316,-102.7287831
166.9199999,652,-58.54396123,-20.20638436,0,-9.547989888,69.77645211,0,29.35888429,53.18987446,-106.0970571,62.14120563,-340.5404447,116.5592024,-184.5456852,0,-99.98336755,97.98011135
166.9279999,652,-21.33848002,-14.85826767,0,-27.29050738,58.42569616,0,-14.86169404,-48.6316587,118.5085505,-71.20782311,325.8344641,-54.91128013,139.2504861,0,260.2320043,-56.82318599
166.9359999,652,-37.2415993,38.14662908,0,65.86961528,-54.30204995,0,-33.05725564,76.44968993,-135.0230718,60.54632418,-99.4482112,72.52920823,-84.70777219,0,-23.90626708,-11.81312468
166.9439999,652,-121.0489218,-113.3926585,0,-133.7380278,109.026443,0,51.98497762,-5.658298529,-9.193513636,-32.28674077,-86.42270895,-39.31379951,-42.55396186,0,105.9008358,50.62307539
166.9519999,652,-20.18512136,35.14776836,0,47.23404796,-70.87678662,0,-59.62484907,2.260125659,-26.60196288,-28.64151574,289.7205457,-52.20402332,107.8884541,0,215.8896736,-121.0679344
166.9599999,652,-138.8799626,-96.090218,0,-80.30561324,34.98433135,0,42.51359914,61.17246614,-189.334771,40.79033353,-376.4658058,41.34940668,-183.4727044,0,-53.32506625,68.88332324
166.9679999,652,-35.74202487,-26.19082962,0,-32.33443866,36.29541257,0,-21.24022173,-62.23440499,60.39636446,-97.56970828,284.5373187,-96.54514442,133.5038906,0,298.8186705,-88.6597074
166.9759999,652,-56.65833624,25.39953219,0,55.75062037,-77.16195159,0,-44.34369207,57.74929763,-166.4222869,37.37110477,-124.6113282,46.07562196,-89.63227285,0,9.843041519,-44.8176184
166.9839999,652,-122.9638854,-106.7790942,0,-122.7627522,97.84058171,0,43.84805417,-21.89834024,-44.22558288,-52.17173504,-117.5101237,-46.09831932,-48.01138814,0,134.6780029,17.89791207
166.9919999,652,24.8824932,85.70139432,0,108.5568959,-64.291587,0,-79.80041445,-16.07471287,-17.75016005,-38.53851959,286.4466243,-10.3995692,108.3398297,0,232.6756652,-147.30245
166.9999999,652,-112.0687975,-62.03147671,0,-43.81340506,43.48796265,0,20.74445016,51.59176628,-150.6962423,44.09813199,-376.7584429,85.07430974,-194.9139207,0,-61.05371262,54.28723082
167.0079999,652,1.723829538,17.97460367,0,9.380726418,64.42867295,0,-27.40570943,-58.7719588,83.27704263,-90.3419133,284.7433383,-76.67442791,125.5986911,0,292.7688652,-96.93559772
167.0159999,652,-22.54938952,58.91470979,0,94.49647436,-39.91722277,0,-46.90439256,69.2838277,-121.4978702,60.5725922,-101.3578391,95.7610358,-81.42315528,0,1.817248157,-37.29897481
167.0239999,652,-128.0329106,-116.0236414,0,-132.2260275,121.5875018,0,37.44271292,-14.78341963,13.61738799,-28.59207292,-110.4445263,-15.65194186,-44.36246074,0,115.4504442,31.849584
167.0319999,652,51.80043418,116.3892924,0,128.8560255,-45.73447933,0,-90.08423185,-15.86442974,10.50343534,-32.93417267,294.5863437,-31.32915986,123.1420287,0,226.6675353,-150.131573
167.0399999,652,-102.2667031,-43.17420456,0,-36.72086039,57.56040047,0,13.0629103,59.54532528,-123.8212535,56.55222989,-361.817551,91.6680078,-172.8500681,0,-73.0941058,58.71371254
167.0479999,652,-57.27876633,-34.81626309,0,-55.83357924,60.89249507,0,-32.01617852,-54.57196136,115.8505182,-82.16188967,300.3324554,-69.23425221,147.385995,0,287.5565882,-89.15218856
167.0559999,652,-56.64574137,32.94910909,0,54.81912463,-58.85237674,0,-59.80962541,55.46289453,-147.2851602,46.28795655,-99.27529279,46.94802686,-61.50823773,0,18.96959102,-55.18451098
167.0639999,652,-158.6093949,-138.0655241,0,-167.5383391,110.6706778,0,26.1414465,-38.31598666,-37.27333972,-47.25995915,-137.1439037,-62.11726049,-41.61975321,0,126.7804505,5.929733755
167.0719999,652,17.80299226,87.7919356,0,94.89615465,-45.02531419,0,-101.794205,-44.3544739,3.665926062,-42.89823388,280.6311061,-21.83208051,124.2654174,0,240.9867056,-174.3898455
167.0799999,652,-70.15535533,-12.63719549,0,-4.681902915,66.61607527,0,-8.057917699,28.53538463,-121.2414439,55.11808696,-379.2896247,121.2939218,-173.6762422,0,-62.88787986,33.71611476
167.0879999,652,-32.43135791,-13.3517065,0,-39.67759903,75.64462722,0,-49.31252109,-84.008205,136.1685493,-84.62087535,287.3599598,-54.05610184,140.8648017,0,284.4729443,-112.7928148
167.0959999,652,-36.21826493,60.97802075,0,80.84213045,-51.66598724,0,-76.10535791,38.45949348,-104.6723607,51.13855966,-82.32471688,78.83171315,-67.40122765,0,13.26555998,-73.43250103
167.1039999,652,-123.7090749,-101.2032718,0,-119.7893665,115.533649,0,11.28787941,-34.12893412,-6.050224615,-28.74120165,-115.5345899,-14.40539832,-51.31010774,0,113.8635801,10.14701645
167.1119999,652,-3.770532396,59.895445,0,72.26059831,-57.39591898,0,-104.8880682,-28.14738829,12.23638676,-34.21897113,314.7684697,-32.31403519,120.3464289,0,238.2178046,-165.8585152
167.1199999,652,-107.1849061,-43.31409829,0,-38.8812374,29.69559157,0,-7.837839722,43.33933865,-136.9717433,60.77140998,-358.2955873,80.85250343,-182.5172424,0,-55.33934697,33.88951915
167.1279999,652,-53.792241,-31.14970221,0,-58.90109367,41.84470719,0,-55.45820197,-74.03873539,119.5149677,-73.06616954,292.7724982,-69.86838325,125.0553751,0,295.403242,-109.6589298
167.1359999,652,-57.16232836,31.02738777,0,47.86619956,-83.03518397,0,-83.25332343,50.31840092,-127.6161745,50.83289008,-81.73772382,41.7297832,-82.22097071,0,29.57917519,-80.29674632
167.1439999,652,-139.4744917,-119.5788392,0,-147.1819965,90.15270072,0,10.21625747,-23.79575694,-18.80891214,-34.84015961,-136.28993,-51.31362527,-69.77811116,0,124.985512,-3.321143431
167.1519999,652,-27.68122762,41.49953865,0,44.29092692,-68.12586227,0,-105.1417899,-21.3597856,14.90543107,-39.40575858,301.1431432,-53.41374084,109.7088746,0,254.2244616,-178.7358783
167.1599999,652,-107.8237996,-41.29319626,0,-46.17798269,20.21918972,0,-10.38939828,52.92054769,-154.730678,49.38366486,-379.737941,42.86250232,-194.4646349,0,-40.96433473,16.23707631
167.1679999,653,-6.357064604,12.24949851,0,-23.71866686,31.00088733,0,-63.65517648,-71.04848634,123.2101238,-83.62619467,274.1079876,-66.14762033,111.0327021,0,292.4784719,-126.9869016
167.1759999,653,-7.287279007,76.28570568,0,93.17488637,-92.47547106,0,-97.26373961,52.47371049,-90.97472497,54.14377584,-71.47785286,94.66784139,-91.56185272,0,11.69749041,-90.16311572
167.1839999,653,-65.69185085,-46.14317107,0,-80.55885044,91.59255062,0,-2.694277469,-10.40069401,26.05068527,-19.93082966,-115.9995826,-0.408180703,-77.12655789,0,100.5118894,-3.084273791
167.1919999,653,54.53367772,125.9827706,0,108.3357225,-55.62347218,0,-118.1656524,-4.170443045,99.48667962,-7.608052566,358.3567506,37.72605116,117.0339588,0,225.3434506,-166.1120745
167.1999999,653,-96.64694096,-27.62187842,0,-44.71516023,29.49963926,0,-15.98539815,65.12044848,-97.66217932,88.11723037,-325.2703766,117.3441983,-189.592843,0,-73.20056152,35.08998476
167.2079999,653,-3.513843581,15.07705219,0,-26.1504086,52.23983461,0,-59.70031702,-71.73957892,121.0194898,-62.62088921,303.093353,-71.18916241,114.4108973,0,279.5336987,-122.131503
167.2159999,653,2.086211831,88.5962382,0,98.74723428,-54.66562138,0,-92.07398697,43.14882036,-64.19804027,77.9464815,-31.59037079,114.9964082,-71.41078222,0,4.409379534,-90.50882984
167.2239999,653,-94.58058596,-65.9860893,0,-109.1344488,119.5745022,0,6.669675293,-35.08153459,40.33532078,3.250841745,-99.61250756,10.01542928,-57.80472029,0,89.97313439,-5.316395967
167.2319999,653,25.23095395,97.09468986,0,70.47275014,-43.66552854,0,-109.6811774,-47.5023031,70.10748612,-9.228585723,360.8650317,-19.13759029,132.1895462,0,227.9718215,-197.7588209
167.2399999,653,-128.3539899,-65.35982609,0,-81.37768919,36.83972196,0,-6.197525821,31.56028618,-119.2110027,78.67058826,-326.4650291,70.62281896,-175.6351714,0,-75.95708196,-12.43190958
167.2479999,653,-36.94019282,-11.6909345,0,-47.4760588,55.6146746,0,-39.97875593,-92.36170906,95.30194754,-70.92082526,295.9325155,-110.4578772,130.6840534,0,286.0864288,-165.7190134
167.2559999,653,-20.85771516,74.14624211,0,88.37106974,-61.6663744,0,-73.02468632,28.30097361,-104.5481071,73.8400708,-28.60929094,83.59853566,-57.66107468,0,21.38106608,-130.257466
167.2639999,653,-117.0155182,-89.94384059,0,-126.4213324,108.0320106,0,22.08377654,-41.88308225,3.058985803,-0.21721042,-108.2926274,-1.772753472,-54.17219066,0,93.10443312,-36.85956414
167.2719999,653,40.01663708,113.6055461,0,95.40208358,-51.89147612,0,-99.67406907,-54.8562748,48.72400097,-15.86465479,356.0748534,-23.96934965,136.0633095,0,234.4989458,-226.4993447
167.2799999,653,-93.76612792,-27.1825328,0,-40.19816387,38.67159026,0,-4.154222206,35.97789856,-115.9839416,87.52511281,-324.2360387,117.9262935,-181.1468787,0,-83.6366142,-43.11993676
167.2879999,653,-45.72591549,-21.53615708,0,-69.08148819,61.35941094,0,-37.81932455,-77.38898833,112.1643643,-61.8809327,299.315618,-62.51626649,127.7164132,0,264.4463042,-220.7591308
167.2959999,653,-40.4533699,57.71317587,0,59.35562779,-65.31724289,0,-71.08453551,33.24559577,-110.1729267,68.52275288,-24.46149058,68.7824535,-48.90844014,0,17.60967094,-222.9646528
167.3039999,653,-134.7959535,-107.5488292,0,-142.2824355,108.6156851,0,24.03615468,-38.05040319,-14.16320677,-1.768311892,-120.5388911,-16.01291765,-55.174897,0,94.99630001,-162.2538303
167.3119999,653,-5.178267196,64.64218444,0,52.64300826,-50.51375597,0,-96.57419308,-45.37745326,35.38217441,-22.47144727,346.4346947,-51.13101268,139.0790678,0,245.8271147,-381.5840198
167.3199999,653,-147.4225831,-76.19533171,0,-90.38632433,30.89568111,0,1.232790862,39.76655522,-154.5335415,73.18520627,-353.407793,49.20604457,-175.2877302,0,-56.12617792,-184.5103166
167.3279999,653,-65.09914414,-39.48429854,0,-90.32813855,63.82790195,0,-34.85156161,-81.95682093,75.08629478,-72.12873909,249.486809,-112.4462672,125.2657171,0,295.6689597,-338.5270284
167.3359999,653,-27.72108217,71.44582566,0,68.98056344,-49.9307442,0,-75.36925226,36.61615962,-112.4647258,64.03648151,-62.7316766,58.00188342,-54.65995965,0,36.88939742,-328.5864186
167.3439999,653,-168.3061921,-135.5685484,0,-188.894129,125.6533417,0,27.65924989,-31.34926111,-11.47535533,-6.616726475,-165.3396051,-36.09042287,-64.13553594,0,108.3387225,-228.6816485
167.3519999,653,-33.18386477,34.88599967,0,10.06967467,-34.97329395,0,-92.76309068,-56.77443167,16.98344156,-37.25253752,306.447932,-88.35794601,139.651605,0,276.514454,-439.7433926
167.3599999,653,-114.347967,-41.51585353,0,-43.12218016,53.92082413,0,-5.896202721,21.35871541,-158.4652942,64.85569438,-386.6795465,55.3485828,-177.1105381,0,-36.88045791,-245.7299233
167.3679999,653,-79.20159848,-48.07200508,0,-83.32651182,86.61918238,0,-35.19829415,-99.26491515,101.1357358,-74.32139064,226.7733405,-96.78383251,120.8329607,0,305.9312402,-368.7447616
167.3759999,653,-33.14140275,69.99390001,0,85.52030569,-39.10541117,0,-75.82196784,16.75533185,-105.2048206,57.7032736,-67.44675852,53.30099137,-49.4256874,0,60.31595776,-350.5498472
167.3839999,653,-92.9454023,-47.50978121,0,-75.66222664,155.9370172,0,23.39025412,-41.77625639,6.397876999,2.279979359,-164.7697116,11.72999093,-60.33236436,0,114.937181,-233.7959082
167.3919999,653,-10.27346053,73.73498542,0,57.52516723,5.025658552,0,-81.6265045,-47.15101163,67.75443413,-14.8127629,342.0531713,-19.79680476,153.4049552,0,273.1604398,-409.2220498
167.3999999,653,-140.188116,-60.79051232,0,-63.92438189,68.4083985,0,14.40171787,41.01265573,-151.2069141,81.98096708,-348.9675126,65.94839806,-156.4621903,0,-29.39059486,-214.3192216
167.4079999,653,-72.5051181,-40.95567849,0,-70.31188244,95.9190458,0,-15.10215549,-87.46518948,83.5738873,-65.7573331,246.9690551,-105.0143185,142.669397,0,320.5980231,-349.5233209
167.4159999,653,-60.6636393,45.14403739,0,60.33481106,-35.57884438,0,-50.92877883,26.40820968,-109.4451899,62.88543079,-38.3157879,59.05259479,-26.1151017,0,75.20275705,-331.0448703
167.4239999,654,-134.044512,-88.07536155,0,-117.6992957,142.5902818,0,41.53150259,-38.72660157,-19.21470679,-1.319799668,-159.2332191,-11.22783206,-48.63113203,0,136.2282606,-216.1150495
167.4319999,654,6.381517178,87.49623834,0,78.67352987,-10.19954489,0,-82.00794007,-62.74976911,57.2394205,-25.14191962,342.533821,-43.47535759,161.020419,0,302.2291996,-402.3523879
167.4399999,654,-129.7152278,-47.52780964,0,-47.82182282,58.47784226,0,11.17887955,26.9095765,-114.6606561,88.0353053,-345.1144913,104.0682915,-157.8800004,0,-19.39665144,-197.6429276
167.4479999,654,-72.75838974,-35.0216597,0,-66.39036047,90.72805108,0,-20.6831412,-103.8182529,124.2840208,-53.73215441,240.5739322,-64.48759755,133.6396258,0,327.1476328,-323.7158206
167.4559999,654,-31.95788566,75.44562228,0,91.3440234,-50.93124554,0,-68.16636348,-0.600065029,-90.44551054,64.60592458,-47.64048687,57.53854093,-37.39967558,0,87.28633693,-323.2686842
167.4639999,654,-145.2263434,-100.2509822,0,-129.8770306,116.7373197,0,35.99686851,-52.23299095,-8.184787761,3.831121204,-182.9458915,1.514236262,-70.37352061,0,131.9568541,-212.7750883
167.4719999,654,-16.01388501,70.17959536,0,58.90311429,-28.18476205,0,-79.63474698,-63.83352992,59.33556537,-20.4694951,326.1200596,-23.04832224,148.3933138,0,303.0460021,-399.6348552
167.4799999,654,-110.252951,-18.26778943,0,-24.62463993,56.87701548,0,5.31537773,27.44748304,-122.4376832,85.90311211,-362.2851544,105.0125154,-162.4841797,0,-19.59599365,-196.6897488
167.4879999,654,-81.17471609,-39.21469183,0,-84.62928602,102.4802927,0,-17.24836932,-93.50826927,123.6430225,-61.32418271,226.8876421,-66.93910929,132.0123135,0,316.7408738,-316.9625249
167.4959999,654,-32.63390443,76.64306974,0,81.58399862,-27.82293925,0,-63.90911638,18.25408531,-87.50818631,56.59660252,-40.52925637,66.06143271,-30.93573114,0,78.210362,-315.3424934
167.5039999,654,-95.98111957,-46.69418478,0,-75.83468335,159.3116388,0,26.38734712,-41.04414947,17.29121206,2.70499744,-178.7149024,26.59995766,-71.45857362,0,110.9596668,-192.1731232
167.5119999,654,21.39070147,107.5563731,0,105.9663158,14.72869956,0,-88.86491567,-60.81383821,111.7590559,-20.23157193,350.2712692,0.487434188,147.8156221,0,280.0736841,-370.9043381
167.5199999,654,-94.26980477,-6.190786412,0,6.644020141,81.61089217,0,6.393169121,32.38667754,-92.5332894,85.63237758,-333.1683764,121.4123944,-166.3611036,0,-41.55560764,-170.7435691
167.5279999,654,-47.35767405,-3.71495069,0,-25.65282667,124.1388735,0,-15.50442725,-90.76667852,143.623507,-57.53149809,251.8511392,-32.91269274,122.976362,0,293.0871303,-286.9104168
167.5359999,654,-41.69493323,74.37215744,0,101.0149046,-14.99233307,0,-57.91343305,27.18063852,-46.3647736,68.39045725,3.483280357,101.5782954,-27.66520404,0,58.30510175,-279.2524327
167.5439999,654,-196.4456819,-145.9102573,0,-162.8934196,148.8872166,0,54.61978389,-31.04702003,7.827495153,1.058791831,-159.8168965,-25.43205918,-63.32748415,0,106.3163222,-169.4081169
167.5519999,654,-39.13811563,50.12204667,0,50.58300689,-6.62422604,0,-59.34421712,-67.6207784,40.89886821,-38.06727561,351.1487358,-89.71559027,159.7461285,0,302.8116396,-379.289399
167.5599999,654,-108.8742075,-11.74410343,0,-0.471621459,67.06210846,0,24.23605968,27.98068896,-123.8800295,87.16074437,-330.3994992,110.0296346,-158.0476174,0,-24.43329675,-179.6431254
167.5679999,654,-124.3971926,-79.670497,0,-104.2736462,104.9762875,0,8.636137334,-94.17564658,131.3978176,-60.69941042,243.4622517,-72.67218927,127.6873056,0,315.7755127,-297.0422562
167.5759999,654,-71.1098349,47.05073368,0,80.7033989,-47.18057981,0,-37.49879691,14.30860771,-107.7327538,45.10787829,-16.25813795,19.8224598,-26.21131412,0,104.3645944,-314.6153761
167.5839999,654,-103.8169465,-45.60323343,0,-45.20237437,142.218065,0,59.1866076,-27.91645152,-5.880824075,7.152060592,-175.8303532,28.82082575,-75.35116142,0,126.1163035,-181.1158368
167.5919999,654,16.66827591,109.2035199,0,120.0449557,10.34546731,0,-56.7188113,-43.95186466,109.6774406,-9.9960904,375.337829,24.24758373,153.1803935,0,295.6831516,-353.3689182
167.5999999,654,-96.88970264,0.455921319,0,19.15789543,80.27512674,0,32.8421136,56.43726522,-104.9035,100.5867888,-308.3988454,136.076678,-164.2669581,0,-31.66896194,-155.3683509
167.6079999,654,-70.98036309,-28.49920394,0,-48.10592715,134.1443073,0,15.77246817,-63.56910538,123.4924344,-47.90390774,256.3862401,-43.98364043,119.8034753,0,303.2667979,-270.0111168
167.6159999,654,-87.43956275,29.73432848,0,52.71929519,-21.72341405,0,-29.52214121,42.27499371,-91.52784094,62.56721146,12.90242663,50.01963549,-24.33577599,0,85.28810533,-286.608852
167.6239999,654,-175.2416448,-119.5245342,0,-126.568223,140.1019542,0,73.11520038,-17.41625752,-41.44793399,4.531185633,-183.3514192,-19.95228575,-80.10579795,0,117.8678098,-177.283643
167.6319999,654,4.824671031,92.91665529,0,109.5159883,5.664833247,0,-48.77300617,-49.35688079,54.20812988,-24.61515089,357.1010894,-13.98389787,149.2387084,0,305.0996771,-363.9551698
167.6399999,654,-144.7380817,-43.78953715,0,-30.35238622,71.42254602,0,37.77298749,44.00252019,-143.1859321,93.82523272,-321.6011939,119.4333973,-166.0555843,0,-22.69715129,-159.4017348
167.6479999,654,-151.9061367,-107.4658592,0,-136.2927483,115.7831065,0,22.99943267,-94.70344392,65.23625639,-63.01551179,224.2690169,-109.9040812,113.5998706,0,326.265,-286.6279115
167.6559999,654,-67.61537458,45.72847394,0,73.77854516,-30.63372371,0,-34.22810528,5.406583795,-141.9519013,48.7476231,-14.29915391,21.70915853,-27.86074851,0,116.9733721,-310.275514
167.6639999,654,-137.753529,-81.2522995,0,-87.9071955,147.516057,0,65.03207489,-37.37142225,-44.62033522,10.33679769,-204.545384,22.37487598,-86.91279061,0,123.2319932,-172.8245277
167.6719999,654,-3.604655499,83.57174582,0,104.2157334,8.331148685,0,-55.15125935,-73.76069055,57.03107058,-21.28438222,346.5158537,-10.71690896,141.1124538,0,307.8146738,-354.9521555
167.6799999,655,-132.9866801,-34.73533269,0,1.997361188,61.85738247,0,26.33230962,18.90530107,-162.2961669,95.02596832,-338.9073205,119.7819575,-182.3113947,0,-25.04444622,-156.0045836
167.6879999,655,-111.3281958,-64.58844696,0,-73.50588343,113.2184288,0,10.81787862,-98.69323052,60.6230755,-54.58211699,205.1387601,-58.48482601,95.42425663,0,308.6659787,-270.4983843
167.6959999,655,-31.49130765,87.22368983,0,127.6815221,-23.28189304,0,-47.49742255,6.221564293,-120.0864598,65.21832671,-5.101369799,71.83828077,-37.22632512,0,98.66900718,-285.7240578
167.7039999,655,-166.224932,-102.1369695,0,-94.06859116,163.0818131,0,61.3251455,-36.47689628,-33.34350699,29.43769517,-194.1870985,46.95308665,-96.39255438,0,103.0475107,-141.655257
167.7119999,655,-75.65963568,18.89058066,0,62.10065258,26.75135666,0,-47.94243449,-59.11176911,21.84018434,-18.03368364,356.3079492,-36.23550164,144.9337363,0,309.110806,-335.1556591
167.7199999,655,-198.0603902,-87.77659544,0,-13.61059407,79.80387704,0,37.28812279,42.07684812,-213.8130251,95.24560413,-338.1574158,76.7333066,-173.3419312,0,-13.77426976,-145.9947649
167.7279999,655,-208.8029014,-139.2449081,0,-95.54697642,125.9492786,0,24.62283687,-87.42234599,11.78280958,-54.06386789,191.3021765,-95.85915358,97.98402592,0,319.0713336,-256.9045888
167.7359999,655,-182.0567355,-29.55777412,0,83.27696326,-34.85019458,0,-44.41014373,4.612686294,-196.6026862,48.68282199,-26.74377093,20.13530445,-40.79950751,0,110.9318601,-286.0276857
167.7439999,655,-337.0553576,-223.4215492,0,-114.2559552,137.4212461,0,53.28902994,-44.28924783,-123.1994586,-1.794182108,-249.3335437,-5.112743354,-115.7188237,0,100.4974046,-156.4418898
167.7519999,655,-264.2592006,-100.1867409,0,65.802469,-2.115416566,0,-60.73795216,-76.21795153,-60.13855849,-55.96043576,291.8077347,-73.63757145,126.5580175,0,303.2695687,-351.6929285
167.7599999,655,-396.6275315,-205.7744238,0,0.247980008,48.84556316,0,15.39644935,24.20034182,-302.8291338,55.26445247,-416.3925791,52.04626072,-190.5855465,0,-32.34571512,-153.4957345
167.7679999,655,-405.0603639,-254.2121559,0,-75.56758166,108.960202,0,0.550955501,-97.03212476,-72.98352666,-95.63747673,103.72102,-117.7267776,83.99163639,0,286.5417276,-248.4521184
167.7759999,655,-369.8400869,-142.6444843,0,95.57318235,-39.00510918,0,-62.48230517,7.627113098,-283.8305174,14.93143678,-95.03201032,9.317583742,-37.20719499,0,80.42736467,-268.6427319
167.7839999,655,-453.235852,-289.0063851,0,-83.08449177,148.3866339,0,38.55062405,-31.12092399,-221.713552,-23.62737603,-318.7890213,-2.806831651,-105.4748234,0,67.72203465,-127.9329165
167.7919999,655,-345.1612157,-149.8916708,0,64.83884098,10.63144073,0,-72.21453211,-59.24627477,-129.7852547,-74.83872516,256.5473927,-75.88863804,142.0190604,0,277.5931851,-316.5093854
167.7999999,655,-457.8091177,-246.7611389,0,-24.51414546,49.26710992,0,6.200713447,42.62839193,-365.8871319,43.59478517,-428.069086,43.86066041,-180.8811446,0,-51.97243998,-127.3027891
167.8079999,655,-362.7887766,-214.1031163,0,-28.27396517,125.1153549,0,-6.229749434,-79.43076027,-117.014376,-96.56223176,97.73155258,-99.39539555,89.94062563,0,268.0459559,-225.6560106
167.8159999,655,-281.5238872,-69.43519725,0,153.7865654,-21.14267489,0,-61.27180432,33.56206945,-265.6563726,23.50657066,-64.39923803,52.34023653,-25.32309068,0,61.9570483,-236.0112278
167.8239999,655,-363.7697075,-221.8533652,0,-55.46295037,153.0401689,0,44.75501981,1.551961172,-174.9220546,-1.048394162,-276.5033825,51.53725122,-100.7370277,0,39.35352709,-85.95459619
167.8319999,655,-241.9424384,-79.04617636,0,77.29316559,20.12065842,0,-66.34891911,-32.98420126,-63.14097514,-48.15360542,308.434159,-33.86921106,154.9580193,0,250.462662,-282.5195026
167.8399999,655,-355.8751137,-181.631713,0,-34.21452226,50.01909013,0,10.22026022,62.6769772,-296.7149464,62.89500616,-387.7917479,41.08342469,-164.566952,0,-73.56413362,-108.3016223
167.8479999,655,-272.1329488,-161.7949519,0,-57.98793218,113.7865993,0,-3.007917022,-61.09102357,-45.12855215,-77.97865734,128.7377785,-93.89041812,96.7040934,0,247.3806656,-212.4045991
167.8559999,655,-243.9748166,-61.02983268,0,78.62220619,-40.5798475,0,-49.99528762,56.78950064,-197.6082555,41.21277126,-27.49902974,48.31851685,-14.54407367,0,54.2087028,-228.9576011
167.8639999,655,-353.1814179,-234.8442022,0,-145.6845647,122.4257159,0,58.98192631,15.89292229,-156.111623,-1.764612286,-280.6679558,-27.83255709,-94.12672768,0,54.94465715,-92.99572761
167.8719999,655,-196.8182213,-62.73974503,0,36.3001305,-13.25644146,0,-63.48981377,-36.29072388,-37.60466691,-61.82156714,301.298934,-95.90913263,155.6530511,0,278.759649,-305.1646804
167.8799999,655,-311.6946471,-161.7362807,0,-60.62753259,16.67406007,0,15.700288,59.45640421,-245.4305016,58.07254982,-378.1513557,38.58107539,-167.7805663,0,-54.72261617,-123.9279847
167.8879999,655,-235.5791552,-141.9088588,0,-94.69678293,71.55044365,0,4.874246309,-79.608793,-17.03722409,-86.07006758,128.5752424,-124.8980968,96.6548884,0,268.9326464,-223.8269463
167.8959999,655,-174.7285926,-7.143783427,0,83.71459867,-93.19864941,0,-59.36899703,16.65920198,-163.9965991,28.51672593,-20.2524677,22.13119708,-11.58240555,0,71.1844199,-252.4582641
167.9039999,655,-274.931875,-170.8288013,0,-118.103083,82.45555333,0,46.9129362,-21.25105797,-107.3121201,1.596752355,-264.9600276,6.852870645,-100.5512041,0,46.69640101,-95.81357039
167.9119999,655,-72.87343359,51.40074387,0,110.9440434,-29.32996457,0,-75.14412945,-69.39072098,12.32901565,-45.88998083,338.9652682,-34.84361702,154.6725122,0,264.4104567,-284.0714323
167.9199999,655,-185.6179006,-44.40449011,0,22.80223365,15.27708987,0,4.177139148,41.61168753,-162.8206562,87.35057871,-326.5054052,128.193263,-169.4290274,0,-86.45524336,-86.53296024
167.9279999,655,-215.7530524,-140.5435135,0,-126.6925212,77.18186785,0,5.231050843,-77.78190085,71.24858034,-55.59533139,181.7412831,-57.9185303,94.81675755,0,235.2192404,-171.6072652
167.9359999,656,-152.5679835,-7.336853619,0,43.18945108,-95.92165742,0,-62.18874202,17.76072249,-149.1599953,36.50777606,16.05335732,3.446990966,-5.209300608,0,63.03276777,-225.1804302
167.9439999,656,-234.7802733,-149.5535194,0,-135.318829,70.11232455,0,45.63820938,-19.9920319,-129.3325966,3.370328731,-266.3261897,-24.30258002,-104.0076261,0,37.30579994,-88.92339469
167.9519999,656,-68.80350935,32.18522447,0,61.61054405,-37.10526123,0,-70.40894753,-65.39915175,0.609166323,-39.27965448,341.2854732,-43.43110255,156.7803717,0,259.3215522,-281.1152672
167.9599999,656,-160.2622215,-41.74966557,0,-2.551312095,13.39475892,0,1.914390921,43.42692452,-200.8905134,89.04237094,-335.5763559,96.95941976,-161.9438975,0,-84.1598072,-91.89973313
167.9679999,656,-175.5506883,-117.8253853,0,-130.9435861,82.59961851,0,1.643515267,-77.30048992,33.95746514,-57.04280674,159.5284469,-88.87304827,91.44646957,0,237.8105891,-172.7385426
167.9759999,656,-80.76470496,44.95298315,0,81.81962005,-74.51744579,0,-70.74235981,20.78458936,-146.8122861,46.01040596,21.7743875,20.52656536,-7.620693187,0,66.03841379,-214.1148658
167.9839999,656,-153.3467187,-87.52712348,0,-86.262385,101.9207421,0,35.21411029,-12.40246963,-85.41541415,27.7344871,-254.0246737,21.97051397,-100.0359341,0,27.56044254,-59.10849055
167.9919999,656,-61.30543401,23.42416576,0,23.51518174,-29.15204998,0,-72.7300156,-59.18694005,56.61793962,-21.77957557,361.1994896,-27.48233444,166.6759749,0,253.7967135,-250.5392319
167.9999999,656,-137.3127814,-38.22070562,0,-26.29727266,-1.55183561,0,-0.04217249,43.38836746,-189.0325945,91.48618643,-327.8397935,73.50023123,-157.8122759,0,-80.57486162,-82.21075701
168.0079999,656,-58.37889949,-19.12808292,0,-46.50721062,94.45782032,0,-0.26094826,-77.24334764,67.68674164,-48.74845109,164.6625847,-68.64866521,100.8994138,0,235.0797244,-164.4838056
168.0159999,656,8.744465874,125.3637904,0,146.697862,-37.68428634,0,-68.45366118,37.25125148,-47.39487081,75.41236289,66.77048503,114.290909,15.94393222,0,49.15220637,-183.9403639
168.0239999,656,-109.0760013,-53.58136271,0,-68.46772473,142.1808893,0,40.8008254,14.05780046,-19.34836484,53.08842109,-213.7311422,75.07945215,-84.3387805,0,6.752246161,-21.92171108
168.0319999,656,-5.978256722,67.29120979,0,60.39533529,15.38160637,0,-65.91014838,-42.18470674,78.38829955,-12.99466529,398.6663749,-34.99293128,186.1500549,0,248.5603745,-227.089044
168.0399999,656,-110.875845,-15.18755229,0,-4.807642259,33.22513435,0,5.642564138,57.04821022,-175.6635619,108.1730417,-292.9023281,97.09772865,-135.9988878,0,-90.46056624,-57.05169331
168.0479999,656,-41.45943564,-6.904184886,0,-43.87100378,110.940548,0,3.062633198,-69.73580698,57.86006135,-35.24087105,176.5659846,-45.30949362,110.8088749,0,220.5726918,-141.3380361
168.0559999,656,20.90723333,130.3291194,0,127.1729775,-42.06415709,0,-64.9048566,34.13491708,-64.53900307,76.65412275,79.51723058,102.9384615,18.96454337,0,39.08635872,-182.9909645
168.0639999,656,-129.0790933,-77.60903605,0,-123.6634263,119.2966106,0,52.36164488,13.33694037,-39.72558554,47.38049776,-217.5527144,51.84006483,-87.22208744,0,-6.048498995,-32.89073156
168.0719999,656,-8.395331572,62.83694331,0,30.29580677,-14.92876303,0,-54.00273998,-38.40616756,61.07889217,-27.56713366,392.3322697,-57.96058069,192.1520467,0,251.1810228,-244.8796618
168.0799999,656,-89.74289402,6.292457961,0,0.606400841,12.62376674,0,14.99261415,72.59684095,-168.4855201,104.4382226,-293.3153001,99.08416316,-130.4056049,0,-88.63955644,-73.12237271
168.0879999,656,-68.56808656,-37.38135066,0,-87.27227338,100.8777903,0,22.23331738,-48.4451531,65.72878863,-37.31407755,174.355461,-58.33331709,114.480967,0,223.4403454,-148.7770725
168.0959999,656,-13.37974555,91.40237614,0,81.12461758,-58.90028644,0,-44.09823025,43.03061581,-86.34652471,59.61160489,85.24255973,58.23591441,29.5629889,0,66.9822884,-196.6668531
168.1039999,656,-93.32922191,-42.58846762,0,-85.66877585,112.0598543,0,65.84053491,14.84740831,-56.84697482,40.24286448,-222.9384337,51.0239994,-93.23072632,0,14.50539165,-40.71077977
168.1119999,656,8.159472016,74.59812808,0,40.3497239,-10.80310389,0,-41.33458455,-37.83855216,81.25200007,-24.01692148,403.4236236,-31.09496098,180.8083017,0,259.2101976,-240.4226596
168.1199999,656,-134.1757784,-40.65085462,0,-61.7925705,0.151990057,0,31.93032051,71.03113114,-170.773949,96.10922384,-280.4413052,69.55048806,-139.5454549,0,-71.95003546,-78.51332272
168.1279999,656,-79.84323489,-48.68129907,0,-113.7756999,74.55189725,0,32.46374951,-58.66921221,32.08486937,-54.60631584,166.3340466,-107.9128949,101.389016,0,243.5217565,-167.5632505
168.1359999,656,18.45784006,116.927059,0,100.4658172,-80.8923434,0,-47.56865386,30.73340957,-100.3020802,47.21814859,90.80456713,47.31344889,25.00486066,0,75.99939667,-218.7253793
168.1439999,656,-76.81789765,-34.29140422,0,-83.60854186,109.3338729,0,66.82227753,11.42320325,-57.85743015,37.19642219,-219.0288298,50.58074286,-93.17948693,0,14.87915247,-51.00976276
168.1519999,656,18.71063395,77.81795242,0,38.50966462,-3.128237125,0,-38.55066236,-39.03204085,91.70888376,-25.75020435,416.6974804,-36.32479639,188.3950538,0,266.4554735,-240.7081998
168.1599999,656,-122.0872053,-31.03551961,0,-53.80117398,9.007430468,0,27.28642347,71.50690556,-143.9733851,95.58931696,-259.3371138,83.0213563,-132.4342866,0,-74.62614389,-71.07086962
168.1679999,656,-60.61365787,-29.515669,0,-98.08774926,98.33259436,0,30.26889727,-56.64538944,55.83402261,-53.26138404,173.8936511,-96.75998471,102.0443898,0,242.4676534,-150.6779749
168.1759999,656,48.16794251,151.1186258,0,131.8914386,-55.28723608,0,-51.30376372,38.05936442,-56.49376295,52.31884692,105.5946436,68.89989925,26.5701735,0,83.3258522,-195.9927377
168.1839999,656,-113.7428078,-60.10301639,0,-116.8279393,112.1119167,0,65.58248834,18.47504476,0.072664806,42.40453737,-214.1242259,76.69233673,-98.45710824,0,7.732663515,-20.91161495
168.1919999,657,-19.70202464,45.74434263,0,-3.282510356,-28.25005507,0,-35.94088066,-52.47328884,86.78812316,-40.48113313,405.9785092,-83.5710864,185.9395521,0,279.3490269,-233.1959991
168.1999999,657,-78.20656878,15.50293128,0,-8.780154641,-26.79859168,0,23.36748335,53.36693042,-158.3444197,84.38391547,-268.5704006,69.98640282,-136.728812,0,-60.3197591,-76.90565327
168.2079999,657,-63.45642915,-26.97872158,0,-100.7020194,67.29611523,0,33.86838581,-65.51257743,95.08059469,-49.02399665,179.1767858,-50.3116799,95.23631636,0,234.0195585,-140.5658329
168.2159999,657,-18.85377712,90.22917071,0,63.50700864,-98.31235199,0,-36.69356083,25.69296076,-67.07002221,46.45348342,112.3161301,31.91230241,31.96396544,0,94.76402868,-199.0367028
168.2239999,657,-132.4538057,-76.19059434,0,-128.6553101,66.48638885,0,73.00240121,2.761059477,-63.5527914,30.76761063,-233.1350435,24.93974758,-98.53436553,0,29.78706774,-40.47819563
168.2319999,657,-28.45277207,40.79516675,0,-4.196210947,-50.78893565,0,-33.11149061,-61.65833627,64.09700728,-48.35710966,402.3148573,-77.4064394,180.8930206,0,294.4182588,-246.4810856
168.2399999,657,-105.4711719,-8.594546428,0,-31.84036669,-35.1772513,0,33.02810091,47.05953021,-190.2475025,78.81564971,-273.1903559,54.58605235,-142.1280584,0,-41.00959441,-80.86098751
168.2479999,657,-31.82080614,1.683007124,0,-60.91709074,71.72554876,0,36.99303372,-84.72754925,61.62037421,-54.99131299,156.0704591,-61.90062835,87.62041829,0,255.7249306,-138.2104042
168.2559999,657,47.31071818,156.5825233,0,144.9584754,-80.76992499,0,-49.14590323,5.680700135,-17.20107051,50.09512515,116.8864678,101.1039218,27.21599082,0,97.80887551,-180.8508311
168.2639999,657,-84.70174572,-26.77327358,0,-70.58562381,87.73902469,0,66.52436966,-0.444250262,6.430252747,46.03578276,-224.0736335,100.8083148,-104.0449915,0,19.46892684,1.880158416
168.2719999,657,29.21298077,100.4437099,0,63.67321835,-28.8516039,0,-33.05836436,-55.50521265,116.3082044,-28.87202293,423.1966957,-27.16657255,187.8864146,0,295.2860869,-196.2448958
168.2799999,657,-53.41045925,48.7130861,0,32.686074,-20.82434795,0,24.63290156,62.8840152,-126.5361886,106.8435496,-238.7115569,131.8834492,-133.3353939,0,-54.96617467,-26.27876726
168.2879999,657,-51.77320778,-22.31088894,0,-88.15745433,70.26649334,0,37.54047393,-62.46063832,98.1971081,-38.11094733,179.2036166,-27.14918241,87.87008358,0,233.3856143,-84.89146664
168.2959999,657,15.29703447,113.3415856,0,101.3640403,-94.08981887,0,-33.56027647,23.03321784,-60.4397731,45.27597701,131.0100079,37.19644113,30.67001727,0,105.1730775,-154.4602183
168.3039999,657,-58.22801477,-7.139448093,0,-41.51132779,90.50795585,0,77.19762742,15.12619184,-34.9717781,48.86673839,-229.7860321,74.39379686,-111.08891,0,21.68031842,20.19617201
168.3119999,657,51.71596977,115.1905118,0,79.92502163,-8.961147333,0,-35.35207007,-41.69173794,154.1062688,-17.34966254,429.1462374,21.01262541,176.6383865,0,275.9601946,-171.3498039
168.3199999,657,-79.52309757,15.73959234,0,-10.9386066,-12.85986825,0,23.35060018,71.01608104,-106.8687929,106.8744684,-230.7463866,106.3743672,-140.1042329,0,-65.1274235,-16.13153322
168.3279999,657,-72.99445431,-43.17934093,0,-121.2937769,74.98920652,0,39.14398252,-63.96135423,78.91926651,-40.36327334,173.1243243,-83.15391354,86.95458779,0,240.8687712,-86.44276944
168.3359999,657,33.51093204,131.3497078,0,110.1783032,-88.34296151,0,-47.79750004,5.665762597,-52.00719593,51.24490624,139.3412954,54.8244881,38.38772206,0,105.7307587,-154.8014589
168.3439999,657,-63.90958451,-17.60348993,0,-61.47900833,80.59530418,0,59.52643066,-17.83574031,-25.38455347,47.24294647,-228.6856813,63.97580109,-108.8446245,0,7.709386319,27.33934601
168.3519999,657,37.60897755,98.55543037,0,53.23264929,-37.65198563,0,-47.91457721,-85.40472472,146.2148495,-26.90804417,429.8649579,-34.56804813,185.1156139,0,276.3344629,-162.9499829
168.3599999,657,-55.28401595,43.09309629,0,16.24587303,-43.79739811,0,3.455558857,30.59393095,-91.27705247,113.227586,-227.5899508,126.1540407,-131.4333936,0,-75.31333902,-2.379459867
168.3679999,657,-72.93100597,-43.42224685,0,-113.6795606,55.96843104,0,25.64453453,-91.65560934,110.1310206,-33.12528953,167.3239788,-60.18627926,88.1024883,0,219.0049666,-61.73816009
168.3759999,657,-29.95547259,63.48500208,0,41.79457584,-118.1561221,0,-46.38589473,-7.031359971,-55.08432775,44.0648977,133.0784133,-9.36244707,52.30436437,0,113.890597,-142.0710229
168.3839999,657,-118.4906378,-72.9777996,0,-123.2842894,42.90285424,0,61.49207632,-20.44763352,-62.80154524,38.5468875,-262.1080268,7.212177619,-98.10315478,0,25.96438169,17.13312496
168.3919999,657,45.75864686,105.8334521,0,65.57590851,-44.61669683,0,-48.52788364,-83.9541138,120.2755529,-37.09416205,395.2312524,-46.13779341,190.1840821,0,293.5928308,-182.1091464
168.3999999,657,-53.64504417,41.99549271,0,33.74454517,-22.07681496,0,10.42402657,45.42494814,-91.5626025,109.2519294,-248.202329,127.725561,-121.4847145,0,-57.26820927,-2.678676356
168.4079999,657,-73.79354742,-46.5945922,0,-97.72270054,80.26974664,0,28.07400725,-74.2568545,125.6038772,-30.78485744,143.1299327,-34.63363818,91.48498555,0,226.6922185,-45.36107548
168.4159999,657,6.438338386,104.9110761,0,95.69268441,-95.00122555,0,-55.83584198,4.096438239,-22.68568344,45.7573608,124.0074607,35.41042458,46.56476782,0,105.9436322,-126.5756524
168.4239999,657,-108.5353453,-51.24247913,0,-96.14874632,75.74809817,0,60.36122888,-5.307340737,-31.02090939,47.33427383,-269.7831025,43.0669907,-107.792646,0,7.288897715,48.11695754
168.4319999,657,28.99160214,95.33284635,0,58.42012159,-18.23121911,0,-50.68916968,-75.79434785,140.7207951,-26.50803293,399.2583322,-23.45554244,183.0583134,0,282.1252216,-146.9146215
168.4399999,657,-96.35497928,4.864128968,0,-8.872955005,-22.58666718,0,5.184896616,44.40946018,-96.75058749,111.1308227,-239.4390302,113.457257,-136.0506046,0,-67.36490133,13.78823057
168.4479999,658,-120.1208189,-81.80133034,0,-150.2758317,75.12855101,0,33.24202174,-80.01290063,84.65126004,-35.26878227,135.3734203,-88.25462755,75.79356133,0,228.5063019,-43.02531854
168.4559999,658,34.25266221,142.2522368,0,127.9717214,-83.05502881,0,-61.27783543,-8.898318202,-45.67363504,52.25937567,132.3666738,39.53026468,39.18499312,0,113.5006959,-126.8231871
168.4639999,658,-92.08182887,-31.10860423,0,-73.54038084,95.87339387,0,51.87215041,-9.847880036,-7.124267425,65.47054698,-254.4714385,94.67740239,-122.0259571,0,-11.08494984,61.53063005
168.4719999,658,-8.18429073,61.94357968,0,14.55322255,-13.13807863,0,-45.96103526,-68.44404093,151.1206452,-21.74547996,405.0632689,-42.33017977,176.9981443,0,273.8001347,-138.0210216
168.4799999,658,-60.23179943,44.61002331,0,22.64742846,-20.24666515,0,5.025765905,54.74865978,-104.6972051,112.7111302,-251.2517012,94.23848446,-136.8718399,0,-67.46415613,11.41272318
168.4879999,658,-35.91912355,-1.448283529,0,-69.23979086,109.9927526,0,32.62054694,-58.17027021,134.1987583,-17.32410793,129.3620859,-25.7996674,70.85217492,0,204.0818665,-22.32841157
168.4959999,658,32.07345825,136.4376114,0,121.3810693,-50.40108265,0,-51.49894452,25.73131177,17.24456983,71.08367914,151.5589689,75.47675731,45.63081381,0,89.92465714,-88.31205461
168.5039999,658,-128.8584454,-71.79670787,0,-115.473502,102.1239596,0,65.41416969,20.674301,-8.510872931,70.02462047,-265.8601806,59.49372929,-119.1876314,0,-26.48018514,89.82321296
168.5119999,658,-11.1879242,46.8971102,0,-5.86953753,-2.259789432,0,-31.44207069,-47.59059902,138.0434715,-28.05080874,388.7217342,-85.19203979,180.26707,0,264.0259754,-120.7122624
168.5199999,658,-79.67418425,13.29606242,0,-14.02479583,-11.82571915,0,15.57418313,68.27305578,-103.4190929,107.5107759,-247.558061,70.2405968,-129.0888281,0,-78.36310599,28.55208019
168.5279999,658,-43.83320421,-14.41481091,0,-81.57445492,105.9176721,0,33.29684114,-57.30267871,133.7731621,-23.21168891,123.1711461,-34.85726444,68.85205557,0,188.6759496,-7.859232106
168.5359999,658,49.64136355,152.960891,0,135.1208804,-59.11066748,0,-55.06178807,25.03254408,21.40692254,62.72028569,153.9512722,67.67960536,40.32586982,0,81.28585565,-78.93157564
168.5439999,658,-125.0880035,-70.35090899,0,-117.6577831,94.50690256,0,59.7280353,22.84859125,-2.504254724,67.63202921,-266.2303626,61.31454161,-133.4180399,0,-38.04696639,104.1555398
168.5519999,658,20.33085696,74.46215322,0,25.84722901,-0.759216972,0,-44.44722562,-53.84137356,153.3142091,-28.77730386,390.5892288,-59.91633031,161.3992638,0,250.7901434,-104.7484113
168.5599999,658,-49.35116245,41.54613232,0,20.89708793,-12.56710762,0,7.646166285,72.32370513,-82.20466898,110.9617607,-238.2693532,105.7348067,-148.7146388,0,-97.43377104,51.65993764
168.5679999,658,-92.76048834,-67.14787096,0,-131.3534752,86.31776782,0,36.4994797,-38.27623511,134.9549147,-22.33246343,118.8939241,-38.25457841,50.07183643,0,171.9605155,16.77786815
168.5759999,658,15.78173151,112.7748116,0,106.3046306,-82.58758969,0,-53.3777912,45.12890378,-10.37130841,50.38068712,144.0548325,30.18522557,30.43842807,0,81.53664839,-79.62195854
168.5839999,658,-101.245245,-49.14115052,0,-79.56717079,88.65110802,0,66.58381428,55.09981488,-24.41550205,64.29902189,-278.5241117,68.57234298,-146.0914398,0,-45.03789826,107.3113189
168.5919999,658,5.135816029,61.13634554,0,19.01549915,-12.8022273,0,-33.49393958,-15.73654252,159.138827,-22.69818937,394.9499161,-44.192367,152.7824372,0,243.6447089,-90.48944186
168.5999999,658,-70.54197531,23.48717805,0,17.75758549,-38.21561014,0,9.445943206,98.29838622,-93.50779785,107.8397856,-237.4185277,84.66744305,-157.4307469,0,-99.55472762,45.23108736
168.6079999,658,-88.39758173,-63.73660858,0,-104.4437328,77.79014037,0,37.07262002,-25.96208941,129.4686135,-31.07094522,104.9570336,-44.78861767,34.65815425,0,159.7084517,12.17950657
168.6159999,658,-0.086411214,93.98950617,0,100.6078807,-90.56650167,0,-52.94631548,46.91925849,11.36547549,41.95914002,145.0648197,30.36771585,25.11488114,0,66.67221909,-77.08044561
168.6239999,658,-120.0285733,-67.15744913,0,-82.59269591,65.88755992,0,65.84907432,43.70800048,-16.49750101,57.43636069,-290.7365416,54.79594028,-148.3126213,0,-60.76389969,103.6946499
168.6319999,658,-6.111791854,50.31410304,0,20.81494075,-31.66395403,0,-33.3478235,-44.4157462,161.5948621,-26.81356418,378.5616833,-43.53993137,153.1946518,0,228.2954303,-92.14185916
168.6399999,658,-80.36424267,14.82306875,0,1.732375461,-59.35457823,0,10.34391659,69.05771782,-94.84172125,106.2261545,-249.9454847,81.61670393,-155.9375146,0,-116.1268156,43.32986213
168.6479999,658,-72.81281818,-43.18581059,0,-99.84994492,46.23646102,0,43.12766468,-52.54034398,116.7393386,-29.32038527,87.85760413,-60.33308337,28.35326988,0,147.8891575,12.18386256
168.6559999,658,14.58132192,113.1635296,0,100.3828079,-134.4778641,0,-48.73984294,15.33951061,18.56513991,52.71724494,155.6458153,44.74766624,16.37855358,0,55.99846577,-69.08664498
168.6639999,658,-160.3564326,-109.1259358,0,-147.1698387,9.942949609,0,69.82527211,13.62502096,-19.65462236,60.38210652,-286.8652971,38.87638917,-164.0379941,0,-76.71434301,108.1266535
168.6719999,658,-32.61260903,18.04737035,0,-12.99165149,-84.80100304,0,-31.94394673,-82.10949092,129.6484906,-46.19873193,364.8970671,-109.5080497,135.4192873,0,227.901619,-107.9427798
168.6799999,658,-64.14529328,30.45640632,0,24.94400923,-99.30609593,0,0.276996585,31.36715202,-97.48487767,94.56513588,-253.1962935,74.70317126,-172.8116604,0,-122.0399584,29.11315164
168.6879999,658,-74.37450094,-45.10939785,0,-108.3400201,21.69275093,0,29.00267588,-77.78559252,136.5696822,-32.1242136,85.38817063,-50.04088405,12.18198405,0,130.7248636,5.467607039
168.6959999,658,53.99767858,148.6056017,0,142.1573124,-138.5082605,0,-74.19245963,-7.987879101,30.55029425,44.52050525,158.1624133,43.16917254,3.749855548,0,43.11182523,-88.16202582
168.7039999,659,-114.203968,-59.94035632,0,-81.69038543,30.56351128,0,41.56202134,2.297333637,11.77542466,66.5024213,-274.6450918,94.32821557,-178.5574467,0,-109.509215,106.9716022
168.7119999,659,-49.73545261,6.397535673,0,-23.01656616,-58.30376605,0,-43.67981829,-77.52552548,146.3032169,-36.95424337,393.2337944,-89.27013583,137.5084577,0,203.817312,-97.35433765
168.7199999,659,-65.5404236,25.51820542,0,25.36196921,-76.11038753,0,-8.850102553,35.3829526,-122.8473764,97.30426878,-228.7974913,52.52182853,-159.7490967,0,-128.0545334,24.26190418
168.7279999,659,-95.70297682,-73.61518029,0,-120.3265306,48.63907503,0,21.89980561,-78.14369586,125.5138303,-30.16434023,100.5424059,-41.87546561,24.14555646,0,114.010056,3.247125911
168.7359999,659,-4.97795396,88.18000026,0,92.7738565,-122.6236231,0,-68.91299635,-5.196370878,3.892586113,32.32672281,172.1295213,5.204289697,28.86279827,0,37.08767106,-97.22590684
168.7439999,659,-98.30607885,-44.01899585,0,-53.70512538,44.83361253,0,47.63754518,14.16156495,-34.33268659,56.14660313,-284.2327421,57.34634172,-157.6082364,0,-111.2702642,96.0545834
168.7519999,659,-4.842976369,46.36120844,0,37.53460552,-36.05416167,0,-45.29883975,-60.70024618,171.6319423,-32.13875033,402.9948994,-42.30264925,151.0109806,0,185.9846995,-83.66821652
168.7599999,659,-76.60620615,13.10931052,0,27.77390774,-63.76004656,0,-5.233631521,52.80590812,-76.626555,97.18007371,-205.4181969,76.65171822,-145.8503973,0,-150.4536213,46.92590137
168.7679999,659,-101.5452662,-77.28138354,0,-119.2971167,61.91966162,0,33.27829789,-71.07856922,129.7451256,-37.32673495,104.3379669,-63.03386851,35.97268453,0,102.3076948,17.01046233
168.7759999,659,12.30669033,99.03036741,0,105.295502,-100.7647951,0,-63.55974049,-10.93102714,18.21344963,32.73999489,193.936097,20.32816204,43.5899424,0,33.59382926,-89.21633604
168.7839999,659,-92.78266482,-46.90937093,0,-57.06844513,75.99481622,0,52.79900549,5.138372629,-12.78300868,53.56927904,-269.9655524,68.46724117,-145.3857319,0,-115.7712508,97.34136346
168.7919999,659,-14.65641374,38.7505646,0,28.89322832,6.010851761,0,-38.76412887,-77.42380422,170.0485026,-45.60146162,410.5722206,-54.97276264,165.6848792,0,186.836474,-91.21092677
168.7999999,659,-71.82824349,18.55080385,0,37.65915888,-22.4192855,0,-5.904639197,38.66957671,-99.11375578,90.28922398,-188.9512099,91.58945819,-137.0310202,0,-156.8509695,45.31771317
168.8079999,659,-72.73894728,-57.62746288,0,-91.80528154,106.5912364,0,37.61823949,-67.42673661,114.9883505,-42.69121005,117.1582534,-47.20529255,37.27619727,0,89.14117956,31.06286341
168.8159999,659,-17.12684516,71.13937832,0,80.30047939,-68.48742767,0,-44.58704012,6.251735047,16.1262023,24.75442238,221.515938,10.76724415,57.02757858,0,33.47275351,-70.00892965
168.8239999,659,-157.8059501,-105.2712307,0,-121.6627526,75.39214283,0,73.77800359,17.56071708,-54.74587183,46.39877263,-261.1996981,37.89171951,-138.3019741,0,-108.5509775,105.5267442
168.8319999,659,-4.212936569,46.51925335,0,28.1178673,-5.324446832,0,-30.09017876,-77.33971522,120.1459626,-60.39462587,406.388878,-83.19555678,162.8641412,0,197.7278425,-102.7119078
168.8399999,659,-36.43723883,60.47360747,0,81.02366406,-27.01111519,0,-2.346290249,48.03355901,-98.9562442,88.0201641,-179.0465307,113.3959828,-138.2520972,0,-152.8196618,40.81080631
168.8479999,659,-76.21730759,-49.36958793,0,-82.40771149,99.64300611,0,38.794188,-51.34222402,134.4812425,-30.12267553,125.2260675,-0.428290645,31.53195609,0,87.26689381,46.98175734
168.8559999,659,-3.636724233,90.71081087,0,88.92503205,-84.78789256,0,-56.70974538,14.40720363,29.75346719,24.37150569,229.3720719,39.14835774,47.19493363,0,29.84331925,-61.70492325
168.8639999,659,-136.3689126,-78.05039924,0,-105.0536211,60.0781516,0,63.73326777,25.17741616,-39.90766817,42.90138445,-262.9277621,71.02269073,-156.7093201,0,-125.6324165,113.2901032
168.8719999,659,7.033936848,60.29636823,0,35.24957201,-16.67395564,0,-28.83226971,-69.66228475,141.7114561,-57.70505367,414.0963267,-46.08354271,149.9243899,0,187.9427772,-89.60611274
168.8799999,659,-1.585314388,98.92393207,0,114.2336725,-37.9585295,0,-0.592027681,57.34860513,-67.88999906,91.57225991,-163.8015521,148.9051114,-144.2011882,0,-163.3125876,50.08225805
168.8879999,659,-74.04049044,-43.34152217,0,-73.17093001,94.22576756,0,49.96825671,-43.59790428,165.0850031,-19.96810973,138.0421001,37.88427119,23.92221523,0,67.35452046,64.21341932
168.8959999,659,-48.29821369,50.75662046,0,62.22910225,-91.40861808,0,-35.88414345,9.998853072,23.06685758,33.65363931,250.7761632,26.3720498,46.10743294,0,31.79526871,-52.73390676
168.9039999,659,-161.9024765,-97.16313703,0,-107.3610884,52.25059109,0,80.55058049,14.83036851,-81.56612214,46.93705911,-265.1016364,21.72931268,-161.4050521,0,-111.4360538,114.1851247
168.9119999,659,-27.9317011,23.22836233,0,4.94510018,-26.66220628,0,-15.98438764,-79.96912873,112.4281386,-55.97791659,410.0534678,-81.92442931,144.5517359,0,203.4755989,-83.91903448
168.9199999,659,-72.79903929,27.96369711,0,35.71532556,-63.64909504,0,9.253626212,41.15194879,-102.5924823,84.99986786,-168.1837922,90.66937849,-151.6456173,0,-141.2035471,34.45864807
168.9279999,659,-110.0641021,-74.14703439,0,-112.7307395,60.39500622,0,51.45398702,-71.14863091,101.2259762,-36.65749749,107.0867455,-39.92156861,9.263456225,0,97.30853688,25.63883714
168.9359999,659,-23.90308048,73.29603673,0,83.89871164,-122.2910951,0,-46.85889966,-15.54642688,-16.97316917,22.27488784,235.0312006,6.858583957,32.47935667,0,54.39912152,-79.54743277
168.9439999,659,-129.7058523,-67.27576983,0,-76.66425668,28.8053716,0,65.66325491,6.726297772,-75.86973928,49.5488019,-273.3381396,58.28826699,-178.6508464,0,-114.0047318,118.4817448
168.9519999,659,13.51497498,64.11093758,0,48.34084077,-47.85111759,0,-34.48885616,-82.18454365,131.1684288,-52.82556453,401.4532114,-45.93753925,133.1307211,0,193.8795473,-65.95284714
168.9599999,660,-27.8841376,71.96885552,0,88.24277031,-85.88571517,0,-14.01479058,46.62854959,-88.1238401,90.39385484,-168.6929895,133.1602541,-158.4334003,0,-162.2535401,64.19525258
168.9679999,660,-69.57321378,-33.472026,0,-71.58465942,60.76026982,0,33.78106293,-53.68445438,122.6121984,-25.74759657,102.6807162,4.041175533,6.557799039,0,69.04925519,76.64345926
168.9759999,660,49.66139073,142.5927983,0,143.2032042,-96.8376494,0,-68.14925442,-2.396590955,33.59951966,36.96562614,244.1072449,59.48407951,43.75540482,0,29.8198851,-28.08306275
168.9839999,660,-104.8911802,-46.69021185,0,-71.49819709,61.37095852,0,49.50596178,21.25126923,-23.64112643,68.06981016,-257.6639964,107.5459919,-165.2619311,0,-148.5639276,166.7563587
168.9919999,660,-53.1389527,-2.783181175,0,-42.13720203,-18.8715663,0,-31.59779918,-68.70165724,128.1607604,-45.54576721,411.571787,-72.29870797,157.9663279,0,186.3488499,-29.30689641
168.9999999,660,-52.57544773,41.29425938,0,38.26197494,-68.97404971,0,-11.33145252,44.42267294,-144.4380859,86.10783683,-185.6256387,59.3643151,-128.6978716,0,-136.0860768,73.01186399
169.0079999,660,-57.17300884,-28.99577841,0,-75.19395095,69.03601984,0,32.92680261,-55.11857301,86.40789167,-31.30001307,66.85376495,-27.99723971,23.66734682,0,88.50402605,78.20471729
169.0159999,660,-2.828408349,86.88304061,0,80.2673435,-108.0321229,0,-65.17504854,4.716794443,12.97539681,27.14796103,219.0694708,34.57877888,60.97707329,0,49.47946994,-31.32177067
169.0239999,660,-102.0124459,-49.4654482,0,-78.9721971,41.09076493,0,48.14101319,19.08334157,-68.52268718,52.96649647,-305.4671372,56.8599666,-160.3250754,0,-128.3156547,145.3810373
169.0319999,660,36.18293228,82.73202374,0,46.41073415,-13.45590543,0,-38.07003995,-76.16633747,151.7641843,-47.97140153,384.9443232,-43.50003921,155.3386189,0,185.7058927,-43.5351475
169.0399999,660,-35.94673847,60.9121286,0,53.78622615,-51.77735563,0,-13.38544036,42.57510258,-79.92824602,103.0144895,-166.8902836,132.7664944,-123.5794376,0,-153.4035126,79.64486269
169.0479999,660,-60.58662618,-32.02666996,0,-92.84227231,84.51317014,0,31.30900999,-66.73344342,98.56070924,-17.1718199,79.25363528,-11.82719948,26.59550619,0,74.14236862,79.60842734
169.0559999,660,32.23947057,123.9679079,0,113.4084008,-82.18973467,0,-70.33656606,-14.84684822,27.21533849,39.85865322,240.7504874,53.39367161,68.1704593,0,38.97266636,-34.58800412
169.0639999,660,-128.5588836,-69.51509384,0,-92.00564279,70.56300853,0,51.30135061,3.275745435,-51.42942196,71.71230565,-289.8805916,85.69121748,-151.4560929,0,-140.72181,155.9438229
169.0719999,660,-18.471882,34.2881406,0,7.073199227,0.313287647,0,-33.64179737,-97.24198432,134.150974,-42.13510576,383.3419126,-64.12545932,163.5809977,0,189.8815972,-40.8926324
169.0799999,660,-72.15735926,34.11001232,0,50.16374698,-50.65075149,0,-13.12931433,22.25636488,-110.9577693,97.48755617,-179.8554984,90.3498287,-121.369746,0,-143.6990007,68.99961307
169.0879999,660,-140.0792044,-107.0007325,0,-143.6073646,94.14859092,0,43.11576928,-87.33668057,68.49960886,-28.21798806,47.96451839,-52.22744952,18.0401027,0,78.96824742,68.63666899
169.0959999,660,-26.83306832,66.42701077,0,64.36677509,-71.84465185,0,-56.27556519,-42.42479025,-18.04591164,14.84031221,213.1920793,-14.53405036,65.47533153,0,60.65826729,-64.14514606
169.1039999,660,-129.8181326,-61.53343332,0,-74.01907086,76.83905934,0,61.00464133,-10.04206695,-90.59697512,51.50257807,-315.2233838,35.14743653,-154.100398,0,-119.4155818,129.0587271
169.1119999,660,-35.97957862,21.98238279,0,3.10102328,10.80221358,0,-24.57249285,-94.17920441,130.3838115,-46.79896185,374.2916495,-67.88130701,156.4674858,0,201.5339347,-43.51045731
169.1199999,660,-68.65645818,36.10779058,0,49.89656998,-48.72193535,0,-10.87486375,27.12089665,-111.2307703,89.89448782,-184.1236266,76.62565701,-132.2115959,0,-135.6149849,64.27444133
169.1279999,660,-81.75880459,-45.27472615,0,-80.19506038,90.49195924,0,41.43038911,-77.11200909,86.1469815,-29.73123396,40.79188141,-37.39629345,5.282132706,0,76.47825632,71.64896669
169.1359999,660,-8.550466262,89.22836123,0,90.8183433,-84.48691919,0,-60.66125901,-23.97225295,26.2151931,29.35135154,234.3893537,42.32599459,57.16479751,0,50.52863557,-40.11602611
169.1439999,660,-150.6551297,-85.12641668,0,-99.64384992,50.71729859,0,52.9147005,3.43372805,-80.72958038,53.48838487,-307.6683276,46.7773072,-170.0730378,0,-133.7178795,144.3825908
169.1519999,660,-3.036311757,50.88541912,0,30.73879575,2.413948348,0,-32.0384725,-87.82277845,127.099624,-57.58830209,374.216121,-64.38741386,147.1365149,0,192.6594317,-36.75607136
169.1599999,660,-68.69657976,36.19248182,0,46.38134592,-41.7415947,0,-4.921111763,41.0577282,-99.45336011,92.37768512,-163.4199694,105.831934,-124.3976329,0,-140.6513532,111.2753051
169.1679999,660,-138.677505,-108.0115427,0,-140.7413162,87.85847491,0,52.7504599,-67.30095173,70.54112391,-33.66897027,45.10779178,-54.10492787,12.78049073,0,81.15793677,137.2670019
169.1759999,660,9.412951736,97.63073933,0,119.7962819,-87.68250731,0,-62.51315094,-20.64317903,10.34628602,8.180385501,229.9893804,10.35270934,61.2414302,0,62.76677189,-15.42373783
169.1839999,660,-119.7136133,-56.00626008,0,-56.31795667,58.59448552,0,55.3039501,19.60523367,-51.2588606,48.13528721,-304.8431155,65.19704749,-171.6455181,0,-139.614266,172.0077461
169.1919999,660,-34.10632736,16.71946237,0,-0.694523,4.697187194,0,-23.03673891,-70.34374143,154.0155152,-53.39739488,380.4157311,-57.63802287,145.2067181,0,191.5297559,-7.297551265
169.1999999,660,-63.12573218,36.19191813,0,56.85419479,-49.01390976,0,-7.988370842,53.3606059,-109.0495168,82.9374371,-172.9056844,71.9312773,-130.3644921,0,-129.8456451,80.77295203
169.2079999,660,-86.37552227,-52.83397194,0,-77.81884012,95.68023314,0,45.49424025,-53.64717493,80.74631688,-34.73155681,36.56866314,-51.29279732,2.073025508,0,81.30295801,101.6689424
169.2159999,661,34.57297984,128.4613553,0,151.6892876,-69.61987679,0,-68.80967561,-7.171075478,50.00958588,29.68097435,251.6331135,61.54422162,57.38977957,0,57.68452818,-5.49204897
169.2239999,661,-101.2972938,-39.68326676,0,-37.86233646,74.96879834,0,47.79101232,30.79937192,-37.85543715,64.93732045,-300.1648295,90.22141157,-177.166871,0,-148.1311646,192.2738042
169.2319999,661,4.32394812,51.24914282,0,38.73140275,21.54504763,0,-29.32167967,-69.09739127,170.9997683,-44.52644988,387.2406193,-43.96427227,148.3184867,0,181.8331921,14.75247674
169.2399999,661,-52.33165393,48.29851131,0,77.78516332,-40.20283021,0,-15.09597849,49.47791881,-62.94908381,107.7931475,-140.6299365,130.4175408,-121.8188437,0,-152.4179288,119.3658841
169.2479999,661,-123.267681,-91.99395019,0,-117.5833081,96.14854413,0,45.92816257,-56.09765574,90.48325599,-21.09783904,44.67777419,-45.15609638,4.201211223,0,59.14474206,128.5974428
169.2559999,661,9.690676145,97.92208877,0,109.3731993,-73.40824461,0,-62.19749548,-13.33161909,23.93846481,21.59104417,247.2008672,11.19372701,68.05809718,0,55.72748216,-8.491212715
169.2639999,661,-114.7169038,-56.10676549,0,-60.63250245,72.32384674,0,52.237156,20.80159604,-49.52621748,68.02143774,-307.4003106,81.15896227,-172.52872,0,-158.624709,182.9632653
169.2719999,661,-42.69678641,1.619054208,0,-14.59803952,16.78921516,0,-24.7740796,-81.9193265,152.0298579,-48.33468898,372.5630075,-83.10122729,146.0852074,0,177.7290631,0.218680131
169.2799999,661,-46.99797469,49.97318829,0,77.10639185,-41.08550556,0,-17.9231501,36.63433178,-101.6036366,93.00521538,-165.1811485,81.5584926,-125.225102,0,-142.9401055,102.3324247
169.2879999,661,-54.35791872,-26.67458604,0,-50.04623003,124.1017084,0,41.89201773,-66.35787698,96.12449026,-14.99064531,30.08572345,-5.821414098,-6.910238406,0,51.31134186,134.9779549
169.2959999,661,21.61980977,112.9611494,0,126.1348378,-37.52558913,0,-57.95943192,-21.42214441,62.30122767,39.55684864,274.6721669,59.85719936,68.10343274,0,49.52582702,21.3128922
169.3039999,661,-127.7753251,-63.99915614,0,-62.6733161,94.73142016,0,55.42002517,13.88279381,-52.58200278,76.8366401,-288.4165127,82.80255419,-170.199304,0,-149.9607518,219.6691571
169.3119999,661,-27.33456234,15.64666634,0,3.684934564,40.74227777,0,-20.54639939,-89.96247506,149.9845688,-47.08761861,389.0063513,-78.43254102,142.9517554,0,187.7604131,33.10208308
169.3199999,661,-72.27201094,28.24941543,0,54.15920159,-22.95025708,0,-5.270761594,35.85255476,-79.73466954,95.74646105,-132.6061581,84.27138313,-123.2538661,0,-136.8948919,129.2010298
169.3279999,661,-97.76953648,-61.40706598,0,-83.35859814,128.0607971,0,52.51070969,-63.22608907,80.76212852,-17.74096885,37.60894945,-45.74296824,-4.554794584,0,66.30411573,147.4694981
169.3359999,661,12.89423996,107.3786119,0,117.7523585,-40.47926323,0,-58.01556433,-25.53176063,39.38539924,31.20869264,280.0628455,22.78572528,65.69739545,0,68.32331468,9.639374279
169.3439999,661,-153.0664798,-84.84981314,0,-92.55962349,92.57304069,0,58.9007724,10.06247596,-48.84449204,74.78313003,-288.8022321,75.53255199,-181.7179394,0,-149.6612783,199.2359878
169.3519999,661,-52.76053578,-4.582687784,0,-19.56742495,43.03927781,0,-14.39370978,-94.30978692,132.4095408,-49.55292931,377.4474807,-92.1991793,134.5515212,0,193.3443281,8.95883037
169.3599999,661,-78.67626796,17.33451096,0,49.1701925,-22.98950473,0,-7.592507273,26.56423895,-110.8318861,90.44728582,-139.9835947,78.24370296,-131.3232578,0,-127.7110256,101.6571117
169.3679999,661,-142.5369805,-118.744362,0,-135.3817494,121.486968,0,53.06157527,-82.8432081,63.47286596,-34.18309268,20.55590712,-70.4705693,-16.07866083,0,70.11538236,123.5312734
169.3759999,661,-19.75759391,60.30832569,0,76.11898135,-53.98952282,0,-60.47003267,-56.01302628,9.035108446,0.35562055,259.6963131,-30.28265453,66.37250828,0,88.03033035,-18.5383958
169.3839999,661,-130.0715425,-75.03671151,0,-75.56386366,84.0571017,0,46.45754792,-13.23653341,-67.02284982,53.08857585,-315.7704753,64.20376196,-180.8799504,0,-133.8501421,180.652942
169.3919999,661,-37.42782856,-0.746313626,0,-12.85965968,37.09393027,0,-28.16783374,-113.5114919,149.9954081,-61.53505218,359.0670154,-86.20512062,136.936675,0,202.4290606,2.860961206
169.3999999,661,-69.20771808,16.89958744,0,55.88392252,-40.518616,0,-27.65475759,4.90673202,-99.04442166,80.27682105,-158.4820499,71.67315472,-128.2097377,0,-125.4284527,87.58712513
169.4079999,661,-150.8011868,-130.9249978,0,-137.7105472,115.2032649,0,37.77892359,-93.80126517,72.34570285,-41.43903522,-13.15185414,-69.46088249,-23.41239516,0,56.72335169,108.0492962
169.4159999,661,-59.30597907,24.71800627,0,42.75832374,-53.69921271,0,-62.30762259,-60.59267107,-0.962447602,-7.838502952,237.6503911,-53.10592696,61.93373546,0,85.76315178,-38.05391425
169.4239999,661,-141.3705492,-83.73490911,0,-85.9275101,67.63176403,0,43.19054959,-21.7328483,-111.9670533,42.05343689,-347.4706127,24.23658039,-192.6745215,0,-132.3010066,148.4525379
169.4319999,661,-35.55296376,3.644849958,0,-11.5557341,25.77714249,0,-36.45600954,-120.2624131,131.3920863,-78.86149963,334.4569095,-103.4560635,120.1857021,0,197.0657111,-28.18867466
169.4399999,661,-70.64004632,25.74440756,0,59.61689981,-35.03318451,0,-34.37112197,4.772908887,-99.04236631,68.48030336,-158.6243973,75.8654569,-135.431452,0,-127.852487,75.60354663
169.4479999,661,-102.7067551,-78.7225564,0,-92.36108892,130.8299085,0,28.13387365,-91.72069881,79.84472892,-41.72174746,-13.31320711,-36.35156084,-27.21781258,0,49.78086524,113.3690635
169.4559999,661,1.220672996,83.43933437,0,93.91490227,-27.88123364,0,-79.63536125,-51.03673989,55.28605511,-0.508506939,257.6083626,9.49778985,62.75902476,0,66.67855909,-25.16684216
169.4639999,661,-142.4908987,-79.48802385,0,-87.88696191,99.81582356,0,32.90134677,-2.295947177,-60.37171803,56.96825419,-334.3590498,63.27633918,-191.1710422,0,-157.854959,172.7761447
169.4719999,662,-37.20537177,2.320287526,0,-7.127048885,51.26055014,0,-42.20164093,-105.1173466,135.0473105,-72.87121187,330.5966931,-108.6833483,130.5682524,0,187.929853,-13.26336378
169.4799999,662,-25.54016886,67.36293928,0,124.9054215,-19.32506442,0,-47.50231849,24.89594422,-90.96515937,75.43087465,-155.688365,96.51401044,-124.1679645,0,-136.103099,75.83820055
169.4879999,662,-60.01426218,-33.0360318,0,-19.29953399,144.8535408,0,19.8777039,-59.59917294,115.4656435,-17.79808669,-11.34421208,19.42133955,-22.18054451,0,30.91197044,127.5422486
169.4959999,662,32.21905793,116.7963611,0,148.0411333,-29.30128107,0,-83.40021421,-20.07507587,84.1480609,22.39800077,272.1746428,51.26748873,83.56248454,0,55.19992528,-2.359954894
169.5039999,662,-90.12473541,-24.98245108,0,-26.76511068,91.07760532,0,26.20060719,31.63585045,-55.8247883,78.29572993,-320.2807431,114.85455,-173.3600177,0,-177.9942115,196.8771418
169.5119999,662,-1.901421428,46.30934136,0,11.30611135,57.86553664,0,-39.37652477,-71.32146862,144.955019,-47.14898418,352.0501556,-61.51394693,142.6952682,0,170.0844955,13.31507815
169.5199999,662,-63.01274669,43.55021049,0,51.07775665,-16.25995101,0,-32.67812667,46.43156655,-93.53147055,95.5001648,-129.6129318,99.934928,-103.7368482,0,-141.4831673,94.32517322
169.5279999,662,-122.3949982,-87.42992653,0,-121.0875816,134.0304121,0,32.63786714,-53.6501563,59.00419575,-18.13342995,-13.71123152,-17.05921166,-7.543302305,0,34.71491501,125.945857
169.5359999,662,-16.47122418,64.31567068,0,70.87513162,-44.34428701,0,-73.52624404,-27.90958117,9.258912717,-0.831082544,263.5973404,-24.41125113,92.9472105,0,82.33571666,-36.27108955
169.5439999,662,-137.8895544,-83.40949872,0,-77.3124846,77.8957798,0,41.82789588,17.78890488,-103.1678454,52.77985818,-338.9157504,52.91583307,-168.9594236,0,-151.2420881,157.2470492
169.5519999,662,-26.80282375,13.50990173,0,-3.245384112,39.87473513,0,-27.94902388,-83.79989889,125.7595688,-69.945408,329.2952274,-86.80151518,146.4452801,0,190.6615223,-8.441353884
169.5599999,662,-64.48615648,36.20718579,0,55.60435956,-48.22425698,0,-32.57207796,45.69093239,-107.3256151,74.04030321,-147.8166113,78.95995076,-107.5215591,0,-123.5707172,79.92929865
169.5679999,662,-137.2725348,-109.6347582,0,-134.0984896,98.57487694,0,34.08353867,-48.66817271,53.23104387,-36.91456173,-39.51272945,-34.27326176,-22.15801099,0,38.88375471,121.3121655
169.5759999,662,0.086825882,84.2935025,0,92.71706782,-75.44562971,0,-74.02482836,-24.88839775,7.805543546,-13.3880403,250.223276,-33.61931726,85.74469072,0,86.83776853,-31.15299477
169.5839999,662,-84.54812845,-24.64581153,0,-26.68287256,61.39899179,0,34.1230557,26.36182137,-102.0108956,62.28499838,-346.0925514,74.22484782,-179.091211,0,-157.2836979,180.7422606
169.5919999,662,-8.795683732,22.16221989,0,-6.038476537,33.36025544,0,-37.82610782,-79.34379042,158.5426942,-59.00282974,343.0454172,-54.89937466,134.6783845,0,170.446235,22.27880963
169.5999999,662,-61.41643311,30.02585329,0,40.37634212,-58.4209654,0,-40.54197213,46.9499415,-76.92962733,71.88982203,-116.7705811,75.74059966,-113.1516129,0,-139.8849854,93.25920096
169.6079999,662,-117.3359943,-92.45809497,0,-125.2751935,102.9115324,0,30.81273839,-41.15543196,54.40122294,-36.12536884,-19.94482227,-51.02628522,-27.02172461,0,29.32019943,132.6536378
169.6159999,662,0.309680658,84.85291398,0,91.81223877,-58.87862407,0,-80.88221963,-17.17546497,17.78745186,-14.46139929,284.1659367,-36.96885638,87.66972831,0,82.28065833,-19.02740551
169.6239999,662,-148.0330483,-80.78902829,0,-73.91410411,70.95312733,0,32.43396168,32.00417076,-103.6976848,53.42017483,-322.8593554,64.94611121,-178.950242,0,-162.9171011,183.4521544
169.6319999,662,-63.02041539,-28.50931846,0,-39.60381923,39.36498413,0,-28.33029944,-83.34169695,108.4071246,-79.11719537,336.8023259,-100.1693866,137.7934805,0,179.8785867,10.52990506
169.6399999,662,-36.5845504,55.25072538,0,90.09459553,-47.07233272,0,-31.82435231,41.45516147,-119.3965783,56.62683391,-122.7150496,57.20554515,-103.4771544,0,-129.2283801,84.76433113
169.6479999,662,-94.15343064,-66.03148331,0,-74.45142802,118.3906268,0,42.71706081,-33.55094883,67.19306994,-26.49948517,-13.31648888,-2.428676502,-20.56036812,0,19.92376198,154.2474046
169.6559999,662,-9.999588315,67.17192027,0,90.22508012,-66.46052516,0,-69.52042848,-5.062975731,31.8846845,-3.579543727,302.9715027,-19.55210635,93.18515817,0,77.44783156,7.22930195
169.6639999,662,-161.8036887,-109.2324015,0,-101.0638691,40.99026823,0,40.98565056,49.65519903,-117.1867544,47.72978744,-325.1000475,27.48882954,-182.301872,0,-167.9476933,195.3879958
169.6719999,662,-75.59575526,-49.29263148,0,-69.1354304,18.51536594,0,-20.15615793,-52.82840485,104.8795801,-87.47224905,326.7744781,-131.3946542,137.192246,0,177.2935794,22.13596635
169.6799999,662,-34.23931077,51.7407945,0,71.85632685,-62.44580816,0,-35.71599084,76.59173881,-119.4366543,53.06244116,-130.6555336,36.55320147,-99.15839256,0,-126.1428249,91.96700724
169.6879999,662,-98.86284992,-78.65201794,0,-109.9272725,105.0534176,0,33.45140209,-8.805939685,65.0323331,-34.08778313,-38.63678058,-21.44073357,-21.73199232,0,11.35712905,144.2313745
169.6959999,662,-44.6994154,34.07648808,0,32.79497989,-73.32831261,0,-72.51067251,7.078711548,27.95856201,-16.0347297,287.1181483,-45.80234603,101.7341754,0,72.7794245,-17.84796855
169.7039999,662,-136.4521069,-73.52711057,0,-74.38760347,44.75181344,0,34.20161038,58.36523564,-135.5689272,45.50737282,-336.4375073,22.63328403,-175.4395151,0,-167.9963553,176.0033204
169.7119999,662,8.633775219,43.45620295,0,38.07967404,40.53618157,0,-34.1408805,-46.15076948,122.927627,-69.84783188,340.7817638,-61.31024762,141.3452194,0,168.9339282,25.36189378
169.7199999,662,-21.90512251,76.291933,0,127.2274162,-42.99607356,0,-47.99561549,75.42985657,-79.37352759,77.05802665,-89.24560588,109.8543634,-89.84999526,0,-141.3779248,113.0449459
169.7279999,663,-104.3982687,-73.05145116,0,-59.07337482,124.8629123,0,24.19118473,-10.05394908,65.74012815,-20.50646309,-14.20189522,1.607857328,-20.18407241,0,1.629524778,180.1935729
169.7359999,663,4.064869897,84.7672616,0,135.7085648,-38.64919946,0,-79.77296458,24.26597688,31.90279802,-2.343379922,321.2610762,4.832942707,109.6688352,0,71.77386957,38.64020959
169.7439999,663,-95.94821829,-32.14794764,0,12.35167461,74.97233203,0,29.61082025,89.4847014,-96.36392256,67.91052351,-300.9177986,105.4651376,-161.9043237,0,-182.8039577,248.6216409
169.7519999,663,16.22363675,56.89982692,0,78.84326234,61.89906963,0,-35.69915764,-10.0993323,165.0476929,-53.09654495,366.3440444,-11.62705444,151.476875,0,150.8740318,95.87551734
169.7599999,663,-45.99103205,56.98142349,0,115.0958566,-32.38021697,0,-39.68165345,120.7700393,-75.03733631,82.78228955,-71.15614531,107.9475355,-78.18507461,0,-147.9312541,169.9395379
169.7679999,663,-129.1748044,-101.0713192,0,-94.8978307,124.3243227,0,39.05950509,31.61488116,51.53090823,-24.26732694,-27.39021549,-23.25331671,-12.33462357,0,-5.150570553,222.3930099
169.7759999,663,10.24406411,84.22854789,0,109.7254188,-36.52921588,0,-72.34950833,53.41610796,48.5760345,-10.2586088,301.7724881,-11.01089857,114.0270881,0,59.80031516,62.43024512
169.7839999,663,-126.6785199,-74.27122839,0,-73.02401916,74.58877549,0,38.45903401,105.6072142,-87.58072215,53.50292506,-331.7104924,54.80207707,-162.3371601,0,-201.1446573,254.7028896
169.7919999,663,-26.9606505,-2.093320268,0,-30.80291733,48.98472755,0,-26.14794544,-24.51082544,145.2919073,-83.55355921,320.8327864,-99.84113423,151.6342848,0,138.2416203,71.22058699
169.7999999,663,-30.47759371,63.04450825,0,76.05253603,-47.7850115,0,-39.240165,82.53168344,-75.50983634,61.76620646,-108.7354962,74.61686856,-82.08465335,0,-162.8664571,117.2653864
169.8079999,663,-125.6278174,-101.5993351,0,-136.4471712,108.1625919,0,42.87341592,-19.54399298,62.58445399,-31.13951575,-54.14655913,-27.53491498,-19.6545924,0,-21.20012944,160.9245662
169.8159999,663,10.40428368,88.86519888,0,87.81871021,-68.37710873,0,-73.42308695,-15.74584819,45.20173889,-20.04421992,299.1621921,-21.22800588,119.6646844,0,57.30848688,-18.02210947
169.8239999,663,-101.7766211,-36.54561732,0,-26.81720317,44.90138075,0,29.66280552,39.47856295,-89.54695936,60.38039626,-327.6677633,88.29767549,-160.4344407,0,-209.5656974,176.1443856
169.8319999,663,-32.00134883,1.846644627,0,-1.415442068,46.27519048,0,-26.58616676,-73.50330101,159.995059,-62.59318517,340.6229004,-49.69086081,154.2823804,0,131.8870805,24.32800517
169.8399999,663,-52.84016446,51.4259814,0,88.74451241,-37.35255275,0,-35.38172955,46.26364767,-67.30948418,75.19894623,-71.11359192,92.90396064,-68.76936351,0,-157.2263704,92.27296811
169.8479999,663,-137.8431014,-103.6144909,0,-105.6187775,120.6605423,0,45.94603566,-42.87961857,56.64261801,-19.74323913,-31.47220375,-23.34252529,-14.54063479,0,-13.73777256,158.7111457
169.8559999,663,-10.63842826,71.28993396,0,103.8314684,-57.22045093,0,-66.94533761,-23.62787665,46.10922562,-5.603540774,323.4554512,-5.567411025,123.3741746,0,71.71279438,5.490182589
169.8639999,663,-134.3827956,-62.77439662,0,-37.82848439,49.44925231,0,44.95233183,43.43217401,-104.8155171,67.78837673,-314.8739129,82.85871871,-155.593947,0,-186.8290655,210.7279641
169.8719999,663,-53.83276974,-16.75394604,0,-16.74899253,41.02497329,0,-9.961971995,-71.13497281,123.8880993,-65.76643505,345.700559,-73.34830191,156.084128,0,163.8655728,50.06902197
169.8799999,663,-57.87626513,41.28909047,0,79.26250018,-60.34614231,0,-24.44042904,50.3251418,-104.5212953,70.46736753,-60.11097237,85.20981538,-69.58796318,0,-128.1411015,107.798783
169.8879999,663,-139.7924001,-114.2860657,0,-116.3489894,95.16817228,0,61.23057742,-31.74949198,25.83451244,-30.03665576,-34.5195498,-44.8255891,-18.75876526,0,6.513631923,174.672372
169.8959999,663,-17.22513648,56.5631044,0,92.52420534,-71.58338676,0,-48.33338072,-12.69160327,29.60426257,-25.53466397,325.4710489,-43.73176593,122.0847533,0,91.71960926,16.18698864
169.9039999,663,-143.7685835,-74.65866666,0,-51.33448353,35.99707308,0,60.970143,54.46677217,-110.7226387,52.50975798,-323.2477922,63.26171124,-163.455886,0,-179.3753801,223.7944222
169.9119999,663,-78.35711495,-45.43062858,0,-51.06127393,17.70297711,0,3.416640558,-67.2230391,122.7412847,-85.55502328,319.7257512,-113.4266692,144.1901269,0,168.248298,58.80657266
169.9199999,663,-65.36582625,32.15546257,0,66.05392682,-94.11019429,0,-18.52942317,46.02643173,-112.0363927,44.43681479,-89.73913111,26.89012283,-83.4837506,0,-121.4166659,93.42719791
169.9279999,663,-87.98878695,-53.5909586,0,-64.24680344,69.35921688,0,55.94343667,-36.21898697,48.27639533,-33.84950422,-61.70545317,-23.16283827,-42.25178959,0,-5.989785534,161.8441894
169.9359999,663,26.01007495,108.6223187,0,137.5625939,-94.74016726,0,-65.06630861,-22.52054255,96.92242942,-13.65176006,331.4769235,22.6146585,98.56213295,0,63.12673927,9.638616638
169.9439999,663,-150.5525295,-73.7004816,0,-53.756122,10.5025248,0,49.53905746,42.74487505,-64.47644461,62.38432109,-314.4427992,92.27165405,-188.6320113,0,-214.6293969,206.5633738
169.9519999,663,-57.10862264,-15.73530583,0,-21.95048016,13.19324766,0,7.486900666,-74.60312796,143.9228072,-71.70352489,322.7731694,-95.5146852,131.4497291,0,145.9563584,39.97687783
169.9599999,663,-33.8285575,69.54918366,0,108.0070135,-79.21435004,0,-12.98625085,43.10175437,-72.85406624,70.07621635,-73.27255337,69.70062536,-82.60854774,0,-139.927198,89.51544363
169.9679999,663,-123.0811769,-87.54393937,0,-97.77497776,94.68588755,0,67.17535593,-41.94917775,72.32688911,-14.11714868,-59.4548367,-2.887118387,-44.57156595,0,-26.99553658,164.0267432
169.9759999,663,-9.588885133,70.2999451,0,101.1386739,-64.81892441,0,-44.58714971,-37.10128437,67.77360827,-15.82265964,327.2163041,-27.345276,109.1522695,0,75.75657114,-7.694007444
169.9839999,664,-143.5006463,-61.77317543,0,-21.79856715,42.25925392,0,61.03373971,33.6792917,-97.31389609,66.08960054,-320.3089514,77.78449412,-176.736221,0,-196.8834767,193.4814456
169.9919999,664,-95.52020023,-37.85263527,0,0.549082943,38.65317099,0,3.569042829,-78.02294626,133.8865767,-59.02453098,326.0001759,-41.93841391,131.6210061,0,143.773752,51.18742207
169.9999999,664,-170.7876601,-40.9592207,0,74.1518047,-81.90014217,0,-19.16567572,40.12839825,-115.0808888,65.40892798,-68.84052218,71.99014538,-85.52048904,0,-141.8355874,98.18642145
170.0079999,664,-325.1597461,-239.9138645,0,-135.6628549,71.45495137,0,64.65004483,-40.97994935,-26.22438476,-40.6510274,-90.88356526,-72.58296793,-51.91953318,0,-25.30380237,161.5957966
170.0159999,664,-246.5708661,-86.98577306,0,101.5002832,-97.66502538,0,-60.373431,-39.32401439,-54.13696756,-56.66354793,279.7515257,-86.18354584,99.50675278,0,70.70760779,-14.94450127
170.0239999,664,-411.605843,-238.4543387,0,-4.432695853,7.335667691,0,33.5706654,34.7308868,-212.9597987,17.62999441,-389.3651603,54.52734818,-197.4367037,0,-232.6199601,191.904339
170.0319999,664,-384.4164911,-238.176215,0,3.512919865,13.8366203,0,-17.0842792,-64.60191124,24.99349372,-121.4203713,237.5512286,-102.4503537,113.2209636,0,97.81169245,57.09017852
170.0399999,664,-442.5249015,-234.0845695,0,72.99763957,-104.6624402,0,-36.15555779,62.47563903,-236.7516535,1.020143726,-162.1595793,-6.11431277,-95.16317162,0,-183.5393097,106.255788
170.0479999,664,-529.7664807,-390.6230043,0,-128.575745,58.75102762,0,50.50906776,-14.00141135,-135.9966319,-88.36356418,-196.6348633,-95.28480012,-67.52862606,0,-79.03178991,181.2046306
170.0559999,664,-356.7106456,-169.787574,0,114.5910852,-87.08611009,0,-66.99008615,-11.38294208,-109.4599903,-88.50257827,200.3105161,-93.54428588,96.75216001,0,23.95570426,13.53237507
170.0639999,664,-446.7360317,-269.7148592,0,-9.869279622,27.36561097,0,36.53097636,55.47473631,-238.4653119,2.075280845,-449.1217227,26.89144271,-189.6798535,0,-267.7940238,218.3806173
170.0719999,664,-381.7267179,-244.9271441,0,-35.1203467,33.39188255,0,-4.378896232,-63.00939196,14.4594034,-127.285993,187.8961373,-110.3658114,119.8706526,0,72.53155071,73.12716098
170.0799999,664,-397.8130635,-197.7071108,0,43.8514932,-84.22987259,0,-19.73036154,53.77971164,-223.4070334,1.810617543,-188.5816969,14.95179184,-87.54967083,0,-196.0868907,110.1558931
170.0879999,664,-443.9962155,-325.7321811,0,-146.4566586,66.00805926,0,73.34911023,-26.50801152,-117.4806068,-90.49931483,-222.1202725,-112.542628,-63.84183239,0,-75.26498444,173.3181104
170.0959999,664,-272.8670207,-118.7312153,0,78.95324067,-109.0923975,0,-41.57998256,-32.41349446,-78.38071274,-93.58144531,189.8102528,-113.6567437,99.01681321,0,45.62327431,-6.441695978
170.1039999,664,-389.2480049,-238.3791618,0,-59.48442892,-11.58330218,0,59.90292917,33.42724286,-218.2770676,2.920269599,-457.3186974,35.08515734,-198.2887612,0,-245.4780438,199.0548676
170.1119999,664,-295.6021736,-190.3563655,0,-66.06021344,-12.10297614,0,15.61501766,-92.93530119,2.068629798,-137.963544,173.815478,-150.5579946,105.9021345,0,107.0079582,44.16619819
170.1199999,664,-246.4839092,-82.49138248,0,70.67171241,-133.2251019,0,-14.30398342,14.03107211,-192.7719283,-0.772218852,-180.8863121,10.53017057,-101.1544157,0,-165.9720345,75.47527633
170.1279999,664,-299.2485853,-206.4581616,0,-112.3739599,34.07453582,0,69.29271588,-63.02844894,-29.55727273,-68.05350792,-195.7144162,-38.85995372,-80.74291661,0,-77.24823948,160.7644109
170.1359999,664,-167.3947154,-39.13004007,0,70.47835209,-128.0185385,0,-46.87771155,-66.13467702,0.41991128,-72.64212763,242.3286236,-77.34836636,96.01339718,0,39.84222367,-16.23611222
170.1439999,664,-296.312223,-174.7784326,0,-75.6920675,-35.27004448,0,56.9071885,6.476209774,-159.4169705,19.70409533,-404.5793405,25.10860373,-197.0093763,0,-247.4018088,179.5628671
170.1519999,664,-206.8533574,-130.5849745,0,-69.09356947,-31.55540669,0,18.39127135,-105.8110647,58.72617772,-118.2997347,218.7907306,-162.8264688,112.5454507,0,110.2519578,27.88953736
170.1599999,664,-157.7425737,-26.49029764,0,79.62796837,-140.6397573,0,-12.87148216,17.51388424,-140.7768328,23.06127414,-125.9689624,16.53876185,-77.0655156,0,-161.6270487,62.51885693
170.1679999,664,-235.9913745,-174.936613,0,-121.8952334,31.12581861,0,72.15716148,-50.06871854,9.390232301,-49.10182471,-153.5139736,-31.63598775,-61.86220643,0,-78.99528095,151.4025183
170.1759999,664,-114.2682303,-13.89874046,0,51.8194396,-137.5140902,0,-38.67981455,-51.75257851,14.57716339,-65.15140092,274.5629819,-98.36771446,107.660161,0,54.33417809,-26.86809006
170.1839999,664,-195.9446957,-103.4912064,0,-38.77740059,-31.56073435,0,62.37894413,25.54544449,-136.5694465,35.71148914,-385.354392,47.48454923,-188.8642736,0,-238.3926895,179.7394021
170.1919999,664,-107.414044,-57.8222399,0,-27.51372253,-1.763945227,0,18.79367038,-86.97381468,128.8917156,-93.15824734,243.5100584,-88.71382037,118.162627,0,102.4137943,48.48010391
170.1999999,664,-105.737977,6.546341158,0,73.34924757,-119.1297802,0,-12.80476851,28.00592651,-105.9476335,34.61420297,-95.09096483,18.18824025,-73.44788603,0,-157.4614918,79.59983881
170.2079999,664,-143.911154,-102.321197,0,-83.34347868,54.43683428,0,65.4735339,-49.39875688,14.10017222,-40.05848297,-147.9629343,-34.47870359,-65.66763456,0,-79.63416768,160.7668379
170.2159999,664,19.45286876,101.8908783,0,136.5197167,-94.15734328,0,-58.61980871,-47.46057015,89.218785,-33.43849356,303.7305424,-3.270571206,112.894645,0,32.56006868,-11.53304439
170.2239999,664,-127.2492095,-45.98386298,0,-21.38478826,-9.189719377,0,43.99449786,40.11018811,-63.09990036,71.43230095,-337.705033,109.3718371,-176.3659925,0,-265.0238953,193.3523356
170.2319999,664,-63.08409423,-26.9511795,0,-38.92057573,-3.509319361,0,4.646281273,-79.9791249,157.8816926,-70.50881336,278.2966423,-77.78914274,131.630782,0,82.86020185,47.72699076
170.2399999,665,-44.09897361,57.13395922,0,79.57170835,-124.4946349,0,-25.12133879,35.13291295,-65.73198278,61.96745309,-55.87435605,57.64830589,-55.25061302,0,-176.6291978,77.9144379
170.2479999,665,-111.982732,-76.68113493,0,-100.6196522,37.42397077,0,65.16517085,-34.05508227,45.42097063,-16.11014335,-119.9750692,-20.37930119,-49.03300161,0,-94.31179575,169.2247817
170.2559999,665,48.14264397,117.2422001,0,123.4128667,-116.0772168,0,-58.91382858,-45.4465142,91.19164463,-27.02032575,328.4624055,-20.14683594,130.7610442,0,32.73413988,-6.981250093
170.2639999,665,-103.8495488,-37.55350973,0,-38.87327758,-21.36079867,0,38.40449885,32.72234184,-68.17946701,72.8082892,-321.9263367,102.9167882,-166.6210487,0,-270.8676512,195.6186403
170.2719999,665,-58.04886422,-33.62525606,0,-71.0179096,-15.02302619,0,4.423177008,-83.2328322,143.2480981,-77.91895879,275.6423165,-100.7324342,133.2949249,0,79.15087013,45.07412941
170.2799999,665,-33.8199317,50.22152871,0,63.08655389,-140.8066877,0,-23.46536177,30.44065177,-89.15108659,49.29584899,-65.82507974,26.79028483,-52.85515776,0,-170.5523635,63.5793167
170.2879999,665,-122.3033057,-104.6194497,0,-133.7423228,30.64152447,0,71.6694081,-41.01477528,36.71841178,-20.54466447,-143.4630824,-30.47975886,-53.34251233,0,-95.48836138,155.1913719
170.2959999,665,31.70090592,90.5698413,0,83.14706108,-128.1536579,0,-45.3396392,-52.74019119,77.23496024,-36.78938106,306.2751285,-53.4321833,127.0563886,0,42.55835942,-29.73394632
170.3039999,665,-53.68273718,-1.393683219,0,-14.68957336,-38.87643718,0,47.95701746,28.84607475,-82.80496986,64.73218086,-351.1480505,80.34906457,-173.0327938,0,-263.3881839,168.7619627
170.3119999,665,13.20308109,18.75228646,0,-26.493425,-9.235411797,0,7.745471887,-79.48079029,198.851632,-66.47835302,260.8878308,-42.94133226,123.4857337,0,60.77118743,35.51708647
170.3199999,665,-30.13329602,45.66343079,0,52.29415034,-135.183913,0,-19.06861183,37.62800891,-17.70742592,62.77066781,-54.88207519,61.47143982,-54.6189071,0,-188.1269604,59.52144659
170.3279999,665,-126.9163121,-113.1975648,0,-144.7258269,25.18003765,0,79.18200869,-33.24543263,41.46465999,-16.52877547,-154.7879436,-65.32937685,-50.34235078,0,-95.01290885,146.2306177
170.3359999,665,29.84823291,81.85504803,0,73.26597774,-123.9946167,0,-35.51644184,-39.40329026,76.85100855,-28.00931948,299.1240537,-63.74028048,137.3552552,0,51.54844724,-37.87288894
170.3439999,665,-94.82017814,-42.88114481,0,-51.22136641,-31.74056361,0,60.08043833,38.54792935,-93.65770611,73.77233834,-360.4348561,64.66276319,-164.020101,0,-248.7489335,160.7177822
170.3519999,665,7.608484295,15.58751991,0,-19.11666412,-1.438106669,0,11.60263054,-88.52614638,163.4680024,-72.79317141,231.2161154,-83.88603468,128.7690977,0,84.79956085,22.60981598
170.3599999,665,7.567566469,84.07178709,0,93.49471579,-122.7980258,0,-23.80078047,31.69524213,-25.61904724,59.66880112,-66.43447262,78.71307087,-53.61826279,0,-178.8121608,50.92444255
170.3679999,665,-117.0889125,-102.7334617,0,-142.0080876,37.46957563,0,79.61641257,-26.97498274,42.47031368,-6.639131029,-154.8663303,-20.43075322,-59.64255921,0,-103.5690671,151.6863734
170.3759999,665,54.15670135,103.8607641,0,85.99122162,-121.2953909,0,-41.83646262,-41.88476141,77.01596484,-21.83064964,313.7219009,-52.33420854,133.0299563,0,51.6801939,-36.28211897
170.3839999,665,-57.54729374,-3.667433253,0,-20.10522628,-38.33992869,0,53.7671474,42.07510894,-82.87932476,84.59014562,-333.3863847,88.8755943,-168.3114545,0,-253.8191298,159.5964469
170.3919999,665,4.545356692,22.0284863,0,-22.01310745,-8.632513704,0,26.5981055,-72.23484054,163.1006783,-49.05279659,266.2576876,-49.21001369,129.1845014,0,87.35717907,29.48480455
170.3999999,665,52.7307029,132.7504561,0,140.4200943,-121.3581219,0,-15.33626586,40.96013623,-29.61042776,84.45007039,-24.93090484,106.7317848,-45.37505901,0,-163.5130779,51.80604042
170.4079999,665,-38.10338485,-26.63905781,0,-62.17757682,62.67329399,0,75.95632031,-20.83755046,84.05085358,16.44730859,-123.8206767,50.36814218,-59.79138251,0,-114.8785347,158.4290633
170.4159999,665,76.33440747,123.2502115,0,107.3719806,-91.98168982,0,-39.74875349,-35.53201931,126.7219244,-5.245065196,340.9297355,6.125945494,137.4151435,0,32.44157965,-20.35762269
170.4239999,665,-62.01038294,-16.09149499,0,-27.36473365,-19.53205812,0,51.02390247,42.23430441,-77.52665527,88.89556972,-335.7783778,93.66240414,-170.0514717,0,-274.4015992,170.8350984
170.4319999,665,8.020071839,15.1050542,0,-26.25105626,20.1618654,0,17.01374106,-74.86492158,155.4928318,-54.38918671,242.9537713,-52.8946442,118.4097111,0,62.02845104,40.03534965
170.4399999,665,51.42404502,124.6529644,0,130.1341665,-94.7506327,0,-21.61083733,47.10895651,-46.56021819,79.84700171,-38.28990357,92.06612423,-47.78214253,0,-177.5737693,65.34866841
170.4479999,665,-58.66770075,-56.53892638,0,-96.36789114,77.00518047,0,75.5790086,-4.706277063,60.24231438,17.28137655,-135.6478073,24.81592158,-63.17660097,0,-125.9800289,174.6962208
170.4559999,665,92.79536552,132.8151866,0,105.7552393,-76.38475252,0,-46.33661266,-18.14670197,119.8496899,-5.020097916,352.6046977,-4.912436059,134.6016229,0,27.4417986,-10.75230443
170.4639999,665,-21.51799788,26.16443673,0,-3.857184011,-6.93497497,0,41.35066646,58.88899234,-62.86893874,94.72625239,-315.5291297,104.9021979,-174.0309996,0,-283.2941992,182.0328069
170.4719999,665,3.849981548,9.295967137,0,-51.57579855,16.67639839,0,13.51225907,-66.49469265,185.5645348,-48.4705417,258.3554339,-49.30471192,112.9081422,0,48.77337549,53.99526629
170.4799999,665,44.02306949,110.4539347,0,96.19884561,-116.8318366,0,-31.53381339,43.60466847,-28.89018469,77.74890661,-21.78629227,83.01867691,-54.40369996,0,-187.111865,66.53534733
170.4879999,665,-48.79095021,-52.37508412,0,-117.030136,49.66672256,0,60.20250999,-21.80101431,59.97228936,5.665544551,-144.5330533,8.970427485,-74.91620815,0,-137.9025217,166.0282537
170.4959999,666,91.38134112,131.4788907,0,90.68966278,-99.68133969,0,-60.39553479,-45.16256588,120.3502653,-22.59169449,339.8545452,-23.00781701,127.1039796,0,17.05787364,-30.86118255
170.5039999,666,-34.96094071,14.14870167,0,-10.7141151,-18.91599419,0,31.00489252,44.81602588,-75.53683362,89.50527833,-325.9718005,103.8337058,-180.6228531,0,-298.4126444,166.6052889
170.5119999,666,-22.01689689,-20.92722797,0,-74.23568944,14.26035818,0,10.92321547,-64.60580299,155.4095068,-57.02779612,243.3693483,-68.67098812,116.3444211,0,43.05837278,45.97109743
170.5199999,666,55.60317658,120.0336351,0,120.9517211,-119.478225,0,-37.0380593,55.06448465,-57.03172222,65.28877736,-31.36377944,68.01024511,-41.52253286,0,-184.8271729,47.14883459
170.5279999,666,7.005340251,-0.203377326,0,-40.40931585,64.80131043,0,52.21803039,7.109767668,65.53774683,19.28944064,-155.1604568,55.5127289,-70.15547588,0,-153.6064327,163.1228721
170.5359999,666,98.85360056,127.3053682,0,105.992564,-69.6145078,0,-61.29547871,-4.54753303,158.0631944,0.257135285,343.342804,24.94429176,137.1431992,0,-0.23845942,-12.49252568
170.5439999,666,-47.02292856,-12.06815096,0,-19.28994269,1.537913178,0,28.62631704,73.73698272,-70.98783319,95.23399146,-334.5758879,94.10242738,-174.3700365,0,-306.2748827,173.854544
170.5519999,666,10.8677365,-0.723019207,0,-39.76736084,37.40999191,0,3.649852178,-60.12758624,146.6573506,-59.518222,221.1184372,-79.84109415,109.1554764,0,33.68315671,42.99302609
170.5599999,666,54.94083085,114.0602652,0,120.7790215,-90.65272079,0,-37.83409867,47.805717,-34.44841211,74.08932055,-32.18288772,97.79854904,-49.98136432,0,-202.4449108,50.79923826
170.5679999,666,-53.26796162,-64.14696225,0,-101.607348,68.38321086,0,60.33873208,-12.91068868,49.78006305,17.52681452,-164.0081624,20.87249938,-81.72828425,0,-156.2228897,162.5682264
170.5759999,666,99.04247608,120.2371745,0,102.0712987,-96.40867301,0,-61.00964773,-41.92075434,106.951494,-26.40197054,331.4264394,-55.13784895,131.3209255,0,21.04302919,-36.54085594
170.5839999,666,22.90561044,55.19263162,0,48.71994876,-16.99706772,0,20.42177443,45.53241332,-57.83239806,90.2716905,-324.2141929,133.8792903,-179.0487606,0,-308.3145222,161.8549435
170.5919999,666,48.87218885,32.21506209,0,-13.14047953,34.73965294,0,-3.777406338,-77.35471203,203.336367,-44.86334192,252.2697661,-6.296229502,101.3858298,0,16.54800352,59.53648289
170.5999999,666,62.37558149,112.9196239,0,114.1748661,-100.3050228,0,-48.13882867,27.71518529,-14.49938994,72.03544098,-0.131637437,87.0042672,-55.60499318,0,-211.9352737,58.70829842
170.6079999,666,-46.18070673,-56.7040085,0,-89.51373172,74.95749595,0,54.78437351,-29.06724122,59.8447358,14.89102345,-148.3017099,25.12801333,-91.99573538,0,-175.8389285,166.7790913
170.6159999,666,95.36810474,116.8231375,0,107.3135513,-72.17279985,0,-61.68426083,-56.68274991,129.5084768,-18.92695005,358.1440049,-24.37343909,126.8142669,0,7.284250807,-19.13778246
170.6239999,666,-2.551170639,24.83228944,0,26.90856395,-8.571314283,0,24.32680587,33.07177977,-66.48142476,90.85986284,-310.6918462,109.1138094,-179.3972122,0,-311.8858355,177.8734189
170.6319999,666,22.69656668,5.942180795,0,-30.97449178,42.23880632,0,12.74430806,-83.57332793,176.5447358,-52.5753134,243.4861804,-51.41412775,103.2724645,0,22.03896964,62.82369928
170.6399999,666,66.45705864,121.6196962,0,124.7414924,-82.98366578,0,-31.31269489,19.27303003,-35.8751273,69.35665446,-2.697063854,68.2030842,-45.13431878,0,-195.3954418,58.13448123
170.6479999,666,-23.82900599,-27.51134683,0,-63.36153584,91.55141868,0,64.7179304,-39.60010681,51.2057653,18.57489161,-156.7462399,33.33912882,-86.06923855,0,-172.3836615,174.5315954
170.6559999,666,104.3713882,134.0400363,0,120.5479875,-60.16334171,0,-56.88027195,-68.24544838,141.5629784,-14.44979752,365.5175501,-3.826529967,129.6874586,0,3.641646815,-11.82657824
170.6639999,666,-12.23299352,21.88379323,0,17.90274352,-2.765410715,0,20.63042126,10.43448581,-65.40446438,91.66510188,-300.5595067,114.0875512,-185.8514108,0,-320.5283238,176.3962951
170.6719999,666,10.48550861,2.286059856,0,-35.86274916,43.21862664,0,5.762064036,-115.8450993,169.4401203,-60.10057958,248.7031538,-53.81336495,90.27878809,0,6.252973637,58.47874305
170.6799999,666,51.66081378,115.6310321,0,122.5349878,-96.48611007,0,-37.62934866,-6.917865329,-41.66934855,62.34614222,19.29711698,70.36994586,-49.72465011,0,-204.0975656,53.10611936
170.6879999,666,-43.67956265,-45.96528858,0,-83.33281185,75.04064346,0,60.43732358,-63.50481886,29.95780385,13.66616668,-146.7539423,28.771628,-94.8629874,0,-178.758752,165.6400963
170.6959999,666,105.4447741,134.5316839,0,115.6927973,-63.32676699,0,-58.03109876,-94.49720077,119.1372826,-24.88964787,373.6984085,-14.36745357,121.3046166,0,3.36083622,-28.33455471
170.7039999,666,22.78829941,62.03983414,0,56.41080955,9.649431565,0,19.63689128,3.750130397,-62.38804679,92.19602783,-286.164759,137.8437876,-192.2122955,0,-324.1647696,165.320228
170.7119999,666,66.80492289,64.14385011,0,26.72698264,79.12680246,0,-0.342359627,-104.6879732,210.3909282,-44.16462981,268.1690538,11.84347404,84.45236149,0,-10.93897085,63.4733831
170.7199999,666,114.3769944,179.9956625,0,186.7167428,-48.94043264,0,-49.99317716,9.989094222,21.82213935,78.86015279,49.41276168,143.8558072,-50.29790421,0,-233.9377436,71.14127697
170.7279999,666,-38.48484064,-38.69965895,0,-80.65519779,117.0652326,0,59.32724486,-31.69962893,80.94361121,24.99016156,-130.6611913,68.35038643,-95.75968907,0,-214.938677,194.6049876
170.7359999,666,52.6944918,86.79875227,0,68.76157556,-34.90040264,0,-44.46890466,-55.45482587,126.5416168,-21.06187063,376.9591317,-28.14811378,131.3614704,0,-11.2596903,-10.86605886
170.7439999,666,-25.22230279,12.88514838,0,13.51584518,13.97367231,0,34.85193627,33.17415074,-109.1675498,88.08265328,-305.5635471,87.35139388,-174.7475084,0,-317.2593779,165.0865879
170.7519999,667,-7.667384286,-23.04894552,0,-68.53791415,54.92247687,0,13.05931452,-92.76738609,136.1956406,-67.20387838,230.7621722,-74.24582495,97.84364419,0,7.922912309,45.27704411
170.7599999,667,32.07643407,92.41683906,0,93.43021429,-83.98069643,0,-39.35417385,12.25767871,-56.43872848,42.97569224,6.417882007,52.83191214,-40.15889551,0,-205.480926,24.33134576
170.7679999,667,-57.59648985,-51.95405489,0,-87.88497516,88.31819159,0,67.8161578,-32.91564815,9.306458463,-2.668786173,-186.9191832,5.443706992,-88.22371964,0,-181.5374771,147.4087864
170.7759999,667,73.89357276,109.8346069,0,87.97052667,-64.08695286,0,-51.53102427,-68.7830594,97.85283433,-41.07685989,345.5916639,-44.22173769,133.6009897,0,10.2835966,-44.09323765
170.7839999,667,2.070302251,41.63498299,0,29.48773557,-8.705267375,0,15.09813537,17.25905874,-94.4353787,73.64911785,-320.9219442,106.2611274,-189.7702974,0,-329.4475775,143.3957039
170.7919999,667,36.75219841,25.36074562,0,-31.44076198,47.58766926,0,1.403187034,-98.91212291,173.0572472,-70.36743289,222.0805981,-53.7029232,83.3943047,0,-7.514260488,47.8475294
170.7999999,667,78.78458041,140.310093,0,134.1845357,-89.28313935,0,-49.96053612,19.00517047,-4.173778964,56.70675929,28.50153794,92.34902229,-43.31918669,0,-215.2750642,52.25652209
170.8079999,667,-27.54559328,-27.09851394,0,-76.04808362,87.72800123,0,50.94455511,-14.10412059,57.16441149,14.71929355,-166.2728922,41.19631942,-96.54700586,0,-206.2884195,197.1320074
170.8159999,667,81.80617409,113.8404619,0,64.41976262,-57.84960429,0,-60.91512497,-39.03531035,130.736391,-32.79136506,364.4909795,-45.72289509,133.7762871,0,-3.768700284,14.73247432
170.8239999,667,-11.2759037,30.53659701,0,-7.227072838,-0.808173549,0,21.77466084,60.80427513,-90.88323976,86.72406012,-309.279208,100.9858337,-182.4337195,0,-326.6257679,199.5286657
170.8319999,667,45.0543094,30.76891193,0,-41.36345588,65.4956367,0,8.068977268,-59.69166618,158.4296386,-58.27143066,213.3057812,-57.47540412,87.78205399,0,-0.070975413,94.42411119
170.8399999,667,86.01119087,142.7580112,0,124.1624975,-75.0079396,0,-49.74284431,39.85869743,-18.37672861,58.75215976,14.22566274,71.48011982,-40.79123625,0,-209.1503141,82.39525641
170.8479999,667,-22.71696447,-25.31551297,0,-71.23533929,101.0715234,0,54.13317949,-5.532969037,41.3986375,21.44321345,-191.4903142,47.46485979,-102.6955325,0,-211.004312,216.3953222
170.8559999,667,131.1681718,157.2137049,0,122.4126083,-25.06435888,0,-61.6344077,-36.62013738,146.6513872,-19.87510107,358.9968106,-4.288788476,135.2166753,0,-12.31780598,30.04394608
170.8639999,667,15.41580004,54.36362864,0,20.06324753,26.5433557,0,20.55556518,60.08652273,-54.77938493,98.46850095,-295.4316514,115.3915638,-173.0938399,0,-339.3807714,220.7473396
170.8719999,667,34.3213031,18.90812556,0,-46.65853572,73.75202036,0,11.3845704,-64.85108916,175.2474445,-50.7036969,227.2180654,-47.35484834,97.16366993,0,-13.06559862,116.1201319
170.8799999,667,113.1324177,164.6915098,0,161.0068731,-70.76375518,0,-50.85022296,44.0936282,-6.314473899,63.84028485,34.21039949,99.338691,-27.90827017,0,-220.3731005,90.78665728
170.8879999,667,-6.339538029,-17.61133762,0,-64.34839224,99.70965653,0,57.4967879,10.80662039,66.38243948,24.11916031,-179.2172902,52.04469365,-91.38926083,0,-227.7255978,223.5467696
170.8959999,667,66.98243431,84.74289938,0,42.38367788,-48.65986639,0,-48.42482647,-28.64300835,148.165968,-30.19935929,370.1521319,-37.88524731,151.019659,0,-14.61111962,26.56262417
170.9039999,667,-33.54408158,2.851613638,0,-29.36434208,-10.68467563,0,30.11921307,62.19842249,-105.2158489,78.11190406,-313.8094757,71.77624557,-169.4452527,0,-332.0084617,194.983
170.9119999,667,25.50434924,9.80633995,0,-64.56656287,46.87088283,0,19.83115124,-60.2611092,146.6083288,-67.9240042,187.8388656,-68.29947902,86.62023588,0,-11.88796405,90.50352571
170.9199999,667,68.45384846,121.172452,0,97.44333569,-97.83056947,0,-33.56859401,50.52595904,-10.89181557,51.79197364,16.89304907,69.26115085,-27.20487825,0,-205.8375011,69.29023128
170.9279999,667,-51.08136184,-56.15337192,0,-90.79991415,76.31737052,0,72.42039043,24.65178941,36.63871025,12.47208237,-202.8351948,23.25215534,-88.69530102,0,-199.8440371,211.1915202
170.9359999,667,37.87033199,61.25871137,0,74.72876519,-58.88750232,0,-47.93941339,-3.971986986,147.9975676,-45.70958669,348.0774941,-29.41974709,150.6630996,0,7.016829561,35.62535
170.9439999,667,-101.2607544,-61.80050383,0,-9.675649582,-26.80896872,0,26.63110388,93.86670104,-77.52832121,59.1934894,-334.2696128,65.79772439,-170.3923734,0,-322.7531189,216.6766201
170.9519999,667,-96.70382975,-106.5655751,0,-67.06907007,26.83611203,0,20.43490618,-35.2632693,147.7106697,-104.5132961,151.699781,-126.9259204,84.94325517,0,-0.542576334,114.7402906
170.9599999,667,-41.25434713,24.41330464,0,117.8647039,-104.6023688,0,-43.19663737,62.01600786,-9.305926482,3.785937364,-27.06785692,32.51401552,-32.96917027,0,-203.8263939,100.8759436
170.9679999,667,-117.1457619,-108.6733255,0,-63.10496864,85.75534377,0,55.31589915,23.19422783,63.2130064,-22.19178365,-255.9966046,32.96687522,-106.1202081,0,-223.8626544,249.9419058
170.9759999,667,-61.27219474,-30.27396209,0,16.80696071,-56.6650721,0,-48.98141729,-20.55925163,149.166279,-81.23679235,313.0092856,-64.74325441,135.7567325,0,-11.2365405,52.5133848
170.9839999,667,-161.6984186,-118.2113276,0,-72.77161445,-28.9306871,0,36.88997363,73.66640571,-121.3870135,23.8771596,-366.0378793,16.4952859,-181.9748128,0,-326.4137895,211.1460309
170.9919999,667,-48.42280745,-63.2078826,0,-57.96095527,44.02162964,0,23.49756094,-54.33588273,125.0080136,-117.6199603,124.8641834,-114.511947,77.51347012,0,-2.099175583,114.8159529
170.9999999,667,-46.7182548,8.332088116,0,66.53081124,-104.5174678,0,-36.11668308,39.8499793,-28.65634852,-3.547308435,-28.56755054,24.92168642,-36.46448772,0,-202.8373561,94.41931413
171.0079999,668,-120.7483595,-118.7116667,0,-99.43353135,58.19651618,0,72.01061092,5.320386656,-18.3864642,-40.83576643,-280.4776424,-30.70785215,-120.0215434,0,-212.8718054,228.0212464
171.0159999,668,68.69419796,92.28142698,0,106.5776602,-73.89604367,0,-49.62864432,-33.64351805,115.9971258,-82.528586,298.2496581,-45.72709981,130.6571425,0,0.845639652,44.67058898
171.0239999,668,-89.76033136,-53.95876407,0,-44.7363991,-39.31205725,0,27.18126705,65.04481071,-67.52343571,47.48724272,-343.7629527,98.43327625,-172.2522957,0,-337.9388767,223.9679214
171.0319999,668,-55.05031682,-74.3631559,0,-99.40768938,26.908579,0,22.79839862,-59.01306185,141.7025754,-103.1154997,142.7655051,-109.2574724,92.26975058,0,-8.142445353,116.0628112
171.0399999,668,-1.567819568,43.1265248,0,76.53463254,-125.4680214,0,-46.83953907,29.69768147,-30.74989076,1.128459337,-11.1906755,10.32543827,-17.79090453,0,-194.5560444,79.30543869
171.0479999,668,-140.3256939,-153.0840855,0,-153.9465322,39.24299586,0,63.93733919,-16.21088386,7.261786851,-41.80150887,-267.7539422,-46.59176607,-107.1828174,0,-212.5514971,207.238155
171.0559999,668,10.66264669,25.0150657,0,35.11401983,-86.59513806,0,-49.91423266,-63.98892689,107.6453547,-99.92155783,295.7018333,-116.1058966,142.219705,0,19.56919557,2.00210565
171.0639999,668,-65.02135313,-34.4368887,0,-14.00155884,-44.16902017,0,15.55752943,36.68663473,-100.6197987,29.50194203,-366.1746907,54.22677472,-170.7926792,0,-319.0114599,181.1276641
171.0719999,668,-49.18992615,-76.52768819,0,-104.9256857,28.85986047,0,13.93612717,-86.53291386,142.7357962,-115.6935221,122.1816061,-107.5707107,79.11213715,0,-12.70442511,96.53562291
171.0799999,668,5.855439137,43.53675356,0,62.68166187,-118.9344525,0,-51.88630477,7.910175027,-28.84095647,-13.08382048,-17.51802765,0.725059318,-31.5258859,0,-199.6628583,60.26982995
171.0879999,668,-56.19491265,-72.83087162,0,-82.58104563,62.25474612,0,55.9329614,-13.62079534,25.77064655,-38.12063668,-271.5768047,-4.310339244,-118.6814416,0,-229.5556223,205.8988024
171.0959999,668,86.87056355,93.8917154,0,98.53110003,-51.16166907,0,-54.93890956,-46.2069143,186.2685624,-77.06131929,325.5071373,-23.48041242,141.0664098,0,-9.366746023,33.55558364
171.1039999,668,-20.4852977,3.727798207,0,27.70272914,-16.98140251,0,12.04439286,56.08926763,-39.63209844,50.55671608,-326.8506304,105.2344709,-169.9503032,0,-344.266587,217.3752826
171.1119999,668,1.559549705,-25.03218931,0,-43.58898811,49.49379326,0,10.72447035,-60.64649052,174.1020914,-93.58071441,152.2889089,-61.23416569,85.11241234,0,-30.77057509,129.2609675
171.1199999,668,5.461876402,50.05527625,0,76.19882089,-115.0049157,0,-50.11333775,41.82940099,3.307705729,12.86276859,25.77894599,44.54637258,-9.26699624,0,-203.2076281,94.16753628
171.1279999,668,-121.0047568,-129.9493964,0,-146.2229251,32.44540243,0,65.02709817,10.54571854,0.987952456,-29.55255984,-259.0429032,-36.05877743,-102.5368301,0,-217.0614348,219.8788201
171.1359999,668,67.53857937,79.2175793,0,65.36003095,-99.09179858,0,-51.4750906,-39.6109335,120.5702665,-83.42462606,318.9959979,-65.02607996,151.6608465,0,11.58748842,9.272128499
171.1439999,668,-38.38107987,-8.373023736,0,1.236376223,-55.51180701,0,16.56410109,65.74379831,-66.70046631,52.88603144,-319.8684789,117.641795,-158.9168329,0,-336.4857963,188.2067433
171.1519999,668,-42.76163816,-66.8159952,0,-97.98611897,25.11554802,0,26.92622625,-52.34712729,156.9642672,-100.6674919,149.0081332,-75.17982047,96.50365999,0,-17.44932949,105.9748412
171.1599999,668,56.45458287,95.72599809,0,112.5760659,-134.0678023,0,-49.84158547,39.05755664,-18.53447896,2.395549583,20.2571136,46.71830454,4.26871346,0,-183.691689,60.78416189
171.1679999,668,-85.59938949,-98.31973222,0,-106.847018,26.82265762,0,51.59648455,10.52136197,35.40735833,-21.06707992,-250.0303189,40.39349062,-95.61336614,0,-232.8168016,200.4759108
171.1759999,668,3.817820183,16.5761749,0,16.417284,-106.5173949,0,-54.09161124,-38.9898796,136.3952526,-87.56255838,336.7130579,-65.61355635,163.7036816,0,2.748930103,-5.053286239
171.1839999,668,-30.16663304,-1.304674446,0,15.35870583,-84.69796529,0,4.498221357,58.37994225,-115.6596105,41.13932972,-323.3804753,64.14242982,-151.6820617,0,-325.8674525,160.0695013
171.1919999,668,-3.58967577,-29.24882035,0,-61.44180711,-5.237551298,0,-0.210270971,-66.71917799,156.0731756,-96.16396495,142.7557249,-52.88927532,94.22732348,0,-32.3901283,83.73125323
171.1999999,668,24.7119163,68.41656628,0,75.24680257,-153.0620209,0,-68.72735657,27.29843308,0.75455166,8.920698489,30.95484567,63.42605156,10.24124397,0,-202.9535694,42.60628167
171.2079999,668,-71.82885806,-83.32418358,0,-103.7980586,22.70490932,0,36.91486324,6.453238877,9.648786642,-14.40518298,-264.202453,32.0493484,-91.26657419,0,-241.99479,185.7770916
171.2159999,668,44.15725994,54.13126037,0,40.25065243,-101.4632746,0,-68.26713336,-38.79614539,137.188248,-76.54424329,323.8291214,-38.92259941,174.0029318,0,-7.927662583,-7.019754118
171.2239999,668,-59.90670535,-29.34755894,0,-26.78858956,-91.34703984,0,1.511515245,62.30981428,-105.4913361,50.20069594,-333.6264385,73.45778043,-136.0825516,0,-332.6589811,156.9697938
171.2319999,668,-26.277677,-54.41528482,0,-91.22323092,-26.50115363,0,-1.320170139,-64.58004476,138.0219346,-94.41644528,109.0580267,-76.13743832,101.2934966,0,-29.97003329,66.36256353
171.2399999,668,50.00170269,87.99363136,0,96.45197271,-182.5675506,0,-74.39804768,35.8877547,8.744090243,18.32216594,11.93129664,73.09282924,17.05606847,0,-202.3566938,27.87061354
171.2479999,668,-82.25678714,-103.0012155,0,-126.2911202,-11.86483166,0,40.36861767,24.29228731,28.31635349,1.126666871,-272.5393445,36.62088371,-86.3952634,0,-243.4431142,184.4740479
171.2559999,668,-12.59031072,-15.91670064,0,-30.66252957,-144.2415838,0,-58.17327415,-23.5055177,120.9591286,-80.8490837,320.942107,-92.26663369,179.6908966,0,7.705587825,-19.51628958
171.2639999,669,-99.02215392,-74.95077414,0,-61.6414529,-140.0549058,0,9.907137771,82.40952022,-143.966266,44.37882498,-333.5229908,28.04866954,-130.0390515,0,-308.132515,135.358446
171.2719999,669,-54.81488348,-89.93742672,0,-113.0133141,-72.0622891,0,8.606919898,-46.25890394,97.15207738,-99.02522485,104.4341443,-113.6416652,101.9748649,0,2.181964126,35.75364346
171.2799999,669,8.881223677,40.99267367,0,60.77973463,-238.2756756,0,-65.66580448,39.11078725,-37.63147839,-6.449987635,7.008250833,4.105158185,12.26179596,0,-162.4411914,-31.60006986
171.2879999,669,-76.34553659,-97.03374639,0,-104.0142844,-70.65722455,0,43.2804934,19.92941239,1.118674768,-16.53160147,-292.8076037,10.29059764,-97.64015523,0,-215.9107182,120.7399694
171.2959999,669,64.35518728,58.00721095,0,55.7616004,-179.9404186,0,-65.34744297,-30.11090492,155.9665484,-75.56008825,315.0597075,-45.27343601,173.5182247,0,22.63969104,-70.16616245
171.3039999,669,-18.329151,0.018474632,0,10.73531159,-154.6863149,0,-4.630560465,83.07188211,-79.40136438,56.49806993,-321.4257245,97.47712126,-142.7352163,0,-319.4275941,101.9194455
171.3119999,669,16.74897604,-24.42096463,0,-51.78817771,-65.70872559,0,-3.645499023,-30.47999146,152.7819151,-84.93115118,120.2309979,-46.75259257,86.44289126,0,-26.10290057,31.37035403
171.3199999,669,75.89043286,105.501619,0,121.2124479,-216.2042562,0,-77.17820444,64.14233353,10.98960515,16.43320835,44.49188241,68.91364599,17.79140726,0,-183.4412425,-15.94477068
171.3279999,669,-49.14519194,-68.51704892,0,-87.72824179,-47.14619802,0,29.92437099,49.61415934,29.51547904,5.504508879,-260.8458845,61.61013073,-92.36686778,0,-243.2677802,143.7165718
171.3359999,669,56.76349346,53.50226921,0,34.38726,-164.236317,0,-74.81753465,-0.665993998,157.0021282,-72.14487362,331.8610529,-48.26543241,177.3761295,0,2.862036161,-57.35851317
171.3439999,669,-48.92881959,-27.3513313,0,-32.53097409,-150.3024722,0,-6.518317307,103.7763959,-97.2042779,55.19219639,-324.8678697,61.43377836,-129.8382637,0,-325.739304,101.7296324
171.3519999,669,-14.37180653,-56.49403842,0,-94.3848042,-60.96839657,0,-3.282801541,-24.11898387,132.7957062,-85.5260396,92.79847583,-73.49214659,99.16867643,0,-30.61359794,24.72652483
171.3599999,669,77.31948716,105.0646704,0,115.4797496,-203.1688347,0,-78.4596969,59.80291896,-8.778470393,10.82001804,11.97116363,44.18455308,26.7687858,0,-188.2168263,-31.39957664
171.3679999,669,-44.77320325,-64.99491186,0,-84.88207526,-25.43273416,0,32.78070968,34.03668107,14.63227685,3.852780766,-304.1253072,52.45889814,-91.05139538,0,-255.9659822,133.3283454
171.3759999,669,60.6492513,61.4255332,0,48.58405701,-139.4714547,0,-73.26366293,-29.68269062,157.9728718,-69.64594908,301.3590138,-29.92777245,178.4515617,0,-4.48741625,-61.80955258
171.3839999,669,-10.55754974,17.37949359,0,27.2776086,-122.2536959,0,-14.15604626,74.93327014,-93.94515874,67.5484501,-342.0466445,95.8760036,-134.7329117,0,-334.2054366,99.89933772
171.3919999,669,-7.464262537,-48.582712,0,-67.82701893,-29.26606882,0,-10.70921052,-50.67251611,143.7750921,-71.94216035,78.84863919,-49.77137368,89.50871281,0,-46.27428965,33.24721861
171.3999999,669,22.27511119,54.80701682,0,79.90100532,-190.5129883,0,-80.20561563,31.93839399,-15.21796941,10.09530357,6.762704315,29.00364981,21.11372222,0,-190.6668713,-25.1830239
171.4079999,669,-77.20280319,-95.74251882,0,-104.6307198,-29.04081031,0,31.59656975,10.09251725,-41.72726387,-3.684258086,-331.1660474,5.3983251,-103.9233046,0,-247.1778123,124.6715947
171.4159999,669,74.59509978,64.79847442,0,65.05773605,-136.0352737,0,-82.99711201,-50.6085387,116.2558437,-79.86101518,276.211301,-58.72662344,163.6493477,0,-1.441367905,-78.7841187
171.4239999,669,12.93853823,37.10386511,0,51.50302715,-114.6873488,0,-26.93799113,66.82967658,-90.2204986,61.13995475,-349.6224257,111.8600063,-148.9596424,0,-351.2054692,94.47782533
171.4319999,669,15.63621642,-24.73174714,0,-58.88936579,-19.38795426,0,-15.14394433,-41.83796035,153.0473202,-72.42194757,75.83724691,-37.75985374,81.38037611,0,-64.15068542,35.61676687
171.4399999,669,50.85312164,74.74366063,0,84.63006615,-177.7537265,0,-87.60149565,45.05683872,1.144886212,13.67116046,18.38615547,26.22154214,23.13619478,0,-202.4624273,-33.03456907
171.4479999,669,-62.96664399,-88.51505706,0,-111.4466049,-21.43199341,0,21.43357292,19.21675367,-9.377919212,1.642455309,-322.4638575,7.819406514,-107.1968856,0,-271.3851856,118.5119095
171.4559999,669,58.20788868,46.21150851,0,22.12289639,-142.2786458,0,-85.730336,-51.79514624,135.4117001,-85.29189711,290.9005049,-90.45097274,165.5247327,0,-10.32362278,-88.42544687
171.4639999,669,-11.55664077,7.64335565,0,5.704197935,-130.8509362,0,-27.82020402,52.90582425,-101.2903201,50.95295661,-339.7399368,59.49615222,-146.3409898,0,-342.7733798,67.21205137
171.4719999,669,21.60629373,-20.73275453,0,-61.89835442,-29.89805163,0,-21.33565857,-71.28670355,150.3491795,-78.95548233,76.76269365,-43.53772224,75.02373314,0,-64.57431931,6.007623289
171.4799999,669,71.27886495,99.85558428,0,91.06504788,-182.2934744,0,-97.09641345,12.8523156,18.95312079,9.791828579,42.87897264,51.70422413,20.14916347,0,-208.0813404,-51.48462884
171.4879999,669,-49.37134571,-76.62265503,0,-124.9473361,-19.24322311,0,15.58542552,2.606324871,-7.67234322,5.330484732,-299.1684119,15.12404682,-111.933544,0,-275.6546558,107.1814121
171.4959999,669,113.6845481,72.71590978,0,35.69435846,-130.6613061,0,-95.44502507,-56.88329312,138.8488813,-74.2547614,318.0820514,-67.35414864,167.2615189,0,-15.23883431,-101.9056357
171.5039999,669,64.99211902,-4.372932385,0,-10.10316966,-119.1722739,0,-32.9156763,56.849714,-96.52613737,60.92279199,-310.8281792,82.8763383,-139.802002,0,-354.6994502,61.94284766
171.5119999,669,116.7312773,-78.44936346,0,-126.7895296,-26.46476641,0,-9.338411951,-66.65270698,106.1193086,-85.91524961,78.50052241,-109.0313047,78.96715264,0,-53.95756078,1.950093731
