Time:125Hz,Epoch,FP1,FP2,C3,C4,P7,P8,O1,O2,F7,F8,F3,F4,T7,T8,P3,P4
123.9199999,484,349.4611431,364.8624248,102.0795326,-63.88774367,-287.6126292,198.0295637,-934.1317675,-417.5917148,-137.7961354,115.7437649,16.27264506,53.31902335,0,299.8046315,19.06655763,683.3774211
123.9279999,484,-173.2044049,-313.2566857,76.22849427,-145.9941264,300.053777,-100.2027449,463.876834,-7.517956469,18.1360652,101.6213019,290.6953788,174.7235034,0,-152.0002661,-516.7150437,-787.0677219
123.9359999,484,-97.39353717,125.045906,-270.2339513,303.8837711,-220.4315287,69.8469546,398.5080957,671.128562,165.9953424,-215.2784705,-374.6876964,-334.2732383,0,3.44201956,1009.928841,787.9651754
123.9439999,484,300.520838,96.53971951,314.9663698,-319.5089893,15.21929615,114.6974599,-903.2681847,-800.1044145,-219.3599229,306.3176845,436.9705668,370.2587256,0,194.2654696,-886.2552775,-288.2675744
123.9519999,484,-421.8458292,-321.5405481,-278.1435241,263.7920257,149.1186364,-143.3282833,1293.964699,894.2023015,237.8358128,-226.7143963,-199.6420059,-251.5283629,0,-265.7792221,669.4187711,-134.6735813
123.9599999,484,351.5813923,373.24944,106.3298702,-44.2334361,-289.7074104,215.7733626,-925.7545246,-440.9689664,-127.169764,120.6918321,42.45110951,76.19130226,0,326.5818685,62.52016786,694.2940588
123.9679999,484,-188.6112704,-333.6070772,61.11907233,-139.2897326,297.4351567,-119.714092,465.2017901,-98.07301687,0.636096468,86.8515443,286.8451932,171.8422849,0,-147.0404024,-481.3496627,-771.3963773
123.9759999,484,-94.23809843,132.0003495,-267.8536442,317.777966,-198.2957676,68.49413746,428.3448488,571.4408008,154.9630077,-241.205634,-392.3365655,-342.6394966,0,-3.706249662,1063.778221,800.8368114
123.9839999,484,324.6160768,134.6435282,348.7672576,-308.6992319,61.61579057,141.7477913,-914.0327186,-907.8001131,-208.5694861,318.8198696,456.8798178,401.7488584,0,210.6756368,-863.6627928,-270.3781112
123.9919999,484,-453.9495263,-343.4523399,-280.2421212,267.0767246,202.189829,-160.3864564,1303.151812,842.0695178,235.9005256,-223.4740369,-196.983944,-245.8952482,0,-273.6665445,647.6479382,-155.2127559
123.9999999,484,332.1104611,362.2653427,98.50232704,-35.4589622,-248.0744399,214.2910848,-906.6950777,-400.7439129,-140.715375,97.43105321,10.51125236,46.69463214,0,304.4952936,57.44663628,684.5927931
124.0079999,484,-181.7717588,-336.2381439,77.9891064,-143.5036734,329.7580891,-108.9455092,449.4784675,-19.02919252,-12.33921317,85.26080709,287.0945362,169.628496,0,-151.7937361,-519.2169506,-799.3589165
124.0159999,484,-129.3970842,80.49065162,-292.7039671,308.519936,-193.2747374,39.58704573,457.1155724,708.6489771,140.2658085,-255.7694395,-409.7663634,-371.3862688,0,-18.55860441,1051.738638,770.8409782
124.0239999,484,329.7277055,125.6923221,335.0508717,-332.6553699,38.94187353,141.7160025,-923.5863218,-810.8026238,-235.6898248,298.2845546,426.8753438,362.7018066,0,195.9337288,-861.4820423,-269.4164674
124.0319999,484,-445.8452511,-351.8955097,-278.9396492,244.2589243,177.6726881,-164.3421367,1296.863505,879.5231537,215.743522,-224.942023,-201.3191938,-251.144765,0,-280.5525998,633.9762224,-171.2334341
124.0399999,484,312.6531799,331.4613774,72.43801311,-45.97369074,-289.0560872,183.6432908,-890.4653538,-398.6105578,-157.8219314,86.63644419,-11.45313981,26.93053997,0,304.0102657,79.57453024,703.0043438
124.0479999,484,-149.4307641,-317.9444239,83.04304077,-167.4339574,305.1629665,-92.42595099,416.6288536,-97.95267281,-27.70704157,89.75086721,288.6448039,166.3942701,0,-149.0005223,-528.4654981,-790.5487147
124.0559999,484,-140.5226039,56.1917236,-317.1910044,304.4315009,-205.3729978,21.9655882,463.4557808,650.2671483,133.0808394,-256.3361805,-406.2142983,-369.8500765,0,-22.28129532,1037.3626,753.1779207
124.0639999,484,259.5248694,41.13292009,248.5616242,-343.4767554,-1.074227405,53.40704839,-907.7805727,-843.074045,-277.4652174,240.812156,367.5182273,307.1361371,0,170.6492395,-860.5397083,-270.3421007
124.0719999,484,-444.7963424,-365.1092593,-324.3127009,199.3127925,156.9546292,-190.2324714,1304.65568,846.5821039,178.4646085,-285.9525993,-245.8551046,-297.2282036,0,-330.849001,629.3122341,-205.0439482
124.0799999,484,371.4854296,385.448691,83.43082723,-75.30284176,-279.4144147,214.9345305,-903.8799693,-423.9718092,-148.1011763,90.80100644,23.04682234,62.78179902,0,284.7857395,65.721163,663.4056383
124.0879999,484,-128.6964706,-302.2195728,95.87696765,-185.704057,325.9165259,-102.0310474,378.9717632,-149.4370133,-19.37182676,109.6657624,332.2119989,217.419329,0,-140.6377116,-586.179943,-833.1007373
124.0959999,484,-121.4495172,85.5630059,-292.957853,294.99384,-173.6475297,27.27317725,455.8123462,614.708567,142.9083337,-254.0428181,-393.4089824,-351.7056942,0,-22.05074698,1001.731439,725.8336476
124.1039999,484,313.4990444,112.8140976,312.5470954,-334.2042658,38.47188008,106.5200179,-962.9255002,-884.4640304,-247.6145757,293.2109515,423.346621,364.8249192,0,199.0346833,-911.1925115,-275.6177974
124.1119999,484,-448.3581094,-357.834079,-284.0516778,220.0933905,196.5846836,-169.0386822,1264.939343,842.5225941,204.5110522,-238.6854272,-205.811634,-256.7928583,0,-304.9424557,559.3108213,-228.0189351
124.1199999,484,327.6227819,355.1790039,80.30594576,-49.96557307,-268.25373,209.7033186,-909.6251911,-349.3750185,-147.107483,79.07142488,-14.99251609,24.73732745,0,274.9362032,38.55189487,671.8631503
124.1279999,484,-174.6525502,-343.5528616,80.4139932,-175.3319072,313.4850803,-122.2295728,356.7754693,-62.94300433,-36.28435249,93.80104242,289.6166034,173.8911566,0,-160.1803167,-621.5954103,-833.4660418
124.1359999,484,-179.0249156,31.24889667,-334.4184715,296.1682087,-201.6169165,-8.650767143,476.7166111,722.8093318,121.2909625,-290.9714183,-457.6359313,-412.6761934,0,-47.78236091,1002.187462,718.6827821
124.1439999,484,297.5166072,91.71653899,284.3481956,-341.4272928,-0.02375059,90.96012187,-967.0870691,-820.9510449,-274.1764513,261.0604974,367.0262007,311.54298,0,191.2319487,-907.3870886,-254.6868149
124.1519999,484,-458.494791,-381.4142872,-305.9424604,209.7297423,157.797582,-196.314858,1272.95877,850.2332091,188.3878775,-242.835294,-224.7204588,-277.0976296,0,-311.9098599,555.6074753,-224.4363757
124.1599999,485,308.863365,338.7180681,44.23734073,-57.11178523,-312.0249976,167.6138628,-881.4491687,-374.4982235,-164.1587434,63.25271889,-53.55660395,-7.170231213,0,256.3325436,74.06909717,698.5445612
124.1679999,485,-150.2048052,-312.6753219,90.88577441,-194.3491857,301.5618718,-117.268618,336.2665447,-155.0935394,-41.81176488,108.9627718,288.9922404,180.7799751,0,-156.4508399,-630.447248,-823.7156787
124.1759999,485,-152.7713317,73.57812157,-312.3575157,291.2082421,-203.6044351,22.41999066,472.3187061,660.9643086,156.2657944,-229.1693979,-409.8441981,-354.4217533,0,-34.92501131,993.5497528,705.2111814
124.1839999,485,290.06076,106.60049,276.5230299,-336.5946917,-4.984054116,76.83468138,-986.7565494,-847.4176803,-250.2769854,314.7021412,384.7745848,363.4117667,0,196.7818882,-900.1999647,-243.4696999
124.1919999,485,-462.7938678,-372.7184156,-307.6205115,199.8127325,198.9845583,-224.3672422,1257.192311,862.4253284,202.5201174,-209.5277024,-244.823778,-241.1289625,0,-323.2465696,557.7300156,-232.9609924
124.1999999,485,335.2025752,378.5093558,45.44681,-63.19756735,-291.0083665,172.6887639,-888.4013214,-284.5692917,-135.4236018,128.2968013,-79.97544382,50.29842318,0,259.6513698,93.24760309,709.9133313
124.2079999,485,-157.3209327,-307.119147,65.78471314,-197.5617951,289.9425436,-148.5501417,326.008577,-39.76373122,-33.16905932,188.9940303,215.7601732,230.9127973,0,-144.9774179,-618.3297684,-791.0670759
124.2159999,485,-194.4980742,49.47871956,-353.3458969,286.1966774,-200.9936263,-38.50966354,508.1136608,815.9334353,146.3842888,-203.2219097,-599.7076159,-383.1246275,0,-74.88617579,1056.630812,760.7019418
124.2239999,485,292.4646199,134.3424803,273.876998,-352.3705068,-11.25696536,69.43807303,-964.7438707,-693.5991958,-262.7398069,339.7662751,162.7387312,309.0939686,0,156.0827036,-848.2261769,-158.1185074
124.2319999,485,-496.5588689,-364.5057846,-308.4156111,186.9250155,189.0660751,-237.1291777,1336.52194,1036.380583,195.2294613,-178.9332359,-445.8793667,-320.325707,0,-332.5578395,579.2798155,-159.2180535
124.2399999,485,277.3355416,377.3558375,31.43534064,-61.94658755,-290.079284,135.6592721,-768.7510655,-71.62457637,-144.6282601,128.7462317,-266.7722446,-95.19518489,0,254.2951791,152.3976665,813.691436
124.2479999,485,-143.8160908,-257.770067,98.96927709,-212.3691932,320.1704215,-152.6979889,415.413832,119.2005624,-43.08928142,203.1328429,110.5313296,56.13150511,0,-151.6207614,-587.6697956,-707.0024201
124.2559999,485,-183.1234438,72.59083216,-319.2448916,278.3072137,-159.4933104,-43.89110384,631.776052,923.9258432,147.6226469,-185.1325951,-641.5337294,-594.3106923,0,-77.66431969,1077.04576,816.8871713
124.2639999,485,313.1220718,139.1199377,299.9801878,-353.9628764,18.55598669,55.83835127,-894.3639204,-711.3062679,-267.3729671,357.530522,157.7736602,88.60951396,0,162.5323082,-855.4892264,-84.754827
124.2719999,485,-423.5153307,-338.3053232,-266.0649086,177.7805921,213.4602026,-238.709518,1375.903444,896.9352051,199.8763457,-150.1892475,-436.1858705,-521.9545327,0,-337.3731181,562.3125392,-100.1848051
124.2799999,485,336.0638649,514.1794863,-89.85480577,126.0489945,-488.4344896,174.9447157,-633.6124427,165.1951461,-58.69288261,2.582337537,-571.8323704,-500.698654,0,271.6488745,797.1347955,1442.383784
124.2879999,485,-407.039727,-357.5652198,-246.3931272,164.2811624,162.5693618,-245.6541182,1365.483502,1074.224341,195.1862244,-132.045128,-429.2587591,-521.4856005,0,-336.0270034,529.6035811,-142.9798093
124.2959999,485,-899.912927,-474.4912561,-830.334305,749.0686522,31.16769949,-368.6516106,2862.455423,2523.220195,582.5814774,-656.9907251,-1182.017335,-1197.181916,0,-601.5941173,2286.715039,636.9195925
124.3039999,485,-59.2936639,57.82834859,-186.4734001,161.5729054,-157.264141,-45.03309217,434.5802527,679.2744582,83.15023254,-83.45889786,-510.6073503,-520.8063335,0,-49.85853221,700.3223204,631.0296145
124.3119999,485,-219.4467149,-157.3090632,-196.31018,135.8739503,16.85361713,-144.9586618,868.188364,848.9562988,118.860506,-97.20787753,-433.4613551,-489.6684414,0,-198.7664462,533.5427469,165.5037305
124.3199999,485,381.4299987,255.339178,221.0885156,-256.3676705,-161.7415104,91.7544725,-845.8156857,-398.3613691,-231.8511325,272.8565364,-16.84775067,-59.01248209,0,190.674399,-462.5223012,262.6517416
124.3279999,485,-110.2457071,-200.6811383,-3.928182237,-91.28604872,153.359571,-139.1015407,552.8794491,294.295284,10.04658485,71.14215296,-121.9598083,-233.7910017,0,-183.1727944,-150.6643969,-349.1949929
124.3359999,485,-5.080173895,111.2781116,-185.3629501,167.0589747,-189.1461899,-1.726366253,376.2624081,514.045175,91.98069066,-115.8946705,-512.033976,-531.1361166,0,-42.71236504,750.8607457,663.7909743
124.3439999,485,411.6958493,142.5382771,369.432084,-366.7147798,13.54374421,80.79940979,-868.2325142,-911.4771071,-241.054171,372.1566652,230.6007328,120.7928079,0,174.0012571,-937.5979274,-191.8066576
124.3519999,485,-326.7429534,-287.2022201,-242.1713548,224.1735007,119.8689716,-175.164379,1276.582777,744.3148614,224.2517405,-183.6643572,-457.2799387,-551.8714679,0,-286.4980753,672.4088939,54.38679743
124.3599999,485,419.5354022,317.2760423,182.5666596,-116.2110075,-243.5038668,176.998865,-848.6979788,-566.9690071,-164.2542061,171.1768056,-146.668707,-185.7186294,0,238.54235,-131.0528764,652.9206375
124.3679999,485,-30.8553109,-273.753401,149.5043038,-156.4154256,255.5227338,-94.423882,368.3160698,-147.728502,-25.35338549,138.1261972,60.919332,-109.1028935,0,-155.9385249,-534.7524703,-554.6898665
124.3759999,485,-25.28120251,43.89412643,-201.7398024,267.9101879,-170.3749951,23.5622151,527.3066349,644.1000405,151.9478312,-191.5952574,-552.2126092,-590.6411245,0,-64.42460641,897.8180925,729.7468531
124.3839999,485,471.9631513,118.0123028,394.4985828,-319.5793627,-12.08058831,133.0385877,-966.3802173,-788.1240902,-235.9401435,352.4899817,256.3808178,135.517057,0,209.5517016,-931.3768395,-149.2185828
124.3919999,485,-344.0215984,-424.3997465,-223.1051978,215.4014819,161.241828,-196.2364296,1280.938527,900.9590985,196.3900427,-199.2392161,-375.0293879,-501.3420637,0,-324.2778947,507.9800866,-175.0494478
124.3999999,485,402.9897847,274.1592153,105.6605952,-51.22764894,-318.1994837,172.740426,-793.3463191,-270.3443082,-173.3364896,59.44913692,-223.7418861,-256.5433125,0,204.127301,59.14341213,707.1030778
124.4079999,485,8.791794625,-322.5220708,170.7984591,-192.4853293,242.8553781,-78.13400724,280.8597521,-170.2170985,-64.80472225,140.9620698,165.5640987,-18.98357135,0,-151.4617941,-650.449102,-724.7558368
124.4159999,486,-61.67589422,-21.68060928,-247.1093255,289.0828506,-190.6917408,30.68933429,568.7331517,620.9109113,147.6486727,-234.912818,-516.9347763,-569.4624295,0,-88.28369762,945.4553773,665.4582052
124.4239999,486,496.8277983,125.1625614,381.2244761,-316.7685448,-34.97896128,178.8648729,-1021.290483,-974.3051483,-261.9039507,307.6922007,292.6469973,151.7742987,0,207.3458607,-900.9456084,-147.1325866
124.4319999,486,-289.9579398,-412.5742081,-185.7927596,204.4547982,204.518131,-133.7965374,1247.408887,630.3883394,198.717987,-178.7699903,-246.1486231,-403.1514622,0,-296.2567969,437.7278408,-271.7786746
124.4399999,486,426.3940755,294.6364715,104.5950139,-7.009903738,-288.0751942,228.0810144,-795.4351392,-452.3521853,-134.1290279,79.82878959,-132.389424,-181.2931059,0,257.6182624,101.1319213,725.1576217
124.4479999,486,40.81962237,-319.8485678,200.7223334,-187.7406259,302.1627006,-52.02700961,222.7710029,-383.2703719,-64.39797247,166.8046632,276.9477607,63.65910096,0,-95.0185773,-744.9908537,-798.943163
124.4559999,486,-67.07748048,-39.28405794,-254.7676695,317.9194294,-153.1625731,21.12342892,590.1898501,545.8885219,153.379234,-256.0697139,-480.0126394,-555.4524282,0,-58.44991617,943.9350937,636.3242379
124.4639999,486,466.0455386,92.38815334,365.4664719,-304.767278,-21.94481837,155.4221867,-1044.846431,-1026.415931,-263.8022463,289.1884397,326.9123477,166.9025005,0,216.1296035,-919.6763842,-162.6167264
124.4719999,486,-334.9511837,-465.4775376,-205.741682,204.3565555,208.7842574,-167.9716122,1234.949822,616.0741075,189.437486,-211.1564094,-211.1178695,-394.7308295,0,-301.3536094,391.5688816,-326.8873605
124.4799999,486,391.610682,252.6831321,62.38350604,4.153712469,-325.237659,195.5962339,-788.7083439,-397.8960361,-150.3652025,12.94721755,-148.0886282,-221.8998457,0,244.888182,122.79098,724.6741766
124.4879999,486,38.06308394,-338.0644519,187.0134085,-196.4964859,271.4903395,-50.99588485,188.9196244,-344.8447398,-82.54122608,127.1466094,304.9259566,65.98444511,0,-125.4956537,-777.6913368,-837.3102693
124.4959999,486,-65.55241514,-46.87342939,-270.2119938,342.0703629,-169.6553127,44.90653906,598.7675691,643.0526728,164.1687127,-270.4968994,-425.0033581,-513.7326719,0,-69.3636333,938.859909,585.8291474
124.5039999,486,486.241973,96.40153687,347.6776941,-275.0086941,-45.18177284,179.4941003,-1061.534889,-953.6276916,-271.0860166,282.4373708,364.2297761,209.9413566,0,240.6671929,-921.3253468,-204.0789912
124.5119999,486,-302.3222703,-446.4320858,-198.0688489,222.7474171,208.8890669,-126.0579109,1212.050791,635.2010788,186.0474601,-207.4289267,-163.0465395,-334.8711125,0,-294.5757516,370.7159233,-394.7785149
124.5199999,486,398.2128663,255.8044829,68.62910945,40.80530324,-309.8162296,238.1458664,-800.063173,-409.7246165,-123.4911841,34.38057095,-88.10555033,-146.265966,0,265.1997172,121.1221648,681.0870023
124.5279999,486,8.262966159,-374.7595429,168.9059739,-173.6876608,281.53452,-49.94793529,164.7450167,-431.543403,-83.62155062,134.3226011,325.0782014,105.9723641,0,-91.3284624,-798.3748181,-862.095132
124.5359999,486,-109.40918,-86.40422788,-302.1882498,347.9297023,-170.051673,29.27862412,600.2822666,537.754231,151.8882451,-293.7203211,-447.4106575,-516.6801348,0,-71.84278316,948.7740138,591.8814157
124.5439999,486,461.378123,74.89129508,333.7374262,-289.8601442,-51.61387,170.9684048,-1102.973264,-1077.674271,-280.5833425,266.2461267,351.8885264,213.5627085,0,226.2769213,-921.8057593,-179.7563402
124.5519999,486,-329.8824925,-470.6886484,-204.4929622,200.8994558,214.9334456,-143.7767693,1182.805504,549.6403789,177.7813726,-215.742217,-168.009222,-328.6113599,0,-304.4291592,352.9590246,-401.1504316
124.5599999,486,379.729627,252.3485624,57.89856009,29.93861784,-307.0685542,225.4040108,-817.8518167,-419.351382,-124.3075252,33.17716466,-93.46834162,-137.5944544,0,266.4857741,130.0447084,684.5061257
124.5679999,486,11.0232312,-371.4040531,164.0131254,-197.2603273,287.1505675,-59.91694811,110.8833582,-421.3772472,-92.46529074,145.0324141,335.8447518,130.8574653,0,-98.8432823,-831.4872931,-894.4471074
124.5759999,486,-135.5522828,-104.6339191,-327.1351514,332.7669777,-165.0140519,-2.113435518,593.0891984,604.8222842,143.2785451,-303.9976038,-457.7331655,-517.7563222,0,-97.20867477,926.7256194,527.3321833
124.5839999,486,431.7152871,67.8596659,299.2676048,-301.2521587,-66.84575601,139.1365354,-1122.92619,-1012.372835,-299.3078885,237.6957977,324.1130509,193.2354043,0,203.1499919,-936.5243424,-220.2641129
124.5919999,486,-332.5687567,-462.9243476,-227.7353163,185.4628831,210.0266953,-149.8367462,1169.303138,588.4631078,166.4018909,-228.2965385,-170.976869,-322.7918937,0,-327.7084753,313.7914911,-454.8745469
124.5999999,486,386.6164827,271.5259961,42.3386528,26.69496875,-317.7023265,227.7589073,-819.5117371,-387.6487997,-123.9001318,33.91237729,-96.67501133,-122.9878435,0,269.830444,118.7673792,665.6778625
124.6079999,486,7.192742093,-360.8750601,162.9860612,-209.3125444,266.4812208,-73.66556733,81.55430514,-435.2592819,-105.2013401,137.8041536,328.0319433,139.2428831,0,-96.45989629,-855.6555977,-893.2254955
124.6159999,486,-156.4467653,-106.8130685,-323.2466766,329.2400289,-173.6569671,-14.68866751,606.2807003,603.034547,144.9137976,-314.0011588,-460.4746334,-507.7964901,0,-111.7162582,927.4199437,535.1453717
124.6239999,486,417.4391307,75.17571663,316.9746385,-302.9513335,-76.76298593,130.7076205,-1133.922882,-1033.944953,-296.1967742,249.1304132,328.2312616,217.2492296,0,222.7937815,-923.9351323,-184.1014071
124.6319999,486,-374.2405408,-487.3907727,-226.0647281,171.8308435,197.0455691,-191.5872316,1167.410525,553.9500496,148.6413901,-240.3116692,-187.9640533,-322.2432696,0,-326.2963644,319.5559096,-447.6277128
124.6399999,486,340.6857725,249.4543963,26.13612346,18.06051611,-342.3568874,188.942204,-802.5229428,-396.1458809,-145.096926,-11.40265685,-138.0147921,-154.6089615,0,230.4388761,158.0931991,675.3122768
124.6479999,486,17.738557,-335.3068964,190.24738,-226.5286892,259.4691572,-65.39761038,47.67472736,-468.7128809,-108.3815431,136.8936423,344.8236757,156.0827744,0,-115.7553599,-858.8489948,-911.8738175
124.6559999,486,-135.9950825,-79.69395907,-302.6250373,324.2055891,-164.0194908,1.733063653,590.1916491,600.3946622,162.9334975,-300.8715723,-424.8312017,-479.0689158,0,-118.2593575,928.6029957,492.0369276
124.6639999,486,427.2211346,88.02626132,305.368694,-297.3186063,-87.10867268,132.9961722,-1173.045331,-1021.970207,-285.6866385,254.1878955,347.7236307,227.5327996,0,230.500871,-921.5566174,-205.1656821
124.6719999,487,-394.8030954,-502.4396564,-251.2427585,171.7127722,183.8604942,-211.5709099,1145.975908,585.3721189,150.9087489,-238.6747046,-175.2129025,-322.4015356,0,-323.6500616,304.0822416,-487.4613703
124.6799999,487,309.8307091,242.3948275,-9.641528395,20.13415296,-361.1097514,172.0677185,-794.8799261,-328.1569537,-146.5721993,-39.45308726,-153.7826575,-181.764329,0,206.178226,192.1955392,669.9424103
124.6879999,487,6.751752762,-327.9382513,172.8955983,-228.790393,248.4855052,-61.38185476,32.66165713,-433.0161428,-108.7696831,127.9620249,363.9729522,167.3311975,0,-121.3115439,-849.8197384,-910.0683525
124.6959999,487,-166.5762416,-86.9371749,-325.9870058,329.0540846,-165.9433059,4.530219122,622.1395281,643.0344382,168.0335027,-308.6713382,-414.1705123,-466.0916366,0,-118.3924286,953.5000028,491.8841613
124.7039999,487,436.4580928,125.2836565,313.3233391,-299.3208424,-80.91787867,171.2122731,-1175.172658,-1017.220545,-279.8794545,251.6540202,356.9897436,246.4285524,0,239.0321981,-885.8492748,-180.4903108
124.7119999,487,-361.8541247,-458.7469244,-205.3381133,176.7458211,229.5170994,-160.4920186,1141.489579,550.4931698,183.8330177,-202.7326157,-115.3164321,-255.2579489,0,-288.1467316,307.2930578,-489.9906789
124.7199999,487,291.3159637,235.9330535,-7.37646165,44.90955435,-324.5203013,179.9336697,-764.3658397,-353.214597,-118.222576,-28.70959405,-152.0930264,-161.5393447,0,240.5369529,238.9211777,699.3231972
124.7279999,487,-6.858758405,-339.6288682,160.9211228,-222.3824545,265.3208523,-69.94827699,28.66043804,-485.0581889,-109.4247797,128.0239758,334.2351901,161.8283095,0,-91.89146111,-823.319795,-883.0902437
124.7359999,487,-167.0013145,-90.95362373,-330.7366087,339.405185,-142.6951754,-7.143330291,647.3236254,631.6958576,183.6266741,-299.9932663,-426.736858,-460.9433374,0,-100.5636431,977.4943499,495.662866
124.7439999,487,422.8801978,113.6844959,295.7888519,-291.6021999,-75.87941939,157.1689047,-1161.945738,-992.045412,-274.8446898,233.6984695,324.9376495,230.8381467,0,236.8986227,-847.4420355,-153.6730079
124.7519999,487,-364.0110281,-468.113611,-217.2984559,173.2256952,232.662496,-158.1489418,1156.153758,610.851012,181.4613864,-220.1725687,-128.8707364,-257.8538628,0,-299.1491313,318.889393,-494.552795
124.7599999,487,250.0810959,339.1362129,-186.8644781,269.9107854,-471.3480374,218.4447302,-487.4907802,148.9594555,17.85421806,-182.9516266,-410.4311138,-364.5375352,0,240.541969,953.3862511,1208.891456
124.7679999,487,-351.9322726,-463.31274,-202.7631271,166.1844543,226.2979105,-168.7695632,1131.803835,526.4291282,178.5830464,-210.0363807,-85.80667039,-224.6612508,0,-299.2327641,315.6563084,-508.7031108
124.7759999,487,-932.6272747,-694.0739446,-788.8974936,745.752427,194.0365917,-338.6844776,2876.297693,2079.114952,599.8455591,-728.3697358,-788.2814405,-874.1892604,0,-641.5764229,1982.475648,19.6851904
124.7839999,487,-75.17756777,-77.60963543,-210.46507,230.4869585,-110.6796531,11.70044936,393.9848174,380.4190086,111.3555781,-211.0325528,-259.1529439,-304.3313406,0,-48.71868636,666.0293758,332.5446241
124.7919999,487,-189.903864,-263.3120432,-171.7301122,172.8403723,74.53663841,-76.0921568,711.2568104,377.6664876,135.5902422,-179.7781553,-119.1458174,-212.6336042,0,-158.3054712,409.6353716,-139.1187061
124.7999999,487,403.8205017,190.2832557,205.2649626,-150.3111035,-172.0536802,177.4710255,-1010.421694,-769.3780427,-184.5907277,167.5618504,224.143984,172.3529812,0,274.7273915,-390.6825112,193.0390238
124.8079999,487,-83.34990623,-307.1236984,22.82424741,-60.57445624,181.793603,-71.81296465,280.3753276,-151.1065373,-4.872212179,8.949860956,195.9724271,60.45972806,0,-97.91170245,-302.6424488,-558.0018757
124.8159999,487,-98.52569239,-75.13343125,-246.6011527,239.0968125,-129.3547025,3.528110294,376.8070729,377.6911443,97.47733483,-250.8191654,-275.5863335,-326.1219876,0,-48.25017008,736.3685895,404.7981452
124.8239999,487,436.5507302,106.10074,338.9133365,-323.0210259,-21.77694423,163.4703733,-1150.702723,-1034.587685,-269.2551442,262.285749,459.9757225,343.2307596,0,235.791206,-910.5837354,-260.3542108
124.8319999,487,-333.2491346,-388.738859,-225.54596,213.6054916,195.6721348,-121.4514196,1103.844431,647.9916318,207.9276124,-223.9382707,-89.56332231,-210.0232872,0,-257.8732776,480.8784837,-334.8180993
124.8399999,487,343.5010447,240.3563021,84.73411468,-37.12851591,-248.5348895,190.8664226,-900.220007,-453.2833641,-142.9877345,58.50907825,65.20663092,39.96786322,0,283.2141501,-9.736016759,508.1506203
124.8479999,487,-12.97771393,-296.8796891,140.9266214,-197.3893107,241.60715,-52.37835897,32.84153558,-348.9406773,-81.04092217,100.3106788,371.1994639,212.4603772,0,-70.03240757,-688.2379267,-779.1415171
124.8559999,487,-141.7524309,-65.45378715,-275.7986018,287.1777517,-124.2371914,14.11900081,541.6064348,584.7351981,166.1053475,-272.9333852,-286.3927968,-328.446843,0,-77.0415902,861.2239897,421.7809331
124.8639999,487,454.4398319,158.0140558,339.5672654,-310.5192018,-61.53727153,187.3965401,-1234.244858,-1026.738448,-247.0744304,284.5664275,467.4952834,373.5879026,0,276.9508696,-880.0400885,-175.9526528
124.8719999,487,-345.4688698,-424.4477799,-198.6240026,155.6151171,232.2253042,-148.1341699,1065.05168,531.1233669,189.7430681,-186.1830337,-34.89491268,-152.7247431,0,-273.3480726,310.9271265,-481.2415733
124.8799999,487,313.7052049,265.7203092,14.214271,11.1436886,-289.8576491,170.9073341,-811.7000186,-381.2140487,-111.6962381,5.327698147,-33.03574921,-35.87922376,0,253.5266625,181.7782413,630.3259521
124.8879999,487,34.50364532,-264.4976495,182.3885024,-245.5287995,267.6693368,-57.31934954,-76.86912215,-512.5676506,-97.41643471,159.0103355,440.453563,286.6935591,0,-40.84890719,-821.6968645,-862.4618204
124.8959999,487,-152.0033006,-56.83633239,-287.900974,304.1726955,-93.16759294,-12.70042498,603.0202764,593.5991648,188.4376924,-262.2255191,-288.8082966,-313.3675976,0,-72.58999552,889.4615856,392.7232003
124.9039999,487,457.5252711,179.01405,320.2813915,-302.9919675,-63.05654637,154.9352926,-1246.06512,-1024.049543,-252.9151694,274.4334052,438.0869608,359.0673535,0,278.8435946,-853.286381,-150.9954013
124.9119999,487,-343.5563329,-423.0607886,-184.2380628,131.3729863,259.1517685,-160.6521574,1054.451888,522.1244915,179.0562334,-174.4648517,-8.289584256,-123.3628157,0,-285.8712184,233.0921658,-564.2091145
124.9199999,487,306.6274105,296.0982015,12.29702495,38.85969737,-294.8640659,190.2584049,-771.1763123,-278.2032129,-84.03731708,-2.85009217,-46.11597971,-28.89065583,0,243.4799403,246.6639599,648.8627594
124.9279999,488,21.84586747,-271.7663929,196.8054066,-264.9629005,264.9339782,-71.12942428,-113.4026335,-502.9816663,-111.615824,165.3487491,453.9534119,309.1735355,0,-40.76999498,-878.2014777,-909.8844703
124.9359999,488,-211.431598,-83.98443017,-317.219474,305.4258337,-110.8936369,-28.8918049,654.9137253,665.3871315,174.9289689,-298.5022389,-329.24951,-347.9323433,0,-97.23885944,924.4887306,380.3977648
124.9439999,488,453.4613425,208.7876907,336.2473899,-306.0563395,-81.88213461,185.1703788,-1266.360906,-1015.935738,-259.4808887,272.9877103,441.3806066,369.6596165,0,275.3588916,-841.3031097,-152.3469981
124.9519999,488,-349.6062795,-423.3487948,-168.0828494,121.7818827,255.1943639,-175.1694322,1041.638973,491.5843956,178.2632699,-165.9458354,14.83148983,-101.0845655,0,-277.6829267,207.8608603,-604.5316098
124.9599999,488,270.2377483,275.6838707,-12.968108,44.73350648,-315.4698826,155.249439,-743.351593,-281.7843691,-87.74853966,-34.26837594,-75.93827797,-62.21880676,0,239.6756729,291.3570199,658.0062691
124.9679999,488,35.84115346,-250.8372769,223.750911,-277.3357047,266.1472749,-54.11171711,-149.6699113,-565.982678,-110.4554626,174.4506006,482.5695925,333.5310174,0,-49.40381692,-901.954606,-931.9320942
124.9759999,488,-207.1359108,-77.12490434,-302.1330442,315.3210971,-93.95223799,-35.52397865,666.6488881,648.8901581,199.6165358,-286.5537895,-304.2960259,-319.0051841,0,-96.87516541,921.5778555,356.847761
124.9839999,488,427.9509768,192.3757449,315.8730335,-300.047002,-80.10324834,142.9715188,-1263.681758,-1019.296484,-262.7912768,252.915557,413.4282861,352.1032532,0,290.7398135,-828.0823401,-142.8246355
124.9919999,488,-348.90157,-413.5363033,-158.0287401,111.1835047,275.6278732,-168.3696735,1037.869306,492.4082284,177.3665156,-167.4206588,14.39811665,-91.7415249,0,-280.7410059,197.5705713,-621.2515489
124.9999999,488,282.5080191,293.0001805,1.733504098,55.16095338,-292.083174,169.7331597,-726.3805326,-234.7318658,-62.217283,-17.91535222,-59.64338424,-34.30992765,0,247.3585436,304.9901591,653.690374
125.0079999,488,21.59434454,-266.5550588,208.0727256,-278.0356672,274.3888919,-88.66367506,-148.25442,-528.3792161,-113.4386474,160.1882048,463.7130606,325.8320895,0,-44.48294023,-903.3262505,-928.3026223
125.0159999,488,-222.654221,-85.67260553,-322.1634251,307.2940545,-82.96536237,-40.52830039,700.4322108,700.3302364,191.6452122,-322.2533194,-344.8769958,-341.6736903,0,-132.9964499,943.4981115,355.9836952
125.0239999,488,437.0236992,213.7401759,320.9556459,-301.2641654,-75.87909398,179.3793585,-1263.212817,-992.4028853,-257.4531969,253.9652318,406.903723,371.2239393,0,281.7518714,-815.1227134,-138.0792176
125.0319999,488,-360.3966608,-409.4482572,-163.0598905,106.9201825,277.0109228,-171.9714394,1036.479581,495.9635633,175.0388123,-163.7306792,9.609648015,-74.29292413,0,-270.1063362,182.4780389,-637.9878492
125.0399999,488,249.6540193,278.9084947,-31.47817571,56.57237081,-296.6394394,148.2094436,-702.6968139,-217.9855741,-71.84959778,-38.98767341,-98.89061113,-54.88549922,0,241.695695,320.8182127,654.6139182
125.0479999,488,-1.017780249,-280.4333279,185.5148438,-286.716312,267.2684202,-86.59483792,-151.4834623,-540.0803904,-131.0504507,146.8260224,436.7153238,304.5977301,0,-49.81562826,-910.1793786,-929.5138038
125.0559999,488,-232.9780582,-81.64793778,-335.0065316,294.8111473,-86.59107347,-31.82351268,720.2376206,697.9499184,183.6862209,-333.8418504,-358.8585527,-360.934455,0,-139.5598014,941.6526029,345.0864802
125.0639999,488,454.0333597,238.7841767,322.3634777,-310.267789,-82.91419073,190.106959,-1271.255362,-1000.063313,-251.0601159,263.632798,422.2953988,381.6101965,0,288.6644845,-815.6940633,-129.0268866
125.0719999,488,-356.7266249,-411.7413817,-154.2280915,97.78922105,283.0668429,-168.1065255,1036.409552,490.6349985,184.7096775,-149.9529638,41.63902858,-49.75423036,0,-266.7954835,162.7390871,-645.5580423
125.0799999,488,254.4911923,293.7239471,-24.61001591,52.281122,-288.7229338,172.1666365,-684.7651082,-203.3275698,-67.22781985,-47.66995491,-98.78107738,-50.53914742,0,240.602938,335.9150724,670.172347
125.0879999,488,42.65983564,-231.5244616,219.2491928,-293.5010815,281.5022268,-46.0512407,-181.5172512,-552.3595549,-120.9961547,173.8418702,468.3255226,353.1703835,0,-23.90042842,-923.6107605,-917.0688309
125.0959999,488,-224.5968704,-79.24444144,-316.1364936,306.4077824,-63.54190565,-30.77676541,732.9054756,723.5491256,209.7986318,-301.7166086,-321.0474186,-311.9124683,0,-113.0961282,934.2707468,338.1551016
125.1039999,488,438.5643471,226.6988568,311.3876104,-300.631702,-78.94466233,183.8066026,-1262.451219,-967.101718,-249.6718649,244.0144498,395.4536062,360.8296911,0,288.0333226,-790.2366205,-102.3436353
125.1119999,488,-367.9130918,-412.8026553,-162.8578672,89.13406738,285.4412587,-164.56641,1037.192174,505.4917153,172.7675241,-179.212658,5.758116567,-79.53940385,0,-290.6615016,172.9536771,-638.172507
125.1199999,488,239.4695449,294.6714668,-30.95120876,54.46116704,-286.4302122,170.1164669,-663.9275496,-167.0689485,-59.196147,-52.16313017,-108.8116158,-53.51401819,0,231.4411882,356.7664218,672.5996669
125.1279999,488,41.42136926,-221.883984,225.0352351,-294.6438432,285.2766329,-30.18931922,-192.3115083,-549.4978177,-116.0863065,187.3308148,473.2508265,363.2704016,0,-12.50043433,-929.1593401,-915.9825954
125.1359999,488,-247.0896988,-92.02807161,-330.9927449,308.4662262,-59.5852921,-27.71313011,758.5168716,727.5140817,208.768245,-307.8139664,-344.1322618,-328.6957926,0,-111.2516092,943.3379931,335.6032939
125.1439999,488,404.8711416,202.871341,279.5979631,-298.7087755,-88.33662477,162.7964293,-1245.649354,-969.9131499,-259.2436007,225.8985228,361.1814859,335.1336377,0,294.7160321,-769.0579044,-81.51187168
125.1519999,488,-377.4690513,-414.3060737,-170.3053426,83.26314557,289.3924913,-157.2876088,1040.609111,483.7108036,164.8543442,-185.1373917,-1.713110096,-80.54806527,0,-289.3482541,168.5907124,-638.3284516
125.1599999,488,234.9910353,304.054594,-35.26859114,65.98435055,-282.5048455,189.048604,-645.4092789,-166.6152884,-49.7916196,-47.29056735,-110.774112,-42.84491571,0,235.8648946,379.6337267,685.4529038
125.1679999,488,5.911431636,-241.4207608,207.4123902,-287.7949741,279.0544827,-51.79079395,-192.3851429,-553.7961683,-121.809771,183.0015149,462.003375,367.1576498,0,-12.38406971,-919.3057397,-896.2912232
125.1759999,488,-267.6142738,-85.6233357,-327.7816988,308.9676677,-54.98518141,-22.03736352,777.8784128,741.8245643,203.3511133,-325.2476411,-361.1064154,-330.4522142,0,-131.0671097,962.8522002,345.1859423
125.1839999,489,431.6857838,243.7212215,315.7188273,-288.376673,-80.78932949,203.0250104,-1259.361133,-962.8133469,-239.369176,258.9409578,391.7530464,385.5138855,0,310.336987,-754.9834187,-65.67100426
125.1919999,489,-392.9379138,-435.5432678,-167.7420588,93.74581149,291.937602,-181.1131979,1043.501071,492.2979056,176.831293,-156.4209743,17.17946038,-47.20513204,0,-277.1367288,163.964354,-643.73128
125.1999999,489,219.8740292,290.134423,-54.54006474,68.82265009,-296.3378876,166.620487,-615.9409132,-135.1286136,-52.27661239,-73.8493814,-155.2443264,-77.0627502,0,218.6178058,420.1696432,705.2060658
125.2079999,489,27.27053261,-229.2454992,207.36676,-302.5094916,262.8016518,-56.71852375,-205.1738231,-553.3853133,-126.7957412,174.1075213,446.1975339,357.1808624,0,-23.75191545,-910.7232544,-886.6852445
125.2159999,489,-295.0553895,-120.1121645,-358.6974713,295.6573299,-65.6949075,-76.31321719,809.1510316,768.5587681,201.1391604,-332.9151282,-372.2855776,-340.2644999,0,-162.1063876,967.975694,331.7480931
125.2239999,489,417.1192907,231.1348133,281.0029181,-310.787297,-99.41470758,164.9516732,-1242.935532,-937.800061,-251.6693748,229.0796285,350.9766083,345.5412356,0,267.4763709,-728.1727288,-47.17453743
125.2319999,489,-374.2342439,-424.4620033,-179.6921262,59.54595389,286.4279504,-192.9512949,1045.559278,491.3672068,158.0581239,-180.0106739,-11.14640063,-78.16065651,0,-306.8223412,165.8278903,-642.9858835
125.2399999,489,221.0815298,293.2185567,-67.74230933,54.01431586,-297.6840126,158.7649739,-588.3594382,-117.8556408,-55.62260783,-78.34692269,-166.3267456,-86.78484893,0,208.0886424,441.093506,713.7044981
125.2479999,489,68.99662799,-191.6773611,231.6411797,-312.0230942,270.900404,-18.85577608,-224.646481,-568.9693335,-113.3817231,205.4145226,479.8290943,392.5948145,0,-6.389961313,-919.4370406,-883.088819
125.2559999,489,-236.3145704,-69.07205252,-322.934138,303.8839051,-39.46089245,-16.29341656,808.0358295,763.5630102,227.8025257,-295.0531012,-331.2984795,-298.2670578,0,-128.3253521,956.9354803,317.7781552
125.2639999,489,425.769211,250.9628992,285.4794507,-291.345268,-94.11994576,192.5961938,-1244.037595,-933.495707,-239.4275103,252.2748657,361.6985404,364.8717791,0,305.2662263,-719.0631455,-35.78739076
125.2719999,489,-397.5919853,-438.5963788,-188.2153978,71.77205295,283.7161675,-203.1365696,1047.234309,490.6742134,163.0133952,-165.986859,5.157972648,-54.17699475,0,-292.6982157,154.3202061,-657.6036549
125.2799999,489,201.7931893,291.1541056,-87.80707388,64.46422977,-310.3088829,140.1492302,-561.9232295,-92.16179361,-51.4828809,-95.49480193,-178.5085625,-93.34778929,0,188.6109546,468.3768352,710.3498401
125.2879999,489,51.42140168,-190.628998,213.9934638,-323.3319431,241.8315728,-39.75532478,-227.5760592,-567.7351233,-130.715584,190.1322049,459.8145083,381.9553574,0,-18.70366178,-905.5199172,-887.1522664
125.2959999,489,-264.6442665,-91.17325712,-337.0660546,295.5867528,-58.44526197,-51.85640247,833.4547883,771.4814836,216.4766906,-300.2904054,-332.3106069,-290.4812517,0,-140.0129346,964.7214648,293.4273401
125.3039999,489,447.5115976,283.4512406,303.4726409,-299.8967716,-101.9231218,202.6965768,-1251.819314,-946.2497131,-235.5460974,250.2829698,372.1645563,377.5678625,0,292.914734,-700.9931848,-32.38239161
125.3119999,489,-349.7209072,-384.1308487,-136.5460062,62.77766913,302.7210044,-146.9676782,1017.189959,454.8310806,186.2581746,-125.3207164,58.92164503,-0.746488313,0,-273.8726158,123.7591228,-679.43418
125.3199999,489,207.7473312,294.913487,-72.37564034,87.15333591,-278.0537802,156.5536381,-552.7784017,-89.84927342,-23.61776404,-56.33346866,-139.4242137,-49.21336293,0,219.2516841,454.8944356,709.2848284
125.3279999,489,60.54502502,-180.5559423,213.7621351,-305.5481723,276.5895057,-31.18728986,-249.958336,-580.9039532,-127.2928877,201.8990719,467.8957077,394.4151379,0,-5.455592103,-921.1112951,-866.2203612
125.3359999,489,-266.7320526,-78.24986537,-343.4532677,313.2249824,-22.47292376,-28.98587113,830.8296157,779.7066328,224.918677,-282.55954,-322.8903561,-274.5459501,0,-130.2214743,937.9509317,294.0527564
125.3439999,489,404.2925115,252.0922109,257.6370764,-280.6552396,-97.13215229,168.1337824,-1249.071473,-918.6152341,-242.6619512,249.8997258,348.5909943,368.6191619,0,304.3861602,-716.9649759,-9.641895378
125.3519999,489,-384.5634136,-415.3814254,-183.4942679,57.94172504,293.6158512,-200.5529772,1018.679866,470.804523,155.3663121,-163.4911231,5.136623056,-42.14890769,0,-307.0784258,111.1711598,-667.5526385
125.3599999,489,222.6330445,326.6101489,-70.95585261,79.48660368,-287.1116451,167.8955543,-553.4547189,-74.71503889,-23.25238129,-69.68585441,-160.4077797,-56.89793541,0,190.5394567,462.4555886,719.9152502
125.3679999,489,65.72461254,-163.3060207,231.3446484,-314.6838884,263.8445316,-37.26077936,-277.6497285,-598.0169361,-115.8697345,225.8507974,483.8598595,423.0120573,0,12.25291357,-948.8592598,-866.2702061
125.3759999,489,-301.5975483,-99.70496848,-359.4155742,306.6334219,-40.5160578,-82.64710243,857.9024097,782.4273893,217.2070926,-298.84117,-353.1793817,-294.8854871,0,-141.9104551,939.0017665,294.5616273
125.3839999,489,428.9433654,294.2071611,277.7401358,-289.6468549,-111.5957635,183.8269137,-1253.590894,-934.0358735,-242.0388101,248.318495,335.366288,367.510121,0,291.1284898,-695.690035,15.68172988
125.3919999,489,-372.2934479,-398.4824425,-153.7486937,55.05858519,306.2234951,-180.9205273,1010.60218,445.9433056,170.4637963,-123.4082779,39.95643294,-2.681558994,0,-294.471503,90.458401,-673.1522509
125.3999999,489,175.7931873,293.2915158,-104.8458539,85.41452657,-287.6117293,132.7728795,-511.6277003,-51.09911725,-34.30360081,-76.2424264,-195.2915963,-83.70246689,0,177.478426,482.6607889,744.4514879
125.4079999,489,73.40447204,-155.3505439,221.545657,-333.075574,257.9856797,-42.76146967,-284.0614751,-599.9110252,-144.2644407,217.7837569,446.7600423,401.3736827,0,-17.09068305,-948.5036169,-837.7950692
125.4159999,489,-300.2954865,-120.2442701,-360.7704687,296.1647937,-29.34421829,-99.73627863,882.668227,809.0848046,209.3281666,-287.3246057,-363.9763503,-295.5581906,0,-158.3231689,926.3625997,292.5233157
125.4239999,489,404.9333953,253.7953109,247.1320279,-300.8018565,-128.3378486,143.2799787,-1235.045609,-897.0352435,-265.3996277,234.7737602,284.4240092,326.788615,0,278.3026705,-686.6107565,41.16507956
125.4319999,489,-343.7889788,-384.5623729,-144.7101538,24.7910632,287.5634402,-177.304538,989.3765392,439.0660706,145.6409717,-128.5781557,9.718546187,-23.74832,0,-311.518001,74.28270384,-682.0895147
125.4399999,490,217.6208522,314.8184268,-75.07017403,81.5080359,-296.7633034,147.6636126,-521.7118577,-50.23370209,-20.94517903,-50.34221837,-181.6933246,-65.13029116,0,203.7119746,480.153424,726.3422006
125.4479999,490,69.83591432,-189.6514342,213.5798631,-335.3009767,234.5218469,-70.95452903,-305.2223116,-617.9424355,-142.6476578,226.8382306,446.316012,404.5941191,0,12.5250507,-959.1662792,-850.1601012
125.4559999,490,-306.2435555,-138.6439449,-382.3664699,280.3807988,-50.74094621,-117.5125301,890.3280959,799.4174778,197.3173611,-320.2296834,-400.3827081,-324.6433827,0,-183.7864628,941.4133541,269.8969814
125.4639999,490,441.716305,286.7174528,251.7393281,-312.7964836,-137.6157555,169.8540958,-1251.966208,-909.086211,-261.1643996,229.8905353,285.0104508,335.984122,0,288.3752555,-670.343104,36.34538004
125.4719999,490,-343.0558709,-410.002826,-163.6682526,15.97729995,291.7511935,-184.0134929,989.0807287,434.1398008,149.6856505,-126.7226391,32.76891833,-2.825044314,0,-294.0990802,51.28670846,-707.7214169
125.4799999,490,209.7974134,290.7978844,-108.8824461,74.36915197,-294.867917,137.8907996,-488.5518361,-15.84015168,-23.4076053,-83.50458291,-198.6508122,-83.04337591,0,165.7845599,494.2047449,726.0497832
125.4879999,490,118.319604,-151.0492229,229.354122,-348.9601602,245.8496543,-34.73431746,-329.4239718,-618.1555584,-140.8426108,234.3958051,461.3733967,427.2635477,0,5.789381099,-977.8820454,-843.9638947
125.4959999,490,-280.763498,-126.3108286,-368.3476883,285.3885273,-33.86094408,-102.9734129,892.5163596,804.3667084,212.9476998,-299.7104062,-372.4333279,-293.4301181,0,-173.4053736,911.2558971,263.3105841
125.5039999,490,456.9798337,295.5882225,265.1139802,-298.7940439,-137.6814344,171.9531857,-1264.375862,-916.3290895,-242.3834746,244.1592303,302.869222,358.7681291,0,279.7481661,-678.0720582,64.23090544
125.5119999,490,-313.2063173,-379.4828512,-123.715557,26.36931516,302.2529723,-160.3970739,957.515612,398.3389757,167.4289931,-83.40575598,65.84002714,47.12901511,0,-273.7844227,25.43840804,-701.369049
125.5199999,490,215.1547901,313.8224047,-85.91736027,98.15461332,-287.6058888,152.9247714,-487.9479194,-19.40384008,-8.17354123,-47.15874698,-190.9521682,-55.05890892,0,198.4516495,501.5005634,740.218962
125.5279999,490,121.3335838,-130.4989399,256.5184119,-339.1263708,254.6781385,-18.65085952,-360.4080978,-638.253165,-135.1520923,266.5796689,478.7930725,454.6527824,0,10.01277428,-990.4788386,-838.3168975
125.5359999,490,-278.7272607,-114.8478345,-336.6184448,298.4947832,-1.101493022,-65.14494477,887.0342181,808.7737244,228.5798161,-265.4369511,-340.4045288,-257.9989183,0,-165.8212339,894.9354919,233.2454023
125.5439999,490,440.3015325,281.351973,262.4972161,-279.4442195,-119.0887271,181.9343335,-1266.658043,-886.2042184,-241.0571866,251.9790035,304.4873152,358.9026091,0,294.3301857,-674.1786912,59.87269193
125.5519999,490,-340.5855883,-413.2786085,-151.1949781,25.41621067,306.83885,-192.2564045,953.9258866,419.7803971,141.1252906,-118.4974836,38.78306874,11.20133579,0,-304.8458965,17.01312332,-710.678323
125.5599999,490,191.9989883,280.9917857,-116.8263164,103.5196343,-294.3513662,132.578863,-469.2957058,21.10671784,-21.83534071,-93.59147551,-221.662016,-89.5445623,0,179.1658259,522.8280629,749.4070769
125.5679999,490,82.36087294,-186.9873636,224.7230891,-335.8679919,230.1749262,-41.89698856,-361.8654987,-621.3383499,-151.9469015,225.4948681,459.2502353,429.2372147,0,21.09447186,-979.1915332,-811.1466546
125.5759999,490,-345.5457928,-195.1129325,-378.2815079,291.9020555,-34.99251574,-111.6788323,920.3184753,827.8342752,202.9416303,-335.5256698,-380.2626831,-307.5013907,0,-188.8616105,927.3745015,261.6087412
125.5839999,490,393.7465824,221.3853335,247.6174104,-296.2820996,-157.9596595,164.0077755,-1259.34907,-885.58905,-255.5209996,185.8719293,276.2088883,330.6102957,0,285.4522952,-633.137766,100.6966455
125.5919999,490,-399.0962084,-486.5254362,-141.6758982,0.117085424,293.4774004,-185.235195,944.9744416,394.7776811,132.8693808,-165.1657563,44.04420831,15.83008532,0,-301.1331861,10.12948379,-719.9076353
125.5999999,490,115.5534142,204.9918798,-116.0406522,85.81045854,-290.0324964,142.1132168,-453.9513862,15.69578546,-40.43782484,-160.836494,-245.0016339,-112.6941694,0,167.7593784,540.935516,739.027119
125.6079999,490,34.0755953,-245.224299,241.6127084,-358.7229787,245.6947203,-21.09042396,-386.6442837,-654.0740205,-178.1753201,168.6017154,444.2080831,418.4068746,0,27.55060055,-990.0700283,-827.686253
125.6159999,490,-406.2292205,-266.5509831,-373.450797,280.7879657,-2.765340797,-97.91077865,923.1056867,813.0770371,189.0390799,-375.582103,-379.6647348,-304.1042737,0,-190.3303372,892.040541,212.6313885
125.6239999,490,338.2765732,175.8924136,236.0568885,-301.3850711,-134.1226023,183.445792,-1266.653554,-892.1408273,-285.0841325,141.5772806,245.6177705,303.2104476,0,270.1487672,-655.9059961,83.07753506
125.6319999,490,-452.7901588,-536.4932207,-152.9682156,-5.929775498,313.9771011,-184.0057265,935.1486868,381.2124225,96.187238,-204.3168725,11.51283179,-18.32171104,0,-315.8171923,-30.17918968,-737.0273581
125.6399999,490,72.44855535,166.4215259,-139.2967976,96.27555907,-285.0688531,122.9116562,-432.4121884,33.98318147,-57.89977715,-195.9839249,-275.757861,-142.1674702,0,150.1928141,534.7784401,747.6677634
125.6479999,490,65.34067832,-203.5494231,249.3222376,-356.0471443,243.0598484,-1.527489724,-414.1154499,-657.2745449,-194.6964921,169.5488482,434.7291166,416.8107427,0,19.42932812,-1010.284344,-808.438503
125.6559999,490,-366.3400587,-220.2909252,-362.8497232,292.8968577,1.415131885,-79.39200675,921.3251799,840.9890176,188.5813951,-342.1559733,-368.9014477,-285.2992939,0,-173.7048902,877.2538967,219.060888
125.6639999,490,384.6843271,223.0588823,231.4114616,-281.4414264,-146.6752044,179.9748869,-1271.331059,-844.6068318,-273.8198232,182.1503452,265.9490328,332.811297,0,302.6355025,-645.1155772,113.53289
125.6719999,490,-380.9913458,-469.3912551,-147.1645799,3.330522263,309.9069335,-184.482976,916.1468019,405.3863603,108.4757599,-153.37244,44.09373091,20.63309876,0,-296.5079688,-41.39722844,-733.2845979
125.6799999,490,98.76285167,195.7975324,-163.6641448,113.7937707,-283.5679182,111.1924322,-412.533789,67.36493166,-43.47401282,-160.6408459,-275.3403332,-137.4702529,0,160.2613588,556.4011181,761.5261771
125.6879999,490,67.98425891,-196.9150175,216.7504903,-357.7417447,237.567232,-29.26970984,-415.7086595,-672.9924788,-199.7475731,175.8859158,421.1234631,403.5184249,0,4.043745649,-997.1227497,-784.8529407
125.6959999,491,-355.2756225,-199.8556037,-380.4076543,276.9892431,0.97323792,-104.057099,939.6111698,802.8627579,179.8700926,-352.147496,-380.6352083,-298.8097097,0,-217.588354,887.7839244,224.6018238
125.7039999,491,409.4448107,258.5896512,219.2590631,-294.5495845,-153.4677403,176.0435687,-1270.234909,-895.8824621,-281.0080974,190.1690928,262.6660718,338.1550151,0,290.2198458,-632.7152597,137.0886502
125.7119999,491,-339.5395974,-431.935097,-140.8801823,-17.37398337,310.5593605,-180.4242108,896.3535137,346.4780811,106.6223992,-123.2299186,76.20302582,66.87672309,0,-294.4283583,-65.4887739,-731.8361998
125.7199999,491,147.7043081,243.6023105,-150.1414337,96.88408212,-288.5524961,118.8851182,-415.7303207,60.1886712,-33.50983634,-135.1069226,-238.2665126,-89.45246384,0,157.6632428,548.0348104,766.8662758
125.7279999,491,117.3984434,-159.4678935,232.4383844,-376.1285128,226.5209208,-23.1922328,-454.0827235,-666.5236576,-197.6663558,207.6688264,460.0522765,450.3012981,0,23.818386,-1038.715438,-780.2332365
125.7359999,491,-341.7124353,-204.7018102,-379.2372909,269.2294721,1.533187312,-113.3116923,933.4018043,849.6726227,187.7111567,-333.994764,-356.2838824,-263.6330522,0,-214.7059556,839.2442909,218.5095235
125.7439999,491,407.8557575,263.2412647,222.5115373,-297.9320991,-161.0503676,168.9165982,-1284.001729,-835.7860214,-283.403978,190.0966685,257.0305481,348.2536498,0,288.1931653,-663.1256515,162.9520356
125.7519999,491,-342.3032799,-422.5905478,-124.3358432,-27.13724531,307.3967782,-187.0591965,868.6798227,387.2759478,91.35757387,-119.4790445,70.11533036,69.83146388,0,-283.9636846,-117.8242649,-723.1386806
125.7599999,491,125.6285368,229.7344658,-160.015778,97.08075161,-312.6215884,91.85303684,-401.7347449,126.6680887,-44.25699085,-150.1952789,-263.0963051,-110.0944051,0,136.9174489,533.3232471,783.5689368
125.7679999,491,118.0044113,-143.7057023,234.8116475,-385.2573297,176.5505055,-37.76195372,-472.5278485,-632.9150506,-215.3784938,204.5563612,446.8678696,447.0127489,0,9.655140722,-1049.851521,-768.4248044
125.7759999,491,-332.7170296,-172.258797,-361.3547583,269.7417915,-35.81769756,-109.8429875,926.8857849,872.8180487,188.0834057,-302.2061605,-335.6492189,-227.15709,0,-194.7592256,846.8765861,192.9246641
125.7839999,491,407.8521495,280.0256523,213.4615004,-286.0245392,-211.5007985,147.1475695,-1286.217626,-824.3644828,-281.6909,215.5864682,259.3162713,370.5662893,0,290.4692915,-618.8968582,159.3799068
125.7919999,491,-326.1489753,-390.576613,-129.5705246,-28.41998553,269.3181204,-202.5394662,857.061358,355.5200896,90.12248835,-90.65045406,60.78006112,94.47293295,0,-301.6973934,-80.49186536,-728.9716325
125.7999999,491,137.234784,275.4305965,-158.1718735,111.842533,-309.7799155,105.845195,-392.3496209,107.1776116,-24.9838352,-91.70371891,-266.0607311,-57.15816732,0,149.9222444,595.8843829,798.2027273
125.8079999,491,116.8772534,-113.1379955,223.8000761,-371.0823433,202.0598646,-41.21893502,-477.8775662,-655.4181676,-210.6693168,264.3164798,427.0064529,486.5416259,0,35.62347041,-1008.65091,-727.1165688
125.8159999,491,-335.5754726,-144.5671701,-384.1882637,264.3257283,18.56194012,-130.6131208,951.5003769,883.2686792,192.8796772,-265.5345491,-379.8468928,-220.279278,0,-198.7449334,875.5081947,228.642397
125.8239999,491,409.1197051,319.8413845,195.0883444,-301.0542485,-144.4140018,140.4419055,-1271.726274,-782.0696015,-269.5122241,258.0155344,221.6911642,376.7867589,0,293.6302179,-602.0680141,205.0283823
125.8319999,491,-329.2088664,-356.1930815,-138.8861475,-49.19212681,328.1025356,-204.6165227,865.5895005,395.4453139,92.22958317,-48.60599097,26.71175476,93.44154807,0,-285.2005513,-102.5733758,-712.8084586
125.8399999,491,147.5747184,324.7727231,-152.9283339,99.55249274,-267.9032755,115.3175887,-372.5596943,149.6345276,-4.178747994,-54.90414493,-300.6123318,-54.12935321,0,155.9421209,591.5262928,806.4035475
125.8479999,491,128.7509875,-72.4657784,244.8301433,-378.6140309,222.2013787,-28.81324837,-488.1480183,-657.2324548,-186.0981733,316.7140742,400.3164633,510.9297134,0,49.6057402,-1029.641849,-718.8518134
125.8559999,491,-350.1656736,-130.079702,-370.3315329,271.8472412,10.15763825,-131.3169269,982.6862575,875.2686733,200.8949417,-236.461112,-446.7661671,-230.7532813,0,-189.3084115,878.391504,245.9522561
125.8639999,491,409.1854286,354.2162215,224.3163362,-290.30422,-170.263,146.0703703,-1257.550776,-798.6236768,-265.7168734,273.0769867,148.1325705,355.4994464,0,289.0242984,-567.7096067,263.9386174
125.8719999,491,-357.2367643,-361.8084194,-122.184923,-47.0497097,307.2104303,-233.3702083,877.6353229,389.4466648,93.19911142,-37.59505453,-31.87328323,70.80901096,0,-287.7988556,-87.13797218,-665.8152653
125.8799999,491,107.1095777,308.3184116,-158.9936586,107.7356078,-289.5466376,79.6493056,-331.7778004,207.5333568,-16.00742007,-68.04256087,-387.427177,-117.8462366,0,161.1117172,633.9784692,868.9883826
125.8879999,491,140.9490206,-42.4459054,276.3848002,-387.8285349,229.0308083,-17.04396934,-502.2981036,-602.3296691,-200.1769574,322.9155281,351.4642239,465.2996255,0,43.34721316,-1027.571553,-665.0659328
125.8959999,491,-352.61545,-123.3154922,-344.0951569,266.917588,41.06845509,-129.9540303,990.9269413,949.6666797,209.8443621,-216.212655,-480.8325923,-259.3120506,0,-199.6175666,861.0832083,257.0227784
125.9039999,491,393.6347733,347.9334659,227.1795187,-279.4917116,-166.1125993,142.3184474,-1254.739717,-727.5988323,-268.2068658,287.1788713,55.75348909,308.5113859,0,307.8339472,-571.1752699,285.3995941
125.9119999,491,-361.6616297,-364.9054779,-103.831063,-47.28292622,309.0217384,-216.1752642,866.665281,417.6464336,82.21757254,-22.36864,-119.8109594,24.23492499,0,-300.083606,-117.6603637,-676.0688659
125.9199999,491,81.80836166,290.3971648,-154.0863507,111.0367227,-306.3069661,66.72088367,-308.7325183,230.3695009,-8.356142478,-72.63634053,-470.2803583,-175.7591418,0,120.948194,648.3057024,859.8849229
125.9279999,491,89.75442374,-87.48706433,250.180053,-393.3883958,168.3515691,-74.02341637,-490.0774047,-623.8515778,-216.7044418,290.2734888,244.1940972,391.102558,0,32.08933471,-1001.017306,-659.7184687
125.9359999,491,-387.3993254,-153.6505079,-360.9416091,249.9443419,-14.51992672,-156.3500602,1027.455412,908.8778601,190.6124556,-262.479868,-557.0925148,-330.0987648,0,-234.5849105,892.1637963,245.7856704
125.9439999,491,417.7506736,379.4346307,253.58565,-296.0911981,-202.6953582,166.0112155,-1251.13328,-796.4433512,-257.4761927,277.1672639,63.19902746,294.1438001,0,284.2579303,-531.5555531,296.9871846
125.9519999,492,-334.2535642,-342.8665846,-71.74858457,-57.22285948,302.87217,-202.1828307,857.7556427,320.1507868,98.96487215,-3.644510683,-74.41330845,60.26037988,0,-280.5001989,-110.0222774,-673.6460855
125.9599999,492,103.3413464,311.4230085,-132.5552544,122.0670976,-280.9224002,97.16047582,-291.8783779,158.108412,13.19448226,-57.81290347,-440.7600404,-143.7162066,0,132.7637557,668.771007,878.4419254
125.9679999,492,135.8174817,-35.05956004,300.9742326,-381.4615696,217.591857,-21.42573662,-520.8182648,-701.9867117,-191.1745987,333.9824179,296.4952156,443.4899575,0,51.58707028,-1015.450015,-631.1824794
125.9759999,492,-380.5074764,-134.9441915,-324.8168038,269.8269479,50.36042317,-140.4455282,1028.169775,881.6687113,213.3264332,-229.8082554,-524.7922822,-292.2366566,0,-212.4143337,871.6537801,255.9235064
125.9839999,492,410.147595,388.8209474,275.1845759,-269.6199963,-147.8670827,178.1059991,-1253.546073,-783.0956675,-240.058263,289.7794438,70.43546226,306.0077566,0,302.1203921,-542.4225221,319.820114
125.9919999,492,-322.2609803,-323.0571163,-22.53340049,-36.36587858,354.1319573,-179.382779,840.5828471,335.685954,118.2431418,14.43139304,-39.17744906,72.10895697,0,-261.1554066,-161.3896622,-686.1658112
125.9999999,492,93.86820053,314.7292417,-107.5405456,154.9827926,-263.0888618,106.5663385,-268.3927031,214.3121632,28.54492453,-80.69236032,-420.5046425,-177.6293298,0,149.5040718,657.9989337,870.4661356
126.0079999,492,141.3743008,-20.88725551,323.9217677,-356.7019184,201.3740119,4.73006258,-533.3934006,-670.6022035,-183.9785102,305.7122367,349.1874274,422.2457422,0,57.83974678,-1032.219635,-638.1716426
126.0159999,492,-362.9940075,-122.5917801,-290.6707026,300.1256397,30.45055027,-113.1421726,1042.521558,919.5693166,235.583351,-245.1869281,-432.90759,-282.2257239,0,-216.8125216,856.5314711,223.5222726
126.0239999,492,424.4806687,394.99365,284.7728058,-237.409702,-197.4424603,190.8097666,-1229.500129,-735.9738286,-225.6347736,250.2497952,141.0565063,292.7093017,0,315.6772279,-501.2122822,325.0570447
126.0319999,492,-309.6451237,-319.0990279,-17.04790261,-27.25886575,301.9153232,-166.5045009,843.7648286,341.4687648,120.8565821,-18.96898219,42.01158905,78.22077453,0,-254.7125347,-132.9860112,-699.8504509
126.0399999,492,82.10567724,297.3151066,-112.7845404,168.7316746,-302.7867034,97.98126733,-237.7015109,204.1372614,39.85971786,-104.6860988,-353.83188,-156.0794228,0,146.9718487,707.1590641,855.4180496
126.0479999,492,130.8597655,-43.65530825,310.7541504,-361.0126297,163.4131975,-11.62225547,-530.9537991,-750.570655,-193.505537,269.2850355,374.2824457,419.1939313,0,66.6898911,-983.9344343,-640.6047849
126.0559999,492,-382.3664016,-148.1564139,-309.3059685,287.3707178,19.05224423,-117.9506707,1063.677577,801.9805658,220.8169683,-282.3070295,-424.6581023,-301.0163046,0,-231.3019624,891.2342073,195.3574194
126.0639999,492,407.3681962,386.7091931,270.5222315,-234.765906,-191.2637779,192.2246509,-1220.199474,-866.8156989,-232.498948,227.9951484,144.7137842,281.9472213,0,296.8181068,-465.9957464,317.6933406
126.0719999,492,-297.7129798,-299.1472542,-6.664251233,-24.27949315,333.7010625,-138.1128977,824.8911933,214.6330967,116.2014834,-18.56461914,59.4910799,92.2981355,0,-244.929312,-145.1645208,-724.2610405
126.0799999,492,108.3298856,333.1825373,-98.79629646,188.8898195,-243.2740251,146.0516306,-234.1674401,172.5188193,54.28981215,-88.52846454,-327.4206112,-132.7995533,0,167.6109573,692.9382493,830.5872198
126.0879999,492,167.0830452,-7.511469731,333.6183477,-339.1680743,229.0736891,16.53351666,-553.502332,-706.3122339,-175.6388474,290.9204423,417.9878284,452.7744391,0,82.74989148,-1022.174705,-655.4096575
126.0959999,492,-371.9104172,-147.1794354,-297.8855789,310.7155294,75.89723856,-117.7439413,1076.129356,933.9965141,233.1867367,-278.6571685,-392.3984929,-278.2811284,0,-216.5838135,843.259453,165.833582
126.1039999,492,394.6625637,366.4461568,253.6520707,-216.4800598,-171.1511894,176.8046843,-1201.151946,-702.7286615,-239.8115286,204.6123891,137.2357907,273.9043083,0,305.1479322,-485.3169244,319.6742455
126.1119999,492,-318.1215669,-326.3486668,-19.87024666,-29.19207688,326.0551911,-169.2224013,833.8544719,324.6570752,92.15917196,-55.82347055,51.72328594,79.47093982,0,-274.9390475,-172.533689,-732.6369714
126.1199999,492,83.53741384,315.7155599,-98.49364141,191.1545678,-275.338488,128.3372518,-199.6151632,229.5158897,42.39969826,-126.0628417,-339.288103,-149.4982381,0,139.9732354,703.8574537,830.2040986
126.1279999,492,161.7058714,-4.169899188,350.393171,-340.6552108,183.1313691,24.10677924,-561.9374648,-758.4726652,-185.0774654,279.1594048,415.1679604,452.9150075,0,91.29149036,-1012.638256,-642.0407023
126.1359999,492,-385.3152943,-151.8112263,-291.0817704,311.9492776,43.64556893,-116.9394533,1081.529261,830.5200258,229.6769887,-280.5138975,-384.0892103,-268.102673,0,-223.8602463,850.4913443,159.3867806
126.1439999,492,384.8982012,372.9282946,253.3490852,-208.3565342,-193.3433042,195.1349514,-1206.789778,-808.4425977,-235.0864942,202.4929817,145.4857704,277.7662687,0,301.4279751,-461.1197392,328.1001761
126.1519999,492,-325.523164,-331.1727094,-24.62074743,-34.40251282,328.2678613,-153.3107723,813.8478634,238.500635,91.64507416,-55.82263744,72.04032619,88.16689157,0,-274.8181804,-185.9501541,-753.0971476
126.1599999,492,47.91877162,280.8760928,-138.6449037,192.9421736,-263.1834683,108.0364975,-181.3135516,231.3515839,32.52465074,-145.4407499,-341.4272989,-159.7274888,0,111.662535,704.2758044,805.6574482
126.1679999,492,141.6087208,-17.23484451,318.3142256,-347.6252362,193.941105,17.69920041,-571.3971265,-725.2539961,-213.2191498,258.6526564,404.3815309,436.9719927,0,73.15332549,-1025.248775,-661.0380498
126.1759999,492,-392.4943585,-155.2324235,-300.8073172,305.2233223,65.56620775,-116.2152005,1095.884107,895.2893436,209.9672943,-287.884223,-375.4005987,-267.3651027,0,-220.8166845,824.9925122,117.4289059
126.1839999,492,376.7374201,366.268934,243.3680495,-206.7040382,-190.8135335,179.2370556,-1191.66799,-740.9274676,-248.4344701,196.6270362,151.8677283,274.736422,0,301.4390232,-466.2530292,317.2508836
126.1919999,492,-313.1213867,-316.0248864,-13.20818949,-42.72335239,322.9882134,-149.5148755,812.6025346,258.919815,73.82720441,-55.73608578,84.28201878,84.402485,0,-275.907616,-206.5228189,-765.1533064
126.1999999,492,78.10495446,318.9819417,-111.6527682,200.260713,-264.5354245,133.4869819,-165.0305425,248.5393945,36.07504194,-126.2985848,-308.521226,-139.6934751,0,139.0467347,705.794613,797.6409164
126.2079999,493,452.0698703,210.6712661,524.1042737,-533.7583416,86.6375471,135.7705087,-1446.859559,-1349.061057,-379.1939739,441.4664992,618.9377667,647.558732,0,285.5900757,-1484.193847,-567.5532635
126.2159999,493,32.92648703,295.8335117,-174.2561869,195.0821108,-256.7570589,94.72260778,-109.3042385,268.5589407,29.50669158,-204.399624,-369.3115791,-216.9130283,0,71.68639311,754.7772793,792.8234339
126.2239999,493,682.2194668,961.2476805,57.86425652,70.36166765,-748.5570761,426.6600603,-1922.984866,-605.5311628,-240.4308706,10.4243053,-333.1091825,-67.96679313,0,605.4823509,616.8419275,1852.657241
126.2319999,493,253.8687707,273.9928681,164.873498,-159.4920575,-103.2908839,121.3680643,-797.3668631,-532.1237601,-173.3301933,107.3518123,105.2791412,198.1718664,0,184.4067083,-325.4308764,164.1736728
126.2399999,493,109.8885237,254.1047753,-22.18089939,42.71483514,-160.4881121,93.33525769,-350.3727563,-63.62869142,-43.58601523,-48.7277626,-128.5816002,-8.487254735,0,112.891296,243.5951638,449.9468508
126.2479999,493,-147.9447348,-214.584378,97.62103466,-153.9992124,284.079603,-112.0575504,280.4313797,-128.9188054,-33.15382013,83.82553456,244.1975431,246.600299,0,-132.9970339,-563.3242134,-747.4313381
126.2559999,493,-208.1599941,-12.999201,-205.7813434,188.170031,-27.35790444,-55.82179033,509.1610398,501.817921,92.41766475,-190.5128725,-262.4724674,-162.419613,0,-100.5845741,534.3494013,219.4235487
126.2639999,493,259.5759924,265.3576741,177.3392786,-182.3232982,-115.4623661,117.3740348,-878.690551,-564.103462,-195.4611668,145.5355151,151.434466,239.0597305,0,216.4778941,-444.085986,120.2943698
126.2719999,493,-363.0893117,-336.7548017,-79.23226789,2.397786871,317.7692077,-175.8127318,937.784936,408.4113388,116.1081925,-84.65659095,56.33387867,50.39090338,0,-285.3820187,-108.4277718,-765.0116335
126.2799999,493,135.8545638,340.1365884,-83.91403384,123.9311291,-277.9668146,136.9495361,-386.438492,88.91115878,-12.75711501,-87.41478876,-246.5998936,-96.8417929,0,156.0174545,513.2355904,727.6769531
126.2879999,493,30.22403006,-105.2863636,223.0453643,-277.3063274,223.2538047,-52.79594943,-239.9179841,-496.2546235,-134.6561018,199.3580072,371.440992,367.9497019,0,-11.31774673,-878.9165126,-750.7889503
126.2959999,493,-343.9236283,-130.1644764,-290.6619116,258.8229023,44.19809447,-127.9112637,942.2665971,754.4655469,181.4672868,-269.3830803,-321.7092429,-251.1077118,0,-213.4535296,713.6099705,84.49123095
126.3039999,493,346.9947263,353.1028152,202.3171485,-189.6416703,-156.433994,161.7833199,-1056.172285,-686.4023079,-206.747925,167.7489667,160.0912842,246.0950727,0,253.3312484,-425.6436532,230.853941
126.3119999,493,-336.5243119,-339.2612674,-45.53025163,-29.55471171,353.2899576,-180.6360723,856.2673158,270.5850764,106.4649099,-48.42162476,120.8064893,97.76024286,0,-287.6054826,-219.1232754,-823.4442479
126.3199999,493,47.86936281,282.0128572,-153.8632287,186.3313999,-233.7265735,91.85717663,-146.1038364,233.5299533,43.26740215,-154.3343645,-307.5246227,-167.0228242,0,98.84807518,668.2399259,740.7404336
126.3279999,493,113.2549452,-34.96630717,267.5726089,-322.3147116,224.0596595,-9.542846335,-457.2423336,-650.2777612,-177.915795,232.0734136,409.2350499,412.8103253,0,49.73318265,-991.1153761,-700.3692653
126.3359999,493,-387.7452922,-166.6727768,-312.0709917,278.6583612,111.4341727,-129.4587835,1101.595702,865.7941341,207.8196919,-287.8263309,-331.9301484,-257.7205931,0,-247.0355555,735.3971405,37.02813055
126.3439999,493,380.0576371,387.9526369,225.2756842,-179.9495157,-139.4828586,208.7201074,-1091.349258,-669.6596893,-203.9524138,182.1415353,167.1145497,263.0423828,0,283.195654,-437.6231529,279.7028039
126.3519999,493,-300.0339541,-313.9958127,-5.312698113,-35.34649999,379.3873331,-142.958101,808.7014051,245.3652401,99.39748042,-14.93063967,149.0599622,133.5834384,0,-241.2205746,-298.8298919,-835.2710711
126.3599999,493,21.11903777,271.9448595,-166.7418489,217.6512864,-219.8093609,87.17645321,-51.86771734,318.7048157,60.81308133,-166.3051101,-336.8876518,-189.9293687,0,85.97707615,704.6374518,748.237327
126.3679999,493,159.1500028,12.03515705,314.3696944,-329.0633733,208.2609193,22.08783652,-557.3538473,-702.9481462,-184.432838,263.5676578,442.2232746,441.6740558,0,64.32159274,-1051.270625,-682.2435335
126.3759999,493,-391.9405755,-164.064341,-292.4782207,302.0519681,125.0740402,-126.458863,1161.180519,915.1201248,246.7198874,-270.8996126,-303.9047309,-237.8033189,0,-239.2668975,739.083057,3.11238311
126.3839999,493,382.2998452,395.6957729,222.2376746,-174.3509439,-157.80925,184.3423137,-1111.520259,-658.0383676,-196.7505964,183.1398099,161.9245711,258.5697051,0,296.0709027,-431.7257634,297.5994633
126.3919999,493,-299.9977294,-319.7866834,-9.323002976,-54.47351362,366.2315356,-176.0046788,796.3530047,235.3590602,94.52860734,-18.1719274,147.6860528,124.3694881,0,-258.6663375,-311.8026583,-853.8328104
126.3999999,493,30.30083049,281.9567765,-163.1359415,205.3800781,-225.7578266,79.92109953,-29.55648291,326.1999878,79.34695155,-162.3993857,-327.9918414,-187.1869861,0,75.98089242,734.1958982,737.8172408
126.4079999,493,173.7625545,29.4643623,328.2384285,-352.2685345,193.8210649,24.52415518,-608.5921058,-756.3512197,-181.9292739,282.822055,461.4680353,459.9835504,0,66.6891544,-1064.622496,-674.6738479
126.4159999,493,-451.5158065,-207.9507511,-326.1263689,289.0378374,106.5778135,-173.4692662,1196.029694,897.9245813,243.9623003,-283.0276837,-331.2053023,-271.2761554,0,-269.9664007,755.1646179,-2.146372321
126.4239999,493,325.3426695,367.9453108,178.1289737,-192.7122911,-199.2677736,142.3808413,-1108.322439,-687.4386515,-221.3515953,155.718859,107.9453143,205.1389385,0,271.0899333,-397.5267718,326.2292042
126.4319999,493,-346.1706982,-341.1764035,-40.02240145,-76.53977663,341.456287,-190.8408764,794.6823516,213.0269007,65.61354003,-36.02576829,117.8852703,99.0677635,0,-286.0202097,-308.0942172,-855.186958
126.4399999,493,-20.63898639,249.5054913,-209.1639296,202.4862393,-245.3128202,63.01887573,8.162124818,359.5307108,62.85915782,-190.7863863,-369.3720802,-229.0803129,0,53.53590042,770.5019153,739.1510215
126.4479999,493,167.1395726,22.03066042,300.1540676,-360.4104054,172.5467155,16.88947172,-615.1946981,-736.456934,-207.3985571,262.6531445,432.9555145,429.3240268,0,67.63923077,-1050.170784,-665.8546779
126.4559999,493,-431.9617397,-197.653697,-327.595449,282.2196129,111.3753612,-157.2571078,1219.760884,940.8938822,237.1802185,-288.9326928,-328.5960003,-267.2229636,0,-284.0099624,758.640348,-21.04008402
126.4639999,494,373.7014215,409.5175339,198.9639874,-188.5235281,-189.8932478,182.3342133,-1112.16501,-651.1058678,-199.2776891,175.0376998,142.4019567,238.2367353,0,278.5001861,-392.9174854,325.6149621
126.4719999,494,-290.9436906,-301.3656445,-8.080827904,-70.31830982,357.5679373,-163.7270313,773.9169469,212.8863513,98.08661401,-2.220336915,177.5663271,145.8777685,0,-252.7147592,-339.2974441,-870.9849532
126.4799999,494,30.50084907,300.3840825,-178.9965147,219.5023313,-231.7797083,93.49125833,16.21322867,358.6651201,104.0412699,-172.3908285,-333.2907697,-201.3801404,0,74.3620664,773.7472739,739.6387532
126.4879999,494,234.3145826,95.73018748,345.0706509,-344.317914,179.6200081,64.45824013,-653.6128683,-786.6699868,-161.8249192,312.0236853,489.6538871,484.9184318,0,113.238849,-1061.83364,-654.0452135
126.4959999,494,-389.3524604,-160.2519711,-300.580445,304.1914941,120.3696009,-135.8267658,1208.814528,889.5010925,287.2882646,-225.5601512,-261.6003468,-203.3269414,0,-225.2152665,740.2694065,-33.52613773
126.5039999,494,401.0281949,437.0705656,205.7159264,-168.1209099,-201.417421,196.7490315,-1122.193714,-690.6566928,-171.5759832,198.1496566,156.3849013,251.1127658,0,303.8534945,-372.4955509,344.219535
126.5119999,494,-284.3402692,-292.3041179,-1.019390807,-64.04934764,351.8246284,-155.2411134,753.9396153,172.6529205,106.4043884,6.470701209,183.6651782,147.4522847,0,-256.3713534,-346.4123539,-869.4701199
126.5199999,494,-19.68715189,252.8210235,-205.988107,236.1090556,-233.1826724,56.57851035,46.33292156,382.5005355,111.5430068,-178.8453421,-340.9102188,-215.0988021,0,71.23408837,786.3522649,738.0367629
126.5279999,494,166.9703188,36.08687706,295.4726112,-344.6669259,159.9567919,4.557344422,-640.2660511,-747.8038284,-192.5940796,260.3785885,433.6333918,425.0141078,0,85.13611289,-1037.792433,-636.705042
126.5359999,494,-448.9371691,-202.3515513,-347.4130933,295.6073984,106.285285,-181.350979,1246.139432,946.1019582,246.3206782,-299.074286,-324.6260587,-271.1384472,0,-291.2503533,764.5544529,-35.33555139
126.5439999,494,374.1724043,427.2069545,174.247131,-164.6953842,-217.1199281,172.9843284,-1091.619867,-628.5740758,-190.9607097,153.2101011,127.6000358,220.0591009,0,275.0469339,-336.0283286,360.646736
126.5519999,494,-274.044756,-277.02106,-2.630270828,-70.69199677,341.4662523,-151.0264776,755.1779088,191.5384956,99.42308709,0.647321203,199.4975248,162.7771682,0,-255.5111232,-345.1985754,-870.634837
126.5599999,494,-3.728798009,276.7591943,-201.8950359,245.7687843,-237.123829,86.10997145,67.50126308,391.5844274,122.1830824,-165.7471642,-316.838978,-185.2667884,0,73.24782716,804.1287042,738.7029184
126.5679999,494,205.7137143,75.77630971,314.4374543,-331.2127242,155.4669371,45.25552536,-657.9237529,-785.1829527,-188.0654989,282.706572,449.8151788,446.6824939,0,104.2376858,-1026.502738,-614.3109994
126.5759999,494,-405.6365641,-163.9468344,-307.82401,308.6373888,121.1939605,-138.6983996,1239.965264,895.0741932,266.7923122,-264.9907463,-286.7811482,-236.7160867,0,-263.9600931,758.5978165,-33.80918502
126.5839999,494,386.7200747,443.0732819,196.8059474,-136.0370839,-200.7238033,196.6541702,-1096.793074,-665.1826786,-161.7499069,193.9753907,162.0411014,256.1117848,0,314.829226,-330.0732536,379.7595251
126.5919999,494,-275.6883307,-279.7030024,0.378568261,-52.25453088,360.6347264,-156.4012339,741.0793269,162.7672633,92.16033319,10.18250152,182.4351433,151.8260488,0,-242.7225394,-355.2618134,-857.1910227
126.5999999,494,9.10796802,284.8091509,-201.7521916,265.5158287,-215.9490035,80.46213461,81.26346493,412.0120588,124.066272,-175.2485766,-339.6235478,-207.0940819,0,69.95731249,813.1812128,750.4725476
126.6079999,494,223.9953738,80.17515096,312.2895257,-314.2258169,166.8819121,37.5389861,-675.3751826,-764.3656389,-168.5954204,302.6049934,472.7150787,467.4187048,0,131.7534979,-1040.56106,-602.0960928
126.6159999,494,-419.1408567,-192.5332519,-333.8643787,314.7589278,133.0441153,-171.2735956,1251.989354,934.2766792,271.5302415,-263.7776072,-289.1528409,-238.3940601,0,-265.686843,740.8002096,-37.5772428
126.6239999,494,383.3395194,434.3246504,172.2606871,-137.9377441,-206.3456019,178.3635307,-1091.622869,-629.6691732,-163.1955921,169.0048175,140.3535017,235.5213909,0,285.782329,-319.4619152,403.8455599
126.6319999,494,-253.9421355,-267.5657963,6.222517019,-64.98492274,347.3800404,-148.649113,715.802661,143.483001,100.4310804,15.30397701,215.8045886,176.2905609,0,-243.148807,-372.9212866,-850.6693197
126.6399999,494,16.45468785,288.6457709,-195.6954545,262.876546,-227.9461446,86.24001588,85.18701084,391.4063118,142.2316486,-163.136406,-296.6310499,-171.1947463,0,81.61869245,817.5990387,755.9904093
126.6479999,494,238.5685752,99.75417633,330.3864486,-322.8490126,156.3754765,53.68441506,-713.6910422,-819.201692,-163.6832926,304.2257001,507.1576002,505.4116918,0,137.4762258,-1044.217289,-587.5279111
126.6559999,494,-403.9487696,-168.6708014,-302.645824,311.3534758,139.2515778,-136.2072716,1225.529235,885.011115,278.2974774,-254.8303967,-241.0583643,-191.1688892,0,-253.0105085,724.4193296,-53.95174291
126.6639999,494,397.4929046,457.3816836,207.0362312,-119.9159597,-194.2039699,221.4163683,-1111.165597,-640.8634772,-144.0891475,197.6346987,202.8187006,293.4205246,0,328.8119302,-322.4274163,399.6451755
126.6719999,494,-247.5489615,-261.8052687,36.68708802,-54.01464515,371.9102833,-130.9473886,682.5637497,144.7311579,111.0746351,38.29484774,271.001023,231.7543859,0,-203.7213178,-404.1655441,-871.491212
126.6799999,494,9.402280555,286.1434213,-185.1334276,279.9886748,-206.4196734,93.4404014,90.2746168,442.1922806,149.1280761,-169.1586443,-275.9216109,-150.0956439,0,88.32319426,814.3138684,731.5424332
126.6879999,494,242.5295919,105.5300443,348.5424312,-303.372163,160.5282458,64.69396286,-727.392496,-772.3391521,-162.4303802,304.7461554,532.8856462,525.7016853,0,152.8448305,-1049.450914,-603.4965577
126.6959999,494,-422.7565945,-194.1458567,-304.949633,325.7099729,134.1938653,-170.5684703,1244.946486,928.5183458,277.0815817,-265.0508659,-230.6171953,-184.1818696,0,-239.3221754,724.5219045,-83.43420551
126.7039999,494,376.8671238,435.0775321,183.8741417,-107.7860507,-224.5827652,179.7121332,-1084.717045,-613.982696,-147.9517853,166.6436917,185.1820581,277.3365386,0,326.1209985,-281.5872208,401.018204
126.7119999,494,-271.3123324,-286.3116847,18.98161543,-56.27761224,335.6643517,-164.1551792,689.3498225,117.7771337,99.51382625,14.40997412,267.1904243,221.5160087,0,-220.774766,-382.2898483,-878.8668511
126.7199999,495,-50.8722615,231.1566958,-228.7648493,276.915267,-245.9145589,38.91809819,133.3183832,415.5832082,133.8796365,-208.950508,-308.2525353,-189.6835094,0,48.21932685,866.4485108,732.7009739
126.7279999,495,223.312477,84.69766843,330.5075425,-314.7069379,126.3139216,59.48698733,-725.6946739,-827.8233532,-177.5013243,276.9961483,506.8798405,496.4397614,0,125.7530477,-1001.118978,-586.5926108
126.7359999,495,-403.9847512,-188.4930533,-284.0520498,318.4121995,143.2967624,-127.6559972,1243.452931,878.7836757,283.9633929,-257.0248411,-210.2479488,-170.3197548,0,-242.8180274,741.8220552,-99.4999787
126.7439999,495,383.6580711,425.8075674,181.8956508,-98.24407702,-200.9135082,201.2854319,-1082.290747,-625.8923211,-144.3661282,168.1338769,184.1549693,274.5655787,0,339.8497176,-259.4903188,401.8419465
126.7519999,495,-245.7362695,-284.9228334,21.40823701,-53.18599224,372.2694181,-131.9794017,672.4624387,115.556656,92.01692337,17.57504922,263.6148645,221.2916233,0,-201.9315776,-398.2701513,-889.8840611
126.7599999,495,-12.07609092,253.72683,-209.8248171,289.3428586,-189.9208247,82.97389933,140.3692108,459.7614414,149.7572594,-184.5746465,-287.4174824,-163.2961888,0,71.48595258,852.2970352,710.9179566
126.7679999,495,240.3902886,91.07910306,331.2041357,-301.6538199,169.9088272,62.87951887,-739.6102932,-777.4515442,-168.6722068,294.2272224,522.120779,513.6793754,0,155.1598437,-1023.846907,-590.7092925
126.7759999,495,-423.4484932,-209.8447097,-309.2538422,321.6704405,165.423692,-144.1891378,1256.132766,931.7633269,277.6127162,-268.3465836,-223.8252437,-184.2064521,0,-250.331268,721.2098205,-110.1868101
126.7839999,495,364.0964249,420.8000867,162.5843616,-97.87514314,-212.1477154,196.1179344,-1068.083235,-585.188531,-147.8820002,162.2571865,158.1017149,255.5137808,0,320.7753379,-244.0722052,411.977909
126.7919999,495,-224.5944322,-255.875021,47.68238925,-63.53452471,354.249028,-111.4880725,649.2346948,101.1062103,98.32373573,41.91056494,275.6096393,234.8231944,0,-195.5081843,-405.2681698,-896.0385967
126.7999999,495,16.81905915,286.2258728,-170.5639311,296.2022558,-204.4593675,122.0322123,139.1982182,439.7735479,175.4874529,-152.9196962,-262.2863387,-138.7000758,0,92.67318188,863.037242,705.8637069
126.8079999,495,242.0762445,93.32404194,349.6987542,-290.7157426,142.7675488,65.02709841,-752.7054663,-818.2238236,-156.5637165,316.7880225,527.7497239,524.4042615,0,175.2571937,-1005.619087,-572.3080225
126.8159999,495,-428.3100071,-218.2870261,-292.8459294,321.6898397,153.0878788,-165.6869042,1265.195374,900.65663,278.5010442,-270.1921057,-230.864512,-190.8650425,0,-253.0918647,735.8013564,-113.2544459
126.8239999,495,367.7148013,417.9471691,175.4359099,-88.52805837,-210.6564067,180.8386137,-1051.301897,-579.3869309,-137.1767256,155.9538842,155.802632,256.1432921,0,317.8048828,-216.6241451,418.6284046
126.8319999,495,-276.9917776,-321.816963,9.810730866,-62.08698403,352.786308,-191.6407209,678.2434301,126.4418568,87.40055463,12.91490436,251.1727723,214.4427284,0,-215.8997565,-395.520358,-890.9959549
126.8399999,495,-73.80768931,191.8768435,-263.4052605,280.2297366,-224.7360807,3.186412566,214.1243648,507.2066426,136.6548728,-245.8281573,-351.7051239,-229.4392278,0,24.24113097,906.8505625,720.158843
126.8479999,495,202.308637,51.9336546,274.1613844,-327.8188905,111.7663957,4.94954434,-725.247943,-774.1183056,-195.0552493,237.6353155,456.0765711,454.2502532,0,105.5199264,-980.7632458,-557.3621939
126.8559999,495,-442.4668646,-237.639942,-329.6724013,285.0671315,135.2470481,-184.4209973,1294.226232,927.9365888,268.6788545,-299.7743139,-246.6087799,-203.2066539,0,-296.7767924,727.8585567,-127.9057847
126.8639999,495,374.8670416,424.6420366,166.979297,-113.7097051,-233.3252352,193.5315174,-1034.665201,-566.0579745,-133.0187352,146.3416639,153.0820783,256.2455983,0,306.1588595,-207.8413366,426.7503445
126.8719999,495,-245.9293951,-294.805324,28.32028294,-90.92096694,336.8847609,-143.2051089,653.1763059,94.84667973,89.33675958,25.28077946,265.3752902,234.2307257,0,-211.1956036,-416.3485875,-898.9450174
126.8799999,495,-50.43986832,216.9174099,-238.9323843,272.8131197,-230.7775938,51.04654474,209.736752,488.6398594,156.7758558,-221.7229032,-331.6794421,-199.1915522,0,37.64534555,898.854232,703.0939906
126.8879999,495,209.3144035,54.79728304,297.7134684,-324.8733019,103.2270426,21.48845298,-744.9784453,-796.5531276,-184.7451625,265.8634325,469.8392569,477.7062017,0,142.0093137,-984.3534568,-557.12432
126.8959999,495,-478.461123,-286.2363937,-343.5329758,280.6285627,130.7965062,-216.0050755,1315.842002,923.7903511,241.2516984,-315.0505093,-288.9929117,-233.2283062,0,-290.0214835,739.2875839,-136.886208
126.9039999,495,338.6997122,385.7162758,122.4021345,-124.547451,-250.929107,150.468615,-1008.580366,-558.2986102,-178.1706613,94.43248867,71.64367037,191.579463,0,288.7206965,-165.9232463,437.8490493
126.9119999,495,-261.9651909,-324.0929027,2.555070801,-111.5990303,328.9753585,-173.7122868,656.7295078,81.619181,58.13937203,0.749401493,232.3952451,205.3304671,0,-218.6516252,-412.2575551,-908.0469892
126.9199999,495,-59.69272506,194.029908,-252.6494687,261.3954806,-220.3461386,39.13983871,248.5133226,499.0896256,136.6486603,-246.7072174,-366.5762064,-233.3462345,0,17.79173926,925.1025716,698.3889252
126.9279999,495,260.6738466,97.47477279,322.0990452,-337.7945251,119.9163276,62.11371862,-766.3402661,-820.2287606,-200.9894579,272.2038919,470.5667883,479.5508683,0,144.710334,-976.7699929,-548.2658825
126.9359999,495,-415.9089733,-240.0755488,-296.9182981,278.6517155,158.2377759,-162.7439669,1284.066062,892.2031772,265.430585,-258.5808078,-213.5583059,-174.6647464,0,-267.3804096,705.422512,-159.0057024
126.9439999,495,842.5768695,796.0144532,425.2517151,-327.3379055,-472.2041944,379.8954317,-2396.447938,-1422.622813,-395.9352432,372.0806176,320.5541518,461.2181028,0,650.513165,-694.1011843,815.7958159
126.9519999,495,654.8360474,291.9701893,689.8358616,-687.8506918,82.263908,179.4112664,-1987.793082,-1829.493507,-471.7760185,611.6690086,903.1842608,884.342918,0,410.3499389,-2000.116609,-764.6010888
126.9599999,495,-212.1888201,-66.14175592,-186.0894837,180.0985275,45.68292422,-79.42900469,681.5587214,517.9965377,157.4592497,-166.2277984,-145.3182145,-91.81068781,0,-122.5100186,490.6826505,12.1671586
126.9679999,495,-92.59990273,-20.01219744,-57.73460199,41.61298082,53.04836053,-49.25836379,294.7448657,166.4522006,63.83838319,-59.72329718,-2.737208338,34.87541551,0,-56.26432428,120.5346934,-132.2969978
126.9759999,496,53.03075771,112.250029,10.46217549,8.389721545,-44.3507015,24.21577404,-107.3120638,-37.16428144,10.92966177,2.558057393,31.7361112,89.66257002,0,54.34886223,67.09070602,59.75845902
126.9839999,496,34.4535815,34.09426566,62.64631409,-48.9661058,51.62210886,-1.810928727,-50.2569038,-110.0864188,-2.947802979,54.02029178,142.1035334,179.3590131,0,15.79816312,-163.1052043,-202.5077732
126.9919999,496,-213.5228187,-109.6716163,-143.0810086,139.8823852,110.3381696,-88.17324103,703.2607509,459.7201141,139.5684905,-117.5076957,-70.08736511,-23.1185863,0,-134.0281614,336.4468424,-174.9889701
126.9999999,496,244.676797,296.6456665,100.516117,-44.21868295,-133.7565838,134.3586448,-605.8749481,-325.3102651,-77.10796228,103.8643773,93.83484897,188.7851706,0,217.5627046,-60.49754189,270.0694267
127.0079999,496,-171.7012405,-185.1671947,20.09525402,-28.43971115,270.8058687,-90.49016186,540.3411409,113.2376584,86.31743831,29.81877075,190.7398865,185.144153,0,-137.2158818,-217.1162345,-642.2359361
127.0159999,496,-31.29183641,163.9395994,-163.4273672,219.3193421,-127.3462955,44.55087455,180.7763919,348.4436684,118.1643123,-135.0565285,-218.9584662,-112.2111105,0,56.71426099,675.4659843,487.9970673
127.0239999,496,179.242483,74.38754557,230.9963024,-213.7968084,95.45882001,39.10476497,-554.178187,-598.5600802,-148.9258195,206.0701348,336.5475615,360.9688681,0,134.6395552,-675.0482077,-379.2997257
127.0319999,496,-352.2994092,-207.7979088,-238.0161498,245.3827019,169.3428689,-135.7974417,1123.385618,751.5245234,210.0790171,-207.2863896,-184.3065337,-140.1237907,0,-227.1181129,587.0846521,-178.2906882
127.0399999,496,319.6596854,365.4856658,118.9704648,-48.82859754,-197.5109035,179.0539333,-836.4226852,-431.9862537,-118.9039346,129.3123246,78.17981762,186.6366567,0,289.500848,-64.3177608,431.4180635
127.0479999,496,-229.5456201,-288.4123668,19.80262249,-77.63161778,312.7799171,-142.452669,591.0083262,76.29757702,42.20449271,28.74126878,206.181307,183.5011286,0,-174.8871934,-362.6560269,-807.0530144
127.0559999,496,-80.89214948,156.7069607,-241.9925815,263.7918052,-188.5845578,20.32632846,304.7164703,522.3952584,124.0029743,-225.6434427,-357.7318875,-238.0443191,0,2.51190309,896.7960286,633.2503457
127.0639999,496,236.7936875,95.99866967,290.3166207,-291.1439924,90.3593419,52.10358671,-707.3446553,-712.1364151,-188.9587206,250.4601865,403.1347299,417.9185815,0,139.4732435,-840.4402724,-453.083073
127.0719999,496,-407.0165635,-244.6613551,-277.1586092,262.2326689,169.6087895,-164.0580506,1271.858779,894.7798334,241.9563668,-243.5838822,-219.6301302,-176.4234371,0,-273.5752981,673.1833543,-193.4865244
127.0799999,496,320.2780154,368.9473616,98.61309945,-78.29596611,-240.5686848,156.8678721,-900.3835295,-430.9531292,-144.7181159,107.995197,49.76004752,163.1515814,0,274.4354932,-62.36754714,473.6894763
127.0879999,496,-261.5424133,-336.1758236,-7.704576751,-117.8720814,312.9407163,-190.2527853,623.4404015,82.36006929,17.70669719,6.753619227,195.3476438,166.7580941,0,-215.567891,-407.8934293,-867.3517745
127.0959999,496,-77.26397182,175.3522227,-268.1671454,268.489154,-214.8544182,21.57771831,349.5676257,563.8451451,125.0930711,-255.9788662,-400.3535322,-273.3788146,0,-19.65409886,980.4502939,686.7799341
127.1039999,496,291.4416443,140.6491071,325.8221494,-317.1946321,83.02017193,82.64232654,-767.370314,-797.8992512,-194.7323063,283.1973016,444.8686969,452.223342,0,144.5070244,-883.0532688,-464.1934349
127.1119999,496,-393.091017,-227.0871701,-269.2051437,277.6107115,173.5581305,-154.5775582,1313.307576,880.4378115,272.2884514,-218.1224032,-195.1275622,-162.6158032,0,-258.3762867,705.3397198,-186.8601796
127.1199999,496,369.339181,421.0723656,132.6672533,-63.9900533,-240.1192317,185.0384523,-932.4770466,-489.1504424,-127.2712351,140.7010332,78.69924091,191.3426218,0,309.6516411,-52.47126464,503.8113018
127.1279999,496,-206.5184938,-281.5538238,37.65501787,-96.36323827,333.8430621,-145.0279554,607.3648374,47.4076946,44.22599555,53.23013568,252.995084,218.8083022,0,-199.2147757,-425.0692131,-878.0073296
127.1359999,496,-55.63511178,199.8963493,-256.6981181,309.1416878,-198.1379426,45.82817732,362.0081425,598.3374972,160.1896945,-213.5834746,-354.4687668,-235.1652686,0,9.148553674,991.889172,696.4725678
127.1439999,496,265.9847189,103.9985297,288.5338895,-303.1742102,81.61480044,45.93171984,-769.0664043,-760.4569982,-207.989859,276.2006401,428.9819777,436.103206,0,160.220772,-901.4581085,-459.1369835
127.1519999,496,-439.580288,-280.4160314,-341.7038387,276.8650732,156.5340017,-206.4514462,1358.470685,955.6502904,239.962118,-275.8665086,-268.1518123,-227.7611222,0,-297.0849521,717.2192938,-179.0318676
127.1599999,496,376.3332204,423.2319878,107.5183415,-73.23623082,-258.1412829,174.0046544,-920.1555343,-436.062555,-138.0098054,117.3765194,53.81331236,171.4735799,0,286.054615,-42.08066776,521.7474499
127.1679999,496,-188.2953554,-276.9100685,40.11924041,-109.9819645,324.6180079,-155.9335243,607.8859144,65.01592878,46.89112879,52.33010244,262.3615386,228.686591,0,-193.650044,-440.1802162,-872.1735205
127.1759999,496,-66.13497074,184.3050537,-277.740761,302.5672106,-212.5782008,24.58164809,388.8152036,612.1779609,164.7927941,-235.4063885,-374.5850704,-248.0152758,0,-1.519787241,1004.83651,719.9508882
127.1839999,496,284.7132887,121.9740323,301.652847,-312.2895974,72.30617403,57.56367167,-784.2835591,-789.5495784,-199.8661053,278.9252917,435.5441854,451.2281304,0,144.6380023,-899.3616596,-434.4575372
127.1919999,496,-543.546355,-246.0204409,-524.7664399,513.3347025,65.61304883,-207.2042199,1805.446643,1448.08105,402.927615,-448.7920907,-536.9237941,-462.0044414,0,-359.9873509,1425.902149,245.3555701
127.1999999,496,525.920482,886.5608752,-195.7408914,351.4664036,-768.2047101,360.845083,-1102.149147,98.53837618,25.1889034,-155.4217867,-548.1056625,-291.4043755,0,489.1061688,1408.325374,2084.510306
127.2079999,496,373.457511,165.5820516,373.1928002,-350.5248471,111.1736638,105.9676653,-888.9231695,-910.4369059,-190.5513375,342.4531549,528.7975754,523.0983497,0,182.7210512,-1039.070695,-524.5371605
127.2159999,496,-372.3591018,-316.9275227,-182.387241,184.2898621,298.6571854,-182.6355932,1293.360598,733.4199979,240.0243284,-149.325418,-46.28989763,-52.24692224,0,-306.2217619,319.151138,-536.3019805
127.2239999,496,153.3982418,262.5184444,-45.36175088,105.2637355,-189.9228098,76.30540698,-293.6334977,36.90564993,9.057633126,-15.7166116,-95.85131823,5.526767538,0,158.3897267,338.5873778,531.1986981
127.2319999,497,59.62553051,7.352626539,104.6043562,-128.8046088,88.95804684,-22.45838988,-135.3174169,-218.9702672,-60.70719577,101.7938574,212.7455541,223.2081002,0,6.326892068,-395.5309591,-320.5679446
127.2399999,497,-193.835673,-124.5479005,-111.8457464,83.78293052,124.5798128,-95.94367731,676.7558928,424.7032567,129.1585014,-94.43825213,-25.25492724,-13.08784046,0,-171.2029713,218.714443,-252.3611718
127.2479999,497,92.61174566,204.3084158,-64.55583671,77.93895163,-171.9819386,50.73941108,-160.9445242,78.91942309,25.22000643,-36.64395296,-94.53676283,-7.278618043,0,105.2003805,343.5524565,411.903866
127.2559999,497,43.12647914,-35.00310934,125.6619016,-153.2649984,127.1673437,-24.5804826,-59.95583515,-260.6912148,-55.36186379,119.4361163,249.2807725,257.2902606,0,-12.05230909,-456.3502024,-456.3488278
127.2639999,497,-211.9073373,-78.83607547,-185.3908737,192.9842874,56.13907889,-71.05226694,792.7058519,573.9956972,179.7944611,-151.9820217,-151.9280295,-101.2249157,0,-145.437731,544.2072713,13.40567092
127.2719999,497,237.3096492,257.8503914,93.81504311,-69.69036269,-141.7872509,98.8967607,-594.7351306,-361.4441832,-80.2639307,108.7085067,98.31257556,172.2332737,0,201.0227046,-99.31354109,269.2465375
127.2799999,497,-183.2643135,-229.4366661,5.75455887,-66.9646785,258.58214,-133.3955355,566.1143367,89.6157263,59.4607235,15.03498726,174.9794105,146.8525361,0,-179.9542738,-265.9928248,-668.3931622
127.2879999,497,-28.81768063,169.2095903,-200.9579966,228.6686614,-165.6874001,31.44111966,275.2829745,452.4698241,133.6230483,-173.109185,-282.2332524,-186.1540053,0,0.13561194,786.8779612,567.8163339
127.2959999,497,227.7359992,80.92230943,246.9091837,-259.1306973,95.31701708,42.85267196,-575.2571646,-605.5882891,-139.4602798,235.7968968,379.9805536,382.316637,0,109.5674656,-744.9483322,-419.3042204
127.3039999,497,-348.5294538,-223.0388927,-267.3306763,226.2214951,156.5028854,-158.4666814,1170.165211,823.7028268,229.7055361,-220.1645849,-191.7759552,-162.8852406,0,-250.8079509,593.972562,-174.3387894
127.3119999,497,319.2082597,360.2978032,77.81581978,-59.84705453,-213.0250607,147.473201,-759.076439,-328.5765242,-99.56330163,96.48310395,41.02536084,141.3132818,0,252.558696,-15.2156925,466.433811
127.3199999,497,-156.8463428,-254.736744,40.76122192,-121.0665694,312.0539056,-133.1537598,528.1581879,55.36302644,48.10295104,71.73682407,265.6654769,231.431673,0,-172.7159233,-452.6212691,-814.2751485
127.3279999,497,-65.02866504,156.1282261,-269.7347012,281.678983,-179.5111491,18.70831619,416.5391219,620.272478,170.0142695,-217.9733097,-353.3448332,-238.7564866,0,-15.2546569,935.6211198,644.6961336
127.3359999,497,289.6374638,114.9368758,279.509648,-298.9429991,63.01769945,63.21687038,-755.3900773,-740.4284744,-181.2183493,274.4738391,402.2092323,418.2226978,0,154.8530305,-848.8088373,-394.3616188
127.3439999,497,-396.7743267,-282.2074825,-296.0613382,243.0143453,170.0768038,-187.3344068,1305.069184,864.1363907,243.6688153,-240.1968239,-225.9339822,-197.130306,0,-299.6364401,630.9879746,-214.0959313
127.3519999,497,353.5049458,393.0461288,85.46531825,-59.16965213,-247.854384,164.7469448,-837.4412102,-410.30762,-112.5818422,97.47173006,10.8423259,118.9626698,0,263.1893447,13.83695328,534.6102612
127.3599999,497,-148.8474518,-248.3927069,75.2380269,-135.193224,333.8735241,-117.2585876,509.8379535,-29.82940902,41.58648598,96.1212393,279.280148,245.3050164,0,-159.5094785,-503.6172689,-875.4916313
127.3679999,497,-70.80245591,183.440823,-251.0085527,307.3526545,-160.2217462,51.0295583,445.6944024,630.6878862,189.219522,-204.3934595,-359.0217205,-239.7112249,0,0.812338859,974.3338166,656.5650497
127.3759999,497,310.9604996,158.9988776,327.2462928,-296.5228037,91.62812382,102.7146322,-826.9148869,-773.621436,-174.6783985,319.7373106,449.1496149,460.0641979,0,192.394232,-905.9003357,-399.4720455
127.3839999,497,-414.0537413,-265.1572312,-273.404843,268.0822947,209.8019902,-165.6960152,1339.501263,938.989771,267.5300164,-220.8319907,-206.2021199,-182.0707275,0,-280.8845686,619.5243449,-234.3605672
127.3919999,497,366.3680029,425.4869999,116.2352828,-36.79756611,-239.8172036,185.5491025,-865.7085814,-339.9155422,-97.32799153,118.2601179,30.029645,137.7989557,0,288.0477975,4.916582959,566.2008106
127.3999999,497,-158.4428986,-267.0413973,86.53891433,-135.2900593,334.4103908,-139.7706051,502.8797266,29.81468093,47.60729122,105.3997185,298.6006326,254.1613565,0,-165.097164,-539.6371407,-879.6743483
127.4079999,497,-109.9288012,145.7114724,-275.4897968,303.2405839,-192.2533667,13.06166697,472.1072124,689.7927843,183.1206128,-235.6158281,-398.5718029,-286.4543897,0,-22.45640343,1004.179022,681.7212149
127.4159999,497,308.584548,155.2569216,335.968206,-314.4580147,54.06813349,90.50555508,-849.9635819,-795.4049963,-187.1635668,302.1623156,426.5406551,433.212293,0,180.6350071,-887.8519453,-376.2600653
127.4239999,497,-428.5541479,-288.4278683,-270.7095262,253.7822583,190.4091689,-186.7899499,1356.972852,898.6711093,272.6681465,-221.5189078,-202.4811708,-186.6474443,0,-298.7522014,640.3142149,-237.800188
127.4319999,497,334.0774825,398.7105838,91.2060748,-53.08818832,-266.8764425,168.2316777,-856.7557412,-396.1207501,-108.8214779,99.85008039,1.433942837,104.7783473,0,266.9784999,44.77534599,585.4895275
127.4399999,497,-162.0025942,-260.9837581,85.31690801,-149.7842475,336.2950755,-123.6325808,497.4993724,-30.83019961,33.5530169,97.07470954,285.5839889,239.8438319,0,-170.3955305,-529.6222365,-885.016212
127.4479999,497,-106.8201921,151.6213395,-278.9746598,314.0765985,-166.6669749,24.49476202,494.5569254,684.5816748,196.058249,-224.5743136,-381.2702216,-273.0372216,0,-18.17398026,1015.837108,672.8157121
127.4559999,497,316.3708498,166.1694154,320.5868445,-312.5906437,66.61913196,90.01712807,-861.9430297,-786.6014618,-190.3009668,298.8581095,430.0098989,427.9341688,0,178.3791598,-891.7491128,-369.7868015
127.4639999,497,-423.2004883,-278.8773142,-279.7328739,251.5170207,204.4208809,-189.1134933,1356.163189,936.459144,267.0644281,-229.0056959,-199.2813685,-191.2324969,0,-289.5397175,619.3771404,-244.4274952
127.4719999,497,334.9654862,397.41417,82.15514135,-38.96517929,-264.891381,163.0134931,-848.0856711,-330.8193531,-98.08035306,101.9830137,10.53876172,113.3183033,0,287.7138604,40.91522194,604.974579
127.4799999,497,-154.3581824,-267.3891154,73.43120691,-149.047209,317.1305081,-134.2832897,489.0025175,13.79615031,29.241041,83.28281472,277.6726994,227.6332205,0,-181.6055192,-539.0566829,-861.7059149
127.4879999,498,-109.4113215,134.1248013,-305.8099926,308.8959402,-202.1483933,8.06553329,508.7188428,730.9745103,188.6898566,-249.4647888,-408.9481313,-303.2364823,0,-42.28441263,1025.493504,696.6302412
127.4959999,498,324.1296155,156.0721653,307.2271102,-319.1113952,22.47047143,89.81700549,-878.3895255,-776.2541286,-192.3615116,297.5969943,414.8963167,419.49658,0,184.6874677,-886.7226012,-342.2881341
127.5039999,498,-398.7280356,-271.075259,-267.3786671,242.793864,179.5752745,-173.1003199,1342.411675,919.4392988,268.8731273,-225.0742542,-205.3223012,-197.6800111,0,-292.472408,625.507471,-243.8514869
127.5119999,498,359.6472693,413.6595116,89.23133557,-42.40990491,-277.4597654,176.8327001,-860.00236,-363.1533015,-86.84417843,112.0934098,13.83624323,108.1276646,0,288.4254757,66.05950541,610.2474635
127.5199999,498,-135.4371753,-257.144605,81.51194107,-154.7383106,317.2196218,-132.0674221,456.9556119,-54.51399806,38.73384344,107.087038,301.368564,243.4343875,0,-148.357278,-546.7115903,-873.5138625
127.5279999,498,-102.8039856,145.1681037,-293.0250473,314.0010723,-189.4925027,4.541856214,505.8391174,685.3821986,199.9088741,-241.0104743,-390.9081675,-294.814829,0,-21.44464486,1035.39124,685.1218203
127.5359999,498,294.5101368,134.6715653,287.4579563,-317.8914336,26.74133643,58.04506424,-890.8966859,-808.2637246,-194.2563985,290.4088876,428.2005241,419.3433717,0,176.0520954,-880.4707528,-333.3096212
127.5439999,498,-445.7306783,-307.8185228,-308.7797639,233.337742,185.88603,-206.8424191,1346.933794,917.0969298,250.5413352,-252.2758483,-208.1162602,-204.4433434,0,-322.3341357,613.8256657,-244.304567
127.5519999,498,338.0702263,413.6119595,76.40836336,-43.89150937,-275.1439841,179.9712873,-859.536351,-325.3708209,-105.8410267,89.74622442,12.09034398,115.1428699,0,276.5824888,66.57054275,634.031136
127.5599999,498,-175.6624231,-290.117561,77.18088934,-160.3028707,313.5532399,-153.0542446,441.9330798,-15.05437397,15.77960579,100.3881944,323.2040644,267.5518591,0,-153.6135867,-582.3737768,-857.9180831
127.5679999,498,-126.8979028,125.6527365,-285.5476729,313.0251665,-189.1602092,-3.133759895,516.2870684,740.2696514,186.1525994,-261.0666952,-382.8978742,-284.2516673,0,-48.89027092,1019.963204,695.5075597
127.5759999,498,328.2374593,172.7446147,336.3483622,-307.751864,27.03600965,94.21036346,-916.5012319,-787.1085318,-200.1691451,297.0913895,452.9947287,457.5894825,0,185.8119444,-891.5555685,-314.1376011
127.5839999,498,-440.1962957,-313.1595974,-276.3450434,248.5680864,186.3063469,-211.5605564,1347.847468,913.0961924,255.3086568,-226.9549089,-167.3095349,-152.9813499,0,-291.4245905,594.1250174,-253.1300421
127.5919999,498,341.523851,415.6318188,92.1107918,-31.64741263,-289.9668808,174.4386869,-848.4073062,-348.9852966,-95.49913184,86.6215703,19.47313651,131.5393328,0,277.3024496,86.08923338,634.032975
127.5999999,498,-150.9615527,-259.4223617,105.1894686,-156.8647968,300.7665688,-126.4304088,421.7264827,-82.89549276,19.89934278,112.5447254,340.1523546,298.1969778,0,-148.7719469,-589.7863652,-878.465616
127.6079999,498,-148.4177658,107.8454096,-301.6431113,322.2484119,-200.3089578,-13.59165062,548.4215038,701.4181556,188.2151814,-253.0960831,-383.9370291,-271.6143965,0,-27.05278097,1029.652565,675.1469905
127.6159999,498,322.5334429,165.6503071,318.8572213,-316.5010294,4.429443648,85.43984128,-910.0351653,-825.2029795,-211.0061933,274.6558146,422.7846642,435.7678315,0,189.1823104,-870.7444578,-307.312081
127.6239999,498,-425.6123186,-308.947203,-270.7411949,230.7696078,180.3560901,-201.5992352,1347.649448,891.0257768,252.2190063,-236.8983857,-171.218753,-157.1500469,0,-309.1823514,580.4888471,-271.6215117
127.6319999,498,338.6962457,405.6568157,81.06939255,-34.34701837,-290.6640586,167.6088335,-827.6037396,-319.5383073,-91.75904103,81.46297896,13.42909129,120.0596874,0,271.2665861,88.54711257,640.0204399
127.6399999,498,-115.6495146,-233.6610729,132.2499871,-166.0756403,315.8610042,-102.8731569,406.0664779,-58.75029282,26.88530906,118.1833153,355.7097887,303.0891297,0,-151.9155363,-606.7913935,-870.02586
127.6479999,498,-119.0642188,131.6449012,-268.4606236,327.224706,-172.4845118,15.1359469,549.7745504,746.7971592,216.3004497,-234.5561801,-351.7851886,-250.9485941,0,-28.5492366,1013.713727,674.2240257
127.6559999,498,333.8765442,179.9174925,329.6591737,-304.1951476,18.72384508,94.01817379,-928.5228952,-795.9573454,-191.1938171,296.0454832,437.8046305,446.0318603,0,214.3298911,-886.3326519,-293.9612112
127.6639999,498,-398.3173943,-280.009894,-244.3862107,240.7635415,205.4408359,-175.4293922,1331.169691,896.1790891,270.2001596,-206.0757329,-146.4708188,-130.9997267,0,-286.1618491,555.9090935,-284.8718257
127.6719999,498,349.8400743,418.6447224,93.23675165,-12.31636019,-273.3351939,183.9917919,-829.1269712,-320.1582784,-70.66753647,110.6911874,28.93629307,144.3684545,0,289.6875458,90.87827764,640.3043529
127.6799999,498,-137.0817193,-256.4840205,114.7662654,-161.582346,314.0114201,-129.3258205,391.9059681,-100.322262,21.23856944,122.1114866,336.8580895,290.1663836,0,-143.4586443,-614.8692454,-873.2367313
127.6879999,498,-141.8435203,107.5456652,-292.9506564,320.9438465,-176.3357677,-11.24134662,563.8476748,709.2822151,207.1758319,-253.2969237,-387.6450948,-283.2957663,0,-51.72033243,1025.036918,659.5154979
127.6959999,498,326.369239,165.6750064,313.9856459,-315.0709264,13.03141758,89.63082427,-939.2352321,-842.863999,-196.5246989,288.2577311,416.3492619,430.703695,0,185.1425734,-877.5074187,-292.8713623
127.7039999,498,-420.5849061,-301.0798999,-262.0191712,223.4232644,205.5615429,-184.4393838,1333.619877,866.5368057,254.2318826,-225.7373403,-183.0882783,-163.7835351,0,-321.4315417,556.5728903,-289.6000145
127.7119999,498,333.4456769,409.5310963,77.94229552,-21.03902542,-274.6112304,173.1025974,-816.9156894,-303.1362321,-83.09320291,97.49593006,-7.265434953,117.2426677,0,279.4227257,106.8718441,655.3576249
127.7199999,498,-158.5192128,-288.2894347,94.43645868,-177.6720752,316.0301135,-162.484927,390.125779,-69.46507452,6.240296627,118.0897799,323.5312639,280.5104744,0,-145.5873066,-633.9398553,-868.2488109
127.7279999,498,-153.738913,100.7871501,-307.5372055,303.0040856,-170.6551764,-27.60304486,587.6697795,779.4078329,192.5724618,-285.5844505,-413.8120363,-314.2752584,0,-84.54933838,1025.989613,657.719527
127.7359999,498,344.4119202,195.6048223,330.392216,-328.0700976,14.08074643,101.0039587,-954.1011055,-788.7265701,-201.0191726,295.4208466,430.4750854,443.6654913,0,187.8929895,-889.2934996,-290.5891855
127.7439999,499,-446.1098787,-331.943809,-269.4356731,211.4840012,199.5040036,-218.7701287,1345.096089,899.9960144,244.1789024,-218.5668344,-174.0172014,-161.5180745,0,-320.2610791,530.5671796,-310.0300137
127.7519999,499,317.6688814,389.3235843,58.80805645,-33.2721287,-304.34471,150.9811582,-794.326446,-289.2591688,-99.75499742,60.72099003,-42.8527579,69.16000239,0,241.5797276,125.5809388,657.9429813
127.7599999,499,-139.870221,-279.9712636,101.5313198,-196.0578181,282.9542381,-151.1985511,372.9677431,-120.5487105,-8.051638057,108.6348799,312.24729,262.0972952,0,-165.9960565,-639.7121496,-872.4166301
127.7679999,499,-166.5047694,74.66133779,-317.8242687,297.3774932,-200.7939341,-39.8137288,610.0229449,727.4219267,182.4358977,-289.4777082,-445.6460092,-340.872332,0,-91.01056722,1042.169373,656.4794433
127.7759999,499,342.218534,177.4399721,321.65201,-332.4299887,-20.40275323,93.23211441,-958.6550939,-850.4917757,-211.4819157,285.5477805,390.6634865,416.4543481,0,186.8045684,-862.2453876,-273.6590214
127.7839999,499,-441.7290134,-340.0868018,-265.677884,202.9231468,186.6602896,-219.9953465,1338.569451,851.6492446,241.3182958,-224.6460282,-188.1145916,-169.5102255,0,-323.8480519,538.0910144,-327.4005205
127.7919999,499,320.044073,395.4739687,59.65585249,-34.6804754,-304.3163413,146.154884,-789.6356932,-290.5021448,-99.90262827,47.37412278,-64.51871521,48.94446568,0,240.0979943,161.3922889,656.0748787
127.7999999,499,-112.7283151,-250.9832719,125.0936046,-203.7858773,298.8644742,-137.9004032,342.7985639,-117.0976605,-6.769601466,120.0973266,330.5270589,279.8942641,0,-156.9399959,-640.6242131,-884.6013903
127.8079999,499,-154.4304085,91.06931672,-297.7693145,299.0386804,-171.3095758,-27.01956953,609.9682652,769.294904,198.1196721,-274.2956574,-403.5529449,-306.5028684,0,-88.44379865,1031.773281,631.2278925
127.8159999,499,359.3464274,203.4803331,337.1602393,-330.543329,3.789579755,105.4720618,-975.8141796,-815.2125049,-203.2248478,288.1684372,414.4766084,424.4340732,0,195.3879495,-871.1991068,-264.0921602
127.8239999,499,-426.4375602,-320.6732832,-250.4544472,203.7945041,218.3794467,-205.2009716,1332.982945,873.9181613,250.9356991,-212.1782339,-160.4797888,-158.8292983,0,-311.2482187,505.5141702,-322.8219299
127.8319999,499,303.961672,383.8392883,61.15177334,-21.16317831,-283.1941769,146.6990958,-770.8098193,-263.2030401,-87.50068946,56.21987432,-46.32287192,58.31732592,0,250.8960729,143.781232,683.1118972
127.8399999,499,-125.2015838,-265.5455438,136.6297183,-203.1094845,307.4758319,-143.4243481,338.9020592,-132.7892569,-11.26301677,119.2861215,330.4358639,275.1697553,0,-151.4078205,-667.5115753,-853.7574862
127.8479999,499,-175.9878617,71.43128449,-307.8479028,298.783753,-174.59199,-33.7235619,635.230162,758.699025,196.7825343,-294.3258134,-437.444643,-344.4332833,0,-102.5853971,1035.504563,656.8245673
127.8559999,499,345.8340368,186.3497377,324.689532,-330.840822,-18.5229372,107.345175,-977.2755477,-839.6588885,-203.271965,273.2065004,382.8867013,393.9885836,0,185.9030569,-863.489625,-235.5932097
127.8639999,499,-407.079053,-317.0147752,-221.8813175,202.5494883,204.9052758,-190.8612477,1325.261219,845.686708,251.2924502,-207.8583328,-160.519684,-152.8694675,0,-317.7314175,496.706364,-330.0524658
127.8719999,499,339.12876,416.5645361,88.59264877,-10.63517849,-300.1525616,171.9974351,-775.8928319,-261.3407161,-83.48835968,62.95236872,-45.67106021,66.9247843,0,243.1796879,164.5344902,684.4101222
127.8799999,499,-87.87065717,-236.7830063,154.4828149,-193.2435919,294.0005327,-117.4506801,306.8138642,-135.5318973,-6.818596092,147.045181,350.3128591,303.5549453,0,-136.0464781,-680.5182442,-872.1810927
127.8879999,499,-154.8678391,75.90764253,-296.2714495,323.1990768,-171.3106547,-33.73458191,646.1644467,793.575162,204.3600816,-269.0457485,-415.7207305,-316.3382491,0,-83.78750712,1032.294073,629.6748729
127.8959999,499,343.3281383,181.0111116,313.039604,-313.4297018,-24.64827306,74.99353198,-976.8648805,-808.5355792,-218.5486691,265.8094896,376.8024236,384.8785967,0,175.058698,-845.0633988,-228.8958035
127.9039999,499,-440.2941254,-347.7927283,-262.9410797,197.9559753,194.3685065,-235.0755318,1332.768595,852.9635341,227.4340188,-234.7310263,-189.3921978,-189.0787472,0,-346.7995609,505.8415498,-334.8065821
127.9119999,499,309.1300885,387.2123563,37.61591618,-12.72176824,-315.6601262,142.5453371,-754.4332195,-259.8359723,-98.80872715,35.23035315,-85.67763429,25.17257919,0,225.052126,196.4427891,705.3254196
127.9199999,499,-101.5985692,-243.2673799,126.5947865,-202.9187265,284.5802681,-134.9607344,301.4922855,-172.0625652,-26.00446843,124.6318893,325.0767637,274.285825,0,-158.6942938,-669.8411222,-845.2936189
127.9279999,499,-171.4857306,77.33322931,-306.2607302,315.3772941,-171.3134179,-35.01935089,664.7158931,766.5139673,202.7590079,-278.1102689,-428.7560834,-332.8884253,0,-95.83898044,1050.046791,647.8184928
127.9359999,499,367.7715363,210.1435895,332.8932982,-322.5934044,-20.70421287,110.1295034,-991.8712493,-839.0833659,-213.0372457,287.858968,387.9744774,397.0048175,0,200.4051637,-838.1403479,-203.6040022
127.9439999,499,-410.273854,-325.5998507,-229.4787948,195.7205253,221.8741287,-205.5185526,1325.888531,843.6627427,242.6995973,-200.9716277,-152.0916337,-155.1999292,0,-319.4052396,481.1335294,-343.0905584
127.9519999,499,295.4740771,376.6185065,40.72856709,-0.871006808,-299.4505781,139.7573174,-734.3565945,-227.0694055,-83.82269318,46.43683044,-79.33701593,27.07990405,0,245.5427833,200.6388767,707.4739202
127.9599999,499,-103.5451118,-247.4451583,128.371399,-211.4535258,285.5226408,-134.4813875,288.0764326,-160.8701969,-41.44742761,119.6210903,312.1121654,254.330475,0,-150.9583283,-679.1743806,-850.6916684
127.9679999,499,-167.0234169,72.05120764,-307.8977559,312.9611629,-166.4158656,-35.01886744,673.9646714,787.9560498,202.606114,-280.2668511,-422.6371408,-334.6760036,0,-97.62300922,1043.054123,626.5195498
127.9759999,499,348.2138569,191.5195304,311.9902041,-319.3120734,-35.0976098,88.56665697,-994.6737084,-836.687743,-213.107146,276.0035201,379.4289334,382.9604581,0,199.1949564,-833.867663,-199.1121623
127.9839999,499,-412.4927432,-321.9274704,-228.8199553,183.6431214,208.3275768,-215.1854609,1321.684294,816.8615779,230.3753536,-222.5086875,-169.342861,-182.4898692,0,-334.009842,487.6983053,-340.6334943
127.9919999,499,334.7549189,413.8604919,68.62133499,-4.857311281,-302.4912583,165.6531243,-740.2243318,-255.467325,-61.34791424,54.31193646,-59.46791264,37.69599424,0,255.8735112,223.0935479,724.7284013
127.9999999,500,-90.9357782,-233.8762286,141.5357432,-212.5334893,287.0006876,-125.1079103,267.676331,-204.882324,-15.38640363,144.0291258,334.8483384,271.9180576,0,-126.4258226,-687.4856985,-841.5461242
128.0079999,500,-169.2262268,97.58797733,-296.3979097,315.4932736,-153.3084458,-25.46149018,687.4766292,770.3145174,207.6777756,-269.9569496,-428.2950479,-343.3523767,0,-98.62117335,1051.966522,631.5709657
128.0159999,500,393.2010498,258.7624494,354.0299666,-313.7736312,-8.37003713,138.2599708,-1017.292458,-854.1909741,-205.3237268,314.8895499,412.7866021,409.6707326,0,219.1382883,-836.1989674,-187.9564282
128.0239999,500,-408.6992637,-313.9666887,-224.9756222,193.2303867,243.2382697,-200.6937115,1318.082602,820.5160301,241.8524253,-186.8345879,-138.0439264,-163.5995087,0,-312.9833221,457.9040946,-360.1964014
128.0319999,500,304.2954164,400.9490393,36.09812329,4.414345354,-285.0078376,147.4314301,-716.8559724,-222.1281389,-71.68417992,42.437743,-82.05538104,6.356228443,0,245.2563458,228.2559309,722.8856973
128.0399999,500,-84.88067645,-224.03656,140.3322761,-216.7928366,301.6435043,-130.1504871,256.5265339,-198.0346564,-35.32681158,139.0466087,341.5135359,265.3564194,0,-131.9996358,-707.3398306,-847.0800354
128.0479999,500,-175.3149766,77.57050721,-307.8649311,319.3108409,-146.4954721,-45.67252633,714.1882797,799.0910104,210.5077655,-280.4482764,-427.3958675,-359.7869736,0,-104.2724754,1052.281251,632.4448476
128.0559999,500,386.4473016,244.0488358,340.8279189,-315.837747,-27.38870301,121.7118224,-1007.528007,-844.5210847,-199.516303,299.5570637,389.5428775,380.567571,0,214.8652,-816.2739559,-153.1129372
128.0639999,500,-403.7885926,-314.0141221,-214.1138601,185.6059168,232.4654532,-192.561655,1322.186236,803.8797073,243.6756391,-179.9352212,-140.4877821,-168.3441231,0,-308.1643158,459.5578476,-342.4628269
128.0719999,500,302.7573906,393.5517045,44.07478717,12.22024641,-297.1036218,154.3222279,-693.5984946,-220.2307454,-65.41937099,50.76080991,-95.08196476,-11.61825024,0,258.5041287,265.7678707,763.6266526
128.0799999,500,-81.92245485,-230.1000519,153.5728593,-217.58451,289.2663042,-125.1309735,257.70858,-213.8796168,-34.33848142,152.3389311,328.809814,250.3105657,0,-119.3125258,-686.364114,-811.6741414
128.0879999,500,-195.4946516,59.44758983,-323.1461321,316.7682651,-150.6065483,-48.9586318,742.6776844,799.1052869,203.6491692,-278.1262187,-450.8245895,-379.2054757,0,-107.0457119,1070.365253,642.0440085
128.0959999,500,349.0355077,208.9428369,292.6844825,-325.9786034,-44.59149127,92.23661513,-993.5092386,-845.9919947,-228.1298984,272.9962431,339.1577348,332.5499179,0,202.3133622,-794.5845372,-138.5076898
128.1039999,500,-421.6507859,-337.1774551,-241.1254009,163.4258029,227.1797976,-214.8957978,1337.044535,798.8103837,217.6828005,-213.6389755,-175.2305225,-209.006888,0,-339.9076716,460.1672339,-359.1885431
128.1119999,500,294.2067079,383.8532866,32.67589627,-0.757352162,-293.0162721,144.8970721,-669.103674,-209.8979095,-65.00997412,31.5803856,-106.0878537,-28.04841786,0,231.789123,272.7163354,753.7542156
128.1199999,500,-97.35720897,-255.0258955,137.3359053,-237.3987344,287.0365577,-153.0753391,258.1387993,-223.8357888,-43.65899682,130.7119006,323.4099059,228.5748224,0,-137.3791013,-700.7051516,-813.3267843
128.1279999,500,-195.062323,48.46005792,-336.2891764,299.1846706,-151.1868679,-66.21261567,763.2637941,803.2224051,196.8641099,-306.9252002,-453.7076175,-405.5117047,0,-131.0893259,1071.671138,645.4936174
128.1359999,500,364.3107317,215.965577,300.6228809,-335.6797935,-49.48433294,89.39461138,-999.1698791,-850.0028326,-214.4628946,272.443813,357.922649,338.8135849,0,198.6946335,-794.940505,-111.4412236
128.1439999,500,-444.036478,-362.7960337,-242.4324355,155.0617385,215.4340306,-245.3865247,1343.127325,796.584391,216.3636301,-223.3541336,-175.1971679,-219.1974234,0,-347.4992395,452.848798,-336.2399871
128.1519999,500,281.429578,381.3062693,16.12227693,-7.312521115,-317.9648757,134.0844363,-654.7382021,-199.9435132,-83.62932499,2.853478125,-138.4407167,-67.59740736,0,214.1700483,304.0774701,794.3649372
128.1599999,500,-69.87665015,-225.094531,157.4027672,-250.6524638,274.2149961,-124.3985212,229.2589061,-250.6714398,-44.95726064,149.1854376,343.1004177,242.9228513,0,-135.3363526,-707.3891039,-807.5807532
128.1679999,500,-190.7073818,52.61215279,-310.1734132,300.7603603,-149.1032271,-54.71940606,765.3880227,792.4523633,203.6679965,-282.2952484,-435.5741447,-389.0834069,0,-122.3474369,1066.761371,619.8046747
128.1759999,500,389.2650972,240.6164182,319.3175213,-330.4166125,-50.8586962,109.6854238,-1016.868643,-870.4018589,-224.3431674,281.805853,347.0092857,329.5916049,0,208.4419701,-780.0000777,-121.3249636
128.1839999,500,-395.2747235,-328.1147937,-217.7325056,155.9621066,230.4347565,-215.4231403,1319.696856,764.329774,227.2041465,-196.4428848,-143.0823939,-199.0379475,0,-339.9093958,438.8025082,-377.2585459
128.1919999,500,315.7863343,406.23204,28.7407702,5.470291368,-303.6210324,144.8269767,-665.1266134,-208.9055668,-61.3977379,21.11141828,-110.3692425,-46.99890695,0,232.682377,298.8838572,767.1323127
128.1999999,500,-51.17978655,-217.894954,156.8627788,-240.7516812,277.8908301,-136.8839742,203.823254,-267.0083699,-48.52469566,153.6431107,344.2164219,250.5556581,0,-107.4912352,-721.1249239,-814.9481972
128.2079999,500,-202.5309682,32.7786905,-331.4774493,310.7445307,-153.0394423,-85.97296199,782.1893818,807.3820227,201.071377,-301.1308483,-455.0348651,-411.0196827,0,-130.7486452,1079.967256,629.3867999
128.2159999,500,384.4072292,238.4626345,301.0885701,-330.287143,-68.38038873,92.75541116,-1026.327309,-863.7594929,-229.7388751,257.2098538,324.4235224,299.8795618,0,191.5750383,-760.5790807,-80.41311921
128.2239999,500,-414.8444815,-357.1022339,-246.0382868,148.6875454,210.7962468,-247.9450953,1319.039155,762.9543507,213.7225751,-211.1560924,-164.0807432,-215.9163363,0,-343.9603471,439.0840896,-353.5765226
128.2319999,500,292.1768597,370.8388915,-5.193781917,5.065679736,-333.7915803,116.6269295,-635.8383933,-187.0772228,-72.74144848,-2.527607726,-154.663802,-78.32738075,0,219.8354054,337.1409965,804.6096465
128.2399999,500,-34.66103562,-211.2079371,154.3392543,-251.4144553,252.7455339,-122.6243873,192.1026886,-272.2799046,-57.80147699,145.1703073,319.8711225,237.4148053,0,-115.0358501,-703.0228979,-791.9664759
128.2479999,500,-195.0805914,30.38189735,-349.6990312,304.4184769,-171.1049194,-83.43782789,788.3322955,814.764084,206.8124422,-302.2404691,-469.8492505,-415.2883301,0,-127.125375,1092.584874,622.8474998
128.2559999,501,399.522385,242.2139176,297.6372461,-332.0689037,-92.66507815,97.46268527,-1043.543071,-863.7358455,-224.2220754,270.7921041,333.4584669,315.4721491,0,214.5781856,-753.7263034,-88.09913106
128.2639999,501,-398.6727278,-347.4886969,-222.0533869,147.5194258,200.7687079,-234.7426114,1298.411397,754.2430268,211.495775,-192.5720446,-129.4637258,-189.965874,0,-334.4109975,422.0189882,-387.4307588
128.2719999,501,269.9417573,360.0239697,-27.02236717,8.826838742,-349.6039614,97.93139159,-629.1605472,-174.8961976,-76.5892302,-18.81703256,-160.0152423,-96.3794881,0,196.1474584,347.3609399,794.7619691
128.2799999,501,-50.4893048,-216.3233105,134.3120395,-262.7019373,235.2534847,-135.354255,172.0496833,-287.6177365,-69.92721198,136.1971933,325.5188757,233.2572549,0,-131.2725277,-718.3707253,-795.4631179
128.2879999,501,-196.8332687,35.46152537,-347.3252635,301.8661002,-170.4197196,-74.96141259,795.9453037,813.5675647,199.6757266,-302.1749221,-449.2555126,-403.5578075,0,-130.2670072,1080.38935,618.6497647
128.2959999,501,403.9408869,252.4236797,282.8577029,-328.3571381,-90.35960241,106.3304936,-1040.601023,-859.9226118,-225.2152286,263.3847879,328.3692045,313.7639877,0,211.6034447,-750.1391081,-58.86468678
128.3039999,501,-379.5785914,-319.6232569,-216.2873021,143.5754765,218.1450755,-206.2143934,1294.979341,750.4473542,214.9545526,-179.1851843,-128.6002444,-175.9496579,0,-332.1007958,405.5464208,-372.3013377
128.3119999,501,308.5160032,410.5187568,15.10417261,21.71976635,-321.2852822,144.78314,-632.1057957,-167.1594832,-60.42296954,20.68930985,-133.9889671,-62.29741244,0,236.981611,341.6800633,811.1473151
128.3199999,501,-13.24263411,-181.8757401,172.0532522,-242.7896541,264.4298949,-101.0011301,142.633597,-301.0317516,-51.04421275,182.4134636,365.4755503,275.1923331,0,-80.08970135,-750.09046,-793.4768313
128.3279999,501,-186.2046825,47.87976977,-324.0303041,328.1381206,-143.6965257,-49.70601839,800.766543,817.2699304,216.6573519,-274.8560318,-432.8691508,-384.3857798,0,-115.0254199,1058.171749,608.0672971
128.3359999,501,418.1318058,273.4930594,313.4591133,-303.1523931,-75.87625467,134.6322493,-1053.251525,-859.8076383,-218.6746989,283.9661514,341.3849104,324.779436,0,235.3881238,-758.5542388,-53.48667131
128.3439999,501,-378.3790311,-323.6005839,-213.6602255,164.723187,234.4279554,-193.8636808,1281.900948,751.6977591,216.7231969,-168.9732635,-111.6575766,-166.1117104,0,-299.5057827,378.5598064,-383.9498154
128.3519999,501,290.3486811,387.8911358,-15.04583209,47.68436715,-313.7360516,148.3106234,-616.8215033,-131.1087901,-61.94878943,5.092805229,-151.2931518,-81.30191042,0,243.7767039,343.4293554,823.4860786
128.3599999,501,-32.14845793,-211.1134844,150.408845,-236.5345246,261.3256333,-111.6833056,145.496217,-275.3175111,-75.32862178,158.188693,340.5742962,245.3078526,0,-93.92949991,-749.2368367,-773.1703035
128.3679999,501,-196.0965746,28.36620604,-342.2808326,326.4257479,-144.4369454,-64.64485917,819.9792227,845.4461267,197.2898525,-302.5746927,-451.3773079,-412.7071963,0,-127.1274001,1070.238139,623.6553943
128.3759999,501,460.4853298,307.7261856,328.7310718,-302.6552246,-74.19978624,159.0032733,-1073.797732,-864.1844075,-212.8188966,288.1187726,357.7315382,333.5438795,0,254.7622029,-748.9388807,-21.50252127
128.3839999,501,-340.0119544,-306.1385681,-186.299517,164.7898991,241.9127179,-181.942127,1259.0424,716.7819953,229.937249,-140.7706022,-68.04936209,-128.8137826,0,-283.4106383,371.194742,-374.9803558
128.3919999,501,317.7706069,405.5591737,4.564102886,53.33117616,-311.2233725,150.5546709,-633.9010282,-171.1562412,-52.55369596,16.38676973,-128.4548544,-59.0093442,0,248.7939112,364.1509137,846.5645926
128.3999999,501,45.60463827,-133.4510022,218.6183711,-232.2569725,284.5803541,-54.55220604,74.20652598,-346.1296048,-49.90089127,203.5370072,414.6071007,316.7115811,0,-50.7538002,-771.9239475,-765.7144881
128.4079999,501,-266.7771958,198.156198,-588.2095234,690.7873613,-333.6910659,3.522895163,1234.132039,1518.090269,411.3026743,-508.6758174,-823.8898702,-706.7624262,0,-97.43187162,2125.816141,1425.765883
128.4159999,501,515.5543416,781.9752871,-80.7713696,234.0057172,-639.0713755,324.9131298,-1068.966915,-55.447744,-24.11454124,-69.35931887,-393.3281847,-234.5624904,0,444.0411896,1014.074941,1776.845906
128.4239999,501,-21.82212606,-96.35348757,80.33906555,-73.95166372,184.4128905,-56.02723683,260.8322176,-29.59933814,32.17998472,87.62837849,217.2331492,152.3098547,0,-66.61611071,-307.1339189,-417.4199084
128.4319999,501,22.24364994,-3.024631838,32.56868377,-39.01952167,40.40020194,-37.53209259,13.99390903,-49.17525677,0.756227621,45.31130638,101.9205699,74.18018521,0,-7.763554545,-134.2360601,-84.95227264
128.4399999,501,-69.00820864,-11.01681742,-89.27863719,65.33469335,-20.2839746,-61.6284865,280.8030969,247.7417451,45.16572563,-85.77676602,-88.22416189,-90.25574759,0,-57.55916962,243.9402753,128.5372771
128.4479999,501,91.47702513,117.2867968,22.53014324,-12.58838092,-64.24645992,26.94541487,-94.07308057,-1.221230832,-19.84412734,12.30506773,21.27123787,31.68044641,0,55.92228748,50.80975325,183.4245912
128.4559999,501,66.39453664,-18.87104284,136.084655,-136.7674831,130.7939186,-14.10204569,-4.738341695,-175.0037273,-30.86062926,126.9184618,256.8903346,217.8755682,0,-1.62023686,-434.5650207,-363.6298746
128.4639999,501,-91.91074073,56.8001403,-190.1014405,218.6687403,-69.07889477,-27.82692089,545.9762764,554.4890634,158.105121,-156.9553699,-213.0825334,-183.9775993,0,-60.14168066,653.6715485,375.267605
128.4719999,501,309.5773534,198.5331442,243.6037365,-210.9202492,-33.06819854,87.41672082,-734.5542705,-619.9062102,-141.1004623,228.7993839,319.8409807,303.2764285,0,178.176703,-588.7950077,-74.06473417
128.4799999,501,-250.5630022,-208.5248721,-126.6120332,120.5235368,161.9596041,-136.4932086,905.6586049,503.2423458,159.9919705,-115.4882131,-41.885054,-77.4413392,0,-204.0872976,270.0260544,-255.6719392
128.4879999,501,224.1652968,300.1677564,5.371244884,46.38912448,-232.027013,108.032522,-422.6051133,-116.0310575,-31.08734155,-2.486451836,-85.93976024,-29.17861222,0,179.1739736,286.106839,621.4952847
128.4959999,501,51.18236592,-113.1211972,193.5367243,-209.8630227,221.2892376,-49.17005674,-4.326881828,-358.2827043,-60.97321762,179.4974724,368.4215692,300.6743312,0,-33.24649423,-696.0177618,-648.553098
128.5039999,501,-156.9617688,29.77805469,-258.8144446,303.1229618,-81.69713478,-30.56162179,742.0421713,725.3895024,196.2641757,-235.9835199,-326.8557138,-283.6535427,0,-91.7223064,903.7778009,479.6228401
128.5119999,502,393.2124534,252.4458418,297.4429464,-257.0622231,-52.86657907,132.3417134,-997.3164862,-780.1809853,-205.2305262,256.6872707,340.8424448,331.4883027,0,244.12262,-699.1775853,-32.94115165
128.5199999,502,-321.3316066,-299.0560006,-160.3191824,139.5802548,251.1724444,-171.9192709,1118.135865,656.723383,192.0789864,-132.3316578,-28.8572404,-79.90978551,0,-259.3855767,261.9267792,-407.8540322
128.5279999,502,254.8257507,338.7052213,-13.94354563,66.99014492,-262.9650254,126.792464,-529.6717344,-63.19057246,-38.91130103,-1.837866172,-103.6836726,-35.00263872,0,229.40376,332.3572533,742.9410282
128.5359999,502,-1.526296434,-177.0771283,179.2311007,-237.651835,255.161844,-95.95568845,18.35571802,-326.3129669,-95.63150799,156.8053309,369.082051,286.6981822,0,-56.06945928,-795.8152203,-742.0256395
128.5439999,502,-210.9155895,5.996334635,-308.9331774,322.4427674,-95.31248407,-60.70748103,821.6191659,828.8286406,198.5344939,-285.7330926,-376.9490444,-333.5097836,0,-121.627173,975.3705508,522.2206178
128.5519999,502,412.0206598,263.1149742,314.5153024,-276.8464596,-81.05333877,140.6909939,-1082.966397,-847.4690678,-218.0921351,266.5140613,363.8037851,355.2615264,0,261.4922227,-738.9457639,-6.295332386
128.5599999,502,-364.4066247,-346.3027379,-171.1984801,141.7698231,233.1192932,-201.5502914,1192.925372,647.8261124,181.9611678,-180.56915,-67.33817063,-124.8406919,0,-298.093972,291.3634642,-422.9498058
128.5679999,502,273.6381564,366.187563,3.508603633,70.07169024,-317.3530901,138.756133,-565.8024276,-130.4671861,-58.50004018,-19.53591551,-132.3319883,-54.97995208,0,228.6075621,388.2896364,806.6621587
128.5759999,502,26.50092086,-159.3443886,227.9534794,-242.5514405,248.4772018,-65.27965576,6.538761065,-396.5394736,-88.15056135,192.4845791,409.0355228,330.8610052,0,-52.0828753,-806.1636692,-773.592815
128.5839999,502,-206.5295766,9.064851374,-292.0680095,336.1889137,-103.9866782,-44.13240553,834.3093859,825.5369385,206.5965973,-278.1952955,-384.7945021,-339.2574158,0,-121.2510249,1017.068539,529.8004371
128.5919999,502,429.1134819,281.909485,337.0237821,-280.0713589,-75.83028376,156.774466,-1117.764145,-853.6682438,-228.0624658,286.3230409,371.2563493,357.7610329,0,271.150593,-743.845961,-14.66502259
128.5999999,502,-347.2672639,-320.5706449,-148.5287749,141.9006653,272.1492581,-181.0433022,1190.725568,684.584164,195.8534854,-146.3115544,-29.76660742,-98.94235697,0,-294.1573052,266.3003968,-467.4276467
128.6079999,502,301.9154671,404.8370792,23.5735014,79.32338793,-279.5956245,164.6762477,-595.2423602,-87.77684292,-42.22999697,6.411787056,-105.0499622,-39.90091656,0,251.7272016,366.8542304,800.1436903
128.6159999,502,44.31982071,-141.7008939,243.4197462,-237.9193965,289.460356,-56.19424563,-13.28153879,-369.2232341,-80.86620105,218.794052,440.5459599,346.5193422,0,-27.69156325,-851.0518975,-792.2652304
