Time:125Hz,Epoch,FP1,FP2,C3,C4,P7,P8,O1,O2,F7,F8,F3,F4,T7,T8,P3,P4
223.3279998,872,119.6582807,44.7419409,61.77001541,75.20488391,28.72639083,0.027671775,-310.0751547,34.69440877,488.8312254,69.15436112,245.6615353,-43.74792186,-26.48268157,148.2747714,80.67751142,66.69462659
223.3359998,872,27.10901031,-48.45792937,20.47880423,52.25813831,35.23957323,0.028150797,159.6465676,47.56358131,280.8149251,50.68005258,-17.29077465,-42.38082851,115.0982995,-265.2220089,-171.0145901,-150.3865913
223.3439998,872,25.93754617,83.28961528,-21.85557851,13.56863254,-27.92173678,0.028627474,17.65390303,-10.63554478,456.7571954,64.01962736,156.4850627,-41.01752281,-61.37368386,191.7381067,171.1794053,106.9765323
223.3519998,872,133.8598566,-24.31761271,97.00448613,103.4284213,86.35990808,0.029101492,-195.5255013,79.23387133,391.8868728,71.47607097,105.884141,-39.65802607,112.5280097,-134.2602205,-119.635632,-73.73982999
223.3599998,872,-67.90261136,2.427470228,-85.54088555,-25.14048252,-37.06704431,0.02957281,287.0507069,-39.91271197,314.8171282,44.49867203,-16.50760393,-38.3023594,17.05499319,-81.98858074,10.8265471,-34.703491
223.3679998,872,116.7777431,47.1069231,49.8044801,67.48034266,34.4106393,0.030041711,-296.9304378,36.32747034,481.6744064,54.85474496,239.3207163,-36.95054373,-38.16937614,125.5181641,83.46058579,60.54816661
223.3759998,872,36.25653926,-39.25697007,23.63128634,64.42686513,59.79951283,0.030508059,188.0989928,66.79078236,288.8642014,62.52498844,-38.2392388,-35.60259984,129.595476,-283.7237475,-160.2812812,-133.6348695
223.3839998,872,5.543750095,76.57248451,-49.94230868,-4.551771659,-32.08822227,0.030971701,26.66567393,-20.67518041,462.9593713,69.30404623,140.1219681,-34.25854827,-69.33017825,182.5576573,187.4483659,122.6605817
223.3919998,872,131.0382076,-20.6871507,84.90133531,92.58614401,78.95563139,0.031432986,-196.692842,81.04708377,401.2550097,71.31119365,103.853785,-32.91840943,94.97533508,-140.5947815,-112.0571219,-71.80905829
223.3999998,872,-52.03530357,15.50796858,-69.46136086,-19.43891925,-29.08125585,0.031891621,306.9172402,-14.44197292,340.0460347,66.54792639,-39.18215398,-31.58220354,30.84909772,-79.60449486,13.52993723,-19.69308126
223.4079998,872,102.8987798,39.93814518,43.41664466,42.04394611,27.13326843,0.032347479,-293.6180602,33.51323087,506.0941525,69.69870195,217.7764067,-30.24995062,-38.14291205,143.8533062,94.97331496,83.4574499
223.4159998,872,23.15107087,-48.0192066,19.00351825,38.09663918,55.23868543,0.032801049,177.7816697,60.11152968,301.8067635,58.88100596,-42.66524814,-28.92167052,117.9632297,-271.1424787,-153.6699539,-126.2849602
223.4239998,872,9.465238871,81.79393974,-31.19306518,-2.136173395,-11.34181597,0.033252243,41.16848468,0.261300195,478.0048018,77.56752441,122.9601803,-27.59738293,-59.08488909,196.8151561,195.8619979,137.0310137
223.4319998,872,114.5543503,-30.9230095,86.60311912,79.75467362,94.24041205,0.033700438,-190.8900144,88.70816788,409.9798943,75.88311706,82.01538447,-26.27710732,94.27809961,-122.733539,-98.53104179,-53.08053216
223.4399998,872,-79.1840544,-5.643553339,-86.8914722,-48.94297573,-31.0782996,0.034146104,296.9086061,-25.99533575,333.675865,50.43104457,-54.336613,-24.96086302,16.37693366,-81.3019489,13.562032,-23.04728652
223.4479998,872,95.17534466,34.23197624,39.84889917,33.67631873,30.07170444,0.034589561,-304.3953781,42.06021125,508.1682751,65.44341829,200.5777729,-23.64866916,-36.04420694,141.4607102,89.33984898,80.83373641
223.4559998,872,5.33373057,-64.74557522,9.534297038,21.82947477,45.20932529,0.035030005,152.7498227,72.25886469,307.5452042,63.47392964,-57.21405042,-22.34054469,120.5204321,-272.0206427,-162.4262928,-128.078015
223.4639998,872,-23.56188268,52.47669419,-54.61682737,-41.88375787,-47.39422058,0.035467975,10.4633267,1.774777306,470.8162105,64.45315952,117.5203207,-21.03650839,-73.95724428,180.3645075,176.6846122,116.3517912
223.4719998,872,103.2434904,-43.07061502,78.4059727,54.39079756,64.33011923,0.035903653,-213.4041216,109.4311296,397.0331075,54.42982507,82.26913354,-19.73657885,73.55450263,-142.3883177,-122.8858686,-76.97085535
223.4799998,872,-79.598436,-9.057604421,-86.83715772,-59.16152362,-42.58451425,0.036336597,293.950108,9.98038387,323.8950816,42.94161374,-64.32170004,-18.4407745,9.225828434,-82.4283437,2.146028908,-28.64265573
223.4879998,873,100.1445704,36.48604835,43.82061891,32.26068608,29.13521482,0.036767125,-294.2050413,74.81678314,502.8971325,70.00999201,178.2707694,-17.14911357,-28.48677032,156.9037823,92.71916366,90.39904714
223.4959998,873,14.655815,-60.35717621,10.22299522,22.46506278,36.89050106,0.037194827,156.1804878,84.32091189,294.5797009,58.19893272,-84.84667398,-15.86161412,118.6576973,-272.0091902,-167.6236498,-125.1313059
223.5039998,873,-25.5762033,50.89940547,-67.62932856,-51.01211885,-70.89951861,0.037619951,4.598793232,-10.23423708,455.183491,57.26550288,88.92692987,-14.57829406,-85.30947648,173.8225746,168.8245881,119.119292
223.5119998,873,101.9901404,-44.34090644,73.01657763,54.88891429,48.56123266,0.038042629,-223.5130685,102.7925904,386.874509,54.830408,59.57918325,-13.29917106,69.49394147,-146.9357736,-131.2453065,-70.77793152
223.5199998,873,-79.12993859,-9.939224161,-82.37894988,-51.72153141,-47.01718317,0.038462561,295.2076107,11.31696005,313.7016556,37.31961757,-82.09112806,-12.02426267,2.552154,-103.950999,-11.44154055,-27.61641163
223.5279998,873,93.48021481,30.76699028,48.61012784,24.95803552,23.01583365,0.038880053,-291.0873573,70.7397521,500.5470954,62.02050266,172.3319249,-10.75358624,-36.26487276,139.1789504,93.06008851,98.07389744
223.5359998,873,3.197365446,-72.42228991,18.82364025,8.093063915,37.65931066,0.039294904,157.2926551,81.75195384,292.8797948,50.40551947,-84.77547067,-9.487158943,123.0853144,-281.6768525,-160.6492485,-118.0695839
223.5439998,873,-33.13336324,47.44844125,-55.28673293,-59.62705608,-51.59935427,0.039707147,18.88562866,-3.918578441,450.1714318,44.59743242,89.28410432,-8.224997779,-81.46008803,165.1461461,177.4936044,122.5631714
223.5519998,873,109.1739214,-32.73859996,95.2688299,63.44312728,79.87199963,0.040116838,-204.6012467,118.1691862,395.2402188,54.1093951,61.39633315,-6.967119571,84.05456802,-146.2205862,-107.568179,-56.99781654
223.5599998,873,-80.52652007,-3.98549079,-68.99600529,-38.2913936,-35.78342881,0.040524059,309.3553349,14.3319506,323.4624059,47.2981067,-89.96527446,-5.713540964,24.70495036,-99.34671343,21.05249017,-13.04187912
223.5679998,873,79.62377007,30.15512174,40.85260264,26.99566203,11.41831019,0.04092862,-300.1514637,57.7578947,496.8809983,55.9055883,171.9542012,-4.464278428,-47.62601494,143.1452984,115.9207938,95.53462342
223.5759998,873,13.78139903,-59.33144784,27.62293716,28.63141178,46.83543825,0.041330369,150.8282061,88.67592856,293.0871804,45.61823009,-78.28889458,-3.219348261,113.0253721,-278.8822257,-149.0163982,-125.3677144
223.5839998,873,-24.13387058,57.60529891,-44.91365988,-39.76340942,-42.86827322,0.041729675,26.57514959,4.716250414,460.3318424,59.65417289,84.71314517,-1.978766579,-65.3074993,184.543207,195.7655476,134.7024672
223.5919998,873,102.021458,-35.90294506,87.70468635,51.95262119,67.9230874,0.042126469,-220.2217082,111.1599073,394.5634512,58.2224292,62.60530441,-0.742549324,80.61118962,-125.150648,-101.3798127,-48.93244417
223.5999998,873,-56.19933119,12.37925301,-48.56653233,-30.42729255,-18.193168,0.042520746,310.2454719,33.98276254,323.3709668,49.65285303,-92.12022631,0.489287728,25.92554959,-94.15945296,12.24879746,-11.94176719
223.6079998,873,98.05227913,43.09295497,61.76916072,40.6052762,33.29327759,0.042912442,-288.9096558,72.96894097,515.8593373,78.56287314,149.2681329,1.71672899,-12.83050883,166.1680334,124.8064981,120.4834685
223.6159998,873,-2.166728216,-70.83108262,14.92614306,17.63312107,42.60883139,0.0433013,137.9821752,75.42096469,296.1515119,47.59652086,-99.93924125,2.939759036,125.2049614,-265.7448158,-149.7673952,-113.6904742
223.6239998,873,-16.148845,66.55731023,-38.16595869,-24.23432934,-24.79059281,0.043687763,28.31224286,11.33639018,450.9321397,45.66778534,67.41261161,4.158362623,-74.8250969,171.4985864,180.5126719,126.2822514
223.6319998,873,112.0230964,-25.61245483,105.9947169,75.4530265,97.73533135,0.044071834,-214.9909739,113.3967747,402.6703834,65.25568095,38.68334418,5.372524678,99.13662204,-120.1781695,-97.18108246,-41.86102069
223.6399998,873,-77.274316,-2.47801054,-55.03384976,-34.24812072,-12.72838522,0.044453052,306.8817182,13.25697275,321.7412488,46.32390801,-100.2796296,6.582230299,37.70830792,-85.38777773,18.07560667,-14.85838628
223.6479998,873,196.4572068,73.77662287,138.8229202,96.63365893,73.37110797,0.044831694,-639.4664728,105.722109,610.1728741,70.1689978,309.8125295,7.78746476,-63.14020613,308.0021196,180.7593718,175.6217838
223.6559998,873,222.4394828,-46.46350464,203.8366028,149.1435305,154.8531635,0.045207641,-522.4165188,177.5557864,448.9946423,67.39838701,135.8865285,8.98821351,129.7413195,-138.3703403,-157.6828076,-67.87416154
223.6639998,873,68.78568994,38.71701301,48.00628644,36.02728704,30.70726609,0.045580972,-201.8773348,61.80562564,476.2139248,57.00116707,119.6890631,10.18446217,-19.81503824,128.0417671,106.733957,87.40196584
223.6719998,873,120.1624892,-18.97464472,107.9308303,82.0137979,83.22788336,0.04595227,-257.7909066,114.9513398,427.0819911,62.15178652,80.84416966,11.37619652,76.1568197,-62.90968797,-55.00080184,-18.95564392
223.6799998,873,-92.51212527,-28.82084061,-71.56765443,-43.30974231,-26.27559198,0.046320692,380.2843226,11.83870573,283.4018606,41.76672079,-132.0720922,12.56340254,61.51634063,-154.6834589,-24.80798913,-54.86257868
223.6879998,873,53.40231885,52.59891191,12.85765316,8.234528316,-0.112216403,0.046686147,-193.4632776,36.48681905,493.6571056,55.41798162,156.2994479,13.74606636,-54.98832605,209.6434029,167.4475441,129.0440989
223.6959998,873,75.98648481,-44.57102638,79.49787764,68.60691272,83.08126032,0.047049495,-25.08469331,116.4732819,339.1442145,60.51149998,-22.5376355,14.92417428,130.0949713,-206.1502089,-142.6126584,-89.24076909
223.7039998,873,-90.18310531,19.7261054,-83.59378091,-56.37571316,-54.34183019,0.047410254,269.7517806,-7.945413668,357.4103571,42.55715373,-36.62304806,16.09771278,-19.4629434,43.79519712,105.1914371,53.85642401
223.7119998,873,96.55196543,-0.199496096,67.22875281,43.49316925,30.95704209,0.047768228,-322.6556479,76.28622354,463.8141356,40.66948524,168.0434733,17.26666851,-2.435140641,82.74054566,38.50880368,47.29877363
223.7199998,873,-22.17109168,-44.81183099,-1.622060314,7.694552204,22.14264451,0.048123563,251.1321821,69.1257239,282.5652502,38.50155114,-89.68284275,18.43102829,104.3263554,-221.0287175,-109.8413273,-98.17393084
223.7279998,873,-0.337063529,54.48841705,-22.45692623,-25.1620365,-22.94174991,0.048476559,-22.32554634,20.26686034,461.9572166,54.78729112,102.0113364,19.59077911,-52.47594693,198.5335047,182.0981569,130.7847043
223.7359998,873,81.42007134,-43.67331542,80.25448497,47.34243948,66.79808701,0.048827012,-143.303365,101.3700481,373.9228977,50.20828382,37.18328628,20.74590812,100.9723117,-129.1555041,-101.8312931,-59.31730815
223.7439998,874,-88.2237013,-0.789510676,-70.73319432,-60.56025121,-40.39685302,0.049174602,299.3386481,-0.447263498,320.8384741,33.65552918,-61.69724682,21.89640265,17.77702001,-47.99032782,38.92897858,-2.794852504
223.7519998,874,75.84276014,16.25391773,47.6059443,18.02725904,18.43921616,0.049519761,-285.8344538,53.11739498,471.3142038,44.02292632,171.9098193,23.04225021,-26.80387911,123.8616163,87.77153834,74.95612112
223.7599998,874,-8.583772879,-62.95887546,15.72824556,18.96250822,25.6514452,0.049862408,183.5598345,72.39804451,277.3031933,36.30848584,-76.20106148,24.18343845,110.6961043,-257.3731382,-137.6491447,-117.3490092
223.7679998,874,-17.730296,57.55255401,-30.32037213,-16.8076676,-41.96008585,0.050202295,37.54671623,14.89241461,441.636624,52.46771467,86.87069263,25.31995522,-56.37062077,177.7712081,181.7215877,122.6713122
223.7759998,874,103.6777067,-30.6885579,96.9793531,79.46409593,70.84853496,0.050539741,-177.8448287,116.5517123,383.5297407,64.2361135,43.48749834,26.4517885,100.5020918,-114.0586573,-90.39637453,-47.08119713
223.7839998,874,-73.76679339,-1.316305166,-62.25433787,-30.82285887,-36.89601347,0.050874642,318.2057362,17.35645071,305.7321159,46.90624282,-98.80498073,27.57892648,34.75383811,-79.35180592,18.75079277,-18.48894827
223.7919998,874,89.56498534,40.7042562,52.41204863,42.56661317,15.58010197,0.051206809,-264.1970293,65.65375074,486.0465858,63.45030584,153.8655256,28.70135749,-23.64365009,160.3009338,115.1254067,94.31875439
223.7999998,874,14.41081457,-54.73905119,35.06615212,46.22311098,42.01446135,0.051536626,172.1578907,91.94890027,290.7319011,63.5432717,-104.4604004,29.81907003,139.3626302,-249.9861792,-139.4214372,-110.3807741
223.8079998,874,-33.0594645,52.1217196,-45.09421627,-22.63355337,-51.34319985,0.051863902,51.7667247,0.801369877,438.1296272,58.96562838,56.29154395,30.93205278,-62.25492423,196.7372435,198.2337167,132.1792366
223.8159998,874,100.1634017,-35.68754019,95.36204867,81.82215704,67.72996775,0.05218852,-204.0858013,106.3374891,384.340034,53.59193939,52.62802515,32.04029457,84.14729761,-91.12006879,-77.74122713,-43.08565267
223.8239998,874,-69.41552492,-0.38668517,-45.83228351,-10.08148203,-27.50379725,0.052510575,327.5733564,26.19104476,304.0618645,45.23110024,-96.94771808,33.14378441,39.27284239,-68.39759057,22.97660827,-11.85351513
223.8319998,874,78.51739274,36.66916578,57.65607784,51.75175487,10.53710563,0.052830159,-266.8589939,59.21751125,486.5381274,66.82138025,154.6203216,34.24251146,-27.2422422,190.2817386,140.0201855,119.9938186
223.8399998,874,-8.660529369,-77.10828773,22.69971404,32.18924803,21.74946269,0.053147184,142.7183142,63.4821192,275.5417168,46.76214608,-92.5138574,35.33646506,122.074668,-257.1889658,-139.2704316,-116.117723
223.8479998,874,-43.5304076,44.69443219,-49.97115845,-29.70167891,-68.14134298,0.053461274,51.12245218,-10.78107749,424.2441022,37.15851565,76.14931906,36.42563471,-85.48592023,180.3084988,189.5259199,114.7300321
223.8559998,874,107.1487743,-29.34873389,112.7380543,104.1788922,69.73917886,0.053773008,-204.7069692,116.7473981,386.6213873,57.00367883,57.83346115,37.51001007,86.23720665,-93.19134275,-79.77070226,-43.44971831
223.8639998,874,-81.8168543,-6.469180886,-49.63530555,8.79172813,-38.4337299,0.054082526,323.1783793,10.75661806,302.4645895,53.83968737,-111.8289997,38.58958098,49.93152945,-73.16108414,19.86888419,-16.21165372
223.8719998,874,76.34103831,36.89091818,51.20093688,75.52691014,-0.904856485,0.054389185,-270.6687496,49.91420733,485.8673456,61.13043939,151.8974368,39.66433741,-32.63617572,198.4892217,136.0037523,109.5431246
223.8799998,874,13.44523899,-60.16355409,44.21420597,80.63705443,43.48092087,0.054693176,157.6670613,87.1053283,283.770791,50.54863351,-105.2562973,40.73426953,132.3141129,-236.7049474,-139.0913885,-115.4757308
223.8879998,874,-37.68147788,57.71131196,-38.41484537,11.41116602,-47.50029788,0.054994648,72.93177976,-3.044546463,439.3459349,57.08155582,47.41415815,41.79936766,-57.5551926,212.1937282,206.3837797,132.512435
223.8959998,874,103.8503259,-28.75333736,107.5776046,122.5933891,68.76429332,0.055293906,-205.5877611,110.3159914,394.923355,64.33336573,44.37839229,42.85962227,95.78414556,-66.57766689,-68.83312853,-32.96847481
223.9039998,874,-82.46716188,-8.56282143,-50.64536186,15.74093986,-39.29850352,0.055590621,331.6344501,15.35478152,299.1181906,47.87254472,-120.5994775,43.915024,43.01019571,-74.16651256,19.95527024,-15.79312714
223.9119998,874,72.35508385,34.60232472,50.59523339,77.45691244,0.230869863,0.055884484,-262.5572126,52.67109484,483.1085924,55.86582166,151.860682,44.96556367,-41.04983226,184.8334543,142.8419797,114.3323115
223.9199998,874,9.783838532,-67.19475488,41.35633032,83.25298149,38.99701455,0.056175837,153.3578807,83.16062038,279.1993798,47.75817808,-93.41478578,46.01123224,129.2601622,-250.393048,-137.3659073,-115.6035352
223.9279998,874,-40.79230977,50.17588208,-40.67742451,11.94584893,-55.5912229,0.056464693,74.36848608,-8.850265703,432.6813696,53.94404872,58.48333174,47.05202083,-61.61331309,196.4504248,204.1213448,128.4014624
223.9359998,874,94.57615386,-40.21895106,99.26512774,108.2510418,57.35121954,0.056751214,-217.6129978,95.81260643,387.1889573,50.90269873,56.96904401,48.08792074,79.0555564,-92.79037741,-75.20720737,-42.03684445
223.9439998,874,-90.03536708,-16.67757091,-55.95445809,-2.964683771,-43.94102573,0.057035142,323.1689416,3.981048118,290.8438882,33.31527328,-112.5529609,49.1189234,30.97278187,-95.39292417,5.442274785,-30.55348067
223.9519998,874,80.66087868,42.07167801,61.81681363,72.66888224,4.498534216,0.057316497,-260.5981833,58.0717129,484.3352878,52.77573471,154.6271565,50.14502044,-45.02050067,190.2761563,135.2288009,107.616824
223.9599998,874,16.42854266,-62.68305744,50.24957369,80.20119954,39.22349133,0.057595254,148.3432875,88.44094177,280.90515,45.44499623,-100.5211092,51.16620361,126.0600403,-246.960521,-142.5419807,-117.2799072
223.9679998,874,-39.37831429,53.36977363,-37.45864233,13.62444134,-53.32777242,0.057871354,80.42833258,-0.192919682,429.7962486,52.37945993,39.19394423,52.18246484,-58.50703966,193.4630548,202.2153669,131.4715556
223.9759998,874,100.6915732,-33.95395519,103.1156647,119.0057796,58.84854176,0.058145145,-212.0496995,108.8981163,384.0204833,54.40267229,38.95043205,53.19379623,82.55235135,-89.61181873,-67.8765448,-33.57428285
223.9839998,874,-90.85166078,-20.87084833,-63.41000856,-2.785666557,-50.56341372,0.058416437,320.7626966,3.622546027,278.6128481,25.53963669,-119.8065426,54.20019,24.43166092,-106.407669,7.948383473,-32.82217799
223.9919998,874,83.01497357,41.3903889,58.95365461,81.91783343,11.81445146,0.058685125,-252.2653121,64.12564438,482.2072662,53.58994581,151.3589402,55.20163857,-35.39400327,180.9718052,138.3578106,113.1859481
223.9999998,875,25.16691514,-57.6616156,52.64605187,102.3244616,48.8579741,0.058951413,160.5873398,103.2106801,282.9848678,59.32035226,-105.7349241,56.19813448,140.8100666,-244.0207181,-139.3816983,-103.1436811
224.0079998,875,-32.81736896,56.1308544,-39.65854646,20.91976309,-58.81295594,0.059215276,83.81079379,2.655939199,415.0790788,46.70099292,45.1892471,57.18967046,-72.68555405,200.951738,198.3334207,129.7667027
224.0159998,875,114.6151682,-27.58526632,116.4006378,129.6716363,63.28040846,0.059476479,-210.7270372,116.3005947,382.7126175,54.23664947,50.18935782,58.17623939,89.7543434,-76.10722076,-67.43828548,-28.9070325
224.0239998,875,-82.59598849,-15.8952293,-48.22083801,14.66764733,-42.99867512,0.059734957,331.1072739,14.53934651,285.422196,38.86575728,-119.7995236,59.15783427,48.09392312,-96.3200067,13.80372838,-19.92459604
224.0319998,875,74.06355241,36.47169638,58.58218407,78.358125,2.578896783,0.059991128,-257.6676279,55.73669774,475.6554858,50.78294063,152.7985151,60.13444831,-41.00403635,195.6430515,144.9185538,114.7016449
224.0399998,875,12.32814752,-68.37814095,48.73341067,80.9416259,32.48255219,0.060244971,136.690078,85.26476616,272.8005391,42.83462722,-89.21361095,61.10607484,128.2909692,-239.5649431,-139.1502751,-114.8432275
224.0479998,875,-43.7233926,51.61027051,-43.08814231,1.895297322,-71.46349305,0.060496183,72.20918594,-12.86112617,412.6270411,37.97915758,64.54454864,62.07270734,-76.86344711,194.2530175,197.3675092,118.2393912
224.0559998,875,107.0608659,-28.31519591,115.5871152,120.4788729,56.48642689,0.060744886,-215.4993634,107.6224263,387.4108333,56.91729166,64.74850501,63.03433948,84.82261518,-72.18059885,-67.13700205,-33.84013987
224.0639998,875,-90.62688483,-19.97234141,-55.3041006,3.224511568,-53.95455289,0.060991083,329.6778325,10.64797146,280.7325888,33.65425825,-103.9898493,63.99096506,32.7443896,-97.69274814,8.218741868,-31.28028991
224.0719998,875,104.0146723,99.57962587,51.53439888,58.71178807,-32.88671043,0.061234775,-497.4024753,26.11802267,591.8068545,47.00423967,320.6357432,64.94257802,-158.9329618,458.3961297,317.4254605,245.697434
224.0799998,875,104.3578835,-33.58664805,111.4398134,112.5114724,50.29433738,0.061476238,-218.9658349,102.52492,387.1258546,54.99494429,69.35680545,65.88917249,86.87425364,-71.26847277,-64.00710824,-30.74060361
224.0879998,875,-93.3917148,-30.54243155,-51.55831485,1.842225981,-55.10141685,0.0617151,360.3973339,10.493965,253.046228,29.15339936,-135.2249047,66.83074271,56.17584783,-141.1994076,-26.71262383,-56.9631096
224.0959998,875,46.1321195,25.67262469,37.46237841,62.19046982,-16.63985599,0.061951232,-158.1174281,45.26427417,419.6198419,37.30570215,103.5797625,67.76728311,-29.00073034,125.2486301,99.52342981,69.51233666
224.1039998,875,37.24506053,-9.435275497,52.75731709,80.744953,14.09575357,0.06218516,-14.07118116,74.84542062,357.4557441,47.44516033,23.07539131,68.69878824,45.45988379,-31.55831342,-2.482772115,-6.109156889
224.1119998,875,-33.44272498,-70.93862591,28.88122877,73.96659306,35.61803211,0.062416648,403.4353812,95.73991608,194.6431659,43.3487631,-195.8302346,69.62525284,167.0387205,-346.8415517,-186.1460315,-166.0637893
224.1199998,875,-81.30872175,-58.66056325,-15.95020805,42.75051275,3.354542075,0.062645469,523.6930933,64.97849979,179.2945125,37.30340906,-227.5430844,70.54667175,142.1584412,-322.8894064,-144.849963,-149.331308
224.1279998,875,-3.918562903,22.41484882,11.55236599,47.23423669,-17.4275864,0.062871852,68.71299126,43.81322812,379.8546829,51.51688338,23.87159692,71.46304002,1.949303372,72.86085058,99.3564879,61.58692557
224.1359998,875,71.01967939,23.63182344,71.51757591,80.75594633,21.21086446,0.063095904,-177.8947525,70.30183494,437.5142043,56.65031593,103.468589,72.37435279,7.628363101,111.9083581,101.5499087,84.75896825
224.1439998,875,8.224411495,-25.52868395,43.41416582,60.41519336,23.4106578,0.063317365,120.8123346,66.6405519,308.2747055,37.65318574,-62.61088572,73.28060539,84.05941938,-139.7062414,-48.27370663,-47.63940006
224.1519998,875,-2.903826573,23.76665175,21.85421293,40.32224122,-11.01491785,0.063536397,84.02303356,40.33738196,373.5081862,45.7567711,0.741425267,74.18179328,14.22173328,44.86211771,85.66525657,48.88045767
224.1599998,875,61.03145935,17.0200028,69.28533599,75.62130598,7.523466223,0.063753187,-153.45867,61.71419779,423.8395042,52.79068228,87.71960658,75.07791209,12.2325831,86.15353926,84.65860123,61.89330429
224.1679998,875,-0.857821125,-32.04660573,36.99040348,66.32423172,9.304567778,0.063967648,151.0693061,64.97393505,296.5317893,41.47188699,-73.25227718,75.96895757,89.99098098,-154.8465849,-60.54907889,-62.75722266
224.1759998,875,10.07648191,55.1226254,17.53789296,45.28516244,-30.4425813,0.064179377,-4.559220884,32.57609428,426.6661296,57.01202743,63.45057135,76.85492563,-33.22139376,173.8106112,171.4581538,120.595829
224.1839998,875,74.97807389,-19.77380834,94.51180245,99.53208231,30.83892432,0.064388505,-113.6454966,93.85431434,364.0822108,54.07170955,18.8261697,77.73581234,75.59006125,-62.46873877,-37.46605139,-16.99496437
224.1919998,875,-47.85677504,3.460318807,-11.51882114,35.15147959,-33.71000138,0.064595535,248.5455401,38.82822303,309.1882978,42.98034482,-88.52970486,78.61161389,37.94020282,-39.45516876,36.93158804,8.243980703
224.1999998,875,58.78904789,36.94578899,54.06620694,76.92225276,-3.938296217,0.06480018,-203.9867581,57.96576887,455.0980509,55.78539554,114.8671478,79.48232665,-27.4917965,180.630235,147.2989718,120.4521875
224.2079998,875,4.95725359,-56.02271276,40.2144657,77.79676375,17.58414295,0.065002272,111.8535822,72.60376008,275.6460052,32.97670441,-84.18231703,80.3479471,99.88568404,-201.1580215,-111.1974992,-95.03992922
224.2159998,875,-19.62715593,64.07102508,-17.9491206,38.37089777,-57.11794342,0.065201993,67.36244099,13.50923201,413.3930423,46.15492896,46.99302258,81.20847188,-59.59935979,195.7243595,184.7678709,123.6174421
224.2239998,875,92.68677327,-19.30460365,99.70934455,116.1650918,33.74086058,0.065399362,-202.9841854,92.38710048,387.0244908,56.50003485,46.63988629,82.0638978,74.44073208,-42.04874422,-44.56173511,-10.92442194
224.2319998,875,-74.0427268,-9.078425687,-36.81758206,18.34019486,-49.24013373,0.065594106,288.9074228,13.73933977,283.6845779,19.96039293,-109.3363968,82.91422177,30.71297512,-76.13086235,2.996225939,-28.05623257
224.2399998,875,87.90974293,62.14405195,76.68080537,97.96458758,10.90774092,0.065786549,-213.1456312,73.19091133,475.6702207,54.14965259,122.5668721,83.75944086,-27.58733247,222.3640859,151.0896923,131.9317045
224.2479998,875,27.21928022,-47.90511741,67.1368863,96.58651894,43.09381256,0.065976593,129.6079904,96.81909391,289.009043,63.96217968,-123.1408527,84.59955231,147.2373138,-198.9966659,-119.0916742,-77.1178375
224.2559998,876,-44.75019339,57.95020596,-35.47985089,10.35603961,-62.88713367,0.066164165,91.70463361,0.042401031,407.1636262,45.33535359,20.15689418,85.43455348,-66.62317476,208.2086589,199.0381973,133.5918915
224.2639998,876,108.207659,-12.86775485,117.3736307,123.7992129,58.19478629,0.066349651,-215.6126289,111.0812097,390.263059,54.15701705,43.94552974,86.26444185,74.37514375,-30.28578529,-46.25202439,-6.054958904
224.2719998,876,-73.82240785,-5.501177799,-28.69172312,25.48825832,-39.27152764,0.066532707,325.6592001,23.2284301,286.2781514,40.32786438,-137.3724077,87.08921509,52.67103067,-75.91697296,7.720901024,-11.23205155
224.2799998,876,60.69029329,44.27879174,55.18739155,78.3465005,-14.14644464,0.066713022,-239.9119005,49.52823832,475.2135245,46.93608212,131.5097629,87.90887097,-46.97399465,232.0847282,158.3166366,132.2248602
224.2879998,876,12.72475701,-60.23824124,54.31394862,92.37065834,29.09079234,0.066890948,115.7066982,86.46305407,277.4785533,39.05357133,-102.736676,88.72340743,124.2203152,-210.4955263,-136.6586183,-103.2945284
224.2959998,876,-41.97529302,65.36453643,-30.85678202,21.04497871,-64.42880266,0.067066848,104.3336959,1.794271996,410.4735178,41.18589638,30.61184364,89.53282254,-65.72359024,211.9638829,194.929067,126.8903325
224.3039998,876,114.2534087,-11.06235464,127.7696869,131.7718722,57.26280055,0.067240277,-223.1330298,113.8906951,399.042298,55.33577853,49.24199171,90.3371145,79.23381396,-22.09487914,-47.4729805,-11.22798191
224.3119998,876,-76.22780638,-9.181883258,-26.9322888,18.55347438,-42.86851595,0.067411157,332.4632853,21.34191663,287.9471143,38.79063489,-144.3095255,91.13628165,55.503076,-73.44336385,8.304235218,-19.9376363
224.3199998,876,51.87803959,38.73089694,53.89301673,56.50177977,-21.05526239,0.067579981,-250.6790852,37.29962688,482.6590956,47.88825689,122.9083659,91.9303225,-38.90583667,243.2266229,167.4651273,130.3759442
224.3279998,876,7.034918205,-68.24936679,61.64165042,78.40018322,25.93295559,0.067746416,103.4046797,79.43734089,280.5827087,31.82963514,-117.9384456,92.71923566,128.994807,-219.7874134,-140.5472123,-116.6330695
224.3359998,876,-44.24307336,59.86923254,-25.1568866,16.18440935,-67.43994731,0.067910347,101.3592177,1.458961186,410.5859554,25.95231725,10.87954542,93.5030199,-68.93114162,196.4160338,188.1695935,116.4166546
224.3439998,876,108.481942,-16.70754194,129.1779888,128.25907,49.18562196,0.068071915,-237.9124158,111.8003417,402.6070589,44.54764513,31.83266048,94.28167411,80.86830188,-17.44702059,-47.95572226,-6.383867749
224.3519998,876,-74.91549538,-7.341263006,-16.70303069,26.92646099,-44.47247531,0.068231049,331.939246,26.03308529,289.8881256,33.87796338,-161.3073975,95.05519733,61.56142993,-72.64774309,4.580876761,-14.08075427
224.3599998,876,72.36649136,53.37270482,74.31653664,76.24876188,-14.64605922,0.068388183,-235.0505775,56.35380613,486.8763261,47.20099643,114.8705741,95.82358875,-33.88653906,239.8862879,165.6400272,138.6717448
224.3679998,876,22.5850779,-61.58016193,71.64527361,86.30482912,21.79920061,0.068542803,116.171812,91.82873731,282.6900588,39.63707691,-123.7246305,96.58684766,141.3168327,-210.5671795,-134.3135354,-101.7567887
224.3759998,876,-53.33292534,50.71428702,-40.16156935,-3.609094307,-88.46367583,0.068695121,102.9876516,-15.49918917,403.422856,33.27365672,0.88475046,97.34497351,-60.94440811,197.3423904,200.297222,126.0343738
224.3839998,876,85.57639417,-37.91415385,97.50841761,90.89460716,21.39731,0.068845348,-258.0444619,75.99516485,387.5227616,32.17582035,35.97005568,98.09796589,65.36262634,-43.37628155,-47.10985257,-21.11632872
224.3919998,876,-99.27513133,-31.41860459,-51.52999853,-2.423221819,-66.86794329,0.068992881,313.2247435,-2.692851171,269.1078934,4.263166993,-146.4831876,98.84582451,33.50563574,-108.8507787,-13.44994486,-48.75865491
224.3999998,876,65.65013541,45.52309543,56.3980453,73.91326955,-15.83429986,0.069138332,-237.4798217,53.7025636,478.672126,26.5049183,125.2328035,99.58854921,-49.59539025,211.1320984,151.7039237,119.5402405
224.4079998,876,34.09213751,-58.75304814,72.07584958,99.76418913,40.04712483,0.069281401,121.8372932,104.957623,294.5098423,35.70799025,-122.018961,100.32614,147.865997,-229.6037429,-141.1203399,-100.6272408
224.4159998,876,-37.37417944,63.59136464,-30.72899716,17.17968836,-61.09222873,0.069422142,129.3868295,5.650947248,428.3843812,41.02707916,-5.054479236,101.0585969,-41.7825527,203.707331,199.6165322,138.7106844
224.4239998,876,95.96084625,-20.56656305,104.1159053,107.4890197,45.1157671,0.069560629,-229.1650369,101.5474513,415.8467033,50.25791145,32.27467519,101.7859203,85.77554235,-22.68383594,-36.39853,6.736366737
224.4319998,876,-103.6034712,-25.88162736,-62.46210115,-15.81426671,-63.20908386,0.069696812,328.8606039,4.135318044,281.6575768,20.49372071,-145.7338321,102.5081105,40.14740036,-100.5289504,-5.458803972,-23.44344051
224.4399998,876,56.34720562,48.25215912,46.1511168,46.63082632,-16.69676874,0.069830762,-224.4458216,50.23600178,480.9304149,38.08161025,134.36663,103.225168,-60.61896821,228.1051972,155.51319,138.2063561
224.4479998,876,16.38842108,-63.66394998,64.32584406,70.33030411,43.61373319,0.069962459,134.4299383,104.5235109,290.4424275,46.41203426,-115.8481651,103.9370935,141.194475,-205.6840608,-140.693924,-80.79827583
224.4559998,876,-63.64146817,50.44582239,-52.00102983,-26.59889822,-69.61394554,0.070092064,134.0242352,-4.399283664,410.4544893,40.16773588,-8.468692301,104.6438877,-53.74164602,221.0453302,193.9780969,149.4490327
224.4639998,876,98.04812121,-19.2635191,107.6033098,86.54561765,50.7230602,0.070218978,-224.9272799,107.7778312,406.8312771,51.70648467,29.65313409,105.3455515,80.99780875,4.321096323,-40.74732816,15.07203719
224.4719998,876,-83.54321307,-16.99402062,-31.59965784,-5.029862578,-33.47959983,0.070343824,357.6954337,31.91904451,291.3854328,40.51618698,-170.2047158,106.042086,74.34239398,-63.27636326,3.216450936,2.632801358
224.4799998,876,61.88099195,53.37899225,58.46972307,51.15959691,-4.372111774,0.070466408,-205.0715069,60.04130657,490.3821104,52.07517771,90.87352295,106.7334924,-33.2541247,263.4471907,174.5427689,169.9014921
224.4879998,876,10.5660121,-63.63583965,62.00775685,66.08815275,30.40091895,0.070586552,128.6758792,95.97631587,291.0715981,44.28824761,-152.380873,107.4197718,139.759254,-198.2206622,-133.378122,-65.61735081
224.4959998,876,-87.49353017,38.24962438,-62.33169454,-40.84267911,-94.71487777,0.070704781,124.6990844,-25.08163458,403.1021514,23.41617152,-28.63976578,108.1009257,-74.15079182,205.5548786,190.3473727,152.8188934
224.5039998,876,75.25781833,-28.00989103,97.89543146,74.00646243,30.65495095,0.070820758,-245.5129416,87.13087676,396.0156937,25.0488275,24.90859014,108.7769557,48.01211277,-10.05388297,-51.30811055,10.93445525
224.5119998,877,-96.32002689,-18.3210359,-33.18598392,-7.858348586,-47.23528781,0.070934481,344.239427,19.60438663,280.8079734,22.38954864,-179.3231981,109.4478635,48.13753942,-82.36725689,-15.24561121,-6.80615912
224.5199998,877,39.40288089,44.89413067,47.37715672,34.73365836,-26.98453547,0.071045854,-222.6335372,37.20265266,483.7688528,36.35855724,90.68859162,110.1136507,-61.69239192,248.1252281,162.5941612,161.0325952
224.5279998,877,1.586097667,-65.50104621,61.19895569,56.17251701,22.28947078,0.071154903,108.0665225,85.38970298,289.2492943,29.33261763,-136.995652,110.7743195,121.1658427,-208.1626608,-142.7322659,-80.51673875
224.5359998,877,-73.1471286,52.51235985,-38.60160064,-23.31297616,-79.59576686,0.071261792,141.4859967,-5.039564995,408.5430993,32.28785759,-29.15742904,111.4298717,-62.08897417,209.1919685,187.4114946,150.1381861
224.5439998,877,81.87649424,-19.68101933,108.730726,82.59236911,32.55313333,0.07136686,-232.4751475,99.24913465,402.7467318,45.99622024,14.98815461,112.0803095,59.31833748,2.666761388,-44.62261281,27.67085446
224.5519998,877,-159.2732823,10.64451397,-96.3724729,-55.11581535,-98.64500648,0.071469504,483.9836848,-21.10065169,279.5460979,31.30403106,-196.05439,112.7256353,0.056543476,-7.024772985,71.07438683,49.45699929
224.5599998,877,19.79407821,100.8531317,17.54460009,8.91507191,-56.68487288,0.071569818,-196.9823128,12.60518411,532.674855,53.81900916,132.636792,113.3658515,-122.6210789,412.6765518,287.516032,253.7914513
224.5679998,877,80.90675542,-88.33265457,141.5271285,109.6812698,85.53361931,0.071668164,-54.05066411,141.981148,287.3977904,49.49434944,-137.7603139,114.0009606,193.0242821,-295.2071903,-252.350799,-132.611104
224.5759998,877,-137.4201045,40.07267192,-81.96278963,-55.9542057,-98.16299882,0.071764058,350.1857726,-23.65576017,342.0282936,31.97779178,-132.7879474,114.6309652,-37.82430757,120.7347618,158.9031028,113.05773
224.5839998,877,91.56172974,25.25780234,107.5559706,68.57222614,20.46861312,0.071857942,-315.8304589,91.94857498,478.081811,56.42028757,94.64764979,115.2558682,-2.089704855,171.3525812,90.08797616,123.5155739
224.5919998,877,-33.06497187,-64.19981723,41.915945,34.46459696,9.983888146,0.071949538,264.7754516,85.66109021,248.5252598,41.69971151,-207.5006326,115.8756724,137.6930388,-249.5807514,-145.1996871,-84.55161889
224.5999998,877,-39.70857672,80.00783017,-20.64086277,-20.50932854,-81.30960764,0.072039049,26.48873166,-3.863664657,451.1463148,39.55585955,19.38220024,116.490381,-95.71358425,287.0618739,249.5673685,202.7763674
224.6079998,877,100.3761426,-29.07838676,137.806336,102.7606351,59.0924592,0.072126505,-160.672191,121.9959956,366.1319482,54.11223539,-54.23295536,117.0999969,113.2447596,-120.5841797,-103.2652502,-20.34368472
224.6159998,877,-96.69528192,11.64181666,-38.34320352,-22.96287066,-64.73036306,0.072211497,346.4214954,4.977046245,306.4187475,40.9482637,-178.9598205,117.7045235,26.20449749,-24.43156404,59.26827794,49.10368864
224.6239998,877,51.10069706,38.27472526,58.33767312,23.04266205,-24.44910537,0.072294488,-250.338986,36.83569205,469.5950834,38.15645652,83.72665062,118.3039642,-50.97858271,214.2627763,145.4222277,146.581261
224.6319998,877,-8.612320983,-63.93334749,53.28418814,31.99524801,14.49085418,0.072375515,146.9039895,71.33870235,264.0981079,23.98339441,-163.396284,118.8983225,118.1669292,-229.2629673,-144.9589165,-88.067661
224.6399998,877,-65.41456446,59.512641,-37.98627667,-32.8767424,-84.56779057,0.072454322,98.69766332,-22.95954287,403.293301,26.5517506,-22.13518773,119.4876019,-78.28242555,219.0579853,197.801154,154.0817453
224.6479998,877,85.42682971,-19.63089487,113.566697,81.06347429,37.65747692,0.072530729,-212.632678,89.41188097,372.715843,37.94761612,-12.21897231,120.0718063,66.3943838,-38.05963551,-66.47472982,1.214326719
224.6559998,877,-93.35498629,-3.79799886,-30.05705275,-10.47327691,-49.6476922,0.072605284,347.8135114,14.74161871,270.6529618,29.86145999,-190.5941114,120.6509395,45.23301655,-76.76008912,1.388933923,7.664238378
224.6639998,877,39.68435651,49.26884206,49.61863208,38.02966211,-31.41395308,0.072677867,-215.1253664,37.65375,459.0675082,39.82665171,76.98641047,121.2250054,-56.66597851,239.0033775,156.5834639,159.3191792
224.6719998,877,13.95963546,-50.55945808,71.52518525,71.7354955,18.00525377,0.072748002,120.0546352,95.79946098,266.97084,33.94352436,-152.2448851,121.7940081,122.0298878,-199.0264431,-144.4334679,-78.21966261
224.6799998,877,-48.13774079,74.84125731,-13.29985559,7.471016796,-76.827863,0.072816146,159.5061213,11.48374362,394.0692473,47.53702347,-50.85934626,122.3579519,-43.82395026,209.1376513,193.9263414,158.8657495
224.6879998,877,102.0966209,-1.491525534,135.4445852,111.7478614,32.44754233,0.072882244,-217.7218554,103.8438162,395.4530383,65.15884207,-12.93624855,122.916841,83.21091661,8.492224695,-29.55035734,39.934032
224.6959998,877,-82.38008526,-3.533450751,-16.0525482,14.21566448,-56.38082108,0.072946259,346.5928182,25.62235637,265.9932893,42.26438036,-207.9057884,123.4706799,56.38977412,-82.60636117,-8.847405277,2.677531466
224.7039998,877,43.97148411,59.66858133,54.32070488,50.46105921,-37.79966162,0.073008048,-206.4831663,42.69252158,460.7529522,47.33890158,67.37015017,124.0194731,-59.31365594,245.5805765,165.4374936,166.8966864
224.7119998,877,14.89313812,-54.45515827,74.65872017,74.5173518,19.01577958,0.073067696,102.2581358,92.72816412,273.5433505,44.98395702,-154.1022477,124.5632253,129.4649823,-201.0399807,-144.718814,-70.36156312
224.7199998,877,-66.45811463,58.99388773,-32.79136252,-12.21107394,-82.89556999,0.073125557,156.6818954,-0.052762111,384.0033822,44.80965967,-60.22911293,125.1019413,-51.96274537,193.3585631,183.4260678,150.1702753
224.7279998,877,78.34065453,-19.53904508,106.6421411,75.66228271,23.27298649,0.073181036,-245.3069617,87.57977215,383.8247459,43.92038641,-5.340533727,125.6356258,58.3132248,-9.461270255,-35.58764891,24.07947545
224.7359998,877,-100.1993113,-23.79448961,-31.70262745,-15.89644051,-57.08826399,0.073234574,334.883718,10.13793792,250.9621537,19.4847065,-201.8935791,126.164284,50.65121288,-122.5782515,-26.20613746,-23.9852573
224.7439998,877,45.00815966,57.01699739,55.42504903,39.61437911,-30.02631978,0.073286286,-203.9780225,38.03816653,459.3123745,36.64085757,71.82493868,126.6879209,-57.40794737,232.9215099,171.9312979,158.207321
224.7519998,877,25.02669247,-53.35734375,81.51256203,68.74834491,32.99487709,0.073335722,96.55653747,93.46363488,276.9633654,38.76852942,-157.0199375,127.2065417,134.3296684,-217.210583,-134.6909336,-76.97601802
224.7599998,877,-59.07336827,62.60711529,-24.21300029,-16.44592272,-66.32034721,0.07338336,165.7151492,1.698103003,387.2709595,39.30805087,-73.12712764,127.7201518,-42.55110513,177.0223256,191.8181072,144.8720187
224.7679998,878,95.90507081,-7.111701704,123.8661531,87.59883537,40.20165127,0.073428873,-238.0172006,101.9010405,393.6913211,48.78379905,-16.76051552,128.2287565,73.88089105,3.903249219,-16.96948149,35.5807424
224.7759998,878,-96.59958681,-22.12682456,-30.03247807,-13.91184399,-61.75436389,0.073472027,336.0001737,11.24186941,251.9872172,27.8805459,-214.9144595,128.7323615,63.67834479,-109.9943091,-12.77287376,-14.51687535
224.7839998,878,40.33256047,58.55250079,49.57188323,36.03998144,-45.08994803,0.073513208,-209.6321492,31.3112095,451.5138537,35.16466941,71.19591998,129.2309723,-66.57513304,239.2676386,178.4349719,156.9697467
224.7919998,878,35.11144624,-41.42297143,91.75755078,86.27489939,31.72912083,0.07355284,97.86831829,107.1439097,269.8417821,44.890911,-158.1539144,129.7245948,132.4902192,-217.0514953,-133.2714055,-74.46837498
224.7999998,878,-53.27484688,71.74208755,-13.48131746,2.687049332,-72.13478121,0.073590163,179.592476,8.142249048,386.8734389,59.31280053,-85.44610018,130.2132347,-27.73714941,185.2610948,201.307107,162.4330636
224.8079998,878,110.3887793,5.362313925,143.301663,111.1292835,41.27926779,0.073625293,-232.1761489,106.5157647,399.0902669,60.18190837,-23.95231546,130.696898,75.71702355,12.45550052,-7.048557486,49.07569626
224.8159998,878,-75.589426,-7.489667194,-6.392116003,16.02745683,-41.51426053,0.073658974,353.420604,30.95198719,262.3493366,42.01142601,-231.8603279,131.1755909,71.68534385,-107.1622798,-3.570441246,-1.262353769
224.8239998,878,45.72402048,61.08942705,58.79499444,50.37074211,-26.40348612,0.07369043,-189.6060067,43.39363333,468.6562162,54.88573745,51.71348026,131.6493195,-44.72408456,260.453011,198.7943558,180.9734312
224.8319998,878,35.06596013,-50.16876244,94.75432116,87.89754054,40.343159,0.073719697,98.08264691,105.9656558,275.4651569,39.34430724,-166.6321128,132.11809,138.1244155,-206.8158577,-126.364558,-72.27787743
224.8399998,878,-52.56733588,65.19706286,-14.91313292,5.43167359,-70.74853067,0.073747011,182.2678822,5.19258561,383.4167603,44.08195563,-88.06048088,132.5819089,-36.05601622,183.7198977,200.4280164,149.3293909
224.8479998,878,110.208441,2.266641615,137.9535276,112.5294845,40.48144654,0.073772396,-233.2795699,101.9131406,403.9276467,60.35025855,-12.78609421,133.0407826,76.93617136,26.42072725,0.078962084,44.40443476
224.8559998,878,-81.78015852,-15.16550304,-14.62037476,6.660138969,-47.36178721,0.073795918,344.0239518,15.21644374,258.9365274,33.39563341,-213.5629421,133.4947178,68.6643568,-110.069652,-5.455017725,-17.03910773
224.8639998,878,37.64977551,56.26701041,50.583197,41.38723263,-38.21773615,0.073817659,-201.145934,23.60299205,458.4252629,38.97223613,71.85608576,133.9437211,-60.36251915,250.1024689,192.0896395,160.7516403
224.8719998,878,32.94591129,-50.04660617,90.91166108,86.49444689,29.19564192,0.073837433,84.00192839,93.70840372,271.5938711,35.68853903,-141.4255659,134.3877994,127.3187886,-198.7920206,-133.0909258,-82.33198321
224.8799998,878,-55.45770746,65.72734905,-19.603077,-0.915747108,-80.47058168,0.073854974,174.3444075,-3.020653196,376.4133526,38.10287403,-57.99514315,134.8269594,-51.38813336,180.9484862,195.3933648,141.1812983
224.8879998,878,116.5471473,9.32941213,142.7704356,113.8456929,45.10439646,0.07387054,-235.338448,110.4280873,394.7610836,56.08586476,18.67407107,135.2612083,63.76155549,18.04464858,1.389148034,45.94081893
224.8959998,878,-58.42925253,0.592802816,3.864011191,26.59221207,-24.84244476,0.073884459,361.3770838,45.00959208,255.3914076,43.34541681,-196.6014639,135.6905531,74.09950236,-100.8968145,-0.577964406,-0.686910831
224.9039998,878,58.61327329,71.13266818,64.2327503,58.61407841,-21.27788365,0.07389659,-177.641046,47.73726384,464.2461745,53.07301455,71.75911725,136.1150011,-46.78694695,267.134984,208.5937528,188.4467317
224.9119998,878,47.41553074,-41.25259399,99.73601693,99.06952943,39.36386976,0.073906425,97.89523356,107.9611439,275.409001,46.74814322,-143.1417394,136.5345594,139.1813342,-189.6935058,-117.336383,-56.10028919
224.9199998,878,-48.04358915,69.30360476,-17.4737073,7.470586568,-79.43867736,0.07391446,188.4835166,4.366534196,375.2906335,44.05996179,-58.59760587,136.9492355,-43.85358626,193.9959812,200.4597904,156.812109
224.9279998,878,108.6021447,3.215814014,132.2617597,110.7157776,33.30789042,0.073920847,-237.275971,105.3390345,396.7197537,51.20524145,15.20411786,137.359037,67.34944564,34.11950672,-0.692745737,53.55350339
224.9359998,878,-63.00866409,-3.751315647,-0.887097958,29.91674173,-23.728923,0.07392508,362.1930148,46.88259893,248.8551078,33.04508237,-196.8131292,137.7639713,70.80320029,-99.37998114,-12.26258098,-0.625707086
224.9439998,878,67.14641341,77.76809117,67.27811151,64.59936606,-9.595291447,0.073927446,-166.3019628,59.82201921,458.6513384,56.36281211,73.92811758,138.1640462,-47.36936795,280.5332063,205.5339313,195.2039601
224.9519998,878,42.9946446,-43.6057559,88.54925554,85.74771422,42.60829199,0.073928074,95.2585058,104.1552672,274.3329965,57.52225943,-149.5792058,138.5592694,147.8011861,-170.6177012,-114.6276489,-47.90435724
224.9599998,878,-60.88483759,64.22204123,-34.84702479,-9.860816427,-78.265988,0.073926666,184.6238696,-9.187297389,357.8190958,41.08012587,-58.07377301,138.9496488,-53.493569,196.5419437,193.7776804,150.3657684
224.9679998,878,102.3113255,1.42893254,123.3265931,94.77491194,25.21653637,0.073923298,-250.0281044,91.47749508,373.9358074,45.10997512,32.12953185,139.3351925,49.56935364,30.42391526,-7.194081805,44.39509617
224.9759998,878,-74.07127715,-13.268654,-5.251262472,11.14037046,-42.16402067,0.073918379,356.0572669,32.55589281,232.0156405,36.64048866,-187.521397,139.7159084,75.04030584,-110.6761533,-17.14372305,-6.62365311
224.9839998,878,56.91921617,73.53278018,68.11601239,55.10230972,-23.89697549,0.073911497,-161.6193949,54.23474117,438.9806376,55.61599175,81.49963753,140.0918047,-51.11035248,271.6815868,200.3695806,188.0188906
224.9919998,878,34.49859997,-47.52612314,90.03281968,75.40986601,25.3989335,0.073902525,81.06224677,98.26261205,253.0319241,50.56058293,-140.7962758,140.4628897,134.999306,-184.747208,-123.7270681,-57.73324898
224.9999998,878,-68.13835577,58.36206607,-30.62174558,-16.92865453,-85.79556194,0.073892119,185.5461474,-7.924082691,343.996042,39.23729725,-65.34853283,140.8291717,-46.55415311,177.1760382,186.2942038,145.7470112
225.0079998,878,108.1601604,6.498967387,131.9869056,102.9522074,40.87219819,0.073879906,-236.3964846,106.0625789,367.172445,48.46346047,17.83095794,141.1906592,61.38339029,29.39714873,-3.437867373,48.65647369
225.0159998,878,-74.91004381,-12.86074702,-12.14193917,8.404273905,-32.35707545,0.073865763,350.989563,27.31388642,222.6887534,36.52669109,-205.2701986,141.5473606,78.31860811,-111.5836782,-12.32296628,-7.13544205
225.0239998,879,42.07440381,61.16696552,49.46409427,42.80901815,-26.50737443,0.07384985,-176.434821,30.66107387,427.2065912,40.87451507,74.7472849,141.8992847,-59.33422019,253.9008546,200.4834539,179.958602
225.0319998,879,37.02550903,-52.40999745,93.06580208,87.10670138,43.09892437,0.073831957,82.42497851,100.0460301,238.5363737,30.50826885,-134.1867315,142.24644,127.2218605,-207.1279438,-130.1474615,-67.29588538
225.0399998,879,-63.388107,56.13755006,-20.43478253,-5.156803792,-62.84909361,0.073812179,199.9580188,-0.65545562,330.8071924,32.4490899,-73.58653704,142.5888355,-38.59767603,170.7530945,186.6419183,146.3373684
225.0479998,879,100.6577964,-6.255612323,131.8395617,100.2125778,39.6389451,0.07379076,-242.0826452,95.55730422,355.7672714,37.41610796,10.69101008,142.9264799,60.02522389,26.45660842,-2.963952644,51.28141876
225.0559998,879,-66.57108764,-16.21993324,3.207677882,22.95211348,-27.64530191,0.073767695,359.2624866,37.34555258,209.9473145,23.34816003,-204.7862567,143.2593823,73.6499706,-122.7820753,-27.22674204,-7.722163132
225.0639998,879,47.99488809,59.91699109,62.96734364,51.60148051,-15.33279342,0.073742835,-160.4882669,40.48256855,426.5986335,49.82812832,64.53328762,143.5875518,-43.02479128,261.6391985,200.1001389,194.7722785
225.0719998,879,20.18432012,-71.65811498,78.55918129,68.59738988,27.81965332,0.073716258,61.00641114,76.85286309,231.3618489,26.44989355,-134.3797797,143.9109974,125.0210163,-212.6873124,-128.2691138,-66.98648789
225.0799998,879,-73.18263797,45.48962815,-35.72718288,-14.6431241,-83.30885596,0.073687726,185.9490602,-14.2666761,313.6923213,15.00223355,-56.09780025,144.2297284,-60.45853278,137.2620029,173.0154634,135.6549307
225.0879998,879,139.7779892,21.26119105,144.075927,108.6248369,38.75028432,0.073657507,-437.0099648,99.72159898,430.913675,45.17233336,121.4881991,144.5437542,7.710054162,155.3006809,77.2966397,132.6041501
225.0959998,879,-27.30598238,-32.3974485,21.90978145,24.16423685,-10.51443203,0.073625551,110.3831124,43.30918696,251.797748,16.7757105,-117.2545828,144.8530842,53.53077799,-72.04079361,-17.86005218,6.712704491
225.1039998,879,-26.42374062,7.631561568,12.97260014,10.52830515,-30.5619724,0.073591631,50.41056386,24.71464237,300.588558,13.53575537,-53.02815932,145.1577277,-6.325001085,61.22182577,78.98833684,78.9295825
225.1119998,879,2.95823989,-33.22664453,54.98391039,40.89086901,3.702233193,0.0735564,46.56716985,60.2395072,258.8730668,16.59607786,-96.09151526,145.4576946,62.8497126,-90.32236098,-38.55468164,-0.354180152
225.1199998,879,-12.71540289,20.16346471,17.88972204,11.26750819,-34.43937149,0.073519279,8.549257824,24.91883444,326.215089,14.89917123,-18.61677798,145.7529943,-35.53103566,111.1365496,122.4547558,106.2628095
225.1279998,879,27.26127825,-33.76436186,73.8259289,67.12642046,25.15943317,0.073480123,32.05895358,81.62237126,259.9535736,28.5161046,-94.01755371,146.0436366,80.15116916,-115.4143804,-51.41246654,-4.063602059
225.1359998,879,-37.17596121,24.93915944,5.26536853,20.88929906,-38.0527113,0.073439775,143.6596311,24.13127559,292.497888,27.15295016,-84.23350074,146.3296314,-5.924570861,73.13582165,111.1598042,99.68201991
225.1439998,879,54.80530623,-0.322354311,88.13903684,76.56849461,12.29804629,0.07339779,-141.8891181,70.88894275,324.6888266,28.25600201,-12.98655133,146.6109886,27.63286695,44.14507422,40.58625808,64.89926955
225.1519998,879,-169.0858502,-53.97586801,-73.67736349,-25.6552781,-70.53454223,0.073353705,594.4600227,-5.529018961,112.8952499,9.562176858,-321.217781,146.8877182,89.01110693,-234.391586,-51.21379969,-58.18309355
225.1599998,879,-210.820869,54.42116485,-148.447721,-89.57353391,-153.3240165,0.073308059,525.6808988,-82.53736565,245.0204292,9.813934108,-182.8178303,147.1598302,-88.46310737,168.5250043,257.1140155,160.4636021
225.1679998,879,44.54555478,-12.37163793,80.24873,72.88777364,11.59123598,0.073260823,-114.2810757,70.23988589,305.7290401,21.49115288,-31.41117863,147.4273348,34.94593218,7.964616833,21.99778293,46.21702517
225.1759998,879,33.22856691,-9.124760496,67.62644531,73.63638561,15.41735531,0.073211787,-20.77673757,74.08214385,292.3913815,21.07509313,-59.9022344,147.6902422,41.06040963,-7.89935148,30.79355436,41.2422486
225.1839998,879,-5.13761859,2.572559153,34.40162517,58.04931705,-1.887454298,0.073161338,141.1634224,53.93704343,274.1183177,34.92274277,-113.6340576,147.9485628,49.77118535,-6.160036773,57.77829705,53.93868588
225.1919998,879,14.62712737,16.19854619,46.3196389,62.78729157,-8.218141458,0.073109051,32.28160395,44.6318038,306.9059544,37.92586038,-69.45502973,148.202307,25.73982153,58.56780927,85.29100187,90.14563249
225.1999998,879,60.12935934,7.315814201,90.34684424,90.90848401,20.95418125,0.073054939,-76.94264078,75.66711789,313.2619609,33.65025809,-41.6510837,148.4514851,42.14343364,29.26012506,41.95247154,68.26109621
225.2079998,879,-34.15755649,-14.86242766,26.80524334,47.14912034,-12.64288099,0.072999513,237.9379831,50.48696702,234.5051939,28.00660161,-162.0542853,148.6961079,67.68627132,-69.96583723,21.61481219,29.68456818
225.2159998,879,32.35901806,26.19433121,65.16540901,61.40060515,-8.741859375,0.07294251,-108.0242993,57.55769783,366.0689538,31.07392963,12.454809,148.9361858,-15.78354274,167.1693628,159.8110585,157.0885357
225.2239998,879,19.28090042,-42.7141369,84.09069983,80.78188383,31.6149512,0.072883494,82.81237843,93.01714168,235.8120927,25.71015846,-129.5125978,149.1717296,102.4998052,-136.299982,-53.95735741,-7.343336535
225.2319998,879,-56.83730469,27.17021974,-5.925809969,5.626774639,-58.63755391,0.072822921,151.3038399,5.03984544,290.6623279,20.07295585,-73.64449186,149.40275,-21.28339369,103.7891558,147.915015,124.983057
225.2399998,879,74.30202171,-8.867941496,113.5362667,88.86650446,27.62867971,0.072760961,-203.246405,83.14981229,324.8577467,22.49832376,11.11067912,149.629258,47.1683076,14.34316763,23.55341233,66.94265011
225.2479998,879,-67.62649595,-29.56216882,11.17975773,28.74441593,-15.97676444,0.072697338,301.9872409,41.77782853,187.571045,8.319091294,-184.4966527,149.8512645,78.0743517,-143.3079104,-18.81707403,-7.406511821
225.2559998,879,25.4197818,45.36700846,52.67659337,48.27405614,-20.05643323,0.07263209,-136.334224,36.81625215,373.0614841,26.1262387,58.01228042,150.0687804,-42.20408626,216.3144911,190.3997157,172.6214722
225.2639998,879,35.64199208,-52.17089024,97.25321206,96.49945683,46.11104616,0.072565297,63.42288942,101.3760832,217.7949769,30.44834987,-124.3645385,150.2818168,135.1255779,-188.1914027,-103.1793408,-44.27913284
225.2719998,879,-62.14747685,44.33072781,-14.76685648,10.1145398,-59.92415186,0.07249714,199.4969462,10.4804196,282.3873705,26.96277054,-82.1157872,150.4903849,-21.88457336,121.203575,167.6255854,132.7600345
225.2799998,880,94.65909046,-2.201459316,124.9700899,102.3880075,28.68477648,0.072427205,-239.6175555,96.15856464,331.6582118,42.25210028,19.70492138,150.6944959,58.64912627,36.13603117,30.03550861,69.14005165
225.2879998,880,-73.42015958,-33.8736947,1.863601651,22.71329898,-39.79743613,0.072355552,318.2538197,31.4850988,178.4290493,24.56817094,-202.1254788,150.8941611,86.69280868,-133.8431244,-19.78561969,-18.21189301
225.2959998,880,22.8181656,47.60785607,52.02159021,41.42012445,-41.51982928,0.072282639,-156.256031,25.74736002,373.9279819,29.84956207,64.83801548,151.0893919,-58.56269156,245.2272442,206.1583035,171.3260545
225.3039998,880,32.3522083,-62.76294677,103.316802,88.99780925,27.22936121,0.072208005,40.9933398,91.72590536,207.1719631,25.31294933,-116.1041017,151.2801997,125.8139049,-204.3896442,-110.9443869,-70.39078111
225.3119998,880,-66.29679992,47.15131538,-8.173881437,6.866092919,-71.0539675,0.072131797,212.8000777,2.485360977,280.8753119,30.64861542,-77.28665284,151.4665959,-25.91885022,127.1649983,185.1720322,124.2652036
225.3199998,880,106.7984174,4.782656319,147.9391135,113.9878516,44.37050512,0.072054276,-239.690928,105.2810056,332.7042454,49.34353935,24.63617136,151.6485923,65.55458794,30.35730182,44.22256127,64.97448026
225.3279998,880,-67.0317812,-24.17551093,13.20803801,27.88954278,-36.5599904,0.071974923,326.123889,35.2963762,169.8408236,24.03692603,-204.7057419,151.8262004,84.53189367,-152.5240106,-8.55913476,-23.0370574
225.3359998,880,42.4881709,72.25855455,70.26953561,59.52425074,-28.75152193,0.071894242,-147.9921739,39.9570639,374.7820284,45.75347935,52.75752379,151.9994319,-48.41146754,245.6610776,224.1948422,184.3184001
225.3439998,880,42.3118598,-49.76275493,110.1553248,96.91365494,42.10091915,0.071812254,48.9700788,99.58275285,204.5459013,44.11297616,-135.6214292,152.1682986,141.351609,-212.2060962,-101.1896495,-55.7487133
225.3519998,880,-76.95490754,45.87609063,-29.25303307,-9.19308359,-89.54540929,0.071728586,206.070175,-15.48171984,265.0665691,22.84231699,-84.50808839,152.3328124,-41.69240642,116.4049179,180.0140119,122.6468393
225.3599998,880,115.3920798,15.15456753,145.4663042,121.5035051,38.63568684,0.07164342,-238.4920712,107.5131691,319.3459651,47.3593507,14.47583199,152.4929851,56.45579814,31.56677875,24.2501871,58.55517207
225.3679998,880,-56.73687343,-13.71688871,12.28681934,38.92707303,-27.47495227,0.071556714,352.7870337,45.8414473,159.2248431,40.4232549,-223.0381976,152.6488289,91.51030729,-148.6991639,-22.23741649,-19.93080005
225.3759998,880,37.97021773,68.7759897,44.17515836,47.77014943,-39.18671966,0.071468498,-140.4743162,30.30987431,358.3946688,50.20160431,48.57818886,152.8003556,-55.80459685,243.6808387,216.2744498,182.3187978
225.3839998,880,47.94604116,-46.99145457,95.50889996,99.73697572,42.23270791,0.07137891,55.97706568,104.1460116,191.6052768,51.83176853,-139.6193199,152.9475775,144.4425467,-205.1253792,-110.4427832,-58.0665099
225.3919998,880,-71.75294004,52.67899412,-37.39141518,-4.049242306,-78.02076029,0.071287832,223.6225027,-7.761910725,251.3794618,35.89899416,-93.28331464,153.0905067,-34.72599219,134.2364973,175.2021555,125.7545966
225.3999998,880,103.1460205,9.66893081,119.3048209,98.49157809,30.36492656,0.071195265,-247.9672184,91.86944219,302.6741141,46.11376615,19.93878994,153.2291554,43.5502083,44.34560338,20.62490144,56.63676817
225.4079998,880,-75.98781228,-26.60640094,-15.0171685,9.610152503,-49.88958783,0.0711014,342.2905665,28.39249271,146.7825179,35.69018739,-212.8794299,153.3635359,81.87189734,-143.0510086,-30.9368468,-25.52577718
225.4159998,880,17.22934969,53.92315816,24.97915196,21.22667868,-64.64060125,0.071006191,-146.4964635,13.74494438,343.0991833,36.10616302,59.41042603,153.4936607,-71.86497475,250.437288,202.6784596,172.2923339
225.4239998,880,23.10313562,-66.74191536,76.85231503,63.65997103,23.05607208,0.070909307,34.82033913,80.32016814,174.0052758,28.97645005,-128.7366899,153.6195422,118.9562133,-210.2055649,-126.8348713,-69.69252231
225.4319998,880,-107.3453312,26.82580208,-61.67837668,-48.77761287,-98.9702054,0.070811027,210.4635697,-35.6991495,237.3477485,16.01216461,-88.15039161,153.7411927,-53.34362371,102.0562209,163.6056187,121.692929
225.4399998,880,72.97967466,-12.35672499,103.3790088,64.05033703,11.79392966,0.070711552,-257.9909435,71.78981095,288.5443769,21.63620608,31.90597483,153.858625,23.9264681,-4.546245069,11.06429841,52.5907171
225.4479998,880,-87.97947074,-36.98797868,-15.36132709,-8.419751087,-40.16994903,0.070610625,339.3086114,25.18997009,132.5469144,13.32205489,-203.7918628,153.9718516,70.23249348,-187.1542035,-45.24060542,-29.34081416
225.4559998,880,14.78423217,55.05619685,31.23253137,13.27745799,-42.01337424,0.070508133,-131.4055723,21.21863683,340.3845071,28.93635992,54.38939455,154.0808851,-66.86090188,232.9422219,197.3578025,186.7033276
225.4639998,880,28.17761306,-58.38775567,88.321979,67.58169362,36.71699335,0.070404188,52.26648346,97.44598666,175.3485726,31.16307653,-142.8966488,154.1857384,130.2016862,-215.2260179,-126.2303822,-52.19247716
225.4719998,880,-100.1261113,41.4183597,-51.41652999,-39.48976426,-80.53933034,0.070299103,231.4706503,-12.36211035,234.7807637,23.17513776,-107.6172365,154.2864241,-45.84732706,115.0833801,168.2635309,133.6653905
225.4799998,880,85.05446667,5.937659954,114.0219526,75.21527417,40.80987253,0.070192553,-244.4417072,92.12873341,294.3061567,36.30804207,15.09595893,154.3829553,33.49082768,38.98568287,23.76809611,75.82444008
225.4879998,880,-81.83730846,-29.23432516,-6.062698994,-3.725315398,-21.75748424,0.070084581,348.3412952,37.45890958,134.5294524,25.94922659,-221.9429663,154.4753446,81.32032697,-158.5143524,-39.43080403,-9.002585992
225.4959998,880,-6.249849498,46.39205961,29.55054779,-0.330660721,-37.81394231,0.069975394,-127.7568048,23.87000105,331.9198119,32.79436419,48.44454763,154.5636053,-71.47885105,247.9012795,204.9190595,194.3992187
225.5039998,880,-5.145104119,-82.27613273,87.93744003,54.45137079,43.80103654,0.06986468,45.14211442,100.8239127,162.8410902,28.05716979,-126.3425377,154.6477501,123.2493034,-199.6948868,-118.3674307,-50.59836859
225.5119998,880,-150.0190335,-8.165437481,-50.55715707,-48.38057964,-84.28432875,0.069752621,235.7858085,-10.25071788,212.2329444,14.04660479,-97.02234745,154.7277923,-39.51045997,122.6144079,166.2414462,136.1998072
225.5199998,880,-16.4795425,-88.10336658,95.14759278,48.46589926,10.89380493,0.069639512,-258.4724801,75.93440435,255.0164196,8.611798325,17.0394307,154.803745,23.09213741,44.34514117,15.89094141,71.50259088
225.5279998,880,-219.8338314,-160.050842,-27.54406108,-26.69011557,-40.69286213,0.069524906,329.8467123,26.8285155,75.82792919,-26.48931897,-224.8369895,154.8756214,56.52755437,-162.4326934,-58.26407184,-27.06432331
225.5359998,881,-156.6652688,-102.9232243,17.79816995,-8.894641272,-42.29673235,0.069408861,-122.33303,28.75792059,266.2741282,-26.90422765,26.91194857,154.9434346,-80.74296213,250.0461755,189.6806439,186.7694547
225.5439998,881,-184.9390521,-250.87334,56.38137714,23.66205868,16.7899171,0.069291605,30.11302511,81.95097757,89.42839081,-37.93454146,-161.6083881,155.007198,104.9614458,-200.2242396,-132.2725674,-56.85407524
225.5519998,881,-331.3130772,-169.6404418,-92.31814368,-89.27634488,-107.0180197,0.069173037,216.9198943,-38.26860354,130.0882045,-59.35363421,-137.1277003,155.066925,-78.96302297,94.1357738,139.244543,115.2277039
225.5599998,881,-149.7749373,-210.8743013,72.21527397,28.81458368,14.62250269,0.06905323,-257.5346046,73.33289803,187.0045024,-52.66619628,-25.7716351,155.122629,-1.556844951,9.773533139,-10.09953064,56.30159952
225.5679998,881,-318.133755,-242.5444967,-51.95216339,-46.09273387,-43.26008513,0.068932291,335.1543051,21.60940606,28.36635272,-58.83678784,-271.3881167,155.1743233,51.44280323,-193.475461,-72.45096138,-27.85531193
225.5759998,881,-213.6089991,-138.6408471,-15.47019433,-32.26140897,-51.04259383,0.06881,-127.2860293,8.76821821,231.5773778,-46.60116365,-9.311582683,155.2220216,-103.8993915,211.9706225,179.6504332,182.4917729
225.5839998,881,-178.1566266,-242.2127154,41.76216166,24.72330934,21.45844433,0.068686233,22.22565167,77.33906828,73.97431854,-47.75301734,-188.9365573,155.2657374,83.41504195,-231.9126552,-151.3168788,-67.93712396
225.5919998,881,-290.8001221,-132.6072953,-93.42785103,-75.30865909,-109.4176219,0.068561223,225.6115116,-32.84641906,139.6254669,-41.68819549,-159.5911471,155.3054843,-78.24129858,92.12713895,128.4148209,117.7814226
225.5999998,881,-90.0585393,-155.2649432,75.82367424,35.91045243,1.956149568,0.068435037,-256.5126084,73.67295419,206.5999874,-30.2518819,-28.64202401,155.3412759,-10.27838314,13.84246524,-8.592165439,57.88670135
225.6079998,881,-243.0296911,-177.1239885,-35.46554179,-39.81567106,-50.74469346,0.068307808,334.6836796,22.4428251,49.6977789,-35.88286555,-277.6792639,155.373126,51.11399545,-204.5536128,-73.59467249,-37.54479713
225.6159998,881,-144.006192,-72.54876137,1.275458096,-34.75136013,-67.25425857,0.068179171,-124.2702362,3.040176568,260.8962493,-12.85757128,-21.22065046,155.4010484,-89.15218932,207.704964,185.8445868,181.5294221
225.6239998,881,-107.1376394,-178.7078346,61.42858743,19.24663194,13.96750366,0.068049265,21.12291137,75.31327602,101.2605355,-19.59530334,-188.8992672,155.4250567,94.42467664,-242.2875624,-146.7315488,-68.47635918
225.6319998,881,-327.8726895,-45.13359229,-169.6795222,-142.6200113,-166.5693408,0.067918325,530.5923223,-96.75075227,115.8372311,-29.4607143,-231.6053951,155.445165,-105.9738989,112.1598228,207.6196197,143.7133601
225.6399998,881,-110.3491064,-33.76796528,-17.51578538,-38.67609144,-82.40022574,0.06778586,-147.3524899,-23.18880719,254.4454374,-23.03910229,23.81398554,155.4613871,-109.8239139,195.2502998,167.5395904,161.28566
225.6479998,881,-51.51502076,-141.917165,62.76563423,40.00099246,17.71838612,0.067652351,-59.58352176,72.16559406,110.3854216,-27.72321654,-117.8388364,155.4737369,77.93414844,-273.0735198,-172.5687625,-91.74902199
225.6559998,881,-141.2455562,-38.19796078,-37.11542345,-28.25541251,-60.46482817,0.06751783,175.9072341,0.915393154,172.7410709,-8.575967765,-110.7940518,155.4822284,-32.93782593,9.209912007,90.35726974,87.44301541
225.6639998,881,-67.91047141,-38.92145568,16.13704244,3.730823627,-30.40031211,0.067381915,-12.39265878,26.88645222,205.3157648,-0.828840743,-59.39000369,155.4868758,-3.194320543,11.76120359,56.4854057,79.71968576
225.6719998,881,-47.58323702,-71.14420566,38.18903224,19.85468667,-10.76681505,0.067244674,-37.19474645,42.03228564,165.1237897,-15.57764817,-84.58164731,155.487693,30.56226931,-112.9131058,-43.72555005,1.705642857
225.6799998,881,-109.6287995,-25.10574424,-27.00866319,-17.0836753,-54.23278548,0.067106304,189.3966327,8.600847825,153.351878,-12.1158585,-130.5658291,155.4846942,-13.58591082,-50.29314292,39.78248537,47.52347602
225.6879998,881,-7.988952234,-0.164640939,41.21236386,28.85450201,-10.32883929,0.066967209,-71.93500696,50.85482548,238.6936504,15.16985684,-27.64269123,155.4778937,-6.731035383,41.76152214,67.34617619,98.05371682
225.6959998,881,-35.24817973,-51.57663942,35.48251646,17.18511218,-0.507586131,0.06682658,58.25336507,46.4203005,162.9520936,9.09870699,-121.8251041,155.4673055,66.36746306,-135.6076089,-50.18814153,1.704465361
225.7039998,881,-89.34664069,15.78196085,-25.23412778,-29.52487626,-64.64174233,0.066684701,162.0071095,-11.48751442,195.0652892,-4.723460813,-97.12164004,155.452944,-27.58567989,45.90004939,99.29299257,94.24582496
225.7119998,881,42.07631023,-8.123883919,90.85780622,51.25685126,15.34418494,0.066542146,-178.4532376,58.65152714,242.4348317,12.03242434,-14.99624507,155.4348235,37.21272842,-0.744375343,5.583771343,57.90092067
225.7199998,881,-111.5988312,-40.23402651,-34.20371047,-35.89230824,-54.991582,0.06639826,256.2576562,-12.1732502,118.0900719,-4.660442481,-181.6836014,155.4129584,47.69938421,-155.396953,-32.95675612,-10.36856605
225.7279998,881,-17.91205498,40.41880828,3.651414897,-11.38852941,-58.61086544,0.066253114,-114.8049546,-6.27788099,264.9957022,-9.376300474,42.51999037,155.3873629,-81.87206719,132.5482994,134.6553222,133.7399293
225.7359998,881,19.71237788,-38.31590033,67.21984752,47.06053017,17.86938273,0.066106744,9.037916722,65.44931474,150.172091,6.513249293,-105.8888823,155.3580516,91.78498275,-204.7657934,-118.3073645,-43.65280103
225.7439998,881,-95.44547718,39.59626869,-52.11377316,-45.64530333,-86.22928156,0.065959365,208.9055276,-32.13836086,193.8644071,8.315510545,-104.5681153,155.325039,-27.98956488,50.96569778,114.5681889,106.3043412
225.7519998,881,71.72519981,11.98938171,91.74242858,50.83771061,10.44713837,0.065811132,-247.6162608,53.72316819,265.5939036,13.86162136,33.93600933,155.2883395,22.70735964,9.216336868,13.20413011,67.95490759
225.7599998,881,-66.32406245,-17.40058912,-6.639199107,-9.137556451,-35.55642971,0.06566161,301.9245453,17.25986163,114.054877,5.013504417,-187.7598784,155.2479677,78.26840696,-206.4887058,-62.08345331,-30.92659935
225.7679998,881,21.60593595,79.00295318,25.77651965,4.558652224,-51.56776576,0.065511002,-102.3185877,12.47088938,305.1048061,18.51055825,55.64636484,155.2039381,-65.47339788,188.9317554,187.8239488,178.0518242
225.7759998,881,51.78972492,-30.78950413,88.2545762,63.61893899,39.53222183,0.065359496,21.6390853,89.81008358,166.9468393,25.7654133,-108.3099184,155.1562655,127.5006651,-218.7072558,-112.5451302,-33.96533233
225.7839998,881,-84.9820293,50.1798758,-55.24015987,-42.95288767,-74.7553381,0.065206747,252.0923902,-19.80296067,198.7237864,11.59622944,-100.1776268,155.1049644,-25.69128075,52.3681975,137.4505734,121.2011059
225.7919998,882,79.954101,13.3784348,85.90853487,51.10987451,17.6354532,0.065052975,-250.6302328,65.38354375,264.9796877,7.13603049,53.25135694,155.0500497,16.04325373,9.618635282,26.7455433,73.72657198
225.7999998,882,-76.11130957,-27.8162862,-21.38995096,-12.56796645,-27.85364435,0.064898085,323.691733,22.66259632,94.20536637,-7.327924328,-187.1559125,154.991536,82.72512585,-225.4532613,-67.68434417,-40.29565623
225.8079998,882,-1.232310489,64.92918746,0.754977447,-9.872169121,-52.13892187,0.064742023,-104.1639455,-3.063455882,286.0464818,5.033228322,65.256916,154.929438,-72.53016546,190.9301753,190.3452102,171.7204171
225.8159998,882,46.15867031,-40.58921058,78.90574106,62.03992065,44.89367821,0.064585266,11.52585035,83.87577721,135.7815981,6.192102104,-95.55742813,154.8637707,116.4795944,-246.3187402,-130.1805047,-66.24318109
225.8239998,882,-59.99482098,68.49425366,-33.83884456,-15.62888549,-51.7416481,0.064427361,268.9041531,-0.379094512,181.6225957,10.26606446,-102.3062001,154.7945489,-20.31746354,53.14969325,141.7201134,108.562165
225.8319998,882,107.6770452,31.99526161,115.5768702,82.38083253,36.24273826,0.064268193,-244.1394669,82.38549818,268.3831666,35.1858587,27.98276691,154.7217874,44.13506394,44.98432039,48.74236763,88.65661976
225.8399998,882,-119.8148694,-88.78871111,-31.42286069,-6.291814986,-12.01342195,0.064108409,574.1253629,31.05314082,-31.98271709,1.686961341,-365.0728293,154.6455012,184.581619,-469.2491101,-215.2215414,-169.765401
225.8479998,882,-101.3905313,36.84065456,-68.60368001,-50.91242176,-78.39341034,0.063947634,233.1204573,-37.15465536,166.4846252,-16.1442377,-97.64277826,154.5657052,-52.77250584,34.22644532,135.3638327,91.46638145
225.8559998,882,99.66190802,36.17806114,105.017767,69.90642009,28.1692122,0.063785383,-302.8615878,68.59827197,274.2544127,8.188333475,63.48282244,154.4824144,-1.346719985,70.90699275,66.96201309,95.12429649
225.8639998,882,-38.36720818,-0.36087974,9.523581603,16.67682669,-10.76530929,0.063622428,224.2450629,32.99407995,120.004822,9.375879013,-172.7536935,154.3956438,72.44849652,-149.3215212,-26.17161093,-5.400633829
225.8719998,882,-28.95651948,27.1383384,-5.671674672,-0.872665837,-31.78270446,0.063458732,59.91149609,4.468200618,184.4506105,-0.988772295,-64.1237681,154.3054085,-13.49895793,7.147518846,76.10068138,66.65902424
225.8799998,882,43.48928055,42.01787727,53.97214946,44.08325476,7.554275479,0.063293777,-96.90284836,40.78194066,227.2733166,7.283295719,-1.087465188,154.2117236,-7.025192894,55.12210564,76.06367297,79.88788096
225.8879998,882,-3.010086411,-0.382466316,30.90990018,31.55729381,9.009226589,0.063127908,144.1948355,36.8096291,135.1642882,19.38115131,-142.9204171,154.1146041,82.20524861,-129.0178145,-29.93302934,-11.02197591
225.8959998,882,-23.83365047,46.55644432,-11.82926025,-8.355816774,-49.78349116,0.062961068,43.01160844,-15.55941909,204.7977843,13.66429058,-51.28024051,154.0140653,-25.45454495,71.74040347,117.3014281,93.55047089
225.9039998,882,42.78235696,19.12099745,52.33842597,41.61623426,-8.565745154,0.062793365,-120.0249978,27.21371499,201.2560705,4.24303862,-15.64394429,153.9101222,7.898924236,-22.23501918,15.30169808,31.87762091
225.9119998,882,-47.75429664,-4.190143053,-14.7712292,2.179010889,-39.64863772,0.062624614,201.7434234,-3.608671024,111.4107302,-1.325111417,-140.5489623,153.8027902,39.90528067,-147.2825834,-34.97381904,-29.64198006
225.9199998,882,22.84803973,68.52080982,17.58051841,18.241892,-35.54729285,0.062454768,-98.88372611,-0.389779573,262.5263831,11.30623899,41.22752366,153.6920843,-59.85802699,160.2965704,151.4837526,129.2959411
225.9279998,882,34.44076477,-27.83341069,62.17571846,52.0986599,30.59309418,0.062284203,21.42702017,53.93715045,135.472505,6.567535796,-105.6442944,153.57802,95.07581452,-189.201164,-94.06402046,-53.3473367
225.9359998,882,-67.66994563,44.10019747,-45.56741986,-35.08376325,-67.13186017,0.062112807,173.4763123,-36.60409428,171.8351609,-0.316984624,-80.03683472,153.4606124,-32.50907026,51.82855544,120.9857924,82.24151736
225.9439998,882,83.53643341,28.43940489,90.6887655,60.00162451,23.99228755,0.061940495,-220.91982,52.08501952,240.2472798,16.19085047,37.14081836,153.3398769,22.19575226,35.87494043,35.3933629,57.22009933
225.9519998,882,-53.81750393,-18.88402042,-8.216262889,-3.792692234,-18.43603044,0.06176706,265.3173795,11.13778103,84.59637133,-0.192753902,-176.529118,153.2158288,78.4729911,-189.5756739,-54.44902292,-51.53572173
225.9599998,882,10.85255502,75.73248403,6.408195522,-6.741985236,-43.0447662,0.061592657,-103.3253273,-17.17836381,257.1400534,2.712708237,54.65054883,153.0884836,-80.89800163,192.2631875,195.6919244,144.408071
225.9679998,882,65.72110676,-17.16782865,100.7871267,73.3432594,64.37810712,0.061417575,-5.952976467,74.96466503,132.2505783,21.08206022,-94.99534351,152.9578565,116.7145881,-204.6109485,-103.757828,-64.50094967
225.9759998,882,-66.4498446,63.56954772,-32.65580083,-27.58362912,-49.33032172,0.061241613,241.7523699,-26.75475083,165.9963986,24.81974337,-101.7731355,152.8239631,-20.2882341,69.12758314,146.2817619,96.17250213
225.9839998,882,99.46901472,38.36338354,106.7934874,70.23171474,33.99241165,0.061064805,-251.1982766,56.82095723,241.4632731,31.08205796,43.80635044,152.6868188,21.54318131,53.79569648,58.53148177,70.35678106
225.9919998,882,-33.01851401,3.111806349,16.24024317,25.69018579,1.620814922,0.060887323,304.6669118,28.01207722,73.99633644,22.00983017,-194.560232,152.546439,105.9655272,-200.5262847,-49.42577723,-48.54355083
225.9999998,882,25.02212736,95.95981782,20.15414187,10.56214142,-40.66600801,0.060708885,-97.94705725,-9.706418899,270.370534,34.05802337,55.61576753,152.4028392,-58.20729374,230.0585376,222.9844314,170.6241139
226.0079998,882,48.30039877,-31.68273195,75.31950783,55.02734418,26.60729149,0.060529286,-40.87986524,53.3460681,122.3334237,17.32002081,-82.96306068,152.2560351,108.0756423,-213.9214378,-108.8352435,-75.94559585
226.0159998,882,-87.58595711,57.3639586,-65.19051438,-45.27064744,-85.3199535,0.060349095,234.1472264,-47.85904105,141.9994678,-3.131309202,-87.39378034,152.106042,-47.75167266,35.49660344,132.1055003,69.88045404
226.0239998,882,112.5039635,47.56282204,112.983713,80.17799413,39.02198327,0.060168046,-267.2026342,66.51785928,236.6428381,21.9562672,62.24227706,151.9528756,13.22399206,45.87391943,51.88268142,61.50378407
226.0319998,882,-23.29249728,6.961458112,28.06750238,32.60558447,15.74863232,0.059986157,317.6610929,43.35618061,72.44382357,29.16503462,-197.0819386,151.7965515,113.5345975,-206.0856232,-45.93077389,-44.12156747
226.0399998,882,20.62971612,92.33119834,23.00938023,4.598875843,-35.86552332,0.059803517,-93.33522027,-3.997066934,268.3751051,35.2424281,48.98085696,151.6370853,-54.28680019,223.972376,236.6586247,185.2458444
226.0479998,883,47.42891055,-35.97387218,84.6857738,55.66124684,35.61385229,0.059619816,-42.50140607,63.01332906,109.580787,7.811822728,-95.10364784,151.4744925,107.574353,-221.088684,-109.3554011,-72.00287689
226.0559998,883,-77.37042532,64.19914193,-46.60173812,-30.59584922,-69.5614845,0.059435741,251.6050357,-32.26821582,134.8542888,0.489513107,-112.5786034,151.308789,-32.48918482,36.75908814,134.1058926,76.96007876
226.0639998,883,115.8549486,50.83436912,119.3323847,83.99833085,38.81339635,0.059250572,-266.3052471,66.13132101,240.2112959,33.74341315,38.65820891,151.1399902,35.42525632,43.70648095,58.16240482,69.40587122
226.0719998,883,-42.15077022,-6.130835372,7.642842601,15.16739917,-13.79898255,0.059064529,303.6618184,22.50571229,60.9034438,23.16054784,-212.4923189,150.968112,106.1691123,-216.7374214,-57.1738851,-60.24390228
226.0799998,883,12.27304886,86.33312233,8.765443597,2.530409416,-59.19174553,0.058878102,-103.6079521,-13.49642344,252.5802812,28.63945978,40.43954196,150.7931701,-74.0102098,216.552791,223.4099427,164.1376781
226.0879998,883,57.99816593,-31.10837825,89.48817224,72.79732796,32.83024958,0.05869062,-43.27794688,69.29687781,101.7015571,18.78209087,-104.8057417,150.6151801,107.9030118,-229.9002581,-113.3183462,-82.5165961
226.0959998,883,-79.52188717,62.54271527,-52.6475891,-26.39528924,-81.16418285,0.05850231,251.7007364,-37.48135957,126.4924037,10.2805624,-117.7632333,150.4341579,-32.51203818,39.36680497,136.3216229,73.45126585
226.1039998,883,109.6760858,46.88375888,109.0296417,82.60102715,24.50475405,0.058313282,-282.3576235,56.36492795,229.9102763,29.55546859,47.32753534,150.2501191,19.25294621,50.78915731,61.81632723,69.12050173
226.1119998,883,-38.14035204,-4.091955463,12.64396907,24.33637691,-7.440908124,0.058123501,296.5994609,22.81471685,49.14344735,15.87984948,-207.154763,150.0630796,98.87042098,-225.2672135,-57.27921826,-61.92761769
226.1199998,883,24.84400983,101.5005339,25.17588047,20.3336953,-35.89676392,0.057933118,-91.78583823,-4.017084998,245.4360783,26.53867846,44.8540758,149.8730552,-70.76972704,221.2064563,230.3704398,168.3174241
226.1279998,883,73.667851,-14.80944833,110.5345087,87.88183335,57.08585455,0.057742012,-35.15735226,83.13642789,103.2839098,25.8629,-98.32110313,149.6800617,117.5313384,-212.5926036,-98.75963554,-68.43654806
226.1359998,883,-84.36527996,61.47815702,-46.22269114,-33.66509855,-75.01657286,0.057550052,255.6479006,-41.34955426,127.3932664,20.9816223,-123.2271741,149.4841149,-18.3778476,49.25170079,148.8890242,86.64253521
226.1439998,883,92.49691638,40.11347451,99.2186696,64.32295286,7.396824646,0.057357558,-295.0709397,37.97630503,217.0992841,23.66444268,50.17604136,149.2852307,7.736310485,54.82201393,57.07136831,60.29213193
226.1519998,883,-43.79214671,-3.180497991,11.0817751,21.60445465,-28.85316615,0.057164141,285.2674958,18.06448449,29.63579811,3.589761529,-201.5275883,149.083425,77.50132301,-236.2372846,-81.59644126,-82.44358693
226.1599998,883,18.46904756,102.793676,27.49133995,21.17122159,-55.69363272,0.056970142,-91.33829347,-6.867387776,238.5653144,30.86884111,34.16676701,148.8787136,-67.9624943,224.0407596,212.5421646,169.9078257
226.1679998,883,37.00043589,-61.14447517,96.75326583,83.8165887,47.49330471,0.056775584,95.23933134,85.65219949,19.67934019,17.90797309,-190.196726,148.6711124,181.6294988,-366.5317472,-228.3455542,-161.2830966
226.1759998,883,-137.996385,46.25398824,-86.57666666,-40.77109988,-90.92737728,0.056580008,481.3401071,-35.76943564,39.6844592,-3.907134316,-201.0697178,148.4606373,-3.294895055,-61.40097717,78.70452668,14.04118743
226.1839998,883,136.4685835,103.8166285,115.0616053,91.14628729,18.16133821,0.056383917,-436.5337663,56.84126016,311.9035446,40.49424425,176.1401917,148.2473043,-58.29726269,284.2174445,213.7884415,187.6083797
226.1919998,883,-6.318758125,-37.82423795,52.45378883,64.15790085,34.22937825,0.056187067,259.2487595,67.88003336,7.030660192,27.97968606,-213.0341174,148.0311293,161.8193444,-325.6762708,-148.5235389,-123.4507834
226.1999998,883,-51.93370872,102.0695788,-33.42183937,-10.84394772,-70.68829084,0.05598971,136.680486,-22.38314641,174.9053894,16.65842324,-22.47529878,147.8121282,-76.85442268,179.696505,238.5847079,156.528099
226.2079998,883,117.5303122,16.17188509,134.2574715,99.50376854,53.66840687,0.05579168,-287.4543303,85.19309437,184.0625592,26.87344277,34.83195286,147.590317,61.3219503,-44.8772113,6.571298453,26.00356774
226.2159998,883,-91.3984014,3.328841738,-30.63469942,-9.02268924,-44.09199913,0.055592981,395.2740437,-2.730686246,21.502894,9.593956663,-206.1690218,147.3657117,67.42344926,-190.2205518,-0.285140402,-40.21318884
226.2239998,883,58.75690736,100.1044189,51.48410887,42.49982765,-26.13225658,0.055393804,-208.8923826,17.18704319,247.4963842,21.35439452,113.9217632,147.1383282,-83.27774375,231.7380502,230.6994446,167.7902241
226.2319998,883,46.41657212,-21.18874085,85.91122636,77.09249092,45.38164093,0.055193614,56.75833514,76.49409075,57.88691545,21.3047945,-111.7375157,146.9081826,124.4015174,-244.1728266,-102.3267332,-82.63604455
226.2399998,883,-62.28910734,83.12624072,-34.22913367,-16.86831869,-63.2749132,0.054992942,225.7770972,-24.1098791,126.9336346,19.97373023,-61.95513642,146.6752908,-32.04281189,89.39575836,186.307931,109.0181738
226.2479998,883,111.6439262,46.74404851,120.2935029,89.54825893,39.00935762,0.054791895,-277.1185782,65.15163139,194.3089492,27.90113952,79.61302862,146.4396688,27.38447034,25.08849907,64.67814883,61.32581518
226.2559998,883,-42.43176833,10.57403028,14.29130715,27.28485964,-5.587295676,0.054590108,328.0832708,28.59861725,23.48129435,19.05352779,-173.9693011,146.2013327,93.67471934,-211.9127165,-28.86431523,-51.20049091
226.2639998,883,41.26207824,108.690024,40.6248897,34.64455667,-28.37280385,0.054387717,-106.7425903,10.31834361,232.0704568,33.07877202,85.49148399,145.9602985,-62.05652786,234.3880723,244.5229282,175.6896082
226.2719998,883,52.89520103,-23.53632419,85.61155816,75.27806595,33.28353542,0.054184712,-27.89081474,58.2805616,79.59670668,19.13518077,-70.86002846,145.7165823,117.0133957,-214.0128397,-84.09492938,-69.09177964
226.2799998,883,-73.6177967,71.83019735,-45.89192092,-18.54061185,-77.43018301,0.05398097,241.2867808,-38.4876949,104.4222577,2.922216413,-66.55980277,145.4702,-34.63226288,30.76669939,152.7074764,71.72401635
226.2879998,883,111.6632731,57.37400302,114.8113647,93.35857378,26.73545687,0.05377653,-274.1701624,62.35608251,203.0681921,22.72780588,96.5803851,145.2211677,11.95759207,50.29746331,75.78588639,64.77404912
226.2959998,883,-46.7156093,-5.37472186,12.44401064,27.60512176,-15.41965777,0.053571772,297.6211129,26.19552167,24.86644364,15.94286523,-162.8846869,144.9695016,101.0192711,-218.6609709,-45.84320564,-60.6039316
226.3039998,884,22.35909224,106.6664174,30.1214025,24.97721903,-42.75305148,0.05336655,-75.4941697,4.552130201,218.1444017,20.96065486,87.66844608,144.7152176,-73.12053791,223.3137621,241.8862979,169.6365519
226.3119998,884,76.76648488,-7.364420557,114.7142363,101.4095087,52.94003654,0.053160568,-32.39774251,89.69094458,87.42494649,27.08630652,-56.87310517,144.4583318,125.6728864,-193.9127952,-81.30933826,-61.668041
226.3199998,884,-78.06802575,70.24469548,-41.31193988,-4.655712742,-66.66793403,0.052954084,279.0138765,-24.58850947,101.4509786,18.22949033,-87.90080217,144.1988604,-11.4606943,40.16012517,153.6133261,75.18035849
226.3279998,884,98.74891832,57.17999211,99.10058073,92.16074392,21.15201144,0.052747179,-271.9474068,52.77983076,198.6771373,18.96103326,99.64955052,143.9368193,-2.030367213,68.05486936,88.55992675,64.65732384
226.3359998,884,-44.47583648,-3.584435177,3.540601633,33.31480768,-15.38920548,0.052539716,295.2068548,25.30755813,15.72255244,13.39210084,-153.9546283,143.6722247,93.29152509,-214.5283725,-54.66322463,-76.24834209
226.3439998,884,12.44456719,105.4616319,8.18613133,17.63444201,-49.35429669,0.052331598,-55.3427558,-2.988747151,215.9631707,28.48398577,83.0879307,143.4050927,-70.55944898,241.6142324,238.7063594,168.5342473
226.3519998,884,73.21936396,-8.471222741,98.05405507,87.16126473,49.1160457,0.052122873,-38.01386658,84.1174057,85.25636582,23.7613575,-53.86521583,143.1354394,115.8595161,-190.5810233,-92.01208435,-63.96675067
226.3599998,884,-86.87231546,63.75658935,-54.74519743,-31.17043162,-72.7273243,0.051913664,294.6208525,-26.22912372,94.6484743,15.62361812,-94.0341471,142.8632808,-16.05398863,32.12771433,135.1415197,73.32800537
226.3679998,884,78.72076714,41.66213705,81.04667067,51.96158498,8.4243862,0.051704211,-266.6720139,44.23887569,203.5822559,26.2974393,97.48712427,142.5886331,2.439727324,84.71570583,81.10334911,80.92598706
226.3759998,884,-57.83757946,-16.23260893,-7.072171553,1.699829725,-20.27531774,0.051494009,297.6045901,16.94909525,12.15669124,13.22810984,-151.821605,142.3115124,90.21574918,-220.3278519,-71.62424372,-70.71605492
226.3839998,884,8.328360448,102.7308945,4.386762325,-5.737739776,-48.16246672,0.051283419,-40.15466341,-8.331769448,211.6182566,28.6849996,83.91890228,142.0319348,-77.54824556,234.945685,228.6281695,175.4883966
226.3919998,884,72.39364363,-14.1311147,92.39395559,61.00996071,47.96063985,0.051072474,-41.0144604,75.68710597,88.28125821,29.21343628,-48.06067162,141.7499164,118.3995252,-182.9830053,-96.83088246,-52.07102867
226.3999998,884,-81.83695555,62.0586512,-57.12682999,-48.42577612,-74.45595629,0.050860817,298.8990126,-30.75341838,91.98622566,19.44131079,-87.96714683,141.4654732,-13.82521579,26.57500616,124.8661626,79.84606598
226.4079998,884,94.23296529,48.93122367,87.06151149,47.62104948,10.42969331,0.050648835,-263.9763167,49.06925108,202.5872368,31.66685749,104.1422907,141.1786215,0.917412257,76.44609925,78.65016792,96.50309887
226.4159998,884,-51.6131133,-17.24732255,-7.865650455,-10.05605516,-16.12975765,0.050436252,292.4635131,16.85538552,8.564290924,11.26682696,-149.6726642,140.8893774,93.27314823,-237.2708169,-76.62260095,-59.83993035
226.4239998,884,2.895577915,98.0840007,-0.468163342,-21.75974606,-40.51841108,0.050223266,-39.75554691,-9.586729196,200.9140309,16.05214071,93.5271547,140.5977569,-84.08508634,213.5606276,220.8630779,177.3909458
226.4319998,884,63.08387341,-19.75830844,89.12481702,53.75023613,56.18940278,0.050009774,-41.85709777,79.99357088,79.3552548,21.47155522,-29.82222269,140.3037761,108.2955103,-191.3385942,-98.91310292,-44.82544934
226.4399998,884,-111.6488965,44.75316693,-78.32398046,-65.86129087,-77.64191626,0.049795849,302.3852352,-42.1188347,79.42979037,3.46528728,-72.40260501,140.0074512,-26.64856372,25.66618197,124.3586011,81.15729289
226.4479998,884,67.4912703,34.30485926,69.68684827,28.37381405,13.0471332,0.049581705,-262.9533896,37.18253502,184.9494952,-0.77947549,124.8708542,139.7087983,-22.39249675,64.56003152,71.15173431,84.41208549
226.4559998,884,-61.88353981,-21.19136742,-8.736227302,-12.57244305,-2.617961838,0.049367116,298.9384696,20.17837082,-5.024970427,-5.025789874,-143.2160253,139.4078335,83.0666881,-251.6937961,-87.61967916,-68.44985598
226.4639998,884,-17.45781368,91.72783943,-14.58939464,-30.47723564,-44.64271672,0.049151919,-36.91115955,-19.83432439,194.4439256,12.9906735,85.39587608,139.1045729,-91.31057442,213.3454406,218.3778153,179.0017936
226.4719998,884,54.73822814,-20.60759535,86.76454479,48.10028431,54.3277991,0.048936255,-47.09731927,72.10253792,73.60647301,13.2880113,-39.81294571,138.7990326,100.5812035,-204.9115778,-109.6016708,-48.21424792
226.4799998,884,-91.66713402,63.79605846,-49.4879367,-48.28674073,-51.18440174,0.048720168,322.9584014,-24.83064896,78.55357635,13.32555107,-99.77147027,138.4912287,-12.05247238,16.88469073,116.5944539,87.02103746
226.4879998,884,83.06120607,51.13600944,92.30469487,40.58163308,39.09316654,0.048503832,-248.7175087,49.88758357,199.3638825,28.30046634,93.69283809,138.1811773,-0.675352952,86.85161232,85.55179197,109.9180901
226.4959998,884,-68.34931275,-25.23944859,-5.655106284,-18.22248687,2.30312281,0.048287072,295.9440312,15.47717886,1.877884097,7.478055995,-167.0386125,137.8688946,91.83971104,-244.5246954,-83.22545001,-58.48244963
226.5039998,884,-26.97075202,87.68835421,-12.17506167,-26.57499545,-38.40191257,0.048069802,-24.43036716,-16.9231502,187.8824767,8.290316999,65.39493651,137.5543965,-93.43706498,212.2186253,214.856548,177.7558956
226.5119998,884,43.83683386,-26.15338337,83.14502157,54.65575523,69.92059676,0.047852305,-45.15789009,80.20588143,65.5054506,9.420890678,-51.44423452,137.2376992,92.55668209,-196.6650191,-109.1869047,-42.70483507
226.5199998,884,-114.5473073,47.31396634,-67.17155868,-60.04221229,-43.98586223,0.047634569,312.7850206,-30.09136164,62.23521106,3.054962772,-101.950355,136.9188188,-26.29775106,13.27293987,109.1819579,85.72988653
226.5279998,884,84.85058678,51.1521595,97.06321892,50.53985033,59.4675373,0.047416422,-242.1530709,65.43836937,191.7966179,17.47237361,104.6182234,136.5977713,-3.838262508,84.62263333,80.61969427,112.1825732
226.5359998,884,-41.78249298,-9.756354549,18.30615247,15.25351525,40.28292624,0.047197591,316.8292383,50.3678942,11.02641843,12.94737947,-165.1608687,136.2745728,115.1799223,-238.0120347,-76.47392407,-36.80329204
226.5439998,884,-13.45811703,96.82512115,-6.539081534,-20.5914764,-24.30411758,0.046978676,-16.18794932,-8.991212685,198.3630073,18.5463844,53.71038056,135.9492395,-73.61871107,228.3425774,231.2201228,206.1425818
226.5519998,884,58.86556983,-18.01932795,91.85995519,51.81317558,73.2826928,0.046759508,-47.39611442,82.97042228,78.31693833,16.52794182,-53.62579807,135.6217872,101.6188799,-188.6154002,-97.1387045,-25.61736543
226.5599998,885,-97.41882334,56.09632839,-48.76795026,-59.16358004,-34.05762219,0.046539865,323.2213761,-21.4620546,76.06668553,12.30125664,-105.6552077,135.2922322,-13.73265139,1.680291373,117.350216,96.56469853
226.5679998,885,84.36562944,49.89825847,101.2704836,23.84644023,51.98806209,0.046319693,-249.6453195,52.01158596,193.2754457,17.77380754,95.13291594,134.9605904,-5.270895016,78.32812332,87.6127555,115.0176876
226.5759998,885,-56.18843107,-21.48761873,11.1970296,-27.20761803,21.42441244,0.046099257,295.1646442,24.63168698,-3.623520419,4.507782637,-167.8333265,134.6268779,102.0067819,-258.8554926,-85.95453117,-52.97627299
226.5839998,885,-18.97439642,96.6747539,-3.714574414,-40.27117001,-26.75585415,0.045878674,-22.23714658,-19.79545729,183.3674545,13.08261519,64.9473778,134.2911108,-85.22446194,181.5922877,220.0097722,189.6001066
226.5919998,885,71.96123702,-3.632968826,109.7246831,60.89632933,85.64165758,0.045657523,-49.3448719,86.64351495,73.63469428,20.12215153,-46.35946635,133.9533049,105.7917122,-225.7609057,-98.50093582,-29.38216202
226.5999998,885,-95.15093304,62.6910882,-46.46196265,-45.56903964,-35.71177031,0.04543635,329.4368151,-25.76709734,72.45446462,19.56870198,-116.4635393,133.6134765,-4.040714413,-14.08551337,116.8676168,97.00558523
226.6079998,885,87.44431116,57.70283733,99.78705988,47.76698482,46.8356461,0.045214966,-243.059479,53.13395282,192.3202456,19.05336437,89.04556437,133.2716414,-13.07226406,68.46355183,87.31353187,118.3493179
226.6159998,885,-36.57755082,-5.613290057,27.24761477,7.980489727,28.35277372,0.044993066,305.7278288,39.60994245,6.643434849,11.99417404,-176.3589572,132.9278156,102.7497141,-265.00302,-85.0973916,-42.8725712
226.6239998,885,-12.72166949,102.411359,4.258220426,-22.93432099,-26.04532521,0.044770927,-5.92904332,-18.65035558,203.5930999,27.62767766,46.821348,132.5820152,-73.18708795,202.0439628,224.4863509,205.9446971
226.6319998,885,71.20624814,-7.254937573,113.2105457,65.58453655,86.31410387,0.044548608,-48.90392043,82.67142151,88.15504696,21.61114754,-55.92855083,132.2342562,102.4184618,-207.3160946,-105.3104606,-24.01536192
226.6399998,885,-94.27645256,63.41787411,-43.15317523,-47.07067982,-32.49237103,0.044325744,326.2456139,-26.49886592,74.17837572,14.34514723,-120.8946102,131.8845544,-14.83952562,-24.87922641,102.820762,91.14085262
226.6479998,885,75.58890334,56.50989233,89.06901562,31.62625711,42.31520101,0.044102841,-259.1462393,41.30442009,197.6841883,22.01232116,89.41457186,131.5329259,-17.50713406,69.87591957,83.79370676,118.6280338
226.6559998,885,-56.58720029,-15.072182,8.650226568,-12.82662996,18.24123378,0.043879854,281.6419992,36.26920955,6.241924254,8.073189042,-170.9494283,131.1793865,94.48205989,-257.849264,-95.62503554,-52.41910882
226.6639998,885,-29.55952189,96.81624959,-13.1028943,-42.10074532,-40.39499046,0.0436561,-22.79419827,-0.509628518,190.9078885,9.06372095,55.32305989,130.8239523,-91.85383255,200.3019656,210.6414928,186.461872
226.6719998,885,66.758591,-7.684517362,108.8052694,54.38308446,79.18968839,0.043432329,-69.51714291,109.4862186,76.35549478,-1.528733175,-41.1437567,130.4666392,88.7027945,-199.0183187,-116.8785168,-39.2285482
226.6799998,885,-90.11681758,64.97277719,-33.97970703,-42.55008886,-26.65249619,0.043208574,329.0802226,11.26334262,68.99612453,3.24568913,-115.085513,130.107463,-3.299953823,2.609772538,95.41689613,88.38527281
226.6879998,885,73.49732908,54.24588295,92.72789359,38.45650218,45.19148007,0.042984594,-252.7928987,76.38805085,195.2684052,19.49582268,89.09398643,129.7464396,-0.697985562,99.4648886,89.82846023,128.5048345
226.6959998,885,-61.53434985,-24.45518591,6.049238526,-9.451009877,17.12307143,0.042760051,270.5368206,49.15419444,-10.45972792,-14.31935213,-160.6756732,129.383585,88.71168077,-265.550151,-102.2464421,-57.70225905
226.7039998,885,-33.32044015,92.0035758,-15.82355804,-37.86058242,-41.70045962,0.042535272,-26.55027112,-1.528249877,175.5593411,-11.07579529,64.53329597,129.018915,-91.19762037,193.1000096,200.2762045,182.3023388
226.7119998,885,56.6874328,-12.92406044,98.33611417,48.17726274,67.24095718,0.042310632,-81.90660719,99.64439183,67.42769579,-6.077582267,-40.3202196,128.6524455,97.82460273,-190.6743982,-119.3758364,-35.31151109
226.7199998,885,-95.43756977,60.15857226,-41.45076509,-51.97580836,-39.73821071,0.042085657,314.8964698,-1.901388056,52.5300576,-12.44623209,-114.1850475,128.2841923,-10.60637202,-1.874297105,84.40364188,76.02149706
226.7279998,885,84.73980615,59.02070942,99.59929201,41.11065981,45.5451392,0.04186051,-261.3031807,72.4723104,190.4102293,5.413913292,91.90151671,127.9141712,0.385648397,117.6817311,81.71082882,118.6442711
226.7359998,885,-44.98763722,-20.13705309,15.40445396,-6.150716085,24.32879439,0.041635059,267.6752269,51.63481155,-9.351854106,-17.47842257,-168.4006617,127.542398,106.1719785,-226.8993777,-103.8790142,-59.73974551
226.7439998,885,-18.96795653,94.05439158,-8.15743693,-36.8363908,-35.87059925,0.041409413,-22.36242982,-4.363249525,172.817883,-17.06552871,50.33057844,127.1688886,-80.82313359,229.7582961,207.7299871,181.9354176
226.7519998,885,64.00011889,-16.82420346,100.9520432,50.12240998,71.69380185,0.041183516,-90.52081031,94.42169166,62.86019063,-19.73863675,-44.57969822,126.7936588,101.5348661,-175.8575986,-111.2485087,-40.22517562
226.7599998,885,-105.2199621,48.06163827,-55.43513062,-60.5253384,-45.77931366,0.040957531,304.5452288,-12.18754378,36.65802136,-33.89952871,-113.9163627,126.4167242,-15.40185188,-24.87862122,82.92640272,59.88504273
226.7679998,885,71.31275715,52.82615258,84.4462894,29.4341176,25.21139951,0.040731559,-278.4110988,53.54138302,171.9453962,-18.4787319,96.23657159,126.0381007,-16.43202265,82.70978009,74.96049479,101.7314158
226.7759998,885,-51.23183198,-18.72257533,16.10457344,-3.023830612,10.62512762,0.040505342,256.0212262,44.15993494,-26.08213565,-33.3169062,-161.3647086,125.657804,95.65252184,-267.7339907,-121.382575,-77.83021063
226.7839998,885,-14.87470228,104.6449447,6.414515687,-18.09803495,-30.4636638,0.040278779,-8.503002801,8.644560996,164.4508654,-13.21321525,52.76675914,125.2758498,-75.94461385,201.810039,200.2785739,174.0801622
226.7919998,885,173.8586156,-44.82953669,209.5842567,133.3133454,142.4935015,0.040052071,-335.2329289,165.0684391,80.85541588,2.307400705,-4.580978883,124.8922538,180.8688849,-277.1775306,-218.3339349,-96.57839727
226.7999998,885,-56.18807207,-22.86855991,10.21549324,-1.231405967,3.237296954,0.039825413,248.2542023,38.50293812,-29.20506142,-28.93215349,-175.0299017,124.5070317,98.15349516,-257.1992331,-103.0584877,-69.24055446
226.8079998,885,-13.64233971,57.53506103,14.90188217,-3.544022208,-12.09241239,0.039598557,-5.720661943,20.32775426,107.879919,-22.14453468,1.100357691,124.1201991,-26.79642087,76.99356435,106.1413067,98.70411229
226.8159998,886,146.6342347,-34.3519304,172.5561073,107.6026113,130.2524109,0.03937172,-308.8854372,137.0391012,77.91641701,-7.395328012,-5.124376956,123.7317717,140.351433,-200.144694,-167.2076151,-74.44765525
226.8239998,886,141.1741585,35.7852056,138.7547995,74.61036934,77.03394972,0.039144406,-463.691233,87.7303543,187.8703191,-8.796573506,127.4618149,123.3417652,11.39002323,92.45830947,39.87169793,81.30762599
226.8319998,886,105.0409492,7.05484137,124.3008758,71.59974773,79.91778497,0.038916969,-276.7827144,94.28375473,111.841963,-11.54300888,33.79434999,122.9501951,62.98045429,-52.16636959,-45.92365895,9.745582294
226.8399998,886,16.07979524,-7.768576686,57.79022983,26.53964623,40.12601721,0.0386898,30.03920788,59.17245765,28.90594375,-19.20721708,-92.17585893,122.5570771,80.3620289,-145.2790254,-75.48482632,-38.26851155
226.8479998,886,-74.09846704,65.26365667,-36.23480532,-44.02859452,-59.31071156,0.038462517,200.3790342,-19.0849037,67.66387252,-24.6852023,-72.24300009,122.1624266,-40.24220288,81.97643044,120.1479596,88.51377306
226.8559998,886,31.58381127,44.59445901,55.81688659,17.64227552,4.194759322,0.03823506,-72.78154009,37.66394582,100.6582005,-14.47084023,-9.290202629,121.7662593,8.668999514,25.24133004,30.27853154,47.16953366
226.8639998,886,8.413373311,13.78661134,39.6352687,9.490810203,8.862290163,0.038007262,14.69989611,35.31748073,45.44761285,-17.1881809,-80.33459154,121.3685907,47.58480583,-87.08883791,-42.69927757,-15.59536547
226.8719998,886,-83.42078433,58.82220216,-49.85418243,-50.89643831,-62.49963993,0.037779573,206.7985231,-26.98427524,47.65566717,-23.55919963,-95.53649086,120.9694363,-38.44388143,62.51719553,94.84169431,69.87202997
226.8799998,886,54.23356944,25.67851917,71.55771435,30.19165321,22.55392672,0.037551707,-206.3702307,46.89615472,107.6947314,-17.05352196,23.30390071,120.5688116,6.167624931,21.61604444,2.203362151,37.98602876
226.8879998,886,-74.72338041,-0.210995503,-24.22989947,-31.69184748,-25.40745154,0.037323606,228.5303576,4.269327466,-13.52838274,-29.89729864,-151.6292709,120.166732,37.1423532,-132.5623001,-44.94827868,-32.08921759
226.8959998,886,-26.87098395,70.54513346,-9.691523781,-32.55128944,-43.72531638,0.037095909,-19.83087596,-8.167064721,109.3759676,-22.66218423,8.133451614,119.7632131,-61.69684988,157.4290781,130.6074018,111.5214752
226.9039998,886,36.86282349,-4.296289847,72.70663087,28.25924359,33.48114437,0.036868215,-68.93019517,60.29552253,34.23102258,-17.55191044,-58.06377054,119.3582702,74.15020975,-121.5697985,-93.59206906,-42.89491607
226.9119998,886,-104.9599341,45.99612259,-56.62701656,-63.70942297,-63.86652389,0.036640051,286.7831919,-32.15483251,9.956949825,-21.30900838,-131.434723,118.9519187,-12.48211378,5.047116117,64.68747275,42.23604857
226.9199998,886,56.91228023,42.61395974,70.66074764,14.76557665,9.329083659,0.036411809,-250.4597992,31.91345481,126.2394595,-13.96608466,66.02437411,118.5441741,-19.33137223,97.73736909,50.41468648,71.39690649
226.9279998,886,-59.42930578,-15.96646861,-3.06413717,-25.21042885,-8.399843292,0.036183594,235.1786054,16.60640901,-49.84517732,-26.99927073,-161.309499,118.1350516,68.52506347,-202.4613,-109.8829063,-82.62335724
226.9359998,886,-34.59362617,87.56592989,-20.12946505,-47.33437262,-59.36386549,0.035955315,-3.609368939,-26.39539361,114.0531017,-8.751557113,26.74057677,117.7245667,-82.02390553,201.6549741,164.6943837,137.3628869
226.9439998,886,47.12649683,-13.30157119,83.87882383,29.97411068,31.93042123,0.035727288,-104.6875946,56.83035632,27.52098437,-11.62447526,-42.67021704,117.3127346,77.0726261,-145.6466424,-113.4802297,-52.01488708
226.9519998,886,-112.0542629,40.86779067,-64.6366729,-70.42918652,-73.93725842,0.035498983,296.5811291,-44.73240473,-12.88344684,-30.89141677,-129.6309224,116.8995707,-26.6896256,-27.57362867,47.50121859,22.71584377
226.9599998,886,67.41579516,57.64910567,69.61366787,26.03445403,6.465534312,0.035270637,-261.1940323,26.65873506,131.8427858,-5.704506719,81.1539286,116.4850901,-30.04831106,113.9313232,69.98491711,82.96988565
226.9679998,886,-41.51037922,-13.51852851,7.946808574,2.595237398,7.053048218,0.035042413,244.5164255,25.52132194,-55.18577542,-13.81455025,-171.4378901,116.0693082,95.44844079,-229.8936456,-121.0435008,-91.11582026
226.9759998,886,-36.85037531,92.58863894,-31.66375522,-39.97302036,-57.87271625,0.034814083,-3.332079801,-35.65046599,114.4087167,-11.39435052,30.44339976,115.6522401,-90.97854152,216.7408586,181.5423217,144.602091
226.9839998,886,45.98140576,-17.61829357,76.01443933,41.30676485,35.66694591,0.03458597,-118.7236404,55.38944712,21.74029096,-8.260111333,-44.2896293,115.2339011,79.77355681,-144.4911879,-116.0668464,-55.836672
226.9919998,886,-120.0094384,40.32275692,-73.56679039,-60.91883428,-75.16787231,0.034357458,309.7665335,-42.05016648,-28.5233142,-29.08203929,-131.7213599,114.8143063,-25.8956052,-22.24115118,49.32123992,19.00031729
226.9999998,886,61.62688527,56.28567336,64.50788648,28.51623007,2.854504319,0.034129113,-269.9721862,28.28933931,117.1717115,-14.62498886,92.58030798,114.3934708,-46.56824278,123.2892285,73.39985563,82.43619623
227.0079998,886,-54.59004596,-27.13603024,1.633323499,-5.301853301,-6.132737831,0.033900897,229.696018,18.17331963,-72.70509693,-17.16389354,-174.8715854,113.9714099,90.02943617,-241.8157553,-129.4585638,-93.41460169
227.0159998,886,-49.60034718,85.92830821,-39.45668111,-50.96028933,-69.24542807,0.033672693,-7.86187797,-46.63965188,95.14529469,-22.19820782,34.54567727,113.5481385,-107.5742016,209.3834694,183.747507,139.7201356
227.0239998,886,61.42081471,-11.62990899,88.05177552,49.75774741,57.06193579,0.033444647,-120.8278114,63.87917453,8.596387712,-18.03385049,-38.27719701,113.1236717,75.10632715,-161.8138475,-119.5830128,-67.05309203
227.0319998,886,-107.3756286,46.64716382,-64.07516522,-52.45707626,-59.04843797,0.033216294,310.4352251,-41.33275379,-30.13186262,-19.14140517,-143.0399109,112.6980246,-8.887788405,-30.18845635,52.08707518,24.99472458
227.0399998,886,72.37415259,63.92290017,73.24915809,36.81482583,9.929166798,0.032988094,-275.7957012,27.15840494,116.0008153,-5.65871093,95.23000425,112.2712122,-39.66526893,132.7675175,79.26293991,88.3837627
227.0479998,886,-24.54802039,-8.455832459,26.52884059,16.4303408,24.49933742,0.032760074,240.7139103,40.77356413,-75.16767476,-9.740409581,-168.3236266,111.8432495,100.9596341,-231.9703239,-128.5840593,-95.86951156
227.0559998,886,-29.32391052,101.8256446,-22.5824645,-37.49504061,-44.02344668,0.032532081,9.985356823,-29.79276599,99.78225373,-3.184664444,26.42117151,111.4141514,-85.8162599,231.3959751,196.7190699,152.0773131
227.0639998,886,66.60592393,-11.23862963,91.20308472,53.2389663,61.52327011,0.032303921,-121.5384564,71.21817399,10.08378865,-2.460464641,-35.47868927,110.9839329,84.21916292,-140.3216347,-112.7063265,-56.91236983
227.0719998,887,-107.9450418,39.80717012,-67.11660003,-54.9653158,-55.06988772,0.032076095,318.082302,-30.82436972,-40.91494116,-15.89050897,-142.254184,110.5526088,-11.95138057,-18.24693288,46.20990672,25.69302067
227.0799998,887,63.93265475,51.31813746,64.64180039,27.38336288,18.99191456,0.031848267,-266.1509821,31.86583499,102.3956526,-8.450888586,82.9034105,110.1201941,-44.69334557,141.0764876,81.98157792,92.64078522
227.0879998,887,-39.51389772,-30.47029785,11.09847904,13.59420046,30.03298566,0.031620294,242.4368693,41.08704782,-92.51179712,-15.1279742,-172.3891422,109.6867036,93.01327588,-238.4446663,-123.3053551,-93.98054835
227.0959998,887,-48.95516574,81.26183926,-42.01364401,-34.9480024,-45.90349473,0.031392676,12.15752508,-31.59090686,75.02606349,-10.47471765,25.95186597,109.2521521,-97.51675314,225.7136522,196.2283611,154.5950358
227.1039998,887,52.75130104,-23.86254268,82.56108817,59.01577682,67.72073108,0.031164825,-124.8672898,69.90833089,-15.25691106,-14.70719436,-43.23818964,108.8165544,73.14603113,-148.2603862,-117.2274136,-58.51213608
227.1119998,887,-119.5373151,29.2644401,-72.80153653,-46.15121046,-38.40377472,0.030937103,326.6674632,-31.04700695,-56.26305384,-23.27632461,-150.2563856,108.3799252,-10.15326457,-32.67868382,49.95053812,21.89152886
227.1199998,887,46.30878988,38.301886,48.4725885,27.39672439,19.6278739,0.030709913,-271.6375131,21.23877178,92.16142184,-16.5800802,88.0384278,107.9422793,-45.49002273,130.3578727,89.32487439,87.11202343
227.1279998,887,-44.91648171,-36.62476894,9.345770943,16.68145625,20.98609562,0.030482735,225.764195,34.19360116,-105.610098,-23.88745943,-164.5821777,107.5036314,87.37115872,-255.6961709,-132.5948618,-109.5533682
227.1359998,887,-30.95783891,92.68296772,-20.68763675,-15.93607541,-42.47935701,0.030255167,20.45042847,-22.24835931,75.7605917,1.338344594,28.4432394,107.0639962,-86.85556223,223.2911688,196.8058773,153.3734018
227.1439998,887,77.98289986,-10.63856158,103.69289,77.46812454,70.54919286,0.030028038,-125.626086,77.12915743,-6.108252124,6.176178023,-39.1848879,106.6233883,89.35739036,-138.4218623,-101.7944096,-47.79305001
227.1519998,887,-92.34665598,44.3829429,-46.20067264,-26.61889755,-34.89437531,0.029801208,327.4825007,-19.50196711,-49.0545785,1.820985182,-150.163388,106.1818222,10.24109003,-22.41979853,60.76735697,33.48105269
227.1599998,887,65.69940257,56.22436037,69.73567729,41.64685781,22.99550352,0.029573989,-268.9657889,28.153805,102.6169421,9.587437646,89.59787939,105.7393127,-26.85284179,156.3259683,107.4688017,107.5678194
227.1679998,887,-57.41268146,-43.09021806,-8.776094985,-0.893053197,4.434656759,0.029347038,206.9622248,9.446600224,-113.7025801,-21.99827261,-161.8304723,105.2958742,84.14598576,-250.307119,-124.8680401,-109.0869812
227.1759998,887,-58.86829501,73.01983417,-52.87070243,-46.49531515,-62.24459989,0.02912048,4.012585007,-51.33461677,49.92545161,-19.52278705,32.51501598,104.8515213,-107.0788581,201.1839958,183.4044821,130.5270745
227.1839998,887,57.50690533,-24.47948944,87.49757917,58.91616489,66.44258053,0.028893997,-137.2744312,64.42872389,-30.07666109,-17.49338219,-30.87551276,104.4062684,70.2477589,-154.5445794,-120.4235553,-68.17216326
227.1919998,887,-113.2988208,29.82441331,-62.60262138,-39.25107202,-38.01645268,0.028667536,324.7975848,-32.88416174,-76.5410802,-17.91616599,-147.1953813,103.9601299,-4.432149551,-34.70712386,41.03879742,15.38981681
227.1999998,887,52.51762333,47.30711378,61.29082715,39.05062242,19.65756056,0.028441258,-269.2023095,19.99261157,80.23778042,-0.687497569,95.21482095,103.5131204,-36.69113765,153.8422128,93.23130757,99.97541715
227.2079998,887,-53.48937657,-38.7534821,10.48903064,13.28369197,12.48276783,0.028215141,210.8753959,21.4945247,-126.8033706,-19.78639492,-152.1973794,103.0652543,83.97392888,-243.0148215,-134.5739378,-103.9105966
227.2159998,887,-47.68297353,87.2841006,-23.07947888,-25.96700638,-50.72530147,0.027989289,18.73076015,-32.22637852,46.18317071,-4.623214781,34.8127885,102.6165457,-99.58873439,224.1667109,189.2253758,148.3733517
227.2239998,887,56.66568368,-19.15613088,95.01486712,60.48261715,61.79268817,0.02776349,-146.8273255,61.54027831,-26.59278328,-3.169086054,-29.80650538,102.1670092,74.7594674,-127.7602981,-106.3288482,-46.06767289
227.2319998,887,-122.8753607,27.91592395,-74.29114663,-54.78693652,-51.9273995,0.027537826,303.8393883,-50.82400694,-85.10645777,-26.01687015,-133.7946465,101.7166589,-23.27838309,-43.58473663,37.74502341,15.09683867
227.2399998,887,62.81452015,55.76695106,61.66508715,34.65542255,26.716642,0.027312522,-276.6846088,18.01891438,77.94136338,-5.595531379,105.9397153,101.2655092,-47.77925029,140.9284208,87.35022433,94.26688589
227.2479998,887,-44.3973532,-37.04182941,2.895194011,4.988728652,23.43809578,0.027087207,204.8532803,17.96672933,-119.4378535,-16.93758733,-161.3870259,100.8135742,91.35203886,-244.4309996,-140.8604906,-108.0237484
227.2559998,887,-47.9909833,84.879525,-42.96870041,-41.19830274,-47.80219155,0.026861976,13.44847482,-43.18673016,48.00722605,-13.8239489,33.35304531,100.3608682,-107.6450778,216.5975499,177.7236273,134.3395014
227.2639998,887,77.64146995,-10.96072227,100.5890909,68.61464798,84.27571597,0.02663697,-147.5959714,70.97448828,-17.62361019,0.674170025,-26.46680285,99.90740534,79.05163105,-123.6360843,-114.6318867,-58.79503402
227.2719998,887,-103.7413079,33.47975709,-63.83821336,-36.79224534,-28.20034411,0.026412261,313.0618952,-38.69991967,-78.64089308,-12.17151905,-155.8880987,99.45319968,-9.328362958,-27.65260057,28.9528375,5.23710726
227.2799998,887,71.71828228,59.2910369,70.34831243,52.43947829,39.10526942,0.026187859,-273.3008512,19.89933634,82.69955602,3.430470366,83.09268452,98.99826534,-46.96539457,159.6230425,83.32489404,92.40783896
227.2879998,887,-17.50313464,-24.39518574,37.12313989,42.9124866,48.39354631,0.025963621,211.2567042,29.83403262,-105.3312494,1.958317965,-174.9048912,98.54261639,110.7583143,-232.1632756,-134.0257409,-101.5348127
227.2959998,887,-29.79600016,92.99632993,-19.62776903,-10.92359938,-38.90026212,0.025739463,22.98258475,-46.14332116,57.01068556,2.571406346,20.28277974,98.08626682,-91.43824361,220.1066634,195.7596999,141.3792372
227.3039998,887,87.60103067,-58.94310945,120.5114492,96.27566285,94.20386934,0.025515406,-93.1904367,78.50375701,-74.70690837,-1.089845317,-82.50351193,97.62923065,138.8646583,-298.9562894,-221.8873015,-144.4598585
227.3119998,887,-121.3838579,0.488412994,-78.48752734,-32.37397871,-33.950189,0.025291702,492.5004144,-37.72452042,-139.3272808,-10.22573692,-219.7658152,97.1715218,45.59760141,-180.4809233,-48.14557384,-57.50735097
227.3199998,887,63.85292356,183.3531173,-2.294930771,-9.320496929,-53.08937757,0.025068328,-451.7896303,-64.94676466,265.396878,12.37593291,309.5321311,96.71315419,-252.8516679,650.3618974,442.5614773,365.1237895
227.3279998,888,76.4494957,65.5105042,52.95292048,35.9829692,18.40107615,0.024845003,-300.0779759,0.109282577,105.3723087,3.680127805,132.5472987,96.25414171,-70.36094301,206.938814,125.0327338,123.1548005
227.3359998,888,-21.37567053,40.83774388,-15.22579615,1.485325241,-4.106682167,0.024622036,87.81633302,-16.32751952,-8.706088486,0.642259426,-38.72672696,95.79449819,-14.72889449,38.44632306,51.54715973,45.26415637
227.3439998,888,33.89555455,-5.26842039,48.55267845,46.75482052,59.95426918,0.024399313,-5.224947701,39.93516277,-39.92263827,4.305195976,-63.74098193,95.33423745,69.02804489,-116.6002943,-86.92928628,-44.40893625
227.3519998,888,-54.46703546,45.99653524,-35.56194913,-16.35368852,-7.566395988,0.024176751,197.4640935,-19.35082264,-33.70610554,0.145477087,-79.13895494,94.87337324,-15.05678109,33.75988786,54.55600251,44.49195168
227.3599998,888,47.91170135,35.30153167,49.67651469,30.73966861,39.78667116,0.023954479,-152.8884237,19.08685487,46.25721022,11.6075012,49.28475965,94.41191931,-4.368480991,87.03364195,39.52479383,62.41946557
227.3679998,888,-45.54661611,-29.01123747,-6.077026818,-9.39413172,26.48661527,0.023732395,195.3399318,2.792700785,-98.64174662,-8.921878245,-126.545354,93.94988935,72.15561539,-179.0476698,-108.1226984,-75.75816388
227.3759998,888,-33.45631578,73.12229396,-30.9238422,-41.06234789,-21.38050001,0.023510694,13.97444681,-42.49824308,40.83346185,-8.181700178,48.24992494,93.48729702,-88.97012902,195.2792634,152.2486458,127.9514452
227.3839998,888,51.56111418,-19.59589464,75.12141296,34.97591814,68.19458554,0.023288852,-93.97872904,37.42133787,-34.53978947,-0.183836382,-19.10035314,93.02415593,73.72373667,-128.006025,-113.0833834,-50.23774354
227.3919998,888,-92.16450297,30.58621301,-59.26922079,-53.36465211,-35.080025,0.02306749,275.9881886,-47.70860461,-74.5902697,-12.37374396,-98.23812938,92.56047968,-12.98577911,-16.9113331,19.0821425,19.32300251
227.3999998,888,77.94237469,64.87588344,68.96150318,36.60423898,39.33367678,0.022846717,-206.5287517,29.47847148,72.52432126,15.75707756,108.8648508,92.09628182,-29.46425286,161.3954657,62.07051214,106.9680896
227.4079998,888,-18.1891212,-22.81360152,19.56997442,9.101803257,37.5880518,0.022625762,214.584672,24.37664075,-102.332102,15.2256564,-129.9128278,91.63157585,103.1211188,-187.703558,-140.5569324,-65.45578688
227.4159998,888,-36.99244034,82.94892572,-36.09227169,-45.48496654,-32.22490619,0.022405288,44.08593439,-44.85192748,44.2648024,9.689882182,43.98799428,91.16637524,-86.65217792,233.7115008,161.3175505,159.7018707
227.4239998,888,79.83085746,-6.799840679,102.21783,59.72960523,92.48075662,0.022185315,-108.7526902,71.13935074,-11.79014178,20.16732682,-10.59892121,90.70069343,93.59844815,-91.126525,-110.6372371,-15.55813376
227.4319998,888,-108.7777231,21.30298301,-62.81732143,-58.74504081,-32.03865978,0.021965391,321.3306629,-44.90222213,-76.33627999,-3.178326718,-128.0663218,90.23454381,6.410802675,-19.16303872,19.36377501,35.60386073
227.4399998,888,54.83311149,53.311105,59.58385509,19.80093505,34.06270485,0.021745514,-236.2671598,13.79977414,76.77571393,2.231473711,114.240497,89.76793973,-54.89430463,171.0366448,76.21293621,115.3582159
227.4479998,888,-20.66337927,-26.74973719,37.24943796,19.00565653,58.32088287,0.021526188,220.8165174,39.97936216,-99.41805722,11.92836285,-139.2155687,89.30089452,106.8912303,-214.8588638,-147.1762389,-71.96397236
227.4559998,888,-53.15223896,79.80016993,-33.29586083,-51.21173926,-35.05803817,0.02130725,57.08073381,-48.78366687,55.23665038,12.75824231,28.46974814,88.83342146,-80.96504592,230.1991422,177.6034705,168.8521346
227.4639998,888,68.18859897,-13.56038859,103.3502157,51.24117004,88.53244237,0.021088487,-141.4377275,58.85888874,-9.128711406,10.55151198,-6.853606574,88.36553377,77.05954059,-100.3998975,-110.5346613,-24.4243438
227.4719998,888,-112.1925041,24.44030172,-50.62135038,-57.12976615,-16.19723175,0.020870057,340.160611,-42.42519709,-77.0371752,2.97527254,-142.2602753,87.89724467,13.71893201,-28.14793499,16.76940569,28.9803739
227.4799998,888,47.56330493,48.3241595,64.13885459,10.98557716,40.0721247,0.020651866,-235.5492917,4.591527664,85.37350564,15.92091662,99.54272252,87.42856731,-35.26721147,184.1967777,92.36679107,127.6573151
227.4879998,888,-35.32720847,-43.5546267,28.30993826,7.397679384,60.13508494,0.02043421,217.3645066,26.18699957,-112.6156288,5.688810959,-145.0851747,86.95951481,106.2895944,-227.9679464,-151.408601,-80.69293305
227.4959998,888,-66.19247936,70.989799,-45.33437022,-55.80500813,-31.32338003,0.020216812,64.17120934,-56.62409485,36.24409583,0.720693653,31.94870622,86.49010026,-94.0443526,224.1785551,174.8791476,161.6593785
227.5039998,888,64.56175758,-19.44715872,95.1144342,51.15659775,86.51964633,0.01999964,-146.7589433,54.54075326,-22.63369726,2.672208814,-3.025201322,86.02033669,69.77182267,-103.8044937,-108.5443157,-22.86717505
227.5119998,888,-103.0439803,31.11655416,-46.72792238,-42.13598169,-12.19830498,0.019782817,357.7131833,-31.24250925,-83.55842111,7.007932438,-140.8180909,85.5502371,14.2806852,-32.71134567,21.09832225,35.78044262
227.5199998,888,47.09342007,56.99060154,64.76543766,20.81872758,37.35808299,0.01956635,-230.3727565,11.04250993,85.46321837,18.02413436,118.9100888,85.07981446,-47.69749953,197.7721313,109.2382191,140.3929634
227.5279998,888,-50.38287321,-45.59376925,22.04068126,1.116112979,45.38048831,0.0193502,204.7996183,20.71030372,-119.5399881,-4.031880477,-125.1903467,84.60908168,87.90521706,-226.5858856,-145.3595015,-81.68703418
227.5359998,888,-65.60261551,82.16645725,-35.31640673,-50.49727876,-34.25170219,0.01913441,71.40808317,-50.07696703,37.76631263,3.389920214,38.96734811,84.13805165,-99.32211402,227.5485189,175.3475855,163.3804216
227.5439998,888,71.51128998,-7.219992067,107.9044502,60.21499109,90.36230975,0.018919073,-141.7966559,64.52286504,-11.93625914,13.3950081,5.191993013,83.66673719,70.49706423,-93.98184273,-103.7297645,-10.29555024
227.5519998,888,-112.6913518,24.32100363,-55.21423218,-50.69362194,-19.59781857,0.018703725,354.6218832,-35.33527121,-85.29907775,5.390376115,-131.0230565,83.19515111,8.725335651,-38.6086224,17.93610867,38.71451221
227.5599998,888,40.61833127,48.09133999,48.01213778,6.780336747,30.13120945,0.018488951,-240.2352884,1.853149637,77.80598549,8.184272972,125.9703238,82.72330616,-57.73078317,192.7466055,98.82360083,135.8610668
227.5679998,888,-48.03732762,-50.98943542,12.61559148,-6.885798904,52.242824,0.01827464,196.8951633,18.1710846,-124.6427187,-9.328345411,-128.7919861,82.25121505,92.73254837,-230.1447337,-154.7039752,-84.20673906
227.5759998,888,-81.75189962,68.7535629,-50.09509102,-70.84508395,-35.45837262,0.018060499,65.58237855,-61.36301788,27.46424071,-3.333440328,40.14467545,81.77889046,-94.59806798,231.5924015,175.8787978,162.9137641
227.5839998,889,44.76420647,-28.0701071,84.65103751,25.35396039,74.26774522,0.017846991,-167.7618895,41.50085533,-31.99459077,-5.845945411,17.44726462,81.30634502,62.37396321,-88.75011217,-111.2698096,-19.80838475
227.5919998,889,-122.6226455,13.90339686,-63.55908645,-67.90577052,-23.18933899,0.017633723,341.1136837,-41.42679775,-104.3937519,-10.02880374,-133.9470133,80.83359131,8.120249733,-50.08190274,0.445695018,30.55637294
227.5999998,889,42.77725202,50.34101305,58.47597757,10.5484358,32.7146461,0.017420616,-238.0590281,11.76132547,74.04258972,11.13810629,109.9685494,80.36064188,-48.65776788,192.1866402,96.50223648,148.483117
227.6079998,889,-41.09557128,-48.92634683,22.07055794,2.872163794,51.47686598,0.017207994,198.6390563,30.74052809,-125.8866362,0.390435042,-147.9888072,79.88750924,99.5980394,-225.8183798,-157.9460182,-73.77945814
227.6159998,889,-56.03947562,80.23924731,-36.72847118,-40.82632648,-16.93212779,0.016995786,87.21454341,-34.99887283,30.14056291,17.90592407,9.248043255,79.41420584,-85.95198164,233.0449857,171.583099,172.6119243
227.6239998,889,68.46323664,-19.27129189,97.47483561,56.12330812,90.63080967,0.016783856,-153.3755579,58.99564629,-18.99603728,25.84299281,-27.81826005,78.94074411,77.95601423,-73.42222963,-105.6513348,-4.036186433
227.6319998,889,-134.2606143,-1.048686828,-83.70497592,-78.3185033,-43.5188257,0.01657249,328.6012045,-62.82741091,-107.7241687,-5.77974638,-172.6487484,78.46713641,-2.294502309,-47.00097409,-2.641854909,17.49536179
227.6399998,889,37.1188587,41.24664971,39.15083887,-0.122298739,18.63647864,0.016361551,-253.3110365,-7.534478601,63.24743581,-4.571779488,93.38634834,77.9933951,-72.92424504,179.7137355,88.29209981,120.7545104
227.6479998,889,-34.61060723,-52.55143724,24.62118345,6.12918336,52.74628937,0.016150862,188.8679281,22.21602608,-129.3252422,-8.030207039,-167.4518867,77.51953244,104.2235177,-238.1647486,-164.629846,-88.1035825
227.6559998,889,-79.15323849,60.75443172,-55.62212291,-67.46983366,-42.67113785,0.015940654,64.42929563,-69.71471051,22.26552985,-4.860367561,-7.253199061,77.0455607,-90.37149756,213.0143357,165.0045931,155.854782
227.6639998,889,59.64844973,-23.8585582,88.65888811,46.00711703,83.69477281,0.01573098,-173.7388993,41.69893784,-26.83519109,-2.197373133,-21.76894742,76.57149206,60.90597321,-97.10689477,-116.9488992,-23.34533156
227.6719998,889,-120.4652448,10.88486758,-68.5987135,-56.59967261,-22.69511146,0.015521599,336.1957868,-53.85589456,-109.1092251,-5.181869833,-172.7571682,76.09733871,8.965124458,-48.87556311,-12.1651744,15.62624744
227.6799998,889,32.22214068,41.39123693,33.67223864,0.474851576,9.566859378,0.015312513,-261.4003955,-18.66303279,65.46768599,4.695339049,89.23480154,75.62311274,-65.58612201,193.307572,87.47214184,122.6008598
227.6879998,889,-29.06964604,-46.69241094,24.28638337,14.69284899,47.13922362,0.015103915,181.3497005,24.07282213,-134.0844498,-4.475966246,-166.3464719,75.14882624,91.82796784,-241.3023734,-174.6199245,-99.54306515
227.6959998,889,-56.93361093,82.1845965,-36.85274672,-38.71545682,-26.82154208,0.014895844,88.32320489,-45.04330709,18.98073239,15.00334062,-14.24640382,74.67449122,-91.69857048,232.9987946,166.6274561,162.4052431
227.7039998,889,70.56091679,-14.08722476,100.3176008,59.15049195,86.47027174,0.014688206,-164.9126211,55.86734508,-22.44628873,19.10605805,-32.95469804,74.20011969,63.98667604,-55.60081568,-101.1435549,-7.435322193
227.7119998,889,-107.9825981,14.96333055,-54.64141918,-40.5606683,-11.85242407,0.014480851,354.5700191,-32.84291039,-110.5431702,1.501796512,-194.9899806,73.72572357,8.929775301,-31.83095847,-5.378135407,17.77584006
227.7199998,889,45.60227205,48.17666135,46.55346479,15.16905453,34.75311965,0.014273966,-234.1338664,6.175503135,67.62261808,16.26621438,60.01406588,73.25131476,-53.70887206,224.8181067,103.7884872,138.2971024
227.7279998,889,-39.01123378,-59.83701351,12.65244866,-4.697572409,51.10083276,0.014067524,178.3602095,21.99465471,-133.8446241,-2.143528458,-190.8369022,72.77690511,103.3812079,-211.8418808,-163.7209604,-90.85716422
227.7359998,889,-64.26917716,69.77424604,-48.21308816,-57.62775159,-33.00982475,0.013861621,87.89849397,-50.48722287,9.379152402,-0.712189675,-35.42907752,72.30250644,-94.95310936,227.2827221,159.9363995,149.3212174
227.7439998,889,77.41377712,-15.40706766,104.1238418,58.30660951,84.13627601,0.013656045,-163.8018942,60.6217973,-24.78553134,14.08587924,-47.58408978,71.8281305,67.55208718,-67.60413214,-106.0135352,-12.94775829
227.7519998,889,-120.2900187,2.712856614,-62.01695179,-52.94906614,-29.17047731,0.013450874,349.1872317,-44.41587022,-110.7230477,0.040207793,-199.1017162,71.35378902,15.67997495,-44.35439323,-10.75626554,13.35729985
227.7599998,889,42.25961561,45.17729258,48.20790405,16.06979471,23.58082281,0.013246212,-234.1121592,0.994480677,63.52265708,5.52426613,70.5940536,70.87949365,-65.22209358,218.1274069,96.60487658,130.4994345
227.7679998,889,-21.45076599,-52.31792156,30.45909426,22.88404898,65.35252065,0.01304193,186.4890688,36.47955358,-133.797135,-1.182262174,-181.4316732,70.40525604,102.188975,-214.6638287,-166.4210989,-89.46693806
227.7759998,889,-76.36054838,57.58186594,-61.7452942,-50.911783,-28.65733444,0.012838253,86.31702098,-61.79980446,10.94534808,3.837935753,-29.21738707,69.93108776,-87.81270605,226.6116559,168.4881976,155.9721971
227.7839998,889,50.3557797,-40.27851168,70.83333323,43.76856974,73.58336862,0.012634985,-193.2771034,33.08801773,-39.61356162,-6.985994477,-26.15859355,69.45700035,44.06989895,-72.85842907,-102.7113904,-26.86226629
227.7919998,889,-121.9163962,-7.708881906,-70.4765845,-49.98103456,-18.23474185,0.012432029,341.8869138,-42.57249614,-134.6625659,-23.80185403,-180.1886035,68.9830053,-6.709785116,-59.87175233,-12.94771369,-11.64962272
227.7999998,889,50.44309093,44.74372184,52.19991089,31.53469566,43.71133912,0.012229428,-229.5103323,11.46588136,58.33936165,3.154792869,81.52333659,68.50911406,-60.47351587,215.4483612,112.7775708,128.3446241
227.8079998,889,-59.42891358,-119.7682523,21.13741583,35.4516754,82.87917565,0.012027528,415.6445189,52.72139324,-257.5295442,-11.81933614,-319.8405017,68.03533802,203.3084268,-485.2942386,-323.4982054,-232.0084922
227.8159998,889,-198.2491283,-30.86531195,-121.4261969,-70.27721459,-34.861543,0.011826312,682.9228121,-53.91398558,-226.964788,-18.21640754,-322.8231796,67.56168855,54.09525324,-205.9466174,-69.14155141,-72.65012851
227.8239998,889,-8.6165707,-45.04795925,34.92888156,32.75603001,63.52049674,0.011625336,112.4497537,32.32180371,-113.6115885,-4.890041804,-133.4864715,67.08817694,82.13404295,-162.9227563,-124.8669423,-67.6264194
227.8319998,889,-105.0361416,-18.51929378,-54.74076244,-31.45397769,-3.167408785,0.011424595,339.4590386,-28.23667395,-138.5543155,-9.269001809,-186.8589256,66.61481447,31.88593929,-95.34483706,-38.65257476,-24.14273497
227.8399998,890,20.58728215,58.65227912,13.39178387,-7.565341646,1.839869444,0.011224469,-259.0705954,-31.76158977,73.68851301,4.565868615,105.2339815,66.14161234,-101.141843,296.8177465,168.1711831,169.830699
