Time:125Hz,Epoch,FP1,FP2,C3,C4,P7,P8,O1,O2,F7,F8,F3,F4,T7,T8,P3,P4
339.8959998,1327,0,0,100.444051,29.90276527,91.19194905,-13.35319137,173.8128474,34.1806148,88.10796926,138.6300107,94.37065026,18.59002307,122.4458439,109.6752508,11.63214103,135.3973881
339.9039998,1327,0,0,-52.61127943,-110.184464,-70.69873198,-144.8970542,3.68880986,-101.4268829,-46.28014326,2.409674765,-22.0184072,-97.36515773,-9.562441972,-22.6968812,394.3509575,28.94447966
339.9119998,1327,0,0,117.9495242,75.34740088,127.0725724,57.68203926,177.4320371,78.11401972,14.14642681,71.28907713,20.19966442,-48.17315062,37.09013086,56.7835846,-56.29188303,63.0843375
339.9199998,1327,0,0,-32.9963697,-92.25733654,-22.21782202,-117.0259372,43.48239884,-68.25286222,49.18900286,101.5501552,71.52529042,-2.898150079,73.54056394,86.81222149,270.7730004,147.125446
339.9279998,1327,0,0,-19.95924302,-58.16280965,-29.10197448,-80.99700315,27.49487916,-49.5103724,-120.4127901,-62.86507053,-101.2396907,-161.4963886,-89.20742085,-80.65649661,147.3034754,-42.82986759
339.9359998,1327,0,0,37.13347648,-24.63509136,53.52839202,-60.78116242,107.432854,-25.27801854,35.45727351,95.26560205,47.5808976,-14.64214702,58.99238748,71.61835804,-47.27392873,94.50438485
339.9439998,1327,0,0,-84.83491734,-146.4401322,-85.3015193,-196.3969854,-33.10014814,-150.0622326,-106.3239568,-52.40493598,-73.52813839,-138.7944256,-78.69605417,-80.28837095,330.5768726,-36.85433939
339.9519998,1327,0,0,91.63456785,38.30187938,85.88826745,1.024554025,136.9108724,21.26221115,-22.39675808,31.85263736,-11.3722056,-73.01153988,8.913691535,3.663808424,-86.34402311,-1.537598807
339.9599998,1327,0,0,-32.06874561,-101.4927447,-13.56542738,-138.1756785,31.20517763,-120.8314217,27.64043404,72.20917862,53.4605211,-19.61347305,62.47569274,45.27412112,248.5754113,80.822479
339.9679998,1328,0,0,18.85158555,-26.97741494,37.91782643,-72.43144232,55.94388747,-45.52271904,-92.20353082,-41.75651227,-69.26226654,-131.6244539,-52.06534048,-56.52678294,167.5430848,-60.25288971
339.9759998,1328,0,0,51.63004733,-4.108227017,91.306002,-53.61041215,121.8975684,-17.81035985,79.10981062,132.1767818,90.68407203,28.97804683,103.3445392,116.4015078,-15.15219736,110.2760783
339.9839998,1328,0,0,-102.5178174,-148.794467,-92.8815418,-196.8478404,-42.07035346,-169.8238175,-104.1903626,-53.84014829,-75.84829444,-137.3073211,-79.56667314,-76.68061776,321.7508494,-40.74520137
339.9919998,1328,0,0,60.22592531,20.09506304,56.33983062,-19.17726154,114.2208987,20.68224229,-37.32765867,22.99711794,-31.36522328,-85.16793579,3.824218784,2.483621623,-118.3712264,-6.039947408
339.9999998,1328,0,0,-94.36612533,-147.2427237,-71.95055987,-179.8261396,-15.29038016,-131.234065,-5.120353153,48.62259956,17.15933491,-44.90809343,32.45873598,21.98525224,197.075565,73.62991951
340.0079998,1328,0,0,-43.82710622,-74.34495166,-44.69791015,-108.1611286,6.468628677,-62.78989523,-159.3585033,-107.5606932,-138.1600956,-193.9814927,-127.454367,-125.2007923,90.12939392,-94.27503295
340.0159998,1328,0,0,42.21247628,-11.39481434,46.01704394,-43.56737043,111.6104649,21.19452561,32.58032309,81.46533076,44.87770427,-17.84762845,68.03312646,67.35564231,-77.7920044,93.79761482
340.0239998,1328,0,0,-59.82980828,-109.2730672,-46.83319903,-143.4375078,1.14009116,-101.4863823,-79.49576005,-37.22255164,-44.81104425,-113.4082181,-43.36809755,-63.18851228,338.2339241,-3.26606062
340.0319998,1328,0,0,116.0948368,72.59259501,130.7657129,44.13874339,172.6707872,65.35240768,16.00270852,67.08940476,31.94522893,-29.24186771,45.08280018,47.70088071,-59.39492791,38.22177085
340.0399998,1328,0,0,-46.39118367,-108.6189748,-19.85758331,-136.3650026,30.6840592,-107.4502817,38.40994393,85.51552402,68.06513841,-0.208191557,71.32979535,66.74498777,240.8546261,97.04198118
340.0479998,1328,0,0,18.23812507,-20.07101523,43.03800209,-71.96862853,74.889447,-33.67118099,-100.0914507,-53.43042447,-73.51109871,-138.7231792,-65.10789334,-71.80503672,151.9955148,-64.07655415
340.0559998,1328,0,0,87.21558623,33.11128189,106.1223396,-15.45348552,165.5485466,28.27822616,91.79317474,139.1273143,107.0998036,37.98707351,125.9432753,125.9899317,-10.53928396,116.9363972
340.0639998,1328,0,0,-81.22111211,-124.3813632,-68.81252445,-176.5851679,-16.45560351,-129.3786793,-68.60590114,-24.38851382,-35.48276625,-103.6418592,-35.30039322,-37.10933726,357.9738139,-12.58273809
340.0719998,1328,0,0,92.15504087,57.47033339,120.7082581,-8.266381177,155.5964533,49.19621412,-2.237451364,47.09316659,9.203379389,-52.38810078,19.82347228,36.59235029,-79.69181336,13.58610257
340.0799998,1328,0,0,-38.57520971,-96.87021517,-29.60545852,-132.5782842,40.84028546,-104.1265838,38.15383435,76.11987026,61.34353654,-12.19681967,75.3664218,62.26053386,233.0241257,83.42075188
340.0879998,1328,0,0,-0.499180694,-35.07598944,-4.685917767,-35.36950205,46.05770605,-37.06272773,-103.2421463,-62.70712469,-80.44176987,-147.9133482,-58.64336775,-81.54614377,162.4584209,-66.61208856
340.0959998,1328,0,0,44.68277157,-4.33857623,68.64458761,-14.86420269,112.5452372,6.488333207,59.49011307,102.1284385,73.44041469,5.549406691,89.38005403,78.36721667,-31.86314067,103.8747562
340.1039998,1328,0,0,-89.0551665,-131.1466659,-83.59721546,-199.7205636,-31.92465157,-149.7440839,-90.87135298,-60.09710649,-61.57113756,-134.0479471,-59.31750609,-73.06773236,328.2648505,-27.10986419
340.1119998,1328,0,0,119.9052899,87.68162533,135.2961658,17.70127896,174.2906743,71.36465166,6.709226522,47.51318044,16.92103227,-46.06608529,41.20483873,45.526451,-70.64125082,32.66998108
340.1199998,1328,0,0,-26.16220154,-76.79994453,1.568535178,-120.6320831,50.40504569,-62.24384604,49.29697099,89.1323443,75.46053687,11.1784574,89.16188196,75.84001069,256.8041283,120.8726414
340.1279998,1328,0,0,10.27383979,-21.48782085,11.19980744,-70.05197241,58.72751092,-24.95443551,-93.76564498,-56.91866287,-71.47065775,-130.1118546,-50.03172286,-69.82805767,172.8795735,-56.65504269
340.1359998,1328,0,0,75.22740503,22.17247867,102.5006187,3.73168511,154.3773566,19.47523923,91.10037967,125.7283664,103.0078265,40.69994716,128.9637468,120.2476655,-7.75219533,112.2721728
340.1439998,1328,0,0,-102.3894354,-145.251595,-73.63694338,-176.691203,-24.42433111,-138.8855885,-81.57243715,-52.40827538,-52.87431103,-117.2457946,-48.10496831,-59.23003191,362.3673831,-27.91969418
340.1519998,1328,0,0,65.09690465,36.21058455,77.66278255,-18.81751464,130.6109008,35.20669579,-28.73180102,10.57335122,-23.99820834,-80.64040666,5.907149791,7.654238239,-84.49120256,-19.90671874
340.1599998,1328,0,0,-50.15886864,-97.35762537,-24.19704989,-127.4919617,35.16612417,-106.6448331,24.26065404,60.04926706,44.32899834,-18.346659,52.71491652,51.05979695,231.9750703,68.29589983
340.1679998,1328,0,0,4.106708445,-16.48047253,20.93819634,-53.31914599,68.56597931,-24.93118179,-99.30285884,-62.55615626,-79.16968142,-136.5057602,-80.97627088,-73.12482363,187.1952095,-67.72138332
340.1759998,1328,0,0,72.3082893,34.20670766,77.58453224,-15.99232022,150.3777828,46.03021396,101.9146281,134.9311273,110.2407958,48.75966664,130.754698,134.8705138,10.62349456,129.8774783
340.1839998,1328,0,0,-80.47146272,-122.0024031,-89.75802039,-183.3835576,-20.71917763,-124.7018706,-68.47807042,-47.75591315,-40.73890315,-106.5478737,-31.42210728,-51.93245429,380.8314437,-13.94978619
340.1919998,1328,0,0,84.50606705,50.08310536,91.71605996,-3.495705787,140.20339,44.19575291,-22.27813254,5.510762822,-16.08548548,-75.58249892,-0.742114524,0.20716493,-57.23538858,-7.916726891
340.1999998,1328,0,0,-44.71599271,-97.9490485,-16.50529514,-136.8273295,32.19765403,-93.10327494,53.41796902,72.30306573,68.95451444,-0.124423017,66.45002099,68.02954677,258.2593888,102.8165987
340.2079998,1328,0,0,5.595022865,-27.76582211,29.94007283,-67.02413476,62.08474224,-29.67819159,-88.74052237,-74.36277972,-73.80573954,-138.7234851,-70.0262855,-74.89076092,196.2667378,-61.87652813
340.2159998,1328,0,0,56.66609459,8.666815384,76.20884683,-13.30012886,140.7103942,17.76101881,71.25741952,90.23729884,78.16048954,13.43957688,98.23412696,98.50337755,-11.29315985,93.28451315
340.2239998,1329,0,0,-102.9976662,-144.0964216,-97.35077679,-178.9566279,-32.38598636,-150.7649987,-78.86688,-63.90057101,-56.35365499,-124.6336708,-51.81576734,-60.20528554,356.9550595,-33.0724164
340.2319998,1329,0,0,72.59849444,38.97496487,111.6041058,-9.44418261,135.5709977,29.20186053,-16.64960541,2.599470957,-16.72955445,-78.45732502,2.550205955,1.787990584,-78.68440555,-23.05293215
340.2399998,1329,0,0,-50.92747264,-109.1008805,-10.13846162,-157.8331073,25.52447911,-111.5974893,38.31213278,54.07755195,55.41699271,-12.58580401,64.97170491,50.33690359,230.5720604,63.41215139
340.2479998,1329,0,0,4.528661453,-34.41634854,14.94487335,-92.25215116,51.97623677,-46.12218615,-100.4692994,-83.42551924,-84.79622287,-148.9738741,-76.23250033,-87.52179115,178.9291032,-94.00272983
340.2559998,1329,0,0,77.95842329,22.87481601,114.3968513,-9.931210895,150.0355641,39.6462724,93.03055415,106.1301094,95.16943336,28.87743698,108.8836085,111.3188773,-18.04190995,95.93165624
340.2639998,1329,0,0,-51.84828548,-107.8961006,-36.33235265,-126.8501939,2.320672112,-89.34057152,-41.30169014,-38.35567361,-19.16410088,-89.85979204,-24.51875638,-32.77442013,372.6012586,3.003967729
340.2719998,1329,0,0,129.0908787,74.6957838,114.368425,42.71750799,170.9540237,77.53262807,21.08582494,31.29806068,20.35757902,-42.11899614,28.39628901,27.63765989,-49.50458448,34.2156187
340.2799998,1329,0,0,-17.03288796,-94.58994389,-25.37822944,-122.5214935,36.12451625,-83.60409105,71.51941862,83.59815051,81.15502277,15.70194984,86.01511336,85.9679477,239.8088677,119.2386348
340.2879998,1329,0,0,23.14331833,-36.45614203,13.9504653,-53.33106825,41.36013841,-33.78303724,-91.25183441,-69.6719743,-82.50290653,-141.3908629,-83.09914114,-62.11904416,176.1571508,-60.18625044
340.2959998,1329,0,0,91.90870131,11.72166204,96.4029616,-7.257038158,135.0868911,20.20581289,93.69978577,118.3000268,90.01528191,29.7208523,88.1755321,106.9003832,-18.7990499,116.4975939
340.3039998,1329,0,0,-65.48436052,-141.1410915,-67.19369263,-146.7959592,-30.92228288,-124.4519739,-54.37595149,-35.85187589,-39.40984466,-106.4317709,-38.82245119,-56.59183464,364.5058965,2.355878749
340.3119998,1329,0,0,97.33069179,33.34841495,98.79400359,39.98989048,129.3983596,43.39036221,-22.09451552,8.512740438,-27.84382644,-90.33590664,-9.415986977,-1.363494837,-71.70957601,7.08557839
340.3199998,1329,0,0,-23.25976985,-104.6090329,-16.20421794,-130.7549376,36.03846473,-91.87910867,46.54470506,77.7176991,53.63107577,-16.18892767,47.37641069,70.33639035,220.4407343,112.2642213
340.3279998,1329,0,0,39.46702657,-19.45758283,32.47368679,-40.26042544,70.99551686,-8.961755603,-84.3655935,-47.06714286,-75.9844086,-142.1027357,-73.6534746,-64.56025464,174.1246697,-32.24475917
340.3359998,1329,0,0,89.07665385,15.23060151,90.33203037,18.34870007,143.3702945,30.82189264,89.50016725,131.5193541,86.49167264,18.79479055,106.2001835,113.1169439,-24.31087698,138.6289771
340.3439998,1329,0,0,-79.71797838,-146.7181853,-85.52064112,-151.1387569,-30.74928881,-134.6133258,-68.15226144,-31.92910997,-52.35423375,-125.4622148,-46.73145094,-32.79229707,345.2566068,10.4883496
340.3519998,1329,0,0,96.64766594,31.11292535,97.55283467,51.26831817,123.6241509,18.45085414,-21.2275104,23.41242865,-24.82870489,-93.3617461,-1.4960884,16.95031582,-94.49891091,13.90754103
340.3599998,1329,0,0,-32.31757495,-121.4754219,-24.84419811,-118.1268073,10.25378906,-124.4687416,44.75831185,81.73563175,52.18412335,-27.65995586,60.00534509,49.52312614,198.061081,100.4446237
340.3679998,1329,0,0,22.75022187,-33.48052759,24.03805513,-64.71289583,72.84806822,14.71196155,-95.91443818,-58.62494488,-88.50205735,-164.0145135,-79.90334464,-76.27591335,155.1048568,-40.83641983
340.3759998,1329,0,0,81.31445578,9.910693145,100.4193458,3.179878442,152.1504105,60.33592293,80.61074468,125.1367939,80.0663478,8.330588416,100.6075152,122.9552934,-49.18424113,149.2722958
340.3839998,1329,0,0,-76.2120501,-146.2629196,-75.67557333,-155.0418505,-29.93348656,-131.8338904,-70.97887326,-36.58576451,-52.48103836,-131.1849918,-53.34017054,-60.09602018,324.9975043,2.743974951
340.3919998,1329,0,0,114.4276199,59.12855907,128.6957251,35.47952183,175.0841605,87.47492085,-3.805443865,36.36462878,-5.522505558,-77.99862471,14.94511077,11.45867234,-89.76776475,24.19821763
340.3999998,1329,0,0,-22.95059445,-97.58936577,14.06962719,-110.6691583,52.24743737,-72.34311401,68.60535458,112.4582277,82.02132726,8.537832452,92.18865812,97.47674208,207.503734,143.5296122
340.4079998,1329,0,0,-1.150324009,-54.74389167,16.8948577,-62.40221447,42.54969196,-39.67895346,-98.76034128,-56.41945066,-84.73295475,-153.4665199,-84.42141655,-77.70309293,136.4610887,-49.97934927
340.4159998,1329,0,0,47.63060964,-21.62976181,84.59186036,-40.90833334,120.5836574,8.654341185,63.43595555,106.9969883,66.05076453,-3.132442449,84.70139639,87.12506984,-93.94591771,97.14154053
340.4239998,1329,0,0,-102.4809556,-166.4844287,-82.16272092,-194.8813152,-45.69984063,-153.9917156,-89.43270694,-51.43653906,-69.01051584,-140.5367102,-66.6864719,-65.53485583,290.9261281,-32.52549696
340.4319998,1329,0,0,88.6465139,38.54824705,108.4817382,19.85568531,137.6777067,44.2388065,-32.75230502,0.926382921,-35.56654916,-102.409825,-20.63237295,-20.57423148,-125.0291714,-21.18630239
340.4399998,1329,0,0,-36.33817923,-105.4039686,-23.24574574,-128.3803636,16.94179369,-119.7501306,51.70471937,78.36144543,62.09006033,-10.89789287,77.91307475,45.52317645,171.8371728,96.52258783
340.4479998,1329,0,0,1.184664068,-41.80848551,-14.28495231,-68.72621721,28.29851652,-52.9878195,-96.53376027,-63.70892353,-82.00349872,-146.3021803,-77.18179677,-81.65050202,142.1395964,-58.10829542
340.4559998,1329,0,0,65.14865146,16.58291984,114.6062498,0.641597485,136.3200281,66.42177663,70.01408075,108.5386768,72.14584816,10.93839095,80.19725258,103.8334712,-71.12979362,114.9465383
340.4639998,1329,0,0,-86.90058872,-129.2108716,-36.40645536,-145.1121819,-12.40312774,-89.1875303,-71.98039602,-33.85394281,-52.47893054,-112.9441776,-43.94658346,-49.92568068,323.661316,8.530075925
340.4719998,1329,0,0,78.90176326,44.10333891,111.6216491,35.4713924,165.0408265,79.97431511,-19.09485729,24.59729012,-17.60356407,-71.97226495,9.841301189,13.58648599,-86.96920785,23.30912069
340.4799998,1330,0,0,-50.35330377,-107.7530426,-13.85953488,-112.4806897,51.94045434,-61.99089547,43.43861486,77.64447707,57.71998078,-6.761475227,64.50704461,65.03959187,185.5510304,106.4823976
340.4879998,1330,0,0,4.263152544,-30.70839872,20.26919822,-56.04778734,67.3422744,-17.86400651,-98.03128337,-64.7059978,-83.86204226,-142.3000722,-80.42167793,-89.75082082,148.2194617,-69.89272268
340.4959998,1330,0,0,61.26446535,15.67004478,114.5253638,3.110913909,150.1836758,41.32282817,89.65543045,124.3479314,91.1151994,33.93286094,103.7112983,108.6383981,-63.07745128,101.4367961
340.5039998,1330,0,0,-99.19302858,-143.6301212,-55.35862479,-135.8651526,-27.79213651,-122.4958978,-63.66513296,-33.19736846,-43.11464737,-103.2691371,-46.02549292,-49.46689986,328.3173458,-18.56089167
340.5119998,1330,0,0,98.03790457,64.58206516,143.4493923,35.9026632,158.9605399,79.92843359,-4.407657449,28.4780993,-3.661226946,-60.04857609,17.8446353,10.03424034,-79.96511647,2.577674458
340.5199998,1330,0,0,-40.45460879,-90.4508091,12.88306466,-115.0948819,45.74127049,-63.48338438,76.0983505,98.13537616,86.39999457,22.03458601,88.21849992,87.18001005,211.3946289,114.1328826
340.5279998,1330,0,0,-14.00803752,-43.53359322,10.57816535,-48.14360586,46.18662653,-31.56671021,-87.29474914,-63.08877097,-78.77181867,-138.7909525,-83.12012773,-76.06136485,177.3753445,-65.2517466
340.5359998,1330,0,0,66.10791192,22.61019318,124.6171921,-17.84158407,147.7019024,19.90437856,93.39611722,124.1614619,91.31243307,27.95591086,102.2931985,110.6256145,-54.15468716,107.4287439
340.5439998,1330,0,0,-110.8045371,-152.9761586,-77.21692099,-183.260545,-46.12084701,-162.5015874,-63.42888014,-38.33845492,-43.46875326,-109.1851676,-58.57029855,-57.66483317,340.1261783,-17.35541773
340.5519998,1330,0,0,60.88179847,34.40374136,76.13715178,31.89622511,115.2870173,82.21763823,-35.45090121,-5.534959346,-34.08950339,-93.35622882,-28.94884809,-24.30578837,-77.45341015,-18.06982174
340.5599998,1330,0,0,-65.77178901,-107.6699055,-15.80729015,-112.0918093,7.115999886,-57.80689843,31.14423735,63.58257391,48.20246461,-15.18356609,47.19230843,50.97057916,189.8942778,103.512179
340.5679998,1330,0,0,-38.16426267,-60.75820375,-8.405557412,-67.86829519,3.587185784,-61.4371141,-133.9750772,-97.14725217,-111.1645416,-166.4163807,-123.2028327,-112.7886848,153.8920878,-84.73516721
340.5759998,1330,0,0,64.18808425,34.80512797,113.6678092,14.5233412,131.8414326,56.89869682,69.77007329,110.9043174,83.49945222,28.07255799,80.98634614,101.899581,-59.32509482,97.47299802
340.5839998,1330,0,0,-86.27924054,-113.7636485,-28.55780573,-135.5853903,-21.57511282,-100.1092121,-43.57499264,-6.248869248,-11.09174834,-67.62219208,-33.35144443,-21.64122277,368.2847496,21.5291021
340.5919998,1330,0,0,77.40734986,55.53582266,110.3708767,35.01900974,145.7613019,66.61907474,-13.45663174,24.23956022,-3.27783918,-53.82392064,-14.94848562,6.416354588,-37.99119506,2.650351741
340.5999998,1330,0,0,-59.84245919,-98.3635989,-9.992448206,-111.6171668,28.04789054,-77.90758608,52.75199974,88.09626083,75.10635519,18.23352883,65.52904591,81.78182706,240.722751,99.55468245
340.6079998,1330,0,0,-44.39721854,-59.3013201,17.93651014,-50.69157225,11.62016974,-51.40624244,-105.947993,-70.37915,-84.20839376,-135.9511294,-91.03164158,-90.0018773,221.4699868,-73.03657353
340.6159998,1330,0,0,27.87181179,0.216199792,97.27510179,3.08904368,119.9502678,11.19363974,60.6305252,96.6518554,67.16133621,15.93356088,57.31344992,76.52361875,-13.6859595,75.54282875
340.6239998,1330,0,0,-128.3689488,-157.4546837,-78.07267053,-183.8311413,-48.6679466,-152.2781337,-74.50127015,-47.74335088,-52.54990179,-107.6156753,-70.75734557,-62.00464589,400.5752185,-37.23859378
340.6319998,1330,0,0,62.13848056,46.50302154,118.9017484,26.87975369,131.5986538,80.13033639,-11.93336238,7.629705717,-14.38680815,-68.57499642,-2.060201441,-8.428054678,10.43697395,-19.40592388
340.6399998,1330,0,0,-72.61350308,-101.7678114,1.261666609,-103.2556768,24.85561591,-80.87387023,65.86390405,87.55390467,77.76779636,21.23476919,74.52660468,74.58434897,303.3995543,99.41307943
340.6479998,1330,0,0,-61.80452923,-66.65875903,-19.60364438,-84.54164744,0.432053307,-69.16803666,-110.4946085,-80.40376964,-97.10334079,-143.0149616,-108.4245558,-92.69664081,277.9619572,-92.79151128
340.6559998,1330,0,0,28.21697206,11.69992586,85.75080828,0.94465039,118.4247904,51.89546012,70.48446946,97.31867501,67.60474037,16.8018735,65.72917563,88.81527087,30.81544058,79.23338066
340.6639998,1330,0,0,-139.8135652,-155.7336173,-66.60399499,-150.7048182,-51.89382439,-138.3328732,-58.4822959,-36.39392123,-40.02207373,-97.74220636,-59.9839968,-61.63135483,460.3685095,-12.37808457
340.6719998,1330,0,0,30.69233178,30.77667372,109.0541694,15.0331432,109.0791184,35.84281137,-31.99823151,0.402317365,-30.71084984,-79.17530577,-39.69801139,-16.54199634,50.64519784,-30.07839283
340.6799998,1330,0,0,-83.44100847,-103.8465293,-5.021201058,-131.4168952,21.7992205,-76.84978939,41.5506067,73.92228246,55.81986853,2.493998983,40.65171373,73.25771282,317.3101881,80.4805071
340.6879998,1330,0,0,-62.29672576,-65.98495935,-10.60088648,-74.85478558,17.41629397,-56.14574366,-114.4339124,-82.53965923,-98.06430748,-148.2459011,-104.1300569,-101.4519593,321.0042996,-93.94355047
340.6959998,1330,0,0,17.71858093,2.390460398,99.86329425,-3.79126431,117.7497211,10.1182502,58.20370409,94.40628356,62.10325355,15.92643497,59.30772164,84.68507458,77.5995193,58.46531427
340.7039998,1330,0,0,-141.4395845,-156.2417207,-57.7341873,-169.7131168,-51.09123734,-146.5088837,-69.01640385,-35.78693127,-43.71887156,-92.74200521,-65.01227772,-44.15562027,496.4925077,-37.31823274
340.7119998,1330,0,0,34.12486157,29.94537961,96.0007305,34.43151151,106.6629926,55.29017174,-41.18598197,-1.942444993,-34.873721,-78.93858197,-26.62841121,-20.92805824,80.58520724,-47.23476462
340.7199998,1330,0,0,-92.8973292,-115.0929862,-17.67716449,-125.983194,-5.978198948,-107.9289613,21.95799852,60.8512469,38.44243004,-4.683831203,29.0132161,53.5836912,330.3475027,48.76466081
340.7279998,1330,0,0,-55.15380136,-53.82189332,3.975466245,-84.63708553,26.01759646,-51.03206564,-115.0232254,-76.54114188,-96.6164295,-133.0850601,-109.9207279,-80.36017689,335.2026848,-105.5865372
340.7359998,1331,0,0,52.52032474,37.40847587,117.9080902,29.00607014,168.8984242,85.24997759,73.10315696,111.5020072,80.37239818,41.4282913,89.57519008,99.66087832,96.01923663,81.64869864
340.7439998,1331,0,0,-116.228848,-128.9931439,-34.83302135,-136.5069226,-15.61625665,-104.1819582,-58.78900696,-26.28162832,-28.58187974,-71.4567437,-45.28407023,-41.09721139,523.441334,-13.4770007
340.7519998,1331,0,0,36.9914564,39.74107458,118.5541051,35.32931516,130.1131691,59.58400699,-26.87366253,14.88966868,-11.93234058,-47.53763086,-16.14691177,21.27177421,103.2057704,-23.87432144
340.7599998,1331,0,0,-95.91337758,-116.9969873,-22.31714842,-114.3561003,13.45829275,-88.94456045,23.23695762,60.69791397,49.23974364,6.126061763,36.59204013,66.14720309,328.3021065,61.75466698
340.7679998,1331,0,0,-60.82058394,-57.37455951,0.433160158,-74.19344265,17.21583212,-47.49249465,-135.9251942,-103.6312431,-109.7377441,-151.6929149,-123.9066341,-124.8359282,325.5719836,-119.434429
340.7759998,1331,0,0,37.31911552,27.2292951,120.0348717,15.09181444,141.2023309,53.65464908,60.61040958,95.42939397,73.85347338,35.67973409,76.02344224,87.73064564,80.87956989,63.55795076
340.7839998,1331,0,0,-120.6917606,-133.0525966,-54.37228965,-136.8114578,-21.13894299,-115.1998817,-62.79260101,-34.32835198,-29.27847482,-72.16033383,-51.24341421,-35.9505596,509.3645919,-28.03876346
340.7919998,1331,0,0,50.0935762,52.82293559,104.5857396,41.6656576,134.0134919,62.7069597,-20.29079165,9.233756146,-7.311971342,-49.69999366,-6.36577476,-6.804303307,108.4041115,-32.56302386
340.7999998,1331,0,0,-85.75696215,-110.1547459,-11.44585696,-130.6885096,-1.104297598,-104.7598613,44.26379521,64.7056393,64.32139968,16.19280811,67.72938307,59.5165568,342.6825382,59.92383281
340.8079998,1331,0,0,-59.87621527,-66.04744465,-0.645305948,-96.60695263,0.091093325,-81.85343439,-123.494406,-103.0422104,-99.69911557,-143.980447,-116.2676589,-97.41779523,340.4726864,-127.9108402
340.8159998,1331,0,0,27.71675598,13.78695712,101.7216241,-1.486373688,125.7126884,10.72519635,64.87133197,89.15916639,77.36221774,32.5869359,63.89277876,88.11062479,92.99989633,52.67059356
340.8239998,1331,0,0,-151.2007942,-160.8669847,-64.39754853,-164.8125005,-59.8639814,-147.6288217,-82.66907387,-63.0231124,-53.99034735,-97.626859,-66.48076469,-73.97856018,509.9452247,-47.80466511
340.8319998,1331,0,0,27.9463179,31.66355192,107.71859,24.83452706,102.2311346,28.09455658,-55.89889687,-26.22644203,-46.7711473,-79.338299,-42.53059603,-26.24075188,93.36758072,-56.52931524
340.8399998,1331,0,0,-65.4301956,-93.12233454,-3.435779881,-91.48231276,15.7626351,-111.7900011,45.21547121,66.10513336,63.76399973,20.18977041,49.44074604,69.37053201,344.3111377,61.34944689
340.8479998,1331,0,0,-18.88073142,-27.83599507,18.98983307,-30.58753541,47.47310089,14.62092205,-91.60880918,-80.00442645,-77.54775968,-120.8424372,-80.92851083,-82.69408949,381.6846085,-94.56796871
340.8559998,1331,0,0,73.8258704,64.19975517,145.0201134,47.6064927,180.0434523,138.7189908,102.5023987,121.1134548,100.9914438,65.17685561,122.8801492,129.9427748,143.1251511,108.2254343
340.8639998,1331,0,0,-109.6157793,-116.5637233,-43.05819885,-128.7367829,-28.88628728,-97.90477981,-42.6142273,-17.91554159,-18.40972254,-51.15235475,-22.90886088,-18.26278064,559.4462982,0.211025976
340.8719998,1331,0,0,67.87911351,71.96089126,119.603378,48.99749866,142.163441,89.55004128,-9.280851221,15.25613119,-5.121182511,-35.8656608,0.801489587,7.105717584,130.5675793,-23.81695771
340.8799998,1331,0,0,-49.85383413,-62.77264477,50.20605136,-87.62521361,58.39685311,-42.32383224,78.30546847,93.17908505,89.5169732,49.72288112,88.67236164,97.38680692,370.4131732,94.83547777
340.8879998,1331,0,0,-66.09771949,-53.86115432,17.59941214,-45.81160485,6.444736993,-51.73871308,-106.9362587,-83.29929976,-90.62263209,-120.0220728,-98.02340129,-74.39253606,402.1717833,-97.15885233
340.8959998,1331,0,0,36.75109285,29.58390718,65.17831414,28.40533184,128.2617333,38.57803041,73.80843674,95.72789731,74.49731963,42.59360261,86.66217491,98.43135054,124.3075829,61.03678081
340.9039998,1331,0,0,-110.1725371,-126.2183975,-64.29613711,-146.9310061,-31.00630994,-123.4044059,-46.21892607,-34.93776248,-23.40177112,-64.08329848,-39.68684562,-38.70318361,554.3341906,-32.18112176
340.9119998,1331,0,0,40.38914557,44.68990138,132.872904,33.41327229,120.6008748,57.84437075,-20.79119109,-7.83489988,-15.22696069,-50.3459645,-26.90328715,-12.78883396,162.3418106,-46.57036835
340.9199998,1331,0,0,-83.75475958,-98.71709845,-20.27723175,-110.84566,21.09352142,-83.20219523,55.31768763,61.91744569,68.04612581,26.41855267,75.85413541,62.68707754,393.2381537,60.81932992
340.9279998,1331,0,0,-82.09921079,-87.30956533,-64.33728862,-91.2085935,-20.92712598,-86.59974035,-126.0154603,-116.0262584,-109.2425213,-145.8904814,-110.0267894,-101.2982393,424.0667012,-133.2781858
340.9359998,1331,0,0,30.97737163,10.81550044,64.35186196,4.680624864,115.0841222,17.91248261,50.89390391,48.77946103,50.28998202,3.413462888,48.64721793,49.33893485,132.0490802,15.1576341
340.9439998,1331,0,0,-108.5208362,-123.816901,-57.61794483,-141.7845064,-39.45514338,-117.4216843,-50.3877943,-56.77689774,-29.12958073,-81.39600596,-38.32270135,-56.58225309,572.4224557,-44.52972787
340.9519998,1331,0,0,45.7443849,43.17710328,129.0800651,53.44026431,111.1093999,38.89907676,-16.05311386,3.755528716,-12.04066204,-48.39764578,-11.04256336,29.05792066,188.697355,-30.89725529
340.9599998,1331,0,0,-60.9775257,-98.7383751,-6.751461041,-89.02941562,38.04676965,-96.89725319,52.51639321,62.58444168,56.85469452,9.349250231,59.78744627,61.44647165,380.3230202,60.056665
340.9679998,1331,0,0,-46.766337,-67.92103664,-50.13781648,-72.79745776,-2.258029674,-32.91541563,-107.7008897,-108.7828054,-105.4178438,-153.3596227,-101.2038542,-121.2365399,408.0371383,-99.76256322
340.9759998,1331,0,0,50.1966213,23.83381984,97.64685306,41.927786,113.1335585,66.35054067,77.88907409,84.80873415,63.95925032,17.65694474,69.31616091,99.89201559,111.7721348,94.05421734
340.9839998,1331,0,0,-103.239622,-139.0017409,-66.22964468,-129.7551224,-41.51829604,-124.7574435,-47.91636903,-36.39417675,-37.38323652,-87.32920872,-49.05501016,-33.37622195,521.1938898,1.657754157
340.9919998,1332,0,0,56.37343558,30.82824629,60.17694924,47.79123071,97.60361308,58.60631063,-27.51807867,3.017312768,-27.16470045,-69.32888015,-10.38527053,-5.661734293,128.8849721,-19.85430579
340.9999998,1332,0,0,-72.60847719,-118.4848681,-45.77645793,-87.54946372,2.578054685,-86.12823777,21.24083295,68.46753957,50.02740236,-3.793357682,49.92711535,70.98087067,316.8039408,80.85742455
341.0079998,1332,0,0,-57.25860411,-88.56876925,-72.44509478,-62.43868469,-12.63465939,-78.71481945,-180.536724,-106.1156653,-108.9317421,-171.1821965,-139.3138194,-115.2936231,343.9726084,-98.45000247
341.0159998,1332,0,0,64.53790095,20.63281433,68.23014353,98.80719302,118.8262791,44.66726362,3.251698747,100.4267837,82.8784788,15.06179973,83.79037575,89.81902153,71.50187763,82.80477987
341.0239998,1332,0,0,-124.5799146,-165.3124171,-61.08666652,-108.2416407,-67.04970457,-153.9294378,-129.8951828,-23.65367181,-24.51412151,-92.20689857,-41.49671135,-26.18759893,489.6211414,-10.47223117
341.0319998,1332,0,0,45.93685822,23.88982812,62.00362712,-0.236270493,98.29317522,27.02462135,-125.5265967,0.134250685,-30.51941872,-89.73122715,-48.71972676,-7.999019568,87.71992552,-43.21780395
341.0399998,1332,0,0,-45.01368382,-96.05444949,-55.93125447,-89.15289096,28.5653055,-75.68751413,-25.9717913,96.29488008,80.99688588,11.67290664,75.36645444,89.55014328,311.402143,83.05977622
341.0479998,1332,0,0,-80.48587201,-112.5726234,-52.25469216,-48.59592579,-32.59069526,-108.6536003,-211.5793936,-84.97813668,-90.73036269,-161.4170163,-107.6538043,-102.0757878,359.8457418,-107.1583976
341.0559998,1332,0,0,33.87073926,-2.257657549,48.29734492,86.00072799,102.9757249,5.090675,-55.94159176,91.04739082,61.25480344,-11.96293155,47.53897264,71.3983632,65.5642004,42.2650559
341.0639998,1332,0,0,-97.14734012,-135.8769677,-115.6455992,-75.92021533,-47.97877599,-121.0761721,-153.9353232,-1.646869901,-13.41677357,-88.90848594,-39.03776157,-28.3130328,528.4387581,-16.38365261
341.0719998,1332,0,0,73.30506257,54.61508464,82.95564226,62.72935574,108.6859445,84.21065613,-105.8104413,57.59657525,17.92297333,-51.08926197,13.56879601,30.45783247,184.8874842,-6.729554128
341.0799998,1332,0,0,-37.44549949,-71.01229598,5.357432202,-15.36888465,60.54931698,-23.62724378,-17.73123203,157.8167776,121.8542009,47.61207119,98.13628392,151.2154548,426.2041411,128.8049678
341.0879998,1332,0,0,-74.58613093,-93.57826634,-79.0932732,-33.50625607,-16.89596822,-72.96402498,-213.8687508,-32.87525731,-61.93891956,-134.2099296,-111.2175703,-77.23715421,500.1319544,-75.47796678
341.0959998,1332,0,0,16.27092724,-17.61663807,-35.10400123,-28.67874695,72.24675596,0.051744111,-58.75071766,116.9483487,74.81072264,-3.837990637,66.39672816,62.92712408,197.976522,34.06742366
341.1039998,1332,0,0,-150.7194276,-183.973809,-129.9450309,-142.1333326,-32.48369465,-128.3195049,-189.3330722,-10.68099348,-30.02735961,-111.5471738,-54.37379279,-40.39290318,656.3555654,-54.80952253
341.1119998,1332,0,0,6.914039573,-10.58246547,86.97036977,66.86647712,112.3292516,63.87728968,-167.7424646,21.23738456,-18.94851917,-97.62261138,-56.51066861,-35.07862156,315.9604808,-60.60186271
341.1199998,1332,0,0,-85.06554223,-118.956089,-58.24982891,-111.938868,13.92722092,-79.53788417,-57.04411369,127.4382273,98.28973382,10.23014175,51.4244717,85.45326853,536.7498946,66.69931465
341.1279998,1332,0,0,-95.8841084,-113.0148902,-109.4037683,-86.803387,-2.269701868,-90.03281955,-231.4671548,-47.5128128,-64.44032467,-138.667725,-112.3601861,-71.43918758,623.4179807,-115.5426863
341.1359998,1332,0,0,3.070142805,-37.87483774,-13.14983194,37.61075621,104.7811129,4.013571707,-81.02953258,93.50367597,79.52578689,6.37449717,53.43297929,63.31660964,335.1375619,12.39364627
341.1439998,1332,0,0,-166.2537203,-212.9745504,-219.1950327,-116.363809,-57.88189951,-173.1850521,-200.5027729,-35.17257504,-12.64826968,-100.856935,-68.38077438,-60.49583345,789.7397364,-79.8535302
341.1519998,1332,0,0,-15.77616526,-51.01667142,-75.23263263,103.2704822,82.50080076,-4.787151845,-189.4448432,-19.8548438,-17.03771529,-115.1254309,-64.16490831,-57.93861819,424.4138617,-98.32767542
341.1599998,1332,-1.00E-10,0,-119.1199874,-178.9232003,-165.4291877,-22.21776774,-18.58189191,-140.5705161,-107.4455496,49.78661112,72.97398092,-60.14611245,23.71430221,25.34225351,613.3801526,9.146741114
341.1679998,1332,-1.00E-10,0,-106.0453129,-153.4774295,-198.4399795,-47.22262672,-35.53417123,-114.2098333,-268.6378584,-103.4845405,-68.25715864,-209.5962267,-132.6041045,-118.9880484,684.1889206,-165.6734693
341.1759998,1332,-1.00E-10,0,34.01934252,-50.82299538,-75.25269372,41.24090228,95.85245895,12.77341512,-105.1443734,88.49424394,88.69491591,-30.7562588,43.19627229,68.02864343,377.077119,11.20246482
341.1839998,1332,-1.00E-10,0,-115.4837567,-225.4951023,-221.0407526,-145.1042016,-73.02018153,-166.8296303,-220.2790085,-25.13356805,-29.86866621,-137.8754207,-74.41587502,-45.36300617,787.4737944,-58.28013567
341.1919998,1332,-1.00E-10,0,68.43191927,-35.31826317,-69.10413423,38.25603974,101.7599668,38.84018475,-170.0223322,22.58154053,-24.59918058,-126.4100161,-34.96820739,-4.314687723,302.3023931,-71.14578964
341.1999998,1332,-1.00E-10,0,-23.75128676,-153.6527706,-196.7730993,-39.13975854,13.82270999,-60.34117829,-69.12886029,121.2158822,78.14294052,-29.03148577,51.31483761,110.6104054,423.2937696,76.58381339
341.2079998,1332,-1.00E-10,0,-54.38218454,-165.795861,-266.1815968,-33.71746872,-46.2866596,-81.95115368,-240.399172,-58.81358757,-91.54202494,-199.0865537,-122.7213434,-76.60992034,508.0313917,-88.31658084
341.2159998,1332,-1.00E-10,0,58.57762221,-70.67920365,-101.9261632,40.02972831,114.4271317,3.524059861,-56.11501125,121.1865154,75.24891399,-34.85274253,89.78352936,88.90317508,153.631478,57.83766626
341.2239998,1332,-1.00E-10,0,-97.34263674,-235.0864451,-212.0424695,-120.8572131,-39.68204175,-142.4883778,-183.3849543,-0.499564783,-20.39689735,-120.6997224,-51.78708198,-25.28791872,594.9447933,-28.61006414
341.2319998,1332,-1.00E-10,0,54.12222654,-83.69628475,-148.9210994,61.18206409,149.0730531,68.24800822,-189.4829222,5.178961317,-23.61045071,-106.9016528,-72.75980219,-32.57975493,247.3997496,-50.45690349
341.2399998,1332,-1.00E-10,0,-48.64076273,-226.0656791,-242.744903,-38.44006547,130.6385532,-78.75583324,-118.2288394,86.93628532,80.22882206,-7.639375387,37.67690335,49.72336374,422.6181597,61.51394867
341.2479998,1333,-1.00E-10,0,-41.90515229,-198.6606796,-227.9001379,38.61400062,63.01709562,-71.71902474,-291.3623312,-78.33614188,-74.17815813,-159.1597139,-111.6485886,-99.66877142,535.6184494,-124.079172
341.2559998,1333,-1.00E-10,0,70.98975258,-99.32873329,-162.704823,138.4959309,169.2336152,52.28843233,-90.42107929,98.36751106,110.1336101,3.743589658,77.50941696,61.49417589,240.1436497,44.38534644
341.2639998,1333,-1.00E-10,0,-116.1228465,-286.1243399,-293.2601591,-79.69405774,-19.73028127,-162.5358469,-216.6622369,-44.47762024,8.486125106,-116.4149846,-59.77270711,-66.43571077,681.6082279,-52.7147264
341.2719998,1333,-1.00E-10,0,55.04163271,-100.5774707,-138.8449025,138.252391,121.5885888,21.91962211,-222.0390575,-38.26683791,-14.13008617,-127.1352436,-40.26793563,-18.22912818,312.9786271,-91.39398253
341.2799998,1333,-1.00E-10,0,-40.02835606,-220.8296304,-206.5582664,4.043338022,68.96711698,-75.06128068,-110.1164977,60.507665,89.06175446,-26.4305913,63.68390873,51.05503807,526.536302,54.08860398
341.2879998,1333,-1.00E-10,0,-60.12391648,-208.1844679,-221.5950109,-38.1867308,19.07014643,-75.41639996,-282.5993374,-118.4115211,-96.72943467,-199.1556438,-157.6697869,-125.6593367,680.4084503,-127.6945317
341.2959998,1333,-1.00E-10,0,68.85745964,-90.33389589,-202.9403779,68.20728616,167.0273075,45.79151891,-84.03536768,69.40928841,66.53140317,-34.30529433,51.61835324,94.63497093,357.0683451,43.48032887
341.3039998,1333,-1.00E-10,0,-109.5796484,-265.3485012,-312.9097797,-162.2375028,0.07978427,-158.4149532,-182.8840602,-35.88006879,-23.54800666,-128.4731207,-25.03426386,-53.14239466,710.9542345,-19.56980943
341.3119998,1333,-1.00E-10,0,46.74324709,-73.85136777,-49.88731232,-2.143939173,146.5854556,22.15231133,-204.5611057,-23.56890331,-64.84608967,-154.8473845,-63.62670947,-44.08918933,245.381637,-66.9995291
341.3199998,1333,-1.00E-10,0,-46.41626378,-182.2749381,-124.8251456,-95.27747924,106.9670196,-52.95596341,-92.31143541,95.65350559,49.4652773,-44.08781424,41.74705701,94.20802385,405.1775237,84.82862345
341.3279998,1333,-1.00E-10,0,-68.76516477,-186.3840378,-151.9798386,-77.86129065,61.15678909,-71.97945172,-265.3838899,-86.88613588,-118.3338008,-202.4961576,-124.9509914,-103.3719003,504.3432784,-92.7181351
341.3359998,1333,-1.00E-10,0,68.90281515,-60.3198373,-28.02070628,40.9837387,197.4515833,52.93881391,-92.99304157,81.89653892,35.35384782,-44.07136691,36.79889535,48.12897186,149.6588161,48.57154037
341.3439998,1333,-1.00E-10,0,-89.56436046,-219.927706,-220.0739608,-154.4795985,35.68742541,-104.515234,-156.8953918,7.606877677,-15.87184734,-96.59516487,-38.93448999,-36.11881473,608.0477375,6.494177422
341.3519998,1333,-1.00E-10,0,56.22023335,-56.45944548,-101.153729,7.438914257,162.9856453,39.17283552,-155.9389177,11.72263235,-33.97727257,-103.6745069,-21.07349192,-11.48842675,235.732139,-34.7695311
341.3599998,1333,-1.00E-10,0,-50.03392044,-179.1952566,-159.5878479,-136.4508654,92.39751594,-71.80574728,-87.3681093,79.73485177,40.69154612,-33.81479213,53.6900417,55.10865392,380.3176709,67.68217625
341.3679998,1333,-1.00E-10,0,-59.60014122,-167.3860033,-172.648447,-133.4891432,69.78016629,-62.18147762,-237.9408464,-70.94314034,-109.1930409,-179.5065928,-118.9954606,-104.3743502,520.7488633,-103.6720552
341.3759998,1333,-1.00E-10,0,53.11193241,-68.94572084,-82.39809702,-37.11558845,183.7531173,21.75557788,-42.72765025,123.5533998,65.1377119,-8.099796072,71.54650485,89.2571216,226.7700486,48.9481162
341.3839998,1333,-1.00E-10,0,-144.2073861,-267.7387122,-196.344169,-216.5666762,-18.4184205,-163.0087703,-177.98829,-22.98414909,-48.94867225,-129.279636,-64.35017946,-69.84388728,686.0975908,-56.13646577
341.3919998,1333,-1.00E-10,0,26.66002409,-84.42008924,-23.91555465,9.759446318,182.6311124,48.63056052,-178.9641494,-20.98049626,-66.7462046,-138.1633766,-74.63061442,-73.45690582,343.4807872,-88.68278266
341.3999998,1333,-1.00E-10,0,-75.61655312,-222.4871769,-225.897995,-148.0160435,117.7958727,-87.72457104,-71.72907025,86.31186971,46.20445857,-28.16314485,49.90292044,40.56092218,521.1495269,62.01043246
341.4079998,1333,-1.00E-10,0,-118.559938,-248.6778299,-249.8668958,-177.0557157,14.99081711,-97.14144376,-276.4168839,-123.2469312,-156.7843362,-227.5460477,-154.3474414,-155.0846358,610.7404241,-163.655265
341.4159998,1333,-1.00E-10,0,27.23864645,-114.9528236,-68.75489326,-54.50165779,189.8758248,57.2236405,-95.54898036,60.27756258,4.504712847,-62.66053561,9.080489901,11.7853251,270.5405077,0.13931923
341.4239998,1333,-1.00E-10,0,-133.4089925,-288.7329905,-254.2204779,-220.6592449,47.11423393,-145.0364578,-183.8454436,-33.26935315,-57.94987201,-123.8518888,-64.0270627,-83.83760432,748.6541537,-34.2286336
341.4319998,1333,-1.00E-10,0,39.93084643,-91.9537739,-67.14137821,26.81748229,197.8152371,49.5342528,-172.9250805,-20.4631725,-64.79318548,-121.907023,-61.76602584,-64.55262645,374.6143524,-82.49781702
341.4399998,1333,-1.00E-10,0,-34.22954109,-189.6962065,-159.6140926,-84.52007016,150.8337455,-52.46241258,-34.07085488,116.0026198,74.44902185,15.46581305,62.9816678,61.33494741,525.299902,74.84626957
341.4479998,1333,-1.00E-10,0,-64.84128068,-209.9531507,-231.250606,-143.2731587,89.34020979,-90.94889363,-216.1569447,-80.25037382,-102.6263801,-159.666709,-111.2739568,-129.1073117,652.7449584,-126.5129731
341.4559998,1333,-1.00E-10,0,68.41131141,-70.56327272,-48.48199569,-42.80921755,247.4156274,52.72559022,-42.21850685,98.79030244,57.89026784,0.065671165,51.49127293,50.89167619,313.0656828,30.98257674
341.4639998,1333,-1.00E-10,0,-106.4635096,-251.0813662,-169.7249189,-183.9291096,94.06597734,-135.1669044,-124.7289326,20.33135612,-8.851152945,-65.11864368,-35.45574886,-23.58121754,795.1138011,-9.63089785
341.4719998,1333,-1.00E-10,0,43.93756507,-103.331472,-115.143616,2.197457487,207.7443361,13.33590842,-139.2508626,-10.06703401,-55.46747764,-112.2323624,-51.59766898,-60.33405116,435.2717657,-95.28828754
341.4799998,1333,-1.00E-10,0,-17.84070133,-178.3567067,-184.5093384,-157.3842042,159.290485,-38.45305462,-24.70847234,94.71438761,62.2338426,-9.022492277,63.07872644,52.97398088,574.1792789,54.57214715
341.4879998,1333,-1.00E-10,0,-46.74497069,-179.1944341,-102.2750787,-161.689218,141.1577012,-15.78448134,-189.2623136,-73.06159522,-96.86572654,-162.1389429,-109.016794,-99.34563932,711.4555465,-105.6338562
341.4959998,1333,-1.00E-10,0,50.41365948,-94.79444501,-58.45296552,-50.96395431,259.998947,50.70498435,-25.47880518,80.11426781,44.13003341,-20.04778132,36.25144195,38.18060529,329.2467759,29.72397032
341.5039998,1334,-1.00E-10,0,-103.4434314,-252.6394539,-257.2124617,-232.149972,95.64707903,-124.1648689,-133.8385403,-15.28951646,-37.34604829,-101.4897513,-48.21863313,-53.01341037,745.1955028,-33.10828683
341.5119998,1334,-1.00E-10,0,69.51673246,-69.2236612,-80.40678719,-16.99989037,279.7702116,77.46145141,-137.4442044,-6.832969016,-58.58457888,-110.3234724,-35.00203353,-39.20221147,385.6149295,-78.8090545
341.5199998,1334,-1.00E-10,0,-37.61961592,-191.7679124,-160.0945376,-153.1769879,209.1412545,-64.30292014,-16.8631169,84.50701935,52.70053135,-5.765990092,60.70743964,49.01535097,514.1238417,65.97299115
341.5279998,1334,-1.00E-10,0,-66.98487131,-191.627682,-116.8628359,-181.2380529,133.0830791,-82.49587132,-191.411481,-90.55008473,-118.6909269,-169.5152884,-122.0848126,-132.7011356,618.876382,-124.5503391
341.5359998,1334,-1.00E-10,0,91.38069629,-48.65408356,-33.24742612,-13.15114548,305.7591219,78.62290425,-13.09221072,99.895422,50.64408029,6.601975528,60.43796564,50.38305207,242.1502307,32.99661439
341.5439998,1334,-1.00E-10,0,-72.97819362,-216.201149,-239.8110505,-177.8689681,152.2044554,-92.55300611,-96.43463655,7.409025986,-6.548234769,-53.9565894,-11.22139987,-24.72175903,703.7996456,4.225525243
341.5519998,1334,-1.00E-10,0,58.72077296,-69.57483764,-69.013299,-37.17998231,258.0731723,53.3418336,-99.38960469,2.860144382,-34.12838385,-79.40680858,-9.795330396,-31.84492995,342.5744722,-59.33989473
341.5599998,1334,-1.00E-10,0,-31.44813984,-186.588063,-183.1420887,-125.2010492,195.5399329,-38.72861711,7.004303048,89.79356009,62.54044116,4.007486801,69.27879813,47.78962957,434.3760442,54.7646782
341.5679998,1334,-1.00E-10,0,-59.11311193,-182.4259959,-138.0682851,-114.6176683,181.0900192,-28.04876492,-176.3030643,-90.83542904,-111.5743063,-162.6442618,-119.5065015,-119.7136084,560.3014048,-118.1950287
341.5759998,1334,-1.00E-10,0,61.04367431,-63.36252037,8.814028159,-24.63432858,329.3930412,74.64416873,4.325944968,98.48179294,56.93155953,11.25454802,64.87375475,55.58237739,194.2305502,40.34291595
341.5839998,1334,-1.00E-10,0,-113.4008515,-246.9226978,-263.257645,-194.1902689,132.872621,-124.1470708,-100.1612323,-28.59162635,-35.95918701,-89.41069749,-46.80089964,-71.5172922,620.8323006,-40.67478443
341.5919998,1334,-1.00E-10,0,60.11962824,-55.98285739,-61.26819665,8.584293914,297.1816642,67.43046038,-101.2583098,-29.54951973,-56.41699381,-104.6365957,-36.49868213,-44.46072604,262.5408432,-86.21291342
341.5999998,1334,-1.00E-10,0,-17.30208313,-155.1802462,-120.8267286,-108.6418403,256.0918384,-34.30419429,38.41680228,116.9328739,97.28951245,46.02449473,104.4955597,86.99967175,391.4245905,92.26586127
341.6079998,1334,-1.00E-10,0,-68.42824962,-188.8787898,-205.9883712,-147.466136,169.5508355,-77.48648341,-179.0749894,-99.98073657,-110.7295717,-153.5486988,-124.2211127,-140.0789114,498.1820287,-119.782524
341.6159998,1334,-1.00E-10,0,76.07421885,-50.40607467,-40.99679532,-8.139876784,324.3551434,68.03330805,-2.996441393,68.70617526,39.37496706,-6.822092798,51.76450442,50.73689883,104.2089862,19.55246334
341.6239998,1334,-1.00E-10,0,-73.508505,-204.0383307,-188.2827122,-159.0375664,182.411973,-92.06623789,-55.03476101,10.64133432,2.521754874,-50.47780318,-0.47930322,-21.50687675,574.4612726,-1.811663869
341.6319998,1334,-1.00E-10,0,81.82789305,-28.80239753,-10.16394684,19.06681918,328.0016339,79.07815969,-76.04290992,2.673750178,-35.70948009,-75.59428453,-31.60210653,-34.00607924,226.9473905,-61.30633245
341.6399998,1334,-1.00E-10,0,0.730644773,-132.6810813,-121.4587836,-90.23162051,256.8435532,-24.66695022,32.33893248,108.5616309,78.0977129,34.86400713,88.66492254,93.73759917,331.5867124,82.88136036
341.6479998,1334,-1.00E-10,0,-38.966484,-159.9285619,-182.3654929,-145.9744841,184.2871219,-63.63388096,-162.5842077,-90.7870693,-116.4386498,-153.1009563,-87.32786128,-115.0253971,464.4645254,-110.2893857
341.6559998,1334,-1.00E-10,0,95.75007689,-28.35271691,-12.96101655,-22.58586434,346.7009222,85.61073313,6.665951251,82.57280348,25.27176501,-6.638050331,58.85998922,58.47560464,70.90177249,39.52928743
341.6639998,1334,-1.00E-10,0,-67.5408933,-197.8590505,-195.2167073,-142.9937872,182.1190045,-83.78294979,-76.43461991,-4.998890795,-42.64736468,-79.88352589,-36.92778655,-24.50422476,509.0714315,16.00383485
341.6719998,1334,-1.00E-10,0,83.99682076,-38.82501646,-18.3865158,40.99338538,314.2655228,64.01905904,-91.47905945,-29.17585345,-88.86766507,-123.8756476,-44.21275368,-55.38658472,139.9830168,-47.58644247
341.6799998,1334,-1.00E-10,0,5.84434388,-140.3382886,-120.025947,-95.24432152,261.8466127,-44.2270383,34.3746917,91.65791114,34.88954792,-8.131450609,79.2066566,75.0614298,233.3772056,99.23667093
341.6879998,1334,-1.00E-10,0,-23.66316646,-152.2676794,-179.1467756,-111.5534629,188.1637085,-71.047671,-162.9503899,-87.03607667,-148.6574634,-183.9504441,-104.180806,-113.3901567,374.4242158,-84.82642269
341.6959998,1334,-1.00E-10,0,117.1910736,-17.20951219,13.82547048,39.58300173,360.788723,104.2698919,8.673088446,97.2972011,7.580912517,-23.07436954,55.66799799,61.60495384,-23.95087259,69.84425956
341.7039998,1334,-1.00E-10,0,-55.22863374,-200.7022891,-176.7475012,-151.6925896,231.2761293,-61.78018142,-71.50045193,13.75058526,-46.83219412,-83.74187355,-32.30429629,-20.19947623,426.8513942,42.82973934
341.7119998,1334,-1.00E-10,0,116.788022,-16.64485989,-24.25006354,21.32974246,357.318314,92.62988147,-106.209908,-9.47294502,-93.12041084,-123.6195436,-35.60380849,-40.87553969,78.93301542,-36.62897187
341.7199998,1334,-1.00E-10,0,69.13474246,-82.00128134,-100.4168598,-47.56675242,304.8387089,18.09195033,46.70461983,149.1471539,65.09388004,31.71201738,115.8323674,120.6886167,188.6727774,136.0522598
341.7279998,1334,-1.00E-10,0,4.491386384,-130.0213998,-146.8603412,-60.74576149,242.6533232,-37.96660425,-126.3839291,-15.76086433,-97.57781159,-124.223623,-68.87973258,-64.31679504,354.1724742,-35.52878018
341.7359998,1334,-1.00E-10,0,134.5663989,-2.952488942,39.9582657,70.79413417,399.7726568,93.99892823,7.50944408,127.9376149,22.56215052,-1.621654376,68.90143602,86.38167594,-64.08325042,70.02490143
341.7439998,1334,-1.00E-10,0,-18.78206313,-161.7135013,-180.989157,-111.2375747,242.4877286,-58.7776153,-66.9900451,49.89697651,-27.95026338,-57.85608013,5.077257495,18.10537903,384.5553389,50.58475862
341.7519998,1334,-1.00E-10,0,114.3670924,-14.41966296,-41.30228376,62.30711747,361.0163181,94.37364517,-85.28628004,31.51805732,-65.12048677,-90.78556986,-6.678577612,-17.04108941,39.18347197,-2.974188137
341.7599998,1335,-1.00E-10,0,27.3195701,-111.7938882,-69.34979227,-22.98495772,297.1529942,-6.868019039,16.17222269,126.4381285,37.94791515,4.252106259,82.8301909,88.01882079,96.45492331,126.6664563
341.7679998,1335,-1.00E-10,0,-14.30083321,-130.2071482,-118.3997087,-67.74782595,222.5968958,-46.56140848,-177.8328275,-58.42440764,-142.2547709,-169.2801275,-109.7147529,-86.57060737,256.3126997,-52.5029003
341.7759998,1335,-1.00E-10,0,144.0751765,14.38596884,58.17706277,57.71652361,396.4989613,98.2464432,11.68919864,133.4155258,28.52761933,0.161260202,89.85048551,88.73571438,-135.060199,95.66184754
341.7839998,1335,-1.00E-10,0,-33.44140939,-170.0694625,-166.1811851,-107.9854148,213.4858903,-85.71488763,-58.93727182,46.79771789,-26.10221715,-62.02903078,0.858633728,4.922149253,305.6035594,54.50258064
341.7919998,1335,-1.00E-10,0,94.02126291,-23.95274451,-56.22191527,56.3479329,313.4104906,69.2615802,-111.9670655,1.712951109,-95.57744085,-116.7617331,-53.65990232,-21.42135974,-43.20144087,-36.79146271
341.7999998,1335,-1.00E-10,0,19.57310803,-118.5731708,-74.77947151,-58.48733788,269.6071302,-15.44831757,4.486331482,113.2424166,22.97370484,-4.532463288,89.92204921,69.50457719,17.44764142,98.02344905
341.8079998,1335,-1.00E-10,0,-32.56191238,-144.9039372,-131.1523514,-96.91960308,187.419405,-49.15362529,-185.2027205,-81.45578289,-155.2155019,-182.1233295,-108.2720113,-126.2871276,169.843488,-90.22197932
341.8159998,1335,-1.00E-10,0,118.3335192,0.946423553,28.55344555,44.31907815,360.4525636,110.1383964,-11.57756133,104.3579672,3.89349902,-13.19742409,51.11713073,80.88228336,-230.3791207,59.69053373
341.8239998,1335,-1.00E-10,0,-57.81492399,-184.5200346,-158.3658289,-129.9398642,188.962646,-78.26485165,-88.78350169,26.40420749,-54.56314854,-68.62082349,-23.88998919,-13.7392369,207.7210691,32.20030346
341.8319998,1335,-1.00E-10,0,90.28356688,-16.3210948,-35.32784024,53.98080601,296.8107813,72.16282674,-129.9181257,-19.45246813,-115.8351797,-124.0249521,-65.01725107,-61.00282638,-138.1388898,-55.77311795
341.8399998,1335,-1.00E-10,0,48.53032195,-76.21172277,-58.87988394,-34.92198502,279.0034964,10.49428143,16.01846952,125.9510369,36.2455083,22.57484317,86.64182418,94.70208682,-55.68935337,110.9022468
341.8479998,1335,-1.00E-10,0,12.23134705,-92.60398411,-96.88325099,-41.58452536,213.3260409,-9.567122215,-152.9284912,-37.35348785,-119.5923247,-126.1631466,-82.91578817,-74.50492513,140.3984864,-43.33370784
341.8559998,1335,-1.00E-10,0,139.2845711,25.89503379,31.60244136,90.88520351,347.6950037,118.4909414,12.5966477,118.8164724,23.08117002,15.15497474,84.82199969,78.23770807,-256.7855515,96.60402027
341.8639998,1335,-1.00E-10,0,-51.78799393,-166.6982775,-131.0864063,-151.7671078,163.7163721,-83.49475481,-84.75712136,8.092359253,-59.05207924,-73.28983209,-6.673412159,-19.02042256,162.8873217,41.59764346
341.8719998,1335,-1.00E-10,0,119.5558223,33.07830613,71.98575457,67.94377207,314.3727335,109.9897966,-103.8644034,-2.662950219,-97.38975318,-101.5496243,-44.19069761,-27.41493425,-167.4070469,-25.50325772
341.8799998,1335,-1.00E-10,0,63.97149097,-51.3652431,2.810907704,17.23871819,276.2624195,38.93267123,55.39352626,150.851331,63.96510876,51.68473789,116.991086,112.6973369,-86.8870131,150.9378299
341.8879998,1335,-1.00E-10,0,3.632495475,-96.44874251,-90.48892406,-71.44888769,184.3734251,-17.33270834,-136.2542288,-56.5953383,-125.3063686,-140.9602278,-51.38848502,-70.121761,90.92113272,-54.10169934
341.8959998,1335,-1.00E-10,0,142.2100647,48.68478269,70.17504869,69.61657113,342.0662933,129.6499789,30.63031618,108.2307266,19.77892113,5.789915199,89.27863143,92.94823903,-306.5490906,76.82600267
341.9039998,1335,-1.00E-10,0,-57.42751643,-155.8417787,-125.6316415,-138.6826001,133.0972609,-90.11214174,-69.16389775,7.577395697,-54.84543181,-71.04278844,-28.46027186,-33.60002392,114.7134321,33.69899612
341.9119998,1335,-1.00E-10,0,110.6945341,28.64293847,8.359299841,32.35398942,261.1902882,79.01560645,-97.30581701,-20.55209502,-102.822595,-115.6510362,-33.58746545,-33.88778518,-231.4392826,-49.52868755
341.9199998,1335,-1.00E-10,0,64.43512415,-36.75472132,-14.53673939,-4.033922124,245.1324952,31.42347632,64.58407899,138.326775,61.73592905,42.75034733,123.8952256,113.1634907,-160.4150123,135.5032813
341.9279998,1335,-1.00E-10,0,-4.812087408,-82.48767805,-65.54818644,-71.74473191,160.4068856,-16.62484967,-143.6048095,-66.04502697,-136.7322259,-147.1395581,-107.5381697,-109.7971377,35.69201614,-45.96391439
341.9359998,1335,-1.00E-10,0,155.9600764,75.6450503,89.94161467,89.09894279,339.6601298,143.5408282,34.38676829,108.9772523,16.25210965,9.473746579,83.99482869,112.619378,-347.6952028,109.1545674
341.9439998,1335,-1.00E-10,0,-33.02269239,-120.885105,-58.72231352,-55.49195597,155.9683838,-54.54382298,-38.75872733,19.44576388,-37.85400595,-52.4238597,31.423893,7.847450228,96.32739812,85.28866734
341.9519998,1335,-1.00E-10,0,98.5913838,35.13747386,71.28125749,88.92795543,263.9467359,101.8604526,-97.11924974,-36.01541584,-114.0377398,-123.0206557,-52.65681945,-75.48410418,-238.0992471,-9.066070189
341.9599998,1335,-1.00E-10,0,59.48981164,-18.11026841,10.49646217,15.46139693,242.9144413,52.58641672,58.47175425,119.9404289,42.74202755,28.00218387,96.08832193,122.1795465,-188.5819807,175.0239944
341.9679998,1335,-1.00E-10,0,4.23661706,-54.08926974,-27.74072378,-7.064735166,151.4339256,8.474811404,-118.025234,-55.2184542,-124.6957824,-136.4756041,-61.8050667,-58.76631718,4.907681326,2.502420151
341.9759998,1335,-1.00E-10,0,133.0985531,67.23523238,88.28422997,124.7524168,292.0846737,139.8962487,44.84044159,110.395425,14.05865882,6.687907145,79.51965631,90.50276668,-402.6708162,116.9056406
341.9839998,1335,-1.00E-10,0,-72.47745196,-138.1352645,-81.79584292,-81.65917679,103.5475562,-57.88845354,-53.86838104,6.380780709,-62.44132218,-69.59380403,-28.84112431,3.088335535,7.2118438,56.63993543
341.9919998,1335,-1.00E-10,0,78.25097661,31.92045536,98.55871022,78.35627353,222.8004712,121.4136387,-104.866401,-41.13714713,-124.8187004,-123.8994971,-66.53372897,-70.58312493,-321.0832165,-43.81442387
341.9999998,1335,-1.00E-10,0,75.64287868,-4.243578515,15.72442666,3.277349476,219.5691229,69.03002927,88.87753289,133.8801992,67.88986074,56.22325847,110.6475651,102.5607296,-255.245629,133.6849628
342.0079998,1335,-1.00E-10,0,7.329925131,-51.16093611,-37.72303343,-71.94695983,128.460013,-2.306294437,-86.19492346,-43.64054301,-92.85924109,-99.22506258,-72.62482164,-52.14936654,-37.0027567,-43.16879968
342.0159998,1336,-1.00E-10,0,106.8526169,49.3682418,150.2929447,44.60253154,243.4966445,117.9723747,30.03360623,86.45865682,7.941276074,12.60386476,59.20456261,60.72706366,-448.7933394,59.84564021
342.0239998,1336,-1.00E-10,0,-63.28838634,-126.8671617,1.586359858,-99.20654621,77.50962756,-58.12026359,-44.94206089,-2.293411955,-55.02686627,-56.39572772,-20.60302642,-40.5528688,-39.79811108,22.13739321
342.0319998,1336,-1.00E-10,0,104.2907913,61.70818046,149.8367352,98.60257981,230.8412006,132.5127084,-69.95346555,-24.69915701,-97.01583791,-92.05365278,-46.24889942,-60.45126806,-339.993583,-42.37686638
342.0399998,1336,-1.00E-10,0,57.58255181,-6.137516386,69.89921135,11.52655963,201.141481,74.27297181,79.65238691,123.5753028,58.82085305,60.23320634,108.6540228,101.87026,-266.767052,139.8617819
342.0479998,1336,-1.00E-10,0,-13.42146721,-55.12916827,21.24257072,-27.08167139,108.002769,0.101050854,-103.2361158,-69.63970456,-115.9570901,-114.3543064,-82.66641309,-87.72256766,-44.76059291,-32.90935459
342.0559998,1336,-1.00E-10,0,131.3187476,86.91230932,186.9738201,107.9408317,276.2610032,153.3285608,49.59218271,84.69636921,14.20712647,18.29168408,83.91589061,71.24646096,-450.2489908,94.65043685
342.0639998,1336,-1.00E-10,0,-43.05299178,-89.21812596,9.822511047,-68.88300143,102.1240874,16.13979085,-10.94115326,20.21719764,-27.39433719,-23.49949512,19.05669523,11.34009676,-19.13905044,79.66259977
342.0719998,1336,-1.00E-10,0,98.85111774,75.86447872,163.5265166,116.9150328,224.4945178,186.0996622,-41.77892039,-15.91736582,-78.53177958,-71.56011536,-37.91101972,-56.21443289,-313.958356,0.334847113
342.0799998,1336,-1.00E-10,0,46.12394101,-1.177060583,97.23163645,-16.18491677,187.521306,100.0812462,101.7820224,121.0708294,65.49943128,64.43281285,109.9130145,98.86448651,-277.1093695,146.9834135
342.0879998,1336,-1.00E-10,0,-21.59299054,-48.85003286,35.79243666,-74.88311576,84.19646668,36.37899737,-90.91191087,-71.6855787,-114.7366718,-109.3626033,-82.12108996,-60.47155829,-76.65008953,-67.07769935
342.0959998,1336,-1.00E-10,0,162.404987,127.7560493,213.8706059,120.4671208,285.4786067,200.2119427,99.8549465,110.3856133,51.65174684,53.73166216,93.35721519,84.69686168,-473.3587249,62.63426792
342.1039998,1336,-1.00E-10,0,-0.704912681,-45.39859946,54.41488397,-81.16281019,114.9020411,25.94028189,70.43574267,72.66972233,44.2449172,40.17645315,64.78277888,34.06747516,-9.643708396,71.92582053
342.1119998,1336,-1.00E-10,0,91.39997837,72.84925975,198.9329645,57.10679345,185.3989218,138.0526796,-26.9128489,-16.45963039,-62.78510309,-53.64396562,-14.57588301,-28.973831,-310.3454508,-46.69999277
342.1199998,1336,-1.00E-10,0,33.46570956,-6.996093175,94.12645947,-33.81824786,156.942699,60.91427993,92.60932083,94.06975367,53.97310436,55.44567095,98.14905613,80.18081594,-306.2817402,96.51862157
342.1279998,1336,-1.00E-10,0,-16.03697435,-41.13826615,35.7930533,-91.33843834,75.04567316,26.54035715,-79.16465106,-84.48983429,-108.6859305,-107.7638784,-83.83266138,-98.78849665,-86.9611792,-69.71756688
342.1359998,1336,-1.00E-10,0,137.4622617,113.6872006,263.1463309,89.3092289,258.1804336,186.962868,67.04453236,63.77810286,21.24548572,25.87068682,84.82943279,60.74923025,-486.5040483,55.66098977
342.1439998,1336,-1.00E-10,0,-36.66550895,-65.69468439,46.5255985,-79.35339387,104.2546995,23.0094467,18.5490104,9.359517229,-5.668951432,-5.311356377,27.66168382,2.761370005,-55.90151948,61.71408128
342.1519998,1336,-1.00E-10,0,89.32564676,82.06817511,174.0452505,89.66617183,206.1186393,147.8534582,-33.99248355,-45.21423646,-76.13274209,-70.07760019,-42.57894741,-40.62732167,-359.0093069,-27.55428793
342.1599998,1336,-1.00E-10,0,31.5458696,11.41069555,165.3534529,12.89564941,170.2937614,74.04464917,101.5715782,85.77652546,57.85830105,59.56812499,112.1197087,97.41776806,-355.9402288,126.5367701
342.1679998,1336,-1.00E-10,0,-34.22294679,-30.17297501,62.71546906,-74.41767847,73.70033138,60.37629832,-82.16971831,-90.74285952,-111.5246553,-100.0980492,-80.08021568,-94.95609717,-142.8758614,-41.33762787
342.1759998,1336,-1.00E-10,0,132.7751593,123.1547988,194.2150856,61.38423421,236.5076937,192.1411272,83.41825375,68.21631953,29.2672774,42.67411961,68.77712946,70.80436136,-559.2488656,68.56671311
342.1839998,1336,-1.00E-10,0,-43.17080266,-69.46871058,-4.333364439,-133.3726444,52.94650208,-22.68244358,35.75692851,5.560055099,0.048839717,4.779896027,23.85932613,12.34132344,-138.5983735,33.81673948
342.1919998,1336,-1.00E-10,0,96.74683138,98.50623177,155.1675507,43.58955508,172.8864283,153.9646744,-26.16277351,-36.78465451,-69.73892419,-48.81524572,-40.44668628,-41.93193874,-420.171596,-61.78067284
342.1999998,1336,-1.00E-10,0,52.39612631,27.01345912,129.5020155,-28.32947691,160.8573365,81.67011901,124.9326244,108.3512484,74.05784995,92.80812683,120.9776548,93.37004288,-406.1114829,96.32736044
342.2079998,1336,-1.00E-10,0,-47.93895161,-59.39927896,24.157065,-125.5790694,56.49280586,4.691654385,-71.64813829,-101.4698047,-116.66247,-98.58420367,-75.1232515,-109.0033988,-188.6157469,-99.82765844
342.2159998,1336,-1.00E-10,0,112.6455659,105.2295637,221.1933107,55.83856885,236.0520382,197.6126962,69.25151761,47.40546359,5.137614126,29.89979529,60.1189154,61.1416324,-589.3219243,28.54377342
342.2239998,1336,-1.00E-10,0,-60.68459512,-81.81796893,61.66170135,-143.6245598,61.34494616,11.74443879,17.66426591,-17.96944857,-37.14308376,-16.72251785,9.82126487,-17.27070842,-156.6853277,33.38083732
342.2319998,1336,-1.00E-10,0,64.52321947,62.78358262,184.1265169,-17.51524022,172.0507019,144.5515979,-35.37101115,-84.56973212,-120.674871,-97.29920841,-44.21774055,-92.55741489,-436.7992651,-64.7606801
342.2399998,1336,-1.00E-10,0,26.43468237,5.542004061,154.2497086,-60.06607912,159.5469272,83.70857954,120.7988562,62.85441291,27.27188248,46.06443478,115.5149271,76.50450502,-412.4372898,103.9295388
342.2479998,1336,-1.00E-10,0,-73.83268349,-73.94491982,69.41897914,-133.2491155,31.02493303,-5.591954465,-82.10935524,-142.185508,-167.4307366,-141.3323677,-103.3527942,-125.4413112,-185.4525157,-89.81877129
342.2559998,1336,-1.00E-10,0,91.07567325,91.95795214,207.7400129,58.92446508,192.2288567,168.0399283,73.09237393,4.448843602,-42.46690402,-14.25565401,48.1189637,9.138331639,-629.7648147,17.09904156
342.2639998,1336,-1.00E-10,0,-70.12563182,-72.98926269,-0.352626277,-130.0869614,8.068229722,-17.47583511,46.92792528,-31.37987855,-51.58941078,-25.80953454,20.11630539,-20.3394947,-221.8530073,31.62537371
342.2719998,1337,-1.00E-10,0,72.60224795,99.11793551,174.2528334,-29.62051106,127.589787,149.1939526,0.020930649,-60.34211919,-107.3262628,-67.27038856,-49.62813515,-38.06907247,-483.378836,-58.01613105
342.2799998,1337,-1.00E-10,0,79.36570136,73.05558886,185.6535218,-31.49416347,175.2570812,162.2009631,187.1432384,119.4236553,78.94329634,110.0069216,138.0955979,123.9642328,-454.7467786,130.0340746
342.2879998,1337,-1.00E-10,0,-24.22631529,-19.9108045,71.26472807,-106.6807268,35.49314164,51.56881106,8.233330066,-74.90311676,-90.79217702,-62.37476866,-45.93360015,-83.42523901,-211.9519944,-48.39550589
342.2959998,1337,-1.00E-10,0,96.63920225,104.7947866,205.4882836,-23.11737497,163.2660995,164.6011805,126.3958618,44.50355037,1.362995197,30.73355877,70.38400237,55.21412955,-655.0487646,18.96289879
342.3039998,1337,-1.00E-10,0,-62.23252765,-73.30730179,42.67436049,-196.1177533,28.89763215,-11.95197382,65.71764572,-23.95775069,-36.61769844,-15.31435266,14.79035091,-4.830291835,-247.9203578,7.520766328
342.3119998,1337,-1.00E-10,0,77.1752571,79.01055162,203.4575549,-27.67752268,129.1015217,138.4493733,2.578267657,-92.05817876,-107.5884646,-82.14558575,-52.56568278,-91.9874494,-505.7914554,-91.69331155
342.3199998,1337,-1.00E-10,0,59.77887555,38.48899618,191.6649996,-75.0144018,121.7533674,113.2852227,174.6111818,66.5320856,53.60562457,72.20594965,122.5090933,66.57304731,-501.9529906,80.04560676
342.3279998,1337,-1.00E-10,0,0.004323118,-10.61381715,140.4010856,-136.6901478,43.2985685,45.81268971,1.83535155,-105.4447526,-110.4981099,-86.14624357,-56.78866356,-85.05102898,-246.7996392,-66.27476718
342.3359998,1337,-1.00E-10,0,176.7728812,150.9700999,300.4954736,42.11886759,223.6702968,208.3324135,156.0096988,46.18962582,25.44743759,47.71888969,108.7047652,56.99113527,-650.0915494,68.27103181
342.3439998,1337,-1.00E-10,0,-6.192435398,-47.60852585,86.37224015,-151.7354797,37.46058157,15.73230254,119.9680931,-7.523884879,2.451003849,10.8890956,71.19964794,-11.0838537,-223.6109194,80.82571551
342.3519998,1337,-1.00E-10,0,104.7818862,94.37383349,215.6512417,-28.69368316,107.5306328,143.475003,31.6178642,-81.74668739,-103.7184023,-86.33744031,-39.2128937,-67.37083035,-482.4141446,-33.70512347
342.3599998,1337,-1.00E-10,0,75.75554603,43.09325601,176.9196906,-74.44534612,93.61163275,83.80976176,184.4273961,73.82289255,41.59399217,53.21251273,114.7225375,97.23756378,-495.8879868,126.1529074
342.3679998,1337,-1.00E-10,0,-7.629021987,-27.40744024,92.58639407,-173.470777,-22.8867055,3.198942683,11.21285348,-100.6588878,-123.2013817,-109.7715531,-65.54267697,-97.29841951,-263.3020739,-43.43481193
342.3759998,1337,-1.00E-10,0,158.7824739,139.5750031,277.6688807,10.87467252,143.4701832,189.6037193,148.2382195,51.6382407,-1.364432835,19.08995504,70.19663154,35.63254018,-698.4942281,73.36694576
342.3839998,1337,-1.00E-10,0,-29.31128519,-58.64239183,98.19279938,-178.2896724,-32.57968421,-18.53070111,102.759698,6.66810159,-23.48025625,-7.17902511,17.34943379,-5.578780465,-294.6932694,69.68343106
342.3919998,1337,-1.00E-10,0,110.6983141,105.0816367,241.967156,-100.2994932,74.25098601,128.8806058,28.49624142,-62.69268843,-110.4969395,-86.32330729,-60.23939541,-57.24217897,-565.9358522,-60.70658431
342.3999998,1337,-1.00E-10,0,102.8361781,67.19726948,228.6030626,-133.4779993,92.39238672,98.55107937,199.151584,107.0599606,62.38807293,80.22570246,131.3756461,104.761541,-563.693897,125.3464396
342.4079998,1337,-1.00E-10,0,-11.89814844,-35.10131176,143.4930158,-236.8497668,-35.45640018,-26.83780243,13.70668811,-80.21034357,-109.1310402,-92.02798753,-63.96623834,-100.202225,-296.6029175,-53.3976603
342.4159998,1337,-1.00E-10,0,163.820747,144.540592,332.9121403,-96.21457109,135.6994397,167.6768756,141.0779265,49.54089328,-7.396280395,12.03279412,61.39330536,40.10193925,-735.9934328,32.19241499
342.4239998,1337,-1.00E-10,0,-5.651540938,-41.19048411,150.7075007,-244.7097229,-33.52237235,-9.400374718,119.2205894,15.28744724,-11.16028376,0.389895387,44.82236276,10.24293968,-314.7672537,62.9256974
342.4319998,1337,-1.00E-10,0,105.5088276,92.67547672,284.3146973,-120.6767528,54.65652673,113.978683,45.88592745,-55.90390349,-96.63748761,-82.05129288,-36.79644443,-69.79737049,-552.0889936,-55.09980365
342.4399998,1337,-1.00E-10,0,112.1852729,77.02520801,302.87363,-161.6164497,87.75473185,107.4409235,207.1352719,108.9183161,64.86671073,73.23930372,135.4785602,101.1040122,-553.062758,116.2495953
342.4479998,1337,-1.00E-10,0,38.20914552,17.49291273,220.5605799,-217.3119403,-12.92340023,33.61893636,49.35640578,-56.16723481,-79.1066927,-71.03522399,-25.22083324,-63.94665749,-254.8985566,-26.21174576
342.4559998,1337,-1.00E-10,0,177.9290219,168.1528508,368.6005077,-81.87975773,127.712332,189.0312957,188.43277,84.07523717,33.80627499,45.64633465,107.9697509,82.06582162,-665.7733486,76.95195435
342.4639998,1337,-1.00E-10,0,-34.01092972,-52.95198279,187.7938396,-312.7327316,-63.65279201,-41.36456125,127.5614178,20.2130089,-7.91625846,3.04169185,35.96520468,37.27787348,-256.7680474,66.99994417
342.4719998,1337,-1.00E-10,0,97.36096248,96.52199386,326.8347991,-156.6258582,42.13312047,96.63849748,38.29301882,-74.65646132,-110.3594009,-95.44498619,-58.72456235,-79.1797791,-478.0590916,-70.51325484
342.4799998,1337,-1.00E-10,0,105.5732624,84.75206114,286.4070409,-169.8463611,56.91182781,90.24594332,217.7736143,101.5921821,63.93899258,72.42207228,141.966941,86.3726992,-442.3965245,116.6845212
342.4879998,1337,-1.00E-10,0,-4.146334234,-5.988945706,195.7198706,-271.5763837,-61.88240372,-4.462325489,40.88544837,-71.32361772,-96.44108328,-81.97601076,-50.29844443,-63.56064725,-89.98834764,-37.27796998
342.4959998,1337,-1.00E-10,0,151.0940024,152.4130801,373.5190259,-105.4496442,119.5425609,193.681743,160.2401122,52.01369333,0.356182254,18.17436342,60.00751386,58.4806489,-454.9809348,47.47119601
342.5039998,1337,-1.00E-10,0,-16.49933813,-26.17648478,167.1291436,-285.6955768,-46.63448071,17.78689646,126.3919252,15.70543633,-14.58072473,-3.609574791,45.46293246,20.95519611,-32.68269163,68.57648206
342.5119998,1337,-1.00E-10,0,88.90614368,106.7736567,317.0577679,-162.1065681,29.55456794,118.4845443,46.75768156,-63.94098019,-104.1380601,-88.62994307,-39.91285738,-61.55840238,-257.0014658,-45.99143574
342.5199998,1337,-1.00E-10,0,65.42131153,61.72058084,288.5069704,-212.2934337,30.83437155,75.72527007,204.0776376,85.33182895,48.05125,55.11218844,115.1227327,86.56869408,-281.515915,121.3954821
342.5279998,1338,-1.00E-10,0,-14.7830314,-11.3924756,166.0219857,-294.054978,-82.05165482,-16.46038393,15.27381975,-104.0798018,-125.4037882,-117.2879311,-75.61774149,-102.2863345,-20.4997561,-49.9585486
342.5359998,1338,-1.00E-10,0,168.2345037,176.8212668,387.9134541,-99.2658283,105.9915597,164.9580597,160.0643252,45.39057609,0.992307876,16.1955555,61.71414481,36.5663499,-435.2188379,50.43379937
342.5439998,1338,-1.00E-10,0,0.463967664,-1.78111964,201.797009,-265.6644659,-48.51439195,-9.356113021,159.3954868,38.0169094,20.90021713,32.99571831,77.5430039,36.50418761,-20.93179325,97.14857851
342.5519998,1338,-1.00E-10,0,102.8631219,121.3570951,293.4303457,-145.7819879,24.65666616,103.8087494,62.01274761,-60.38617419,-89.0701523,-70.23370853,-14.25730943,-46.48288053,-268.800973,-42.05519887
342.5599998,1338,-1.00E-10,0,70.63619863,77.69767392,287.2981262,-208.188811,17.74907069,72.47887488,199.9188776,79.70780622,48.021011,65.32470042,107.3944997,92.32628765,-321.991939,104.239531
342.5679998,1338,-1.00E-10,0,-26.23137943,-3.952715444,178.6156958,-287.4837007,-100.1760791,-12.62207242,21.95528743,-97.14642436,-111.3177,-93.96346496,-67.12484096,-92.17424311,-53.99872682,-45.94528841
342.5759998,1338,-1.00E-10,0,162.8926004,188.073826,383.2577149,-82.90703758,99.86041721,173.4930874,164.8703609,50.17854311,9.413734956,29.27741004,70.27276923,56.30355329,-473.8086129,53.11597565
342.5839998,1338,-1.00E-10,0,8.293957335,19.47652714,231.2999417,-236.152632,-45.10841808,13.34567126,155.2582757,42.44588087,22.91894927,42.81257646,56.10331307,40.7463182,-56.73371711,92.80393649
342.5919998,1338,-1.00E-10,0,119.4778866,141.2564705,308.1887436,-86.7112999,23.41623082,136.09152,73.76008609,-50.32686106,-69.81445196,-48.50367138,-7.725116179,-45.61698491,-278.1967409,-19.65062976
342.5999998,1338,-1.00E-10,0,115.201824,123.5337074,305.4032352,-141.7148023,43.95274184,119.5350223,237.4703911,105.5202923,88.65140538,102.6689959,143.1457761,127.3488738,-321.8817964,153.7337046
342.6079998,1338,-1.00E-10,0,35.87762581,60.51404475,220.4757945,-237.6099999,-57.50338623,44.59280138,67.87937106,-54.85317295,-61.69044468,-39.56452874,-29.34644206,-41.9850267,-35.7802605,10.06754869
342.6159998,1338,-1.00E-10,0,197.0629619,216.0423809,367.502045,-45.40239558,101.262567,197.754697,203.1058169,79.76810712,51.89081793,75.79234493,119.3664384,97.62359016,-458.5437894,101.275551
342.6239998,1338,-1.00E-10,0,-10.80735111,-1.375834076,183.407595,-250.033548,-92.45825391,-23.17524694,158.9902375,23.70962399,27.13929923,42.13217456,67.70855255,38.64174448,-87.45763667,94.46215656
342.6319998,1338,-1.00E-10,0,91.49911315,120.309601,277.6529397,-117.6952922,-31.50872165,93.40373448,45.57114656,-91.46154309,-95.2956311,-73.27295871,-42.06064958,-90.34907362,-348.3014683,-64.08372763
342.6399998,1338,-1.00E-10,0,88.70181196,97.72505799,261.4460236,-139.5657663,-10.19231281,69.83456252,215.0711071,81.59840001,72.6645113,93.59898268,122.4835412,88.26318223,-403.0628314,109.1380642
342.6479998,1338,-1.00E-10,0,-27.63937293,-3.657297845,162.5613447,-266.6094431,-128.838901,-35.80569381,31.57343658,-104.7004997,-96.22697854,-74.1292042,-73.69093742,-101.1001902,-127.4813991,-56.85792072
342.6559998,1338,-1.00E-10,0,145.8494773,170.2910646,323.7510205,-91.017938,35.31490012,152.0067754,148.331714,5.853789412,-4.609323362,17.28526561,50.10847893,26.55475876,-575.7495293,19.95231735
342.6639998,1338,-1.00E-10,0,-13.03748609,0.482037431,153.2106945,-265.0302396,-119.8474169,-38.93086741,141.7194746,-4.47772971,10.71263956,27.18888426,52.77742566,24.1443935,-177.907934,63.60522286
342.6719998,1338,-1.00E-10,0,110.5509177,145.7325262,298.2021942,-110.5231364,-5.088736623,106.9169891,60.37785384,-85.83810587,-79.02037814,-62.13720311,-35.36680611,-82.62955611,-395.5571963,-54.97704937
342.6799998,1338,-1.00E-10,0,116.6793504,135.9488228,309.9729827,-97.29730896,20.57219534,118.6938547,241.7828253,89.56402667,97.85121731,102.5410545,142.203241,96.14950987,-444.5855862,139.7030467
342.6879998,1338,-1.00E-10,0,0.414957327,34.20410112,170.4857447,-213.2034856,-127.8638293,-15.52146641,62.67060282,-90.16564862,-65.29713845,-60.05772538,-29.42570592,-71.69039669,-153.106908,-23.05524382
342.6959998,1338,-1.00E-10,0,188.2259347,219.8822942,349.2356044,-27.44397578,73.96795286,177.8036175,182.2448032,31.45258614,29.53254956,35.88723496,81.76194543,49.26627339,-594.9593467,43.27127063
342.7039998,1338,-1.00E-10,0,35.97150461,53.03211223,208.6051851,-181.9758924,-65.3604555,21.47354374,201.2909686,38.66183664,64.10148201,62.23046627,108.0286205,58.75416929,-185.4195925,106.9799671
342.7119998,1338,-1.00E-10,0,124.078133,165.4578083,308.8169889,-61.90641485,-6.030608716,126.9772643,101.8565172,-60.17279804,-46.54711944,-39.78345783,14.6000127,-40.86931242,-402.5226196,-29.64432025
342.7199998,1338,-1.00E-10,0,109.6283101,130.131012,288.1883676,-97.26288885,6.512902754,86.41723074,251.398404,82.16176198,96.03827026,98.08854138,145.947533,105.8804539,-490.3851755,120.7496336
342.7279998,1338,-1.00E-10,0,-10.40870209,20.63772877,150.2683733,-233.4923389,-140.6025244,-38.26288029,81.37123118,-98.87034092,-61.85288984,-60.34264236,-16.52411524,-70.31389839,-204.4392329,-37.0638066
342.7359998,1338,-1.00E-10,0,154.0494088,196.7582909,307.7514012,-56.74223722,30.95685659,173.2671476,172.4066749,2.13784986,7.721325559,17.29239726,74.57425373,31.29468304,-654.3040632,20.18846494
342.7439998,1338,-1.00E-10,0,-18.74574012,17.57754796,139.5998154,-226.448979,-135.1854245,-13.01203728,152.9822977,-20.74099779,9.55301574,16.92757344,45.95406934,8.178027237,-267.8022335,53.6037935
342.7519998,1338,-1.00E-10,0,92.81631086,152.3086231,260.6041388,-91.75577589,-50.34731366,113.8517067,81.66606419,-92.92428391,-70.76949851,-57.68126291,-17.7512408,-58.75381579,-465.1505543,-55.97224713
342.7599998,1338,-1.00E-10,0,105.9738335,146.8104169,272.8598824,-76.66373367,10.27686745,130.5011493,249.1253829,71.07394374,89.66585526,101.5267053,138.8741063,114.9740676,-531.5258196,124.80534
342.7679998,1338,-1.00E-10,0,-29.26011885,19.36880641,136.8585144,-202.2581241,-161.2858724,-41.52556601,58.45491571,-127.6052086,-85.89565515,-67.58683881,-53.65944752,-91.64151892,-233.3919582,-48.7467991
342.7759998,1338,-1.00E-10,0,132.296195,182.7045984,306.9421822,-48.97331393,-8.176852693,125.6129677,164.6853451,-22.02728598,1.145874492,21.19798393,63.90759043,10.91482191,-684.77921,9.897910898
342.7839998,1339,-1.00E-10,0,-24.69368557,11.59026406,133.5099179,-236.7703004,-141.1705984,-34.51592463,148.5179156,-56.14347621,0.571224923,9.078404035,41.62061124,-10.72036339,-318.1930338,34.57770408
342.7919998,1339,-1.00E-10,0,94.3305101,151.9262944,247.5917465,-126.3322663,-58.95973818,85.59388328,72.03181425,-136.8409241,-92.65322345,-76.13268812,-37.6945853,-79.95668991,-509.7138432,-92.65801327
342.7999998,1339,-1.00E-10,0,111.6796382,149.2729638,285.8270953,-110.5577285,-9.61393171,97.5362757,270.8873907,58.26754993,97.09077939,110.5731643,156.1495927,118.9349639,-568.9148351,105.9704688
342.8079998,1339,-1.00E-10,0,-11.0353285,33.0102834,146.256906,-189.8639408,-149.4714865,-30.62198346,89.5386183,-138.7251685,-70.39493762,-63.85555967,-34.07363372,-88.26179652,-262.8220913,-54.43088294
342.8159998,1339,-1.00E-10,0,147.1872603,200.7350168,307.8235542,-25.47323208,9.287083475,148.7622411,207.8097915,-23.25120608,21.19434218,26.95268711,83.11763278,25.43794651,-696.1580775,23.03646091
342.8239998,1339,-1.00E-10,0,-58.73213173,-11.84226092,120.6147882,-246.7464282,-173.417677,-57.19095813,177.5049763,-59.92449995,5.566224807,6.837621445,48.90648329,-7.82057356,-352.6789281,44.83017824
342.8319998,1339,-1.00E-10,0,32.14371744,96.89782812,188.7077362,-135.5495963,-125.2085231,37.72177193,36.98758669,-201.3406817,-146.3784456,-139.8146509,-92.57855915,-141.7593447,-593.5561074,-130.9388704
342.8399998,1339,-1.00E-10,0,65.10997448,112.2939412,218.0936172,-130.4325802,-76.95544944,85.68034704,230.0463555,-16.12111777,37.0655897,37.6622888,104.6038848,62.04947869,-668.5427431,62.83087464
342.8479998,1339,-1.00E-10,0,-42.78436675,19.62969776,121.9135402,-233.5139554,-195.4839424,-23.28645171,64.65141428,-187.649082,-110.2593454,-109.059302,-59.0237861,-114.0282621,-344.2456361,-76.11449092
342.8559998,1339,-1.00E-10,0,150.6207357,217.0780728,315.2087323,-12.49847765,-0.642842716,162.5755548,191.6915048,-55.46539522,-2.355716368,4.989946768,62.85274695,7.191382069,-763.4889595,7.22509183
342.8639998,1339,-1.00E-10,0,-16.23797977,37.62162929,148.8800907,-171.5941057,-151.8542399,-2.561016054,212.4420605,-45.23044507,34.25663153,39.35477958,68.8557553,18.864789,-379.3783921,65.06905332
342.8719998,1339,-1.00E-10,0,66.45246627,142.9043664,223.7577332,-87.58735613,-102.2701286,70.86989697,86.68242076,-168.9642576,-101.3761379,-86.54449961,-57.33130266,-107.5225017,-580.3983982,-96.16507262
342.8799998,1339,-1.00E-10,0,88.66363954,145.7768892,224.1612282,-112.6358692,-70.96938607,71.25496143,264.4268445,8.13909592,71.1392416,82.03528745,128.7499667,72.75760965,-667.7838922,76.97162104
342.8879998,1339,-1.00E-10,0,-21.87953567,50.09117066,129.2005813,-200.4522991,-189.9554063,-26.47712995,100.5720331,-167.0031462,-73.33888722,-62.96575868,-44.12033357,-96.02817318,-343.7400462,-62.70088556
342.8959998,1339,-1.00E-10,0,174.7633072,253.2628173,344.1798094,24.49030918,13.58487591,172.3823966,218.3054786,-49.13664062,22.27720447,36.75928954,72.94342368,34.76764533,-753.7673458,23.26417506
342.9039998,1339,-1.00E-10,0,26.13770949,84.7946135,172.6751234,-140.3327155,-125.1277005,16.74465188,256.7112441,-19.64246091,73.99313616,79.76393947,109.1683,60.7432388,-352.8362817,100.715574
342.9119998,1339,-1.00E-10,0,88.47609537,168.003598,258.629285,-55.23877353,-78.04194691,83.59891964,140.404404,-139.2635215,-53.81497274,-42.60557847,-20.34796576,-76.87606488,-538.1422021,-54.58554119
342.9199998,1339,-1.00E-10,0,89.95210152,152.0469474,266.9821908,-57.58128205,-64.57571698,68.86417946,285.7046065,4.12938529,81.6593844,90.43958827,131.5050907,74.13059342,-655.2183156,91.16346482
342.9279998,1339,-1.00E-10,0,-24.15101676,47.222923,122.8119739,-150.5753885,-201.5427999,-4.826067835,109.0839873,-174.7787439,-81.10845415,-69.98859126,-47.52745665,-97.68828019,-352.4258239,-53.95796559
342.9359998,1339,-1.00E-10,0,137.291139,214.38235,290.77478,-8.044332119,-19.91317486,183.6929457,205.8669096,-79.09694847,-8.642157345,5.425626871,49.47901395,8.380094251,-794.0167764,15.89861688
342.9439998,1339,-1.00E-10,0,-35.6347131,27.58946044,125.4742921,-208.2304884,-182.0946889,-10.49824296,201.5843555,-97.63967518,2.997761693,3.778122198,61.1565494,0.930667305,-435.6161345,60.83403886
342.9519998,1339,-1.00E-10,0,51.32136214,136.5653418,217.5413928,-68.27233405,-127.0300704,80.67800297,92.75130517,-204.8021625,-112.2007964,-106.9516198,-61.50537921,-113.6199249,-614.4532185,-86.71707096
342.9599998,1339,0,0,74.13433209,138.0639407,214.9174426,-67.93507035,-87.31963173,72.85480911,272.6687967,-27.84578257,60.45612354,63.22137641,109.9862321,62.27018307,-715.5835475,80.07990707
342.9679998,1339,0,0,-53.94441741,21.364177,90.28263727,-203.6670608,-240.5545404,-51.5450741,92.42953573,-219.9020924,-106.5268979,-103.9543606,-66.22125487,-127.5559059,-400.9402481,-82.36819149
342.9759998,1339,0,0,107.4970737,194.8662055,288.0795897,-23.57515844,-67.26324589,126.8631989,190.708541,-120.5774749,-32.11564201,-22.58854206,24.99975998,-19.24340082,-829.7117537,-25.44254157
342.9839998,1339,0,0,-42.28856452,30.13563031,110.562623,-181.4557226,-206.7385025,-45.46045553,211.484865,-106.5924194,7.721167115,13.19262205,47.20043028,-0.79423086,-448.3073336,38.12203486
342.9919998,1339,0,0,52.640569,142.1378837,198.1609897,-64.51871431,-146.9867703,60.6609258,97.56352717,-222.0625581,-110.6041087,-98.68534692,-64.46461287,-122.5117474,-599.9901043,-109.0589321
342.9999998,1339,0,0,77.87840939,153.8038262,245.7089362,-62.75097459,-84.68491999,88.75626998,271.4535855,-52.17229261,56.82925139,62.5192471,108.5499604,56.19690602,-691.4077161,70.04947568
343.0079998,1339,0,0,-31.82781976,61.58909485,143.6679854,-165.5268106,-205.642337,-26.4504978,114.1187923,-214.0823043,-83.43395165,-81.19672161,-58.27821448,-102.2375117,-348.8767736,-49.58609024
343.0159998,1339,0,0,128.8090677,223.0025544,292.3362295,19.4785452,-54.06514207,129.5391032,213.3504417,-110.7139804,-6.734558834,1.994568909,35.95058063,-1.035514785,-773.1771163,7.130925134
343.0239998,1339,0,0,-40.60797968,37.2109285,99.5275806,-148.9379229,-220.0062128,-19.44521599,215.6829883,-117.3925743,8.691595259,13.78374287,46.32392143,-3.221312942,-425.5329569,48.23691744
343.0319998,1339,0,0,57.71260173,160.1006222,216.7638239,-42.73153896,-149.5768322,106.3615708,106.2630929,-227.2818089,-112.2552849,-99.94300566,-65.14759705,-116.5446005,-594.0072511,-87.58524948
343.0399998,1340,0,0,72.8831676,150.2854381,222.8296948,-75.76444673,-105.1002103,94.02277384,280.4888185,-52.43115692,51.8065829,64.11530701,101.810148,63.91371634,-705.8589895,81.65183356
343.0479998,1340,0,0,-51.08785314,29.44226312,79.06201027,-188.190608,-251.6758174,-34.30366662,104.7547056,-235.7632019,-109.7281158,-98.37410672,-77.25795575,-111.2268199,-362.9800042,-70.04910859
343.0559998,1340,0,0,149.4374228,231.2889612,302.7857382,37.64781715,-50.19003562,161.2028684,218.8809816,-123.8268333,-23.84258656,-12.11888747,38.18212194,-6.431900351,-740.7234614,8.712021995
343.0639998,1340,0,0,-8.957218808,54.77232061,134.7102086,-139.3011625,-198.4835851,-14.03326687,246.0062033,-101.7595526,15.07826008,22.22556093,62.48447184,12.17084788,-341.3834711,80.8590907
343.0719998,1340,0,0,66.16574757,149.2373489,185.3871058,-27.69054573,-167.9837882,75.57754821,117.5004508,-224.3690943,-120.4618974,-105.1730751,-76.11860246,-112.7537383,-499.8664968,-71.59817969
343.0799998,1340,0,0,111.9914163,172.2968226,210.1431664,14.58485692,-94.58092038,103.7233248,298.222378,-42.17723014,51.80077933,62.03459558,106.1481984,61.54974135,-616.3336678,119.0985875
343.0879998,1340,0,0,-16.1347697,52.66535714,79.59035875,-126.8170079,-232.9417961,-26.87436781,146.9429984,-194.2511903,-80.31412556,-70.95373816,-38.70262462,-93.59909914,-267.6731058,5.360897622
343.0959998,1340,0,0,142.9794852,217.8108168,261.1040878,35.66898231,-67.52109772,145.4108572,224.5972038,-106.4273624,-21.76248917,-8.650457376,43.73761573,-3.250405177,-717.1637877,47.48937444
343.1039998,1340,0,0,1.276537918,67.4004336,122.3989933,-113.2672087,-191.343987,-0.102189591,237.2923977,-88.62658132,9.26989027,16.52005095,59.01548865,15.22750927,-381.3100059,110.5311952
343.1119998,1340,0,0,95.54593414,190.1709191,225.4368582,14.28719451,-131.525347,113.8109525,142.236556,-170.9907545,-87.6948289,-71.32254642,-45.75156114,-67.35481458,-514.8382252,-7.350897713
343.1199998,1340,0,0,120.0102933,189.5891041,237.6816838,44.43847841,-74.83369986,150.9447468,317.9512331,1.074580754,81.6128502,94.4547942,128.7969148,97.12091625,-635.128663,165.8568236
343.1279998,1340,0,0,-27.15208594,51.73248065,65.56279077,-90.54336807,-237.8729035,22.584241,137.9053043,-188.8949173,-81.65966791,-71.75332797,-38.04785861,-95.72778933,-313.9871177,17.08539381
343.1359998,1340,0,0,131.667586,222.4376639,237.3158163,63.69607221,-88.558258,170.4062303,213.9826391,-98.42750221,-23.89124927,-6.287505601,42.7590002,3.893287485,-776.7437021,52.48143002
343.1439998,1340,0,0,-9.400786445,64.58328492,95.73692007,-116.4400914,-213.6710363,9.100920134,230.3772928,-78.65249909,13.53613963,28.88455732,47.87585095,21.21930217,-438.4815317,108.8549868
343.1519998,1340,0,0,87.21020147,181.4746772,190.582676,12.09235632,-140.7191394,129.9309052,133.8268472,-181.1638205,-92.82511311,-75.72420675,-49.48882553,-74.73370044,-550.5572066,-15.41146402
343.1599998,1340,0,0,96.63128556,171.8648582,213.5829018,29.26019449,-96.40325118,137.6315529,315.5860237,-1.50108227,78.30828144,90.85199542,144.2257726,103.4365592,-663.2726483,168.1052703
343.1679998,1340,0,0,-73.58114317,13.2931282,47.11717958,-136.7641922,-280.0115439,-20.62596872,104.2442463,-203.3063126,-106.4285821,-89.68451071,-70.72362325,-110.129161,-341.0781365,-6.017914192
343.1759998,1340,0,0,105.1778902,198.1288805,217.8121823,50.05781724,-105.3579439,157.7308777,172.7872761,-127.4049029,-56.89320535,-37.94938264,-3.536817439,-27.75735761,-787.8364722,20.65258252
343.1839998,1340,0,0,-21.89161104,52.4893932,63.18585728,-97.6810533,-213.9436059,13.12581107,231.8654557,-81.83115464,16.90813025,25.09051702,53.79552155,19.87693007,-426.1158707,113.4481411
343.1919998,1340,0,0,54.52746263,153.6243097,143.6609716,0.446960221,-175.8189213,102.6843736,110.9098826,-196.4685961,-103.6240331,-85.56242336,-69.74182976,-98.3419058,-550.6124776,-34.35321112
343.1999998,1340,0,0,78.8715863,161.1863183,176.830016,2.414200927,-134.8326401,116.4631257,272.4499274,-26.98269196,52.03876509,73.0905751,99.47007037,59.23793651,-696.6721433,123.8762913
343.2079998,1340,0,0,-51.38326886,40.73910882,37.85430596,-129.2176421,-277.7359438,7.328491294,120.1742596,-184.7231363,-84.47115481,-65.254066,-62.44531198,-92.03030904,-347.2340284,-12.01267484
343.2159998,1340,0,0,127.0130684,223.301406,216.2406437,72.91162525,-114.8984343,176.8698866,211.0276071,-90.85398113,-13.53853391,6.821523047,28.82443565,5.357135676,-765.6758259,27.27236265
343.2239998,1340,0,0,-25.28341402,48.81388432,51.50174406,-94.82249626,-250.2377355,-1.230281608,227.6997591,-79.37579959,24.61619931,38.75154398,61.07267636,3.635520038,-427.0836845,80.78637312
343.2319998,1340,0,0,65.5619754,163.4932968,155.8471454,1.723097959,-168.9291224,142.558465,113.684866,-189.5758509,-92.54834961,-72.83947156,-61.1726455,-94.63008436,-530.6977064,-59.43592055
343.2399998,1340,0,0,103.4300006,182.1829461,174.0708768,25.80538098,-112.422118,167.6200834,309.7649684,5.641969482,90.45892064,107.9361063,134.7715839,99.02782604,-628.8967219,143.2017535
343.2479998,1340,0,0,-66.61257126,20.70613362,-3.300984238,-101.6549167,-291.0140762,-5.905484557,121.2491729,-187.9692789,-79.58637133,-60.41724655,-41.51496676,-96.30059528,-280.4262708,-9.780363883
343.2559998,1340,0,0,90.91290184,192.6997276,207.0370965,84.32156976,-118.6252664,189.7612729,177.4813479,-122.0417771,-39.98681723,-16.03358022,10.89439586,-25.05791251,-723.1719432,9.115552434
343.2639998,1340,0,0,-61.75091665,28.04641603,45.53315521,-108.5529735,-253.8577873,23.36440344,198.5837175,-104.5457092,-2.330953067,15.44236638,32.57143022,-8.603053133,-390.2195396,76.24533008
343.2719998,1340,0,0,20.10207648,137.2652459,127.0280427,-4.019300157,-193.2895312,119.4638733,82.87005347,-211.8235102,-121.2801989,-95.47199557,-79.89689473,-108.6346342,-498.8571332,-67.84190231
343.2799998,1340,0,0,67.87198357,164.8925412,161.2312419,35.07417016,-130.4658582,136.3935992,276.3093764,-10.94512267,65.03656298,90.00216954,110.0597883,79.08733957,-621.6311348,117.3654257
343.2879998,1340,0,0,-70.22966948,29.8733738,-19.84430038,-113.7742268,-305.8949306,-15.86110364,106.3764002,-188.8861365,-87.39624218,-66.12976265,-60.36740672,-101.1473583,-268.0050151,-39.15227834
343.2959998,1341,0,0,127.0581769,238.2583091,200.6011325,90.51743907,-118.6348503,232.8512125,215.3971865,-76.81829538,0.681154664,20.91520107,41.68258815,21.39712609,-678.1194717,19.08904391
343.3039998,1341,0,0,-36.9878364,53.18632053,39.19133002,-92.95961146,-259.0740373,42.14719639,246.0727502,-48.02909251,48.62327111,63.01666122,69.63936768,42.31940317,-332.9726978,105.4784361
343.3119998,1341,0,0,19.94619563,122.969746,83.49223598,-5.066675151,-222.0027369,98.11551498,82.88004513,-211.0668628,-120.8407268,-101.4940276,-82.72717752,-119.0599118,-459.7424895,-90.65339656
343.3199998,1341,0,0,97.42215125,183.8353031,161.437096,58.9835391,-122.3659055,205.3263052,293.8434185,-7.006410815,77.93842052,89.28924568,128.0738454,85.41544581,-588.1402717,106.0890689
343.3279998,1341,0,0,-66.661166,32.26721957,3.407959968,-125.580476,-287.8061272,31.09741911,136.0616234,-165.4160976,-57.22792719,-43.33160534,-36.94225875,-77.98213559,-213.4936308,-2.663411217
343.3359998,1341,0,0,73.5652076,182.8112524,165.4668546,39.95496752,-140.1374952,184.5465893,171.1102133,-119.3314876,-40.298117,-20.25984783,3.703967488,-18.06939673,-658.8256594,-0.693752023
343.3439998,1341,0,0,-65.03011699,28.0881688,4.601033757,-93.03148352,-268.6094365,55.89563531,199.7179627,-101.4022342,1.073782612,8.306239818,34.97404804,9.777463019,-332.6778628,70.60577425
343.3519998,1341,0,0,-21.16454679,97.98602548,59.36108268,-10.98755263,-234.8523246,109.903912,67.94339286,-225.7426168,-134.2161744,-117.9196575,-101.3014463,-123.8892595,-420.2593665,-76.42110632
343.3599998,1341,0,0,14.42538813,118.5150923,103.0439357,23.23597216,-169.7167593,142.3785156,226.1025623,-54.72559331,15.67064108,35.02663274,59.82279272,43.5826905,-584.2671184,80.27502819
343.3679998,1341,0,0,-86.32274086,22.1314536,-50.59786354,-115.4914128,-305.6797321,26.81149171,76.59264978,-210.0608697,-113.6287369,-100.3444408,-88.40128746,-114.8106387,-232.0202621,-48.50882223
343.3759998,1341,0,0,119.0241373,235.0842594,171.7963385,87.5274964,-109.1385123,223.8307082,199.072787,-83.13566922,-7.613402953,8.782058156,40.06786043,9.533032399,-629.6716668,18.09452256
343.3839998,1341,0,0,-39.66410361,51.96598391,20.50993973,-79.47128784,-254.1248042,39.25176873,247.0836612,-38.31952,58.32370024,71.26656163,90.36496898,60.36541232,-294.7504409,95.56100898
343.3919998,1341,0,0,-0.495855496,110.0673089,52.17453848,-30.77207914,-245.331126,77.09914308,90.17926187,-201.7714009,-104.2237633,-89.72859593,-79.50115004,-114.8320762,-409.8157154,-102.9321617
343.3999998,1341,0,0,76.34874874,179.3883725,148.6864422,47.10426778,-147.4094325,165.3769199,273.9693116,-14.70982047,69.29399413,80.00270273,112.8196655,58.24467245,-568.2221445,74.07536841
343.4079998,1341,0,0,-40.99729084,69.9696256,3.513578691,-58.8654952,-281.9209062,84.72613557,146.2527964,-133.2269623,-35.99554107,-23.77434618,-6.305881332,-51.21945248,-159.1428583,-4.069138082
343.4159998,1341,0,0,110.3444333,227.1632493,168.423465,106.4466199,-118.8777964,260.7402209,220.6772834,-58.51251454,15.97406663,31.23400695,59.72970948,34.50802501,-562.2815418,34.12973053
343.4239998,1341,0,0,-49.28272033,56.10137989,43.3775988,-72.23907723,-236.1552105,96.78719257,233.98297,-53.65350578,45.56104503,55.03137473,72.18048229,40.39349774,-255.6483325,100.6395651
343.4319998,1341,0,0,-11.43884786,120.04929,66.38004881,4.742840293,-213.7088464,149.4681033,80.4622935,-194.7619677,-104.5251107,-84.14576098,-80.18898955,-96.44752049,-330.4217402,-59.34801109
343.4399998,1341,0,0,30.4811908,140.5903055,89.3514831,67.12443895,-153.0933437,164.420706,243.1387742,-30.87106777,47.94589201,67.32593377,93.5636531,61.12016741,-509.2338971,89.04707526
343.4479998,1341,0,0,-102.87028,15.40195908,-42.49483837,-77.76193882,-298.495022,25.37853628,91.30630586,-189.5353966,-85.7787005,-71.31303596,-61.13022454,-104.1802681,-159.4760476,-37.86387472
343.4559998,1341,0,0,73.34436441,205.9900362,145.5228398,85.83963811,-123.0097691,204.7422556,180.9472797,-86.86420048,-16.74533206,3.856259418,21.47681882,14.70286902,-575.5122279,3.981770031
343.4639998,1341,0,0,-65.27245173,45.76366925,-5.312757267,-78.58669335,-251.728091,56.19942801,229.8573868,-42.53489115,45.6566466,63.23814038,73.76552973,51.03769064,-263.4157514,73.42763478
343.4719998,1341,0,0,-23.19018934,110.4118575,31.22299021,-6.536883114,-241.4093482,136.1373826,86.86535889,-190.8521631,-99.6677203,-75.40755609,-81.2799523,-111.5116475,-334.5965607,-102.1237296
343.4799998,1341,0,0,30.83927131,149.2976254,88.99596518,31.68636397,-174.6849356,182.1909481,251.6942932,-20.21651335,58.76245142,83.39473806,95.30677716,72.91866689,-512.4483012,58.07450961
343.4879998,1341,0,0,-109.2477842,4.431999031,-69.9968999,-114.0937781,-343.8129981,-0.525121668,100.4149944,-175.9555477,-72.28669834,-52.12846233,-48.93514703,-87.87742433,-145.9012532,-71.35773981
343.4959998,1341,0,0,67.32622716,186.6695874,102.4799637,83.51584916,-169.3753729,163.794432,175.0859961,-106.9037148,-22.51666566,-5.376443832,13.70690628,-34.71289536,-561.7103217,-60.75103412
343.5039998,1341,0,0,-65.40905964,40.84534142,-23.67322105,-81.57071339,-271.9099106,63.53571793,218.1117751,-62.95157458,41.47863705,53.25417488,73.31438538,11.66866863,-246.8763247,32.55599312
343.5119998,1341,0,0,-16.81232484,107.2688967,32.05123506,-0.907518008,-244.4423693,133.0054731,69.14660637,-199.5245291,-100.2682973,-75.47315801,-75.00889398,-115.8327262,-296.5142275,-106.0216911
343.5199998,1341,0,0,60.97756953,169.1071837,121.6720168,86.09507155,-140.078403,188.152508,251.2136039,-24.70817155,68.15153141,90.07571718,98.97205281,63.44364395,-456.8005831,68.98765927
343.5279998,1341,0,0,-87.13765548,33.81512381,-30.86761007,-51.80680376,-296.0256304,55.33525797,117.3409271,-165.7980626,-49.94665861,-30.47757922,-25.39763443,-81.74218909,-61.55072737,-32.81162475
343.5359998,1341,0,0,73.90316776,206.8232954,134.4978875,151.4979049,-137.0505391,221.2855488,179.3827126,-90.55801706,-8.77838829,21.40001871,30.99670698,-9.129417084,-475.7399586,2.863238986
343.5439998,1341,0,0,-72.22942944,43.57601856,-12.8391547,-21.16246184,-257.1379527,71.41491691,211.5349099,-67.16094091,38.07854141,61.82065575,66.86840601,22.09604008,-184.7873533,85.14462401
343.5519998,1342,0,0,-54.30878262,81.53690166,-15.96047395,0.311744812,-254.4848091,107.98609,49.15917431,-228.3436717,-124.1370171,-96.80561008,-80.90794446,-131.423613,-262.9805091,-92.89432697
343.5599998,1342,0,0,20.17654675,138.9122585,59.524023,67.89492072,-163.9639543,159.3048339,231.8653675,-39.8198622,47.1518001,72.67297536,90.93599239,51.46043872,-466.3256476,64.12561602
343.5679998,1342,0,0,-101.6576103,22.34729134,-52.76551457,-66.06768392,-309.5263344,44.32328519,107.8793808,-168.9004284,-55.38580595,-32.13702516,-46.6930646,-80.48055343,-74.81294019,-53.31566346
343.5759998,1342,0,0,62.49599686,197.0402696,109.5153079,107.8804253,-152.9896575,227.9242657,171.1675349,-98.48615077,-7.153097472,22.91133802,19.375397,-9.300479772,-474.7340089,-44.09002131
343.5839998,1342,0,0,-65.37527368,51.15681469,-35.08323318,-49.21235468,-276.9569604,63.80372217,219.8676642,-53.01678182,59.05546415,83.40803753,73.11882229,19.19611058,-186.8224984,37.77153722
343.5919998,1342,0,0,4.768752244,136.8590809,31.23702498,20.41174032,-237.8143649,124.0534514,98.02761248,-173.8102698,-62.06980161,-33.75531133,-52.45735117,-102.4549212,-227.1898245,-111.3034655
343.5999998,1342,0,0,80.79550293,195.3294546,103.4232039,93.14873925,-122.2238377,201.098736,287.4953794,15.48621772,118.0076944,143.516095,143.2570574,101.7824,-387.9755751,74.2827673
343.6079998,1342,0,0,-59.13883306,62.66065884,-63.53403485,-39.57942556,-279.4313009,64.78545507,136.906619,-135.1540925,-9.304829428,15.23914889,7.738540497,-53.69696959,8.043400755,-27.22612081
343.6159998,1342,0,0,99.51948748,235.4277041,121.7499449,141.5027178,-131.2266594,232.110514,198.3366695,-58.01687821,32.63297463,66.94216554,56.90248187,25.96473658,-401.7873408,-0.558879782
343.6239998,1342,0,0,-54.02254523,69.00151212,-16.3534737,-6.798874446,-243.9058066,87.63082726,234.260494,-26.08006387,80.91562909,109.5630499,85.30380578,64.35415099,-112.611359,87.19770016
343.6319998,1342,0,0,-19.83210094,124.5649001,-5.05084859,74.304177,-223.2325687,157.2111327,68.46763987,-195.9006618,-84.43491376,-53.55692752,-63.61293226,-105.6808136,-152.3966658,-73.3017398
343.6399998,1342,0,0,18.59118974,147.0467924,63.9617902,107.5514024,-151.453808,174.1678482,228.2199479,-33.20479989,64.8156116,93.79001114,104.5569454,64.11264816,-352.5770996,95.94495404
343.6479998,1342,0,0,-141.2117853,-9.075251196,-90.96206916,-73.91487431,-318.3962596,14.57668491,57.41026358,-203.0547256,-84.19227825,-57.7267035,-71.15848901,-104.6227248,10.53186607,-41.17290698
343.6559998,1342,0,0,37.7127097,176.6508735,57.8109549,110.1667073,-169.109688,223.2141265,110.9703929,-141.9790208,-50.32072526,-17.86237863,-18.39971861,-48.47529792,-404.6229314,-44.28050709
343.6639998,1342,0,0,-69.88819345,44.2135858,-63.3048447,-33.57928412,-278.5560581,63.57191932,180.9941399,-75.4129745,35.51295822,61.57266452,54.22800648,7.459357493,-107.7134992,46.50497904
343.6719998,1342,0,0,0.765714817,130.8638865,-10.56488378,34.02200172,-238.3245816,113.3400659,61.41174495,-192.7451859,-77.98427012,-47.97143093,-73.40383614,-112.2289353,-129.1529342,-114.5022658
343.6799998,1342,0,0,38.19007115,155.9342375,29.39230036,58.44595324,-171.9213673,150.6129385,247.535513,-6.049797989,98.65223471,127.2785382,118.0201861,85.20219758,-323.1564433,47.23603755
343.6879998,1342,0,0,-132.3690426,-4.853634029,-124.7608055,-100.2619499,-350.027881,-10.93243637,64.31797535,-189.4022252,-62.78366351,-36.83095417,-61.73053728,-103.0842132,35.39238834,-97.95783248
343.6959998,1342,0,0,76.00779178,214.1796037,99.2242126,130.0967308,-147.5778573,223.2006982,115.2895115,-127.2493712,-30.53662532,2.146839312,-18.90123573,-52.19862263,-384.1877018,-79.22239579
343.7039998,1342,0,0,-39.23488666,75.60272762,-19.83121422,-13.2474421,-229.1287367,88.27187039,215.8845258,-36.95626858,80.98933635,105.7875404,91.19380168,40.9728509,-52.48403575,62.8805962
343.7119998,1342,0,0,-3.837437021,132.8784068,-12.44523245,43.44540038,-223.1188407,127.0433336,76.85431483,-180.6423733,-60.46143022,-34.10101166,-46.0893827,-95.75899687,-56.39060541,-92.78533068
343.7199998,1342,0,0,69.10006341,189.443365,55.64135437,105.1508001,-138.3114135,180.2743167,245.9647641,-4.917358344,96.75596556,123.345057,120.1650594,80.41654919,-277.1565881,70.73927497
343.7279998,1342,0,0,-101.3079248,17.23200689,-113.4046356,-53.73891212,-307.0052846,7.168264223,92.98002912,-161.6154756,-33.26286761,-8.422722214,-25.88781477,-73.39168984,118.6154006,-44.22507558
343.7359998,1342,0,0,58.34212518,193.0822042,47.33567286,121.9986551,-148.8307726,203.345667,119.3163899,-127.8921243,-23.08364265,8.190265485,-1.240811758,-37.92962296,-300.9772475,-49.56958897
343.7439998,1342,0,0,-60.89037486,56.80904078,-58.95584995,-19.48791929,-249.1713585,70.62390332,181.5126002,-67.19953499,54.04482417,80.00824748,64.5003752,18.68304734,-26.28881328,51.93185671
343.7519998,1342,0,0,-25.44480254,110.4578227,-22.4923608,57.89687387,-245.1566136,121.3047162,51.26491352,-204.4211257,-76.51303412,-48.42827592,-63.75566683,-116.094502,-27.01231113,-102.5401215
343.7599998,1342,0,0,36.96942546,159.6129252,30.01331665,81.57772511,-171.1486866,162.9814685,213.3076886,-36.35359485,76.55585236,105.7342858,85.13600572,56.76371338,-268.4779417,49.9437546
343.7679998,1342,0,0,-112.1650358,6.187184254,-122.7494082,-66.88498019,-332.5263917,-15.67342717,57.8697994,-186.3952838,-56.32092426,-27.86719803,-70.6941807,-95.51894165,106.9049616,-87.2498903
343.7759998,1342,0,0,78.70011576,198.5716807,74.95813578,151.4283117,-150.2487855,189.0872302,124.2791799,-118.4419305,-13.5649,17.68163147,1.290546889,-37.84350419,-288.9124706,-72.03317264
343.7839998,1342,0,0,-51.7958868,45.26637437,-64.59437516,-45.56305605,-264.0711788,33.01442281,198.8932727,-47.56951776,71.74004337,98.99574165,74.26108877,31.52333847,-26.72086999,57.63822793
343.7919998,1342,0,0,-10.56366026,100.5104397,-31.4817048,21.18488805,-255.4671077,78.60455553,44.17622387,-200.7049542,-88.57220825,-56.51269791,-84.69038249,-115.8002666,-58.26366949,-112.8525977
343.7999998,1342,0,0,73.18925359,162.6491668,65.99926665,111.4988778,-150.9409433,148.8001443,238.5341452,-13.26621705,82.12057763,107.8011069,103.4300009,61.74847026,-285.0165087,65.97909193
343.8079998,1343,0,0,-113.0292081,-21.95089315,-122.5257256,-79.39910349,-349.1691673,-54.60886005,85.47174895,-165.8690775,-52.13936092,-28.0152857,-55.27228596,-98.47813979,108.7255071,-39.39695266
343.8159998,1343,0,0,75.30121702,175.5085233,44.77553489,127.2080639,-174.19803,159.2372637,105.9719806,-130.9327907,-53.30618729,-24.09216019,-40.05802773,-57.39683596,-308.419458,-47.69035923
343.8239998,1343,0,0,-36.47091184,39.46696023,-82.4702702,-9.317028845,-261.6412392,32.88013622,203.5600251,-41.34783434,51.31536007,68.44126656,68.75803144,31.14748695,-27.72320561,102.4342859
343.8319998,1343,0,0,-35.75311524,61.78873241,-75.55322498,28.60604216,-292.5070642,38.63628189,36.0377682,-202.1709764,-111.0395851,-87.71205931,-95.79030865,-141.5601517,-52.22027031,-77.93845611
343.8399998,1343,0,0,63.3491491,155.8631274,44.12573024,133.0566016,-169.3150911,162.3246344,197.0331101,-27.65873003,41.81503304,65.47398519,62.13073458,33.35582058,-321.5964845,77.15155583
343.8479998,1343,0,0,-76.22639484,23.16384295,-84.474082,-1.353494816,-295.9008047,19.99559854,87.77568937,-129.1494441,-42.81808409,-19.3995113,-31.3486159,-58.96288218,110.387668,28.60351539
343.8559998,1343,0,0,85.18190914,190.0853566,70.94561552,186.9468796,-141.7583403,175.0390431,126.0078959,-72.90478993,-20.13279358,13.4543211,0.505516827,-16.00838638,-277.4234623,21.73853518
343.8639998,1343,0,0,-34.37198074,50.09725673,-63.53131242,22.92093379,-248.7769665,48.23451584,188.6789982,-15.94146576,54.95126673,80.13784546,53.20443715,31.87131777,-43.58002586,113.1825094
343.8719998,1343,0,0,6.492530812,110.6491311,-23.92290592,89.42628941,-231.8833566,83.45104492,48.12032063,-155.2381666,-82.68831799,-51.06034505,-77.33004231,-98.14175645,-34.64731007,-40.9892959
343.8799998,1343,0,0,83.38261582,171.5734219,59.82203578,194.4741557,-130.0126171,158.4603527,248.450929,52.84905417,105.1022516,136.7761911,127.3401621,108.1390505,-260.2317336,138.0826914
343.8879998,1343,0,0,-112.6080592,-14.27907592,-124.0376189,-47.09700484,-320.5391403,-20.27007079,78.7851735,-121.0012192,-43.83799805,-15.21173678,-47.33055398,-65.70359751,109.0889455,8.76552356
343.8959998,1343,0,0,58.45048041,169.6396138,58.80704879,137.5214675,-157.4628703,152.6461312,83.8705488,-106.9567268,-57.01370364,-19.45153979,-42.44838209,-49.17526904,-325.2865505,-26.85600907
343.9039998,1343,0,0,-59.00300983,26.72457309,-91.18309064,29.17017945,-271.385519,8.542604267,174.5027838,-14.88358568,49.37571549,79.57163074,54.63674372,34.11318423,-72.27159829,97.17863113
343.9119998,1343,0,0,-26.42480535,75.00212894,-92.38060787,35.74811392,-276.4135437,22.35022948,14.52417825,-176.2780588,-107.1288255,-74.29027549,-107.5972607,-131.7451866,-76.73833675,-86.07038821
343.9199998,1343,0,0,93.72495578,178.4198334,52.41836141,164.4203305,-139.5998737,128.8857052,218.383313,20.70243313,80.92868635,107.9857846,95.37877912,64.66149779,-327.4947305,87.2864647
343.9279998,1343,0,0,-91.22876577,2.259508355,-120.816972,0.410138732,-330.676368,-42.18275295,97.6436001,-98.39223916,-14.08184671,11.00894761,-24.5468077,-54.95376704,84.86821979,11.30069845
343.9359998,1343,0,0,66.619319,175.0428092,13.67015243,156.9693731,-184.9035793,134.7899572,98.53627129,-74.36081548,-25.88365814,13.53036233,-23.63416829,-30.50104803,-338.4675569,-12.8448703
343.9439998,1343,0,0,-44.82719404,41.20589335,-97.47378465,34.59344247,-271.6203284,26.2595404,175.028651,-4.102979084,61.11412847,93.86516787,54.1743315,38.75853493,-110.9281386,102.2382899
343.9519998,1343,0,0,-24.81421749,82.82462087,-69.66712745,63.47280187,-264.6767861,47.96885937,31.7339544,-158.353787,-84.18989566,-50.09184763,-90.29530801,-111.8262899,-85.34392701,-66.93783189
343.9599998,1343,0,0,75.02930809,170.5696978,30.98817839,161.6124816,-143.3913005,139.111877,212.0095074,28.6018757,85.50725241,122.7052586,84.69395038,75.82132141,-329.45402,99.6021056
343.9679998,1343,0,0,-109.6050858,-12.36307389,-151.27408,-4.88344258,-342.9626518,-44.43004197,69.03131729,-110.1678154,-31.32880453,6.67677491,-59.19708371,-64.72153734,75.05299822,2.441841412
343.9759998,1343,0,0,53.60646591,162.1147183,22.07632213,168.8825502,-188.3386782,111.3558837,100.782094,-77.07583314,-23.47933596,15.133054,-11.78874876,-37.34051585,-330.4538024,-29.12653495
343.9839998,1343,0,0,-51.25829545,41.12000003,-77.64513071,31.87347653,-265.0345486,1.496416363,184.0888973,0.726988667,69.38656476,98.97450977,63.22082574,39.84894732,-105.4499434,80.79444981
343.9919998,1343,0,0,-26.41714035,90.5987534,-65.7843557,66.30817015,-266.6444644,39.47798093,28.93882392,-149.5871004,-80.88458339,-43.50099367,-107.4271099,-103.1301842,-81.31989818,-82.15810172
343.9999998,1343,0,0,58.04010566,162.158614,10.28834192,140.3548017,-162.2541733,111.1810098,215.8227605,40.32355055,92.17533205,130.2855253,93.99102237,81.09081222,-330.0239281,92.13959405
344.0079998,1343,0,0,-123.372672,-21.69228524,-172.0253767,-36.30743734,-352.0069616,-72.21873849,65.59606315,-113.1395524,-37.40262764,-1.294178773,-51.60936092,-68.10010915,70.33373737,-15.0663647
344.0159998,1343,0,0,54.96820103,162.8453024,20.97319993,167.7861655,-183.9446464,109.7754462,93.6882766,-84.24589708,-32.9156921,3.480686729,-20.86807281,-40.15154954,-326.6921705,-39.46509296
344.0239998,1343,0,0,-72.36454701,12.71710207,-114.1478083,11.45332158,-282.1532431,-31.75392743,168.614621,-16.47264049,52.43879152,76.33983696,53.30118005,18.53965432,-101.7985651,73.8196761
344.0319998,1343,0,0,-61.78385564,46.39593563,-114.5207695,33.85640369,-301.9919336,-24.34028082,-6.072566704,-186.5520268,-119.4094849,-90.0696044,-129.5596542,-137.0526828,-72.66561399,-106.0090759
344.0399998,1343,0,0,47.94589573,145.8838423,14.56969356,144.6020356,-179.2432675,60.56446857,201.2335788,24.48758431,68.20818585,99.08825841,84.43889789,74.18445755,-320.937227,75.29114827
344.0479998,1343,0,0,-125.3029123,-30.886549,-169.8079993,-24.09213659,-352.0384425,-95.66524662,62.769832,-118.6503863,-49.95968405,-22.50633625,-60.76791753,-78.84146431,80.75273883,-25.27085713
344.0559998,1343,0,0,52.54998497,157.3110587,5.025496802,157.1724772,-180.6948574,130.7984446,76.91126631,-100.0425788,-52.85900888,-23.02023536,-44.11126254,-54.76763603,-313.847536,-39.33950931
344.0639998,1344,0,0,-40.84970924,38.66727572,-80.42680297,31.55998671,-250.1131087,24.73858585,192.7376724,8.455168902,72.77934293,94.47891016,85.46846377,60.7200574,-77.03676469,116.0870143
344.0719998,1344,0,0,-16.53620796,78.61844658,-47.76905225,96.52506792,-250.7300246,42.36502678,44.44329265,-145.9061065,-74.81850158,-48.66621332,-72.80301492,-96.02661913,-31.26766441,-62.34458745
344.0799998,1344,0,0,64.23111332,151.7027827,52.49237244,171.6380433,-150.7573438,115.7755909,215.6410179,28.37421754,85.39137956,114.2581642,96.01823484,76.65553555,-299.6558129,91.47069004
344.0879998,1344,0,0,-125.8402357,-41.12481296,-158.8154475,-37.65174311,-343.6451023,-82.75343306,56.94831392,-127.4281393,-44.44494508,-15.29005972,-54.65787816,-71.42924256,100.3053015,-13.98617653
344.0959998,1344,0,0,47.66498325,144.9789735,13.79184489,156.1673987,-181.4129448,91.0828503,70.20850895,-112.3145871,-54.22614998,-22.95103828,-26.21014634,-54.49311278,-292.4884217,-55.08743036
344.1039998,1344,0,0,-82.89520886,-0.565239231,-111.522663,6.839804311,-293.3314818,-52.87515496,164.1070475,-27.60118215,44.42645079,67.52582469,70.84707612,35.5032467,-88.17331915,71.13336091
344.1119998,1344,0,0,-83.76083671,19.94396978,-138.2699436,21.58335296,-331.0005502,-39.01069473,-28.03016744,-215.5180963,-139.1801328,-108.9413009,-139.9892692,-155.5082463,-65.69081544,-120.8465857
344.1199998,1344,0,0,27.11397913,122.505997,-19.24494964,109.8652192,-196.057149,62.52502551,151.9954533,-28.76822879,29.18313154,60.03925678,46.73021699,28.20524395,-344.4311567,39.34519054
344.1279998,1344,0,0,-142.2495002,-49.65910176,-195.6892448,-72.11900599,-353.0325743,-112.0172817,41.18154488,-145.0155387,-61.22131258,-35.71337622,-55.16983002,-78.07905576,72.97779088,-34.17376076
344.1359998,1344,0,0,60.69265124,164.5777543,15.96004429,167.9085759,-168.2053378,107.4620941,69.22160804,-115.0559219,-53.43613935,-25.46914079,-36.89295741,-59.21266999,-305.8317246,-61.36353941
344.1439998,1344,0,0,-43.63058216,41.27060152,-65.9176632,42.55513484,-257.6658247,-9.390892529,184.8450191,0.293760197,73.95411063,98.45104036,77.4456815,48.61115132,-81.53282239,86.01002886
344.1519998,1344,0,0,-54.3821925,44.22657434,-107.7405518,37.18415408,-297.0558429,-10.90413481,17.29057345,-162.3258414,-87.6411987,-56.03544553,-91.13808099,-107.071941,-20.59776427,-87.86853996
344.1599998,1344,0,0,72.27496845,153.973933,15.10145622,173.1037669,-157.7153186,102.2729879,200.3655027,19.62148841,76.85813546,105.132403,94.42434721,70.78222709,-300.9607785,61.15600001
344.1679998,1344,0,0,-124.6032569,-41.05743193,-170.5104061,-40.67923281,-355.5477205,-108.4253488,71.68992337,-109.9239325,-27.18014676,-0.670269709,-21.3265144,-68.94306794,112.563171,-26.34310024
344.1759998,1344,0,0,41.38847881,143.7117355,9.497797885,127.8053822,-197.3107073,78.72508343,71.26808498,-99.33413073,-43.59188456,-11.10812142,-29.65736055,-55.83271435,-284.0175331,-72.4503558
344.1839998,1344,0,0,-43.44809832,37.40165807,-77.62318831,42.65478458,-262.8694925,2.948573929,184.0549401,1.78020773,73.9035369,95.21056461,68.24951452,52.98237322,-76.23000662,72.14766144
344.1919998,1344,0,0,-65.87105113,35.11399128,-130.805546,26.31509062,-320.9835501,-7.33634605,8.141046558,-172.6052092,-96.27543642,-70.74911379,-96.8281085,-125.0415848,-5.316990195,-102.2909958
344.1999998,1344,0,0,68.15989216,158.2309614,5.117561548,147.82533,-167.1158717,107.9258247,194.049253,27.22308263,76.80361608,105.374683,95.32311796,74.85902656,-299.9067016,54.50986409
344.2079998,1344,0,0,-109.4461766,-25.88062266,-175.8153895,-21.32968577,-341.3145396,-67.20902432,77.58073645,-93.68918496,-15.62276904,10.98547382,-19.00850046,-46.56882999,128.3791476,-17.40648482
344.2159998,1344,0,0,36.59299446,139.2305267,-13.40955113,135.7405388,-209.3096012,101.3765124,60.04825836,-107.5908281,-51.37050288,-21.53361999,-30.52140498,-63.4236426,-262.0323974,-76.87583316
344.2239998,1344,0,0,-34.76863174,51.82671316,-72.97430076,33.97043865,-255.6329262,11.63388497,186.1705221,17.23575271,81.24909072,103.8492012,92.82997696,68.48006589,-76.36793098,73.78395535
344.2319998,1344,0,0,-40.18000174,62.08504884,-107.0735526,48.30495263,-292.9982874,12.74203175,25.33078382,-147.0029724,-73.93601194,-47.04960214,-68.45408752,-94.78259239,11.76767585,-88.09399695
344.2399998,1344,0,0,61.17471855,155.0754426,1.082998054,164.9825303,-180.2835074,109.0183009,198.1047978,24.32942044,80.65361688,105.8571053,94.63118978,68.7430591,-287.6292281,53.09867774
344.2479998,1344,0,0,-132.2821645,-35.16401474,-188.1876331,-51.95592867,-369.6695897,-87.3770507,78.8818972,-94.70559057,-14.90258232,10.25932278,-26.86452574,-46.65985202,120.872331,-32.00916604
344.2559998,1344,0,0,52.0458024,162.8224147,-15.95495674,126.157773,-200.2258862,134.3622025,67.26870219,-95.01592375,-39.19760224,-7.000233099,-27.93827928,-41.73851101,-252.6141967,-76.12225962
344.2639998,1344,0,0,-12.72844605,74.56641684,-73.92120041,81.09503858,-245.7310085,72.51311391,202.5146642,42.1704203,108.6682299,133.9763578,105.3919851,96.87811686,-38.03868556,101.7733932
344.2719998,1344,0,0,-49.70113684,59.38407105,-101.7929645,77.14587935,-306.4995975,29.50620146,27.75987261,-130.0006118,-57.02763711,-26.03459403,-66.06712605,-79.95437515,50.61660799,-78.40508783
344.2799998,1344,0,0,64.86640818,165.2313872,16.65743952,160.3414331,-173.9528095,142.321705,185.5596932,28.81304387,83.13508378,113.0661156,92.69146075,71.87543777,-269.8127936,54.55050462
344.2879998,1344,0,0,-104.4149004,-9.319853057,-164.8683072,-29.99258761,-350.2563557,-31.03187844,79.58066128,-78.74619258,0.211759712,29.88816053,-11.65330525,-24.87349229,154.6561033,5.149945658
344.2959998,1344,0,0,64.16222594,172.6319134,-7.517723981,150.6623979,-201.4713618,141.3692852,75.569032,-77.8063989,-21.16891172,15.29265534,-10.82641791,-19.45747123,-213.0189417,-50.7273827
344.3039998,1344,0,0,-41.93382414,48.96122411,-106.1398323,37.0763909,-271.5987427,43.3921177,192.7788058,32.25024928,103.6554175,128.7970705,95.60347811,91.62989009,-33.01901145,86.38393885
344.3119998,1344,0,0,-99.52824944,12.0249071,-146.9689586,17.4577426,-347.4464227,3.691919524,-23.18311913,-171.472398,-97.18470664,-64.88487889,-108.3262692,-109.1830268,33.11383263,-106.2059128
344.3199998,1345,0,0,40.99913136,134.1105577,-3.372850414,163.4812828,-199.6934633,110.4287568,126.0062416,-17.50301606,35.48707981,67.6932127,50.69041425,37.44673566,-300.9514738,16.42206241
344.3279998,1345,0,0,-110.2751559,-22.86178391,-172.0037848,-0.698352263,-355.3662268,-48.95463157,74.07309032,-101.5374155,-11.42782762,5.228211528,-23.21603038,-44.57452613,138.7187061,-31.38135273
344.3359998,1345,0,0,46.73308165,153.2752799,-25.45474683,138.9640106,-209.8015857,161.0465216,74.16802545,-88.043942,-25.29211908,-1.475578443,-12.79173947,-33.23569158,-212.1602427,-61.26202426
344.3439998,1345,0,0,-42.24823569,41.11492162,-111.483265,19.15788267,-264.6751697,63.70957741,148.927852,5.742967394,71.38784435,99.36706419,74.85973626,65.32322411,-46.14509664,81.25243675
344.3519998,1345,0,0,-61.41967127,40.77541349,-122.5661167,46.1211044,-313.4421371,29.85562481,-16.80066529,-174.0746679,-91.44409256,-61.24319473,-98.95895383,-102.4316625,36.45593178,-102.3035709
344.3599998,1345,0,0,77.42474347,166.7029452,22.64108895,176.812601,-177.0533009,154.141647,179.5819224,24.42099462,88.80319167,117.7541765,98.89563535,83.19658906,-282.9157362,52.39537124
344.3679998,1345,0,0,-113.6675246,-31.77524932,-167.3348253,-45.03443355,-361.1915963,-34.79092494,64.06746215,-92.14939268,-3.899603195,24.00692102,-25.29772887,-35.2064894,136.220682,-13.72349366
344.3759998,1345,0,0,32.32443981,131.170439,-27.29065969,118.1600627,-215.1187892,147.5502546,39.49067251,-112.3653858,-47.1748467,-12.30360296,-35.15275513,-47.1189795,-231.840533,-81.85907537
344.3839998,1345,0,0,-37.36111397,39.0225459,-98.29386897,49.58732006,-266.7670737,62.10731476,157.6824397,5.619518453,80.69876204,111.3073106,92.21138086,68.03973037,-64.25855101,66.55220195
344.3919998,1345,0,0,-65.27012861,34.04563747,-121.0591507,47.31657723,-320.2306575,40.63219844,-17.02846038,-173.2180111,-88.66419389,-52.84307359,-96.86474603,-107.3369565,23.75005448,-112.6542352
344.3999998,1345,0,0,58.53352576,154.282881,9.821472636,152.7254082,-171.9173909,168.4982125,162.5409736,16.31383376,74.69619642,113.1597919,93.08889626,81.52116018,-303.6102574,40.7074616
344.4079998,1345,0,0,-127.4785743,-39.99429713,-174.3290715,-43.79246861,-364.5907554,-25.11167594,52.86800782,-92.37004435,-12.76549725,23.46192096,-15.86969705,-26.6738267,126.0097757,-17.29881989
344.4159998,1345,0,0,25.35915023,122.1047805,-33.10529274,125.9938533,-234.5849208,130.8633901,30.27723079,-112.2512274,-56.02748461,-16.90719905,-45.36035002,-49.14419414,-241.6493746,-91.13609292
344.4239998,1345,0,0,-60.00105049,17.41514361,-117.5333681,20.39861392,-292.6863074,21.42388797,156.5428196,10.37723434,71.77827715,102.4833399,79.69514944,64.99421516,-95.04180378,47.40692693
344.4319998,1345,0,0,-120.5019193,-19.86478585,-171.9466643,-17.49334332,-369.7631344,-15.94900435,-51.72924265,-192.5432432,-132.7517975,-92.65841283,-127.7248497,-130.454752,-9.221211156,-146.8309474
344.4399998,1345,0,0,-7.617149716,84.14974719,-56.00210608,96.80830924,-235.2960627,92.7834606,95.48386913,-41.62639968,-11.35363423,36.22072247,9.557273075,25.77897086,-357.7537586,-15.47048308
344.4479998,1345,0,0,-174.5061186,-89.27739342,-221.9898919,-75.21324018,-406.1289102,-91.24184084,6.737972475,-143.4584446,-84.31912936,-41.67702415,-85.41223915,-79.48867639,64.69128413,-71.64258669
344.4559998,1345,0,0,3.466151325,106.4356518,-37.26415674,130.816953,-237.3086351,116.257454,3.961853834,-141.0446881,-99.4278617,-54.07332789,-76.30163133,-76.45084987,-276.3793561,-114.1599307
344.4639998,1345,0,0,-65.76865363,20.20781445,-93.81889013,51.9423573,-271.4082742,40.71088786,148.7360255,0.07949915,48.9477345,88.32641264,63.38500432,65.09384945,-103.5486004,63.55229982
344.4719998,1345,0,0,-90.84086556,7.68616913,-126.9548753,24.71783896,-330.0178802,12.42584329,-25.23013495,-177.8557474,-118.8084121,-78.85023434,-111.243827,-114.9582413,21.68277179,-111.5268022
344.4799998,1345,0,0,59.97870547,145.7373217,18.33956366,161.235708,-167.7461886,155.0303564,164.5006408,8.875948278,51.00177737,85.20629717,76.56283096,71.91072937,-294.4875416,39.22476183
344.4879998,1345,0,0,-133.1825764,-49.7688727,-176.8334876,-42.22845016,-356.8034679,-43.38673045,85.98452747,-79.02167403,-10.59831666,17.48898229,-3.511685533,-13.78019532,160.9764251,-4.046110462
344.4959998,1345,0,0,12.25513431,109.7708184,-23.99610802,131.1012034,-231.2944971,112.1953917,34.53616996,-121.5083428,-74.56163454,-39.58886086,-53.38162511,-55.16830276,-190.0909039,-92.40277563
344.5039998,1345,0,0,-46.01926749,29.10916273,-75.21333852,79.55246652,-263.1503027,34.13139362,161.1552869,-1.11430684,57.18598597,84.9797857,62.35605107,62.46999459,-52.15445523,60.18708734
344.5119998,1345,0,0,-74.19338901,15.48061349,-124.6109861,40.55824704,-320.28089,8.47058634,-1.286457413,-166.222651,-95.09391471,-67.14143108,-89.00845893,-104.5809469,84.24658147,-100.8267935
344.5199998,1345,0,0,73.19904016,147.4187367,22.66741241,152.5398986,-169.7824793,148.7870417,167.0526676,4.37171782,58.2480373,84.64057187,80.53396919,70.42280106,-253.7300241,40.88401539
344.5279998,1345,0,0,-119.8106359,-56.12265369,-157.4817161,-38.49228177,-363.9658708,-72.93766407,77.70392498,-97.25257439,-16.37838146,7.299290861,-17.4108316,-37.85844287,171.94783,-6.613745527
344.5359998,1345,0,0,12.37357202,90.90572849,-25.53341023,111.5947058,-250.4971,50.38698932,29.07369474,-134.209537,-83.85422724,-50.88231353,-53.059655,-74.01479821,-196.2713725,-96.41499969
344.5439998,1345,0,0,-50.91513032,9.388128451,-96.66540784,21.21102527,-296.0984192,-8.536154061,143.8252083,-7.501403891,36.09306613,66.14762,57.14468991,65.40155963,-96.61661322,53.17499143
344.5519998,1345,0,0,-84.4250514,-12.87290612,-160.0043342,22.61576653,-354.6586579,-2.012446207,-35.60394334,-185.4482498,-136.7667206,-103.4395017,-130.8077091,-118.7225302,28.6155509,-103.0496412
344.5599998,1345,0,0,76.40010638,129.3698066,1.29270747,193.637058,-171.5610832,177.6322196,144.8958094,-9.459771659,24.43464939,53.50054232,54.39981095,51.59438538,-302.4139148,56.8947353
344.5679998,1345,0,0,-101.8262987,-51.1070955,-151.2461956,-25.01366831,-349.591321,-21.66845125,77.38975054,-78.36844666,-18.19875612,9.686845633,-16.37698697,-21.11692476,147.1596568,43.18158767
344.5759998,1346,0,0,17.7172274,82.02472724,-44.12627079,104.4845873,-253.5751568,82.34313875,17.5611344,-119.1683558,-87.38613946,-45.86206881,-75.64835868,-61.03147592,-214.4739494,-44.42516274
344.5839998,1346,0,0,-34.06060665,0.220567616,-104.2981746,53.2477671,-281.9528793,14.37490348,136.6242842,-0.88371669,37.82502219,70.40740171,58.37837811,60.30225954,-132.6017498,78.89165697
344.5919998,1346,0,0,-61.67268851,-1.606121281,-124.6293634,36.55182332,-338.4046087,-8.301895194,-11.55909563,-145.8618686,-96.75836618,-60.2777557,-88.19320159,-98.76897733,7.592903277,-75.41143668
344.5999998,1346,0,0,61.49918136,119.0172834,-1.33404794,169.2925699,-205.391918,115.8112868,147.3993583,29.34186101,53.10203257,96.52073513,60.11061841,75.83673363,-350.1310109,70.84359869
344.6079998,1346,0,0,-116.0138673,-70.51204005,-174.2339204,-10.79093762,-386.6822181,-69.58880463,46.68906242,-75.27730023,-25.56541058,14.04010184,-42.21112327,-30.80687278,47.28186429,12.70491017
344.6159998,1346,0,0,37.61261424,99.85824854,-35.57740803,142.9381722,-279.6563272,87.22131121,28.31373566,-93.5482959,-62.53733048,-19.01426333,-69.85714167,-56.70248942,-294.6652587,-53.71060971
344.6239998,1346,0,0,-16.66324958,21.51394528,-106.701803,64.30112968,-372.1278013,-3.851864764,161.3963655,40.55201491,78.84818299,113.8432378,75.98186916,84.02020096,-185.2937495,107.1523883
344.6319998,1346,0,0,-55.59830167,-3.898496579,-125.5449427,45.82221131,-488.9776796,-43.36461507,-24.31909509,-142.7789116,-94.84686374,-57.77061839,-91.29128453,-104.5839207,-55.904481,-74.62525924
344.6399998,1346,0,0,60.06343874,112.1545639,7.957388186,179.9835391,-387.322775,123.8753064,137.9852724,23.75751176,49.93886026,88.5136073,59.07973377,67.3629785,-423.4708562,63.45525583
344.6479998,1346,0,0,-124.8721542,-74.98281854,-191.4591964,-15.92390987,-593.8000606,-56.41814373,35.40328095,-78.23663042,-25.94629391,9.059821986,-38.3832824,-30.42801478,-17.88216404,25.65205061
344.6559998,1346,0,0,52.99254861,114.9140902,-33.29284333,158.9739129,-443.0509078,105.9098146,9.827648293,-98.13236129,-66.48859413,-27.78161993,-65.10974555,-64.99171686,-355.1057279,-43.45772334
344.6639998,1346,0,0,-13.34859606,24.93903289,-102.9770042,87.84410936,-485.0340809,30.1934176,163.6933048,54.72298273,92.11989269,124.3320408,84.67371383,90.40732338,-235.1663829,121.1590548
344.6719998,1346,0,0,-74.43155108,-16.36881538,-154.7001237,44.0838462,-570.6863202,-22.01863634,-35.89519163,-136.5808745,-93.52627089,-55.41889286,-99.97822873,-99.21105529,-90.33177912,-64.94822336
344.6799998,1346,0,0,98.57081563,148.1620281,28.62419897,204.0799679,-379.5491612,145.8301449,137.8424135,42.58513077,60.11670734,96.97630415,69.88283753,73.31875366,-446.2584216,77.667129
344.6879998,1346,0,0,-88.55935169,-52.56057405,-157.9611693,22.4859221,-558.9258091,-52.56208039,77.58669564,-27.20540466,18.7418662,49.26869279,15.48105903,4.840379435,-2.255377112,55.95529218
344.6959998,1346,0,0,44.69651934,95.6184203,-27.28941926,179.5220281,-434.480837,102.7589646,16.35718206,-81.36351573,-56.28494731,-22.08029355,-31.59817775,-43.96667586,-335.3301263,-40.38600844
344.7039998,1346,0,0,-5.471188773,25.75573129,-76.69956808,107.6659352,-441.5759849,45.19634484,140.1137654,48.12969535,78.52829624,104.7642892,96.50528677,85.54997542,-232.0447878,113.52499
344.7119998,1346,0,0,-73.30803677,-21.43839962,-144.8700359,36.06552136,-528.6822117,-30.6855154,-48.98526469,-136.1156805,-95.75087123,-62.44150708,-87.3249167,-100.1471664,-71.88938899,-64.77860595
344.7199998,1346,0,0,85.44875048,128.600137,19.90195018,186.9862862,-360.9241838,119.1268374,121.4401284,31.91520976,47.48373446,78.75418666,71.32823398,68.13580487,-439.9246813,63.12725487
344.7279998,1346,0,0,-88.32403584,-56.64334772,-154.5604719,26.13849849,-525.50147,-59.46449308,65.3265562,-36.50772231,8.605390851,31.23568285,14.00332522,-3.553437875,10.26916427,40.88302757
344.7359998,1346,0,0,51.67064804,105.0715223,-19.03471058,178.4892321,-397.1510165,111.7154438,11.47550858,-75.10601161,-52.91691516,-18.21719254,-24.25011708,-38.54488487,-302.6426208,-40.47542537
344.7439998,1346,0,0,-4.85384308,28.19854278,-73.59966217,117.0448021,-415.8553011,53.16105415,139.8807049,54.86585791,81.65035424,111.6202376,112.0200665,91.05580386,-218.3819252,118.9920789
