Time:125Hz,Epoch,FP1,FP2,C3,C4,P7,P8,O1,O2,F7,F8,F3,F4,T7,T8,P3,P4,,,,
524.3919996,2048,-41.01847727,-55.48152433,-85.51349815,0,184.8700206,-66.23350512,-80.99291418,-60.17978525,-79.73958344,-76.36563153,-65.83710215,-208.5960701,-100.9908391,-98.74752172,0,-130.1219876,,,,
524.3999996,2048,62.96804744,54.34636428,-152.0007393,0,23.26565158,45.30899054,34.98078145,55.3172343,39.90744213,42.35640992,31.67434015,-285.6094077,26.65166792,24.92331136,0,-63.30736079,,,,
524.4079996,2048,-69.63629236,-85.04944518,-24.50713941,0,380.5034963,-86.81663306,-98.33146478,-86.6147204,-7.822573544,2.110979678,6.391418477,-434.0168688,-23.83509398,-19.64239121,0,-48.57525761,,,,
524.4159996,2048,49.69650276,43.52968489,-118.7618606,0,-34.61459747,36.68477772,16.1723566,44.04276834,-48.08696181,-40.9948442,-46.17374005,-107.1937689,-64.37528856,-61.41214056,0,-129.4392599,,,,
524.4239996,2048,12.11238786,1.55205568,-50.82731035,0,302.0810449,9.538795408,-9.506879089,8.676270915,70.51858068,81.47971314,68.48339746,-482.7413166,58.51134451,65.35434613,0,-6.793792313,,,,
524.4319996,2048,-57.14411583,-68.50625192,-86.07699941,0,193.9563136,-65.2522566,-87.92086605,-62.7879196,-77.95653592,-68.0112549,-60.17283188,-210.4615799,-95.73944086,-80.32587167,0,-114.5421333,,,,
524.4399996,2048,30.52077403,23.33166913,-171.0963601,0,10.74757107,28.28062981,7.344091356,28.04605001,12.29161845,20.76540368,5.144189658,-261.0008945,-1.952373715,13.73557009,0,-80.14387853,,,,
524.4479996,2048,-74.22647731,-90.52160166,-25.62598177,0,371.1616201,-83.06817305,-102.8433851,-90.56866093,-33.83599141,-19.49341265,-17.6388125,-399.2286625,-48.9335842,-38.17522415,0,-63.82346049,,,,
524.4559996,2048,49.28387121,39.80708787,-133.978136,0,-34.93031197,37.74833567,14.12610836,43.40118874,-42.09067959,-37.19695047,-37.69351527,-84.02403371,-58.88584072,-52.892469,0,-112.725888,,,,
524.4639996,2048,-7.61440729,-23.27431309,-71.64777036,0,288.7026533,-11.84099376,-30.08644501,-13.51606033,64.76269552,69.67435129,63.77023728,-450.5048643,50.4579606,55.53758911,0,-6.680914749,,,,
524.4719996,2048,-51.71390871,-65.9851313,-56.72209627,0,189.838974,-58.14265769,-81.30900498,-61.29622525,-92.95485569,-84.96979641,-73.80328218,-167.1135495,-109.9537319,-105.4784931,0,-120.3376514,,,,
524.4799996,2048,50.75394606,44.32090068,-144.9868657,0,24.80847053,49.90802003,25.43382999,41.76682667,25.7057121,31.02573734,19.13549828,-235.3043904,13.86900506,15.98924129,0,-59.98986393,,,,
524.4879996,2048,-80.23412661,-95.34922492,-37.79398704,0,381.7560536,-89.26532728,-112.2279375,-103.6115622,-19.95190393,-8.053556418,-3.257261655,-383.2649745,-32.18561644,-34.79790078,0,-50.87757965,,,,
524.4959996,2048,38.48027246,31.35046819,-146.5794605,0,-35.26041196,33.56475088,5.513745151,30.60880779,-62.49237791,-49.21406735,-53.29676343,-49.79246584,-74.63049054,-74.85666641,0,-123.2092412,,,,
524.5039996,2048,-9.840392358,-22.30111118,-77.13404533,0,285.0129306,-8.740021768,-31.93584154,-17.93258671,44.46049937,60.64052073,50.39733755,-414.6161344,36.73122681,43.94865242,0,-9.224988935,,,,
524.5119996,2048,-46.23998195,-60.29239713,-51.55178598,0,195.1525609,-55.47325193,-81.40976031,-59.50570788,-84.84498442,-71.4204387,-63.12814856,-141.8826868,-95.87116898,-91.10041391,0,-109.3483218,,,,
524.5199996,2048,70.28231733,62.43583318,-139.8007508,0,34.32620062,70.02437272,41.12635023,62.14573665,36.20563041,48.11130426,30.50949485,-212.3019549,27.01395585,32.5271426,0,-50.4288292,,,,
524.5279996,2048,-64.42254794,-81.35752468,-45.79124394,0,392.3900146,-68.66069821,-98.31040588,-88.4740864,-8.779540861,11.67033157,10.36268758,-371.5263259,-19.5825722,-13.03649608,0,-33.88262964,,,,
524.5359996,2048,35.69511647,26.45027156,-155.4387541,0,-29.04990026,31.30719543,-0.312920778,22.81014641,-53.42476161,-37.40639571,-43.51791361,-35.5593813,-58.62856291,-56.30981362,0,-113.9937389,,,,
524.5439996,2049,-8.859487766,-22.66926558,-86.34124292,0,284.5888358,-8.209345033,-34.75797657,-22.28460211,38.99958947,55.83320024,45.52274772,-387.9554423,42.76818554,45.70248002,0,-17.72456905,,,,
524.5519996,2049,-24.75611048,-40.51255626,-48.46054045,0,210.4667623,-32.0579574,-63.66220819,-42.29077649,-79.8028797,-61.86589425,-55.89972686,-124.3073513,-79.96913957,-79.2310224,0,-101.2923132,,,,
524.5599996,2049,82.21414274,74.00703206,-113.3513003,0,55.5448077,83.10906655,51.12219116,74.36421042,48.98295083,68.25415366,46.1125383,-204.8486328,51.4787206,56.26335849,0,-27.20102149,,,,
524.5679996,2049,-67.48158139,-83.34808029,-10.71277521,0,395.836414,-69.45000049,-101.4478721,-88.73569695,-14.57205384,10.83786911,8.555147003,-359.0241477,-15.43861655,-5.314237527,0,-25.35719216,,,,
524.5759996,2049,59.85722124,49.79674401,-106.908203,0,-20.15543195,56.976007,24.56558458,44.89198472,-45.55797522,-29.23308244,-34.68736039,-27.75273862,-46.02187927,-46.08450842,0,-98.36588604,,,,
524.5839996,2049,13.69626462,-1.02997087,-44.1157675,0,304.041467,12.38669097,-11.7818844,-4.414939133,70.06760566,88.14727564,74.32893306,-404.1809516,73.47047491,71.89700455,0,16.81846629,,,,
524.5919996,2049,-45.26697428,-61.77146038,-47.78086683,0,204.1973691,-53.63219455,-82.82935754,-66.12692843,-81.15181037,-65.16698373,-56.22479077,-135.2593874,-87.45914154,-80.47501585,0,-93.31833798,,,,
524.5999996,2049,62.12050035,49.85636339,-125.6694148,0,30.43086737,60.74343254,35.68613966,49.86611823,27.26562813,35.27437499,25.77013984,-188.0870417,21.81271582,29.23787335,0,-43.12742734,,,,
524.6079996,2049,-70.71840718,-91.83109858,-6.863894879,0,385.0134677,-81.97228295,-101.0658595,-94.9107652,-22.78085608,-9.5674892,-1.046747754,-337.4603773,-30.5905804,-22.7639244,0,-33.13496133,,,,
524.6159996,2049,56.86525209,44.37332,-103.9674918,0,-24.34965645,42.68497373,20.50305484,41.41497937,-52.96005514,-43.58432711,-40.96472467,-1.324156676,-60.85011538,-56.0200859,0,-99.67818736,,,,
524.6239996,2049,16.15509641,0.689627547,-66.03089976,0,301.6808804,10.44633637,-6.847595202,-2.031513587,71.75230626,84.30591495,77.98921535,-377.9440869,70.22475656,72.00782938,0,24.11731957,,,,
524.6319996,2049,-48.99266356,-66.79535363,-98.60020528,0,211.980032,-60.40870074,-79.97917884,-69.28472606,-77.41258383,-67.01801992,-54.37002102,-118.7175687,-83.11629217,-78.68618619,0,-92.16471521,,,,
524.6399996,2049,51.76001474,39.26181796,-184.0069837,0,35.43301624,45.46347544,26.93757018,38.27832917,22.4391664,27.95593361,17.18485753,-170.4281533,17.6204801,21.81622254,0,-57.70843796,,,,
524.6479996,2049,-71.56969914,-90.49800008,-72.04626131,0,385.4342926,-81.61253154,-101.6368895,-95.58829132,-20.78568069,-10.08527429,-3.459061013,-324.1616753,-28.90705058,-26.5079004,0,-44.31161375,,,,
524.6559996,2049,42.64491014,32.6415668,-186.2630076,0,-29.60683465,33.08870954,9.141368396,32.14676058,-56.81413219,-54.39388685,-50.05836066,11.1992825,-64.37524945,-62.12130117,0,-113.6656352,,,,
524.6639996,2049,0.348764917,-12.67108206,-113.6599324,0,288.3942692,-2.885646346,-20.17724793,-12.87542485,56.06400165,65.10282463,58.65286291,-349.9471957,51.26324605,58.01518638,0,3.864315329,,,,
524.6719996,2049,-24.02420463,-37.98988014,-74.09659507,0,212.7014327,-33.07223651,-50.22153382,-37.29962946,-69.92648521,-56.45393577,-49.16775341,-89.9728668,-79.59099028,-73.43602051,0,-82.83529333,,,,
524.6799996,2049,74.61744884,65.67262046,-143.2484143,0,49.9256639,69.91808451,57.60324261,72.10592891,52.21342223,57.86679879,44.64407669,-163.5843688,47.112925,49.37607791,0,-20.8712038,,,,
524.6879996,2049,-77.09682842,-93.42234812,-49.21070386,0,394.9046839,-85.96344926,-97.67028748,-90.38038879,-10.4947563,0.432377241,7.43142699,-322.9553743,-17.60936125,-14.00639001,0,-28.39621564,,,,
524.6959996,2049,43.77099789,36.75425278,-160.0594117,0,-23.88036206,41.06295061,22.56984553,47.10684777,-55.3098967,-48.04985703,-48.17527372,16.61496683,-64.41665915,-54.37795575,0,-108.8434033,,,,
524.7039996,2049,-17.89624674,-29.9737011,-107.6979093,0,286.7740632,-12.93829055,-33.62633431,-19.69859241,56.77540283,64.17946688,55.06475401,-353.6191445,48.87912806,67.27714282,0,9.833358842,,,,
524.7119996,2049,-66.51331972,-80.48480016,-99.23057611,0,189.8146057,-71.23205092,-99.73348263,-79.30862038,-97.65470688,-92.9169212,-80.18619368,-80.11907844,-110.3398297,-99.45470059,0,-108.178176,,,,
524.7199996,2049,57.36478658,50.73863297,-156.1356831,0,20.79586542,61.272879,38.31937975,58.16993436,24.56116486,22.81060111,13.6949636,-134.8581707,13.52309637,19.49159311,0,-49.07261839,,,,
524.7279996,2049,-79.3263314,-94.58976184,-43.63722484,0,386.1806065,-78.62282955,-95.97531754,-84.22754973,-9.075000307,-6.063813349,2.76720218,-303.1556212,-23.77969,-12.94223063,0,-20.82963682,,,,
524.7359996,2049,44.04021299,36.54202059,-144.5468135,0,-26.07018348,43.05600332,23.90685114,49.21173836,-52.90856123,-54.51746147,-46.66896164,43.23488032,-67.7225241,-59.65790852,0,-96.49867636,,,,
524.7439996,2049,-8.959026124,-20.30500909,-75.11203056,0,285.3941467,-4.955345305,-16.58811829,-6.601765819,57.97894303,59.69073303,60.59801754,-315.9359479,45.90766566,54.09260637,0,16.14637636,,,,
524.7519996,2049,-69.32827687,-81.84135266,-76.43015534,0,197.3665505,-74.05056861,-87.06592457,-70.99596017,-87.28562976,-85.01061758,-65.41653627,-51.48662306,-102.655681,-95.11832166,0,-94.18587468,,,,
524.7599996,2049,43.45505756,39.02168085,-149.8366441,0,20.00007626,45.85722226,32.60723547,50.09170618,17.22807914,15.07634292,11.0455387,-101.8439464,5.323936369,12.90918963,0,-48.43666684,,,,
524.7679996,2049,-93.59922028,-107.1851705,-11.95447187,0,379.2729244,-96.82330285,-111.8394123,-101.8247818,-27.01868871,-23.49172323,-13.14966533,-258.074291,-43.92841807,-35.98388961,0,-31.88714259,,,,
524.7759996,2049,32.64978595,24.44857734,-105.0593267,0,-34.59928322,26.85098015,9.141225805,32.09029467,-58.29914978,-60.35787221,-53.66866062,90.93616755,-75.85405358,-70.29984622,0,-102.4706424,,,,
524.7839996,2049,-5.193476496,-18.45290886,-52.00175154,0,279.7606111,-4.048755716,-14.31780689,-6.985026329,56.50531566,52.85825575,55.96417059,-279.6724365,44.87243113,52.69018264,0,12.52963257,,,,
524.7919996,2049,-62.48372185,-76.73913096,-44.29915105,0,204.2824008,-67.67060583,-80.02930814,-65.92622416,-82.61959168,-86.43788013,-64.55589552,-31.76661158,-96.98370313,-89.83985625,0,-85.93528733,,,,
524.7999996,2050,56.47806005,50.37850943,-112.0169237,0,31.25527863,58.29163528,50.13344786,65.77014278,32.5478428,31.17113235,25.35468428,-85.68621968,24.60469425,30.88425022,0,-29.53262901,,,,
524.8079996,2050,-63.69605843,-77.50762345,19.62721022,0,402.8036576,-66.67703049,-71.4520721,-65.07621662,-3.977289241,-0.7948009,11.23994583,-253.8808858,-12.96852493,-6.360988806,0,-7.001448497,,,,
524.8159996,2050,39.05640114,31.3391007,-83.58489817,0,-13.20011114,35.86657776,25.52588283,43.44694061,-40.75552653,-44.47211312,-36.65842401,82.32491358,-55.37594442,-47.74524657,0,-77.62976572,,,,
524.8239996,2050,-15.46864969,-28.90934787,-30.983751,0,281.4499429,-12.6599597,-21.73576406,-17.2938033,56.89688336,57.32834067,54.23673901,-276.5760761,46.04679565,54.97977766,0,22.29443061,,,,
524.8319996,2050,-64.62921172,-78.42775387,-21.61923719,0,200.8439319,-71.25567653,-84.73368981,-70.35346978,-92.58066624,-94.11551509,-76.64517096,-14.68576618,-103.1373321,-98.49346346,0,-89.21626111,,,,
524.8399996,2050,48.69861361,43.24637465,-101.2643986,0,20.82356029,49.38281772,37.35101484,54.60795633,17.68363458,15.88568584,9.297585856,-63.78869356,10.43048646,14.9222902,0,-37.50275725,,,,
524.8479996,2050,-66.37697738,-80.0105965,32.46395115,0,393.1983703,-65.48143712,-77.3196333,-68.47168801,-12.67202749,-7.216048874,4.583457826,-233.0030684,-21.36819523,-14.35997234,0,-4.400760802,,,,
524.8559996,2050,37.62693079,31.19438772,-66.98231229,0,-21.42629805,38.30728258,23.48430504,44.97264971,-44.28696745,-47.23006655,-38.67686665,100.6988829,-55.10226122,-47.62128807,0,-72.8014856,,,,
524.8639996,2050,-15.34387113,-24.7228128,-8.560273229,0,276.2575983,-10.15848657,-22.57340162,-13.74221005,53.50701576,56.21342245,48.88624394,-262.0510043,43.90577559,53.60497303,0,18.49206037,,,,
524.8719996,2050,-59.69527084,-69.37282258,20.05520796,0,207.2854055,-60.26581369,-79.43586695,-62.20098925,-90.21073181,-83.99343746,-75.16142072,-4.615037564,-101.6686011,-93.63183135,0,-84.72827429,,,,
524.8799996,2050,35.73961325,31.50810241,-68.97175026,0,13.15678229,40.95391315,23.99698907,42.96641388,15.09937086,19.01789168,4.489820644,-49.96620227,5.35042705,16.06674518,0,-36.28341115,,,,
524.8879996,2050,-87.94977575,-100.6340565,36.90870618,0,376.0511966,-87.02126149,-104.3751834,-92.65034349,-29.04509489,-18.65444091,-17.48722668,-216.9664819,-41.96765004,-29.38418232,0,-20.80775142,,,,
524.8959996,2050,31.50585506,27.05280405,-67.05486957,0,-28.76910756,31.10898547,8.8649201,33.98378186,-58.56269814,-55.32368496,-56.99911463,115.7724986,-69.39592923,-63.54847864,0,-86.15396818,,,,
524.9039996,2050,-7.594655734,-14.52564938,-5.851058571,0,274.883181,-3.170663004,-18.86942377,-7.414892654,57.63769564,65.90964022,49.90289376,-247.1666505,48.60358737,57.9158105,0,22.45717885,,,,
524.9119996,2050,-46.75454078,-52.21382227,23.4779656,0,213.3814962,-46.79137749,-65.28093599,-47.65266485,-73.73714858,-59.4701571,-62.47677414,7.465108849,-87.5080333,-75.16104346,0,-71.68984463,,,,
524.9199996,2050,44.75736364,44.86481637,-66.11454186,0,18.9350077,52.28373732,32.58249658,52.3725242,30.52375129,41.03293278,18.43623029,-43.27498364,21.2739388,31.12149699,0,-26.27493467,,,,
524.9279996,2050,-95.78501046,-105.498495,29.00190231,0,371.6665718,-92.96433601,-113.2456333,-102.087042,-28.94036353,-14.45292892,-16.94714937,-208.8742652,-40.87874147,-30.78273923,0,-27.59556244,,,,
524.9359996,2050,26.98687244,27.07123869,-74.26401526,0,-37.42084207,28.48817277,6.570066191,26.36122844,-66.59383352,-56.65341913,-63.70229487,132.1877849,-79.66235478,-72.97112165,0,-101.2958366,,,,
524.9439996,2050,-8.750485606,-9.976152353,-4.828576529,0,269.7088255,-0.272027458,-18.76330122,-10.55549428,52.70720094,68.60865207,49.26961904,-240.038457,43.38292533,51.51982242,0,13.62406692,,,,
524.9519996,2050,-62.11287987,-63.9683141,18.16218239,0,207.6567903,-59.09021446,-84.68763175,-64.93446087,-86.49618218,-65.52152672,-70.72768845,8.447022311,-97.17434217,-88.59986479,0,-83.20601399,,,,
524.9599996,2050,37.30820811,40.52059148,-67.60887878,0,12.41199139,46.95149366,20.76493142,40.13749807,21.712401,36.2218963,9.98636845,-34.43877311,15.46478512,20.57615151,0,-35.42612277,,,,
524.9679996,2050,-99.11201302,-104.263933,49.22054624,0,366.8018743,-93.72343159,-119.8516004,-109.8740396,-33.71343906,-15.20084864,-22.85530948,-200.4635688,-46.14999463,-38.76822343,0,-37.3522474,,,,
524.9759996,2050,23.71969683,26.84042807,-47.36068575,0,-45.47430073,25.45133521,1.021800371,24.76325736,-74.92378856,-55.76851312,-72.67799932,144.8310796,-91.34141556,-81.58659199,0,-109.7705604,,,,
524.9839996,2050,-8.623464506,-10.5337618,16.409026,0,263.9708912,-3.835794069,-15.60132635,-7.339450146,55.82203605,76.55640731,50.77830689,-232.1659936,46.54757415,55.24160084,0,27.04224617,,,,
524.9919996,2050,-67.86001634,-70.93455881,41.72403266,0,204.2190704,-70.53540201,-87.7076901,-73.27753669,-86.85382565,-69.50970823,-74.23910583,10.56957921,-98.29704098,-94.72336097,0,-73.57584677,,,,
524.9999996,2050,46.92089322,51.58015805,-28.58362394,0,10.64475152,52.10345529,31.8855031,48.04690541,18.84264318,32.38029157,4.102290472,-25.68198476,6.195398853,11.4853991,0,-32.61404069,,,,
525.0079996,2050,-65.90212612,-69.71949793,126.8510911,0,384.7893842,-64.69226997,-84.00841074,-77.71857543,-10.16855839,9.400615707,0.052732992,-209.1179298,-23.94857814,-16.2508764,0,-3.317795764,,,,
525.0159996,2050,48.85198994,52.74852332,64.64683939,0,-21.7333026,46.38280788,23.40122752,42.49907239,-42.81316102,-28.7047361,-43.66178205,116.4408002,-55.6311068,-56.13553687,0,-71.1931424,,,,
525.0239996,2050,4.677407445,5.025958084,131.5157478,0,272.2187321,7.176998235,-10.94463454,-3.355607514,68.87613412,84.1373833,58.83324367,-249.87292,56.60918395,57.73276976,0,36.09397667,,,,
525.0319996,2050,-38.30924366,-41.33984714,163.8121659,0,214.4101428,-43.01747224,-66.0404593,-50.49653716,-73.7490813,-55.91165798,-60.19454362,6.469339229,-92.37865887,-84.34481054,0,-60.92748142,,,,
525.0399996,2050,71.39979162,72.19548721,100.4275585,0,23.84994545,71.41936268,48.93635817,65.04246722,45.55361045,58.85143823,32.20022968,-39.02074873,29.31938351,35.79905853,0,-3.002436,,,,
525.0479996,2050,-84.93126147,-93.17434322,219.4473776,0,381.1611334,-87.45669207,-112.7842507,-103.6953755,-8.664604925,7.735606816,-0.752073485,-217.0074149,-23.60457048,-19.5874226,0,-0.208409273,,,,
525.0559996,2051,20.1432583,20.97276461,138.3876664,0,-42.15996849,20.75040987,-10.70223442,13.32750207,-76.23127644,-62.26463399,-77.20165597,149.3121591,-93.89063308,-86.52433398,0,-97.14655895,,,,
525.0639996,2051,2.150180279,-0.885632318,224.3862678,0,259.7882456,3.656465338,-14.16276643,-5.462438335,54.36818822,69.24787231,44.02249041,-213.1374963,35.09727233,46.97009978,0,27.37521765,,,,
525.0719996,2051,-39.42282342,-46.5946505,212.2547814,0,213.5541845,-52.29315651,-70.81439188,-57.12146396,-71.07067762,-60.36908657,-60.34885901,16.75492243,-90.76800094,-88.62418602,0,-63.93048206,,,,
525.0799996,2051,62.59534643,60.41059748,78.41574164,0,21.88622284,59.64601768,37.37185148,51.54606518,40.44057142,43.68085661,25.36440792,-33.38408192,24.77050697,17.77358118,0,-20.96001481,,,,
525.0879996,2051,-91.41764843,-102.2992199,169.1771618,0,380.4916329,-93.44093953,-116.8297892,-108.8624065,-9.762458677,-3.382115471,-2.391422512,-215.6238953,-28.17982524,-34.59970644,0,-17.23887896,,,,
525.0959996,2051,24.86551103,22.09152985,47.44114618,0,-44.37714723,22.91433882,-9.501095431,15.56271499,-76.74938286,-72.33951655,-76.82994356,149.6139613,-91.6965994,-100.0358942,0,-113.898656,,,,
525.1039996,2051,13.21342859,7.860107894,96.01823134,0,266.1457564,14.39741913,-15.61493358,-5.242635561,64.48279021,73.69616988,54.86074787,-216.6141556,50.91038219,44.49516821,0,18.02635134,,,,
525.1119996,2051,-45.82621599,-51.91446517,95.35856772,0,220.4807849,-54.27688338,-87.3096776,-70.38669618,-63.61558206,-53.57598159,-54.38027027,12.98566021,-84.39775,-94.60682493,0,-74.73156299,,,,
525.1199996,2051,71.20054463,72.32974408,-0.560294705,0,17.4513017,71.36157309,40.29228608,59.06656663,36.88229583,45.63186143,20.12377934,-24.666249,21.46551321,10.74666677,0,-27.2090042,,,,
525.1279996,2051,-56.41349941,-64.21785558,96.05431718,0,397.0118139,-59.29738278,-84.90309025,-76.26000255,16.96157348,28.90013705,19.89579106,-224.460715,-0.693122447,-5.024776794,0,13.89209668,,,,
525.1359996,2051,27.82556721,27.64003254,-76.50546888,0,-21.5772287,25.87988501,0.136800367,22.26412957,-48.57055769,-44.92192667,-55.29576705,123.3437224,-65.40235589,-74.56875412,0,-83.31299727,,,,
525.1439996,2051,-6.398990439,-9.01316977,-34.4125063,0,261.740067,-5.055595615,-19.48917211,-12.81424865,52.25465062,63.07839447,39.93992868,-227.8759119,41.38763067,36.59145787,0,17.59774487,,,,
525.1519996,2051,-51.61589529,-56.96878575,11.63151288,0,215.7667887,-63.82611528,-80.59730482,-66.67361941,-78.20251812,-64.46713904,-70.81905924,12.18268368,-95.05020172,-99.06365442,0,-76.22954723,,,,
525.1599996,2051,55.07092706,55.80075,-86.52255278,0,16.98719683,52.92316067,34.07502081,51.25174965,26.52049414,34.28451439,6.764422355,-20.19437952,13.04234362,3.855666694,0,-33.26637341,,,,
525.1679996,2051,-80.04234141,-87.5405252,32.21529205,0,389.0817782,-85.81251811,-100.1837262,-94.04814557,-7.862808392,4.471086295,-3.309804332,-210.3180041,-23.94626217,-27.09128005,0,-3.459825645,,,,
525.1759996,2051,24.49418438,25.36913132,-74.41322752,0,-26.05458281,15.92693447,-5.184274999,16.52891285,-65.65859248,-58.91474413,-68.54797695,144.4620304,-85.8971664,-91.48201923,0,-91.1713363,,,,
525.1839996,2051,-2.302923807,-1.21307406,-36.48007907,0,261.6864326,0.97416788,-20.54088059,-8.036480986,52.3707118,66.74971823,41.92458864,-211.1558336,39.25937684,30.09621527,0,25.37515606,,,,
525.1919996,2051,-58.9812574,-60.60369702,-12.75833095,0,218.2233857,-61.68471762,-87.51910712,-68.30486523,-76.0044891,-61.06321733,-66.44850984,21.62093705,-89.08587244,-101.115687,0,-59.97968945,,,,
525.1999996,2051,38.12833139,40.93818903,-94.01299842,0,5.956763567,41.56846154,16.15127372,34.82941203,14.2920188,20.24021448,-2.086362512,-0.471857995,0.239409842,-9.346025002,0,-29.95485546,,,,
525.2079996,2051,-90.54212712,-94.62600971,39.06748019,0,370.1943549,-91.53071022,-113.9322496,-106.1423588,-25.88595363,-11.32256275,-16.76568127,-181.2363153,-42.24575415,-45.66249817,0,-10.22588591,,,,
525.2159996,2051,23.19847709,26.50240205,-53.71016899,0,-30.6014668,20.24245921,-7.184543735,15.19710203,-72.04681407,-64.88798041,-71.1522275,174.2336796,-85.78378945,-95.27140127,0,-88.07140157,,,,
525.2239996,2051,-11.78129484,-11.7888309,-8.131999944,0,252.9000067,-6.568184875,-29.49877786,-19.75581737,44.57190779,52.31222681,36.36960319,-173.5640537,36.47890757,24.11153194,0,25.73071408,,,,
525.2319996,2051,-60.51641842,-63.16281831,24.05772108,0,210.1994072,-64.03125957,-86.53399432,-71.13178854,-85.40214839,-73.77066703,-71.89563151,66.63428803,-92.65087709,-108.5061321,0,-59.58782956,,,,
525.2399996,2051,63.13264347,66.14009366,-52.05958608,0,22.61879538,63.35267917,44.85333173,62.17607252,24.79969832,28.32150262,11.76763237,35.28861391,21.55395746,3.681660376,0,-10.25375117,,,,
525.2479996,2051,-77.90304333,-81.57580719,44.17097727,0,392.6536165,-81.69131447,-98.59488679,-92.5146974,-7.293605567,-0.171347248,1.547311818,-161.4471395,-13.00756754,-29.62017082,0,15.48928734,,,,
525.2559996,2051,21.19991738,25.19023291,-75.56024676,0,-22.63610294,18.60001908,-6.756838447,11.44625003,-67.47480307,-59.35271738,-65.66475735,194.264791,-71.70099128,-89.12811405,0,-72.06222441,,,,
525.2639996,2051,-0.649666626,-2.588914021,-27.89882291,0,256.0664588,3.655426918,-19.48870272,-12.56890506,47.18953659,58.66816103,40.96002539,-156.0342051,46.93643202,33.39965805,0,34.30419739,,,,
525.2719996,2051,-55.76069861,-61.24422723,-21.54271097,0,214.6153456,-58.08913527,-88.61725216,-73.56604831,-76.2629927,-72.1457967,-64.50041339,77.10226286,-78.63196861,-98.3378616,0,-58.52487658,,,,
525.2799996,2051,74.35367572,75.90350073,-122.5894674,0,21.38135099,80.39375258,46.59995135,63.20860308,34.84661044,38.73666012,22.34969457,50.40186137,37.50536195,17.29678524,0,-10.3668747,,,,
525.2879996,2051,-48.19397556,-55.44985562,-20.84313581,0,395.8890006,-48.24102102,-77.52166697,-72.74445665,9.470927051,26.80515039,24.54162181,-152.2256017,9.341250346,-2.591761792,0,27.46403862,,,,
525.2959996,2051,30.7366812,31.10558479,-155.0721955,0,-17.68003883,30.88634826,-4.748223735,14.24138721,-52.7611513,-44.24194782,-46.21656091,194.4805948,-51.62839699,-70.35656043,0,-59.43397689,,,,
525.3039996,2051,-7.463638733,-9.852006506,-120.3347828,0,250.4382074,2.545366357,-29.86318665,-20.15763153,43.09997896,56.32692727,41.09360607,-155.9796395,50.9779289,31.0444717,0,31.99645275,,,,
525.3119996,2052,-44.47762884,-50.33839054,-76.36614265,0,214.4540746,-41.79769063,-73.02025259,-55.6646225,-87.57557269,-68.98397909,-67.15324141,77.54186593,-84.13180022,-98.70510209,0,-59.46695903,,,,
525.3199996,2052,92.84222237,92.50911029,-143.8166351,0,34.27289165,102.4516745,72.70530257,92.34322496,40.25051814,52.60292323,33.31815627,36.60191853,47.46439418,33.5402426,0,8.495712966,,,,
525.3279996,2052,-42.48842762,-50.91920654,-32.81634718,0,413.8649814,-36.43975456,-65.02030467,-53.37445598,27.04160482,43.00606817,42.545156,-190.7368572,33.14051696,21.74251086,0,56.56612088,,,,
525.3359996,2052,35.31236654,35.21080545,-156.9949443,0,-7.596151056,40.47406341,6.726089258,31.35405167,-45.16030544,-33.73070435,-34.88158298,162.3970127,-40.32752485,-52.67973641,0,-41.07443804,,,,
525.3439996,2052,4.488100518,1.177252136,-116.7905149,0,256.5971147,14.32144474,-13.49198234,-3.99000321,49.06899054,63.49337434,52.69586889,-179.2044039,55.83385362,45.67805378,0,46.5512059,,,,
525.3519996,2052,-48.57459073,-54.60566526,-89.42402981,0,221.4720892,-48.80603551,-77.20886308,-60.86044779,-80.68160362,-64.91929399,-55.21650473,43.35659187,-78.513711,-88.10004932,0,-42.90322007,,,,
525.3599996,2052,58.8210094,58.67824532,-187.3325824,0,11.87621921,65.21761877,38.42895909,57.27431303,20.08035049,31.62283062,16.36024796,17.88178692,26.56102874,12.58853454,0,-6.204772936,,,,
525.3679996,2052,-72.66287818,-82.51384689,-74.58490139,0,376.9955937,-71.48281209,-95.43153497,-86.05473106,-9.673661926,3.378922224,5.540866796,-181.9171806,-9.759754307,-20.14025351,0,17.26735047,,,,
525.3759996,2052,25.41881671,23.15698151,-179.0629479,0,-22.68846884,24.91345779,-4.186452146,19.8124542,-62.40945065,-54.84646571,-55.17272551,178.2213447,-63.56654789,-73.88630738,0,-56.45897345,,,,
525.3839996,2052,-2.73354738,-7.789157883,-131.3074049,0,245.8508348,3.581249981,-19.28101173,-9.079636741,44.52223342,56.64626072,41.57957924,-164.3091816,50.99153035,39.33367655,0,48.79852954,,,,
525.3919996,2052,-66.60138966,-73.57247483,-99.61744825,0,199.271,-72.45729995,-94.7810616,-79.25530103,-93.68855282,-79.89866361,-72.81027681,65.61106323,-95.2884368,-104.7200311,0,-52.09423584,,,,
525.3999996,2052,28.9213623,29.23974037,-202.8339512,0,-17.3811534,28.79527115,9.544398918,25.23831539,-4.881349807,6.898533035,-7.655259459,57.02150692,-4.725119865,-14.06494998,0,-24.63414174,,,,
525.4079996,2052,-89.69594138,-98.71435395,-92.3588453,0,348.4632674,-92.35361677,-107.2629984,-103.0462185,-38.47268894,-19.50278735,-20.4398191,-131.7443538,-37.07853541,-45.14141069,0,-1.813537204,,,,
525.4159996,2052,28.67648252,28.60617169,-181.9267199,0,-47.22979147,24.07894761,3.078756347,22.21818581,-76.80046928,-60.42693302,-67.32935427,221.2715645,-78.99894152,-87.58519768,0,-74.84149309,,,,
525.4239996,2052,-3.184490891,-5.46068437,-129.5038538,0,232.1067619,0.983121062,-15.40095473,-8.892381043,44.83964031,61.58388233,43.20250467,-139.3606424,42.79462413,38.03071647,0,36.02411336,,,,
525.4319996,2052,-57.35077596,-64.8597528,-104.1673583,0,199.164313,-64.39545466,-82.80618737,-68.93075936,-89.1039666,-71.29415099,-65.57524791,84.12366205,-93.57557212,-94.8061257,0,-49.76555542,,,,
525.4399996,2052,58.74645369,58.23683447,-200.9772276,0,-15.08101757,56.01140317,31.58277696,50.84837383,9.511932068,29.04657882,10.65747488,70.42228581,6.823961204,5.917155194,0,-9.607210288,,,,
525.4479996,2052,-76.82624791,-84.12663763,-83.7968066,0,352.601447,-81.21754297,-106.7681979,-95.26489413,-23.62159303,-0.653124717,-2.75257869,-131.7237683,-31.75321267,-28.17869363,0,10.31418014,,,,
525.4559996,2052,28.70867563,28.70344759,-174.3010391,0,-53.44350932,18.93322935,-4.605509917,22.17875153,-77.83750026,-62.80811094,-64.39925173,231.0904457,-86.87686382,-85.09988253,0,-75.72820174,,,,
525.4639996,2052,11.62933046,7.497359584,-112.6886783,0,226.0585998,9.996134093,-5.536324414,8.119251838,49.49405551,64.44123502,53.05933749,-126.047254,43.66320834,42.61241361,0,35.64134703,,,,
525.4719996,2052,-37.65289326,-44.77215302,-73.10563883,0,218.2418293,-42.78929265,-63.85121809,-46.98594527,-65.05613634,-54.4716077,-41.98673257,81.95892889,-76.75289954,-76.74702561,0,-41.01533194,,,,
525.4799996,2052,80.16243835,82.44828727,-174.2484454,0,8.959943983,80.29583688,63.76902236,77.69519999,37.33560937,45.69572223,32.78263211,64.87999532,27.83727906,27.00048836,0,4.310574523,,,,
525.4879996,2052,-69.74795346,-74.07036325,-78.54539605,0,372.3288218,-73.53450082,-84.14576125,-83.58606186,0.174196429,16.14737774,15.74900903,-152.5666007,-10.32670175,-14.24346746,0,25.32821755,,,,
525.4959996,2052,8.621542509,11.63986767,-185.8088977,0,-50.08463652,-0.996033615,-17.83435167,-1.948558883,-77.24321432,-67.34322734,-69.90339727,208.5057286,-87.95646351,-98.65895034,0,-89.48223912,,,,
525.5039996,2052,-1.401879034,-2.691309293,-123.2235144,0,211.7913577,-4.217085943,-14.30228597,-9.039302955,30.99192154,41.9765359,28.1982238,-123.9739255,25.35090176,13.05213306,0,3.762675416,,,,
525.5119996,2052,-58.64286285,-65.55115012,-88.08723733,0,203.4050806,-61.02643885,-76.63574789,-63.58623722,-76.73627483,-71.26545911,-57.72022606,85.96072866,-85.04425234,-94.22532683,0,-54.96905157,,,,
525.5199996,2052,32.82016181,33.79559581,-202.6691227,0,-25.89533797,36.84576438,16.88070616,33.0990584,11.54874344,14.38090188,4.267586695,74.17545,7.761345541,-2.080975192,0,-24.78047552,,,,
525.5279996,2052,-91.1785371,-96.83278973,-95.82698791,0,341.1310635,-89.01639359,-104.7217426,-99.1189711,-34.52156088,-20.37715305,-19.97454939,-127.2878651,-35.75385363,-48.76856846,0,-14.56676747,,,,
525.5359996,2052,7.709972655,6.125906749,-194.0657092,0,-47.06178655,14.43635161,-3.431961802,17.52459397,-79.2457748,-73.7134492,-70.67217809,217.7586861,-82.79427847,-90.57530057,0,-84.81617251,,,,
525.5439996,2052,-21.34917951,-27.22191423,-151.7786526,0,210.0425726,-8.717218301,-21.60743676,-12.19944993,35.83843899,43.65958001,31.54195945,-133.0541396,34.77632516,33.27829184,0,17.13390578,,,,
525.5519996,2052,-71.84937784,-80.04357625,-111.7269136,0,187.7826339,-73.56567738,-84.9639946,-73.03287483,-94.73123694,-87.06034692,-80.9201523,85.90341719,-94.87981663,-108.095576,0,-76.49455983,,,,
525.5599996,2052,40.35226754,36.63848868,-189.7861923,0,-23.71097826,36.56542298,29.26354397,43.01477829,9.007884833,8.992145169,-0.012016919,71.71824482,11.15181633,-7.771525255,0,-34.84829565,,,,
525.5679996,2053,-86.85052362,-99.33962127,-75.29001737,0,353.2605234,-94.0166663,-104.5863225,-97.40590229,-16.76948284,-11.93579901,-3.029767381,-138.1930342,-18.59101718,-37.00260856,0,-9.212596749,,,,
525.5759996,2053,14.79904846,8.751075052,-182.2007876,0,-44.67738656,3.737415224,-10.92778055,10.30838731,-72.967637,-78.05305429,-68.98631363,224.9047009,-80.48437871,-102.4251672,0,-98.50355076,,,,
525.5839996,2053,-8.975975424,-20.59467491,-141.5021037,0,215.5288496,-19.15418349,-25.81703936,-18.44964224,39.69906816,34.57811923,34.93615905,-118.9977611,31.17939269,13.95769604,0,5.820635748,,,,
525.5919996,2053,-56.52643628,-68.93216757,-111.3819868,0,201.7422608,-69.62596559,-86.78380633,-72.68130827,-80.67800646,-83.88552305,-62.2978775,91.13141719,-87.54712674,-110.5229258,0,-72.29890768,,,,
525.5999996,2053,64.89820815,62.13362638,-204.7873578,0,-16.73888997,60.4601947,36.33103755,55.60200506,26.72086633,21.9585426,17.66648353,75.44301685,23.92408814,2.163703467,0,-24.74683424,,,,
525.6079996,2053,-64.63709753,-75.35397419,-101.1333856,0,350.4091489,-76.51513166,-104.4557456,-95.60401753,-4.446760118,-1.505069176,7.36232929,-137.6728124,-12.72788259,-29.64734945,0,0.690933192,,,,
525.6159996,2053,30.66201847,25.25179562,-214.1141589,0,-56.95020045,12.91907375,-26.61628417,-5.826065645,-61.74356918,-68.94387281,-56.15190649,224.6536298,-74.04334265,-101.5140547,0,-93.88701871,,,,
525.6239996,2053,-3.826271476,-15.95987527,-173.5170507,0,193.8590764,-4.387178055,-53.41530708,-45.30291347,52.03334369,40.3248218,46.54144376,-119.5494332,38.21463099,14.47202432,0,5.217421491,,,,
525.6319996,2053,-57.18127673,-73.22189923,-136.1185883,0,181.044736,-37.84036166,-111.7017958,-98.56835073,-82.56357916,-92.30542644,-64.81944278,101.1552727,-96.25656442,-120.0242413,0,-81.26500136,,,,
525.6399996,2053,71.38073088,61.37332731,-222.3802276,0,-28.51066784,108.73762,29.44454069,44.69418642,21.09901933,12.59490474,16.46334289,98.03508707,14.11765305,-12.56492456,0,-32.14820807,,,,
525.6479996,2053,-62.24351177,-81.99443042,-100.9924036,0,351.7539369,-35.55919535,-103.4216104,-98.18412978,-1.204774502,-6.576076443,14.57490489,-121.2185654,-11.07991206,-37.89635101,0,5.946933152,,,,
525.6559996,2053,17.33952506,5.191439198,-208.3855622,0,-55.19463261,38.09922263,-26.73709439,-6.194646318,-67.82141216,-79.35749344,-57.62204741,244.0857796,-75.79288865,-110.0006265,0,-86.55115395,,,,
525.6639996,2053,-6.116223861,-21.9161837,-172.450249,0,195.4013497,19.2611471,-33.52455791,-25.18523145,37.70030691,32.65138278,40.94329748,-86.02408956,31.52721059,10.38269252,0,14.68473875,,,,
525.6719996,2053,-37.11582229,-56.72409602,-116.813359,0,193.969379,-23.76378437,-72.418844,-59.649276,-80.30405573,-89.0592783,-58.68987842,132.3517509,-92.98057183,-109.4199258,0,-60.98841414,,,,
525.6799996,2053,75.3522163,63.78158481,-202.6385738,0,-20.01011184,91.50019986,48.31691774,63.72542267,40.62842852,25.21723314,31.60137759,111.4506706,30.90794934,6.393765957,0,-12.17629201,,,,
525.6879996,2053,-64.40791776,-82.47822235,-87.35092944,0,353.5298021,-54.02017652,-94.03959095,-89.11111003,4.659083579,0.62356925,17.93147761,-111.9101064,-5.4376662,-27.45646556,0,9.445633523,,,,
525.6959996,2053,49.59277484,39.44588868,-167.4921331,0,-41.38648865,57.83794584,10.81339206,31.03008563,-58.26459268,-66.50763341,-50.99185983,254.0151671,-68.36645616,-92.50637633,0,-77.50221654,,,,
525.7039996,2053,21.6028337,7.666914671,-120.1612331,0,216.0954365,35.0988205,-7.864121627,2.219618201,72.24790651,66.80130863,69.44041938,-100.6628559,62.26007547,43.07636544,0,40.61893804,,,,
525.7119996,2053,-47.2415426,-64.31082046,-85.88298781,0,189.2961314,-46.69847244,-94.02802654,-78.09833178,-80.84503541,-81.42990488,-58.7595787,118.0643726,-94.04138685,-113.3282388,0,-67.27855368,,,,
525.7199996,2053,79.05573125,69.82978817,-160.7602726,0,-36.33372871,83.5086399,37.18285566,54.94617805,23.96771101,20.07389205,18.05733893,120.1269609,14.73920362,-9.857116219,0,-30.12672223,,,,
525.7279996,2053,-39.40727431,-56.97858192,-19.64293271,0,361.5130274,-36.80900722,-78.53068823,-71.3122271,25.78322914,28.07992518,39.79954789,-112.2880921,16.11434528,-7.065431348,0,26.66876299,,,,
525.7359996,2053,49.70135984,38.31552252,-124.2967383,0,-40.77324956,50.57101668,2.896612142,24.05118718,-50.80244941,-51.26483854,-42.01911932,251.5776505,-59.11047982,-87.46023413,0,-71.9904232,,,,
525.7439996,2053,5.318484458,-9.336566536,-100.4138112,0,198.6303212,11.34560484,-30.83806884,-22.69090559,55.67495706,58.26213826,51.15076602,-93.84468523,47.79371393,21.77733482,0,22.55845485,,,,
525.7519996,2053,-59.76037907,-75.40016939,-58.02748767,0,187.6211431,-64.2570728,-103.9537803,-91.15925636,-82.39903548,-81.90600483,-66.07612445,121.1911468,-91.91833845,-121.0409752,0,-69.99268842,,,,
525.7599996,2053,60.02917448,52.28425735,-156.4881365,0,-42.18358757,57.86013675,23.98056052,38.46129331,11.45373263,6.632910154,0.860388779,134.9231123,6.583200871,-29.23060298,0,-39.70880325,,,,
525.7679996,2053,-63.56645411,-82.52178557,-51.15904551,0,341.956344,-70.01934847,-100.186672,-94.50856434,-4.902487968,-4.828179091,3.557348888,-84.01681217,-14.52474637,-45.71508797,0,-2.065347584,,,,
525.7759996,2053,44.61714901,32.62435896,-132.6947682,0,-40.22656095,38.69169248,3.604901439,24.93468334,-52.47426009,-61.81537771,-50.41403239,273.6547578,-58.66526666,-96.16444404,0,-75.37944858,,,,
525.7839996,2053,23.30600578,11.481755,-75.29355178,0,213.9872787,23.89095025,-6.213780816,2.082752961,74.27427513,72.68810283,68.68834342,-85.82662465,73.02147185,37.69615155,0,42.08384157,,,,
525.7919996,2053,-36.37835885,-51.54245114,-33.23961388,0,202.3906068,-46.15498404,-79.26609572,-64.82087288,-66.27450862,-63.3620087,-49.03028023,115.3739137,-76.24997407,-105.7211507,0,-50.65907868,,,,
525.7999996,2053,107.8116748,98.68195573,-99.45232969,0,-11.16104557,104.2356986,71.3726368,88.29616147,52.89872517,47.14976476,41.02791492,110.7194713,47.61339025,10.55404313,0,1.397614935,,,,
525.8079996,2053,-21.09191916,-36.89303382,22.42680749,0,382.1229839,-25.94831486,-53.93612321,-49.42543052,48.67594676,53.88005615,60.58554166,-134.4540209,43.62927356,10.50226367,0,52.41361051,,,,
525.8159996,2053,34.25072032,25.22221083,-129.2005089,0,-32.96050445,27.21895293,0.179169233,17.06327946,-43.85886553,-42.40653626,-36.06084229,230.2593387,-51.08965469,-83.46815609,0,-63.54956616,,,,
525.8239996,2054,11.88858281,-0.972356728,-110.4006677,0,204.0174142,8.866754477,-11.09607288,-7.175429809,59.37845752,57.66227257,55.69825524,-102.3520055,57.67211156,18.68556005,0,20.58769284,,,,
525.8319996,2054,-39.17597538,-52.99710323,-52.29681406,0,203.7779865,-50.07086357,-71.25446884,-60.40563531,-69.79139355,-70.68977268,-48.1898407,104.5776423,-75.75738093,-113.7412537,0,-64.10529931,,,,
525.8399996,2054,69.8235179,65.25335549,-148.899193,0,-27.0372142,70.01641905,51.62399823,66.49577033,31.0723166,29.0802285,26.19119268,108.5919433,29.1410178,-3.986349896,0,-18.91824508,,,,
525.8479996,2054,-75.49091054,-88.2148876,-72.08747341,0,351.3782619,-76.12796903,-91.8862708,-88.07730996,7.303720754,12.10127394,20.48516456,-121.2156552,6.18074636,-23.06813448,0,16.22685144,,,,
525.8559996,2054,4.631900152,-1.591929119,-226.4066892,0,-61.49760805,-2.455466227,-23.83247875,-4.491051152,-83.04517136,-87.72292561,-77.65182022,259.3514172,-87.18629836,-121.5145226,0,-99.7640154,,,,
525.8639996,2054,-5.45190038,-13.58469461,-198.6968643,0,178.3615818,-8.102475702,-27.35338113,-17.02345195,29.84183225,30.7876822,26.14896377,-67.57876098,29.46592519,-2.703487506,0,2.761425105,,,,
525.8719996,2054,-49.66365176,-58.72256336,-138.3827146,0,189.335707,-61.53938145,-84.9733414,-67.7293654,-86.60844786,-77.33833106,-62.67659202,145.5453614,-91.35671251,-116.4078014,0,-66.1664137,,,,
525.8799996,2054,95.39613325,96.6284622,-217.0263879,0,-30.83228995,87.71765679,65.91286541,84.96589223,37.65241332,41.91920633,32.28373246,156.6663417,33.87838367,5.048509183,0,-15.31823229,,,,
525.8879996,2054,-31.9143104,-37.05325045,-98.79224362,0,364.8726027,-39.7659083,-58.88725483,-53.463318,37.8557044,48.15415462,49.7741826,-90.96037486,32.22985817,1.988311856,0,40.08749812,,,,
525.8959996,2054,43.54731361,44.58105885,-212.276217,0,-37.88900899,31.10492911,5.926805351,25.21108125,-43.8505634,-37.12891214,-35.84149767,278.7264514,-53.62793357,-81.5281435,0,-58.30888542,,,,
525.9039996,2054,20.38817229,17.54300041,-181.5313137,0,192.8919263,8.595269506,-9.893938931,-4.26894104,69.15852154,75.09134035,63.19613998,-52.05948694,59.03816669,31.59281658,0,33.38834795,,,,
525.9119996,2054,-39.18110677,-46.82916789,-144.4910666,0,195.1895368,-58.75468473,-80.47068333,-71.53737084,-68.65892265,-67.88073245,-52.67533859,160.7299673,-81.70244834,-115.540083,0,-61.39620203,,,,
525.9199996,2054,102.9821783,102.4914229,-238.233324,0,-31.71931384,90.97367127,68.66644889,80.05288543,40.18500374,35.81607144,30.12033349,185.1923764,30.02886292,-6.232507037,0,-15.97680892,,,,
525.9279996,2054,-28.08524888,-36.23958426,-118.5919649,0,366.3687411,-42.14904931,-55.53432396,-58.25600851,49.48967195,52.34252788,58.96310404,-64.9829046,34.25154562,3.881431158,0,46.06456757,,,,
525.9359996,2054,56.72860464,54.63881523,-220.5365932,0,-27.61956264,38.71553374,23.64704331,36.96940897,-32.87889833,-38.79701844,-24.93078503,300.8648097,-48.36326788,-77.47552274,0,-56.6619263,,,,
525.9439996,2054,44.44912777,40.60756918,-194.5277375,0,208.2722841,29.39549663,17.93566972,20.30961528,80.98593628,77.17862045,77.93054179,-32.37559439,69.49072504,43.79238491,0,41.55742686,,,,
525.9519996,2054,-15.3941739,-22.09446648,-157.1572045,0,221.1378068,-39.40881595,-55.35341763,-49.41318871,-41.99008221,-43.98139873,-25.94455815,166.8515076,-54.64223585,-88.23544572,0,-34.4239841,,,,
525.9599996,2054,128.2341239,127.5868224,-236.9144717,0,-0.858636724,108.9979526,89.59482102,101.1535438,71.31069781,63.29695197,60.11544208,179.745865,67.72703878,23.36066587,0,18.5965673,,,,
525.9679996,2054,-21.03523545,-30.89650674,-127.110612,0,381.7662393,-46.76344876,-68.5512354,-69.12044869,61.0646897,58.48213672,72.05425111,-77.6026632,54.04519722,10.48068147,0,57.17554688,,,,
525.9759996,2054,61.14039988,57.38312822,-225.2319108,0,-26.94201302,27.57668938,-2.29205211,11.0412422,-32.99591321,-43.23513206,-25.44484288,295.3627094,-43.29882647,-94.54752522,0,-67.82942695,,,,
525.9839996,2054,78.83731641,73.48179085,-148.5370279,0,218.9800949,48.70843388,23.73355436,27.46905099,101.6015554,93.26097657,96.69585172,-38.30868634,95.68272068,43.74836868,0,54.83262194,,,,
525.9919996,2054,4.290734756,-2.313396397,-94.43917831,0,240.1543586,-29.29785912,-58.59009853,-51.1618884,-16.10634258,-17.1421308,3.915734816,146.1682687,-23.29668737,-71.52051201,0,-4.832116886,,,,
525.9999996,2054,114.3224969,116.1547565,-219.3255502,0,-3.4156036,92.04957375,67.99362257,76.66093586,64.84479588,65.09170211,61.1877133,171.2581278,66.46290175,19.50151509,0,21.25537827,,,,
526.0079996,2054,-25.35239095,-31.56134015,-125.085235,0,372.7853525,-51.0151634,-60.05450199,-64.71734707,40.10408873,46.52920859,56.1758465,-67.54328442,42.86467672,3.968142834,0,55.35855831,,,,
526.0159996,2054,58.03493175,60.2483878,-228.781387,0,-20.58381213,30.25617569,17.3649426,26.22599128,-42.60471251,-40.92815721,-30.88688213,302.1718457,-41.19844356,-78.226402,0,-50.09824971,,,,
526.0239996,2054,61.72413519,62.09375639,-183.6329336,0,220.3209499,43.52209133,30.83950261,29.55494253,91.76228023,97.48830086,90.80378515,-36.67876334,97.48927176,62.25584326,0,67.25385119,,,,
526.0319996,2054,-21.52082026,-26.14127659,-142.8634974,0,228.1553526,-47.93910885,-62.60645827,-57.92910011,-35.85454802,-29.04250234,-13.01527929,148.1667782,-31.65095376,-66.16675588,0,-11.07581125,,,,
526.0399996,2054,89.53404956,93.48528724,-258.5830556,0,-23.68747863,69.66482847,54.25061018,61.64740281,38.1452777,40.43241013,36.58104568,182.2670264,45.9133022,9.203879462,0,-2.934983534,,,,
526.0479996,2054,-21.11162441,-24.15247665,-133.253955,0,366.7294929,-43.20556639,-55.66248185,-60.5755153,32.7837225,40.73694626,49.8039641,-59.15460477,37.89625815,0.645743502,0,40.9230077,,,,
526.0559996,2054,62.01941771,65.4538534,-236.8959921,0,-14.89046025,35.10335191,20.48749925,30.41673124,-31.76243228,-28.17171309,-20.43081365,297.1642082,-29.30550207,-68.81336189,0,-43.71930813,,,,
526.0639996,2054,34.75193875,36.57456518,-227.0393974,0,202.5610746,16.69012331,4.786912644,3.639911137,79.06181523,87.2380426,77.96668745,-34.88831579,86.31174872,47.52391028,0,54.20622537,,,,
526.0719996,2054,-45.5476397,-47.96644994,-178.7052062,0,202.9568141,-70.52192806,-89.15900632,-83.70303359,-63.42556169,-53.93422674,-41.10635294,164.6126338,-58.29237785,-95.60613029,0,-37.4607613,,,,
526.0799996,2055,90.90292176,95.03838332,-261.0096413,0,-38.46471071,68.75371107,49.77235548,61.71208984,26.01964467,29.74670388,20.54859906,203.7352927,29.51726898,-3.331091288,0,-11.34455873,,,,
526.0879996,2055,-10.37351027,-14.21375016,-115.3740347,0,357.955635,-31.02020749,-47.4485657,-45.90913846,36.51916705,44.92760398,51.2737759,-49.48179714,35.52092925,8.086603088,0,49.81355957,,,,
526.0959996,2055,59.836232,62.53272767,-208.0482316,0,-18.92804528,41.87243325,19.60456947,33.54560018,-24.57687696,-20.62715042,-9.786368819,294.4233179,-27.02614116,-51.5067117,0,-27.52756223,,,,
526.1039996,2055,36.65436006,38.01582858,-197.5909942,0,201.4337257,25.76924413,11.59820617,10.88359155,83.53903959,92.71320401,85.52061372,-38.82302997,85.56558212,61.43556679,0,65.76889374,,,,
526.1119996,2055,-38.94529425,-40.79755725,-159.4841545,0,212.2440168,-56.03506605,-66.29507489,-62.80857283,-56.95535078,-46.82119138,-32.34527553,157.4492839,-54.15994026,-82.64364564,0,-25.62636924,,,,
526.1199996,2055,69.02134241,73.98956838,-264.7005083,0,-38.3787701,56.10415942,50.28686141,57.90196978,19.9721174,24.42164603,18.86570285,200.2837236,25.41373537,0.384642758,0,-5.220533643,,,,
526.1279996,2055,-36.23717344,-40.08006244,-133.6853899,0,338.9718994,-57.08244869,-57.53313627,-61.82697022,12.81950331,22.68114929,29.71926727,-42.39641569,13.42210082,-10.79601146,0,31.76908476,,,,
526.1359996,2055,59.12419809,60.63390524,-221.8309627,0,-31.95871992,32.04008733,28.73519526,37.1718765,-37.78093687,-34.73267075,-23.20026174,305.6796241,-37.31146955,-70.74100585,0,-46.11865116,,,,
526.1439996,2055,44.24493188,44.54490545,-218.6734461,0,196.6501411,24.53383116,24.60929714,18.26092466,81.95802348,89.73797974,84.79067043,-35.26919922,90.73538427,52.03445434,0,61.78794933,,,,
526.1519996,2055,-22.17170021,-24.74131875,-183.3168212,0,212.6917251,-44.9515528,-50.2982307,-51.52034885,-49.42368549,-37.15675156,-23.09986269,142.8592857,-43.34196668,-81.85200252,0,-21.24440423,,,,
526.1599996,2055,84.9703269,88.60765357,-283.5095934,0,-33.23315054,69.24424704,60.41892631,66.51434618,39.62769503,47.88080225,43.49964032,168.7378315,43.2427883,17.15333551,0,10.25537176,,,,
526.1679996,2055,-35.90008056,-39.17260859,-159.1831003,0,339.2925399,-56.93945549,-62.56292608,-67.1970491,16.88149835,29.75553393,39.04958822,-68.93387893,16.63116043,-4.224613367,0,36.74743045,,,,
526.1759996,2055,62.11547931,66.84420323,-229.7813169,0,-31.90148005,39.6345855,35.7057828,44.24853289,-37.10123974,-31.46767084,-23.8857968,294.0426017,-38.05171262,-64.45840643,0,-47.81577632,,,,
526.1839996,2055,37.25238559,38.7475519,-195.2279434,0,195.2054916,24.95928757,28.23910095,23.02442491,87.30043443,99.13281264,87.28022347,-44.13560448,90.73225591,69.70623719,0,64.90938371,,,,
526.1919996,2055,-36.23713253,-40.64867383,-142.0702487,0,202.3184029,-56.54124376,-55.95847519,-57.15778627,-61.38510384,-47.38771581,-38.8383533,145.4260779,-59.30549128,-84.44523749,0,-32.75209052,,,,
526.1999996,2055,99.08087262,101.0931994,-230.6035433,0,-33.25611513,81.80357024,81.8709489,86.4714043,46.76791897,50.53719471,40.50256559,169.9192988,50.85841817,21.57656608,0,12.55596163,,,,
526.2079996,2055,-6.408881569,-12.36274335,-102.1063109,0,360.2228478,-33.57158312,-27.49912633,-32.60733998,47.35787796,58.19350811,62.24278123,-92.69291235,46.95888648,22.29316982,0,67.14360221,,,,
526.2159996,2055,77.24616752,76.05823732,-180.0624597,0,-12.88886607,45.26854908,53.67738712,65.3991279,-18.65562964,-13.73318108,-5.471274474,259.1546868,-20.03209124,-48.7093282,0,-23.32598882,,,,
526.2239996,2055,32.29147384,27.38873672,-170.6062369,0,203.9687147,13.8140816,23.78112813,27.44079197,98.74175938,101.9547845,98.32678347,-81.75331669,101.067147,76.70929441,0,81.53257163,,,,
526.2319996,2055,-51.56716172,-59.65206776,-147.1668493,0,198.9265364,-77.5956156,-72.6596861,-63.63578748,-70.22180735,-63.23384272,-47.57987553,120.9420496,-74.23664551,-95.44747527,0,-32.73104266,,,,
526.2399996,2055,73.38419427,74.28288222,-248.7726386,0,-55.42729185,54.19056992,62.35110523,74.67706532,13.57790616,16.69950865,9.337614883,169.7022231,13.18598665,-11.25711124,0,-12.35469507,,,,
526.2479996,2055,-50.30404159,-56.76393305,-123.0514214,0,335.7338527,-68.28717891,-59.08798223,-57.27494091,16.05040227,22.90668169,31.03693161,-84.41901511,18.66166197,-4.803822739,0,46.80581564,,,,
526.2559996,2055,42.85541107,41.86416926,-201.5915788,0,-40.6208749,19.01859462,25.09925588,38.40630675,-52.47425484,-53.84547738,-40.20404948,283.0604264,-50.22549458,-75.0695572,0,-41.49955945,,,,
526.2639996,2055,20.99791178,17.72742092,-186.914652,0,173.5995838,1.108793255,13.42988795,12.9962433,68.46224765,68.36917881,69.07551053,-50.79930087,72.99058793,50.24985967,0,55.31952321,,,,
526.2719996,2055,-60.46967295,-67.241825,-164.0774477,0,185.1336916,-87.1173518,-82.03490032,-74.82814112,-81.97160249,-77.47979218,-57.53126312,139.8235198,-81.7199443,-104.4188984,0,-48.49620899,,,,
526.2799996,2055,77.25640087,78.01865691,-268.4689519,0,-59.94608223,57.27815328,62.98233316,73.2160753,17.15524791,16.29537339,10.52484856,184.6742044,17.21066019,-4.644719012,0,-15.54031486,,,,
526.2879996,2055,-43.96424227,-50.42008792,-134.2072208,0,332.1523575,-67.47889419,-55.13751365,-59.71659476,26.68179597,30.31143002,35.17854289,-78.12817894,24.89604338,1.729493665,0,42.10222332,,,,
526.2959996,2055,38.88475789,39.54887944,-198.8534413,0,-44.30726527,12.59668423,17.33703828,28.75791109,-51.90838722,-50.77963817,-44.46372026,288.2644851,-52.48979247,-82.71000038,0,-56.30935025,,,,
526.3039996,2055,27.92103276,28.24096999,-164.3132118,0,177.6985587,11.85522774,19.5628321,21.11778914,72.19675277,76.82626243,67.22128793,-43.78897124,73.6639976,46.58675012,0,47.04384797,,,,
526.3119996,2055,-41.61431606,-45.41909131,-109.9150711,0,204.5710385,-62.95674589,-56.16797792,-50.0094806,-62.11852514,-58.66995971,-45.55836162,138.5357266,-64.82006835,-90.23045129,0,-34.25687205,,,,
526.3199996,2055,96.45920853,97.30762071,-178.7326475,0,-38.73163859,80.2215732,85.57250826,98.27616052,37.20938006,33.62050991,28.54760973,179.8181363,39.40038665,14.48414884,0,8.376548178,,,,
526.3279996,2055,-39.64444218,-46.18561519,-39.38230443,0,347.4833141,-57.31347994,-50.32397814,-48.25432164,36.17602164,41.98939791,48.0420308,-83.27084161,35.1196121,14.02013248,0,54.2673885,,,,
526.3359996,2056,34.3745186,34.92870471,-127.4560368,0,-41.3588377,15.98217228,18.52979904,33.68980873,-53.33810971,-50.30418892,-42.92482342,297.970552,-55.69493084,-79.22129873,0,-53.3158963,,,,
526.3439996,2056,30.91880799,29.49478353,-92.49949491,0,172.1080574,19.8637952,27.70125079,31.27592122,69.57404306,73.9681998,68.77098698,-25.18157622,74.5031106,52.69660024,0,57.83461778,,,,
526.3519996,2056,-38.43138747,-42.77080324,-28.02306924,0,203.0377929,-58.06697015,-53.08882936,-46.1199502,-62.0499505,-52.54494423,-40.08149635,150.2370129,-61.93250167,-81.52438741,0,-22.37856681,,,,
526.3599996,2056,86.26956544,89.16546346,-130.2534278,0,-50.0753295,71.41583781,75.31525493,85.13929008,31.483501,36.80729916,25.97297211,194.9718669,32.40696279,12.02595927,0,9.207197025,,,,
526.3679996,2056,-63.13522825,-66.78839245,-41.97587469,0,322.5182855,-79.38603234,-74.80519568,-74.56196829,12.92001747,22.08739567,26.20215891,-62.35572602,12.1134751,-6.430009479,0,41.2093518,,,,
526.3759996,2056,35.33768107,37.7877448,-140.1440867,0,-55.16720316,14.99304014,12.20134633,30.02799165,-69.46239344,-66.4726909,-59.53503281,320.3251822,-72.56641822,-93.11579695,0,-61.71001706,,,,
526.3839996,2056,59.54331846,57.12032329,-96.07176965,0,182.8842032,44.18500862,48.44786165,54.38280923,93.59677028,95.61782349,89.98188681,-18.86716936,93.89992844,71.69040386,0,80.516296,,,,
526.3919996,2056,-50.66385567,-57.57784869,-54.4525207,0,204.9733478,-73.43333597,-69.79857346,-61.81046787,-49.52496313,-44.54410445,-27.77998454,144.7166254,-54.38227305,-76.70772598,0,-10.49672988,,,,
526.3999996,2056,66.0324754,67.04161584,-166.5402788,0,-73.58532297,48.20785401,48.96564422,62.93083159,6.995352661,9.584202042,1.882004374,215.5595584,5.390227467,-17.21751361,0,-14.05613326,,,,
526.4079996,2056,-40.55888158,-47.30423681,-45.90641862,0,320.1641426,-60.83398206,-57.12073387,-52.50500061,23.2900065,31.26256308,33.42396912,-42.40629586,22.82139609,-1.628800302,0,50.77727873,,,,
526.4159996,2056,32.78671912,31.55684762,-140.0947617,0,-53.97905873,7.946204715,9.423890555,26.90976993,-51.19021886,-49.01752505,-44.11770126,322.9493718,-54.76287977,-81.22691694,0,-42.82820568,,,,
526.4239996,2056,42.40431131,37.67791479,-114.893689,0,158.1042557,24.5137209,28.87428937,33.70894726,65.37332183,70.49626308,59.50301564,4.076849438,65.2078065,42.57479147,0,58.0242277,,,,
526.4319996,2056,-36.32079164,-45.64238376,-55.18373955,0,202.2007341,-56.80165858,-58.11088474,-48.54338588,-53.02515802,-45.11358697,-34.40904311,169.1303717,-53.86511007,-77.15608277,0,-7.435549674,,,,
526.4399996,2056,84.0163863,82.56838471,-149.5838095,0,-58.30823624,68.83075455,69.59670348,84.70259597,34.30532897,32.88284628,25.23095113,225.2543772,35.84843806,12.70740644,0,16.28257379,,,,
526.4479996,2056,-30.77971836,-38.68805027,-50.93525776,0,326.4169647,-48.92620055,-45.00123479,-40.53195243,29.62075665,31.82924278,35.64668996,-33.9158079,30.09674293,7.011841346,0,62.57144398,,,,
526.4559996,2056,17.24003646,16.37626939,-167.3651528,0,-56.09479517,0.83015066,-3.735264938,15.94442551,-58.19870858,-56.51506984,-51.73124677,332.8137784,-56.3315172,-84.61577186,0,-41.89189567,,,,
526.4639996,2056,14.38978745,10.59330852,-136.6905395,0,145.5049487,2.216099217,6.684070018,14.16461759,52.09260799,55.10144546,45.99042679,26.84531357,55.80101382,32.84322621,0,47.11308866,,,,
526.4719996,2056,-21.05893459,-28.8673192,-65.9626527,0,198.0992639,-47.17605922,-41.6110908,-32.12815437,-55.39686639,-56.49075853,-41.97229385,196.271738,-58.5419424,-83.25660373,0,-12.24563983,,,,
526.4799996,2056,92.84068048,94.38715405,-162.7005967,0,-54.0449806,76.12630491,77.59469747,91.5909127,46.29139757,42.15817969,33.34242665,228.36029,48.36139631,18.1859425,0,28.9455552,,,,
526.4879996,2056,-59.6147837,-65.06921713,-47.25681353,0,324.2468479,-72.32993977,-66.80206015,-64.0450369,23.77670805,30.10249429,28.82314848,-36.61159801,23.74745696,3.546025672,0,61.24943584,,,,
526.4959996,2056,26.59880123,27.25871585,-131.2821143,0,-54.68940632,12.68108895,14.44729759,31.06015077,-60.4325599,-61.52961392,-58.62381654,344.6876608,-65.29995052,-82.58798694,0,-42.23769866,,,,
526.5039996,2056,33.35079743,33.45225183,-110.7087399,0,156.3928316,29.37921849,33.15111768,39.43058122,76.55582726,76.11957617,65.74589271,17.9734873,78.08856755,57.51866034,0,72.14613269,,,,
526.5119996,2056,-43.86131815,-47.25027973,-60.57245954,0,199.7905172,-56.86391269,-54.58821666,-41.05452901,-52.83686522,-48.50287532,-40.53567099,183.3562795,-53.97410734,-76.01797974,0,-1.598370678,,,,
526.5199996,2056,76.18357481,79.13691375,-143.2638843,0,-68.92299911,64.47559356,67.50079404,84.62909337,28.24003758,29.55150277,15.56641019,244.6628273,28.25837621,4.307760638,0,16.8334979,,,,
526.5279996,2056,-55.00137749,-60.89687233,-21.03536189,0,315.2033041,-67.66842119,-62.66909588,-61.32099199,21.67084412,28.95260723,28.12984398,-22.12253373,20.99355101,-4.646034834,0,49.70329864,,,,
526.5359996,2056,30.1068739,30.16200632,-120.5797904,0,-55.83852773,17.57623705,15.8386494,33.18170181,-59.53921414,-57.65617538,-56.93302999,353.9133738,-60.74510495,-90.41969329,0,-52.18150922,,,,
526.5439996,2056,32.91606678,34.16420348,-97.71067623,0,153.4210415,32.65976921,33.32790793,40.56193866,73.46117519,79.04589213,65.16781996,27.74183821,78.52562397,53.01498422,0,70.22230105,,,,
526.5519996,2056,-54.35454705,-54.20894116,-42.85743207,0,192.1372176,-58.2998693,-63.79638762,-53.71542964,-64.34488025,-52.63871844,-45.12642636,190.495157,-62.05158586,-83.83575969,0,-6.416533444,,,,
526.5599996,2056,69.40603399,77.27598409,-147.2579065,0,-78.45736535,70.66933046,61.03422012,76.2766159,17.34889591,25.43215741,9.643256732,261.112309,21.03841032,-3.685208297,0,11.39201689,,,,
526.5679996,2056,-48.84136111,-49.67538759,-25.63402391,0,316.8367718,-51.81561429,-54.69083325,-53.94834726,21.36908976,33.89056664,32.54825835,-8.082309512,24.87766192,0.554549328,0,62.7446747,,,,
526.5759996,2056,32.5759301,35.694716,-98.33574221,0,-55.60048161,21.25241009,18.812418,32.04045743,-62.08092207,-56.25963124,-50.01079608,361.6321279,-59.48869961,-84.59444708,0,-37.01002191,,,,
526.5839996,2056,24.53937635,25.44666111,-78.33935348,0,147.7731693,18.63543977,21.33671067,23.60866674,75.90345271,80.53680954,73.75697324,31.36242125,83.44684127,54.17094125,0,73.4748557,,,,
526.5919996,2057,-77.37333125,-79.91558733,-49.54001735,0,183.6761934,-89.33646731,-88.2029781,-82.65740603,-76.07601057,-68.21993647,-54.52639338,200.3489114,-71.4006396,-102.2605102,0,-25.83560178,,,,
526.5999996,2057,52.97314349,57.56103029,-158.3959713,0,-97.60380842,46.18615261,47.612797,57.54369131,-13.48836325,-7.764933886,-16.22479313,289.5995416,-8.600172887,-33.99300468,0,-21.57005099,,,,
526.6079996,2057,-49.26255752,-52.19214841,-43.51242782,0,308.6051433,-55.02202913,-51.42985154,-52.54193831,10.52490131,22.45802243,26.53233181,11.03777182,13.1599938,-9.428106971,0,51.51836639,,,,
526.6159996,2057,36.02421301,40.06462394,-144.4654415,0,-54.39919516,30.0328996,26.13286057,44.87456677,-63.42491623,-51.94311689,-47.30928835,373.531165,-62.57432219,-82.15489198,0,-29.69967319,,,,
526.6239996,2057,38.56618564,41.19996323,-123.6094647,0,141.930932,38.0421155,37.96209761,46.19866828,71.17018108,86.06959973,74.29070388,51.66941966,75.92872633,60.63236046,0,87.15007789,,,,
526.6319996,2057,-49.01866938,-49.7272576,-58.87798291,0,193.3711527,-57.25931826,-59.70528418,-50.61499235,-54.07924207,-39.85240382,-28.52734322,200.6786168,-53.96213916,-72.83728423,0,12.27344837,,,,
526.6399996,2057,70.563589,79.51216811,-151.7516445,0,-81.28219342,72.83805833,66.61289212,82.47583099,19.06249649,31.32718188,18.54000474,264.2796193,20.00371003,5.64844075,0,28.78688135,,,,
526.6479996,2057,-61.63806771,-59.29503768,-36.72123747,0,306.1871752,-59.1085721,-60.60841595,-58.4940314,12.58806573,33.07026194,29.34312609,-8.239218738,16.54307437,2.89073607,0,69.85916371,,,,
526.6559996,2057,19.82286899,27.63116192,-125.690231,0,-63.34444408,15.78631281,11.60815045,27.70701184,-72.18565222,-58.83174999,-58.69822319,371.8475429,-64.85357992,-88.95707168,0,-35.59967404,,,,
526.6639996,2057,25.34271834,30.48326282,-109.4247946,0,132.458177,29.23343561,26.82817978,32.5511392,62.70332404,76.93108082,61.15819501,52.9566206,72.75868489,49.15255851,0,79.62786991,,,,
526.6719996,2057,-65.19154052,-64.4102433,-65.39507458,0,182.0803708,-69.0996527,-72.27568749,-66.22600896,-70.71211609,-55.62950522,-49.92895512,204.6988468,-65.65374578,-89.93730144,0,-6.602872805,,,,
526.6799996,2057,75.36415126,83.62265075,-165.9549162,0,-92.03851768,71.17589524,71.60603456,82.65410322,12.95911653,21.04419937,5.824235355,276.9058989,20.27521476,-6.750170878,0,6.511273412,,,,
526.6879996,2057,-45.65294416,-45.80788109,-38.70736114,0,311.0892469,-52.46199287,-45.53897414,-47.37152509,26.41263225,43.68072968,36.21730944,-5.832225366,31.51365999,3.740766448,0,69.92881874,,,,
526.6959996,2057,11.97729596,18.30995536,-122.9044985,0,-53.39774065,4.920821098,7.787537842,20.95892109,-62.59945699,-47.11886671,-52.86662167,367.1905154,-55.2695585,-88.21966704,0,-31.60219045,,,,
526.7039996,2057,19.76700913,26.03114957,-107.4986152,0,126.0018462,22.15628223,25.10720434,32.04302403,57.60267008,68.81584968,52.71527423,61.99848222,71.76385155,39.91066715,0,66.14823791,,,,
526.7119996,2057,-47.76108508,-43.70276689,-42.09754815,0,188.7143377,-51.87338681,-54.59758384,-43.62826696,-59.24591937,-48.57083172,-42.62849849,210.52859,-51.89124923,-84.42871484,0,0.272904849,,,,
526.7199996,2057,79.17540769,92.09071828,-148.5818494,0,-76.33605073,78.9370069,77.17489934,94.04901467,30.44324391,41.37268197,21.93114905,271.3954332,40.77208841,7.686347825,0,27.83466186,,,,
526.7279996,2057,-53.40499892,-48.72090632,-52.50347683,0,313.7436063,-56.89788776,-51.13731843,-45.19283117,23.93761214,43.73116892,36.55646507,-12.50345925,33.97390672,7.031610414,0,71.29044936,,,,
526.7359996,2057,13.8913451,23.05285674,-145.3614507,0,-57.69304427,6.419878845,7.458851525,25.19969156,-67.61732897,-53.22973178,-54.49499956,357.442544,-59.112889,-86.54187961,0,-34.37787554,,,,
526.7439996,2057,18.3509962,24.16553024,-128.9575683,0,120.2813591,16.33975257,20.23520249,22.83632444,54.41923175,65.09690473,51.5677173,44.09608259,69.09320542,41.08639811,0,64.47924528,,,,
526.7519996,2057,-56.78498393,-53.22546294,-56.98888679,0,187.5600311,-69.50473667,-63.48555345,-62.10236749,-75.42151143,-63.68441881,-53.69388749,199.171426,-64.23718978,-94.09391074,0,-15.5392152,,,,
526.7599996,2057,74.81369669,88.60593119,-157.5533566,0,-79.89269492,68.58982733,73.02012818,81.54201643,13.23858396,26.33263507,9.7763277,277.5734247,31.83449834,0.058169275,0,11.47402486,,,,
526.7679996,2057,-51.04606561,-45.8011714,-61.26800999,0,316.9383158,-53.98457915,-51.60996951,-51.38396459,21.03762432,43.57474636,34.77642365,-7.228135401,43.43334443,17.17392989,0,74.0401608,,,,
526.7759996,2057,20.13370266,31.29588018,-148.5009346,0,-45.16962653,13.43520412,9.728392477,23.12037031,-70.2456951,-49.62482733,-55.12147096,370.3092974,-48.39179252,-76.8327776,0,-26.68490683,,,,
526.7839996,2057,31.97753984,40.27048481,-123.8236188,0,128.5111165,29.92897081,30.66851447,32.03234999,56.63204438,78.08563062,57.29042571,66.52234828,82.75058822,54.30739545,0,75.1972509,,,,
526.7919996,2057,-41.47488889,-39.41112595,-52.83674986,0,206.2264824,-50.34643618,-47.98140764,-46.15957343,-61.02710148,-42.36878792,-36.44838738,204.6724666,-41.71672152,-66.07880283,0,6.654652073,,,,
526.7999996,2057,81.38595408,90.66612649,-152.944651,0,-59.5758571,80.88908288,81.35000585,88.97232177,22.68001523,35.10795275,21.34130537,270.5925299,46.62520144,19.4925155,0,26.8168435,,,,
526.8079996,2057,-46.61520259,-45.01018011,-37.29604447,0,321.4906288,-44.89348817,-47.70160657,-44.19488649,26.69399364,48.12319768,41.51146071,-14.35465728,48.65574229,26.92255469,0,78.44116519,,,,
526.8159996,2057,26.48430418,36.25582793,-122.0274938,0,-43.08139468,21.1706475,12.13361322,32.17237595,-61.26367922,-41.8710297,-46.75656508,363.3802289,-46.87486999,-65.05591848,0,-22.22354839,,,,
526.8239996,2057,36.58934069,42.39219897,-116.2398177,0,125.7799248,33.24702519,31.00646761,36.39664324,60.85309205,81.05929025,60.57329619,53.76808513,80.07156604,58.3136628,0,75.12357288,,,,
526.8319996,2057,-48.47241205,-54.57353618,-43.78690433,0,192.775427,-55.3717243,-56.00760532,-46.48606308,-63.36860055,-47.01836416,-40.2918748,189.4284604,-49.06265116,-68.5248676,0,5.308962651,,,,
526.8399996,2057,65.47783406,65.39533078,-134.8743831,0,-77.04015821,66.34385631,66.10759126,80.53758158,21.27179281,20.0840362,15.5647638,265.5482223,39.48296815,18.67283007,0,30.38451055,,,,
526.8479996,2058,-61.70849284,-70.57673939,-24.92042271,0,304.0864544,-60.86659332,-55.83926843,-57.50178972,22.83218217,22.65360359,32.25105796,-20.12326585,44.59875039,16.3105319,0,73.18226676,,,,
526.8559996,2058,-2.685019461,-7.822850996,-125.4788166,0,-69.24566593,-4.897245508,-2.384711358,11.03097877,-77.88048215,-82.65633886,-70.02402756,358.9775234,-60.71647655,-89.51268521,0,-41.63238516,,,,
526.8639996,2058,2.58752234,-1.39501636,-135.7834361,0,95.52800049,1.820253757,10.01002207,11.40405331,47.57265148,38.75192548,36.05997749,58.49878121,67.18778032,40.2775918,0,57.06463016,,,,
526.8719996,2058,-70.9126204,-78.59481667,-75.17588788,0,169.2671513,-81.52563332,-71.97878328,-71.05099944,-69.06383854,-76.35018514,-57.77690567,192.3335099,-51.14468791,-86.4787128,0,-18.84421811,,,,
526.8799996,2058,60.30674497,60.25440653,-173.0242436,0,-101.6258803,52.58497095,62.02293211,67.68052362,11.09499023,-0.086396264,-2.127675939,270.878245,31.26238362,-8.692909347,0,-1.468213295,,,,
526.8879996,2058,-51.48655785,-59.11643423,-69.22904482,0,296.6918971,-60.7475917,-47.32726673,-56.53278646,31.80244171,26.63424641,35.94904112,-22.81898274,50.18837864,9.801499672,0,71.1895139,,,,
526.8959996,2058,-0.108782591,-3.480955339,-167.3031749,0,-63.06644338,-9.480406237,0.503904729,6.466967336,-60.62124237,-68.27886357,-56.35475429,347.4360749,-45.89070789,-85.3133819,0,-30.0595606,,,,
526.9039996,2058,10.46834543,4.561814902,-156.3643941,0,96.40095663,2.890176607,18.22315789,15.31774949,48.1920538,40.34720075,34.11152027,53.68795425,64.57608663,33.64954603,0,55.03219164,,,,
526.9119996,2058,-53.17714719,-64.05339619,-96.98181739,0,178.6267266,-70.14937078,-57.70117694,-59.39816907,-60.9105752,-70.30530389,-52.64138016,182.8633868,-46.83213818,-83.30069668,0,-7.724945835,,,,
526.9199996,2058,56.7863717,54.96340261,-210.0805481,0,-101.4063993,49.42007299,54.64441174,60.84675256,20.22420139,6.476424059,3.637706926,261.3567209,36.29132538,-1.490456686,0,9.871175614,,,,
526.9279996,2058,-67.42085439,-77.35876063,-87.08270921,0,273.7204613,-80.32322331,-77.17993066,-82.36853642,17.43925734,12.22843134,17.50181072,-21.65789898,28.50753899,0.108945976,0,53.57093532,,,,
526.9359996,2058,-1.294678422,-5.002373694,-171.6958464,0,-89.85441228,-21.88377227,-25.3869509,-16.96722685,-79.10259362,-88.70599793,-77.32840978,351.338341,-73.36078227,-103.2344237,0,-60.99133802,,,,
526.9439996,2058,10.70828264,7.285593318,-157.3123331,0,76.93016124,-3.01768996,-3.148469809,-4.203826373,47.03414011,38.64860537,33.0252784,50.25994333,54.1028561,26.04608791,0,36.85375047,,,,
526.9519996,2058,-51.50820084,-61.21941252,-63.12563245,0,167.77278,-73.01194036,-75.18438119,-76.08169881,-57.65990251,-66.56329611,-48.35060497,180.9896533,-50.14364772,-85.7065026,0,-14.6079295,,,,
526.9599996,2058,78.99057572,77.56517849,-165.7641288,0,-102.8821252,64.18683709,64.41654539,68.62377281,26.85294646,11.68056875,10.21848826,261.8119481,38.52472682,-2.443053155,0,8.63016798,,,,
526.9679996,2058,-47.41930099,-55.90696962,-72.05483777,0,283.8244061,-62.35054558,-55.37154862,-62.46116338,34.62873287,31.71991767,32.2598812,-38.92882064,40.89593449,9.715323798,0,65.98462468,,,,
526.9759996,2058,7.777999972,4.032011388,-166.7190185,0,-78.89698182,-8.662103838,-4.602165494,1.39874482,-64.6554145,-69.02281336,-65.30560456,334.7300573,-58.57413274,-91.29553038,0,-39.31965024,,,,
526.9839996,2058,13.89555868,9.722785398,-163.6999122,0,80.93412343,5.581484781,17.43709397,15.34141225,51.0124795,45.99141934,35.85151247,48.33234759,59.50765191,29.44774124,0,54.10038554,,,,
526.9919996,2058,-50.17535109,-59.20759144,-88.40655452,0,169.0988894,-65.65421081,-53.67107745,-50.07449407,-62.72219074,-65.6045642,-54.37936919,185.2023116,-60.95172686,-84.64204433,0,-5.016312208,,,,
526.9999996,2058,84.82048835,83.60927635,-183.5729997,0,-101.9881839,76.97313804,89.7024167,99.14600937,32.63301955,23.93489898,15.97320359,265.292785,38.2290765,16.71523801,0,29.9559839,,,,
527.0079996,2058,-49.37183149,-58.56239742,-66.73947404,0,282.6974803,-58.04098345,-42.87585708,-45.2391976,39.22875453,36.13139864,38.75999189,-36.32633454,40.87262011,26.16122258,0,83.20143099,,,,
527.0159996,2058,13.14403907,7.95247394,-130.7185379,0,-83.87823815,1.189837266,8.378441476,23.36133408,-72.27423852,-79.55803317,-71.21112763,346.0017879,-71.17424016,-88.61277589,0,-38.68812161,,,,
527.0239996,2058,29.57751922,22.90971822,-104.3254183,0,82.76411071,27.21746414,35.97130606,41.86730777,66.0807281,61.30363072,53.56050323,42.559027,73.1989529,57.48364476,0,77.36151073,,,,
527.0319996,2058,-50.52148076,-62.78234861,-26.76182287,0,170.3669675,-60.3214915,-58.24597033,-52.74475412,-51.11439006,-52.72260394,-36.53095264,166.1199562,-51.1372718,-64.12447029,0,18.87235581,,,,
527.0399996,2058,79.11157035,75.72591624,-119.2977407,0,-116.3711417,77.99490361,77.48407407,88.2907292,14.61932931,7.392440038,3.952040584,270.249033,20.23280103,0.993632621,0,24.15169157,,,,
527.0479996,2058,-44.06658276,-52.00954921,5.635412601,0,279.7398144,-40.01419626,-36.70296455,-39.0112237,36.12097031,38.16148158,40.62744076,-30.57106461,43.61435611,28.18865346,0,90.77558593,,,,
527.0559996,2058,19.89774603,16.84385622,-66.95964905,0,-69.40409325,19.18419822,19.6050137,29.19656795,-53.4343115,-58.78540934,-46.94465383,338.7660467,-50.44848406,-67.11155788,0,-11.95236981,,,,
527.0639996,2058,28.69282765,23.12862686,-61.35511618,0,86.62817114,33.1692468,40.46896888,39.76725294,68.74769995,62.45047708,61.03285289,44.61019532,75.62452115,56.67985016,0,83.92687579,,,,
527.0719996,2058,-56.35077146,-67.42207942,6.821755356,0,167.394434,-58.90312651,-54.88619501,-54.22385048,-60.33067514,-58.25944582,-39.89542263,176.7006429,-53.88091931,-72.70132877,0,13.63976729,,,,
527.0799996,2058,73.76246752,70.92116005,-97.41080311,0,-122.4631896,74.3045518,79.2932516,86.75051143,12.8286989,5.520348923,8.095380106,283.2863276,25.90410593,0.440086972,0,21.55836094,,,,
527.0879996,2058,-58.78593105,-67.72477389,5.664881841,0,267.6518161,-62.16664312,-49.33840239,-54.84478063,29.38095372,26.38757215,38.3876964,-20.43920347,39.1327453,16.58773437,0,76.66097952,,,,
527.0959996,2058,2.935372807,-1.458498507,-76.66036118,0,-84.79253328,-3.536339316,4.019481499,12.86683082,-73.46185467,-76.65911507,-62.1993178,356.251892,-71.16689769,-87.69844702,0,-37.7981905,,,,
527.1039996,2059,32.41838899,28.45233217,-70.83875602,0,75.1284672,35.70946082,48.02216581,49.17056495,54.81059947,52.43508573,49.82766266,69.58680559,63.37223478,49.89448745,0,66.71915061,,,,
527.1119996,2059,-50.48550513,-57.65245306,-4.991233608,0,173.0992592,-57.22361977,-42.42447526,-45.06260219,-51.88897134,-49.56538163,-33.82573212,182.8008793,-42.75958556,-60.65917144,0,21.73720504,,,,
527.1199996,2059,73.02725301,70.65769482,-105.0778809,0,-121.7150113,68.24436182,80.22562442,82.35897403,19.89913769,13.79788893,10.13738342,283.9685992,29.55817553,7.3032736,0,32.21116283,,,,
527.1279996,2059,-51.34251375,-63.10420025,15.72699535,0,262.7782917,-55.96831239,-47.58548415,-52.04566396,31.069182,25.78414931,35.8950815,-10.96369625,38.68267781,15.37317872,0,79.5141699,,,,
527.1359996,2059,12.38996521,6.923647884,-53.05279185,0,-80.18670313,4.145262668,6.80813865,16.63100152,-64.56210011,-73.70437448,-57.8882399,366.7405338,-57.49023123,-88.37564337,0,-25.76338148,,,,
527.1439996,2059,45.7472355,39.97999208,-39.18429255,0,74.63448914,44.65537605,53.01323722,53.74130699,61.3073549,52.88297927,50.55562192,78.8643875,71.7205674,45.38255387,0,81.27634044,,,,
527.1519996,2059,-36.24448511,-46.81253915,36.38366456,0,179.9807736,-43.71084644,-39.92309178,-35.77335811,-36.44740318,-41.21820265,-20.83232512,184.5386756,-29.05488349,-54.50938636,0,37.59863441,,,,
527.1599996,2059,77.45607327,76.04261222,-73.27262432,0,-109.1667545,73.85146218,77.13555882,84.04185083,38.17433944,30.73626807,29.31419784,285.8470081,46.84598659,17.26322006,0,49.47086293,,,,
527.1679996,2059,-52.43742988,-60.67607095,21.12634891,0,261.7427289,-58.96943789,-48.41262819,-56.02277552,26.16598948,23.6147898,32.25991941,-0.592410357,31.31212617,6.341512845,0,83.81677065,,,,
527.1759996,2059,17.08935882,15.18544535,-55.96503568,0,-82.02847655,8.903840897,12.66012535,21.7196443,-67.30932268,-74.50527593,-58.65547803,378.0720372,-65.27904835,-91.85174337,0,-19.34548355,,,,
527.1839996,2059,49.48675496,47.56752708,-35.19213192,0,81.61578537,50.20451832,59.14048443,60.25344027,78.9055926,75.92753417,70.74887034,76.80182166,85.5697015,62.13104094,0,103.9996821,,,,
527.1919996,2059,-48.00506983,-56.81489932,34.92296926,0,177.9972179,-54.80966283,-45.40746103,-41.95758187,-40.8732901,-41.6384526,-22.21632067,184.4247679,-32.92385765,-59.32307391,0,41.30719603,,,,
527.1999996,2059,73.6933245,74.31597163,-78.83341949,0,-119.6991123,77.8657475,77.87902724,89.100456,23.18604774,14.23904047,17.79153306,300.3240242,35.06852555,4.689191261,0,42.94676516,,,,
527.2079996,2059,-39.5859124,-45.00419429,22.1321134,0,266.4336229,-36.47250293,-34.68688173,-36.26441734,36.53869605,33.35473593,44.85511642,-0.563956273,45.04537178,21.13409209,0,101.5041564,,,,
527.2159996,2059,19.1821901,18.93604617,-61.00111176,0,-76.47543084,11.64926891,17.16867529,26.11373186,-55.92393869,-64.12444172,-47.77450408,364.3835791,-48.4188843,-79.18693443,0,-2.995491799,,,,
527.2239996,2059,34.88128681,37.12131091,-51.46383596,0,73.50716107,36.91420896,48.26364778,45.25117558,78.17790786,72.30788973,68.98520394,68.16996838,90.14894881,57.71174156,0,101.944386,,,,
527.2319996,2059,-58.96309972,-61.23715532,22.85392285,0,166.2509313,-62.65934566,-54.45267448,-54.82803834,-53.7222282,-53.68819537,-36.17297125,188.6265398,-48.60483683,-75.86070118,0,26.38282646,,,,
527.2399996,2059,81.9334261,86.02457818,-76.37453378,0,-126.9584032,83.26632425,91.12580972,96.47814726,21.80201815,14.09074651,11.34298631,310.1973488,30.81358517,-0.819711114,0,36.28120227,,,,
527.2479996,2059,-38.21313016,-41.97676328,36.9909793,0,270.2782413,-34.26370405,-22.83866967,-31.35531988,53.45176105,49.6637224,54.41693513,-3.794438017,66.16350803,31.98765692,0,111.5768367,,,,
527.2559996,2059,-7.889983998,-6.370562722,-55.1572838,0,-86.70569609,-8.216760609,-0.179048124,5.994295952,-68.47258808,-75.76442261,-65.3407842,369.9367971,-58.87669517,-93.41369916,0,-13.12295212,,,,
527.2639996,2059,15.32733628,15.61962165,-61.39852683,0,49.26845127,21.94600572,34.38237648,31.40617427,50.71385834,44.30267386,36.93951765,90.31498399,65.07341661,31.46684494,0,78.74978329,,,,
527.2719996,2059,-52.55755453,-59.64636893,13.56612031,0,161.7608836,-52.38072916,-40.91361113,-42.4913451,-59.29360495,-62.71186353,-46.51319946,200.6038835,-50.11198624,-79.95084183,0,25.39358662,,,,
527.2799996,2059,89.31312564,88.22780741,-79.41812315,0,-121.7043317,95.02972491,106.0157546,110.9178746,25.7613351,12.82599847,12.293645,306.416607,33.93612454,7.082837624,0,48.1505939,,,,
527.2879996,2059,-30.39948253,-39.60242432,57.13010073,0,280.0345927,-24.76533681,-16.98470896,-22.98033923,62.61523332,49.78599433,62.77723451,-19.19069193,75.11862477,42.1066608,0,122.3892801,,,,
527.2959996,2059,22.95045676,22.32122456,-10.04090777,0,-67.07931846,23.62618893,25.34584051,33.20445646,-50.64108555,-66.45998484,-44.4838333,356.8406076,-44.36186093,-78.77476838,0,1.224564442,,,,
527.3039996,2059,52.24562684,54.87644704,-18.61821556,0,72.6118543,58.69240794,70.89307592,66.41164931,81.45809664,72.31194497,72.11322786,70.88819253,88.07897928,58.54431047,0,106.8902864,,,,
527.3119996,2059,-45.15256382,-49.28755122,52.16081705,0,179.733526,-49.12252728,-38.78165919,-40.83560302,-34.2068151,-41.40286707,-18.62281851,170.9783484,-25.92801574,-62.3620675,0,44.26207081,,,,
527.3199996,2059,90.82192042,94.03908961,-39.14661104,0,-119.1737898,94.34875872,100.642692,107.9989046,33.37865029,16.30035856,22.38500503,290.6686834,40.82000052,4.767231586,0,44.07710998,,,,
527.3279996,2059,-27.36994157,-29.8277982,72.2949718,0,280.2815337,-17.63246927,-12.06212666,-15.71875399,68.93908436,61.60346858,72.62139873,-37.30496688,76.19834833,45.61008433,0,124.6570524,,,,
527.3359996,2059,7.098570318,10.75591548,-20.14440237,0,-72.5216463,12.95107844,8.301263939,20.50817967,-55.27908838,-63.29898051,-46.59207287,338.6199919,-49.12900494,-79.98001261,0,0.395592901,,,,
527.3439996,2059,49.58735822,53.27616355,-1.561472302,0,62.20057278,61.34263695,61.66469229,63.5731642,76.42529266,71.99399462,67.20044948,62.50444051,84.14336549,55.9608663,0,101.9787851,,,,
527.3519996,2059,-48.11835299,-51.12170205,84.47017072,0,175.2192736,-46.63672438,-43.19268803,-42.49935072,-33.31642187,-30.36006137,-16.31824087,151.3930343,-27.51531525,-59.42528282,0,49.80096725,,,,
527.3599996,2060,57.05839055,61.62215036,-29.86330716,0,-141.177265,63.18456178,68.9307258,74.98985301,10.335636,2.389596942,0.313004445,281.7366918,20.27466041,-17.57127564,0,28.45763361,,,,
527.3679996,2060,-36.16443255,-38.16500425,106.4769234,0,262.4256772,-25.99542287,-15.2976975,-22.55435856,46.8141108,40.53853331,48.0340661,-27.47312087,59.22298292,20.44620331,0,103.6328395,,,,
527.3759996,2060,32.54802014,35.63816376,45.01864301,0,-58.63998036,35.71749604,42.52426326,49.72638602,-40.42702648,-50.02586829,-33.60073021,330.4259778,-30.91549119,-69.68424636,0,18.29933879,,,,
527.3839996,2060,47.32135616,52.12375965,31.20781009,0,70.41657167,54.60422385,63.57322599,60.00433678,91.3841002,81.47087261,81.40333892,37.30896955,102.4539962,66.33281237,0,122.418256,,,,
527.3919996,2060,-62.90892408,-60.76351753,94.72669848,0,170.648071,-61.65668278,-60.26893554,-62.81535327,-40.35966,-44.56324759,-23.31349884,142.8962338,-33.73079223,-70.53570346,0,45.85695234,,,,
527.3999996,2060,69.49890954,80.20849851,-12.46852398,0,-141.3150551,76.04568145,75.48283876,81.17954504,9.472652914,1.200297815,-0.308521977,286.0084689,19.5897164,-20.83278739,0,31.56265552,,,,
527.4079996,2060,-36.46208171,-33.99119212,102.1946531,0,259.3128093,-28.49753933,-20.85163441,-29.20144908,47.52122846,46.79418894,46.22001883,-35.94757733,59.03411331,21.22967239,0,108.9825182,,,,
527.4159996,2060,-5.729230748,3.607223023,6.887707393,0,-77.84666868,2.750369533,8.969694986,13.39318412,-67.30924016,-65.91149949,-58.98867745,334.1726759,-58.29552148,-92.12769002,0,-3.98384353,,,,
527.4239996,2060,18.1324906,32.87155563,0.622917105,0,48.69965673,37.00191227,49.48535607,41.23211198,52.92766814,63.20702422,50.91387321,67.28564176,69.36657607,39.35707803,0,91.2060735,,,,
527.4319996,2060,-56.61834503,-44.12735262,98.58346315,0,169.7678412,-44.04880334,-37.61896298,-44.13914941,-62.35725871,-39.79782589,-37.24965053,169.1708118,-47.35493057,-72.96648695,0,37.23786226,,,,
527.4399996,2060,75.11620255,97.802938,-5.98523261,0,-138.1014518,98.75849933,95.16802106,101.4463978,-3.599785058,19.86324267,0.870354396,302.6158592,15.99959468,-6.205553353,0,40.94891373,,,,
527.4479996,2060,-42.66567353,-25.08858903,105.1995614,0,263.423925,-17.08605604,-16.705908,-23.70235049,38.27950226,72.32420228,57.20920814,-22.88814273,59.63615724,44.2171653,0,125.6873675,,,,
527.4559996,2060,20.06521841,40.92793147,48.8571476,0,-63.04990705,35.24377791,34.70642984,41.58239335,-66.94440511,-35.59146422,-46.69742941,349.0643192,-50.68809027,-64.77039322,0,19.18964128,,,,
527.4639996,2060,56.36965845,74.84055415,64.88742348,0,65.34052972,75.25570462,78.60585556,76.33393933,71.6564486,97.81246846,72.9041511,71.94340409,91.11363399,70.91130578,0,126.2525178,,,,
527.4719996,2060,-57.4725125,-44.89804098,135.0568726,0,183.3056631,-45.01909123,-44.4350219,-49.74140413,-36.75808268,-13.25427606,-9.478733255,160.9862478,-23.86391133,-47.03128686,0,71.56702446,,,,
527.4799996,2060,63.08799755,84.21802611,3.681258446,0,-143.6363114,84.22588259,78.52190328,80.82553586,-4.040951941,13.74684167,-1.710046199,314.3716937,7.384447884,-14.67429054,0,44.26368584,,,,
527.4879996,2060,-43.08622036,-29.21919472,111.1238677,0,248.122914,-19.9677965,-23.5762256,-33.33197299,26.15015809,47.96773517,38.54185488,1.949674538,39.76103311,17.59661483,0,110.0308853,,,,
527.4959996,2060,8.376178405,28.34514174,43.24572208,0,-68.03657501,28.94833904,20.73977374,26.51470215,-62.9022219,-42.63930217,-45.03877846,365.1258256,-48.65074675,-70.99151287,0,15.36697735,,,,
527.5039996,2060,37.73515014,59.96024923,30.28420328,0,50.55421159,66.85422961,56.125956,57.71909825,58.83781649,88.61253923,62.12400934,93.87401929,77.21764172,58.85183061,0,110.6918743,,,,
527.5119996,2060,-56.83464103,-40.58757809,97.322386,0,165.2291162,-41.43022951,-55.45422583,-52.70257862,-60.1554783,-28.49872638,-30.19858696,187.1419184,-44.23197079,-65.92165001,0,44.91894476,,,,
527.5199996,2060,79.26766533,102.2137558,-18.91572603,0,-145.1064244,95.74163658,73.09342462,84.74212528,6.656275832,29.85063175,12.74581333,326.8805061,26.35957336,-2.765676607,0,43.37439742,,,,
527.5279996,2060,-22.15039822,-6.800005678,94.46795901,0,251.9762137,-4.355449583,-39.22597658,-37.48402961,45.49102514,75.74676715,62.52011463,8.201901304,65.47307959,34.80313276,0,120.4170875,,,,
527.5359996,2060,30.53363806,52.73913379,19.37278641,0,-70.87866531,42.51897664,0.812967853,13.76428512,-47.80348991,-22.78569654,-27.20637334,374.1969863,-32.02224027,-62.32834555,0,24.12390117,,,,
527.5439996,2060,54.45093496,79.06977011,-29.90380928,0,39.28971981,74.67572571,38.87154913,42.41201025,74.74879784,103.3665013,77.55175599,104.4465278,90.9601257,65.2789613,0,113.5377855,,,,
527.5519996,2060,-29.83444375,-12.4127357,23.34169715,0,171.0363699,-15.26092661,-55.17277956,-48.40335861,-42.57142064,-7.987026619,-14.22049332,200.4151463,-27.5200317,-53.04942027,0,55.05742187,,,,
527.5599996,2060,114.352149,137.1881226,-64.77920887,0,-121.8374143,134.8324078,95.68271796,108.7715182,39.70502012,68.12212252,45.11896925,334.7176188,60.83141178,33.41922265,0,81.20973886,,,,
527.5679996,2060,-0.996679264,13.0586692,62.71173904,0,265.9345047,14.90108027,-11.5072868,-15.33139457,64.00281869,96.16388444,83.12603905,6.934450444,86.27832361,60.48669389,0,148.2629212,,,,
527.5759996,2060,53.77042225,72.90502566,12.98224342,0,-52.12854553,55.7715817,32.93406069,39.666943,-42.17861255,-13.34575401,-16.89826811,375.2658331,-18.54743517,-51.85019604,0,35.8792233,,,,
527.5839996,2060,77.63174853,98.16558955,8.225339652,0,61.86283851,86.42318329,68.51197312,65.03279616,99.21734318,135.0176739,106.5796622,97.18904532,127.8355883,91.00867984,0,137.8120937,,,,
527.5919996,2060,-39.65962589,-25.96259865,62.75632975,0,172.1429089,-39.66128165,-52.56711186,-58.89104674,-35.71383861,2.092800161,-4.859649863,184.0693469,-12.19390141,-46.76371794,0,58.73211294,,,,
527.5999996,2060,92.69764301,114.6487144,-61.45742066,0,-137.5625528,98.16747626,89.69650125,89.25405382,12.18587248,41.83086532,17.33340206,333.2697614,39.80628063,5.07343662,0,45.70232547,,,,
527.6079996,2060,-14.29868656,0.804806209,35.39090674,0,252.3083377,-3.819722639,-11.51009116,-21.72894586,44.54769184,83.51120978,61.41412547,4.594848621,73.02713952,45.1377195,0,119.294831,,,,
527.6159996,2061,35.16082127,53.82922166,-33.31205863,0,-58.85104276,36.4904007,25.2722385,30.1278715,-55.00479949,-22.33461194,-33.25875167,367.4859586,-27.14033407,-57.83273763,0,15.39074829,,,,
527.6239996,2061,70.64522687,92.39042765,-42.22233379,0,60.87323114,79.76928528,72.10793644,68.99557738,86.89520784,118.0832338,89.18667725,88.88182261,121.9586673,85.65424003,0,116.5278483,,,,
527.6319996,2061,-38.2530842,-21.0756419,21.12494447,0,173.8690429,-32.11113352,-43.14279581,-44.24718667,-39.44925269,-3.569149773,-12.84478403,160.2945534,-11.74158998,-39.90867571,0,52.03385433,,,,
527.6399996,2061,88.69348808,112.1903301,-83.95713638,0,-139.9295177,99.14086734,90.65761421,95.85810803,8.826081623,35.8752679,10.03455469,306.0115661,36.78052466,11.15436129,0,46.7707239,,,,
527.6479996,2061,-21.33737818,-4.243355063,39.93512166,0,251.9041552,-11.28237476,-12.0668549,-23.13096348,51.4052353,83.60889587,61.77520874,-25.37273556,80.97383977,54.3895838,0,130.7605916,,,,
527.6559996,2061,21.59268275,43.43513066,-25.23166204,0,-72.3468439,25.16203727,18.92966119,22.30997284,-63.74114806,-30.87889857,-46.44487383,349.8394663,-38.91806218,-65.16175112,0,17.25678953,,,,
527.6639996,2061,71.06447797,91.73118228,-22.97066664,0,41.3588068,83.56811327,77.89573278,76.32501981,75.71484743,108.7283683,77.7946307,85.79298526,105.3745044,79.88935376,0,126.007907,,,,
527.6719996,2061,-28.00292284,-14.35576668,66.94117744,0,173.2954204,-24.45839533,-32.55116116,-33.96865563,-24.94462059,7.54764573,1.422564122,146.5495597,1.040608742,-26.29384648,0,84.76263794,,,,
527.6799996,2061,88.56475662,109.334422,-57.37270858,0,-151.2806382,93.99026646,84.80269863,89.11529671,9.456680832,33.74928268,11.6810965,299.4982363,35.21021745,3.349678837,0,53.55692376,,,,
527.6879996,2061,-18.60422079,-5.659062111,40.77576668,0,237.3778527,-7.218826124,-13.73151574,-23.04306985,50.61417951,80.96773247,65.08262213,-26.43982574,77.6341335,51.45281622,0,131.8565913,,,,
527.6959996,2061,22.63056908,40.818714,-37.70882974,0,-80.10651818,30.03435065,19.4030183,24.88342644,-59.46341356,-31.68890329,-41.20180833,348.1161951,-37.43901252,-60.40987944,0,22.46323459,,,,
527.7039996,2061,58.74365016,77.64442124,-58.20370338,0,20.5784671,69.26537837,65.67616927,61.89739159,67.43471642,91.83944437,66.69579512,88.35313577,89.83997543,67.12523394,0,111.737765,,,,
527.7119996,2061,-37.31161669,-24.50531941,32.95490804,0,160.5487402,-35.48279262,-41.54798435,-47.46822364,-29.52600735,-2.584861978,-1.629874943,150.3890959,-10.36502124,-33.74281946,0,73.06281936,,,,
527.7199996,2061,87.07422137,111.3722214,-82.48470391,0,-159.3706585,92.37391243,82.77131249,84.44148979,4.436152143,31.3092372,12.14208476,318.7122196,26.47352182,-1.560023338,0,42.96158032,,,,
527.7279996,2061,-21.64566998,-6.494776299,11.86582828,0,224.5871057,-16.90147405,-19.47189808,-31.95685619,41.77669462,74.45820364,59.19006835,-8.170779232,64.03208895,38.61860346,0,111.0717503,,,,
527.7359996,2061,22.4381561,31.56909968,-54.37180299,0,-85.47489296,22.20120701,19.72748378,19.30803254,-58.72408289,-40.01953071,-39.69163557,350.6152637,-41.24433245,-67.9055457,0,10.54375472,,,,
527.7439996,2061,61.80955264,68.9656934,-59.59410205,0,21.05148302,70.80003255,76.80237281,66.99883937,73.08962103,81.12311646,71.86033811,91.89432621,94.78533872,63.79630397,0,108.210406,,,,
527.7519996,2061,-55.43816142,-53.47996837,24.90059479,0,160.6207659,-51.19936104,-42.12065079,-53.8225165,-29.7465165,-24.60633323,-9.956014493,154.98731,-10.78714005,-43.81290813,0,62.91533764,,,,
527.7599996,2061,49.44492267,56.59378316,-86.55267988,0,-171.8885956,58.59248237,69.00536738,64.17327361,-3.788895009,-10.75125263,-12.75810381,321.5756978,15.44292816,-19.94891938,0,29.43859985,,,,
527.7679996,2061,-50.21889904,-50.69979967,27.13749804,0,211.5257404,-45.30159185,-30.16810976,-47.0483105,28.44381731,24.39821075,29.6424177,-3.317823328,48.94838604,10.00750213,0,91.18637743,,,,
527.7759996,2061,3.814999131,7.58674236,-35.53399959,0,-87.43297665,4.022527277,14.32211384,11.47079109,-63.65081847,-70.73351364,-57.58709517,361.4063216,-45.79220542,-87.21618699,0,-4.205524826,,,,
527.7839996,2061,43.43809529,50.97576818,-40.90432706,0,10.87495255,56.43634788,68.83422547,57.23901082,66.94014763,62.09608803,53.65234111,103.6975416,87.45832744,54.16563811,0,98.61943733,,,,
527.7919996,2061,-68.24899474,-64.30390217,47.64467588,0,143.4364531,-67.54275404,-56.60133426,-68.85284725,-47.76806535,-47.28062085,-34.37716167,164.4449984,-30.52579203,-64.31848037,0,40.6444667,,,,
527.7999996,2061,59.86052585,71.92294515,-65.45027416,0,-179.1206844,59.98812671,70.92333341,66.42070129,-1.319721788,-9.001571364,-10.69282052,332.46473,16.9653412,-23.03407476,0,21.55277985,,,,
527.8079996,2061,-41.40771814,-35.83130109,44.92233886,0,210.9323225,-40.81038469,-24.35612605,-40.93167492,44.03895681,43.37834704,44.71436793,-2.615264931,61.63112884,24.23327301,0,99.83777315,,,,
527.8159996,2061,-17.73372609,-9.082177874,-22.44211043,0,-104.3476062,-23.57680316,-9.720687805,-12.45988487,-75.95641298,-78.17492115,-70.86324755,368.5560035,-60.16336805,-98.16331157,0,-20.07887421,,,,
527.8239996,2061,33.75126762,43.88785519,-33.84127932,0,-14.78417188,35.54615918,48.05749386,39.06914576,47.32306056,42.48023783,33.30914279,128.5233824,66.271498,31.40384483,0,68.63187545,,,,
527.8319996,2061,-42.72798498,-39.20802916,60.71393741,0,143.5961789,-50.8559665,-49.18026388,-54.96716728,-39.12448486,-39.53427496,-24.34780541,178.3041372,-27.7860849,-58.84052279,0,38.25303316,,,,
527.8399996,2061,71.30294066,81.19677963,-52.01742338,0,-175.5800147,64.1039061,58.92538377,61.19204647,15.20320643,14.21322143,9.220349541,335.6669538,27.56146581,-1.841899631,0,33.36185187,,,,
527.8479996,2061,-44.12068223,-39.86885409,51.20817841,0,197.6421867,-52.13264599,-57.72682079,-69.06230395,39.56037875,46.85301054,42.28188387,8.583637185,55.90010479,23.74661123,0,92.63544974,,,,
527.8559996,2061,14.77582007,23.88628609,1.054773106,0,-104.563054,-1.158060192,-11.72580762,-12.47524169,-68.94111985,-69.39290418,-61.71151126,379.6643074,-54.83819678,-97.74756233,0,-21.269527,,,,
527.8639996,2061,55.66278162,64.72714806,-1.571711222,0,-2.46864853,46.62787373,45.02504553,31.15068703,81.61109905,74.6397428,69.1514807,119.5487418,97.50240541,51.58195452,0,85.97169164,,,,
527.8719996,2062,-66.72620117,-64.7873599,75.43079944,0,139.3560465,-82.53502493,-81.36943034,-95.0329774,-35.2272027,-43.03652479,-23.4610462,178.829399,-22.17364589,-70.99675301,0,28.41014089,,,,
527.8799996,2062,68.53202786,78.13010201,-45.04825877,0,-191.0940282,59.42017844,64.89804733,61.75388807,-3.671844308,-18.68083629,-17.11741883,372.2606885,12.04225115,-34.21555271,0,8.704709274,,,,
527.8879996,2062,-15.38833632,-13.29913929,59.56676445,0,211.4817155,-19.11829371,-6.368465569,-19.65092294,58.68126398,51.71385194,53.2031198,33.77688893,76.19395097,36.95720418,0,109.2423612,,,,
527.8959996,2062,26.44160557,32.92910306,-10.60666593,0,-73.53775746,20.12958607,25.5877394,28.79224196,-34.00003042,-43.50751212,-33.84530852,381.4103811,-17.44746981,-61.09073903,0,19.57830332,,,,
527.9039996,2062,51.18341813,59.5329113,-47.59343828,0,7.63608165,57.09084578,66.28152421,60.73503703,91.47948094,82.47665121,74.54544199,127.9176207,113.3315336,71.98298389,0,114.1001408,,,,
527.9119996,2062,-77.60561571,-75.22256079,16.77064508,0,137.7506447,-78.52637711,-68.05783256,-72.81899029,-43.73396775,-47.26263782,-32.0455701,192.8311676,-24.26167932,-62.47712931,0,36.83395503,,,,
527.9199996,2062,42.81140935,54.28326228,-96.13117749,0,-202.0677935,44.23256472,55.81484534,60.06466005,-17.3815961,-26.73416454,-28.5102865,389.405989,-0.424220998,-34.00525484,0,0.308130497,,,,
527.9279996,2062,-42.4671785,-39.08921231,25.79992956,0,193.2941661,-36.84884713,-22.70805842,-34.09643479,37.40184053,35.05016172,38.0691214,60.37976944,53.72287546,26.80924853,0,92.99757125,,,,
527.9359996,2062,21.13118056,26.83710278,-17.25308384,0,-90.62204483,20.64589809,24.74186021,30.62538079,-62.4868973,-66.27236923,-53.06857279,425.7596892,-45.08102585,-79.7065471,0,-5.682615761,,,,
527.9439996,2062,68.06030072,74.52826076,-24.31216795,0,2.826050048,74.33396451,79.58852898,82.45406688,91.15113547,87.29914286,78.48367784,169.2777932,108.1496107,76.66228788,0,106.4151726,,,,
527.9519996,2062,-45.6487153,-46.2372671,61.80121251,0,160.3063698,-48.96097778,-45.08493101,-44.22723279,-4.476891334,-8.867953776,7.752352899,208.0732063,2.782208814,-23.06640243,0,70.21517867,,,,
527.9599996,2062,72.99464655,82.2335654,-57.05415117,0,-185.5503422,68.52685302,72.01300455,78.76608391,12.83882202,-2.725856799,1.735920266,396.7142371,21.49148078,-12.45434267,0,23.584529,,,,
527.9679996,2062,-33.86658809,-30.65747106,60.44909928,0,196.9503503,-33.63153137,-25.52621934,-34.62747598,54.60568344,45.72149667,50.83839018,60.35900417,63.16301097,29.29912283,0,92.03273562,,,,
527.9759996,2062,22.30594947,28.25813236,27.15565397,0,-79.33582081,19.74604778,24.59526192,28.15818973,-38.49288784,-49.48533829,-35.0271049,416.2169857,-32.50743643,-64.08074889,0,4.425312939,,,,
527.9839996,2062,65.60545946,73.11296536,1.119575701,0,2.115966564,67.6922764,79.93666918,76.66745676,96.71099809,83.98104539,80.76351138,162.337251,111.7779645,78.55633607,0,107.6708242,,,,
527.9919996,2062,-57.78101385,-56.12548624,70.14847283,0,153.7163447,-62.65289408,-51.07845486,-54.71639966,-19.05658629,-26.23786093,-8.403221611,204.83848,-4.724791694,-41.50093164,0,51.05564101,,,,
527.9999996,2062,71.70355346,81.31587403,-46.54554611,0,-182.3589855,72.33015872,82.8570403,87.25440671,6.136897152,-5.351091798,-5.504525074,398.0058568,19.30118742,-16.00406293,0,17.32590754,,,,
528.0079996,2062,-41.04709282,-40.19856649,53.66338892,0,200.9976782,-40.30395777,-21.63204395,-33.3608066,54.32243148,47.76427501,49.85465783,55.81971626,67.83029303,36.9850611,0,101.033001,,,,
528.0159996,2062,-8.526012454,-5.046508766,5.024169003,0,-92.70799984,-15.19751638,-0.531829322,-1.051263787,-61.91078517,-71.34811519,-59.61499252,423.7627577,-49.86353665,-87.1087339,0,-13.27537676,,,,
528.0239996,2062,51.94076953,58.52807495,-0.520360083,0,-19.11505331,56.17346918,70.29510935,62.93882362,63.44664477,52.61037181,46.65386934,194.260416,78.00598078,41.80344358,0,73.38762115,,,,
528.0319996,2062,-62.70987905,-61.19151881,85.66803882,0,148.1251277,-62.30932514,-52.23515512,-58.67566272,-26.72552982,-33.54020257,-16.78268062,224.1006932,-15.44812921,-48.19519476,0,46.5118632,,,,
528.0399996,2062,64.81417417,74.28623622,-33.35637197,0,-189.1349181,68.23111241,76.06796126,79.48524902,9.548676583,-1.385578063,-4.495447737,410.196866,24.33756033,-11.40059505,0,22.45596947,,,,
528.0479996,2062,-15.37451526,-13.68493618,91.37039516,0,199.4861235,-9.445249548,3.280147914,-6.318303261,59.43473518,53.10699147,52.77245892,72.46268929,74.45626118,43.05852445,0,102.6673811,,,,
528.0559996,2062,5.473844022,9.428389112,53.77182869,0,-82.47925997,6.4593543,14.93505017,16.99166823,-42.51209163,-52.98780646,-39.32073592,422.8536347,-32.67848299,-65.97529693,0,7.699012871,,,,
528.0639996,2062,38.58138532,42.36293437,14.87610953,0,-28.40289147,45.55171029,56.53870727,49.07615672,73.17824647,58.14994706,55.89512343,192.7387387,87.33699361,49.05547403,0,82.85975269,,,,
528.0719996,2062,-47.3946222,-51.43202893,94.61808225,0,136.1001237,-49.85673816,-38.80760439,-47.98819643,-27.93396968,-41.83171,-19.72678415,233.0965041,-16.76747468,-55.54304406,0,38.35810989,,,,
528.0799996,2062,82.30302218,85.61561375,-14.76958739,0,-180.8193881,80.70529236,92.08246855,90.16423432,30.30988433,11.45676911,17.98745311,406.2678982,40.86021818,-0.244961486,0,33.45378841,,,,
528.0879996,2062,-34.57672731,-38.50602963,79.83996572,0,194.866281,-34.4335577,-17.44735916,-32.59186699,60.32404793,44.39978668,55.42344887,64.29564253,71.7366867,31.7504104,0,90.7548134,,,,
528.0959996,2062,5.342500026,5.92539285,25.01299906,0,-98.82447685,2.065784672,14.81535995,13.56828727,-64.31134756,-81.51994612,-61.18616811,430.318863,-54.34067061,-95.1693065,0,-24.20485099,,,,
528.1039996,2062,66.21571402,70.90549142,11.95030431,0,-16.9336011,71.84533688,86.17256774,74.58640899,94.02570041,79.92448727,78.53685641,184.0201234,107.1262822,65.09094403,0,99.09135758,,,,
528.1119996,2062,-54.7024144,-55.29127109,104.1668646,0,145.5548944,-56.17319561,-44.80141262,-57.76854848,-15.30556945,-25.97951199,-5.943209171,206.6546131,-8.398036736,-47.75016243,0,51.80845676,,,,
528.1199996,2062,68.09876153,74.10923797,-13.36238042,0,-201.6884184,69.90462811,77.8191861,76.26373123,9.909984232,-8.366756129,-5.003555807,398.426263,19.02578563,-22.24348324,0,17.17681631,,,,
528.1279996,2063,-28.11808833,-31.18202096,75.38693779,0,188.3317801,-26.91057202,-14.36022616,-28.67857571,70.30639992,53.00303597,62.7401043,47.78776807,80.74853251,38.13673391,0,101.8099142,,,,
528.1359996,2063,-6.14034175,-5.771998572,14.52700632,0,-103.0852229,-14.63933616,-4.677711299,-4.208103478,-59.78949871,-82.50132099,-59.07189735,406.6343143,-55.83557016,-97.95293822,0,-26.17753044,,,,
528.1439996,2063,50.1653768,53.57282981,2.662189643,0,-40.56618942,48.65183718,62.3314271,55.44222914,74.40040588,52.11717799,55.29260222,177.2279398,83.51299376,40.27503303,0,63.13692293,,,,
528.1519996,2063,-59.54116506,-64.02123325,100.2789618,0,137.6107076,-70.39270022,-57.38263075,-66.09663013,-17.25700943,-34.36605654,-10.97543894,196.6273668,-7.348901313,-54.6579397,0,28.39555672,,,,
528.1599996,2063,65.31251411,67.26868917,-16.55063964,0,-209.3938038,55.09391072,66.03377117,68.13911989,3.550298349,-18.07872699,-14.42300421,394.7090145,15.90641591,-35.54603878,0,-8.219259791,,,,
528.1679996,2063,-8.160031293,-12.12015258,101.2324197,0,189.3313413,-14.08493484,1.483422997,-10.50925272,74.33671004,59.04354489,62.59979804,44.70147409,84.74572131,40.18234926,0,91.15946818,,,,
528.1759996,2063,3.771262005,6.431142066,64.3757444,0,-88.3835585,-3.150663846,10.95283446,10.72302082,-40.16495748,-53.95541107,-43.22124226,390.0350041,-35.11873619,-72.17153236,0,-11.39539147,,,,
528.1839996,2063,27.88306823,35.81497075,31.4943344,0,-50.95585039,32.36141541,51.58865218,43.42879726,54.55973985,47.19206541,31.5553027,173.0507583,66.13390796,30.32712009,0,51.73994558,,,,
528.1919996,2063,-46.67117717,-45.43720969,138.6328131,0,143.8962612,-52.33504067,-35.86726547,-45.21466675,-25.41863828,-29.61595825,-25.82105674,194.837041,-15.3478908,-54.65936756,0,26.58711922,,,,
528.1999996,2063,86.78973027,95.61477262,35.80402345,0,-189.5652692,80.56578293,91.20657516,91.81475195,29.5361123,15.87318007,5.435893238,369.1674608,39.11023742,-3.795363091,0,16.0635892,,,,
528.2079996,2063,-37.73841732,-35.87143823,119.5780589,0,173.8885395,-39.007368,-27.39919315,-41.46003897,59.75686603,53.30219667,46.27284234,15.59442707,67.34747299,31.80300276,0,81.379909,,,,
528.2159996,2063,-11.48147614,-6.577501106,71.95798415,0,-105.0912726,-15.75025844,-9.751777453,-10.06890777,-66.50266035,-72.19653398,-70.5906897,378.0534917,-62.64933689,-93.85918262,0,-26.65729652,,,,
528.2239996,2063,42.28838653,51.18919954,44.71949821,0,-50.62438996,45.03228698,54.80804152,47.7305738,61.42905899,59.49656055,36.97517745,157.541278,71.49616796,39.88636601,0,68.44189996,,,,
528.2319996,2063,-71.94091249,-69.30869696,123.6955314,0,130.1915865,-75.94356139,-69.65471513,-79.33329518,-37.73103638,-35.56150766,-35.58499311,182.0471815,-30.39506412,-61.71328968,0,31.33600125,,,,
528.2399996,2063,51.405268,60.04818117,0.7655643,0,-222.0432051,54.06744534,53.74521447,54.44807577,-12.3937246,-18.90688172,-33.91735824,397.2110557,-3.68354018,-38.52419876,0,-2.593468093,,,,
528.2479996,2063,-39.34102058,-38.9889412,100.3861432,0,161.8609876,-34.813771,-26.89498647,-41.6261366,45.68565289,43.06434403,27.7860118,52.30581632,54.55498019,19.58181403,0,78.92284979,,,,
528.2559996,2063,-11.53400556,-9.133107053,65.05801507,0,-98.92121376,-20.29032272,-8.401683833,-13.9751502,-58.55591517,-65.59151855,-69.27501266,396.0038584,-53.21268064,-93.70333641,0,-22.32304399,,,,
528.2639996,2063,34.78934108,38.88662169,39.83917222,0,-58.47000873,31.59280695,49.29565458,35.26573023,56.16965698,49.17846967,27.17453642,180.357246,70.42375085,21.12782886,0,53.19999442,,,,
528.2719996,2063,-72.95178492,-75.2741543,138.7005268,0,124.5170136,-78.13744353,-61.84057055,-76.27247389,-42.97004464,-44.49766627,-43.56341986,203.3063366,-29.92451783,-79.87839729,0,14.52169061,,,,
528.2799996,2063,63.83650769,69.49767238,32.09124195,0,-215.6169036,63.53627233,75.64115634,73.99355155,-3.130341676,-7.799090929,-23.77047651,405.5185578,9.407844141,-35.26698413,0,-1.062408074,,,,
528.2879996,2063,-38.88364156,-40.21235528,117.4803421,0,166.7433433,-34.33875963,-18.76886912,-36.08555449,50.98169891,52.74840078,37.63588661,52.02863995,63.23704743,29.5055164,0,90.42270713,,,,
528.2959996,2063,-21.8574048,-19.90853364,68.27375666,0,-104.9514848,-19.69631298,-8.252891545,-14.76047755,-69.96960378,-75.56564816,-75.96200133,405.4251069,-60.31483895,-93.86994722,0,-16.19843897,,,,
528.3039996,2063,53.18193134,58.50545239,28.46577469,0,-58.23329064,65.1559087,74.83660149,65.74228985,62.19974326,55.06389293,35.9288938,183.8180572,79.82961565,44.51002458,0,78.40754171,,,,
528.3119996,2063,-66.06384115,-66.73749006,88.754224,0,143.3334786,-57.69871591,-52.484448,-60.8237004,-20.66534358,-20.73155514,-18.31066299,179.608876,-4.856570668,-33.49666029,0,60.03382004,,,,
528.3199996,2063,51.23106536,58.58902288,-32.39349969,0,-209.1666525,60.06850319,64.05394477,66.87859318,-6.228314339,-10.5913552,-24.8488983,396.7453801,12.68307811,-16.41801148,0,12.62092683,,,,
528.3279996,2063,-16.63398423,-16.21287429,69.25199024,0,175.7421005,-11.42121824,0.30558008,-13.02967683,50.89593208,53.05646323,39.47915949,50.06612578,74.02760945,45.83902128,0,91.77714543,,,,
528.3359996,2063,-1.606449741,1.363061716,17.81865444,0,-79.43506293,-3.101374746,7.249223134,3.310882179,-48.80150705,-46.76006645,-48.53762501,378.9265227,-25.64087222,-56.61638668,0,4.331743409,,,,
528.3439996,2063,40.96809959,46.63188908,-17.35332082,0,-51.15075963,50.32112121,62.20855391,55.0771067,61.62409218,68.97871975,42.77648691,160.3396996,93.99719864,60.76581834,0,76.28322547,,,,
528.3519996,2063,-62.94654383,-64.18227689,68.35150687,0,144.183307,-56.8587464,-45.16066178,-53.42030853,-42.83388534,-30.42551705,-34.2193921,169.7122233,-15.30857416,-40.77963145,0,35.25700197,,,,
528.3599996,2063,52.73201897,58.91100729,-43.757697,0,-204.8684642,63.41390251,71.55698209,72.50925708,-15.03454253,-9.294107135,-26.01732267,375.9998334,10.75362072,-13.74209813,0,9.998186037,,,,
528.3679996,2063,-51.42916613,-52.04466445,67.15701286,0,168.6154384,-36.43080374,-27.53628751,-38.23490083,39.72823712,51.83705075,36.77913917,22.76321049,69.80600918,45.69445515,0,92.76292805,,,,
528.3759996,2063,-18.65842358,-16.18075783,33.79777474,0,-90.77848424,-9.079564523,-3.73520906,1.547846426,-83.83891429,-77.52652726,-76.93028505,383.0246802,-56.05350952,-77.05299286,0,-20.85814645,,,,
528.3839996,2064,45.67079342,50.39553755,3.234993462,0,-58.419779,59.89641087,66.26303252,66.26870075,49.57448413,57.2565662,35.90208309,170.1019416,80.60915054,61.28811385,0,69.52872464,,,,
528.3919996,2064,-72.52461187,-75.28471926,87.47293395,0,140.2150551,-68.0211783,-61.90860683,-68.18306552,-31.71392551,-21.72574497,-17.6097808,167.436674,-3.300690152,-24.68143873,0,43.82416991,,,,
528.3999996,2064,68.63045446,73.22325259,-20.21629672,0,-209.5407621,73.24591719,84.22640603,85.9532649,-13.78163649,-14.17190868,-20.32470747,395.7390483,15.49119775,-8.884060018,0,-2.596763841,,,,
528.4079996,2064,-7.698911947,-10.53615007,99.53158282,0,174.4819716,1.58090938,20.0612665,5.644313182,59.1378826,67.41793871,60.31922012,31.6966597,87.00258003,69.92364665,0,97.01726157,,,,
528.4159996,2064,2.376012938,3.71296466,64.70420582,0,-71.77349481,9.850323794,20.66377259,17.91264973,-45.47114115,-40.54645543,-33.28232001,362.9299406,-24.53239281,-35.80957062,0,7.770767965,,,,
528.4239996,2064,59.54395499,65.77666606,35.26887158,0,-46.75508842,74.48594643,84.97911146,80.14598177,70.0717808,78.12175944,60.44904389,154.0082519,95.30667856,83.65116857,0,82.06801718,,,,
528.4319996,2064,-44.32027004,-43.78194497,136.7852378,0,151.7641261,-35.53499984,-26.49529308,-34.94382323,-21.85656084,-7.635959708,-4.192800452,150.5395954,4.610815736,-14.85498025,0,51.22989306,,,,
528.4399996,2064,75.54878422,83.14906809,19.81551648,0,-194.5879695,84.13061196,91.7473833,89.20217984,13.98787898,13.90485919,8.247644469,367.7656439,42.65649167,12.72984319,0,25.7994506,,,,
528.4479996,2064,-19.01830668,-20.35777013,112.1704545,0,169.9276362,-8.978424385,4.080583642,-12.43729993,67.05345426,70.56871815,63.51339878,8.291998807,92.31835657,66.10771433,0,104.5907238,,,,
528.4559996,2064,-3.227145634,0.315161191,83.02126192,0,-81.27874176,11.67266164,16.36055391,13.97608995,-61.90282226,-52.94661199,-49.46193313,349.6706172,-40.20757609,-58.33283403,0,-0.779407892,,,,
528.4639996,2064,35.31737535,44.97580179,52.52155195,0,-57.99633184,66.69585566,69.36843842,62.42126445,56.45977769,77.20828749,56.40830937,152.7012767,85.96111101,80.21704634,0,87.63496931,,,,
528.4719996,2064,-94.74794444,-89.37289438,122.7070727,0,115.0022774,-66.04359344,-66.47020022,-71.38441898,-69.21153945,-39.97161597,-40.11304699,177.4204249,-44.05033556,-38.42265888,0,29.06097298,,,,
528.4799996,2064,42.65837066,62.8219454,11.70997968,0,-226.1808117,79.48735689,73.87199009,84.09313238,-40.60827283,-14.22467506,-29.58547475,420.9398302,-12.97297991,-5.062231261,0,5.827419341,,,,
528.4879996,2064,-21.78651449,-2.409675079,129.2105228,0,170.605493,20.9402205,17.80884526,11.69618769,46.18728741,92.81325019,67.60714258,63.12528798,81.38070321,92.86158793,0,127.3731031,,,,
528.4959996,2064,-9.14884338,15.36459914,72.50042977,0,-83.04368282,31.75556331,20.98288342,24.48630744,-80.38641374,-27.31021404,-45.0640823,403.0998456,-47.87797534,-36.72370492,0,18.55557463,,,,
528.5039996,2064,36.81012994,64.96227159,20.86120775,0,-64.39470326,85.82528175,78.45815351,77.73958876,46.15634477,98.58429294,61.70646411,199.5819944,78.69613006,95.07819786,0,102.2233472,,,,
528.5119996,2064,-71.5768155,-53.06387299,114.9322455,0,132.2963037,-33.13890874,-39.96430439,-42.60796846,-54.18099274,3.3695171,-12.15587664,199.9649255,-26.53781219,-5.562715422,0,61.78098163,,,,
528.5199996,2064,58.62019616,84.29973512,-3.424923979,0,-219.0372077,98.74947941,84.70028891,93.37788353,-34.75054274,17.18643197,-15.07516255,436.1928842,-8.20547537,8.222491651,0,18.84597879,,,,
528.5279996,2064,-35.28647642,-14.65485377,92.31718409,0,154.3303063,3.711938804,-2.610711052,-8.582308212,39.51431012,98.62242703,61.25409929,74.20510678,65.67952607,80.64256515,0,113.8073853,,,,
528.5359996,2064,-25.35921434,-4.073913012,53.91860417,0,-97.03223887,2.471438661,-0.335008098,3.357326036,-86.4662812,-31.23841952,-56.55341871,415.241985,-63.04171139,-53.99258118,0,-2.409103953,,,,
528.5439996,2064,50.91367712,74.52881478,37.99541806,0,-70.3437309,85.00592702,90.44459962,87.64453863,39.57446297,87.6112466,45.40798302,223.1783361,67.4551909,74.81823635,0,75.45790073,,,,
528.5519996,2064,-50.32451949,-33.63431216,173.1502466,0,152.3200354,-22.90253916,-14.6399588,-20.94705628,-34.02729858,16.63982137,-1.135157454,204.7978891,-7.445414461,1.433899658,0,69.49168953,,,,
528.5599996,2064,73.20759956,94.36042622,66.76421134,0,-191.9886903,100.9067994,102.5751928,105.2169616,-3.556350011,39.5525597,10.59968029,427.4217347,21.83690807,29.40674043,0,51.73724834,,,,
528.5679996,2064,-20.38504178,-6.499481947,131.7868316,0,168.9975235,5.382167707,10.88132929,-3.514418375,47.53349426,90.67451261,64.44745067,69.13805146,70.82449163,79.79718017,0,120.8396927,,,,
528.5759996,2064,-9.014704248,7.779451863,72.17403071,0,-77.75328992,9.259628417,10.97837509,8.961879189,-76.36233214,-36.79216581,-49.32696004,411.8146797,-57.52187955,-48.97229235,0,1.215744496,,,,
528.5839996,2064,71.26590765,89.36865355,24.20227487,0,-54.41896906,97.49659255,97.89674917,93.45305885,63.98168605,103.0668705,68.14909415,217.2141369,85.30221547,96.46804143,0,96.69058529,,,,
528.5919996,2064,-33.10664596,-23.51479496,104.4637642,0,159.4309514,-15.46715197,-16.24176185,-24.17230928,-18.97616651,23.65426052,11.20757579,191.7131622,-0.178570793,11.0601526,0,80.75464002,,,,
528.5999996,2064,82.99853802,98.59384722,-12.2841514,0,-198.6193686,97.43096236,91.16709465,95.02624681,1.544946358,36.28209312,13.1008361,421.720454,17.91143052,27.67166276,0,47.16964629,,,,
528.6079996,2064,-24.02363829,-16.31127071,73.18572853,0,147.8623589,-14.57405307,-18.66680733,-27.02366342,47.32072129,84.11222696,63.91648333,71.32446849,64.74048073,67.41794019,0,109.7363721,,,,
528.6159996,2064,-7.674681659,2.166197365,29.73152464,0,-100.9925483,-2.913000186,-11.02471274,-7.315501228,-89.87242701,-56.41046558,-60.67525467,426.8974448,-72.3412886,-79.51245444,0,-20.97328027,,,,
528.6239996,2064,94.64055496,109.0270944,18.49203206,0,-63.98999022,113.9471788,106.0280806,105.2621884,68.70309451,101.3280951,74.8088831,232.6426106,87.06345752,88.69055861,0,93.34935966,,,,
528.6319996,2064,-25.95240025,-18.00114182,121.4147229,0,161.5303127,-16.07439556,-21.9178691,-28.69559475,3.863850062,42.12727416,33.67804901,187.3229999,16.60010859,20.52511558,0,94.72545719,,,,
528.6399996,2065,82.85924576,96.99292555,-4.638780211,0,-208.6906867,90.53782226,85.39165652,88.10713955,-2.265500595,29.88292615,7.515474023,433.3464989,7.041911724,8.562014781,0,31.86776555,,,,
528.6479996,2065,8.254825631,14.38537071,98.17666053,0,154.9609377,19.86604754,17.29117468,8.742493562,58.89589881,92.85823031,72.94294279,86.45205172,66.44354464,74.75685993,0,111.7389569,,,,
528.6559996,2065,7.578798762,14.33165424,59.26618823,0,-78.62530651,12.74742942,4.199334564,8.634794144,-47.47878471,-18.7786989,-22.98085587,416.2822866,-41.11125132,-38.20342503,0,16.14990858,,,,
528.6639996,2065,71.18761546,81.32537841,13.5671049,0,-78.64198412,82.03822327,77.29952747,77.63016784,68.24818726,94.90373659,68.68562551,239.9387466,76.40146202,79.86626345,0,82.74167972,,,,
528.6719996,2065,-37.95892335,-34.41628679,119.0029883,0,135.7403855,-34.85266931,-36.06561634,-40.63128181,-26.87646954,5.090065011,-1.351035001,224.0633464,-23.59617332,-16.24814001,0,49.24306282,,,,
528.6799996,2065,76.89209781,86.97624491,0.355787565,0,-219.252863,78.49306071,77.67906083,82.46102212,-3.761676061,20.66654798,1.856947027,464.3319916,2.052434176,4.685391843,0,16.95178976,,,,
528.6879996,2065,-11.26994844,-8.070384284,89.36134957,0,141.0406044,-14.21077406,-5.390600156,-15.23438381,54.48878407,82.74310068,63.19954947,112.6062991,62.78636588,63.3459927,0,94.66129131,,,,
528.6959996,2065,3.908858367,8.230742276,73.62422347,0,-93.74563715,-6.403040618,-0.398857226,-1.145207576,-73.14810856,-47.51104187,-52.73526703,454.2534142,-66.50386852,-74.73542845,0,-19.26135019,,,,
528.7039996,2065,93.12560665,99.98346842,64.43333134,0,-71.81366369,95.5007936,99.13577734,93.75243921,80.87935201,101.8363654,78.57595826,256.8760596,90.37225497,81.95897795,0,87.39251971,,,,
528.7119996,2065,-27.13128594,-26.57272319,174.8802363,0,154.5134856,-30.38262109,-25.06751411,-35.69220098,1.841828591,25.77123295,24.59578646,212.3000025,5.640030052,1.58253913,0,73.21890287,,,,
528.7199996,2065,67.00099718,74.19941624,45.16232782,0,-225.4763193,67.39765063,70.82127675,69.57657513,-8.581290347,9.882004642,-6.102439213,467.0977754,-3.592991385,-10.3416558,0,13.39354308,,,,
528.7279996,2065,-16.9536407,-18.33715747,123.5669489,0,130.1021347,-11.62836817,-8.255561261,-21.54207869,47.87525074,70.40039903,54.06475281,120.6399759,54.91844286,52.28740133,0,92.38752708,,,,
528.7359996,2065,2.283412262,2.576966928,79.44718455,0,-96.55660588,-2.812834552,-3.737384553,-6.403648627,-74.89557853,-55.98035682,-54.25162455,460.7944634,-71.46809207,-77.18378993,0,-18.25258163,,,,
528.7439996,2065,86.80099369,91.66401043,33.56123404,0,-86.44525438,86.66691372,90.91738053,81.84044596,75.12310061,89.16152474,72.86233295,275.4377458,81.60175007,75.19944885,0,73.53800311,,,,
528.7519996,2065,-42.48428956,-43.82611389,129.6587065,0,142.1232207,-48.8178333,-42.55025888,-58.72164724,-3.113690403,13.64539687,20.0737398,231.5740677,0.550186951,-3.616086904,0,53.95670381,,,,
528.7599996,2065,63.19149904,68.43339703,2.18028964,0,-236.8463536,55.28747612,59.97438063,53.56656907,-20.71372862,-6.561589669,-15.97687292,497.5056271,-17.37151656,-26.15323705,0,-12.03380395,,,,
528.7679996,2065,11.87572672,8.584788307,106.0935369,0,132.0108795,2.273798361,12.4477866,-4.652133339,55.90674963,72.99945535,61.95642494,144.1231606,57.56730904,51.88526909,0,85.86360064,,,,
528.7759996,2065,23.42955745,21.43225869,94.52954557,0,-74.00270257,5.922585823,12.25790478,8.036031876,-41.50449735,-29.79181827,-22.84560108,457.445713,-42.07351062,-50.59533775,0,7.079326989,,,,
528.7839996,2065,79.24724496,80.56374664,50.21188494,0,-83.0620383,70.13491672,78.9475008,72.21651697,82.45971494,93.88050768,78.63174436,275.4025098,87.43330027,76.81050915,0,84.52267347,,,,
528.7919996,2065,-40.60847839,-46.85600356,144.959576,0,136.0917453,-52.72389256,-43.28708209,-51.56108884,-15.91682569,1.372199342,5.754867591,240.977794,-15.47794942,-21.25466594,0,52.11983956,,,,
528.7999996,2065,77.63966981,80.16682744,20.77580189,0,-227.4861166,72.97242629,80.80648534,82.88341377,-12.48256642,1.977717498,-9.608142893,499.468547,-10.04771676,-17.35953049,0,8.301902439,,,,
528.8079996,2065,19.96005046,15.90972728,123.5560818,0,154.0354469,20.49419341,34.64601061,20.97973288,80.63060664,97.8524427,85.03226509,127.3420471,85.75544949,83.30729534,0,122.1001225,,,,
528.8159996,2065,36.48512454,34.220164,114.2870408,0,-55.27002122,28.15446519,38.70604327,34.91014751,-30.40177832,-16.85457499,-13.38436462,436.0138098,-30.52664694,-29.19869449,0,30.40640572,,,,
528.8239996,2065,86.42232413,89.84286088,65.87880236,0,-76.9430625,87.22834042,99.02671925,89.51318132,84.86258959,99.63557065,78.20731057,253.9606544,91.63557027,87.98926413,0,90.7869724,,,,
528.8319996,2065,-51.40294377,-55.37799715,167.7921776,0,145.8311452,-52.71470648,-39.2416149,-53.99046014,-6.622449094,10.59612039,11.23547705,211.3170649,-1.041172891,-2.916807572,0,57.07729921,,,,
528.8399996,2065,59.47178921,62.30295611,50.32425632,0,-236.6850413,58.40867119,70.5349076,67.83533711,-22.91660325,-10.877311,-25.35450383,484.0177301,-19.91300105,-18.1817876,0,-2.848554153,,,,
528.8479996,2065,-10.86768537,-14.51327568,144.9302559,0,119.8357974,-12.51458837,0.786043427,-13.21126304,46.66307135,66.71646689,43.45537984,130.7464105,50.98522093,49.9872693,0,83.78328749,,,,
528.8559996,2065,7.580161259,6.627692114,136.9711716,0,-82.87548875,-1.689165138,6.673349684,4.264094838,-59.37958516,-44.44249036,-49.64793085,454.5830571,-58.90370385,-65.39008792,0,-9.675169279,,,,
528.8639996,2065,93.64522819,98.15412521,100.9140027,0,-88.43603375,94.10998552,105.3488066,97.27473481,75.49919811,88.94604399,65.7477026,279.6374007,79.6891357,73.06859001,0,81.29745209,,,,
528.8719996,2065,-23.32388975,-27.368876,208.1185196,0,159.2523367,-25.06670525,-14.67598939,-28.64988467,4.793902089,26.65584738,23.60002635,218.9736027,9.544843015,3.459280658,0,77.75312976,,,,
528.8799996,2065,80.68745983,84.04835702,75.34322294,0,-214.3260833,85.56195529,90.00533336,87.2966704,0.215824852,13.58941559,0.200740959,480.1483393,6.547398251,-1.258435145,0,22.09037822,,,,
528.8879996,2065,11.00891948,11.08082005,152.6995671,0,140.0715717,22.54830012,23.0653276,8.604796531,69.39873791,89.44037793,70.81368301,122.808566,75.23182352,73.0145216,0,109.2055756,,,,
528.8959996,2066,21.53597658,23.15279552,133.6967943,0,-61.51105152,25.32962729,16.15285836,12.93625667,-41.21850767,-17.53224199,-25.05412671,441.9576214,-35.49999928,-41.51525493,0,20.09489325,,,,
528.9039996,2066,77.73732285,80.64239882,78.68593724,0,-95.03803693,86.26794241,81.4560668,75.373667,74.91883062,92.84727176,68.36381087,278.7859148,84.66231833,74.94597345,0,85.60249646,,,,
528.9119996,2066,-50.1107265,-55.57795764,177.2435406,0,132.1040237,-51.45000451,-50.57281048,-58.86316777,-15.23456713,1.010349546,1.892856835,232.0319018,-14.94245874,-20.99915041,0,49.76884666,,,,
528.9199996,2066,77.45484944,79.4677609,49.50141664,0,-229.4367429,77.10993678,77.6613089,78.5318134,-6.88572666,-0.727776807,-10.61505232,492.9916612,-6.186790592,-17.37585731,0,2.670600522,,,,
528.9279996,2066,-1.987688381,-4.830222925,118.8806625,0,126.0173438,4.858283865,10.54149563,-5.232484826,64.60290486,73.87256649,64.39999919,124.6495547,67.66332182,59.78927622,0,93.98646741,,,,
528.9359996,2066,-12.49689905,-12.87134908,94.12886019,0,-83.87142186,-10.9459436,-6.559383956,-12.4088849,-66.01883965,-56.77867858,-50.04137124,453.846975,-65.60726443,-71.80744917,0,-15.87013613,,,,
528.9439996,2066,85.05321457,87.26289315,55.19109357,0,-99.45784348,92.26126701,100.227676,89.72636454,72.03859378,77.42362415,61.79668291,300.9326966,78.23968858,68.56140922,0,66.54736428,,,,
528.9519996,2066,-25.12549419,-30.93737325,174.9100576,0,149.3392635,-24.98240525,-18.1388245,-32.08703364,8.101606343,15.73653944,22.68433591,231.3113218,8.964794001,0.859218968,0,60.99573873,,,,
528.9599996,2066,77.31452827,80.56922275,73.55224885,0,-221.1308225,82.24963206,84.97709856,85.61084062,-0.316123677,2.711040663,-3.306671827,489.5967318,2.47578312,-8.587704066,0,4.955495124,,,,
528.9679996,2066,11.87813557,12.32664853,171.6682787,0,140.1440936,23.58513413,31.17755325,20.51550157,79.75435665,89.00509216,75.61354496,122.0877528,86.46556652,78.93976068,0,104.070431,,,,
528.9759996,2066,8.900773573,12.52633685,153.2127549,0,-61.12559644,12.63631193,13.49015511,14.4416257,-32.75866116,-24.76603074,-24.73672433,426.9502758,-32.42721878,-33.87052032,0,11.01250448,,,,
528.9839996,2066,63.79041711,70.60960683,99.37747713,0,-104.5749889,74.60045552,76.93728615,72.86258018,69.44622658,74.6892508,51.9516094,270.1471262,74.5258652,70.15395599,0,62.95775862,,,,
528.9919996,2066,-69.35809062,-69.02093011,199.0956919,0,132.2952087,-60.09271146,-54.00505887,-66.18322955,-26.06008177,-13.2700128,-17.89041284,226.8579122,-21.35536559,-29.65443558,0,33.17582661,,,,
528.9999996,2066,57.53429347,66.56778807,79.70052992,0,-236.9193312,71.73468876,70.22652313,68.63732816,-24.34242849,-14.06838392,-33.17247272,512.9900557,-18.89088879,-26.6113796,0,-16.8262826,,,,
529.0079996,2066,-7.97161048,-5.647815954,167.6131737,0,122.8429178,8.65127651,9.337237914,-6.583819146,59.02766666,76.16947624,50.15765779,143.0148057,68.14402621,60.65974127,0,78.040654,,,,
529.0159996,2066,-22.72364714,-17.88257166,147.6743146,0,-70.93556626,-16.77566912,-13.59955321,-22.70959731,-64.64640872,-46.50647804,-57.43825628,449.3510797,-57.92756439,-71.14656117,0,-22.73932465,,,,
529.0239996,2066,64.73951683,75.87134889,102.5589376,0,-110.5406325,77.82035475,82.24867748,67.67784185,53.98412673,69.37689026,39.49100016,299.9749167,65.87777782,48.58191978,0,44.20062364,,,,
529.0319996,2066,-50.8252708,-45.63563545,220.4559476,0,142.3753645,-33.85977191,-33.7856038,-52.54823881,-12.68189512,7.370419551,-2.935736317,227.982938,-3.10413824,-19.09067698,0,38.60699707,,,,
529.0399996,2066,56.80760482,71.78304415,108.3076702,0,-216.3678872,82.285147,80.72149016,75.9520099,-10.78887573,4.578769838,-20.42188941,497.5223289,0.682343978,-11.47169774,0,0.01761967,,,,
529.0479996,2066,-14.74993529,-5.894696633,189.6065334,0,128.831071,11.43516228,15.62826576,-0.836712974,58.79591857,78.04353825,50.33608191,136.4066155,72.97082914,66.92745267,0,91.58920318,,,,
529.0559996,2066,-13.69285961,-5.079581691,171.898807,0,-67.07779842,5.487172046,3.942057956,-2.282315436,-63.37065256,-47.21886761,-55.66784278,450.0430812,-57.29358338,-62.90295546,0,-11.56953999,,,,
529.0639996,2066,70.00755172,82.88960979,119.0614308,0,-91.29756017,98.87407475,99.56138964,89.25981615,71.98711518,86.52977334,56.07014012,298.3066314,85.23725502,76.51365474,0,71.13950881,,,,
529.0719996,2066,-64.32329629,-58.33883114,206.2319946,0,149.0084879,-42.69857241,-40.18603221,-57.03647804,-10.9740557,8.984274753,-0.203700051,227.3049158,6.637548437,-3.464926139,0,52.58226992,,,,
529.0799996,2066,49.54032609,65.41550509,77.0101578,0,-238.1519976,71.94497814,70.59933525,63.49420825,-33.79593616,-16.64114485,-39.89805175,513.7346302,-15.29460917,-26.32319761,0,-16.46278744,,,,
529.0879996,2066,-18.36517837,-7.475040625,160.9230113,0,118.5299891,5.371407532,7.927630955,-14.85002379,50.57306193,77.12920198,44.01472259,152.9928477,72.21609748,61.75263353,0,81.27637829,,,,
529.0959996,2066,-18.54382793,-7.346341608,128.9496548,0,-71.27090848,-7.062537934,-7.250133811,-20.29274451,-72.09713449,-47.96287681,-61.68023558,468.905462,-53.46619962,-65.49506955,0,-20.34706615,,,,
529.1039996,2066,73.19189541,88.45894026,50.51801734,0,-109.4408973,90.89241655,95.20301284,78.9750487,57.34690521,79.43833438,44.48101018,319.131697,79.19049971,70.77208893,0,60.46882719,,,,
529.1119996,2066,-48.56319685,-42.05053945,155.4610302,0,153.3848006,-38.50471475,-30.71931368,-51.51994936,-7.585473241,18.89528998,3.798458053,230.8245687,14.33772466,7.393451333,0,55.57273241,,,,
529.1199996,2066,81.37646432,95.49539528,54.82947393,0,-215.0824127,92.14764812,95.95478004,88.82563906,-13.53857767,5.92001085,-17.45955262,508.1353368,11.7530723,0.606792169,0,-1.995954533,,,,
529.1279996,2066,-1.202808629,7.365799779,126.0877917,0,139.1444953,18.39446874,23.67558814,3.873799011,77.41601765,104.7238945,76.87944849,129.2012888,106.4141404,102.000782,0,106.184091,,,,
529.1359996,2066,-33.51618547,-24.16543835,82.71756333,0,-59.95548132,-20.37777301,-18.37805983,-25.96492482,-70.38762207,-44.51998874,-54.06131741,441.5973449,-43.67704465,-43.31827841,0,-13.22816412,,,,
529.1439996,2066,57.3918991,71.86024539,3.951073552,0,-118.2935295,77.31623134,85.70128151,75.22399472,29.52958388,52.1384434,20.62850688,314.2858028,59.50719033,57.63321202,0,33.33948793,,,,
529.1519996,2067,-65.26323333,-59.79590226,95.61597838,0,147.4023279,-52.24471535,-39.86817463,-58.07861763,-25.066187,0.501034576,-9.7368799,224.8795597,0.071268572,-2.650455076,0,33.43791306,,,,
529.1599996,2067,54.23081994,66.01547278,-12.87548684,0,-221.0090893,68.91162025,75.61515527,70.34750771,-26.09295597,-7.605494225,-26.79463872,503.4177257,-3.994048332,-1.566772313,0,-14.62187115,,,,
529.1679996,2067,-10.96419161,-4.482397827,85.4077081,0,128.4546351,16.93941538,26.35893203,9.677342186,51.85877754,78.29459132,54.92817473,131.4311441,78.55180783,89.37061946,0,87.61191789,,,,
529.1759996,2067,-29.88277703,-22.35165073,86.68202414,0,-55.68241774,-7.314880648,-1.368226502,-8.498198452,-79.15988917,-53.2243345,-56.35378581,433.037618,-49.18093185,-41.24286134,0,-16.30603146,,,,
529.1839996,2067,62.05631901,74.24704244,31.61644065,0,-111.0887943,89.4423589,96.00534862,83.51824344,48.13000683,71.99907732,46.00225782,293.5519316,80.68215738,87.30727752,0,49.25902387,,,,
529.1919996,2067,-55.80066727,-52.91706672,128.8402579,0,151.5797409,-34.31123632,-26.35604012,-45.05570605,-11.97977694,14.51761402,9.049368407,195.3795103,11.66865059,23.01886857,0,48.44672398,,,,
529.1999996,2067,54.53699074,64.47071116,20.04867239,0,-228.5583005,74.18977637,79.0331702,71.89250771,-28.1101826,-14.70720728,-26.1124295,478.1169162,-7.252619661,1.469908079,0,-16.94338533,,,,
529.2079996,2067,-20.18013378,-15.59470366,115.1165983,0,110.1957511,6.551785066,16.11928342,-6.383198938,54.14543593,69.68650285,54.51070373,111.4872457,79.14741622,85.38539025,0,74.03676104,,,,
529.2159996,2067,-34.15349972,-29.50523741,103.8912942,0,-72.2641902,-14.26130405,-9.866875883,-19.03963279,-80.29517016,-64.40039041,-61.39920524,422.4190142,-57.93590166,-49.02881147,0,-29.41058359,,,,
529.2239996,2067,63.88396798,75.63939099,37.07177388,0,-126.7441004,88.78426023,91.3040279,81.42458486,43.21839544,59.06027351,37.772236,293.6004685,67.02414388,79.36834819,0,39.31945542,,,,
