Time:125Hz,Epoch,FP1,FP2,C3,C4,P7,P8,O1,O2,F7,F8,F3,F4,T7,T8,P3,P4,,,,
489.5999997,1912,0,-119.9751707,0,-13.71967939,0,-5.534419213,169.7161298,226.0952478,-79.09570765,-137.2998083,-89.13665881,0,6.00E-10,42.99195507,145.9561506,105.827285,,,,
489.6079997,1912,0,240.8275033,0,-16.22400246,0,-43.53879979,-162.3000813,-296.9927889,-16.57534137,3.679493754,21.88472197,0,6.00E-10,115.9154321,-52.48591361,-37.96290488,,,,
489.6159997,1912,0,-265.2998156,0,4.206324596,0,40.42189682,192.8998044,229.4724803,44.83583786,-53.09141712,-16.83475455,0,6.00E-10,30.62614827,-12.80361127,-24.17615024,,,,
489.6239997,1912,0,193.0138165,0,-25.93030669,0,-41.8443853,-51.79607572,-104.0960249,-66.59555454,-82.5833632,-61.08700906,0,6.00E-10,78.6557875,123.180538,90.82616447,,,,
489.6319997,1912,0,-43.86200246,0,-4.211648285,0,6.944007738,-16.44410802,-95.75783983,41.70041241,56.7274018,47.82648461,0,6.00E-10,74.50831678,-135.1484331,-108.679022,,,,
489.6399997,1912,0,-129.9344758,0,-13.29907047,0,2.210418797,172.9651909,225.7578747,-86.95432749,-139.9602686,-91.31962335,0,6.00E-10,26.08240849,144.6301536,99.99412604,,,,
489.6479997,1912,0,231.1377689,0,-16.40008488,0,-41.05392854,-156.7223962,-299.4488001,-18.77240411,15.87139365,16.32187494,0,6.00E-10,110.9219016,-44.78464408,-40.14139407,,,,
489.6559997,1912,0,-289.5431711,0,-3.327173443,0,29.53418916,194.8119401,224.3195733,19.96980127,-55.1865741,-19.02583884,0,6.00E-10,33.78318011,-6.875661549,-25.40991145,,,,
489.6639997,1912,0,184.5205502,0,-16.25574225,0,-36.99914046,-39.90717448,-102.4078149,-76.66063363,-76.53345492,-53.16124903,0,6.00E-10,78.00847493,134.5467406,92.54247188,,,,
489.6719997,1912,0,-37.53912406,0,8.022553678,0,12.16968872,-9.548952263,-103.0098922,90.95193735,68.05998825,59.65942585,0,6.00E-10,70.33376872,-124.5222394,-107.2575055,,,,
489.6799997,1912,0,-151.6144164,0,-27.26006265,0,-20.30856413,173.9337246,231.0125922,-82.72546775,-157.6935296,-91.87803386,0,6.00E-10,23.30533161,148.2214447,104.7192317,,,,
489.6879997,1912,0,223.9182471,0,-29.20308089,0,-65.77242574,-163.0448086,-296.7150079,-90.07165245,-5.662769942,8.808684867,0,6.00E-10,114.966113,-44.63277741,-27.29247693,,,,
489.6959997,1912,0,-606.2487357,0,-3.035179794,0,47.90737114,394.6627589,534.2392273,-3.568880557,-114.3481612,-51.25341983,0,6.00E-10,-9.920670351,-0.120994533,-11.57792314,,,,
489.7039997,1912,0,-69.47540561,0,-34.40619657,0,-43.95418611,158.3486213,224.9910611,-161.1490282,-206.2156592,-135.4207525,0,6.00E-10,31.6086479,240.8221524,180.316054,,,,
489.7119997,1912,0,344.558253,0,-1.572714722,0,-42.82588063,-265.8467632,-490.4174043,3.523855055,115.2806889,89.43053352,0,6.00E-10,132.6403409,-144.4129396,-108.3612797,,,,
489.7199997,1912,0,-332.5701131,0,7.855781578,0,40.19804171,256.2161888,309.4832875,48.5057392,-58.18961358,-15.31169624,0,6.00E-10,-0.739912177,36.93340081,14.48089,,,,
489.7279997,1913,0,122.5090962,0,-31.80998546,0,-58.1507592,-15.91495551,-62.56312085,-73.87003878,-78.23129202,-49.18773669,0,6.00E-10,57.26529318,120.9898086,92.29285222,,,,
489.7359997,1913,0,62.52055637,0,-24.2132078,0,-42.43965638,-93.54699297,-206.0660495,-15.36676226,39.00021349,35.91917095,0,6.00E-10,95.18290543,-112.5827794,-87.32779335,,,,
489.7439997,1913,0,-252.9068404,0,-34.88584201,0,-15.24547069,193.9782864,268.7490673,-72.78596971,-140.05672,-85.74271376,0,6.00E-10,26.26627145,90.42220392,57.74946116,,,,
489.7519997,1913,0,209.3631913,0,-49.02704291,0,-76.25917466,-138.9449334,-227.0629977,-93.57645366,-35.48984485,-39.48081243,0,6.00E-10,98.82021509,26.82612145,18.34614493,,,,
489.7599997,1913,0,-135.8395786,0,-12.22082793,0,5.008506488,50.4482374,29.81374663,4.658084659,1.861720044,-13.71073968,0,6.00E-10,59.52541782,-77.49639284,-68.32926763,,,,
489.7679997,1913,0,-45.41772259,0,-8.538502775,0,9.765394783,104.7105832,136.8748518,-70.76818151,-119.723327,-86.8543437,0,6.00E-10,39.07206533,128.51081,90.96133685,,,,
489.7759997,1913,0,203.5222129,0,6.000424282,0,16.67251353,-123.4274543,-245.9458806,23.20848194,49.11461489,42.62522589,0,6.00E-10,100.7420403,-46.73452189,-40.05453128,,,,
489.7839997,1913,0,-218.1939539,0,30.57029866,0,93.31844834,202.5326418,238.3644467,48.30659463,-10.47047794,-3.098158858,0,6.00E-10,31.78697286,35.03075204,11.46026489,,,,
489.7919997,1913,0,220.3121409,0,11.26261051,0,11.50115432,-39.22126246,-104.1134803,-51.61155143,-8.130207956,-10.75438555,0,6.00E-10,87.26002091,121.6751949,89.66396557,,,,
489.7999997,1913,0,-21.94053386,0,30.39816332,0,38.63454355,19.55022425,-52.66835988,86.70438141,82.16136571,80.16225962,0,6.00E-10,75.56580204,-87.75040247,-71.78602983,,,,
489.8079997,1913,0,-76.56663514,0,22.77765797,0,22.2473114,169.9362361,212.5989111,-28.71012073,-96.16950046,-42.13094314,0,6.00E-10,32.02076348,146.0913874,107.2870549,,,,
489.8159997,1913,0,273.3147234,0,30.64051476,0,-5.336162238,-124.2121403,-261.1456041,3.380125747,68.53412468,65.65260518,0,6.00E-10,111.7660025,-21.3665989,-11.90592765,,,,
489.8239997,1913,0,-226.9080778,0,46.20563155,0,60.0960348,206.1464426,229.542292,65.18769208,19.06515483,36.29466175,0,6.00E-10,32.84017991,7.211949014,1.253669365,,,,
489.8319997,1913,0,206.2291519,0,25.44855002,0,-19.56910595,-15.58739036,-70.23242013,-57.01175702,-45.88620792,-9.030191894,0,6.00E-10,77.33941119,140.7722465,112.3586832,,,,
489.8399997,1913,0,13.94939239,0,58.96057931,0,38.20567515,9.131950043,-91.34316806,103.6565555,110.7414526,100.2553947,0,6.00E-10,73.87186424,-103.1475142,-79.5299641,,,,
489.8479997,1913,0,-115.8261985,0,20.02686966,0,9.697511159,195.831254,241.2553136,-25.84783037,-76.32628351,-38.55851263,0,6.00E-10,18.81433289,153.4878492,114.6699944,,,,
489.8559997,1913,0,260.5773129,0,0.093161167,0,-50.35750834,-141.41008,-271.0683717,-61.20944052,12.15452379,42.66940372,0,6.00E-10,114.0108378,-20.12677679,-8.585961342,,,,
489.8639997,1913,0,-252.4028716,0,23.14091141,0,32.68215983,190.6149605,221.0588311,27.75905541,-28.74634409,10.75337757,0,6.00E-10,31.94382224,-12.31551808,-12.884023,,,,
489.8719997,1913,0,166.0643535,0,-17.41663617,0,-59.9971442,-28.36833782,-53.80903975,-111.3411989,-90.25334721,-43.6221954,0,5.00E-10,74.84018578,137.3367241,114.8905164,,,,
489.8799997,1913,0,-10.87907401,0,4.136593413,0,-19.14243205,-36.30306768,-100.101747,0.458179411,32.9430083,56.02393125,0,5.00E-10,89.01204252,-126.115024,-84.30691101,,,,
489.8879997,1913,0,-131.6644708,0,-2.144710231,0,-11.0660741,166.3381482,243.8851159,-29.8156192,-126.0905935,-73.30550084,0,5.00E-10,17.41517943,135.0310338,110.9522788,,,,
489.8959997,1913,0,268.7480521,0,-0.28280243,0,-50.35622373,-166.0820005,-282.4012897,9.542697236,52.64396316,43.43064187,0,5.00E-10,97.32361885,-28.47447194,-9.185986915,,,,
489.9039997,1913,0,-254.003985,0,14.57402674,0,17.10988641,169.3456861,212.9842758,42.8702691,-6.642805285,17.78184299,0,5.00E-10,22.23918986,-19.47251636,-14.11984513,,,,
489.9119997,1913,0,171.4124009,0,-24.53246783,0,-77.69020662,-44.66257022,-59.99750413,-119.5416846,-113.4005598,-40.81161219,0,5.00E-10,68.46878458,140.6902657,117.7091367,,,,
489.9199997,1913,0,9.206399214,0,20.37784512,0,-5.84554345,-50.4394608,-126.7661388,25.77093322,58.749318,79.15275099,0,5.00E-10,77.63583479,-125.7251499,-87.93825898,,,,
489.9279997,1913,0,-124.827764,0,21.97877143,0,16.84061622,165.8191539,229.2468068,-14.84247389,-91.84997405,-48.06423611,0,5.00E-10,1.448898426,137.5666794,109.3294011,,,,
489.9359997,1913,0,262.2814158,0,-0.866620232,0,-50.28445218,-174.8445433,-293.6822174,-18.8772159,45.65565546,58.01741261,0,5.00E-10,90.59216955,-25.29406516,-7.826440297,,,,
489.9439997,1913,0,-275.0906396,0,2.870745798,0,8.908541494,156.668527,204.4409649,0.911199309,-33.51897655,19.45733675,0,5.00E-10,24.73064768,-26.96890474,-21.09861616,,,,
489.9519997,1913,0,157.4018655,0,-28.39393977,0,-72.38457183,-50.96256918,-60.62441749,-127.8770293,-112.8765276,-47.95563286,0,5.00E-10,69.2349364,133.4208985,111.2215784,,,,
489.9599997,1913,0,-16.05924581,0,-10.66757456,0,-31.25437193,-64.30714214,-129.7259302,35.03285175,55.94506624,73.91201523,0,5.00E-10,78.46937567,-137.4071788,-96.40028932,,,,
489.9679997,1913,0,-175.9822775,0,-37.39522381,0,-45.8800243,148.9726758,240.2263564,-91.69574673,-147.4944273,-84.75217432,0,5.00E-10,13.29845944,117.6751973,96.19503565,,,,
489.9759997,1913,0,237.4293325,0,-40.58956389,0,-90.96444991,-197.3397194,-294.4412477,-122.7726405,-11.04146058,-2.851668801,0,5.00E-10,112.7479258,-46.6421701,-19.66082711,,,,
489.9839997,1914,0,-282.498713,0,-9.246308254,0,11.31391868,140.0021094,184.3463082,21.50508733,-52.09784191,-5.453056985,0,5.00E-10,33.69384933,-45.73590468,-35.52506147,,,,
489.9919997,1914,0,141.9877475,0,-40.57109304,0,-66.85383401,-58.00291833,-74.61394876,-104.3226424,-126.5777029,-54.43269807,0,5.00E-10,68.57963678,125.8932465,98.02998123,,,,
489.9999997,1914,0,-24.03552167,0,-14.95373277,0,-13.19305544,-71.39160496,-149.4256046,-23.71566974,40.32333908,52.08916439,0,5.00E-10,88.85580953,-145.4980183,-108.5928828,,,,
490.0079997,1914,0,-166.3446029,0,-3.027245315,0,35.701683,168.7403146,229.5958109,-51.11062456,-110.1447978,-73.49144078,0,5.00E-10,19.53400265,119.0474021,93.85249092,,,,
490.0159997,1914,0,282.3753984,0,22.91652305,0,32.16687861,-152.0044883,-294.4815069,0.30555536,59.68281452,59.73887986,0,5.00E-10,111.1406302,-21.89880652,-3.217795759,,,,
490.0239997,1914,0,-213.2537072,0,78.7736002,0,152.6104209,204.6491375,188.9865338,102.562872,58.60529241,72.48995959,0,5.00E-10,29.74785993,-15.60441034,-9.630514942,,,,
490.0319997,1914,0,461.3292161,0,43.86403345,0,34.85709746,-89.06293644,-196.0544914,-55.44399559,10.10992708,5.864838143,0,5.00E-10,76.38834641,271.3692311,220.4074602,,,,
490.0399997,1914,0,608.6596268,0,43.41251592,0,16.71226464,-314.6514138,-562.9371665,11.23878412,177.7066081,135.5366629,0,5.00E-10,145.2384296,11.69784934,26.06761082,,,,
490.0479997,1914,0,-110.5232453,0,69.06383355,0,116.2121761,156.536761,128.7451359,88.43326299,49.11346659,70.22696416,0,5.00E-10,32.32434362,34.78848305,27.98620083,,,,
490.0559997,1914,0,-10.92102432,0,59.40447723,0,73.77335879,77.2039003,13.42383361,86.9640225,51.80382408,83.07679323,0,5.00E-10,41.19833145,20.82209039,18.47168324,,,,
490.0639997,1914,0,49.51683813,0,52.01955414,0,55.21846792,57.95925024,-8.461569374,41.20298894,21.6411871,52.72047539,0,5.00E-10,30.22991623,58.20823284,48.64123521,,,,
490.0719997,1914,0,76.23931295,0,45.73552454,0,45.25454823,20.1008019,-66.2700334,22.6298148,59.6326781,65.53869656,0,5.00E-10,38.78751297,18.64798635,18.66813409,,,,
490.0799997,1914,0,-112.0183065,0,42.74658444,0,52.96665386,122.0336747,86.49542865,24.07587167,39.0356227,55.01813882,0,5.00E-10,20.24311379,-4.699010094,-3.961620816,,,,
490.0879997,1914,0,108.7976876,0,25.46367729,0,9.94835457,30.9756105,-22.26079597,-40.97638761,-31.62491143,4.98486513,0,5.00E-10,32.38297302,107.2359389,80.80887467,,,,
490.0959997,1914,0,2.236271421,0,44.80853161,0,39.67719565,15.58152994,-78.74112548,75.00805848,81.26988987,94.51934389,0,5.00E-10,41.94200117,-69.9853007,-60.20516134,,,,
490.1039997,1914,0,-82.65561018,0,43.79087506,0,44.63751293,165.3243769,167.031451,25.20607725,-27.66747382,1.926250388,0,5.00E-10,-9.359188051,116.7272942,79.05875763,,,,
490.1119997,1914,0,199.1765396,0,14.2222449,0,-17.32021797,-85.58215375,-202.759321,-20.11215466,49.69173677,63.04697862,0,5.00E-10,59.20649257,10.38647206,2.053956793,,,,
490.1199997,1914,0,-227.0787738,0,17.78727349,0,31.60103488,158.4953995,159.6573989,-31.43659492,-40.82309715,25.78807117,0,5.00E-10,12.28893331,-21.36159929,-30.55060573,,,,
490.1279997,1914,0,142.5385806,0,19.15969298,0,-3.887533382,21.12102532,-27.76519712,-75.23526396,-89.53471952,-26.65928454,0,5.00E-10,30.35430035,141.2601762,97.00297331,,,,
490.1359997,1914,0,25.79042107,0,47.92702418,0,38.81411326,-11.45251955,-128.7543956,117.0868439,128.6508698,108.0406501,0,5.00E-10,38.91387525,-96.55753303,-88.25316221,,,,
490.1439997,1914,0,-156.912309,0,22.73147101,0,26.92786703,195.3554554,229.1025201,-9.395534887,-68.53314107,-31.44790959,0,5.00E-10,-26.12488434,129.3186431,85.80609586,,,,
490.1519997,1914,0,221.8339026,0,-7.068839072,0,-48.36700963,-129.1047844,-247.5977814,-49.99690051,-1.151633377,42.53900367,0,5.00E-10,67.54517399,-1.828668641,-1.636772158,,,,
490.1599997,1914,0,-271.3401691,0,5.369268892,0,14.36401403,160.9225449,179.035381,-19.53807984,-22.64421814,9.712953714,0,5.00E-10,5.411071732,-37.22566114,-33.03857701,,,,
490.1679997,1914,0,124.9167928,0,-17.8099988,0,-53.72788824,-5.16121942,-29.98105275,-142.048491,-99.58621465,-65.71576977,0,5.00E-10,30.11381141,135.4691285,104.4976609,,,,
490.1759997,1914,0,0.471244576,0,4.389642748,0,-17.57181003,-52.44065531,-149.612163,48.02450745,59.72458478,71.30725889,0,5.00E-10,46.86801471,-123.9426487,-101.9741403,,,,
490.1839997,1914,0,-191.1942734,0,-7.87692725,0,-12.66411918,178.9406376,232.6589608,-52.0768497,-120.0686915,-68.51597859,0,5.00E-10,-27.22301235,120.6955171,80.76745386,,,,
490.1919997,1914,0,239.7746262,0,-19.11506905,0,-66.79929518,-161.7626238,-290.5338705,-61.64328937,3.761437849,23.5444821,0,5.00E-10,65.51568188,-11.61760327,-15.16686134,,,,
490.1999997,1914,0,-280.1542625,0,4.861622523,0,13.94672191,149.159832,153.3028259,45.00654907,2.68668649,13.45855426,0,5.00E-10,-9.098967204,-41.1175786,-55.55874493,,,,
490.2079997,1914,0,117.1188835,0,-14.89444716,0,-52.49771947,-12.38794022,-53.10545735,-90.58520596,-77.89896692,-50.78326592,0,5.00E-10,17.10390443,145.1490638,89.85947527,,,,
490.2159997,1914,0,-5.383628309,0,11.37583942,0,-6.994111197,-56.25301498,-171.4577981,37.03689889,55.72649825,82.60891327,0,5.00E-10,45.8451325,-116.9723592,-110.0614145,,,,
490.2239997,1914,0,-209.5498506,0,-7.811812538,0,-4.848163132,178.7707213,226.3909387,-55.5989955,-131.3676425,-67.14526896,0,5.00E-10,-24.17857837,129.1964843,77.88389581,,,,
490.2319997,1914,0,244.2712793,0,-7.071360481,0,-51.49732183,-170.1266477,-304.3131777,-52.50369691,22.61271169,24.51694523,0,5.00E-10,68.62572968,-5.834356713,-16.56314864,,,,
490.2399997,1915,0,-275.5474797,0,30.29337904,0,42.07334331,147.736776,148.9372366,55.86889792,10.46818408,24.63764618,0,5.00E-10,-10.82956109,-38.53306957,-52.73012993,,,,
490.2479997,1915,0,103.0224545,0,-17.42721759,0,-57.24309235,-22.0738174,-45.40242848,-88.78559249,-86.61293265,-43.80748412,0,5.00E-10,18.6587926,150.6909587,98.85896178,,,,
490.2559997,1915,0,-20.78045601,0,-8.328493973,0,-39.4481672,-82.1478904,-170.755411,-3.133725895,61.77111596,60.83093092,0,5.00E-10,57.31666622,-121.2942696,-106.5900337,,,,
490.2639997,1915,0,-235.0132227,0,-31.10746864,0,-40.07895317,155.33087,225.2983168,-120.7794114,-160.72894,-107.4933276,0,5.00E-10,-20.1476595,114.4717538,71.87353916,,,,
490.2719997,1915,0,201.0490871,0,-65.56127008,0,-115.3983973,-202.0927199,-304.853398,-136.9304785,-55.39105818,-21.93653724,0,5.00E-10,70.1783543,-21.07232439,-26.77294283,,,,
490.2799997,1915,0,-304.8968661,0,-20.48843851,0,-3.084194839,116.4330282,149.2702963,-14.99189231,-44.21326982,-28.42199886,0,5.00E-10,7.456240988,-56.28985536,-64.51065198,,,,
490.2879997,1915,0,129.0618008,0,4.865232364,0,0.481456817,-24.54113557,-51.97844534,-52.2982037,-85.04756524,-65.74449421,0,5.00E-10,31.00660921,143.9585599,95.18285577,,,,
490.2959997,1915,0,43.35615097,0,55.48793664,0,80.8052122,-60.48232282,-182.9263007,137.4816576,124.7490448,114.6121286,0,5.00E-10,46.84365791,-109.2932542,-100.0951282,,,,
490.3039997,1915,0,-158.6333857,0,60.86558359,0,98.90823426,206.0574185,238.2350328,48.70292225,-4.620394131,1.863373401,0,5.00E-10,-33.02043559,149.4070552,95.17884838,,,,
490.3119997,1915,0,287.2747838,0,45.37806778,0,25.56517849,-138.8247516,-286.0425664,4.63322105,98.93431264,93.04950842,0,5.00E-10,63.86803926,31.58221512,13.23025511,,,,
490.3199997,1915,0,-245.5305287,0,53.96201396,0,81.50454886,166.8753587,163.3931638,64.75951129,20.3115668,67.01209204,0,5.00E-10,-10.55890046,-13.05219753,-30.00996878,,,,
490.3279997,1915,0,150.0659418,0,34.25770747,0,10.48548291,12.47643525,-26.82356219,-35.99938673,-39.03442517,-0.874517869,0,5.00E-10,5.509065208,176.0349852,120.2938359,,,,
490.3359997,1915,0,29.34639037,0,41.36859665,0,30.46011406,-53.26667236,-167.3318723,81.74897959,113.8343335,126.7177579,0,5.00E-10,36.97840914,-95.48433127,-90.30269325,,,,
490.3439997,1915,0,-189.2594559,0,24.22924537,0,30.60470032,192.2496651,249.1815601,-23.0425199,-93.38962068,-34.04247694,0,5.00E-10,-37.2080121,140.0030988,89.50288406,,,,
490.3519997,1915,0,280.9438193,0,28.74161381,0,-18.06496592,-155.9606845,-286.0270802,-16.70081845,64.3776702,59.32789363,0,5.00E-10,55.73079863,14.47334495,6.340337216,,,,
490.3599997,1915,0,-265.5350438,0,36.05304254,0,43.08738688,149.4220523,154.1550072,67.21977381,20.57470341,51.81149741,0,5.00E-10,-17.51687655,-34.71263301,-41.69673675,,,,
490.3679997,1915,0,109.3971027,0,-7.229509003,0,-41.64709769,-8.369515663,-24.47585835,-80.40572333,-91.02275768,-35.69460046,0,5.00E-10,8.892108051,156.5080431,108.6674875,,,,
490.3759997,1915,0,11.03617686,0,9.881231002,0,-12.61841872,-82.05887393,-174.6950894,15.07856112,69.29587306,80.97760822,0,5.00E-10,50.19150141,-116.3864525,-99.65059176,,,,
490.3839997,1915,0,-219.2809504,0,-8.178473901,0,-17.98105788,168.2695059,245.5059598,-58.93383208,-135.1937568,-63.72406169,0,5.00E-10,-25.23336471,121.6159929,78.64823789,,,,
490.3919997,1915,0,250.9112133,0,-20.86760423,0,-78.79815882,-184.2693486,-286.6309542,-75.02059276,-11.16799391,14.63309703,0,5.00E-10,73.89715988,1.182296546,-7.005586868,,,,
490.3999997,1915,0,-260.6068031,0,21.9232606,0,23.45824401,126.676395,142.9442462,36.19836945,11.32482365,11.25804997,0,5.00E-10,-5.480115029,-51.7041874,-59.76517447,,,,
490.4079997,1915,0,122.9249971,0,4.750744399,0,-38.3658992,-13.09893964,-28.23821238,-60.45800541,-54.83753223,-38.42534778,0,5.00E-10,9.925313495,153.6876304,99.65074956,,,,
490.4159997,1915,0,24.51894258,0,13.08189427,0,-15.32615239,-89.66400428,-184.2606547,34.86950383,81.03438108,87.89255213,0,5.00E-10,49.1952094,-113.8402224,-105.003465,,,,
490.4239997,1915,0,-218.3235727,0,-6.808628917,0,-16.89185949,162.3646621,242.564641,-49.84139712,-113.7371544,-68.89652116,0,5.00E-10,-35.68707169,117.0344684,69.47563727,,,,
490.4319997,1915,0,247.5263601,0,-22.16161533,0,-81.36745307,-193.0355046,-285.7628633,-95.38419059,-3.314232579,0.629197787,0,5.00E-10,69.57636962,1.963368591,-11.24133015,,,,
490.4399997,1915,0,-265.4628846,0,22.75966735,0,26.74724099,118.2176165,136.7262064,57.49292607,-5.939870577,3.969871307,0,5.00E-10,-6.978318845,-52.6860502,-63.62855631,,,,
490.4479997,1915,0,109.3288175,0,2.53136606,0,-37.09886915,-15.40518882,-24.97868098,-25.74754838,-73.88044862,-44.41097612,0,5.00E-10,5.740885093,150.3220854,98.70305946,,,,
490.4559997,1915,0,23.63809054,0,8.095111743,0,-15.99988669,-99.85790139,-193.4853245,7.115914852,80.3498104,80.62532695,0,5.00E-10,53.45643663,-121.1197183,-106.954609,,,,
490.4639997,1915,0,-219.5096567,0,-8.30754693,0,-6.649019475,163.8323742,232.8560834,-53.30225309,-95.64147289,-59.16246703,0,5.00E-10,-40.7671821,110.4417317,66.58778631,,,,
490.4719997,1915,0,239.4068443,0,-41.79535023,0,-90.68586528,-188.3792942,-284.1285648,-93.65341486,-5.113728645,17.74973843,0,4.00E-10,64.35033151,1.164186359,-7.036739861,,,,
490.4799997,1915,0,-277.5746686,0,-9.783202521,0,2.080830923,109.4935409,133.9052441,-12.33013376,-30.17225423,-1.232322163,0,4.00E-10,-0.378607505,-65.71907956,-64.44572034,,,,
490.4879997,1915,0,114.739828,0,0.887056956,0,-32.05108212,-16.22116499,-31.13731839,-28.83262879,-64.79268623,-49.31794284,0,4.00E-10,-5.31419101,137.8115075,94.8969968,,,,
490.4959997,1916,0,191.0295931,0,16.47208564,0,-22.52460089,-265.0861502,-462.2739673,89.75840526,208.935431,175.5959146,0,4.00E-10,85.03301713,-259.4688184,-210.6179778,,,,
490.5039997,1916,0,-273.2041889,0,-6.003790588,0,4.653343862,101.2728708,132.3205476,-22.87616268,-24.91109991,12.24466979,0,4.00E-10,-25.0712827,-55.68066629,-62.07457818,,,,
490.5119997,1916,0,57.34973663,0,-25.35604101,0,-52.13145282,3.811034762,37.55620566,-101.7104451,-126.0301617,-83.01449018,0,4.00E-10,-24.18550032,164.0517611,111.1664555,,,,
490.5199997,1916,0,16.43345259,0,-4.262712596,0,-25.86577436,-82.41146722,-136.86647,21.43847556,47.67870567,44.74204449,0,4.00E-10,18.36084251,-73.52467463,-73.75241615,,,,
490.5279997,1916,0,-82.07746674,0,-0.607192456,0,-7.163704646,24.66985917,25.17372342,2.137898087,-14.30806033,-6.719636542,0,4.00E-10,-19.11218955,8.814629175,-14.34957637,,,,
490.5359997,1916,0,-2.515797441,0,12.21357571,0,11.27436598,36.10263908,40.43284073,-3.409764103,-18.97077431,-30.42553147,0,4.00E-10,-28.15133604,86.31235884,47.29692234,,,,
490.5439997,1916,0,103.1447457,0,30.11611869,0,38.47729669,-63.94108823,-134.2378078,13.66877611,65.75791921,53.19942478,0,4.00E-10,21.37808336,-24.11918082,-33.16292451,,,,
490.5519997,1916,0,-74.76856945,0,72.81453182,0,120.2859355,114.0988159,110.5273629,82.26712512,29.78514117,38.50410947,0,4.00E-10,-29.22639344,45.23125766,14.84964111,,,,
490.5599997,1916,0,131.9445266,0,88.12126375,0,114.861245,34.67584595,-14.79618601,112.0235946,63.78009434,63.12576504,0,4.00E-10,-20.56101733,112.5046537,68.155394,,,,
490.5679997,1916,0,61.43104901,0,76.04518632,0,97.56407689,-8.652856168,-96.10186053,110.3333706,128.5853633,132.147959,0,4.00E-10,5.715449637,-29.68751071,-37.80249794,,,,
490.5759997,1916,0,-104.6156953,0,63.18433353,0,91.01662659,172.4428936,201.7228889,53.28064521,22.21406048,17.16813696,0,4.00E-10,-64.87709771,130.115288,82.38216431,,,,
490.5839997,1916,0,250.7969868,0,49.65037498,0,35.41409342,-96.96398288,-200.178512,55.78940573,105.2484437,86.77192652,0,4.00E-10,7.786384244,37.76385841,13.77716459,,,,
490.5919997,1916,0,-175.7886108,0,45.13078396,0,71.55664617,132.3603505,140.3026541,77.94402879,26.42909098,62.12937669,0,4.00E-10,-47.90339696,-0.286022982,-23.23425454,,,,
490.5999997,1916,0,102.7395741,0,16.75290841,0,4.532270693,31.49920626,33.15678189,-28.59514763,-26.74075066,-10.77662063,0,4.00E-10,-38.13830803,156.2884392,102.1765264,,,,
490.6079997,1916,0,61.70113957,0,15.38353322,0,4.494763565,-68.30790038,-138.2107541,21.48028004,101.7093947,88.66533455,0,4.00E-10,18.12221325,-74.36598845,-72.13826117,,,,
490.6159997,1916,0,-194.006243,0,3.292735426,0,15.2755282,175.448882,265.1292066,-39.13927094,-80.57180392,-53.47104357,0,4.00E-10,-63.69730141,115.7211804,73.37215924,,,,
490.6239997,1916,0,282.6607289,0,15.93024442,0,-19.6973017,-139.9367627,-218.3106816,-22.4984236,30.70031093,25.36604355,0,4.00E-10,27.91045505,32.78151483,19.63245332,,,,
490.6319997,1916,0,-193.9824657,0,56.12953379,0,74.25788904,135.0432087,156.6105145,87.88163071,40.04926418,49.36396896,0,4.00E-10,-35.91866853,-29.94092585,-36.40854619,,,,
490.6399997,1916,0,116.0095728,0,32.92701098,0,12.33810145,33.93328425,50.79475727,-11.88654945,-13.95736141,-9.123993825,0,4.00E-10,-39.14732465,171.9785313,120.4576641,,,,
490.6479997,1916,0,90.27927914,0,45.69709795,0,31.47157413,-77.23123391,-151.4892089,65.42287418,129.5807256,112.7783731,0,4.00E-10,20.34187214,-84.21129121,-76.45790795,,,,
490.6559997,1916,0,-196.8812961,0,23.61284929,0,33.97591924,187.4516836,286.840537,-11.00455957,-77.10890991,-31.8102795,0,4.00E-10,-71.54464986,121.6367457,78.81404906,,,,
490.6639997,1916,0,273.1100216,0,-8.641198505,0,-53.15249958,-159.4449812,-215.8212346,-73.09694418,16.22025221,34.35639477,0,4.00E-10,28.78826061,37.9641466,22.51431556,,,,
490.6719997,1916,0,-224.3297671,0,17.25502477,0,32.94984687,112.88293,160.8189921,37.67781968,5.186727467,34.73694976,0,4.00E-10,-20.74071927,-46.33070428,-50.49608402,,,,
490.6799997,1916,0,98.40944703,0,-13.80426996,0,-34.21480895,10.48540798,56.72567156,-67.25274955,-106.3050127,-43.58387221,0,4.00E-10,-20.71434781,161.0965357,112.2852083,,,,
490.6879997,1916,0,72.16715403,0,-2.255368322,0,-18.74692267,-107.7155546,-153.9864028,-10.4634089,52.21956881,78.050682,0,4.00E-10,39.73598648,-107.0027776,-92.12620574,,,,
490.6959997,1916,0,-198.8460762,0,8.421142775,0,20.3073387,170.1385494,284.6083988,-7.677196244,-85.59433289,-56.45134568,0,4.00E-10,-56.51698841,100.5833275,64.35764623,,,,
490.7039997,1916,0,296.1837777,0,5.207970806,0,-33.44948403,-176.4235485,-232.888188,-17.02364253,43.00290841,36.9776373,0,4.00E-10,29.37968506,23.64746678,8.717951817,,,,
490.7119997,1916,0,-210.1003737,0,50.31216525,0,68.70363385,102.295127,146.5019524,67.97501725,55.41292035,57.24177214,0,4.00E-10,-37.42724336,-61.5326255,-70.24706436,,,,
490.7199997,1916,0,111.7385136,0,25.71211658,0,6.864625442,12.1838769,52.80639155,-23.59403179,-32.02753777,-8.978207567,0,4.00E-10,-35.39564207,159.27704,102.5195865,,,,
490.7279997,1916,0,67.13217445,0,1.105150053,0,-10.66308665,-118.0927618,-166.3332302,-5.188274611,86.79984748,105.8890205,0,4.00E-10,37.2583618,-108.316096,-98.31511019,,,,
490.7359997,1916,0,-218.730796,0,-6.955662432,0,1.334839607,154.8176543,275.6203979,-78.10357089,-126.556034,-63.92657565,0,4.00E-10,-57.46232917,86.32556392,52.60432392,,,,
490.7439997,1916,0,308.7047227,0,19.28407697,0,-30.50482254,-181.0589216,-243.0436896,-14.29020028,18.17677484,39.55059286,0,4.00E-10,23.23876115,10.38618262,4.067538996,,,,
490.7519997,1917,0,-210.5737196,0,53.77351581,0,64.61601714,100.1027913,137.5538616,103.9729335,63.18067197,77.03749384,0,4.00E-10,-43.72655102,-72.89812385,-66.67561404,,,,
490.7599997,1917,0,85.73275615,0,-0.031707228,0,-28.48266403,4.409128781,56.68450051,-44.00310677,-41.88499335,-13.72587626,0,4.00E-10,-33.06289229,149.5492833,107.2928044,,,,
490.7679997,1917,0,56.19403305,0,-10.06784671,0,-33.0086647,-129.422353,-171.2143323,3.678084506,70.1248482,98.14253749,0,4.00E-10,38.77299425,-118.8315618,-100.0102282,,,,
490.7759997,1917,0,-247.4469695,0,-20.53055344,0,-17.55208556,152.3655117,279.6801766,-96.61847482,-145.2663061,-72.89572832,0,4.00E-10,-59.808575,80.99932517,48.88661183,,,,
490.7839997,1917,0,262.4179916,0,-27.20531523,0,-77.52050186,-188.2391758,-232.6759717,-105.424124,-8.403635099,7.154691619,0,4.00E-10,38.00495407,17.04274029,1.314279734,,,,
490.7919997,1917,0,-235.1390948,0,22.49222041,0,52.0676691,95.81759168,133.3908437,57.65930676,13.33778527,37.2679433,0,4.00E-10,-25.4255151,-73.35417425,-78.30785612,,,,
490.7999997,1917,0,107.1740054,0,26.69400869,0,39.86633805,33.67527378,57.93566132,-10.46180843,-61.69388638,-25.0441435,0,4.00E-10,-34.93451529,156.8499753,102.4819546,,,,
490.8079997,1917,0,110.6234412,0,50.09398215,0,72.30558812,-78.93917346,-164.0493963,79.78606615,145.7878873,134.8660765,0,4.00E-10,33.06799811,-89.81917291,-91.37425043,,,,
490.8159997,1917,0,-183.8025406,0,65.92228628,0,118.5185338,222.7558886,296.1271098,44.66755973,-28.39099494,0.328737549,0,4.00E-10,-67.22037544,118.0736113,65.12347129,,,,
490.8239997,1917,0,333.8811381,0,68.56591607,0,59.28634277,-112.1166435,-215.4607695,66.95668356,104.1689594,101.9657756,0,4.00E-10,19.90050127,59.4180701,28.36068388,,,,
490.8319997,1917,0,-201.799161,0,74.34043978,0,109.6148103,149.7803827,149.0263682,121.1493257,93.92481907,108.3984626,0,4.00E-10,-43.08236507,-42.59353765,-56.28769732,,,,
490.8399997,1917,0,107.0041517,0,45.04730203,0,41.54273053,69.83120198,74.11360157,-44.91223986,-48.09098458,-9.141973224,0,4.00E-10,-44.41669518,174.8387254,116.0372597,,,,
490.8479997,1917,0,105.9496738,0,58.76353202,0,59.90353339,-61.20063712,-170.0464977,91.54733961,132.5156719,144.7854555,0,4.00E-10,20.29804625,-80.22823036,-84.38028323,,,,
490.8559997,1917,0,-209.8759501,0,52.37885749,0,79.73894177,228.7875422,293.7845243,53.69486692,-63.70084716,1.054757778,0,4.00E-10,-86.5976495,113.6314358,60.19191158,,,,
490.8639997,1917,0,320.270505,0,46.22705964,0,14.95458315,-113.8791746,-213.970255,2.149682258,64.79835901,71.06322146,0,4.00E-10,7.723220122,51.56441231,19.15921688,,,,
490.8719997,1917,0,-221.9685782,0,47.91277671,0,70.01253445,146.3862693,148.008369,89.50209258,83.0100378,91.35873698,0,4.00E-10,-54.79809682,-54.29349316,-68.73074684,,,,
490.8799997,1917,0,67.3379129,0,6.180648593,0,-14.07867264,67.90122053,94.40624586,-82.31747478,-95.72643254,-29.36575753,0,4.00E-10,-48.21458519,160.4922835,105.0630311,,,,
490.8879997,1917,0,96.15977973,0,32.98626549,0,8.980961653,-76.30358012,-158.4904384,18.67898694,82.69174893,105.4507072,0,4.00E-10,34.70892471,-95.78200204,-92.05992655,,,,
490.8959997,1917,0,-224.9815305,0,40.29036289,0,43.49832956,213.9694408,301.0857107,42.93314936,-70.78847509,-24.15905474,0,4.00E-10,-77.95597597,96.99176631,54.43018251,,,,
490.9039997,1917,0,294.7335291,0,27.11553448,0,-23.79271111,-128.8360871,-200.7601065,-37.6839417,35.48801026,38.07988388,0,4.00E-10,16.77514146,38.72494173,19.22174664,,,,
490.9119997,1917,0,-226.6621432,0,37.30326836,0,47.25261675,124.1297464,150.4453984,35.70985029,46.28461036,45.80627929,0,4.00E-10,-38.37883921,-66.8438538,-68.80082006,,,,
490.9199997,1917,0,81.2332499,0,16.26034727,0,-10.06054021,51.98102578,91.55063994,-33.79834496,-101.8845615,-50.86513719,0,4.00E-10,-45.75634151,156.0139317,107.2258259,,,,
490.9279997,1917,0,108.0272916,0,34.21902903,0,10.34934895,-89.57149236,-169.8123501,39.08475007,106.406745,98.51270437,0,4.00E-10,26.3091596,-97.39718479,-90.05211821,,,,
490.9359997,1917,0,-251.8383276,0,7.07601078,0,13.51527034,205.5895438,305.1628211,-16.11196531,-84.52737023,-50.48174487,0,4.00E-10,-82.29479353,91.40857162,52.93065644,,,,
490.9439997,1917,0,278.8504046,0,-9.920804057,0,-63.48695249,-137.230468,-194.1867946,-43.28857149,-40.8843558,8.479051295,0,3.00E-10,24.42998223,35.62408656,17.38458423,,,,
490.9519997,1917,0,-236.3831358,0,4.110212531,0,13.32449606,113.4657121,147.153723,29.35371848,25.77992968,26.92045464,0,3.00E-10,-26.7715844,-74.2266358,-75.41882252,,,,
490.9599997,1917,0,27.81744487,0,-41.83470482,0,-62.3729501,43.24103435,106.0118231,-154.408141,-129.6685822,-98.87043315,0,3.00E-10,-30.04143787,146.7332497,104.5994557,,,,
490.9679997,1917,0,87.03453008,0,5.074987914,0,-10.36412988,-101.5493365,-175.6685579,-28.04872632,37.53606395,50.02009705,0,3.00E-10,44.83535452,-110.7957151,-94.02193606,,,,
490.9759997,1917,0,-251.3240864,0,27.0896046,0,43.1687391,207.6453794,287.4448294,19.14429482,-52.71549934,-49.484568,0,3.00E-10,-84.42781372,81.3185588,46.82752713,,,,
490.9839997,1917,0,566.3428757,0,-15.05877303,0,-97.41719654,-337.8383792,-495.9158682,-117.7681715,41.27597117,50.38107454,0,3.00E-10,81.72404004,13.87047684,9.418975275,,,,
490.9919997,1917,0,288.5323727,0,12.15780814,0,-32.23095861,-276.568678,-455.1439579,-10.60841411,152.5889957,144.7050459,0,3.00E-10,101.416986,-209.4821955,-167.9960907,,,,
490.9999997,1917,0,188.5465991,0,2.93822732,0,-34.54707192,-86.77833045,-132.9125038,-57.25609665,-3.734409391,3.207313274,0,3.00E-10,4.382271068,46.95538959,27.31632268,,,,
491.0079997,1918,0,448.5005229,0,-2.068010903,0,-67.56545744,-327.3601044,-504.9898276,-63.13867651,104.9073881,106.1964001,0,3.00E-10,98.10073378,-110.5567298,-89.88811527,,,,
491.0159997,1918,0,-145.5428784,0,14.9968931,0,15.12054378,61.95924855,65.49823829,-3.032138322,10.7474513,21.14301741,0,3.00E-10,-20.85000182,-53.11954279,-54.99483813,,,,
491.0239997,1918,0,-184.9042544,0,-3.342306997,0,-5.020237496,160.5479285,252.8281178,-83.92202358,-121.013912,-85.18929548,0,3.00E-10,-73.05427737,110.5309688,70.50821397,,,,
491.0319997,1918,0,134.5014706,0,-1.101786697,0,-36.05262303,-95.61904739,-135.9588991,-75.68148869,0.508231289,15.43802415,0,3.00E-10,21.33741936,-16.76880184,-26.27095805,,,,
491.0399997,1918,0,-114.5665618,0,22.70908023,0,15.54068825,61.94640757,77.03880288,24.23472779,13.91394727,19.73495894,0,3.00E-10,-29.74366267,-17.27596543,-32.11892473,,,,
491.0479997,1918,0,-99.10452048,0,19.5527174,0,10.45630009,105.5410986,149.8186121,-15.08855974,-38.01624055,-28.9271092,0,3.00E-10,-65.53751108,73.18509205,39.259508,,,,
491.0559997,1918,0,144.1132312,0,8.417341381,0,-28.53256773,-86.35301076,-141.0320903,-54.33979588,36.63733146,35.38503068,0,3.00E-10,-5.993204769,-10.98438958,-25.28276528,,,,
491.0639997,1918,0,-244.8585901,0,2.305432417,0,3.708073954,130.7845983,176.8729851,-26.03313055,-47.40282115,-11.09654288,0,3.00E-10,-61.87417447,-16.85227237,-38.17398662,,,,
491.0719997,1918,0,38.42243497,0,-15.23142979,0,-41.23409806,12.04967111,31.99357861,-94.39475558,-91.71375098,-63.35213496,0,3.00E-10,-36.59998124,87.45010965,43.02060062,,,,
491.0799997,1918,0,9.537997171,0,4.920998691,0,-17.56554322,-52.80676802,-97.96882135,2.76436289,50.33322341,43.20614184,0,3.00E-10,2.158340824,-71.31213847,-85.26710088,,,,
491.0879997,1918,0,-248.2956826,0,-7.326689072,0,-10.04954658,160.2018804,242.2307016,-31.31052847,-104.7433777,-68.93414935,0,3.00E-10,-81.71523793,67.37672143,19.61543705,,,,
491.0959997,1918,0,200.3253781,0,-14.25867749,0,-60.42732886,-128.8670625,-173.6834865,-85.69825974,-30.66746588,-25.02740895,0,3.00E-10,5.782052898,18.58341045,-9.876920348,,,,
491.1039997,1918,0,-226.0390283,0,32.23504317,0,46.75757173,104.7125599,127.6522043,84.4799988,27.5277777,20.44240706,0,3.00E-10,-55.85948547,-64.8767111,-81.84462122,,,,
491.1119997,1918,0,36.34651747,0,18.28275931,0,22.82537661,60.87715561,92.2786435,-18.28440871,-75.59907971,-45.12509701,0,3.00E-10,-68.89789493,134.3375635,76.09487521,,,,
491.1199997,1918,0,95.6890432,0,49.13829204,0,66.10707941,-64.09071298,-136.7563394,10.45312425,93.90220038,93.17388299,0,3.00E-10,17.76875476,-73.99452654,-81.93934995,,,,
491.1279997,1918,0,-212.9795271,0,78.24816189,0,126.1560227,230.674207,301.2694867,62.94651573,-8.44271598,-0.839629197,0,3.00E-10,-87.12788159,93.49334931,46.40811802,,,,
491.1359997,1918,0,296.3084903,0,66.72017984,0,50.79204746,-75.40793806,-153.7955619,21.76826652,70.1705824,61.64497988,0,3.00E-10,0.174483774,68.48365695,33.59902525,,,,
491.1439997,1918,0,-192.1738221,0,77.50702347,0,102.2870103,144.4915724,145.5198405,118.0155991,118.4633599,89.57785158,0,3.00E-10,-48.90322579,-45.91964127,-63.83579825,,,,
491.1519997,1918,0,35.07933255,0,27.38846936,0,15.10383998,89.1342233,136.0860352,-29.50794172,-50.0292591,-33.74918333,0,3.00E-10,-64.18474154,167.4650577,107.3469859,,,,
491.1599997,1918,0,94.68742008,0,27.24767459,0,12.08634044,-82.30535618,-148.0281073,-23.96936933,39.53221449,80.09795793,0,3.00E-10,30.81093565,-74.77655968,-77.84713044,,,,
491.1679997,1918,0,-274.1732108,0,20.46144657,0,40.33145415,212.2212996,315.2629198,-27.38637129,-96.5578466,-48.06722044,0,3.00E-10,-88.04691112,90.06922637,44.24121195,,,,
491.1759997,1918,0,241.0481328,0,-12.77296253,0,-53.08249166,-121.8796629,-148.7269531,-112.7073956,-25.34637012,-16.53339641,0,3.00E-10,14.02156243,59.3974993,31.67490523,,,,
491.1839997,1918,0,-233.9995529,0,18.01744311,0,34.33040518,99.49653832,141.2639895,6.55967431,-2.876181933,2.071710306,0,3.00E-10,-23.01268122,-70.85218757,-76.04094755,,,,
491.1919997,1918,0,21.92474407,0,6.808354751,0,-4.793508883,62.99012644,134.9781384,-59.99053344,-107.6284522,-91.95882399,0,3.00E-10,-56.06291192,156.8083751,101.1503349,,,,
491.1999997,1918,0,106.0451813,0,35.87240257,0,16.95348652,-107.9522456,-166.6008212,30.31791532,103.634163,67.81592731,0,3.00E-10,31.96863791,-82.20742315,-82.66466953,,,,
491.2079997,1918,0,-277.1415806,0,34.66089806,0,49.97688369,198.769099,304.9081779,32.28271086,-53.66806191,-50.05793076,0,3.00E-10,-88.35285863,86.87518282,43.13202294,,,,
491.2159997,1918,0,244.1719763,0,-8.994727326,0,-56.09979833,-139.6253368,-167.2244334,-77.35936509,-30.20558401,-13.33775374,0,3.00E-10,12.33847015,56.13122566,31.8624751,,,,
491.2239997,1918,0,-234.8300204,0,18.00042384,0,24.47421402,82.54636586,115.0282478,21.17585524,7.260596558,14.80690821,0,3.00E-10,-35.85041487,-81.71961338,-83.52565955,,,,
491.2319997,1918,0,1.397952822,0,-1.466864638,0,-31.10230694,56.12373179,126.8296092,-78.9109887,-115.3376479,-78.17048933,0,3.00E-10,-75.16744855,152.196072,95.68376872,,,,
491.2399997,1918,0,81.07039645,0,1.79542617,0,-38.88996421,-122.8127376,-172.089038,-6.080707113,59.94431196,67.65530291,0,3.00E-10,29.39203586,-93.03704555,-89.62477342,,,,
491.2479997,1918,0,-294.894341,0,3.621813577,0,7.126140033,187.8953181,307.630127,-4.839737109,-115.0597687,-71.36805507,0,3.00E-10,-87.79637353,68.49281514,28.67473249,,,,
491.2559997,1918,0,260.1537254,0,8.847043808,0,-45.4538235,-139.0639654,-158.9279663,-62.75663857,-26.32271718,-11.89993952,0,3.00E-10,5.509534475,52.01101502,26.08753274,,,,
491.2639997,1919,0,-217.3055836,0,55.54239623,0,57.02363948,86.70606465,122.2026655,81.28318405,82.88692798,45.32587546,0,3.00E-10,-37.46438947,-77.38653911,-80.07730457,,,,
491.2719997,1919,0,-5.482098184,0,4.312948544,0,-22.68931316,56.99463801,147.5400163,-64.95957906,-94.70859644,-67.45462128,0,3.00E-10,-68.37576911,156.8774871,99.80530757,,,,
491.2799997,1919,0,82.56521429,0,-5.577571826,0,-40.77931465,-132.7600417,-160.9693066,-24.35747691,35.73305377,64.49071632,0,3.00E-10,41.74116222,-92.31512024,-86.68055585,,,,
491.2879997,1919,0,-304.197594,0,5.036669492,0,9.730263921,178.2008278,310.8513155,-37.0148909,-114.5402242,-74.83993393,0,3.00E-10,-77.54133014,65.85361219,30.03479184,,,,
491.2959997,1919,0,246.0959757,0,-1.299678882,0,-57.14335297,-153.6344738,-156.9765343,-105.7803872,-50.12745878,-18.02822685,0,3.00E-10,16.70625486,50.42144142,27.51850064,,,,
491.3039997,1919,0,-217.691289,0,40.72943148,0,41.12760802,71.86743876,112.8067458,88.0292286,56.44666557,51.45078434,0,3.00E-10,-26.85994964,-84.15066844,-81.79707476,,,,
491.3119997,1919,0,-1.043323723,0,16.37744448,0,-11.38573707,57.07852723,138.8832664,-50.13014441,-73.49228566,-63.16875713,0,3.00E-10,-66.75849717,151.2217486,99.6336039,,,,
491.3199997,1919,0,95.94242761,0,21.23055671,0,-12.32058728,-130.9218831,-173.3598792,-7.927032295,74.81401418,78.46453515,0,3.00E-10,34.88051736,-92.84949653,-85.94015753,,,,
491.3279997,1919,0,-302.9095458,0,6.349343975,0,16.81944005,183.8782527,309.2679143,0.294929031,-90.51089788,-50.97168155,0,3.00E-10,-89.72944153,67.58048906,28.68770469,,,,
491.3359997,1919,0,236.8929842,0,-27.01207917,0,-80.77653033,-153.8524485,-151.390717,-123.9927186,-63.5966851,-30.54414422,0,3.00E-10,16.29504985,50.44660824,28.55790881,,,,
491.3439997,1919,0,-237.8229763,0,9.782032718,0,7.687569201,63.29817658,114.1263098,25.99609357,9.010469158,19.836092,0,3.00E-10,-19.43567355,-92.85339757,-85.72606876,,,,
491.3519997,1919,0,-17.39065801,0,-5.397927564,0,-29.16250476,59.9564738,151.4648557,-92.63204982,-124.3572042,-81.87706015,0,3.00E-10,-61.58768564,148.4274002,99.82921372,,,,
491.3599997,1919,0,114.4337008,0,24.59316638,0,1.05805446,-126.6246643,-173.6365496,-24.40485245,67.78077386,76.72058354,0,3.00E-10,45.34254961,-89.675083,-78.96856243,,,,
491.3679997,1919,0,-289.2065923,0,35.8967647,0,68.99667948,203.7982058,311.5057502,20.00555807,-42.95301577,-22.15872896,0,3.00E-10,-91.19283072,72.92939455,33.38855569,,,,
491.3759997,1919,0,254.8640212,0,16.71851962,0,4.76286854,-113.3661372,-131.0144585,-105.441965,-3.495859537,8.56843595,0,2.00E-10,15.32012042,69.50420406,43.97524538,,,,
491.3839997,1919,0,-175.4417641,0,80.17353197,0,127.6998408,111.7195145,126.7961631,65.54367448,90.97682448,59.00980503,0,2.00E-10,-8.537791676,-67.65985748,-63.70195503,,,,
491.3919997,1919,0,57.01867327,0,84.99764978,0,104.1445495,124.7549992,174.3116054,38.76914028,12.29539125,-7.256545169,0,2.00E-10,-66.76026633,186.0135555,127.7567536,,,,
491.3999997,1919,0,162.5238002,0,82.22138721,0,79.81086047,-71.72162174,-145.681176,64.97800518,177.1931424,147.8914692,0,2.00E-10,48.99377621,-49.20256543,-44.41801993,,,,
491.4079997,1919,0,-255.0543407,0,72.21972321,0,102.645856,244.4961228,330.4068781,38.40013142,6.712190539,2.968747763,0,2.00E-10,-79.30749027,99.34472891,57.49485115,,,,
491.4159997,1919,0,282.576847,0,34.3251642,0,-0.243331854,-84.96173747,-114.7337856,-71.70345385,34.64766708,25.85650995,0,2.00E-10,3.339277591,93.29879988,58.73331588,,,,
491.4239997,1919,0,-192.6903341,0,44.42334203,0,55.89112375,109.7859193,139.4012847,53.44338811,63.71685538,54.4110598,0,2.00E-10,-18.94066601,-60.29763069,-59.22564731,,,,
491.4319997,1919,0,23.0749655,0,44.49757036,0,27.00646749,109.8014217,185.6007951,-14.80724103,-59.35183279,-51.8247004,0,2.00E-10,-72.53767733,179.1644203,122.5597107,,,,
491.4399997,1919,0,136.2486562,0,44.73700597,0,12.19111815,-97.38699637,-139.587666,2.262410539,137.8772467,106.1353198,0,2.00E-10,33.83453254,-54.06609099,-53.16477771,,,,
491.4479997,1919,0,-289.8034577,0,27.28665018,0,33.36647451,213.0514813,339.4037096,-29.06146885,-39.68915637,-38.29433782,0,2.00E-10,-85.94114398,87.79995764,47.0047984,,,,
491.4559997,1919,0,274.0424416,0,16.37893431,0,-38.11686268,-113.2509573,-113.7937292,-103.2503551,-3.001188871,-13.57126138,0,2.00E-10,5.399777682,78.89473716,51.46207683,,,,
491.4639997,1919,0,-204.4318285,0,25.66423047,0,20.97893859,77.69602733,129.339668,43.00732474,74.2187539,43.71035396,0,2.00E-10,-24.48839759,-74.64731297,-69.24016896,,,,
491.4719997,1919,0,-14.05491334,0,-5.530038129,0,-43.7397803,73.19719031,180.0706519,-62.00302362,-98.56674922,-78.16294988,0,2.00E-10,-69.62123137,157.9076083,106.9086952,,,,
491.4799997,1919,0,127.0552906,0,1.398953673,0,-48.73206253,-139.037834,-162.5161945,-52.9124271,42.07084742,53.87423205,0,2.00E-10,51.36884975,-85.5199346,-74.48706144,,,,
491.4879997,1919,0,-617.2601209,0,34.10318437,0,76.18152924,377.311605,574.7279714,62.848816,-81.61087283,-75.4555949,0,2.00E-10,-137.9485721,56.73174584,17.48786577,,,,
491.4959997,1919,0,8.142836867,0,28.92432317,0,9.193041176,67.14076023,155.4268476,-27.40582103,-63.43006547,-72.82992103,0,2.00E-10,-71.92509189,151.9348344,97.77314756,,,,
491.5039997,1919,0,192.0239642,0,18.86411738,0,-22.39396126,-172.7337711,-211.4658067,-56.22256754,77.22315802,66.26891485,0,2.00E-10,56.79288,-79.87327301,-71.24927945,,,,
491.5119997,1919,0,-105.6321123,0,33.72123773,0,21.64233919,-7.322019233,15.07142601,3.602019197,79.41096591,62.49165114,0,2.00E-10,19.1469817,-97.88399474,-88.47998527,,,,
491.5199997,1920,0,-8.167248684,0,44.61211557,0,26.19120975,-130.2613423,-189.7385932,43.08416511,191.0879422,146.89137,0,2.00E-10,85.45196919,-236.9654095,-190.7532889,,,,
491.5279997,1920,0,-139.101986,0,21.11736796,0,10.74142358,66.997879,145.2366521,-27.99760792,-9.575107086,-9.462057924,0,2.00E-10,-33.7104471,20.03534544,-4.555294782,,,,
491.5359997,1920,0,-21.66270456,0,2.296195819,0,-26.95426087,47.79949948,155.0732677,-82.20205978,-86.56282671,-72.96438796,0,2.00E-10,-55.80729127,143.5719957,86.67751775,,,,
491.5439997,1920,0,74.74462468,0,-5.937305599,0,-40.09829617,-135.5444921,-133.3230846,-70.06503432,28.09656532,32.052066,0,2.00E-10,47.12932968,-87.71128709,-81.36370587,,,,
491.5519997,1920,0,-186.0857694,0,2.028092329,0,-1.268913076,88.38999874,195.9615395,-42.47111878,-83.82464322,-62.97860904,0,2.00E-10,-53.22577745,32.76791844,5.615438823,,,,
491.5599997,1920,0,46.60557487,0,1.646957216,0,-28.22481168,-32.31607237,30.24160037,-69.20157797,-70.75625568,-46.67485935,0,2.00E-10,-24.86270909,67.04891572,32.66226697,,,,
491.5679997,1920,0,8.914762736,0,0.402723131,0,-22.81770832,-89.32458602,-75.54805652,-21.69259736,15.2030265,28.7490272,0,2.00E-10,29.09434153,-74.89865868,-74.83536142,,,,
491.5759997,1920,0,-187.6989966,0,12.47177518,0,17.44880454,118.3431539,227.7241407,1.552214208,-64.19778441,-67.85517497,0,2.00E-10,-75.6289452,75.70737293,29.61057,,,,
491.5839997,1920,0,190.5316252,0,3.559688775,0,-32.31282313,-137.596039,-142.2708397,-86.51378564,-3.464980506,-2.698773998,0,2.00E-10,8.853972911,10.7928906,-15.6954905,,,,
491.5919997,1920,0,-180.0459668,0,11.17335863,0,12.67665912,50.5528085,103.8766887,-5.868315455,-10.66257932,1.154061587,0,2.00E-10,-25.88969751,-55.92895037,-71.21333992,,,,
491.5999997,1920,0,-1.761294812,0,7.604910854,0,-9.885604966,40.21056369,112.0166909,-30.58816658,-68.77235044,-57.67193914,0,2.00E-10,-64.43010624,116.8329142,55.97678109,,,,
491.6079997,1920,0,92.2572028,0,7.575896264,0,-22.99426707,-123.5781502,-157.3137062,-30.31887858,43.71668234,59.75359776,0,2.00E-10,31.25538601,-73.46272042,-85.23620774,,,,
491.6159997,1920,0,-269.1047988,0,10.95618104,0,14.41835685,160.7966429,262.603784,-21.57033827,-83.05204612,-55.06882921,0,2.00E-10,-77.75273106,53.39158601,5.559744203,,,,
491.6239997,1920,0,229.3362704,0,3.338663514,0,-42.10373098,-132.3626067,-140.3130195,-75.60208287,-16.21394861,-1.518007916,0,2.00E-10,2.239657664,53.389645,12.03077405,,,,
491.6319997,1920,0,-188.9358692,0,26.82330741,0,34.71000959,43.38471078,70.99932504,42.53426246,39.2482121,44.31360985,0,2.00E-10,-26.09683731,-81.86473253,-95.49605809,,,,
491.6399997,1920,0,-25.42463568,0,22.6410292,0,9.143546744,69.3298215,144.5973906,-34.04696424,-63.45200321,-66.13781742,0,2.00E-10,-85.51206822,134.4587023,70.51514176,,,,
491.6479997,1920,0,130.6656722,0,31.64765927,0,4.982320018,-135.9478887,-183.796426,14.47224035,84.72776937,78.27535239,0,2.00E-10,28.35029797,-78.72550408,-83.41751141,,,,
491.6559997,1920,0,-293.5265666,0,39.51868923,0,68.18356363,182.5210703,283.9282221,22.14486929,-61.82077762,-32.43910792,0,2.00E-10,-94.52614781,47.18973561,7.667674166,,,,
491.6639997,1920,0,274.1913336,0,46.59746757,0,28.38609681,-108.4252128,-124.200818,-99.69900265,-2.366495262,3.431899184,0,2.00E-10,-7.111285934,71.37806117,38.25970592,,,,
491.6719997,1920,0,-135.5724588,0,84.69957108,0,127.7276948,82.08586151,86.92450568,100.3010418,103.1399995,85.34932294,0,2.00E-10,-23.3166047,-75.73503338,-80.34743712,,,,
491.6799997,1920,0,5.785978487,0,56.92244045,0,80.70104072,124.1227,193.4565402,49.38686515,-26.47145301,-21.0819302,0,2.00E-10,-85.01307648,168.2657659,98.59320239,,,,
491.6879997,1920,0,187.6558353,0,60.39197175,0,58.48327363,-97.66264142,-161.5778559,28.55219216,125.9949182,116.6398206,0,2.00E-10,44.91836289,-50.17432275,-62.46343255,,,,
491.6959997,1920,0,-262.1371374,0,59.43384724,0,93.56577454,222.6651795,306.5587844,72.7693933,3.209442512,7.240875825,0,2.00E-10,-89.11463877,71.37487166,19.87686498,,,,
491.7039997,1920,0,262.4237909,0,12.84747067,0,-24.08718006,-95.97793024,-106.395716,-57.26742732,2.92350231,15.49752591,0,2.00E-10,-5.897663145,90.27683341,42.65294936,,,,
491.7119997,1920,0,-176.1145925,0,32.97953663,0,37.59151967,66.32780978,85.73374563,31.9006299,31.90732457,47.01226627,0,2.00E-10,-11.5055107,-83.86186521,-89.86619386,,,,
491.7199997,1920,0,-25.62792793,0,29.68329042,0,6.8433576,104.2702654,180.557026,-11.32756155,-98.72183428,-70.59790183,0,2.00E-10,-84.68134417,157.3730601,91.04293942,,,,
491.7279997,1920,0,149.1915348,0,25.40342243,0,-9.677961359,-127.6325491,-184.5734581,16.16566345,72.90307942,86.78057803,0,2.00E-10,38.9660309,-63.73333241,-74.12698626,,,,
491.7359997,1920,0,-317.9543527,0,18.00310749,0,32.38033586,192.331503,295.7758294,47.65349674,-77.43427429,-27.24268732,0,2.00E-10,-90.33963543,52.20484182,6.396222596,,,,
491.7439997,1920,0,250.8162179,0,-2.828762516,0,-56.45308722,-124.9942472,-120.0091314,-42.67329382,-69.07873021,-9.543250589,0,2.00E-10,-4.369604808,78.8791613,35.73108433,,,,
491.7519997,1920,0,-177.8012705,0,17.43872368,0,22.87874289,36.91109591,64.2925947,75.38943949,8.862618229,50.92799015,0,2.00E-10,-15.83642414,-92.69211068,-99.82506396,,,,
491.7599997,1920,0,-39.09002344,0,10.36945553,0,-2.376736447,82.29259867,171.793318,-9.574237935,-104.3387015,-71.4834219,0,2.00E-10,-97.59917776,147.9011976,80.10139435,,,,
491.7679997,1920,0,164.7440191,0,27.48800074,0,-8.098097679,-144.9467144,-195.4064431,34.64889704,80.48853471,85.73869624,0,2.00E-10,26.6565632,-70.40943913,-81.65526824,,,,
491.7759997,1921,0,-321.9281099,0,10.94738545,0,27.56355118,184.2955202,287.1908292,66.74448485,-84.45002414,-24.65458371,0,2.00E-10,-102.7400083,49.5668247,-1.583552017,,,,
491.7839997,1921,0,225.1642398,0,-24.78151162,0,-77.44573197,-132.2242828,-129.7381345,-87.02607711,-85.43211691,-26.04724427,0,2.00E-10,-16.69322268,76.91855703,24.18907915,,,,
491.7919997,1921,0,-199.0977125,0,-0.015592955,0,-6.323453223,24.32230162,50.07959854,20.24276062,3.728668305,30.95649111,0,2.00E-10,-22.22762679,-102.7199527,-115.8474726,,,,
491.7999997,1921,0,-83.80635472,0,-39.16398151,0,-64.05352021,65.52685397,171.587682,-107.1895945,-184.6353816,-107.9829854,0,2.00E-10,-94.55102132,136.1967002,65.18691706,,,,
491.8079997,1921,0,133.9112984,0,-31.84939325,0,-77.25894958,-176.2205287,-210.4392644,-61.99998545,-12.57118731,32.62460111,0,2.00E-10,38.35357695,-85.48165917,-103.1523423,,,,
491.8159997,1921,0,-318.7564953,0,2.684492062,0,14.24085103,161.5465077,261.1733077,81.1311999,-66.62707488,-46.44103182,0,2.00E-10,-99.32800492,32.0305015,-26.59203163,,,,
491.8239997,1921,0,222.6482279,0,-27.83818415,0,-78.54717861,-148.4380414,-145.9619219,-54.29663906,-72.80232542,-18.03237709,0,1.00E-10,-21.18287715,71.35975397,11.87691703,,,,
491.8319997,1921,0,-201.1975613,0,-12.57935071,0,-16.59477864,2.78950296,26.03603941,50.78546203,-29.73053051,38.81146781,0,1.00E-10,-24.57439838,-112.6677123,-130.1627864,,,,
491.8399997,1921,0,-68.97094082,0,-20.30675364,0,-43.04454065,60.26029146,149.7974503,-29.89443386,-171.7125735,-89.80339431,0,1.00E-10,-110.4317245,126.0833063,49.59324288,,,,
491.8479997,1921,0,143.3891212,0,-11.07675625,0,-56.11446813,-182.5592753,-230.7903408,-31.72964933,10.95371515,64.92201682,0,1.00E-10,18.72487573,-86.53191598,-108.7535937,,,,
491.8559997,1921,0,-336.2695081,0,-1.383577594,0,2.129045951,152.7607528,250.28716,63.1990841,-60.46171439,-30.4534058,0,1.00E-10,-109.9011765,23.75869601,-32.40449605,,,,
491.8639997,1921,0,200.0229126,0,-52.63508768,0,-117.2724388,-160.1675003,-145.1157015,-104.5805564,-90.00573534,-34.6101771,0,1.00E-10,-23.87059362,62.11778911,5.649977279,,,,
491.8719997,1921,0,-223.9224508,0,-41.6319071,0,-53.72246135,-24.00286271,18.65694038,-43.75259492,-67.50895213,-0.342221441,0,1.00E-10,-17.81252583,-126.3673914,-138.5178583,,,,
491.8799997,1921,0,-103.6081831,0,-47.74239521,0,-76.11866162,40.51132945,156.1318727,-61.22105601,-182.9430286,-124.177236,0,1.00E-10,-102.2685832,114.9873092,45.14857218,,,,
491.8879997,1921,0,115.8736678,0,-57.98387697,0,-109.4251003,-210.8719126,-224.061183,-64.98571982,-28.10011772,24.96686267,0,1.00E-10,44.51720878,-91.46287029,-109.5873745,,,,
491.8959997,1921,0,-351.22836,0,-35.70469748,0,-28.52437854,119.2161429,237.231458,-8.311494777,-132.1027258,-84.28121463,0,1.00E-10,-85.12001512,8.45707734,-43.62257292,,,,
491.9039997,1921,0,217.853425,0,-36.7023247,0,-96.71821992,-168.2459998,-165.2281732,-56.41076826,-91.84171178,-44.24500406,0,1.00E-10,-30.69055737,54.31796256,-6.034085274,,,,
491.9119997,1921,0,-183.962034,0,-2.527779633,0,-15.99143569,-14.43243212,-4.545830396,75.86422997,5.370324315,42.00027197,0,1.00E-10,-28.60085148,-121.334248,-144.9123829,,,,
491.9199997,1921,0,-73.03064976,0,0.746924955,0,-26.36817302,61.70835953,132.4724146,16.77710041,-75.01464014,-74.31191455,0,1.00E-10,-119.0555613,121.234474,39.5838056,,,,
491.9279997,1921,0,138.7621305,0,-16.98837114,0,-67.04537729,-187.7485436,-246.0137268,-20.81549915,44.36055938,72.88426121,0,1.00E-10,13.81508305,-86.85731982,-116.8051382,,,,
491.9359997,1921,0,-339.4627903,0,-15.78035343,0,1.727104153,145.6619957,241.7815631,10.63754745,-132.0324825,-50.16499379,0,1.00E-10,-94.9836552,14.82903211,-46.201908,,,,
491.9439997,1921,0,258.658643,0,5.325758954,0,-22.74643035,-132.4176183,-150.0889862,-36.39697946,-51.71746517,-12.08143803,0,1.00E-10,-20.26962525,70.17414378,4.556652794,,,,
491.9519997,1921,0,-126.5291295,0,51.24600439,0,81.88216086,23.71776403,7.485853104,100.1818008,78.60472426,93.61784571,0,1.00E-10,-19.7429823,-101.4639569,-129.1035673,,,,
491.9599997,1921,0,-33.02966783,0,32.31853921,0,51.47597573,101.9627175,162.3903899,38.08782952,-75.46049839,-33.93165124,0,1.00E-10,-100.525764,149.1298513,63.51022974,,,,
491.9679997,1921,0,195.6639682,0,25.3348702,0,11.73018872,-149.0393334,-226.6759609,35.40688579,59.81508127,111.3021364,0,1.00E-10,37.13118162,-57.61348943,-87.31874872,,,,
491.9759997,1921,0,-306.0722569,0,22.74551837,0,48.47927142,181.770215,256.7961148,55.62272669,-56.49795619,-0.413946058,0,1.00E-10,-88.63404725,34.50043692,-20.13502799,,,,
491.9839997,1921,0,260.6682409,0,9.438204838,0,-36.50701362,-114.3777641,-138.1273803,-33.89241492,-23.29989908,10.27598443,0,1.00E-10,-21.78971549,88.61190803,29.59982595,,,,
491.9919997,1921,0,-348.018,0,70.67483019,0,100.6817073,99.53172531,74.39374138,172.4817064,119.7993172,134.2510343,0,1.00E-10,-13.03935498,-207.0311661,-203.0679233,,,,
491.9999997,1921,0,-591.2439523,0,67.01408815,0,121.2759367,349.2761512,462.331374,154.2658797,-33.80134858,-13.28079211,0,1.00E-10,-141.3203233,-2.834278186,-50.89748327,,,,
492.0079997,1921,0,-62.36416644,0,43.61356908,0,38.39488263,-1.885651461,-27.99647531,78.91813855,56.46896057,77.00019136,0,1.00E-10,-16.74732385,-72.41650546,-96.66855078,,,,
492.0159997,1921,0,-278.863915,0,53.76320637,0,73.0779238,167.874744,214.9934362,121.9898713,-3.339118181,23.68243152,0,1.00E-10,-97.09777121,5.536810676,-42.23627991,,,,
492.0239997,1921,0,266.7162088,0,18.61926497,0,-28.11703584,-88.88520496,-108.8500701,-2.270713102,-28.15593738,10.77780248,0,1.00E-10,-62.87311821,138.2687546,61.59277054,,,,
492.0319997,1922,0,-27.01644014,0,25.51147908,0,10.59750322,-47.96780343,-103.4744648,66.16016852,75.65105131,119.5589273,0,1.00E-10,-7.19462492,-91.4138347,-118.4490654,,,,
492.0399997,1922,0,-210.3124535,0,16.9580523,0,13.15191824,158.324029,227.3226812,50.83204735,-82.61654884,-26.54804038,0,1.00E-10,-116.7623273,104.167104,30.14220686,,,,
492.0479997,1922,0,292.7434635,0,-4.589014068,0,-67.94945703,-179.4138475,-236.6109605,-36.21720769,-25.1017295,39.2913954,0,1.00E-10,-2.40861377,39.11512066,-9.719531566,,,,
492.0559997,1922,0,-260.5203762,0,4.668915867,0,5.612562236,80.12475659,106.6703799,32.84990741,-46.11574445,24.75985217,0,1.00E-10,-52.34370221,-65.50484149,-95.51201952,,,,
492.0639997,1922,0,33.06061108,0,-31.48897606,0,-71.02950618,4.332788615,59.87789852,-64.79203014,-138.167295,-72.64446717,0,1.00E-10,-78.51103701,136.3015842,60.21255496,,,,
492.0719997,1922,0,79.97525534,0,-36.95145721,0,-78.50891478,-151.1702248,-187.9957784,-59.15734301,-4.81312426,49.53490552,0,1.00E-10,33.58618578,-71.71911298,-100.6810969,,,,
492.0799997,1922,0,-302.5427663,0,-38.03013432,0,-34.1911626,129.0478409,229.1154407,-56.48763806,-144.4267365,-77.25882498,0,1.00E-10,-76.4071334,45.11361956,-18.53118847,,,,
492.0879997,1922,0,238.1963917,0,-45.73174157,0,-105.7460483,-164.3024345,-168.9145215,-108.4828675,-92.28767676,-46.2116488,0,1.00E-10,6.445050999,64.33829141,4.594888421,,,,
492.0959997,1922,0,-188.853,0,-19.02570178,0,-32.05846882,1.2174386,23.51720915,30.28621235,-17.40093968,9.148717871,0,1.00E-10,-6.486049381,-95.57458718,-121.2198751,,,,
492.1039997,1922,0,-47.54331091,0,-24.93953436,0,-61.81552983,37.22523619,121.8563822,-37.45496107,-146.2900289,-107.6553499,0,1.00E-10,-79.7682205,124.6051541,50.26505066,,,,
492.1119997,1922,0,161.3060042,0,2.679450467,0,-47.27779648,-176.7851607,-233.3408803,4.940393588,32.34256656,59.35638903,0,1.00E-10,35.4677264,-67.46640033,-97.50128168,,,,
492.1199997,1922,0,-298.6623118,0,14.17230936,0,25.03488658,145.4144348,220.9852794,81.79871409,-54.85514161,-13.83977383,0,1.00E-10,-100.4263722,32.63659482,-33.82139346,,,,
492.1279997,1922,0,235.5222267,0,-5.242692461,0,-60.98139488,-130.0141585,-138.3826374,-32.14687028,-58.56367287,-5.802305458,0,1.00E-10,-29.69916401,92.58452685,22.16205198,,,,
492.1359997,1922,0,-151.0808631,0,11.52562649,0,-3.483673976,-0.888322833,-0.525506367,56.9559769,19.44286923,55.26926626,0,1.00E-10,-13.62696977,-89.27054954,-117.074798,,,,
492.1439997,1922,0,-82.0414061,0,-20.96436339,0,-55.93507164,72.40545472,164.335485,-38.66280037,-126.7811309,-98.58273338,0,1.00E-10,-97.46377622,134.9429561,59.52126969,,,,
492.1519997,1922,0,168.1447675,0,-24.91213486,0,-88.8772864,-187.8580428,-226.278918,-82.02802601,-3.287255555,31.38718,0,1.00E-10,49.05665511,-61.23402983,-85.95438594,,,,
492.1599997,1922,0,-327.5798746,0,-17.67662171,0,-17.11338472,139.4636137,239.8294032,-10.55753427,-116.8598092,-57.33239565,0,1.00E-10,-71.4328842,26.01114598,-30.44534216,,,,
492.1679997,1922,0,211.4064928,0,-44.17533319,0,-100.7599659,-139.80847,-121.2539597,-70.12922709,-97.44792981,-48.07310955,0,1.00E-10,-12.61330961,90.2562627,29.75209599,,,,
492.1759997,1922,0,-162.4563311,0,-24.4410022,0,-30.06667011,-28.74144983,-11.09527237,19.02238918,-20.79371902,17.94821915,0,1.00E-10,2.087076595,-104.534943,-121.1485632,,,,
492.1839997,1922,0,-101.6549527,0,-35.27619708,0,-46.65442348,67.22428881,171.7268986,-39.80920581,-151.8959349,-120.2016624,0,1.00E-10,-101.3626007,134.7876173,58.23316872,,,,
492.1919997,1922,0,174.545024,0,-39.05675591,0,-83.76257047,-202.6184434,-230.9256832,-44.02372024,12.51454246,37.77993902,0,1.00E-10,39.47486854,-53.68352903,-82.19293866,,,,
492.1999997,1922,0,-334.2867765,0,-29.50375024,0,-19.90072045,127.0399991,242.0683979,-11.7542742,-116.2801848,-68.81314025,0,1.00E-10,-71.89101038,21.28426967,-30.31283468,,,,
492.2079997,1922,0,214.1434316,0,-49.05194567,0,-106.1185761,-147.7347569,-114.7266868,-81.79782157,-89.02996815,-65.82548302,0,1.00E-10,-15.56929545,93.89825358,33.67761937,,,,
492.2159997,1922,0,-145.1267603,0,-25.13657683,0,-30.50384648,-40.30530506,-15.55575559,6.159040221,-14.11218474,15.19146057,0,1.00E-10,2.125930934,-103.359113,-119.0411254,,,,
492.2239997,1922,0,-86.48989188,0,-18.0039957,0,-6.383934643,75.84647722,182.7480512,-24.8320215,-141.6179258,-117.0042855,0,1.00E-10,-99.01417179,136.4517801,64.41416611,,,,
492.2319997,1922,0,206.7361016,0,-10.76776234,0,-11.13811009,-183.1465908,-216.3408077,37.68534106,64.77827896,61.47031004,0,1.00E-10,44.89063179,-38.51317746,-65.08478901,,,,
492.2399997,1922,0,-296.6721259,0,10.7003923,0,72.17243154,157.8671797,255.8033452,54.08064784,-67.7998523,-35.47263714,0,1.00E-10,-67.20977055,37.32015135,-8.955495754,,,,
492.2479997,1922,0,271.4067929,0,18.02174003,0,4.547922713,-103.5302889,-100.9547784,-27.0043993,-22.89245793,-21.06389874,0,1.00E-10,-18.21273,113.8019132,60.19539989,,,,
492.2559997,1922,0,-86.63784001,0,45.58582623,0,56.87375908,2.417791726,-6.881456622,126.7164666,78.46052205,92.14502352,0,1.00E-10,-1.74604554,-78.28295862,-90.10417346,,,,
492.2639997,1922,0,-65.43023052,0,22.56952239,0,18.55887036,112.9241047,193.0838515,59.03939193,-88.06057552,-49.24291506,0,1.00E-10,-108.8201613,155.9478853,87.94045533,,,,
492.2719997,1922,0,213.0701908,0,1.317467237,0,-37.30433466,-166.6840804,-223.4249121,5.053644103,63.59266669,81.68026962,0,1.00E-10,30.74863844,-37.33051717,-57.7839471,,,,
492.2799997,1922,0,-316.6447818,0,-1.63433898,0,7.455234809,155.1495569,247.2001272,-6.235378988,-111.5603989,-45.98891689,0,1.00E-10,-79.4864348,23.78957979,-17.07249525,,,,
492.2879997,1923,0,254.422436,0,1.569310829,0,-63.33363713,-110.1270784,-104.0070705,-53.46615425,-47.1360732,-39.23641185,0,1.00E-10,-26.17626041,104.6028314,51.34244698,,,,
492.2959997,1923,0,-82.53719088,0,46.16224101,0,27.75960429,-0.189179725,-18.13177189,125.4730909,100.6689975,90.54868209,0,1.00E-10,-8.151709954,-81.52543437,-99.06410828,,,,
492.3039997,1923,0,-71.27783589,0,30.02935272,0,6.930694431,114.1641833,197.9909442,36.03283385,-99.01988288,-45.03129855,0,1.00E-10,-111.5687201,160.8345255,83.86699074,,,,
492.3119997,1923,0,236.8373739,0,32.66495398,0,-22.3069073,-168.7981701,-223.099788,30.26647609,67.62568628,103.9504382,0,1.00E-10,33.99944148,-25.25752197,-54.47484677,,,,
492.3199997,1923,0,-278.5921905,0,57.20668512,0,70.4142282,169.5549124,240.7184701,121.369721,-27.13812434,24.26231877,0,0,-90.89172087,39.39598928,-14.16940405,,,,
492.3279997,1923,0,267.3005484,0,33.55070119,0,-18.65568085,-93.14778569,-97.2817407,4.529740148,1.42384706,25.95368692,0,0,-43.42680988,121.4177311,53.67985981,,,,
492.3359997,1923,0,-94.39998179,0,26.45367706,0,13.80200044,-10.88426551,-12.27522946,78.03681894,72.56310574,104.7778783,0,0,-8.58753853,-82.74440637,-105.7180626,,,,
492.3439997,1923,0,-97.34703209,0,-9.685967022,0,-25.36695483,97.31109853,205.091719,-33.11806867,-157.1943558,-74.50691581,0,0,-104.0925596,149.1357978,71.61112558,,,,
492.3519997,1923,0,232.2230168,0,6.692259957,0,-42.86747564,-185.3834671,-229.3130851,-27.76076677,31.33650829,68.13331799,0,0,42.47238491,-36.08808129,-67.32586828,,,,
492.3599997,1923,0,-292.5941812,0,32.83829224,0,43.83599378,151.0292893,235.6122262,105.6053645,-27.71889145,5.350237944,0,0,-81.19877685,23.97278585,-28.158196,,,,
492.3679997,1923,0,235.6687143,0,-3.358759659,0,-58.16947378,-116.2292264,-93.06854292,-39.9927899,-50.71534787,-1.686534188,0,0,-29.5323811,109.9463213,48.08022063,,,,
492.3759997,1923,0,-98.56601445,0,15.48311639,0,7.208997914,-31.6540061,-27.67336165,39.19529618,30.94892578,77.14350407,0,0,-1.408139683,-99.76782057,-113.556706,,,,
492.3839997,1923,0,-93.98616932,0,-1.605371932,0,-10.29352016,96.08422439,196.6456821,0.494637518,-132.8433494,-77.52194048,0,0,-114.0077908,129.629613,63.79583424,,,,
492.3919997,1923,0,221.8881901,0,-10.10310153,0,-56.95632227,-168.1465745,-226.8673465,-26.78165567,18.54844089,68.65676389,0,0,36.34146183,-47.92709169,-67.01524864,,,,
492.3999997,1923,0,-319.4492357,0,-0.600349998,0,16.51528179,250.3809309,237.4949763,44.82087526,-86.71925315,-21.642907,0,0,-78.64820918,6.469746745,-34.96282342,,,,
492.4079997,1923,0,222.5106869,0,-29.26059192,0,-72.08296898,106.5240718,-90.80576548,-75.99347318,-104.8852479,-44.11548892,0,0,-23.76328248,92.9338336,37.85822481,,,,
492.4159997,1923,0,-90.03095366,0,10.02409202,0,11.10286909,268.8519697,-37.49809102,50.51859373,27.54777927,60.2020941,0,0,9.512750315,-112.4185602,-122.4960508,,,,
492.4239997,1923,0,-98.64615881,0,3.537401251,0,-7.502757634,465.6288418,190.9925056,16.58737448,-95.66609728,-73.08164619,0,0,-110.6387674,124.985568,54.41467586,,,,
492.4319997,1923,0,227.3448061,0,-5.190004183,0,-63.74001067,236.1129257,-240.1406205,-15.82584045,44.76333513,69.58605751,0,0,36.34431752,-45.67471155,-77.34691809,,,,
492.4399997,1923,0,-308.1872648,0,13.26839484,0,18.62260788,611.2728674,217.5261552,67.80123545,-56.91298234,-11.92192582,0,0,-84.07109702,5.329410856,-46.02452992,,,,
492.4479997,1923,0,221.2477063,0,-23.26186661,0,-86.99860557,388.1910241,-97.94313488,-66.58266385,-70.85724744,-21.26241062,0,0,-34.86556157,100.6969855,36.03726341,,,,
492.4559997,1923,0,-104.7333055,0,-12.54496256,0,-40.33462634,483.9484099,-47.0437334,9.878941548,25.73311246,64.58103632,0,0,12.50724904,-105.9876084,-124.2924707,,,,
492.4639997,1923,0,-132.017804,0,-34.8677148,0,-63.23461578,636.7037888,184.6140169,-35.25299824,-153.8696753,-95.41950423,0,0,-104.6687572,118.3116095,47.83899814,,,,
492.4719997,1923,0,211.3088783,0,-38.34627944,0,-104.8023126,361.0657057,-249.1432372,-52.00300348,-27.57952293,44.38018859,0,0,41.15249068,-58.96578847,-82.80539611,,,,
492.4799997,1923,0,-303.0537348,0,13.34146256,0,9.360581686,713.556318,205.8515291,72.93683911,-56.07823669,-20.25887527,0,0,-80.4426723,-9.034178427,-50.52510674,,,,
492.4879997,1923,0,225.8721067,0,-1.433925064,0,-72.71018179,474.2903097,-106.3019589,-19.3727202,-23.38681889,-9.403441616,0,0,-43.64393638,94.50331755,35.96876489,,,,
492.4959997,1923,0,-111.6792545,0,-15.06834771,0,-41.00042723,542.1444052,-49.66865907,-0.787375119,12.75904478,63.80645211,0,0,6.582642537,-116.921688,-125.9601747,,,,
492.5039997,1923,0,-339.2999381,0,-19.77278833,0,1.4124299,879.5609309,475.6041455,-28.08844849,-246.8152934,-184.9445715,0,0,-183.9799272,219.1913295,135.4024278,,,,
492.5119997,1923,0,245.4116361,0,15.31684917,0,-0.011104503,518.8207811,-56.81167718,0.5116991,-22.7865449,0.301455546,0,0,-14.25211378,113.2175616,62.13714072,,,,
492.5199997,1923,0,7.214532175,0,50.30622748,0,66.32974982,547.6028383,-72.29290736,85.68968758,114.5304335,127.8191954,0,0,42.97305484,-99.97974648,-106.2413341,,,,
492.5279997,1923,0,-31.17459121,0,39.78569015,0,41.32858452,684.4492216,153.2354622,68.82244946,-22.47236231,-9.050961839,0,0,-81.59146406,100.7442542,48.75735855,,,,
492.5359997,1923,0,103.048805,0,45.77674769,0,28.96772263,581.8164606,-3.807526681,106.6533168,49.93770394,64.43022066,0,0,-38.49243864,45.77188079,12.14148846,,,,
492.5439997,1924,0,46.35393515,0,36.46160028,0,23.39418032,562.5150703,-38.44526876,60.25733002,50.73196684,93.63976493,0,0,-5.303361489,-21.71936401,-37.54444144,,,,
492.5519997,1924,0,-112.8120794,0,16.42713706,0,15.81497955,684.0944365,155.7857325,7.677622493,-52.06517927,0.263368689,0,0,-67.97087421,72.21879246,30.74271395,,,,
492.5599997,1924,0,135.1855064,0,10.40762433,0,-21.08451189,521.4689203,-64.67136088,-28.4510421,-6.975493639,27.56948652,0,0,-14.46704983,38.18291702,5.71038984,,,,
492.5679997,1924,0,-42.30364355,0,32.53048936,0,23.63122468,591.9492833,15.4499184,40.15067354,31.04213643,50.905939,0,0,-27.92924683,-25.68851464,-48.30749024,,,,
492.5759997,1924,0,-60.66055077,0,14.64867163,0,7.921668969,659.995393,146.5909653,37.55472067,-42.52907004,-19.35562988,0,0,-94.92108502,105.1985882,50.55293216,,,,
492.5839997,1924,0,164.9652711,0,-12.0148666,0,-43.48005096,433.5672479,-163.8737822,-9.750855724,36.61453039,65.22544895,0,0,18.4902629,-23.95590496,-44.04987107,,,,
492.5919997,1924,0,-253.9784196,0,-14.7518829,0,1.872920473,675.189744,191.5545153,19.00886233,-62.92352272,-26.21115514,0,0,-69.57559553,16.41200228,-19.62367107,,,,
492.5999997,1924,0,160.0926488,0,-44.12434736,0,-80.58528498,459.2535044,-59.12272987,-80.31599026,-93.41819089,-44.40154466,0,0,-21.91494189,79.585339,35.6572905,,,,
492.6079997,1924,0,-69.33983822,0,-14.23180306,0,-21.9976919,495.4177185,-37.32446376,23.64121687,6.713232759,36.58093563,0,0,16.78933901,-87.64322097,-92.90406847,,,,
492.6159997,1924,0,-118.0515665,0,-7.216202132,0,-14.09410099,632.5495361,192.5755521,23.67721266,-80.0505449,-77.73064574,0,0,-96.87124253,104.9087685,53.38653451,,,,
492.6239997,1924,0,226.4322801,0,-15.21767541,0,-59.77796347,351.9521005,-209.2417464,-41.05197383,43.09672252,45.50447308,0,0,41.96582307,-35.76470886,-51.30298162,,,,
492.6319997,1924,0,-289.1472126,0,0.817358188,0,18.41015762,654.8498381,208.37318,35.37644518,-31.80714193,-22.02625092,0,0,-59.7405679,-8.372519157,-36.68493494,,,,
492.6399997,1924,0,182.0701499,0,-35.66914347,0,-81.17975312,429.6916842,-52.13821413,-82.97065991,-71.35437848,-48.44786603,0,0,-22.6998437,91.30073705,49.65521546,,,,
492.6479997,1924,0,-78.59388947,0,-28.35035166,0,-37.39963035,459.1128266,-45.01832176,-10.17670254,-4.68870986,23.83166711,0,0,41.79354704,-110.3595123,-104.4510264,,,,
492.6559997,1924,0,-127.7578928,0,-17.86571093,0,-16.33260308,612.9934055,204.6793325,3.357505072,-126.5465314,-123.4580812,0,0,-80.82132554,99.842176,58.8554964,,,,
492.6639997,1924,0,242.2718426,0,-19.92845327,0,-59.01155567,310.8242805,-223.9673119,-30.12947296,28.52616369,32.18634273,0,0,60.33774493,-46.59541848,-47.90034753,,,,
492.6719997,1924,0,-315.5010943,0,-17.25724986,0,5.91086426,620.6730408,218.4991349,11.32114572,-63.63684018,-43.50396843,0,0,-35.29012898,-20.59589867,-37.7192608,,,,
492.6799997,1924,0,211.240821,0,-21.76173111,0,-62.67188924,382.9243217,-62.48645285,-88.61662859,-73.44452947,-77.39315899,0,0,-0.824889939,87.28556306,50.78365627,,,,
492.6879997,1924,0,-44.74173391,0,14.41102916,0,12.64497976,415.4295509,-59.59994543,68.11613415,72.79120677,60.00545458,0,0,44.62645621,-118.9007031,-109.7268131,,,,
492.6959997,1924,0,-128.536065,0,-3.369834592,0,0.064479152,575.9359013,219.5909,19.8121633,-99.70350665,-87.12452343,0,0,-76.49942926,105.4384068,64.55432016,,,,
492.7039997,1924,0,259.7942063,0,-11.5891411,0,-50.5102196,261.3058742,-224.8754096,-66.12162753,19.65637837,31.31642632,0,0,84.59313726,-46.91052223,-43.79536555,,,,
492.7119997,1924,0,-295.6364845,0,7.08827344,0,40.69326593,585.9370001,216.1492293,54.16310685,-21.29376627,-29.88718746,0,0,-25.90046871,-25.72393576,-35.49461785,,,,
492.7199997,1924,0,221.6963832,0,-20.67146865,0,-55.0649003,352.4808344,-59.28877938,-38.35885684,-50.08020453,-56.14899749,0,0,6.394259754,87.82420962,58.33812426,,,,
492.7279997,1924,0,-48.40673692,0,-11.6746172,0,-10.77125724,375.8584883,-65.91372261,22.07880561,39.28492526,47.54257048,0,0,75.04584901,-131.1629517,-110.7353638,,,,
492.7359997,1924,0,-141.5225439,0,-28.16362144,0,-17.74688379,542.0254311,213.8028329,-40.01682465,-137.6666929,-116.5857872,0,0,-47.61659738,87.67571779,60.19340153,,,,
492.7439997,1924,0,254.3734913,0,-41.97772778,0,-79.43297905,218.8205293,-240.4349129,-79.91992307,2.343406225,13.95276451,0,0,110.6281571,-63.50174145,-48.30333923,,,,
492.7519997,1924,0,-299.1848411,0,-10.24102631,0,34.5016232,547.8868929,200.4189536,38.28446434,-46.32243652,-44.66742693,0,0,2.632377912,-44.48250259,-44.36875178,,,,
492.7599997,1924,0,237.0558315,0,0.296601867,0,0.829305445,340.414752,-57.29023909,-37.27341951,-71.99579692,-56.1586168,0,0,29.63754097,85.54154192,62.80346351,,,,
492.7679997,1924,0,-2.955419073,0,30.54928105,0,72.01673378,373.452603,-61.74634564,84.17697439,78.14836827,81.70795257,0,0,97.67977369,-117.3712846,-93.24902768,,,,
492.7759997,1924,0,-0.29579079,0,26.2584703,0,51.50607089,549.689373,236.1043308,18.72331182,-119.5795556,-104.4888397,0,0,-56.74080218,194.2243279,143.6567447,,,,
492.7839997,1924,0,492.657802,0,29.64962926,0,-27.82545274,164.8209198,-319.4865097,-27.37699784,41.99986623,76.79806835,0,0,131.2413439,25.1541478,17.13118852,,,,
492.7919997,1924,0,-365.7176885,0,70.88473194,0,115.2684732,569.5020396,198.4769431,187.8402129,94.91211673,94.10898352,0,0,32.54982687,-107.6776203,-98.13654362,,,,
492.7999997,1925,0,159.5955565,0,36.59884216,0,12.94114443,424.2853559,81.25519283,30.75735927,-53.69157913,-45.00986663,0,0,-41.79704018,171.712888,124.8784077,,,,
492.8079997,1925,0,180.0511195,0,22.6148693,0,-12.33253979,234.9344996,-216.5989778,41.47992897,96.88794782,131.9812389,0,0,116.0060135,-98.67259711,-80.05233744,,,,
492.8159997,1925,0,-338.2293053,0,24.86204273,0,49.34312162,588.6903065,295.047291,85.85640523,-38.27216963,-13.39076199,0,0,-39.44538227,31.76546769,10.69263849,,,,
492.8239997,1925,0,325.0137548,0,-1.530759681,0,-59.23966043,231.8339968,-165.3085417,-53.67345164,-35.40921442,6.072175765,0,0,46.96173087,79.58197911,52.33421104,,,,
492.8319997,1925,0,-168.2537892,0,20.71380932,0,29.45131647,397.3009121,13.64851155,67.66034127,28.90631514,75.13101597,0,0,51.41326596,-115.5269744,-104.6653832,,,,
492.8399997,1925,0,-47.01802522,0,20.40642744,0,14.73530908,467.5041204,161.749328,46.27545438,-73.46284125,-55.50904087,0,0,-74.29489851,125.0143062,83.95965211,,,,
492.8479997,1925,0,224.6372461,0,18.31675428,0,-19.77796147,199.479859,-229.5088988,64.67504161,96.28038694,103.9326905,0,0,62.19058283,-50.72569543,-45.76230798,,,,
492.8559997,1925,0,-324.4537242,0,14.08833609,0,39.37700052,519.1896625,227.1705555,92.76108643,-32.3034626,-4.366115899,0,0,-53.2750593,-3.055930721,-15.46261092,,,,
492.8639997,1925,0,202.1474109,0,-31.16372622,0,-82.13161708,256.8539766,-75.59384926,-62.34916632,-82.96544785,-34.40554496,0,0,-6.504240107,97.78374293,70.21324343,,,,
492.8719997,1925,0,-115.0554291,0,-24.73302935,0,-37.13303817,305.9027128,-41.13784626,-7.152591663,-1.796046797,44.62825951,0,0,51.38585023,-115.6618533,-96.3698326,,,,
492.8799997,1925,0,-134.446354,0,-17.00734501,0,-27.0604373,446.7777502,203.3314625,-27.1166695,-146.3350389,-116.1854863,0,0,-79.55358601,100.5722682,70.155601,,,,
492.8879997,1925,0,221.5094421,0,-20.45493712,0,-70.80343992,143.1955843,-223.4264833,-14.16502728,30.14525908,45.60524395,0,0,52.04470874,-41.81404507,-39.45742228,,,,
492.8959997,1925,0,-354.208505,0,-22.25985162,0,-6.998593272,451.6712489,213.5170138,1.846905292,-64.22922319,-37.96783204,0,0,-47.45310958,-25.64112327,-36.91745041,,,,
492.9039997,1925,0,166.9871923,0,-35.02959105,0,-86.571469,229.9387164,-44.96018323,-83.0640176,-102.9896205,-78.69259715,0,0,-16.56886764,97.04837294,66.07781062,,,,
492.9119997,1925,0,-81.61177125,0,-18.83733892,0,-32.38413179,237.7186706,-75.727527,57.06060739,39.84332855,53.48383262,0,0,43.33531514,-114.1181264,-101.1487743,,,,
492.9199997,1925,0,-198.4820733,0,-41.17842306,0,-51.42273242,404.6329567,214.8878272,-44.58723131,-159.2094451,-129.1124983,0,0,-93.56206794,97.01360133,59.67189282,,,,
492.9279997,1925,0,221.9001508,0,-54.2990903,0,-118.1772851,81.59674153,-232.5834771,-91.696955,-25.94311726,-8.347240343,0,-1.00E-10,55.45972423,-42.29366122,-44.93117496,,,,
492.9359997,1925,0,-341.4836379,0,-30.92572549,0,-21.2208741,392.3319197,192.4355841,35.95125986,-48.93863781,-54.50695583,0,-1.00E-10,-48.38742082,-36.62664908,-52.96543841,,,,
492.9439997,1925,0,152.6343282,0,-36.41924227,0,-86.16722927,185.3725586,-50.0805583,-57.73000401,-85.82760201,-85.07687191,0,-1.00E-10,-37.72432529,94.76876178,55.45412054,,,,
492.9519997,1925,0,-77.87962215,0,-33.51099396,0,-51.5847145,180.0205011,-97.20148344,33.57026123,25.44232752,39.03723449,0,-1.00E-10,29.37996905,-123.4069057,-112.5801732,,,,
492.9599997,1925,0,-210.5079859,0,-47.38885922,0,-52.3937904,368.7284219,215.396403,-20.10008108,-138.2434566,-132.1298617,0,-1.00E-10,-112.8427387,88.54777632,52.00494562,,,,
492.9679997,1925,0,227.809582,0,-52.44032814,0,-102.9009069,43.22179232,-240.3892139,-93.00617369,13.19611952,-3.532461545,0,-1.00E-10,40.60377337,-42.15236201,-43.36972712,,,,
492.9759997,1925,0,-353.9313339,0,-47.17176615,0,-23.04718071,350.8740642,183.8259096,15.73068363,-57.70665426,-58.87975538,0,-1.00E-10,-53.32779084,-43.69934799,-52.47980347,,,,
492.9839997,1925,0,129.1816933,0,-72.33161734,0,-106.7470573,150.6674862,-45.49054239,-96.54886122,-120.4804438,-109.8739048,0,-1.00E-10,-41.67839163,87.73064675,57.01712175,,,,
492.9919997,1925,0,-74.64918478,0,-64.25530269,0,-60.03968875,140.4838817,-99.62846879,-70.39025581,-0.803558645,-0.812768599,0,-1.00E-10,42.94774307,-136.9814907,-117.7503588,,,,
492.9999997,1925,0,-207.5627869,0,-60.31981205,0,-22.58362448,341.402614,227.5400729,-61.10615148,-176.9156316,-164.7640953,0,-1.00E-10,-90.70448098,77.7877503,50.42002267,,,,
493.0079997,1925,0,258.7077652,0,-29.98615854,0,-24.17531362,32.39923645,-231.0774915,-3.505356561,12.5391802,8.69903823,0,-1.00E-10,54.84599227,-39.29586866,-33.37944195,,,,
493.0159997,1925,0,-283.2859923,0,29.82303905,0,109.4449063,369.287217,194.6742317,131.7964569,26.51987832,0.81127298,0,-1.00E-10,-48.05982955,-33.79212978,-38.63141968,,,,
493.0239997,1925,0,216.2328864,0,30.99734382,0,37.96086242,186.5609956,-18.61338301,13.74773667,16.84361842,-16.30847353,0,-1.00E-10,-45.99577676,119.8199526,87.79730913,,,,
493.0319997,1925,0,2.338588674,0,38.93492275,0,57.41951009,167.4176176,-83.68241135,105.3670359,161.8478339,131.801833,0,-1.00E-10,26.97358766,-96.1377899,-78.8300351,,,,
493.0399997,1925,0,-163.8166775,0,21.0748226,0,43.47274695,364.5641133,245.7799083,84.52987931,-57.54249674,-44.85100552,0,-1.00E-10,-116.1768362,109.0910337,84.03700042,,,,
493.0479997,1925,0,278.0391749,0,-3.805972732,0,-40.16769404,27.33764969,-216.5934532,-18.94946526,29.54967218,66.96221995,0,-1.00E-10,34.0942091,-16.77715906,-6.963616856,,,,
493.0559997,1926,0,-299.767569,0,19.24061149,0,47.55058333,331.3559193,194.1767768,71.96495241,-26.18274385,12.00526886,0,-1.00E-10,-64.89067416,-31.32239788,-29.42146036,,,,
493.0639997,1926,0,187.9054993,0,13.41335679,0,-22.64897722,136.7991179,-22.87269853,-9.6124699,-55.53174724,-38.5859299,0,-1.00E-10,-61.64346734,109.077178,87.78582008,,,,
493.0719997,1926,0,-21.38327863,0,2.275050712,0,-8.708100228,106.0591447,-94.19824998,40.59955239,93.69391991,86.59228494,0,-1.00E-10,24.73990265,-112.2968476,-84.94946848,,,,
493.0799997,1926,0,-191.0063265,0,-7.365386343,0,-1.20244749,307.42578,234.0419422,19.27773022,-94.00769173,-91.24321796,0,-1.00E-10,-119.4932844,91.87781145,74.75953762,,,,
493.0879997,1926,0,282.5761612,0,3.33521843,0,-41.8766316,-22.39198566,-238.2881498,-2.26152629,51.9144695,49.17241818,0,-1.00E-10,19.4157519,-29.2880999,-12.18596426,,,,
493.0959997,1926,0,-300.1611689,0,16.90745626,0,42.6977564,290.5061868,181.2841923,88.47477835,3.928134643,16.34110501,0,-1.00E-10,-71.69678382,-41.81184433,-35.71769408,,,,
493.1039997,1926,0,167.3229606,0,-7.385980736,0,-44.75928889,101.8847356,-20.76064798,-27.94903916,-76.43211567,-38.18969091,0,-1.00E-10,-60.32145842,103.5316825,85.01460169,,,,
493.1119997,1926,0,-19.94297926,0,0.884454578,0,-14.67707631,66.17928634,-103.909625,38.63524197,71.44245464,91.65508472,0,-1.00E-10,25.18134586,-121.9675552,-89.4943029,,,,
493.1199997,1926,0,-192.0167124,0,-0.576742983,0,0.568360149,275.2929546,233.0474646,23.7735873,-117.2917967,-82.70290948,0,-1.00E-10,-120.7495889,80.0112725,64.27247831,,,,
493.1279997,1926,0,280.4656507,0,1.621433672,0,-46.27723904,-58.40042117,-234.9676311,6.637449237,16.16194543,57.38975456,0,-1.00E-10,18.94429456,-35.76550106,-21.00301766,,,,
493.1359997,1926,0,-305.5617647,0,17.35299767,0,45.92346713,250.6443012,181.7383205,83.05088548,37.80806697,28.15832273,0,-1.00E-10,-75.39144576,-48.14376068,-44.88737358,,,,
493.1439997,1926,0,143.3335488,0,-20.61194538,0,-56.42326858,63.79374903,-13.26385703,-79.48351273,-60.69957059,-45.38469471,0,-1.00E-10,-64.8395187,100.64431,74.54714267,,,,
493.1519997,1926,0,-37.37368904,0,-27.74423184,0,-44.17665756,17.31053808,-105.4847753,-22.90708123,7.361582976,68.43762886,0,-1.00E-10,32.19293245,-128.6008075,-105.3984408,,,,
493.1599997,1926,0,-213.1020939,0,-25.83207168,0,-20.09049596,234.0528451,236.3019989,-21.04481991,-120.2383908,-98.91122162,0,-1.00E-10,-116.1380754,74.2694923,48.99285411,,,,
493.1679997,1926,0,255.5286941,0,-19.7250021,0,-63.75164258,-97.73821976,-235.7427465,-38.08772766,18.74453554,36.26209105,0,-1.00E-10,21.85116283,-38.45612572,-32.99031297,,,,
493.1759997,1926,0,-336.9931827,0,1.549307593,0,31.31331718,208.2159371,168.9751795,62.04898839,-32.19974418,5.647531679,0,-1.00E-10,-70.3263899,-59.19852562,-62.46864477,,,,
493.1839997,1926,0,102.5447747,0,-33.25037471,0,-64.24677791,29.9025646,-21.00383478,-94.64742953,-95.62975955,-56.19714919,0,-1.00E-10,-73.08350894,93.66216525,61.38891015,,,,
493.1919997,1926,0,-63.45610419,0,-29.61690458,0,-40.69630402,-17.12161123,-120.8474771,-30.89239076,-0.070228117,61.02803528,0,-1.00E-10,22.25191123,-131.7371069,-112.4722518,,,,
493.1999997,1926,0,-363.9803963,0,-20.67636886,0,-0.001568558,344.4141728,439.7422048,9.168338791,-254.6076766,-199.0322945,0,-1.00E-10,-211.7225881,196.0438794,138.1400638,,,,
493.2079997,1926,0,328.7120645,0,-32.73034913,0,-92.70731622,-103.2215248,-179.2389781,-85.37069634,-85.79059207,-50.06428181,0,-1.00E-10,-44.11441335,97.61752564,72.08983887,,,,
493.2159997,1926,0,-188.6395394,0,-4.59821807,0,9.993860686,3.860376098,-106.5209937,49.47244394,86.21048489,112.8534623,0,-1.00E-10,25.62156716,-213.3852321,-178.4391692,,,,
493.2239997,1926,0,-200.2564489,0,-28.35591833,0,-12.2602955,184.6237269,218.3917208,-12.12197308,-159.2578592,-114.0852724,0,-1.00E-10,-153.7888826,115.7361061,72.86207495,,,,
493.2319997,1926,0,182.0180565,0,-37.15903074,0,-65.12796285,-113.8596323,-207.1002011,-65.77004603,-51.24813816,13.49829978,0,-1.00E-10,-3.566170177,-25.08692422,-32.30008315,,,,
493.2399997,1926,0,-227.8031053,0,7.66806854,0,33.21721092,92.13344774,40.25803276,80.02546191,15.91391509,32.97340372,0,-1.00E-10,-43.70786311,-101.1024769,-98.16103977,,,,
493.2479997,1926,0,0.52818957,0,2.905266339,0,-0.43680158,82.59382231,71.43648891,40.58864602,-62.79108292,-63.27688614,0,-1.00E-10,-130.5294576,106.1509122,65.07489127,,,,
493.2559997,1926,0,97.08038302,0,-0.324620186,0,-16.55921674,-94.98395132,-205.1994289,14.42038581,46.39820443,86.05239383,0,-1.00E-10,-1.69720699,-91.84008512,-86.34699055,,,,
493.2639997,1926,0,-267.2318,0,-3.445524749,0,17.96445229,152.1487053,158.449712,19.88259592,-85.23261398,-22.63905899,0,-1.00E-10,-100.8912489,-3.131705462,-19.43527271,,,,
493.2719997,1926,0,136.8490272,0,-17.94312326,0,-48.39971284,-43.92907287,-85.03475967,-50.270343,-80.1685512,-24.55632925,0,-1.00E-10,-62.06031182,51.04291003,31.1180145,,,,
493.2799997,1926,0,-74.4792598,0,4.557359772,0,9.233817979,-13.66301379,-85.41901163,44.62939887,59.78658492,72.98726644,0,-1.00E-10,-14.01413392,-116.6620579,-103.4166792,,,,
493.2879997,1926,0,-132.7572211,0,4.142434786,0,34.71815954,143.543752,170.1977846,26.36188463,-83.55051342,-69.02867534,0,-1.00E-10,-132.3424451,81.33251727,51.11509868,,,,
493.2959997,1926,0,256.3275404,0,33.09383781,0,39.61705374,-112.291208,-218.1693806,47.03244696,61.24831943,83.98867462,0,-1.00E-10,-6.20866432,-38.88224024,-32.11690785,,,,
493.3039997,1926,0,-215.214383,0,76.48855018,0,146.7514058,178.4931929,159.6485668,180.9731114,83.92287596,77.86383592,0,-1.00E-10,-92.85360273,-22.03016622,-24.00192273,,,,
493.3119997,1927,0,182.7767801,0,49.77911782,0,61.49866471,20.46013679,-14.56219044,69.59085081,18.47996888,44.18982494,0,-1.00E-10,-89.49800295,112.185867,85.89937745,,,,
493.3199997,1927,0,35.61542931,0,56.37111043,0,66.61231764,-18.52290018,-106.2555883,92.46124404,105.2623827,154.4438311,0,-1.00E-10,-11.96908984,-93.54598046,-74.2333134,,,,
493.3279997,1927,0,-141.5399584,0,60.14140861,0,73.7263138,194.0066244,223.493707,97.57893894,-25.46375234,4.324482865,0,-1.00E-10,-148.0161373,98.05505187,78.22209187,,,,
493.3359997,1927,0,306.018513,0,49.11483031,0,8.40764313,-119.133457,-221.4237856,69.62822191,96.38565373,138.4633902,0,-1.00E-10,-15.32204843,-5.443800053,7.494710715,,,,
493.3439997,1927,0,-248.7693644,0,54.96668246,0,79.781747,162.5029182,161.5093838,127.5652267,44.23229618,90.12489263,0,-1.00E-10,-92.86068913,-36.92331843,-24.747137,,,,
493.3519997,1927,0,158.7556875,0,19.21350176,0,-7.805083733,4.660550392,2.43231781,-2.942112154,-32.56878378,7.160762896,0,-1.00E-10,-96.04861229,114.2118635,97.38712997,,,,
493.3599997,1927,0,25.87399289,0,15.57130164,0,8.971223802,-53.21562128,-116.1700001,41.89384203,71.31486181,121.8156913,0,-1.00E-10,1.108795553,-103.9098692,-73.75402749,,,,
493.3679997,1927,0,-195.6247105,0,7.939836622,0,27.6301601,171.9857469,242.2412877,36.80899616,-86.3197097,-56.4181844,0,-1.00E-10,-136.4891909,86.09451678,75.60183193,,,,
493.3759997,1927,0,287.7894969,0,-7.73133656,0,-39.14056653,-172.543234,-230.4577333,-24.98537127,36.53725101,54.68361562,0,-1.00E-10,-7.639038949,-19.40137362,-1.177700744,,,,
493.3839997,1927,0,-277.851116,0,9.91389591,0,51.22444819,118.6701109,151.3717909,88.9469983,-20.08678606,26.26328227,0,-1.00E-10,-88.92423764,-64.00823918,-46.8373507,,,,
493.3919997,1927,0,355.7902508,0,-18.1023633,0,-60.69107058,-137.9078182,-149.5698618,-44.81406407,-76.00566366,-34.7318858,0,-1.00E-10,-67.32991178,113.9705926,102.3708569,,,,
493.3999997,1927,0,228.726351,0,1.387762319,0,-26.97214747,-232.7646461,-330.168836,11.18216455,127.9390218,135.7104558,0,-1.00E-10,51.18020015,-168.2736067,-117.7591057,,,,
493.4079997,1927,0,-454.6167767,0,27.43599102,0,81.75388091,271.6747242,400.3308228,140.5632094,-52.10991165,-49.2975975,0,-1.00E-10,-185.8592019,47.26055975,39.91442224,,,,
493.4159997,1927,0,373.1360591,0,-17.89359372,0,-67.14412583,-214.6666235,-238.3165855,-34.22338068,-7.49441802,39.27591407,0,-1.00E-10,-30.63400247,50.76149093,51.45477788,,,,
493.4239997,1927,0,-167.1795112,0,-3.370649424,0,8.68317177,-27.3913561,-13.5073523,30.76852705,15.09867785,73.91661062,0,-1.00E-10,-21.75542974,-142.8310035,-105.7195903,,,,
493.4319997,1927,0,-119.6636101,0,-2.173043605,0,-0.741725501,97.65785349,213.3141972,45.39835248,-119.3320127,-84.97417217,0,-1.00E-10,-154.4569174,109.2541088,92.75933859,,,,
493.4399997,1927,0,286.8608202,0,-33.03807472,0,-81.82047372,-263.0713428,-298.8421038,-37.07025601,24.01553617,84.54771161,0,-1.00E-10,20.22536244,-84.27694596,-53.12923494,,,,
493.4479997,1927,0,-353.6552737,0,-19.78165526,0,10.22165094,113.0245983,233.3521542,16.69588384,-76.88348805,-31.95495961,0,-1.00E-10,-107.7536878,-45.1656358,-29.19896265,,,,
493.4559997,1927,0,211.9300149,0,-24.8828141,0,-66.07516294,-140.9238315,-81.90124258,-37.74957876,-54.17651756,-36.95801293,0,-1.00E-10,-68.31322052,66.18257883,62.73997663,,,,
493.4639997,1927,0,-28.67479241,0,-8.855291659,0,-17.8546731,-129.4305828,-108.491104,42.6515683,53.08346207,87.57959172,0,-1.00E-10,-1.34839537,-140.2772693,-104.3214587,,,,
493.4719997,1927,0,-173.9639429,0,1.422100535,0,19.57618064,78.16786297,218.5604638,59.84669596,-83.99881884,-60.6444046,0,-1.00E-10,-138.5639771,68.72729937,60.38400698,,,,
493.4799997,1927,0,291.5808694,0,-9.168532609,0,-41.56320387,-257.9468538,-261.3218073,6.634316814,34.5410411,78.82588547,0,-1.00E-10,-5.069042939,-48.59703616,-27.61368491,,,,
493.4879997,1927,0,-301.0882621,0,0.396274739,0,40.16858531,57.03328274,161.8495908,56.27412295,-38.0833118,23.73804513,0,-1.00E-10,-98.31725133,-72.14063871,-57.57305362,,,,
493.4959997,1927,0,137.1873864,0,-29.36045085,0,-49.32824178,-108.8593374,-23.43134049,-64.64468492,-95.29341361,-52.53678861,0,-1.00E-10,-94.43922733,74.23494791,63.91437508,,,,
493.5039997,1927,0,0.343843504,0,-27.6169397,0,-32.72808719,-160.7637177,-139.7925096,-6.692781557,38.68981472,69.57309319,0,-1.00E-10,0.120404352,-145.5063949,-109.0946591,,,,
493.5119997,1927,0,-221.6896174,0,-24.94775494,0,0.474901481,75.0734555,224.8699691,19.67615996,-114.3054091,-83.70527953,0,-1.00E-10,-138.9577758,49.55200438,43.34828379,,,,
493.5199997,1927,0,260.7550516,0,-56.81330337,0,-88.36525277,-266.5425744,-243.5932736,-65.95245426,-29.57555167,17.61858388,0,-1.00E-10,-5.95580042,-43.8458532,-21.6809471,,,,
493.5279997,1927,0,-305.4164905,0,-42.15940137,0,5.826495079,27.76556975,146.2460496,13.40225737,-51.52176686,-26.19238628,0,-1.00E-10,-68.36551296,-96.5191243,-67.91998683,,,,
493.5359997,1927,0,128.6434168,0,-38.54351008,0,-20.28798804,-96.33219435,6.189012377,-62.22205831,-105.8080619,-88.72983388,0,-1.00E-10,-75.66005928,79.34261794,78.81997474,,,,
493.5439997,1927,0,49.57301271,0,-17.84491735,0,25.05027683,-164.4514743,-146.3562541,23.94619372,39.44953624,71.77791324,0,-1.00E-10,27.48036103,-132.8115485,-89.48803067,,,,
493.5519997,1927,0,-190.8919613,0,7.353882285,0,77.05945725,103.5601846,242.8652709,99.43365741,-63.98119941,-71.75861247,0,-1.00E-10,-118.605474,63.92239938,62.03671028,,,,
493.5599997,1927,0,327.6579008,0,6.952188187,0,3.881170278,-229.9529078,-230.946237,35.6843422,76.53631633,56.67861404,0,-1.00E-10,0.422517224,-12.6666879,9.385521128,,,,
493.5679997,1928,0,-244.6822245,0,30.73141814,0,84.405923,52.63125313,137.67778,115.0670716,39.59533702,49.95084734,0,-1.00E-10,-68.9061508,-70.86524965,-44.19234104,,,,
493.5759997,1928,0,157.0835387,0,25.51206559,0,27.17140341,-64.86895166,8.671025429,44.43446542,-19.27110596,-19.54774695,0,-1.00E-10,-95.01740059,107.0034637,100.3650408,,,,
493.5839997,1928,0,75.07048904,0,19.60931639,0,28.88822389,-158.2803163,-162.3689267,67.52435289,129.6317163,133.7945405,0,-1.00E-10,5.497251947,-116.7402783,-77.20206451,,,,
493.5919997,1928,0,-216.2303872,0,6.681967815,0,40.5983819,94.06911554,236.731799,47.73129905,-87.57646005,-47.3802478,0,-1.00E-10,-132.3654452,67.78636374,65.94801148,,,,
493.5999997,1928,0,306.7847752,0,-7.097905542,0,-34.49333129,-251.9359063,-243.4452721,-7.010998964,21.44048014,43.58945655,0,-1.00E-10,-3.710902296,-14.37654219,9.414370111,,,,
493.6079997,1928,0,-261.8122573,0,4.939360605,0,47.43942936,24.71623253,126.3626511,83.33700396,37.70203549,34.25039404,0,-1.00E-10,-68.26924434,-78.32040224,-48.35150822,,,,
493.6159997,1928,0,112.8432496,0,-28.71025939,0,-36.3191607,-102.8247228,16.89418425,-29.17928176,-85.72682983,-57.75035539,0,-1.00E-10,-86.80801223,103.9017121,100.0683827,,,,
493.6239997,1928,0,57.75019615,0,-22.6100201,0,-23.40582261,-212.8605398,-169.7407557,7.365573111,35.34783106,76.09869617,0,-1.00E-10,29.37793451,-127.4841589,-85.17016206,,,,
493.6319997,1928,0,-226.2501756,0,-18.09588158,0,8.671519258,49.71228751,238.218514,-0.574385028,-108.3471135,-92.41640978,0,-1.00E-10,-107.8929734,59.70599876,58.15369898,,,,
493.6399997,1928,0,289.1455177,0,-46.45386685,0,-79.79329304,-301.3173919,-239.9144294,-63.84732032,-2.282451768,9.026838924,0,-1.00E-10,18.16786717,-15.76126685,6.719474862,,,,
493.6479997,1928,0,-276.7329846,0,-26.95734932,0,10.36649741,-27.89973455,116.9919367,60.45828224,-29.3868098,-9.079221655,0,-1.00E-10,-44.33012423,-92.28989766,-62.33005221,,,,
493.6559997,1928,0,104.5829705,0,-37.00346384,0,-52.23355819,-143.4638392,6.835637559,-30.00874378,-122.6593718,-100.1262603,0,-1.00E-10,-70.14155566,90.58332547,87.0676689,,,,
493.6639997,1928,0,72.96860548,0,-6.773641898,0,-10.57553655,-248.8821838,-195.0983016,49.02435993,67.8653858,71.00970847,0,-1.00E-10,27.86078547,-138.8529987,-96.25253836,,,,
493.6719997,1928,0,-213.3186794,0,15.31534253,0,47.42305346,34.99030985,220.0568038,89.80165478,-54.16389899,-67.62380441,0,-1.00E-10,-129.0643793,51.31755266,47.70106578,,,,
493.6799997,1928,0,306.9215953,0,-16.29582712,0,-46.14424227,-311.3018324,-252.8455136,-15.38147317,30.46075599,32.64245366,0,-1.00E-10,-3.894204612,-16.56839609,3.882818399,,,,
493.6879997,1928,0,-259.285024,0,-3.830597651,0,40.55406946,-39.19785111,106.7751841,68.30452602,7.940138812,19.71781223,0,-1.00E-10,-60.406722,-96.19069126,-66.25155646,,,,
493.6959997,1928,0,96.12718596,0,-32.73826116,0,-36.0290225,-143.6419849,13.55365189,-34.60144036,-88.30772611,-75.35607739,0,-1.00E-10,-83.31517345,93.49015018,88.88042568,,,,
493.7039997,1928,0,-85.17612273,0,-40.93596785,0,-18.41131751,-228.5342742,-159.9142506,24.76489126,73.72921194,97.63080227,0,-1.00E-10,45.20448082,-208.9077691,-151.2445504,,,,
493.7119997,1928,0,-792.5158662,0,-25.96302211,0,81.02280243,276.0084228,567.7095604,107.7417809,-126.0925173,-103.8405758,0,-1.00E-10,-164.5841451,-36.49539677,-26.24043703,,,,
493.7199997,1928,0,-215.6575287,0,-44.89558746,0,-11.24946475,-4.531077265,211.4904392,4.336857142,-113.9505328,-99.30018454,0,-1.00E-10,-108.7945148,53.98634613,53.79446664,,,,
493.7279997,1928,0,-149.1735955,0,-44.63455221,0,-17.36236213,-120.4003351,26.89450541,15.12012718,-34.53886111,-9.133075506,0,-1.00E-10,-27.3719297,-74.51999076,-47.19952632,,,,
493.7359997,1928,0,174.532252,0,-49.62121045,0,-66.41385052,-232.2672246,-104.6530113,-32.06254792,-78.18914036,-50.48142212,0,-1.00E-10,-28.22320419,45.28376202,49.339517,,,,
493.7439997,1928,0,-34.43936304,0,-25.93727328,0,-11.72153844,-192.2503593,-89.81671545,51.55023973,24.4290245,44.32744595,0,-1.00E-10,-3.711908243,-96.04387529,-66.42490515,,,,
493.7519997,1928,0,-155.7934162,0,-43.43805875,0,-11.47408666,-60.32172967,129.0425747,10.8299991,-95.56837543,-67.42702197,0,-1.00E-10,-88.45011725,32.34551844,34.06277296,,,,
493.7599997,1928,0,253.9553744,0,-77.8253169,0,-99.23867203,-338.4664164,-246.0949465,-80.57458071,-42.91291191,-9.113583562,0,-1.00E-10,19.12989774,-23.36531251,-5.084029719,,,,
493.7679997,1928,0,-274.8286522,0,-47.98814851,0,-6.1362972,-71.07848025,104.7852231,21.34747853,-47.96482954,-26.39702267,0,-1.00E-10,-36.79597006,-85.38042773,-62.83551358,,,,
493.7759997,1928,0,126.1486501,0,-58.45362432,0,-64.56125846,-214.6586146,-54.67918286,-51.27597818,-100.3064955,-84.73542649,0,-1.00E-10,-43.45328204,72.1318107,66.16112101,,,,
493.7839997,1928,0,27.48890458,0,-53.5096173,0,-43.02581662,-279.7596047,-186.8324103,26.28897236,25.02266895,51.50560682,0,-1.00E-10,35.55623244,-126.654753,-96.14989381,,,,
493.7919997,1928,0,-222.2833926,0,-47.92482375,0,-13.74098802,-46.41305889,172.9739913,37.40319275,-113.6008068,-85.50709666,0,-1.00E-10,-85.11413857,35.80480384,29.31767982,,,,
493.7999997,1928,0,272.2288349,0,-73.19328324,0,-101.5267276,-373.474643,-268.9139764,-66.57149022,-38.07843162,-2.896040795,0,-1.00E-10,24.60501446,-20.51117439,-6.976722499,,,,
493.8079997,1928,0,-272.7885101,0,-53.61641108,0,-3.496815474,-111.1610516,77.41039376,21.41084792,-62.26155271,-11.48250934,0,-1.00E-10,-28.81850959,-101.2699138,-80.45803234,,,,
493.8159997,1928,0,105.1008975,0,-50.23625549,0,-26.64948151,-203.6039205,-13.89283408,-49.19173217,-127.931516,-99.42466222,0,-1.00E-10,-49.52970474,87.15669816,73.756526,,,,
493.8239997,1929,0,92.24456464,0,-25.53223293,0,21.08807787,-299.3046609,-204.514308,14.14109541,59.61370533,58.31775092,0,-1.00E-10,53.49464208,-123.8457708,-93.68398587,,,,
493.8319997,1929,0,-176.8326306,0,22.43080422,0,110.5414276,-10.3731568,203.3107371,118.5096225,-53.27851949,-51.14620724,0,-1.00E-10,-83.61968081,56.47851829,45.09400844,,,,
493.8399997,1929,0,377.4889791,0,45.12031542,0,67.87562806,-326.0948311,-262.5943045,131.2268431,108.5993307,92.05935034,0,-1.00E-10,4.690893629,14.62685145,15.77955438,,,,
493.8479997,1929,0,-183.2893233,0,49.92354904,0,127.2101092,-65.33967379,81.50624978,178.0925023,124.8140835,104.8305736,0,-1.00E-10,-59.38692845,-70.63726608,-62.83827674,,,,
493.8559997,1929,0,147.705442,0,25.6019656,0,47.20749252,-152.1884355,20.52784755,59.68967235,-23.3107803,-0.025340218,0,-1.00E-10,-86.57186968,125.2615119,98.39811539,,,,
493.8639997,1929,0,139.1391028,0,33.41111082,0,51.11952078,-283.6438183,-205.2838567,104.1685909,131.9334279,152.8365835,0,-1.00E-10,17.42310567,-101.2413831,-82.69146971,,,,
493.8719997,1929,0,-207.4331121,0,16.62813075,0,61.73543121,-5.282342031,230.9376736,79.58406093,-47.78675733,-26.1819851,0,-1.00E-10,-119.0626717,66.35575671,46.9389276,,,,
493.8799997,1929,0,345.6462831,0,2.063814818,0,-21.67252183,-347.0747351,-241.1399556,19.60363662,25.82442238,53.37894198,0,-1.00E-10,-6.538518803,9.231127229,12.04709043,,,,
493.8879997,1929,0,-197.0618342,0,30.85810834,0,74.43999264,-88.07490135,87.60427593,106.327455,65.57233738,63.94552805,0,-1.00E-10,-62.37947096,-87.31312959,-73.09581457,,,,
493.8959997,1929,0,109.6648671,0,1.818679896,0,0.59639578,-166.4419014,35.69549892,-25.80693175,-64.98620411,-45.21905155,0,-1.00E-10,-94.84985336,111.6735657,92.08191336,,,,
493.9039997,1929,0,112.8747246,0,-5.2300943,0,-6.80064866,-316.5875747,-208.135328,20.32245509,66.7400359,107.0970136,0,-1.00E-10,18.14473764,-125.7948246,-91.80777913,,,,
493.9119997,1929,0,-239.1712928,0,-20.12203961,0,12.49137248,-38.33806896,230.8712914,27.76139027,-96.02742196,-62.29759055,0,-1.00E-10,-119.4773946,37.19530271,35.87125022,,,,
493.9199997,1929,0,313.5248226,0,-41.93672358,0,-80.5504312,-387.3285717,-239.9745996,-68.80780072,-36.32183917,10.2717506,0,-1.00E-10,-1.748589961,-16.24896908,3.818628216,,,,
493.9279997,1929,0,-216.7813261,0,-2.878779668,0,24.77782086,-131.068788,82.09286355,60.424494,11.98506983,32.62106424,0,-1.00E-10,-49.65802044,-115.6260817,-85.13347993,,,,
493.9359997,1929,0,97.65952867,0,-10.93791961,0,-23.52964721,-199.2127526,28.96617072,8.634532389,-56.20907991,-52.85029411,0,-1.00E-10,-92.75527001,93.12504755,80.11569512,,,,
493.9439997,1929,0,114.1622781,0,-11.91117453,0,-25.00832253,-348.5890988,-218.45497,29.0040618,77.19999796,106.5060941,0,-1.00E-10,17.63879942,-136.8230646,-103.7599038,,,,
493.9519997,1929,0,-252.7175752,0,-20.22007925,0,-0.301510376,-55.69014436,234.4598428,20.89227667,-94.19815002,-62.01820521,0,-1.00E-10,-117.0774402,31.53834871,27.6775139,,,,
493.9599997,1929,0,300.5935893,0,-41.38591356,0,-93.01857201,-406.956598,-243.4662751,-84.40382219,-31.68570862,0.99472498,0,-1.00E-10,2.887465341,-15.71856537,1.742591696,,,,
493.9679997,1929,0,-229.5982238,0,-17.14021724,0,5.369950034,-160.8273954,71.86719061,32.32496718,-9.30668932,17.10154321,0,-1.00E-10,-43.19169413,-119.0278848,-92.14286778,,,,
493.9759997,1929,0,65.85840798,0,-42.94317928,0,-53.39058926,-227.7887668,29.96100988,-13.32895316,-104.3710346,-83.9500578,0,-1.00E-10,-87.39023979,88.61152124,71.59067328,,,,
493.9839997,1929,0,100.9121996,0,-39.62765388,0,-49.97345347,-385.9513277,-232.9447742,-15.60394143,37.10737103,64.57736287,0,-1.00E-10,33.58938387,-145.8924323,-112.910603,,,,
493.9919997,1929,0,-250.0612324,0,-25.83633673,0,2.217253978,-84.59060932,218.5888078,-9.512624516,-100.3192217,-79.4629562,0,-1.00E-10,-98.62799329,24.83658509,17.66181532,,,,
493.9999997,1929,0,302.590865,0,-45.79843243,0,-84.94022843,-432.2405877,-256.5892073,-31.00717222,-6.025254544,16.76283688,0,-1.00E-10,4.189114674,-14.45815707,-7.771914056,,,,
494.0079997,1929,0,-232.4246842,0,-24.16975733,0,8.06899673,-185.3774587,58.85418869,65.33661933,19.12241358,36.89681051,0,-1.00E-10,-44.21398343,-124.9498774,-103.8788659,,,,
494.0159997,1929,0,65.44939032,0,-34.50508201,0,-42.87470439,-235.2007271,30.60509392,-61.43453054,-95.54626991,-77.4466939,0,-1.00E-10,-78.08005112,85.07129797,68.57849344,,,,
494.0239997,1929,0,108.0343599,0,-32.05155649,0,-43.98454355,-397.833125,-239.5305991,1.065323285,60.01247096,83.54645578,0,-1.00E-10,36.76261874,-147.1574507,-116.0058569,,,,
494.0319997,1929,0,-270.6788665,0,-44.69576813,0,-13.60059529,-106.346147,215.8480766,15.13378345,-105.3853994,-72.07742393,0,-1.00E-10,-101.9442092,16.13509844,7.638284848,,,,
494.0399997,1929,0,267.9299934,0,-82.12443149,0,-120.4125777,-458.1664462,-255.1130363,-122.4308329,-74.5286285,-24.77503441,0,-1.00E-10,14.99663159,-24.75656776,-13.0032101,,,,
494.0479997,1929,0,-252.4808762,0,-47.83790512,0,-16.6319662,-205.9283208,56.04181572,-12.82207677,-16.20834081,-10.73758407,0,-2.00E-10,-23.46977148,-137.6307208,-106.3491987,,,,
494.0559997,1929,0,53.21804269,0,-49.42756282,0,-55.69378794,-247.1747352,34.43625424,-50.9557336,-89.48684409,-92.20878902,0,-2.00E-10,-68.52644098,81.90931327,72.57559952,,,,
494.0639997,1929,0,96.00320998,0,-52.84889077,0,-65.22987982,-418.9815661,-242.5467852,-10.84348777,43.84333966,69.74576387,0,-2.00E-10,47.61328256,-148.8040481,-109.6495186,,,,
494.0719997,1929,0,-270.3021654,0,-31.38618083,0,13.56999686,-108.2454945,221.1221382,-1.151422381,-95.07193898,-92.45935229,0,-2.00E-10,-84.83893234,9.269745225,17.30751571,,,,
494.0799997,1930,0,326.9270442,0,-10.73216489,0,-9.370473567,-428.8132781,-243.6735517,-25.18945396,20.04828837,8.108518988,0,-2.00E-10,22.65703579,-13.17468688,12.14125845,,,,
494.0879997,1930,0,-174.9057098,0,38.46697322,0,119.1480005,-170.2881636,65.12003877,137.3190775,96.75906068,71.5006025,0,-2.00E-10,-17.17075125,-111.5251142,-74.34155367,,,,
494.0959997,1930,0,101.7271328,0,18.65611683,0,60.81639155,-208.9915671,57.14081813,49.36224811,0.115889312,-19.25929324,0,-2.00E-10,-62.57724104,111.8774142,107.3561295,,,,
494.1039997,1930,0,146.0843126,0,-3.08173273,0,19.83143323,-385.7235746,-220.3960875,27.57983563,112.2864472,122.4754102,0,-2.00E-10,57.74896681,-119.0736165,-76.36820314,,,,
494.1119997,1930,0,-224.5200723,0,17.768879,0,72.31407698,-76.0456348,239.1033533,46.52261372,-56.87423471,-41.02518364,0,-2.00E-10,-76.65384976,40.36939785,45.60390276,,,,
494.1199997,1930,0,362.2776552,0,34.76779747,0,15.85247084,-408.1621563,-243.1917414,61.78943881,70.22974966,67.46130573,0,-2.00E-10,6.163092461,19.1726733,34.79495169,,,,
494.1279997,1930,0,-179.1685353,0,40.44126879,0,78.46419122,-171.7031321,54.70168167,136.5710083,106.3247808,95.65999709,0,-2.00E-10,-40.24652301,-96.09633762,-70.24764049,,,,
494.1359997,1930,0,87.0865503,0,18.22790443,0,15.50211589,-206.3537888,49.27368074,11.39879515,-39.42348438,-35.31374149,0,-2.00E-10,-83.99837284,117.1890727,101.7164159,,,,
494.1439997,1930,0,176.8987653,0,36.36040461,0,26.06805333,-373.0279316,-243.5589619,87.26761447,147.2058252,144.40718,0,-2.00E-10,23.65628949,-111.5198241,-79.47214081,,,,
494.1519997,1930,0,-233.9959522,0,16.66503866,0,51.80626866,-64.06951292,230.4493918,49.14628303,-14.80156293,-14.85966028,0,-2.00E-10,-104.9243207,46.10643298,41.23626312,,,,
494.1599997,1930,0,311.8710322,0,-27.30732007,0,-57.74313055,-411.9473446,-240.2529249,-59.75558464,11.65184845,28.40022553,0,-2.00E-10,4.538186814,15.86517989,27.11649139,,,,
494.1679997,1930,0,-213.7699845,0,-24.15238587,0,7.810638613,-191.4896717,52.31769314,23.35707064,16.31105144,29.99767568,0,-2.00E-10,-23.92872482,-113.9526142,-82.10227811,,,,
494.1759997,1930,0,44.31769787,0,-46.7041875,0,-46.46655233,-233.4581567,55.92680097,-69.18565682,-121.6726689,-103.9591595,0,-2.00E-10,-66.62523764,99.41977453,92.02954202,,,,
494.1839997,1930,0,55.75756446,0,-1.699462334,0,7.699836634,-392.8555756,-256.2470199,90.41940383,135.3139007,138.6932985,0,-2.00E-10,47.98147341,-208.0760917,-157.728793,,,,
494.1919997,1930,0,-727.9316906,0,42.44720938,0,144.4387757,143.604811,490.8729643,192.494037,27.20652386,2.476620004,0,-2.00E-10,-147.2697289,-91.04646721,-78.22483771,,,,
494.1999997,1930,0,-207.9814893,0,11.66806527,0,49.68068626,-89.88017141,208.2468502,69.86568885,-27.15397814,-46.19271735,0,-2.00E-10,-112.416341,43.74616754,38.42413753,,,,
494.2079997,1930,0,-86.08015538,0,-0.825456969,0,22.59353351,-238.3128694,-14.99747296,80.73566896,59.96753587,46.88894868,0,-2.00E-10,-34.64201487,-76.87438234,-56.31726318,,,,
494.2159997,1930,0,148.9644113,0,-33.95955878,0,-43.7561278,-307.4435421,-66.48508351,-31.74078904,-18.98316104,-35.82272897,0,-2.00E-10,-48.53809919,66.99480223,60.78067167,,,,
494.2239997,1930,0,11.66836113,0,-36.46725156,0,-27.95165612,-327.2595235,-120.276516,-9.819970649,46.52237463,40.7418113,0,-2.00E-10,6.29501687,-94.92985212,-73.20633527,,,,
494.2319997,1930,0,-156.6993892,0,-25.8134988,0,1.230721599,-158.7873395,131.4644937,3.828295117,-55.24573369,-57.72420648,0,-2.00E-10,-75.37596135,23.10263753,17.30568396,,,,
494.2399997,1930,0,292.5764913,0,-24.40149984,0,-41.77275031,-417.0887282,-240.0130876,2.60507407,40.72751249,24.07025541,0,-2.00E-10,-13.69578018,7.359711142,13.35494094,,,,
494.2479997,1930,0,-222.4688162,0,-17.46005116,0,34.2711853,-181.1873183,67.60310685,71.70432994,48.29907183,51.37868651,0,-2.00E-10,-53.48948217,-94.48851004,-72.34738587,,,,
494.2559997,1930,0,82.2277298,0,-47.59889238,0,-41.94564744,-262.5202233,6.440302605,-86.00283564,-104.1811843,-77.19054068,0,-2.00E-10,-63.76508032,90.59912576,83.51759775,,,,
494.2639997,1930,0,111.2458572,0,-20.58295081,0,-16.24465308,-382.9213087,-212.2507627,7.272619373,92.32423884,74.34125854,0,-2.00E-10,18.20024191,-114.1336827,-80.94205561,,,,
494.2719997,1930,0,-230.1790628,0,-21.0445377,0,18.05012861,-111.2862116,198.5756643,39.76934124,-7.447678299,-36.12415377,0,-2.00E-10,-97.28205412,30.12220752,31.48483945,,,,
494.2799997,1930,0,299.2225237,0,-45.40956383,0,-73.14997881,-429.9018488,-235.5006866,-80.3366299,-8.56232438,-3.468855317,0,-2.00E-10,1.412784935,8.683994072,30.01873457,,,,
494.2879997,1930,0,-195.5990862,0,-24.6569959,0,17.37077792,-209.7053417,43.77389932,9.472728434,33.34835535,32.4925398,0,-2.00E-10,-32.11338126,-119.835971,-79.22548959,,,,
494.2959997,1930,0,37.21217527,0,-66.14755369,0,-55.4372492,-248.8773204,52.58796373,-89.88967591,-86.72096155,-89.07215109,0,-2.00E-10,-67.90114448,94.47093194,93.57407727,,,,
494.3039997,1930,0,133.919199,0,-48.13385412,0,-44.79418725,-428.7763846,-241.7313033,-29.56350131,69.44136733,58.90687198,0,-2.00E-10,39.46316506,-130.8279981,-86.72683916,,,,
494.3119997,1930,0,-255.0347134,0,-30.1078256,0,21.23995198,-125.3449911,213.58888,8.154629686,-52.12388783,-60.31705119,0,-2.00E-10,-91.05255243,13.37092434,25.36919915,,,,
494.3199997,1930,0,275.5515528,0,-72.11804413,0,-91.40006401,-459.9248002,-231.9237066,-111.4033022,-47.43741454,-25.43005312,0,-2.00E-10,4.957063647,3.393236145,30.34033349,,,,
494.3279997,1930,0,-208.752227,0,-46.7391199,0,-9.073632124,-252.7070202,26.65176002,-12.54423214,-5.506295503,-5.22108205,0,-2.00E-10,-22.18466095,-138.7474397,-92.68954353,,,,
494.3359997,1931,0,14.28380679,0,-63.92203554,0,-59.21116843,-268.520731,61.49134186,-84.30840102,-110.7426124,-122.5587815,0,-2.00E-10,-70.230586,86.23629926,89.21401009,,,,
494.3439997,1931,0,122.5099776,0,-67.08510253,0,-67.23934462,-467.5012412,-254.722515,-53.04911343,31.02788017,42.25671874,0,-2.00E-10,54.47855732,-136.4788911,-87.62372458,,,,
494.3519997,1931,0,-271.8605565,0,-34.28094685,0,34.7483303,-132.3779247,223.1145935,-3.21269692,-64.75249065,-88.73084411,0,-2.00E-10,-72.9849413,9.75969617,21.06320637,,,,
494.3599997,1931,0,325.7876577,0,-23.63763265,0,-6.336243855,-439.8877654,-222.4770924,-16.31852772,35.50550417,-12.8828473,0,-2.00E-10,11.81286112,18.25246031,36.29430498,,,,
494.3679997,1931,0,-138.6980066,0,21.5791454,0,104.1402014,-214.4620966,45.10699866,122.4829993,96.60529767,59.66082726,0,-2.00E-10,-8.42437495,-109.5405132,-70.16589915,,,,
494.3759997,1931,0,88.65979735,0,28.67937849,0,78.47151816,-202.5008895,92.19027866,29.77567526,-8.424327242,-46.55938499,0,-2.00E-10,-62.1524243,126.4890956,123.4193033,,,,
494.3839997,1931,0,217.2193473,0,35.1249139,0,56.56468171,-404.0472231,-241.938306,85.00485042,171.9241213,139.7086496,0,-2.00E-10,38.245051,-92.50417617,-54.89593518,,,,
494.3919997,1931,0,-247.5695475,0,8.84556692,0,65.93161232,-88.56246269,252.7145189,49.71870998,-20.19112336,-12.77188664,0,-2.00E-10,-84.48765648,44.18704665,48.72449524,,,,
494.3999997,1931,0,313.6630572,0,-30.73320411,0,-47.00352515,-427.5098894,-196.7134716,-94.93925517,-24.74358434,5.456547652,0,-2.00E-10,16.91453357,38.63386713,56.93473214,,,,
494.4079997,1931,0,-142.1877215,0,5.555666528,0,47.00166982,-227.0476649,51.57710539,43.0501269,79.11147628,52.57362736,0,-2.00E-10,-8.249198891,-106.0224709,-67.60126318,,,,
494.4159997,1931,0,60.47917626,0,-1.351476718,0,9.669094357,-228.8341608,100.7732791,-16.35741577,-32.50254547,-67.93361676,0,-2.00E-10,-62.99331177,120.7753556,114.6431964,,,,
494.4239997,1931,0,186.0948913,0,-2.282093086,0,-8.747915661,-440.3732575,-242.6654433,29.41428916,111.6609575,107.7222045,0,-2.00E-10,48.73583826,-100.8538345,-65.27349721,,,,
494.4319997,1931,0,-247.3245218,0,0.912609912,0,44.46414133,-111.8381565,250.7337011,13.51843797,-30.89544094,-42.33561525,0,-2.00E-10,-67.16532656,38.11155121,39.62849645,,,,
494.4399997,1931,0,348.9928163,0,4.227651723,0,-19.5217505,-440.2081198,-210.0096817,-31.54275223,46.60561505,12.08138624,0,-2.00E-10,22.06638765,41.9402473,53.35985809,,,,
494.4479997,1931,0,-131.3597504,0,38.02795115,0,75.23460511,-233.8666707,37.37651602,125.4267097,143.4710589,88.6591944,0,-2.00E-10,-15.60336662,-98.25943337,-67.72232266,,,,
494.4559997,1931,0,33.63353059,0,-6.254134909,0,5.747158721,-229.2456685,111.1695846,-38.37924817,-60.41973501,-64.76115216,0,-2.00E-10,-64.2840967,132.0230137,119.6499684,,,,
494.4639997,1931,0,189.7735669,0,-7.703425436,0,-12.73382732,-450.1425036,-240.3065138,-19.35367512,75.36732262,85.69913043,0,-2.00E-10,58.29381106,-94.57120854,-60.8361201,,,,
494.4719997,1931,0,-248.191874,0,9.149586142,0,53.51598188,-116.667529,252.6473383,30.03961609,-13.45308336,-45.74268229,0,-2.00E-10,-63.65880439,42.30301148,43.54305113,,,,
494.4799997,1931,0,308.0029091,0,-22.36987973,0,-43.29519797,-449.0854848,-201.3920384,-44.87837019,15.26918386,0.465926694,0,-2.00E-10,16.30808199,44.94224879,55.22857325,,,,
494.4879997,1931,0,-163.7982407,0,-8.340771826,0,33.15351438,-253.9190404,38.83402292,31.61173772,55.52519399,47.6907568,0,-2.00E-10,-12.57618001,-113.8441495,-78.05104247,,,,
494.4959997,1931,0,16.07021045,0,-35.01334922,0,-21.71317466,-239.3854834,119.7858663,-104.0190768,-87.37287426,-106.209821,0,-2.00E-10,-55.19672384,117.0026484,114.0480438,,,,
494.5039997,1931,0,173.3318658,0,-30.37774852,0,-35.22203642,-464.5176757,-240.8801473,-23.79889995,67.16740112,59.77350274,0,-2.00E-10,67.78245843,-106.8282638,-62.04141731,,,,
494.5119997,1931,0,-267.7960685,0,-2.715768714,0,45.11187927,-129.528969,246.6922995,36.18440231,-39.35010263,-61.40147921,0,-2.00E-10,-61.71611174,22.9155155,37.13660096,,,,
494.5199997,1931,0,304.3635558,0,-23.25477515,0,-45.88590395,-459.0112159,-205.30132,-59.72475588,2.900113203,-21.8277522,0,-2.00E-10,16.43360892,36.04223624,55.56808812,,,,
494.5279997,1931,0,-149.0964689,0,6.428307825,0,40.49004196,-266.5415932,26.83367619,68.35834667,56.0528915,37.55501025,0,-2.00E-10,-5.91798656,-115.4328113,-74.18529566,,,,
494.5359997,1931,0,20.01510343,0,-11.60042704,0,-3.130732068,-244.0582499,107.7779629,-3.905620358,-39.80551077,-80.32337601,0,-2.00E-10,-66.58381974,121.1956578,119.3409401,,,,
494.5439997,1931,0,177.5875386,0,-31.64664382,0,-41.65149151,-480.3157456,-259.5877988,-35.54133778,88.69714501,69.04904756,0,-2.00E-10,50.10912105,-105.2840042,-61.18510709,,,,
494.5519997,1931,0,-253.824272,0,0.9734739,0,44.80766865,-141.9772226,233.4544372,-4.041523353,-50.35348776,-69.09614447,0,-2.00E-10,-72.09954179,19.18622081,35.37333913,,,,
494.5599997,1931,0,312.4055075,0,-14.57346418,0,-39.1742505,-462.0433763,-212.1922408,-21.83029881,48.46547612,1.679139633,0,-2.00E-10,4.254586745,41.07298065,64.59745365,,,,
494.5679997,1931,0,-169.1658147,0,-26.00451239,0,7.219070642,-281.5007014,19.40549517,2.25509784,43.26974986,31.81230594,0,-2.00E-10,-2.25949869,-122.4356486,-71.0077865,,,,
494.5759997,1931,0,3.599683838,0,-40.6698384,0,-24.92228884,-251.2992314,107.7389705,-75.89078522,-120.4931231,-128.4827198,0,-2.00E-10,-56.41913626,101.3759353,115.7454716,,,,
494.5839997,1931,0,184.7569264,0,-38.32059452,0,-35.61942481,-475.6379975,-263.3169578,3.83584642,71.38327138,51.49721044,0,-2.00E-10,53.41132156,-118.9981857,-59.83037639,,,,
494.5919997,1932,0,-276.2227676,0,-29.58664861,0,22.63767251,-134.7850329,242.7183543,-28.8879582,-81.92332789,-91.86520613,0,-2.00E-10,-58.9447496,8.417220703,35.45813685,,,,
494.5999997,1932,0,299.0756157,0,-41.02157422,0,-61.30184601,-458.426749,-204.7694201,-68.24972632,-1.369874053,-44.68446131,0,-2.00E-10,17.13854303,30.31488354,59.48677004,,,,
494.6079997,1932,0,-156.8359775,0,-27.39935975,0,17.91975157,-276.1647579,16.04788698,2.569502139,48.67282843,17.29422995,0,-2.00E-10,-0.481703093,-131.1136973,-80.76788335,,,,
494.6159997,1932,0,14.99507843,0,-31.45742114,0,6.164162732,-230.6680132,125.300801,-114.3323453,-115.0786961,-129.7339495,0,-2.00E-10,-45.91654488,107.7132527,117.1595314,,,,
494.6239997,1932,0,230.6285311,0,2.854006914,0,35.12120593,-448.5880017,-249.1633627,44.66796834,107.7054148,74.6520663,0,-2.00E-10,71.1536425,-97.55156805,-48.12536697,,,,
494.6319997,1932,0,-222.6830579,0,36.39683301,0,130.4382869,-93.74567319,260.4910627,104.6919975,-9.46290763,-25.33601524,0,-2.00E-10,-48.18552704,39.58252248,50.17916506,,,,
494.6399997,1932,0,353.5528758,0,28.1510597,0,43.1863546,-409.1281401,-176.798267,0.510429505,68.00311059,21.09997527,0,-2.00E-10,29.23618763,71.18401768,87.81299561,,,,
494.6479997,1932,0,-117.501855,0,24.42092746,0,77.87801406,-237.4023215,35.42643942,72.2867381,127.3552853,80.25318745,0,-2.00E-10,11.37608834,-94.64908791,-51.6246875,,,,
494.6559997,1932,0,10.1024404,0,-13.0179382,0,11.50396638,-201.7295331,146.896803,-51.95698495,-103.8610808,-87.28785665,0,-2.00E-10,-38.79062946,135.3543001,136.7036041,,,,
494.6639997,1932,0,185.1413586,0,11.46975952,0,22.16043051,-465.8822999,-292.2501879,29.73733932,137.7663789,132.9024633,0,-2.00E-10,98.81333736,-175.7415575,-115.6864128,,,,
494.6719997,1932,0,-399.6522348,0,22.75343874,0,102.0914004,-49.72533007,331.6290605,80.62439151,34.81236794,-8.3978457,0,-2.00E-10,-58.29447677,-29.68376776,-15.72922769,,,,
494.6799997,1932,0,368.3558769,0,-20.1882228,0,-37.39950071,-402.9414691,-117.0864362,-70.116477,-40.7467041,-64.31078504,0,-2.00E-10,4.173516077,174.7720735,163.021631,,,,
494.6879997,1932,0,-9.809222303,0,13.59709629,0,47.00746373,-361.8439491,-143.1529693,38.95810183,118.5499263,112.1418654,0,-2.00E-10,68.08312923,-157.6047285,-112.8581191,,,,
494.6959997,1932,0,-199.7433074,0,-3.44768262,0,46.91746604,-110.3246044,280.8407213,-31.03716773,-86.61051733,-99.58511418,0,-2.00E-10,-67.17213865,115.196286,98.92162976,,,,
494.7039997,1932,0,723.4048147,0,-28.74552345,0,-93.28841428,-694.7287218,-540.1390972,-89.49226721,71.05643849,38.4055831,0,-2.00E-10,105.6589459,45.35140937,57.4119141,,,,
494.7119997,1932,0,47.45600078,0,8.846580287,0,25.70834296,-420.3359633,-183.6312016,58.84428634,150.1837319,107.7294291,0,-2.00E-10,61.96174769,-155.5924546,-115.8945414,,,,
494.7199997,1932,0,-288.2534852,0,-3.604307396,0,50.04278203,-85.63093411,347.6871475,18.50781376,-88.09700191,-113.2807946,0,-2.00E-10,-93.56343503,105.4685398,93.58893506,,,,
494.7279997,1932,0,305.0665334,0,-2.25165849,0,-22.01761002,-474.9418923,-236.9215307,-23.50966507,52.98747403,12.36725052,0,-2.00E-10,33.01286859,-3.399012649,12.13976182,,,,
494.7359997,1932,0,-64.69098741,0,4.096541438,0,28.01763113,-315.191044,-17.9070382,14.66206395,78.89757064,38.76007469,0,-2.00E-10,6.144809713,-74.57810914,-56.84962497,,,,
494.7439997,1932,0,-127.4922785,0,-26.20651936,0,3.060098557,-209.8389406,175.6616687,-67.73601629,-91.38233559,-90.73781412,0,-2.00E-10,-42.22861144,75.80110536,69.60149749,,,,
494.7519997,1932,0,257.7762743,0,-14.23819915,0,-30.18740431,-481.2854895,-235.8994648,-61.9700104,26.46939176,4.963031567,0,-2.00E-10,48.72154353,-37.67929643,-14.37947725,,,,
494.7599997,1932,0,-174.9939386,0,12.42567261,0,53.1059064,-224.8055018,110.8882678,48.63349696,38.06352979,-6.69885593,0,-2.00E-10,-28.09997915,-49.28872215,-30.35154981,,,,
494.7679997,1932,0,85.27413523,0,6.382178442,0,14.99280578,-301.9324322,12.95439732,-4.872206219,-3.125984918,-48.04038703,0,-2.00E-10,-33.12049624,73.5285833,72.31156912,,,,
494.7759997,1932,0,143.1633006,0,17.03407444,0,19.47912663,-418.9079096,-196.8609377,58.53083535,114.9452676,80.80729753,0,-2.00E-10,26.80096598,-78.92717133,-55.969086,,,,
494.7839997,1932,0,-206.3456457,0,18.85438264,0,59.28701018,-153.1322506,197.5091491,77.21125784,-11.82738109,-26.58735737,0,-2.00E-10,-68.66986575,32.68047713,30.62129855,,,,
494.7919997,1932,0,288.9219038,0,7.426096516,0,-14.88206261,-437.7223521,-200.3325572,-20.84496512,38.46852272,6.82093916,0,-2.00E-10,4.015520854,34.007217,40.38187589,,,,
494.7999997,1932,0,-123.4926569,0,15.94691364,0,48.27925854,-261.6147015,15.85451219,48.9878434,67.14110355,46.92890093,0,-2.00E-10,-15.82446611,-89.3023481,-67.23653842,,,,
494.8079997,1932,0,-2.205686412,0,-13.20225888,0,0.285629114,-234.3496517,96.10113058,-21.01892241,-64.21888159,-79.75308157,0,-2.00E-10,-55.05581123,105.5475235,93.49723923,,,,
494.8159997,1932,0,184.6415461,0,-17.04947266,0,-23.43946011,-453.8466779,-248.4668733,-9.097300386,95.30194469,53.80088572,0,-2.00E-10,45.76505124,-79.52616494,-56.47442923,,,,
494.8239997,1932,0,-272.4318812,0,-18.24428602,0,31.95497743,-141.3289408,216.5176584,-17.47812902,-47.36808357,-62.7709949,0,-2.00E-10,-56.59629044,13.5914657,10.82783991,,,,
494.8319997,1932,0,252.0764478,0,-54.02157899,0,-75.87422521,-441.5862453,-179.8077367,-109.0292065,-51.51216241,-47.26048575,0,-2.00E-10,16.80849101,50.59974949,47.88324906,,,,
494.8399997,1932,0,-134.0341391,0,-37.15384811,0,-3.372096675,-299.4200578,-15.74487281,-3.653983276,33.71865199,7.713982898,0,-2.00E-10,19.01421905,-122.4359868,-97.60427169,,,,
494.8479997,1933,0,-15.93541069,0,-30.17650314,0,11.78192724,-221.0693788,127.8041314,-63.74228654,-88.84943873,-129.3750459,0,-2.00E-10,-39.98728284,102.1914948,90.09910951,,,,
494.8559997,1933,0,253.5141375,0,8.754842228,0,40.19148478,-455.1760067,-266.7242564,43.50007302,120.5377516,76.87002588,0,-2.00E-10,66.7426202,-80.07334026,-55.86800072,,,,
494.8639997,1933,0,-215.0185707,0,50.27693169,0,147.4560255,-99.64363182,232.5731771,109.1240522,56.73104397,-3.101654118,0,-2.00E-10,-43.25912962,26.19567574,25.45273529,,,,
494.8719997,1933,0,337.4285797,0,34.44614809,0,57.12379914,-387.9646521,-156.5327794,4.924759529,76.78285333,24.05310554,0,-2.00E-10,23.71064438,87.55815984,88.8179867,,,,
494.8799997,1933,0,-65.51780768,0,43.50444607,0,100.4344552,-253.2889597,-5.658242464,127.8490081,152.0489216,108.6278684,0,-2.00E-10,20.13490216,-92.43752547,-62.38685592,,,,
494.8879997,1933,0,-0.786770906,0,17.96415232,0,53.83604568,-169.6061921,160.0540826,-4.169429176,-20.27141005,-65.04232226,0,-2.00E-10,-41.77898183,138.5111809,127.191693,,,,
494.8959997,1933,0,430.3505901,0,24.67994943,0,9.277643282,-597.1401614,-514.6062945,22.56578794,234.9205601,196.4541003,0,-2.00E-10,146.1013975,-181.6232993,-128.8903069,,,,
494.9039997,1933,0,-111.2268908,0,48.6249648,0,101.2313475,-305.0031136,-121.6411129,139.7202493,230.6662567,188.0371141,0,-2.00E-10,75.49392335,-238.6562899,-183.5985391,,,,
494.9119997,1933,0,65.28172113,0,17.41008127,0,43.54561144,-236.2523148,53.32200718,-13.79526606,13.06724582,-23.72762108,0,-2.00E-10,-5.287805689,88.59334017,87.20808905,,,,
494.9199997,1933,0,21.64324367,0,14.85446052,0,42.05129038,-241.5885931,40.32350754,18.79128576,37.61851354,11.52069372,0,-2.00E-10,6.359214569,43.95819924,49.97155598,,,,
494.9279997,1933,0,96.08400299,0,0.949144845,0,10.69692309,-312.4015199,-58.64980049,24.78208085,54.75925088,30.8393937,0,-2.00E-10,21.78316018,6.99898852,21.21846224,,,,
494.9359997,1933,0,-3.036342728,0,-7.949963124,0,4.281364067,-266.7375788,9.898310145,9.277101488,16.32581306,5.746282438,0,-2.00E-10,11.44608215,-12.90359513,3.951071558,,,,
494.9439997,1933,0,-20.91929726,0,-19.30785157,0,-9.140553195,-219.0842574,100.8294486,-23.73893257,-47.44659136,-53.92736223,0,-2.00E-10,-13.14926199,61.83684016,67.01584383,,,,
494.9519997,1933,0,157.5293353,0,-28.06915932,0,-36.60682113,-395.9914391,-167.2640665,-24.93475815,52.927163,45.08077376,0,-2.00E-10,60.38605566,-50.99203262,-18.5829855,,,,
494.9599997,1933,0,-191.3088106,0,-18.75523464,0,15.36053585,-156.8978103,173.6351678,3.587837582,-29.31444205,-36.28404787,0,-2.00E-10,-17.7800425,8.91011678,24.30907513,,,,
494.9679997,1933,0,218.9179101,0,-22.50522106,0,-39.69500593,-370.1246446,-127.1695176,-39.22745426,-1.372679387,-26.8504575,0,-2.00E-10,22.78724897,38.53717884,48.98518898,,,,
494.9759997,1933,0,-43.63682469,0,11.00345731,0,29.00488943,-272.9294342,-29.73584138,66.70802334,99.03462222,60.64052429,0,-2.00E-10,21.05959777,-92.1183171,-64.17955898,,,,
494.9839997,1933,0,-32.92640211,0,4.227247588,0,22.04832501,-179.3494266,140.1944955,21.57866227,-16.53223043,-43.07568999,0,-2.00E-10,-41.27035005,102.2982471,94.51970204,,,,
494.9919997,1933,0,221.1867094,0,-8.353119905,0,-18.96267827,-433.5787381,-245.4474944,-1.067458382,90.10677512,79.32617859,0,-2.00E-10,62.17168395,-63.94923823,-37.32267802,,,,
494.9999997,1933,0,-247.6077566,0,5.004825871,0,49.1303574,-118.3543959,214.0492463,25.6149797,-12.69809948,-26.0584074,0,-2.00E-10,-35.24479459,3.476386941,13.44920828,,,,
495.0079997,1933,0,262.2644974,0,-6.049432974,0,-25.81414079,-377.5113402,-141.4533947,-18.06991003,18.09502777,-11.2224699,0,-2.00E-10,15.27082824,64.96033259,71.32608675,,,,
495.0159997,1933,0,-77.58484712,0,2.899787863,0,20.37736121,-274.4334834,-33.88085243,57.54986195,84.39493089,73.0445422,0,-2.00E-10,21.37475959,-113.9637965,-79.04107017,,,,
495.0239997,1933,0,-62.7191571,0,-22.53081043,0,-18.43295337,-173.6211441,165.0302835,-48.95393929,-90.8754715,-85.75550458,0,-2.00E-10,-45.99956516,102.5989663,101.660953,,,,
495.0319997,1933,0,236.4387341,0,-15.25956697,0,-46.5379969,-446.2114723,-264.6522992,-1.693289079,101.560558,72.7205771,0,-2.00E-10,67.45596382,-82.52603295,-48.61966577,,,,
495.0399997,1933,0,-273.3720311,0,-2.28224163,0,28.67598583,-103.1880216,228.238904,28.55819205,2.461763124,-22.42597718,0,-2.00E-10,-36.54312325,-6.168748231,3.097954283,,,,
495.0479997,1933,0,256.9485384,0,-32.76857174,0,-68.67836609,-387.2917012,-148.927758,-86.05667099,-27.30108631,-36.88165714,0,-2.00E-10,26.88086461,61.9995868,69.85383885,,,,
495.0559997,1933,0,-85.10953363,0,-3.846496777,0,6.776309418,-279.2601128,-47.57346734,56.57509768,85.07078403,51.52769829,0,-2.00E-10,35.42712246,-131.5273657,-94.10170235,,,,
495.0639997,1933,0,-59.7624355,0,-11.29105851,0,-2.925620409,-163.504328,159.7681695,-14.3421565,-62.09850106,-93.23059869,0,-2.00E-10,-45.5116861,108.5871657,100.252266,,,,
495.0719997,1933,0,230.1443621,0,-20.84404607,0,-50.53078099,-450.9431147,-281.7402829,-32.49552781,82.03139388,64.90917718,0,-2.00E-10,76.07924062,-80.97531727,-49.70511182,,,,
495.0799997,1933,0,-297.3961465,0,-12.19473928,0,15.96328243,-104.7749443,223.9682878,5.846982921,-26.84030138,-38.78918215,0,-2.00E-10,-26.05608932,-9.841067775,-0.17850355,,,,
495.0879997,1933,0,257.4137408,0,-24.7867133,0,-62.73133211,-385.0366559,-153.9290349,-64.25575157,-2.253191176,-37.26832671,0,-2.00E-10,24.55106232,70.1328359,71.64462284,,,,
495.0959997,1933,0,-94.68780052,0,-6.782785899,0,0.139047841,-282.7613067,-54.12717345,44.80140602,93.92562814,57.17459272,0,-2.00E-10,35.59452659,-127.5157613,-94.73493475,,,,
495.1039997,1934,0,-92.62466676,0,-39.4323703,0,-38.61571062,-172.9020266,163.3920777,-69.95170244,-115.2678639,-118.4175314,0,-2.00E-10,-37.15063957,106.6171319,96.94879505,,,,
