Time:125Hz,Epoch,FP1,FP2,C3,C4,P7,P8,O1,O2,F7,F8,F3,F4,T7,T8,P3,P4,,,,
786.2719994,3071,-315.8164209,2460.618564,-130.1899089,3.952957606,150.9678428,0,58.10061304,0,-4.530826837,-18.42375006,-1.22229055,48.13699941,-17.28775127,-32.98700893,0,3173.414698,,,,
786.2799994,3071,76.41410906,2670.118838,-31.36966216,-80.72340747,44.22200103,0,68.47706516,0,-22.56979166,-75.14672899,21.62298045,-213.8301811,1.911677266,-111.8221318,0,3384.890355,,,,
786.2879994,3071,50.46944099,2659.864311,-103.5526368,-34.05201872,102.6955362,0,-136.8642193,0,2.182159798,4.929267913,12.28278386,311.1966699,-31.72445901,65.1363228,0,3246.569916,,,,
786.2959994,3071,-294.8999207,2393.5781,-96.80329027,-31.00258492,98.7189324,0,173.6935745,0,-25.1922068,-81.00190798,-29.31592586,-248.2003874,-16.91572508,-129.3308251,0,3293.526047,,,,
786.3039994,3071,352.1176106,2805.707274,-19.37289715,-47.74543212,59.13241854,0,-136.8954563,0,0.547829958,-19.90230191,43.82851628,141.4355243,-11.08999086,7.228325431,0,3372.421921,,,,
786.3119994,3071,-258.0524589,2395.306056,-113.6964003,22.19724315,146.1562056,0,39.70129559,0,13.59339017,-7.422346199,15.01722156,90.40521347,3.345484456,-33.67692741,0,3182.884019,,,,
786.3199994,3071,135.6311407,2619.628,-6.311165609,-44.86375664,54.74293634,0,58.06938061,0,3.095857274,-61.30455141,41.97820999,-177.5847891,27.52269219,-118.5548645,0,3380.414517,,,,
786.3279994,3071,141.9933064,2633.487515,-75.27760795,-18.52077417,107.5068544,0,-139.9716711,0,15.50821258,19.28036092,32.24542331,366.7126388,-19.69043635,69.6517586,0,3254.793314,,,,
786.3359994,3071,-241.6446932,2349.325089,-83.05275541,-34.55989635,86.42207715,0,188.2347283,0,-23.74728229,-78.90108821,-18.45369372,-192.3076333,-14.00860869,-117.886915,0,3309.085368,,,,
786.3439994,3071,399.0943206,2770.212906,-10.61192602,-62.39521953,29.60699067,0,-115.3201998,0,-2.608565434,-24.34091714,38.84330955,165.2507078,-29.00169761,12.10104555,0,3401.007155,,,,
786.3519994,3071,-211.6187835,2364.499944,-111.835949,-15.71970735,124.6569017,0,68.24345653,0,-3.578046156,-16.01455631,-10.04350231,123.8523069,-33.76280931,-16.66010233,0,3223.334307,,,,
786.3599994,3071,145.5205987,2576.549563,-13.89007145,-73.78844147,42.27318737,0,104.2148014,0,-24.04008434,-86.11721849,4.633759354,-180.861768,-2.606728433,-101.1023904,0,3441.420392,,,,
786.3679994,3071,176.4486798,2612.57322,-78.47724045,-29.64710535,88.29558049,0,-118.8671778,0,7.315983599,8.160217124,17.68197363,347.2537886,-37.28186185,79.33258193,0,3307.437852,,,,
786.3759994,3071,-217.272744,2316.839237,-83.84797721,-46.10123754,88.77002278,0,200.9907471,0,-18.33461614,-71.69781704,-17.73368257,-215.4173257,-18.71718366,-118.4976744,0,3331.582205,,,,
786.3839994,3071,427.6036054,2728.629281,0.103754398,-72.30267713,38.30161795,0,-97.17493951,0,5.995701209,-18.89703692,42.80402858,124.8458876,-8.278312229,5.867003796,0,3423.543582,,,,
786.3919994,3071,-178.3907494,2311.011108,-102.340996,-16.48366678,110.8918438,0,77.07191314,0,1.704098587,-11.26145806,-7.20687284,111.4886973,-25.00734747,-5.465828416,0,3253.787237,,,,
786.3999994,3071,156.5729756,2507.972255,-4.183995897,-66.57783169,39.55676865,0,117.2582612,0,-14.59764986,-71.07156172,15.67505759,-200.6170933,-5.735838788,-93.30742116,0,3468.508604,,,,
786.4079994,3071,218.2653222,2566.855774,-49.29600162,-20.03679527,90.90968661,0,-108.2235807,0,27.02887278,34.45731719,39.41964634,348.3269177,-16.34406821,91.17339755,0,3333.589809,,,,
786.4159994,3071,-196.6476705,2252.212648,-62.43935784,-33.09888917,80.59505579,0,220.9222827,0,-15.30559972,-60.97591323,-24.80601763,-199.3554114,-9.58351252,-90.94057364,0,3376.132799,,,,
786.4239994,3071,439.9566307,2655.494906,11.60973536,-61.75711262,37.7623908,0,-87.51643453,0,-1.541528816,-23.17360821,23.73577337,114.9349395,-14.43697788,24.11303496,0,3475.330198,,,,
786.4319994,3072,-149.4385099,2240.280427,-85.69493884,-13.69740713,116.1509191,0,68.32999399,0,4.820117206,-7.933977346,-8.761012852,111.6090977,-14.576067,-2.286973239,0,3267.878564,,,,
786.4399994,3072,173.0075095,2415.065086,6.334955527,-68.49018169,40.09669967,0,121.8694579,0,-19.92392104,-78.38623562,5.908616423,-222.8370865,0.837643252,-107.1900906,0,3473.935759,,,,
786.4479994,3072,251.5629846,2476.869195,-47.06294043,-11.74580411,103.9568231,0,-121.7983444,0,10.09431203,16.84327034,27.82714612,331.8138168,-19.53278974,78.94310447,0,3345.392638,,,,
786.4559994,3072,-190.9390364,2131.485265,-55.24181325,-33.14932882,93.18673436,0,218.2584053,0,-16.36607874,-69.23352117,-20.27129782,-208.1732988,1.829214367,-102.8925107,0,3358.997636,,,,
786.4639994,3072,449.9336555,2537.862409,22.8483371,-82.0403622,21.55569284,0,-58.10631382,0,-5.330032781,-37.71096653,10.45984734,91.71222199,-16.99592872,20.19599456,0,3485.02037,,,,
786.4719994,3072,-125.2557561,2144.209316,-89.70641755,-22.9706274,99.57093253,0,92.18970288,0,-18.29276379,-26.01104089,-43.20287562,106.7180097,-35.3204659,18.32877823,0,3312.917314,,,,
786.4799994,3072,159.7690066,2285.684589,-4.615631842,-89.73234162,10.06857722,0,163.056788,0,-44.15102383,-99.56616206,-28.03491067,-254.8584336,-21.37944199,-93.3653453,0,3519.146207,,,,
786.4879994,3072,253.9668533,2345.736925,-53.09962569,-51.27103677,59.2290635,0,-77.37456991,0,-16.79946047,-10.9256422,-12.73089238,302.5708406,-53.31794857,93.46528312,0,3406.752192,,,,
786.4959994,3072,-195.6069393,2001.297679,-67.58416192,-40.32521118,87.73817799,0,247.8576353,0,-44.47432033,-88.03181019,-52.77256081,-231.5457963,-11.3013228,-89.03880321,0,3422.61917,,,,
786.5039994,3072,449.9664446,2421.541626,16.03649295,-61.90047205,31.75231855,0,-51.05387804,0,-16.35917988,-44.66865886,9.244512149,47.89049796,-7.247171858,14.39199607,0,3527.891227,,,,
786.5119994,3072,-109.925403,2037.500877,-79.98578137,0.498775697,112.3430326,0,75.36348939,0,-4.932108762,-22.99353719,-25.69737892,89.43649104,-15.75861585,11.17041428,0,3319.177812,,,,
786.5199994,3072,164.7108852,2175.979214,17.85046292,-65.09123264,37.09005908,0,152.727787,0,-20.22239023,-95.72676527,-5.653324036,-283.9343552,21.05347366,-100.8864525,0,3515.251169,,,,
786.5279994,3072,290.7651077,2261.877423,-25.18547922,-29.73459739,70.11883259,0,-97.32916914,0,5.902794683,-5.682148506,11.98865133,283.8454493,-19.90144314,96.72052914,0,3413.978515,,,,
786.5359994,3072,-171.6755126,1902.689093,-41.31566082,-15.24193435,93.54314991,0,229.5669835,0,-18.38004971,-71.88565053,-24.69847268,-228.5028067,-0.194556324,-82.23592466,0,3416.675396,,,,
786.5439994,3072,475.3865254,2334.02628,47.7384488,-58.21242624,40.72076775,0,-59.94886658,0,6.640690249,-24.6796631,40.20675087,44.79941176,6.391908252,16.02837253,0,3523.081428,,,,
786.5519994,3072,-75.68652606,1972.085545,-59.43661799,-11.82049739,119.1068725,0,59.16246346,0,0.262833754,-14.51161575,-13.29056218,113.1238135,-9.915249842,24.99072065,0,3323.071922,,,,
786.5599994,3072,169.7415357,2106.66832,28.68495282,-53.17641623,53.71420957,0,138.4506328,0,-11.29361114,-85.96204493,15.52414474,-273.9668674,29.19359348,-101.1165659,0,3500.701113,,,,
786.5679994,3072,293.6850095,2208.158493,-11.84136712,-45.41265153,62.03706234,0,-110.4787536,0,14.20548666,4.419954828,42.30448884,303.4002301,-10.29516664,95.12040619,0,3382.379854,,,,
786.5759994,3072,-216.0418963,1821.393962,-47.50125644,-64.72735013,63.54930874,0,243.9860477,0,-46.66457176,-99.28695107,-45.7926287,-201.65711,-21.02177524,-65.96585681,0,3403.273174,,,,
786.5839994,3072,418.2137328,2263.369747,40.51171315,-67.18334027,42.42536172,0,-48.41499519,0,-17.42049685,-53.96680076,17.74190375,38.44333923,-9.63296834,24.25360681,0,3527.580151,,,,
786.5919994,3072,-143.1432536,1912.370121,-50.33307544,-12.26207499,115.4046959,0,58.04313115,0,4.707290769,-11.7202348,-1.850502587,121.6793794,-5.926763703,32.13456881,0,3310.858961,,,,
786.5999994,3072,53.55446223,2004.86193,35.10045591,-73.49739936,35.43114384,0,164.7197367,0,-21.46005071,-95.09453019,0.543019157,-285.0112508,21.85468385,-90.24157361,0,3506.154232,,,,
786.6079994,3072,202.1950164,2146.155578,-3.067733681,-25.09107026,94.53543085,0,-120.4997582,0,19.30434228,4.656142133,29.98205852,282.1866355,-7.238129383,100.8331291,0,3393.629422,,,,
786.6159994,3072,-323.9731396,1768.405198,-25.7392827,-35.55848623,87.59343193,0,221.8849064,0,-4.589814619,-70.58263209,-16.73454661,-217.6292809,7.679537681,-69.34136619,0,3371.084168,,,,
786.6239994,3072,311.4906169,2165.287663,66.66864678,-71.76668231,23.9750979,0,-40.84959847,0,1.643283551,-44.04768302,33.14303684,12.63907209,9.826845853,34.90229694,0,3514.666679,,,,
786.6319994,3072,-205.5402344,1827.571679,-33.08372455,-6.657160846,123.9183131,0,53.38198146,0,4.795504395,-8.991490874,-6.926902491,128.1201219,-2.850362939,63.93631318,0,3314.403079,,,,
786.6399994,3072,-9.997041179,1927.333009,48.74856853,-63.3298489,46.58733773,0,165.2451347,0,-12.67647092,-86.29558055,7.656860494,-291.4307842,22.48135434,-75.22411303,0,3485.301849,,,,
786.6479994,3072,173.4646363,2054.545203,16.04864868,-15.9755842,98.15431617,0,-133.6458405,0,29.45974773,17.80651432,51.51145959,282.6676743,8.240236805,108.6832505,0,3360.801261,,,,
786.6559994,3072,-343.287931,1668.498032,-13.16523253,-24.78733087,102.5938008,0,207.9956866,0,3.004921303,-50.79868513,3.378122198,-189.5069676,31.45620866,-56.84688148,0,3328.172021,,,,
786.6639994,3072,296.885645,2080.904879,67.44909379,-88.57404769,15.93981019,0,-38.95175028,0,0.448822808,-40.97235359,35.29634373,16.28106423,9.142085749,36.84396661,0,3475.024891,,,,
786.6719994,3072,-308.6115453,1685.298223,-90.41420063,5.635294409,159.455777,0,-43.32347343,0,13.64304335,37.73756895,-11.76528757,398.0750725,-25.39715804,150.9738608,0,3169.939212,,,,
786.6799994,3072,-188.0264595,1719.737911,-43.378802,-25.23907801,112.3802262,0,40.54619392,0,-10.1228423,-11.51084347,-7.630866668,124.4437852,-10.72162712,70.22625551,0,3300.353444,,,,
786.6879994,3073,342.9810719,2067.693467,0.634080348,-36.28463393,79.91631798,0,-268.4870689,0,9.721392113,43.51902848,37.45650147,537.995106,-31.96322437,219.9853555,0,3333.912147,,,,
786.6959994,3073,-254.4032021,1649.552995,-65.74536024,-5.643243491,136.1033416,0,-2.717851727,0,1.504511518,11.03273481,-9.810157692,275.5119436,-18.36747237,115.2335412,0,3191.126905,,,,
786.7039994,3073,-25.52913596,1764.097872,8.668570612,-51.65345761,65.08528798,0,63.52931964,0,-13.16524575,-44.07951248,9.203356039,-29.64112802,-1.612687585,22.94360384,0,3353.996412,,,,
786.7119994,3073,-32.41403656,1741.447408,27.11536145,-58.69384341,51.47307576,0,118.0640657,0,-10.42526282,-56.88992551,13.89442222,-161.8990379,4.629325474,-19.31459757,0,3381.888877,,,,
786.7199994,3073,34.86577278,1774.562044,22.53788034,-52.25659072,59.57862462,0,35.63022534,0,-4.422211385,-24.31913319,11.24034307,26.6895087,-2.994920921,54.18307225,0,3343.411536,,,,
786.7279994,3073,-63.55853147,1690.180859,8.341638659,-41.12057979,74.56518997,0,76.86690275,0,-12.4536847,-31.48597923,-4.450678374,5.826740538,-3.956257734,50.3247818,0,3315.160527,,,,
786.7359994,3073,-31.0950858,1691.558016,46.41745993,-60.64283759,47.81222975,0,167.3921257,0,-19.35307807,-70.75020382,3.736258133,-254.1374985,14.30391966,-39.16704709,0,3389.837431,,,,
786.7439994,3073,114.1609508,1797.828587,21.50150237,-34.68730314,68.53260289,0,-39.45953621,0,-0.727738817,-1.675367644,16.6225479,173.9481192,-7.606432429,112.2550475,0,3318.023365,,,,
786.7519994,3073,-234.9683921,1541.216562,6.110474576,-36.76249594,77.38022621,0,210.0537956,0,-19.43828358,-60.48701555,-17.89204677,-215.144083,15.4279647,-19.89572792,0,3323.048612,,,,
786.7599994,3073,202.4133797,1811.708858,63.99657436,-89.21249362,20.45636144,0,22.82264554,0,-9.434439834,-34.84247138,18.61728277,-46.75040773,11.38533716,39.3455341,0,3399.832883,,,,
786.7679994,3073,-139.3105173,1578.449113,-7.093528684,-58.34317623,65.16746583,0,75.58684875,0,-16.48212361,-21.75060938,-22.84440814,79.86704856,-14.94691117,74.69590756,0,3256.514529,,,,
786.7759994,3073,-74.12073627,1601.849975,49.80405217,-84.08314965,24.1305805,0,213.3951352,0,-37.09919225,-98.69713915,-15.21273113,-325.8919132,3.345132479,-52.27109592,0,3403.824442,,,,
786.7839994,3073,145.6351432,1760.999647,25.78893642,-67.6060709,43.52715746,0,-63.70748515,0,-2.733546874,-10.08334984,26.62791399,193.4476521,-21.57515383,124.0785943,0,3319.344256,,,,
786.7919994,3073,-369.4499702,1399.351575,-5.399868399,-43.66472438,81.2691897,0,235.7065392,0,-11.41831885,-62.72291209,-10.33539469,-221.900822,14.52252457,-27.3856028,0,3272.451145,,,,
786.7999994,3073,195.3977905,1765.124713,91.20268213,-70.00445266,32.82326948,0,9.890651435,0,11.06789031,-27.74775587,54.23714323,-67.95547265,34.04286977,27.75592207,0,3388.587068,,,,
786.8079994,3073,-216.8430679,1487.27411,13.36733906,-28.95469052,83.91798637,0,61.26753615,0,10.82640919,6.19581254,10.61445374,123.7972337,3.966165191,80.44598822,0,3202.139525,,,,
786.8159994,3073,-146.4529701,1496.40839,78.78701483,-69.42841006,21.76903282,0,224.3588717,0,-20.31591152,-78.76650541,-4.340410903,-322.3792066,25.43146269,-59.73761358,0,3374.230649,,,,
786.8239994,3073,130.0293541,1680.90379,58.27689998,-55.66936604,41.0142389,0,-77.05239223,0,6.121488885,16.13898924,38.78382188,229.7495461,-0.573141567,127.4005937,0,3296.774773,,,,
786.8319994,3073,-437.1213124,1275.9597,10.44898635,-48.11789263,60.06266668,0,253.4297504,0,-21.77604632,-57.59952885,-16.52681641,-187.8780527,8.779023388,-17.58311758,0,3251.172581,,,,
786.8399994,3073,165.2792704,1667.403464,96.77203469,-86.34014016,-4.475981663,0,24.95033405,0,-15.3252994,-55.84572672,20.07367454,-71.94579298,8.058628227,34.61844133,0,3407.433318,,,,
786.8479994,3073,-247.3443859,1389.320211,6.097508187,-29.59777197,86.02748829,0,47.74917927,0,-0.260916668,-7.270315489,-9.678709962,116.9891983,-11.40867131,79.87209152,0,3179.581957,,,,
786.8559994,3073,-185.1596619,1382.571404,76.37011811,-74.7143056,21.51947033,0,223.9170936,0,-20.40578906,-89.10390526,-7.372672437,-371.2098433,24.2804336,-72.72688997,0,3335.362234,,,,
786.8639994,3073,93.16755435,1586.493633,57.00584575,-58.47681661,30.08936984,0,-86.99674648,0,4.109839646,1.148853318,26.36745192,192.5413508,-7.739189844,126.6867356,0,3275.449939,,,,
786.8719994,3073,-501.8555891,1188.802828,12.75552288,-32.90476245,75.60854154,0,234.5024724,0,-11.83870989,-50.78638581,-18.36565222,-210.1382863,15.67049518,-19.5647341,0,3209.175413,,,,
786.8799994,3073,110.1255393,1591.818677,114.9963467,-69.04454596,8.22323331,0,16.92424234,0,7.770141564,-38.49453289,34.02813724,-101.2406456,42.99063221,27.05745342,0,3361.693793,,,,
786.8879994,3073,-316.8715238,1303.280362,20.64741601,-22.82580183,78.56063728,0,45.41571674,0,11.82660204,0.045872888,-12.35120337,140.4301173,4.336867739,95.11009357,0,3150.676142,,,,
786.8959994,3073,-279.2484949,1283.221279,86.17142321,-60.94920358,24.99102046,0,226.6779767,0,-22.17790383,-87.78602058,-18.70376224,-339.1327149,22.90143822,-60.64633869,0,3314.971532,,,,
786.9039994,3073,40.30082412,1516.41032,73.61669567,-33.67048385,41.79364854,0,-105.3506607,0,15.71489958,9.773480639,34.8505126,232.7448002,14.14464433,123.0119582,0,3236.889939,,,,
786.9119994,3073,-559.6018204,1095.938682,21.03385194,-38.73997425,60.36971938,0,230.5716135,0,-4.001910503,-58.08776251,-20.70928212,-138.9603622,14.11240018,-17.4818036,0,3163.639434,,,,
786.9199994,3073,50.03340159,1488.908943,113.2826651,-86.90433217,-9.341598038,0,24.55853139,0,-3.054645807,-69.700592,15.56232745,-47.28449972,7.48064752,33.01811474,0,3348.628228,,,,
786.9279994,3073,-351.3683035,1230.521033,19.96201048,-24.52597184,79.2961139,0,23.21714289,0,13.80247657,-21.13200018,-9.274579318,189.1439882,4.43040995,94.62809009,0,3123.000557,,,,
786.9359994,3073,-317.5438456,1195.073854,90.40749018,-87.45522196,2.131781583,0,235.2601588,0,-21.32959758,-118.0997834,-22.94633851,-316.8832312,35.22414591,-66.12148045,0,3279.182352,,,,
786.9439994,3074,35.86159072,1435.732067,73.59139449,-56.28973608,19.59138992,0,-90.69354888,0,-2.39459043,-39.98163312,5.426601191,240.6357546,-7.405139919,134.9375466,0,3242.984305,,,,
786.9519994,3074,-562.4935589,1007.398484,15.27286538,-18.64665095,74.87476138,0,218.827925,0,-4.311612957,-82.33593316,-23.63984491,-136.6631995,16.59868779,-9.549070095,0,3146.289448,,,,
786.9599994,3074,63.2292172,1383.522207,121.4347772,-66.28992248,-1.342635739,0,17.43485163,0,11.32074657,-69.76382738,42.66009582,-65.77158244,37.07263749,25.46656887,0,3299.505639,,,,
786.9679994,3074,-308.6201996,1133.64869,29.72501645,-17.2893981,80.26809311,0,12.70909857,0,16.63979586,-17.30538449,8.961968703,206.4415428,6.963567699,105.6914491,0,3080.430039,,,,
786.9759994,3074,-305.1442886,1077.303973,91.65120126,-85.84693294,8.889490401,0,243.1698535,0,-24.78553949,-113.6133512,-13.47376515,-304.2013484,26.41473595,-56.35904322,0,3238.826832,,,,
786.9839994,3074,61.55495961,1323.887912,74.89555325,-45.88443855,22.51082145,0,-91.80044348,0,-7.008780502,-35.30498344,17.08470301,237.3778111,-4.268169142,137.2079554,0,3204.520518,,,,
786.9919994,3074,-546.8530362,895.3641803,14.76580722,6.887101286,93.30538221,0,197.614575,0,-1.080692559,-70.62539293,-7.983064487,-140.7683723,40.43397545,-18.71161751,0,3077.8144,,,,
786.9999994,3074,68.47436533,1255.712053,128.5618341,-63.37302829,3.078633556,0,16.63978495,0,9.651662238,-70.47117019,48.5444386,-92.57821055,61.37271378,-0.126337772,0,3221.989529,,,,
787.0079994,3074,-289.6501001,1004.81185,33.87274466,-7.095530207,65.99448252,0,3.329690392,0,5.819050492,-29.38947489,-0.889586179,203.1435405,9.37352596,97.0804774,0,3024.019247,,,,
787.0159994,3074,-298.6896926,942.4579861,101.9849503,-32.99916151,23.15074536,0,217.884544,0,-5.427593004,-104.3636703,1.99200381,-317.6799264,47.26117236,-79.25318403,0,3157.734496,,,,
787.0239994,3074,98.45034032,1185.975454,108.8125455,-35.62661526,6.988388374,0,-94.0208643,0,21.34824392,-20.4470855,44.06036622,240.8072156,26.85331888,115.1217092,0,3114.90031,,,,
787.0319994,3074,-530.2345837,733.9123563,29.85680424,-34.54416704,26.42387382,0,246.0112014,0,-25.25581028,-90.48708531,-41.1917806,-91.23025321,8.221898991,14.32951315,0,3058.820993,,,,
787.0399994,3074,62.67580944,1139.617056,119.7792842,-73.19108415,-26.02665353,0,62.59333981,0,-28.10221532,-101.5868809,-2.986863774,-74.56160423,6.177083997,36.38596431,0,3250.216021,,,,
787.0479994,3074,-298.3596788,954.9659641,27.06430442,-5.503163771,70.6520391,0,8.855186794,0,2.438342204,-39.02277679,-16.90753489,217.6259671,9.115510595,105.8145815,0,3007.481398,,,,
787.0559994,3074,-362.7149208,895.8234789,94.82947644,-51.72930763,16.21025785,0,237.4381734,0,-12.41813362,-128.0714601,-23.43735049,-317.818693,61.39419029,-79.67534642,0,3126.867511,,,,
787.0639994,3074,35.77647999,1179.222148,100.729119,-40.25202575,10.61342615,0,-90.34211972,0,7.374363893,-54.82505385,13.79513076,223.4963624,20.06815992,112.1434674,0,3098.804628,,,,
787.0719994,3074,-612.4591116,723.3473578,21.91555578,-22.62312973,41.08291384,0,222.6997903,0,-24.55159331,-110.1795501,-51.02832403,-103.1762753,8.886432898,-0.59708268,0,3001.401235,,,,
787.0799994,3074,-19.44161616,1095.429312,127.7877599,-59.07527792,-17.06481408,0,47.39934779,0,-8.613314716,-109.2449395,7.887667018,-100.4942165,35.6351747,9.733340481,0,3174.985023,,,,
787.0879994,3074,-335.1186169,895.7944149,42.71250428,5.357464238,71.62593715,0,-8.708002313,0,28.75024522,-30.78818847,10.54374261,228.8190252,30.18674809,103.8888622,0,2945.910314,,,,
787.0959994,3074,-411.0169088,788.4086118,94.40206685,-57.59784648,-5.84894089,0,241.9662847,0,-19.08027219,-133.2751075,-17.86231798,-302.8917951,39.42783308,-61.12552054,0,3086.019895,,,,
787.1039994,3074,27.86581407,1089.420175,102.9633182,-29.52759808,4.163726123,0,-100.5033186,0,0.101843959,-57.68874589,18.12078188,226.0807682,7.93391935,122.6576313,0,3064.657831,,,,
787.1119994,3074,-606.6725441,650.5445288,43.27602182,2.326216097,58.34769457,0,203.3057273,0,5.002523202,-87.79995216,-8.784381874,-83.25846741,32.73359855,3.259435722,0,2936.120888,,,,
787.1199994,3074,-30.63026302,1009.485631,153.8540442,-76.1457601,-46.56108143,0,72.61504157,0,-4.388181994,-112.3469188,34.09434926,-85.13093877,42.4115498,26.06353058,0,3135.795258,,,,
787.1279994,3074,-335.6241557,845.4506465,49.66196785,-5.450641241,40.66683735,0,3.265039252,0,-2.259505247,-56.49665098,-5.710348091,250.7659124,5.821280208,132.5840066,0,2941.018737,,,,
787.1359994,3074,-438.3005366,756.3976321,99.00307949,-45.46628907,1.086411529,0,241.6622859,0,-20.58938112,-144.4371233,-17.53937682,-313.5820771,29.99174334,-54.99755729,0,3054.673666,,,,
787.1439994,3074,1.118566811,1071.286249,117.1244858,-49.62393291,-14.28679652,0,-90.64707629,0,5.506088754,-73.58279207,28.63152993,208.5974348,9.244656091,124.6435291,0,3031.657403,,,,
787.1519994,3074,-744.2209074,588.0928562,12.31214098,25.57041275,75.10791901,0,154.3686183,0,6.146118131,-79.10867516,-20.06384623,44.69938503,22.15542788,43.45213604,0,2834.664162,,,,
787.1599994,3074,19.19410631,1070.425656,144.6387734,-16.79713502,1.513552758,0,-132.3856239,0,48.391824,-43.59851891,74.27533503,192.0753759,53.21464214,94.97518088,0,3010.842296,,,,
787.1679994,3074,152.4705385,1160.858508,106.3054248,9.239890096,34.92674206,0,-364.0587249,0,69.22406385,33.3624995,87.80252279,699.0189243,25.12864816,263.7893832,0,2874.75591,,,,
787.1759994,3074,-327.8304461,804.7092871,85.02392002,5.507285378,36.29296858,0,-1.775127312,0,31.10798133,-59.50463817,32.40679123,137.4723382,40.21083076,73.03145477,0,2860.593748,,,,
787.1839994,3074,-151.9947388,899.265617,115.5896309,-12.98757044,13.06598142,0,-59.71093406,0,33.15717178,-59.02265331,47.61873319,160.3093935,41.96623817,85.65525267,0,2900.909364,,,,
787.1919994,3074,-546.7805071,607.4776661,83.20386585,-20.41439302,16.17094526,0,202.3142041,0,-11.40102402,-132.3863156,-12.59639907,-209.5798322,33.22312377,-31.49157944,0,2895.194993,,,,
787.1999994,3075,-119.53363,868.6947246,132.5801684,-46.60547368,-22.38181858,0,-0.547186295,0,2.078041967,-110.3394676,25.40173478,-16.12175482,25.72994086,39.96979005,0,2957.549361,,,,
787.2079994,3075,-366.4859543,694.3831638,61.90540637,-27.86139471,23.95865953,0,-9.288729037,0,8.416349105,-87.1753006,5.34929899,143.2696042,16.46555459,81.40507621,0,2808.449539,,,,
787.2159994,3075,-442.4869623,606.7468518,98.48349534,-74.08650905,-21.14688614,0,210.8481586,0,-39.80911204,-186.3620569,-34.58060538,-347.5975903,22.72584447,-73.86398869,0,2928.438352,,,,
787.2239994,3075,-42.9518874,867.9916756,102.8329982,-65.64309592,-16.79578917,0,-110.5876123,0,-14.44777833,-103.4754366,4.719496177,199.9669812,-12.82154767,110.4172595,0,2893.042312,,,,
787.2319994,3075,-622.6756268,449.6685269,34.93016313,-43.48829035,16.91441687,0,193.7434643,0,-46.00699534,-166.2354343,-47.94641798,-157.7754984,-9.966997202,-15.38887496,0,2819.449319,,,,
787.2399994,3075,-107.873215,765.0026288,130.5929128,-66.79681823,-35.855736,0,43.25350176,0,-35.00317862,-168.3154767,3.073303444,-137.4210277,11.56872033,3.735857813,0,2963.134736,,,,
787.2479994,3075,-330.5413489,613.4658965,61.17544137,-22.40871539,26.95523049,0,-29.61536069,0,-3.631831408,-96.53584683,0.460981519,195.3762392,4.041299149,105.5515111,0,2779.334971,,,,
787.2559994,3075,-479.4686231,473.6133099,93.61829039,-51.7885744,-19.51858823,0,220.0781655,0,-43.86101511,-198.210501,-37.99137959,-349.8060366,18.94109176,-67.11512758,0,2890.810715,,,,
787.2639994,3075,6.360645527,808.1495764,120.8012281,-25.70418639,-10.89096315,0,-131.56512,0,3.042784146,-112.2709635,23.47931096,154.3956401,6.458410638,94.35030966,0,2862.203594,,,,
787.2719994,3075,-635.0559929,371.9028655,42.36109857,-8.349405392,37.25221646,0,150.2381245,0,0.51510339,-136.5262124,-15.18642498,-108.5376557,13.85750127,-14.91077062,0,2716.088747,,,,
787.2799994,3075,-119.5193782,687.7518776,143.7346456,-59.98655859,-41.47956382,0,42.39896107,0,-9.485668401,-163.9737834,14.03625072,-164.7522513,23.35781209,-20.67613632,0,2896.197863,,,,
787.2879994,3075,-316.6019099,567.4529422,63.65151532,10.17900164,48.78916633,0,-72.28999603,0,16.78454433,-92.10938262,7.120001073,232.5882102,8.661794772,93.57999443,0,2701.176059,,,,
787.2959994,3075,-505.5955444,394.8967834,95.9492438,-40.89858213,7.024571713,0,205.2307186,0,-23.19465473,-188.8211063,-23.99742424,-319.4349426,25.11620448,-91.15762557,0,2788.665591,,,,
787.3039994,3075,19.49393056,734.9045772,127.2384759,-56.70941209,-23.83971634,0,-119.6907811,0,-6.192413737,-120.1375611,9.782782707,171.541672,-8.147233968,79.61058169,0,2807.044445,,,,
787.3119994,3075,-643.7297823,306.2315547,30.245706,-6.785332299,37.93900754,0,141.361859,0,-19.19719824,-150.4047384,-50.32017978,-64.01818757,-6.238027863,-10.07748439,0,2665.063482,,,,
787.3199994,3075,-145.7267884,664.5007868,141.2585636,-63.9760692,-39.13491851,0,47.88191316,0,-14.19866243,-174.1292374,1.443398086,-188.7269123,30.59355037,-34.40637413,0,2847.126569,,,,
787.3279994,3075,-357.068279,619.2325973,58.19676665,-20.3372173,32.86544536,0,-74.17975144,0,5.818463876,-90.33493495,-9.790226281,234.6036673,-0.637006707,100.8562877,0,2662.287922,,,,
787.3359994,3075,-597.9566587,516.4644007,82.31885715,-39.28833909,7.300455004,0,202.4704492,0,-43.71772521,-190.7047387,-50.41088595,-339.4236629,4.848820434,-87.29108998,0,2754.263115,,,,
787.3439994,3075,-65.91894443,957.0341146,130.6266337,-35.12319524,-5.557921271,0,-142.664163,0,5.748581193,-101.7788845,33.2493652,135.7635569,14.82333681,66.39266594,0,2754.197168,,,,
787.3519994,3075,-762.0590098,566.477545,34.41797834,-9.691912143,39.2803361,0,121.2790645,0,-5.132619253,-119.5055761,-18.24349632,-62.45284676,18.65195299,-11.35238654,0,2595.886244,,,,
787.3599994,3075,-289.4850955,944.0226114,140.4606624,-61.53128253,-44.17716127,0,51.53769816,0,-25.13575929,-164.3725379,6.811433538,-202.3760537,22.25082346,-34.65399599,0,2803.884778,,,,
787.3679994,3075,-496.6819415,942.2293213,62.69923728,-3.506436894,36.32869209,0,-91.93755185,0,20.10131757,-66.56390567,24.46844771,254.5942992,6.648129513,98.03219859,0,2606.811595,,,,
787.3759994,3075,-788.7592145,832.3457875,86.70752052,-56.40398858,-18.56216285,0,213.3862188,0,-33.72153257,-174.4438586,-27.30629409,-311.9983491,11.40972591,-84.4340112,0,2698.493717,,,,
787.3839994,3075,-236.7981542,1300.20759,131.9314148,-51.17824667,-31.70098485,0,-126.95679,0,-13.65232849,-108.0586275,15.40475844,154.5409967,-9.347699791,86.01920707,0,2743.336786,,,,
787.3919994,3075,-916.9357108,914.0937897,35.26920358,-7.211275107,42.08580523,0,111.822643,0,-4.539313063,-103.7932871,-12.7278589,-26.56500203,20.17260922,1.723884624,0,2557.816077,,,,
787.3999994,3075,-443.7671317,1244.507581,141.8373798,-91.10935221,-68.61078127,0,69.76738286,0,-35.57804895,-166.9685813,4.037974016,-184.6070286,18.33517661,-28.3258812,0,2765.136321,,,,
787.4079994,3075,-600.4206383,1205.3659,54.52403514,-13.02375613,25.84312862,0,-96.90033837,0,-9.551033273,-85.14711362,-9.104726533,275.9059251,-29.86614533,121.4661186,0,2594.391494,,,,
787.4159994,3075,-880.1138145,1009.674658,86.32761087,-20.23524923,18.05091928,0,184.2873563,0,-22.60468374,-154.4555127,-20.0472202,-313.7044894,26.53826834,-84.807908,0,2636.539418,,,,
787.4239994,3075,-304.8875295,1392.050275,147.8923617,-54.68582048,-37.33374829,0,-132.7673761,0,-4.602498586,-97.22900532,30.35415656,158.9339809,15.61320337,86.58969536,0,2683.297849,,,,
787.4319994,3075,-1009.809842,939.7014068,37.07996467,-13.37232402,29.30676067,0,105.0181538,0,-30.02124111,-119.9684556,-39.24609685,-0.517494906,-8.162133997,24.17180098,0,2534.509359,,,,
787.4399994,3075,-551.1054856,1241.610766,151.3358617,-34.73266442,-28.50346792,0,40.15387788,0,-33.89667351,-154.5477547,11.75310215,-196.7185266,23.84041388,-35.81559286,0,2722.492578,,,,
787.4479994,3075,-661.2809273,1187.100949,79.63873818,24.47193611,38.52944101,0,-132.2489761,0,11.43670412,-55.5704761,37.58154211,302.2484393,10.23607749,116.1887108,0,2532.091321,,,,
787.4559994,3076,-943.0037796,935.1470511,95.36154867,-27.7588259,-10.0794818,0,178.0786424,0,-32.89657534,-156.2603128,-8.988837613,-281.6125571,26.12720951,-73.82507288,0,2594.919056,,,,
787.4639994,3076,-298.7722656,1333.133965,152.2595794,-43.89795931,-43.75133755,0,-150.0022661,0,-17.02100383,-116.0555041,30.65832071,150.6947921,8.822756235,87.6854803,0,2661.21054,,,,
787.4719994,3076,-930.0398776,885.4218327,40.47520869,-4.104901509,27.26158176,0,75.18965413,0,-16.18303132,-135.8719903,-16.4548224,-1.110894295,3.112575218,18.65988758,0,2481.531785,,,,
787.4799994,3076,-448.6295992,1137.606221,146.6001225,-76.5116731,-65.54266989,0,45.86923651,0,-36.81509241,-197.3616611,5.932211324,-218.8224634,15.9966944,-40.29310099,0,2676.566655,,,,
787.4879994,3076,-534.2863553,1090.112481,64.84733824,-18.83735709,9.145339585,0,-137.293706,0,-15.36842455,-123.9106939,-3.470922281,288.7414057,-21.46090491,126.9632207,0,2522.5257,,,,
787.4959994,3076,-849.6284271,848.4823052,82.29358192,-35.21953466,-5.700058345,0,166.8322241,0,-39.62525947,-204.7277171,-22.96161546,-305.3694129,9.130411946,-79.18277729,0,2560.336885,,,,
787.5039994,3076,-222.728023,1270.017238,158.0897349,-47.66063573,-40.6514642,0,-161.3646235,0,-8.043913302,-126.3642489,42.21472329,117.9575652,18.55314303,69.06966796,0,2609.964656,,,,
787.5119994,3076,-906.8046993,839.0046438,41.53804961,-13.41583138,20.70544314,0,51.76303467,0,-25.41560639,-136.2994445,-26.85791287,2.277272255,-0.283270366,21.94060811,0,2442.868999,,,,
787.5199994,3076,-459.7690639,1117.148508,145.5225879,-75.96261334,-70.05983951,0,38.20631548,0,-49.55318179,-194.6361946,-3.68235925,-239.7756623,7.281122244,-40.98412747,0,2644.932308,,,,
787.5279994,3076,-492.4882211,1133.947529,76.84363221,1.957501994,15.82875736,0,-159.8857301,0,-1.193649348,-85.58670678,18.79469293,275.0376428,5.886847916,119.9623616,0,2474.173327,,,,
787.5359994,3076,-795.9498784,904.0237638,87.4489434,-22.75184144,-4.729697349,0,151.3171432,0,-32.72037171,-165.944276,-16.50908091,-298.9303725,29.75638192,-75.68683277,0,2510.34114,,,,
787.5439994,3076,-93.1489023,1349.873546,159.9844128,-45.73903328,-52.39592707,0,-164.6858871,0,-19.50162266,-114.9168661,29.68355759,122.6887749,5.793944574,75.95900061,0,2584.63001,,,,
787.5519994,3076,-702.8471279,921.8784195,47.86953632,-1.086185242,32.96554056,0,32.60674513,0,-13.27423202,-114.0229907,-12.63613953,20.22268362,12.84584469,16.78023968,0,2388.205277,,,,
787.5599994,3076,-247.6763923,1158.154084,154.4917889,-82.90310692,-53.47019893,0,35.85117769,0,-38.75186052,-184.2437376,5.245965224,-235.0761078,26.82126081,-50.65471106,0,2581.763467,,,,
787.5679994,3076,-265.0755253,1160.564437,82.33454859,-13.03925593,11.56615189,0,-164.5287456,0,-14.54691723,-102.6690576,3.37760198,301.0078419,-14.07012917,130.8130598,0,2437.900555,,,,
787.5759994,3076,-645.3501056,879.2165654,86.39135102,-27.72739742,-3.535086967,0,149.6603418,0,-39.56850897,-180.9244626,-21.23025648,-280.9764075,12.33848432,-69.54405494,0,2462.746736,,,,
787.5839994,3076,109.2904415,1400.197984,198.9818233,-82.95916166,-85.34751488,0,-150.6884916,0,-28.2034948,-141.2956059,38.57228835,14.33820666,17.5495299,48.56945267,0,2636.11378,,,,
787.5919994,3076,-482.3151834,1078.913668,76.8387208,-18.73946069,-3.708648996,0,-44.31358226,0,-34.72855899,-114.3511114,-21.27459456,73.52610469,7.559231527,59.18902494,0,2496.132312,,,,
787.5999994,3076,-77.82546375,1312.269133,147.4091776,-66.32936928,-59.17255645,0,-155.1703137,0,-49.89073954,-128.8266414,-2.797503007,137.7511493,-10.21312999,94.12046799,0,2593.984439,,,,
787.6079994,3076,285.9848584,1522.197202,153.8032287,-51.75299246,-51.59899829,0,-440.8637017,0,-14.52987778,-45.87031911,37.82839497,687.0922291,-32.07326763,279.4239272,0,2504.452474,,,,
787.6159994,3076,-681.2896438,872.3191544,58.1222886,-10.32742234,12.2927132,0,63.99380509,0,-46.90181085,-138.0479229,-39.95333569,-78.28415765,4.248472923,1.195414339,0,2389.748915,,,,
787.6239994,3076,-541.7290432,962.9780642,103.9478652,-24.73517598,-7.87296629,0,50.20348338,0,-48.82363923,-152.8188089,-17.83872117,-176.6258452,16.08756611,-34.44692536,0,2440.533337,,,,
787.6319994,3076,-274.366756,1134.038042,123.7420467,-27.10069969,-20.75667927,0,-128.8660321,0,-21.32323319,-105.0348364,19.93533793,138.5799484,16.88609165,71.63879226,0,2427.893797,,,,
787.6399994,3076,-589.2713493,898.735374,70.92823545,-22.27240804,-1.909356512,0,2.953043597,0,-32.31360335,-129.9055115,-19.916272,17.46633764,5.528052845,27.33277636,0,2368.864783,,,,
787.6479994,3076,-467.3316071,930.5229265,103.2041066,-35.93495141,-23.88848057,0,23.78104274,0,-38.63855539,-149.6733622,-24.59494825,-80.23163141,6.150493207,-0.068292398,0,2407.098567,,,,
787.6559994,3076,-160.810717,1073.808527,133.6041851,-33.67686495,-36.80783584,0,-93.80679699,0,-25.42801024,-124.8291748,-1.478926902,98.58331469,8.079386595,74.31276164,0,2429.030481,,,,
787.6639994,3076,-507.4111696,782.172732,65.31772632,-10.30231153,6.450099526,0,39.81399485,0,-34.61623553,-145.5752116,-33.87219883,-1.517998708,3.999985796,34.68194146,0,2329.116502,,,,
787.6719994,3076,-157.0040137,960.0875164,142.2876113,-38.43823977,-39.74575297,0,-1.395825357,0,-34.38425638,-182.8542401,-1.341464686,-128.1691289,28.4664845,-9.550308096,0,2433.813659,,,,
787.6799994,3076,-174.281817,936.9213385,90.84993952,-11.98738681,-8.442092676,0,-118.3635238,0,-7.890692293,-134.4122607,11.77980683,216.866684,15.36367665,98.41054817,0,2323.946661,,,,
787.6879994,3076,-444.615623,706.2571402,76.94025867,-48.59173648,-33.74518083,0,120.9799109,0,-50.70828138,-216.3177238,-35.49419836,-185.2438341,14.87551848,-32.85681473,0,2343.628116,,,,
787.6959994,3076,84.00086324,1057.431462,147.1701307,-44.82561296,-55.35838128,0,-124.1324435,0,-37.47273356,-193.4812515,-2.055215875,71.49290041,8.031391315,64.77922766,0,2426.222096,,,,
787.7039994,3076,-500.0801772,695.1109446,45.31193421,8.810443461,19.57437957,0,-3.972701471,0,-24.21992081,-174.0229303,-31.08280102,52.0755069,11.43913128,34.86180276,0,2232.630708,,,,
787.7119994,3077,-233.1141674,833.6208364,139.8663204,-69.61192061,-73.95276364,0,46.09704272,0,-58.4577445,-240.0623215,-21.01191281,-238.0319281,19.76757031,-51.97168305,0,2386.595865,,,,
787.7199994,3077,-216.2636065,887.3825509,87.7658204,-2.337764001,-8.161889975,0,-176.6743585,0,-21.30480335,-166.5119415,-3.99450845,266.3936236,-5.199622713,112.803932,0,2273.66851,,,,
787.7279994,3077,-676.3244059,568.9611836,74.1400091,-11.19207085,-4.594945035,0,118.364098,0,-34.4589895,-234.4227212,-25.77446378,-236.4073364,36.35511415,-71.39733645,0,2246.33937,,,,
787.7359994,3077,-43.27271191,956.2855843,169.409246,-60.0798885,-76.25828709,0,-126.4423381,0,-31.68928155,-203.6665555,13.27700315,83.38455292,14.8019856,53.17881929,0,2357.679874,,,,
787.7439994,3077,-633.0764159,567.3279953,47.1745616,14.62257137,18.84781226,0,-7.748941454,0,-25.33464623,-194.0057951,-37.92286816,107.9906229,-8.331616022,49.98542748,0,2171.369661,,,,
787.7519994,3077,-307.8010323,722.0803224,156.2624122,-33.86221163,-48.28536939,0,45.43824945,0,-26.98685716,-258.768163,1.936287106,-247.6135077,44.5750413,-62.07936229,0,2319.765253,,,,
787.7599994,3077,-177.9426226,793.9276318,114.7973222,6.948183016,-7.878936579,0,-186.9799387,0,16.41060648,-164.1761007,28.19552651,327.2891193,26.79439088,132.9886997,0,2199.332868,,,,
787.7679994,3077,-618.7327722,436.0890094,87.28469353,-2.567745349,-6.773991384,0,136.7141727,0,-18.57756528,-247.7471826,-24.51695557,-211.2706312,29.47703083,-45.68655965,0,2189.954685,,,,
787.7759994,3077,110.8795027,857.2620445,189.7371059,-37.05781866,-65.336775,0,-135.5389155,0,-3.878881387,-213.1336667,29.01962014,93.49561231,21.999654,74.65314237,0,2304.905881,,,,
787.7839994,3077,-457.0667877,448.2604373,62.57588222,16.32738795,10.86165038,0,-4.244026553,0,-4.747700636,-194.4364657,-28.36289739,132.710895,5.190097656,75.70214925,0,2106.791627,,,,
787.7919994,3077,-134.0155703,575.6355681,154.4368412,-46.44241903,-66.75052924,0,71.60349703,0,-34.63677777,-279.7674577,-21.58735836,-262.097851,16.38715932,-40.33386988,0,2279.136606,,,,
787.7999994,3077,40.82096155,668.0849268,104.6736079,3.180379856,-3.01877016,0,-200.5145547,0,13.11459851,-185.0972356,11.77877189,318.4492979,2.969670118,147.4528663,0,2156.311742,,,,
787.8079994,3077,-400.705168,285.6501,71.94450627,-13.52333142,-1.316400469,0,129.8386454,0,-30.97805745,-271.8808359,-42.97396166,-229.3950368,26.05284952,-47.142929,0,2129.872512,,,,
787.8159994,3077,355.6206924,712.8776691,174.5550694,-48.01639929,-66.1234522,0,-137.813106,0,-27.34790873,-241.350673,5.253842804,65.47993308,10.33506078,70.15235055,0,2256.55833,,,,
787.8239994,3077,-216.2725103,325.1894465,51.89476677,25.06623961,34.34085315,0,-35.29526241,0,-6.033490237,-195.7701347,-22.28564638,127.1176536,12.12265209,68.16487363,0,2035.562007,,,,
787.8319994,3077,88.1028953,440.1167386,156.1048905,-51.90434181,-65.1260821,0,63.66045358,0,-36.36683069,-282.2206287,-8.257034169,-276.7552213,28.83003603,-57.2232428,0,2198.954438,,,,
787.8399994,3077,299.6526781,546.7181635,107.5304764,-7.318440395,-29.96141908,0,-195.4499823,0,-0.767946812,-192.4231499,5.158078086,324.3723683,-15.72520156,150.4943871,0,2105.309769,,,,
787.8479994,3077,-179.9575996,163.1107733,66.45878398,-3.219750012,-9.361408748,0,128.403072,0,-29.91645766,-259.1211228,-45.52913661,-218.5624742,17.52945771,-42.71691783,0,2067.380061,,,,
787.8559994,3077,559.7717065,603.5571936,181.5201017,-39.18496182,-79.84900725,0,-136.2509967,0,-10.51851992,-229.8302959,16.67138364,63.41692434,29.21021658,59.40649125,0,2183.590707,,,,
787.8639994,3077,-7.02852742,242.8028388,57.22500564,43.56032784,20.93179183,0,-38.22293287,0,9.988324104,-183.4338534,-19.91496242,152.779789,14.44239884,70.35045933,0,1968.155716,,,,
787.8719994,3077,243.510658,366.5951871,155.704731,-24.80996529,-58.32336274,0,69.03875764,0,-26.31531411,-257.7776403,-6.708376366,-268.0762876,30.57749216,-60.64154229,0,2127.695336,,,,
787.8799994,3077,421.0439757,504.2387261,116.9289471,18.89198817,-13.67273534,0,-206.0175359,0,14.18106063,-163.6982264,24.00666621,342.6446347,12.25218145,139.9917281,0,2025.821568,,,,
787.8879994,3077,-126.2802889,121.8943339,72.30388917,24.72422156,13.21031905,0,111.7724228,0,-11.4867861,-230.7941084,-28.39920329,-191.0980327,39.04447972,-52.35765837,0,1971.384418,,,,
787.8959994,3077,579.5461926,564.4237026,184.7187235,-34.6047817,-69.34288305,0,-147.2299213,0,-7.346294566,-212.6360116,20.36884744,68.17067465,30.4392793,46.69646254,0,2092.994218,,,,
787.9039994,3077,7.017542452,193.7662457,58.40375841,32.34083281,21.90072404,0,-56.7065182,0,4.544637972,-179.098412,-21.28951636,170.9178629,15.38323055,64.02473112,0,1876.067504,,,,
787.9119994,3077,139.4504655,177.8898635,171.0873722,-50.56869689,-76.56067135,0,238.0248584,0,-43.30398522,-313.0867766,-22.25158308,-632.2492244,59.27750778,-187.5259029,0,2084.864903,,,,
787.9199994,3077,700.7056903,506.8781114,175.9329817,-22.2555036,-69.94340137,0,-133.8210808,0,7.195374183,-207.8926604,33.34517327,70.54630515,37.35670349,60.67073475,0,2070.429663,,,,
787.9279994,3077,247.0899714,196.5434056,54.28126983,40.89503635,15.09208126,0,-88.79384454,0,17.80790774,-154.4058864,-13.9906556,258.2438714,11.69251806,108.3947423,0,1866.237358,,,,
787.9359994,3077,435.4646778,248.5955155,142.0137575,-38.29169649,-69.90898718,0,54.14041896,0,-27.412384,-227.1503831,-30.87366437,-166.2330269,17.78058947,-18.37040424,0,1998.334455,,,,
787.9439994,3077,562.2942723,289.0887265,128.3490848,-36.34468127,-71.41958187,0,-35.3492142,0,-21.60629754,-195.5933454,-27.58875043,41.24167527,1.44203004,62.48402781,0,1986.404181,,,,
787.9519994,3077,475.5860245,205.1746062,79.57315927,-16.82862974,-56.70255677,0,-50.89266384,0,-30.25666352,-182.2614288,-53.04575851,152.2588527,-16.71568621,104.0416981,0,1948.078212,,,,
787.9599994,3077,418.0772636,133.1640453,95.45346596,-19.31103442,-65.44785079,0,69.0746501,0,-40.18908653,-221.3817657,-63.88069885,-141.125767,7.08007409,2.283476565,0,1975.101546,,,,
787.9679994,3078,699.8259247,309.4513838,132.9811523,-14.32914993,-57.68801288,0,-84.76453497,0,-0.738084685,-174.5733498,-17.50850908,105.2072361,15.91484661,80.00022797,0,1962.51259,,,,
787.9759994,3078,430.753271,118.0786174,79.21498939,9.526986182,-16.74751673,0,-22.73061639,0,-5.69756357,-171.6480501,-41.21211159,93.72596664,7.720129226,65.40349657,0,1872.631579,,,,
787.9839994,3078,554.4864758,156.2574243,132.4410111,-16.58158406,-47.17096602,0,35.40866429,0,-17.16387169,-206.8225905,-26.43023398,-175.3679484,33.45442871,-36.35649831,0,1925.318949,,,,
787.9919994,3078,729.3179061,272.7658588,113.6234717,1.150006081,-26.194582,0,-172.0932323,0,16.75525404,-138.4985122,-4.403342577,276.9029459,14.56119429,111.3748999,0,1853.775642,,,,
787.9999994,3078,298.4239428,-48.36034687,69.32845224,-12.67697105,-30.00181616,0,94.17217384,0,-19.12021593,-202.3073202,-60.4988677,-128.089015,19.31134368,-21.43936098,0,1817.522112,,,,
788.0079994,3078,878.413268,305.3672244,162.7260083,-55.30068808,-92.3551191,0,-83.89258654,0,-16.14978743,-182.8351743,-23.13996788,50.96657656,12.65867103,58.86498498,0,1926.976314,,,,
788.0159994,3078,493.1691228,54.76496425,53.63208371,11.48753029,-12.91735664,0,-47.61021017,0,-8.869745049,-153.2982108,-61.40902938,176.2433645,-14.36429591,96.17663285,0,1773.384914,,,,
788.0239994,3078,645.8776105,87.66728788,129.8725571,-31.12251329,-67.2531293,0,83.4380633,0,-25.41868651,-220.337355,-37.73368229,-277.180235,31.2723497,-59.9729968,0,1862.196781,,,,
788.0319994,3078,972.1713964,298.9638705,125.1164367,10.95235123,-23.39390905,0,-193.0408266,0,21.10702358,-124.3917825,4.709936652,292.5946725,26.35330847,128.0131012,0,1795.429396,,,,
788.0399994,3078,449.940757,-71.784079,61.04299896,33.50584669,7.226559085,0,101.3365184,0,-5.231091413,-177.6678578,-50.41589203,-145.8296479,34.64069329,-27.72388167,0,1721.454519,,,,
788.0479994,3078,1151.878639,372.2198941,184.7584036,-36.12043174,-90.77714974,0,-94.83281818,0,7.550376727,-164.2136704,14.23461853,22.98982844,36.72341415,40.57851286,0,1847.400981,,,,
788.0559994,3078,702.8262205,105.2817059,60.9413734,16.99330348,-6.30619728,0,-55.41810782,0,15.45026479,-129.4169478,-30.814186,231.8304798,4.483301906,101.7239086,0,1664.955273,,,,
788.0639994,3078,829.9960188,153.9536881,134.3224378,-38.20819466,-74.86009009,0,115.4013744,0,-27.50790441,-218.7438679,-39.37017618,-264.5500096,20.59273739,-55.87176704,0,1795.369109,,,,
788.0719994,3078,1167.610973,414.4688945,124.1573477,-3.874161477,-55.79073837,0,-182.3283821,0,20.44521151,-125.5350587,7.891634317,347.5081712,4.711817687,154.5697731,0,1745.958152,,,,
788.0799994,3078,558.1269098,-8.687080822,45.46430644,10.48642815,-20.1992096,0,122.8773756,0,-4.449354805,-194.8524885,-47.925964,-111.7892727,23.27886001,-9.36171991,0,1659.204533,,,,
788.0879994,3078,1273.300019,434.1961515,177.1631463,-39.30656102,-93.44876796,0,-82.20107377,0,0.446106954,-190.3258475,4.836141358,23.631916,19.38905854,49.86073114,0,1805.294317,,,,
788.0959994,3078,815.8538818,164.8147442,58.3828515,37.00532843,6.070908514,0,-71.19825899,0,23.75684145,-129.6968706,-24.55005692,252.9871751,0.167112024,115.7529102,0,1604.035604,,,,
788.1039994,3078,898.795975,177.5070957,136.7198368,-47.38002971,-78.33267192,0,114.9983296,0,-20.55713265,-222.1175555,-28.20596075,-278.9559479,36.51585886,-56.91040907,0,1720.800523,,,,
788.1119994,3078,1221.090921,435.429684,127.685245,-31.59440521,-69.53368257,0,-176.7856421,0,10.79301375,-137.2720421,4.305946671,343.07253,1.086324828,157.0185121,0,1684.282254,,,,
788.1199994,3078,543.3084483,1.255979513,41.38866605,-7.7922126,-28.27554395,0,131.6747545,0,-18.23888494,-204.4579264,-56.96764926,-111.0016673,5.168105528,-3.625874348,0,1598.65639,,,,
788.1279994,3078,1206.129955,450.0207845,175.6382228,-66.81471401,-107.5500822,0,-64.09252643,0,-14.66816725,-208.6542281,5.391025645,1.648670421,14.94741473,47.59149283,0,1752.357428,,,,
788.1359994,3078,699.0436483,185.026327,52.72677352,11.76006453,-11.00130522,0,-59.37261257,0,10.03679651,-146.1105294,-11.68013405,255.6023816,-6.023238909,117.3006784,0,1551.374784,,,,
788.1439994,3078,713.5679601,176.1245577,132.1531819,-54.13298945,-85.60929039,0,128.0245233,0,-26.04743171,-234.5943405,-8.929348738,-292.2042946,27.10487124,-67.31210666,0,1662.7495,,,,
788.1519994,3078,1024.997627,457.0760707,134.5868058,-19.30670507,-54.30521681,0,-189.9083079,0,14.2735214,-141.5390447,28.64952359,335.2273204,8.549279735,147.5731373,0,1631.872723,,,,
788.1599994,3078,282.6964748,27.98430713,51.91651987,27.96745492,9.15069953,0,99.32758127,0,2.063819271,-179.9427458,-14.64796504,-103.024276,39.29635267,-10.93443728,0,1521.041419,,,,
788.1679994,3078,859.0846478,468.6581383,204.5724164,-40.2021702,-88.32413444,0,-84.42996373,0,16.67096185,-171.6811213,59.42876955,1.426452839,59.28249659,33.65688272,0,1656.970583,,,,
788.1759994,3078,315.3367838,353.7138369,82.04059213,27.52049067,-2.03995672,0,-212.1463888,0,39.23659228,-92.81248271,30.1265252,512.0375924,8.889058181,209.4505755,0,1498.485778,,,,
788.1839994,3078,361.4733558,520.7687456,192.2361065,-69.04825338,-107.5942647,0,-91.57183959,0,-7.385714845,-197.8378242,41.78252188,-43.4072075,39.76458665,44.31772853,0,1708.253636,,,,
788.1919994,3078,1023.347329,889.6389637,283.6364599,-99.06428583,-156.5005902,0,-354.6177646,0,20.64774205,-148.3337371,105.7498732,337.7565881,37.83102099,175.9812131,0,1738.497292,,,,
788.1999994,3078,332.3494484,387.4377742,142.5281095,-24.56091267,-60.61040571,0,-149.4899954,0,14.82898073,-145.0082948,37.75637632,233.291853,23.98354875,126.328211,0,1512.591051,,,,
788.2079994,3078,264.7608416,406.7773765,166.7269995,-37.28185575,-76.18814995,0,-116.33307,0,7.276337942,-167.4898048,40.08310449,80.43052208,33.06321194,78.08388844,0,1537.113495,,,,
788.2159994,3078,-337.8421197,88.82228607,68.68638115,34.50697742,8.583646024,0,-7.979280402,0,17.8023208,-144.2659478,2.854386227,46.988801,29.28052477,49.66443325,0,1372.979906,,,,
788.2239994,3079,-137.267194,260.2679031,156.0948214,-11.79727771,-53.69937749,0,-8.318716817,0,4.062405141,-169.7203233,27.21253418,-158.3485857,53.09199315,-16.16742552,0,1472.139093,,,,
788.2319994,3079,18.6021146,374.9999018,145.5108012,-5.120960935,-46.60023604,0,-182.8437509,0,22.20819794,-107.4023188,42.96931239,243.3512074,27.34882188,125.6317274,0,1423.426943,,,,
788.2399994,3079,-528.4647221,-47.72869857,66.08665831,9.168468948,-17.10128241,0,95.51248095,0,-6.9886516,-166.174738,-17.66950625,-155.4861683,26.23696447,-5.372276668,0,1339.545129,,,,
788.2479994,3079,221.2413024,391.3475727,192.5340145,-43.82371491,-91.1729486,0,-135.8330281,0,2.561768459,-163.183333,42.66069937,9.770496224,37.33631521,67.97552674,0,1485.683721,,,,
788.2559994,3079,-239.0601844,72.31359727,72.00822285,33.99620826,14.99220418,0,-95.21429331,0,25.63732248,-114.2320165,5.626840472,165.0939207,23.65666536,102.5570006,0,1279.438718,,,,
788.2639994,3079,-150.4272771,69.70115465,145.4171904,-33.01022815,-67.86709057,0,55.58195896,0,-2.707600572,-193.0053408,10.50062086,-286.3596617,40.14368035,-41.46508562,0,1380.622125,,,,
788.2719994,3079,226.5615298,314.3341649,148.422846,-2.244065153,-62.50089077,0,-231.2762394,0,25.18863391,-120.7323994,46.87603785,249.3266381,9.82624549,150.7269339,0,1368.317173,,,,
788.2799994,3079,-378.2531868,-124.1589096,57.53229665,52.72264999,8.657950626,0,35.79496164,0,21.51374996,-146.7149888,3.014389791,-139.3146036,41.58088867,-1.709817515,0,1225.187766,,,,
788.2879994,3079,352.6863361,300.6464396,204.450703,-26.05878036,-99.13256566,0,-114.3052192,0,26.8068493,-156.8275983,60.60385596,-70.09171231,52.80690161,34.69819843,0,1374.423822,,,,
788.2959994,3079,-30.17272331,92.39915466,83.60562925,55.37737899,-10.44553937,0,-128.6843011,0,31.10444607,-103.6396266,14.83680575,225.9740112,4.967295411,132.198346,0,1202.181822,,,,
788.3039994,3079,2.470537659,75.68589032,151.242027,-6.864061513,-75.65177579,0,81.15071589,0,-4.024385098,-186.4736743,13.02675596,-325.8837429,43.37128244,-58.29316727,0,1280.778977,,,,
788.3119994,3079,494.3481481,393.850666,165.5449368,-33.45073708,-107.7811658,0,-192.0745723,0,11.19671049,-129.3925703,30.6987352,262.1317694,-1.682260732,154.5715034,0,1296.821771,,,,
788.3199994,3079,-149.7327824,-44.21612488,40.74619969,9.348959194,-46.97048575,0,86.94571839,0,-27.88711116,-182.8211947,-56.80320313,-95.02271046,-21.70130784,30.49479019,0,1199.645874,,,,
788.3279994,3079,546.3854921,356.0242781,182.8397986,-54.69845812,-133.1720376,0,-55.87442064,0,-16.91881186,-189.3941555,16.13617553,-96.02224437,9.089186265,31.21185312,0,1352.189934,,,,
788.3359994,3079,171.51974,122.3599986,69.70033321,18.84708984,-42.15345579,0,-103.8354288,0,7.115464079,-121.3475359,-9.938004449,260.657428,-26.7802174,139.5433598,0,1167.497776,,,,
788.3439994,3079,103.8745825,24.42485039,127.1749006,-1.992414106,-70.2764823,0,115.7302273,0,-30.57233774,-212.4466177,-28.09985059,-342.3053625,8.692026001,-62.71423366,0,1245.200725,,,,
788.3519994,3079,573.4435374,393.0787416,168.479123,26.17216749,-52.98526169,0,-209.5404361,0,35.19354834,-113.2434733,48.103881,242.2601655,34.61417878,130.6378349,0,1222.732393,,,,
788.3599994,3079,-206.0869279,-12.60610637,64.03979607,55.08045381,-11.05382303,0,68.19447694,0,34.22279873,-131.2108547,4.202676673,-85.97200461,48.24306887,-0.50074402,0,1066.334911,,,,
788.3679994,3079,404.8172499,425.3776085,201.4617215,-38.40112758,-133.5521849,0,-38.37232266,0,5.400713745,-163.7727916,26.50867035,-91.84729893,32.96296147,13.4852331,0,1245.462558,,,,
788.3759994,3079,51.83027025,276.2498401,76.8718998,33.13625167,-36.62752934,0,-103.5308814,0,15.5839234,-104.2213269,-16.79646561,301.7474135,-9.428744383,138.7820825,0,1082.20715,,,,
788.3839994,3079,-59.47880252,191.1034438,127.1426526,-24.41553861,-92.04214046,0,140.7250514,0,-16.63734974,-193.8916859,-13.76259704,-319.202834,24.41971806,-78.12812647,0,1144.692985,,,,
788.3919994,3079,472.9958354,545.3708098,159.3853053,-38.29168197,-115.9999032,0,-167.8442913,0,4.554286833,-130.5665474,23.52364567,270.7275996,-8.569525943,128.0401267,0,1168.971977,,,,
788.3999994,3079,-227.4300708,80.22838795,34.88047199,11.39315938,-43.95478232,0,99.54912999,0,-19.22744607,-170.4129513,-53.07465237,-54.89645361,-18.56857213,4.099120241,0,1036.953012,,,,
788.4079994,3079,454.5503269,481.9989853,181.1408139,-52.19475523,-138.7933544,0,-19.70842528,0,-15.08634211,-185.0946255,10.49914424,-111.3510978,7.996990498,-8.828239145,0,1194.151376,,,,
788.4159994,3079,193.901581,317.5488441,71.71267164,27.04692639,-44.74305193,0,-112.8002138,0,22.8431664,-107.6874503,-7.711492234,304.3215445,-3.813099231,121.4743375,0,1017.435382,,,,
788.4239994,3079,98.31879103,181.0487537,128.0578983,-13.20017365,-86.45622932,0,138.1439299,0,-4.426423219,-191.8468003,-15.0759808,-320.1977934,37.77390376,-94.37658028,0,1066.265768,,,,
788.4319994,3079,661.7192835,557.0805828,176.3261778,-0.079628622,-104.3784984,0,-179.1471205,0,22.84707154,-107.3625669,40.13538097,266.0513589,14.49048551,110.7536808,0,1078.85406,,,,
788.4399994,3079,-66.60843884,83.14090765,48.73357878,51.77354207,-34.40097938,0,83.60563988,0,0.122422782,-132.8216731,-22.37710046,-23.90251168,11.05909725,0.755459308,0,928.8784286,,,,
788.4479994,3079,562.9090696,451.8207885,194.8294875,-36.79586432,-137.0900518,0,-8.561495075,0,-11.37515327,-167.5874935,30.93398605,-91.05992617,22.07106149,-10.13069935,0,1089.581638,,,,
788.4559994,3079,268.8626781,311.61632,83.41426013,47.10168639,-43.96802088,0,-112.8990686,0,11.64470684,-98.99461996,3.032218835,343.3371203,-13.64209539,132.6029075,0,923.5709037,,,,
788.4639994,3079,97.26403213,159.9069084,124.169025,24.21287112,-63.2979729,0,131.3275179,0,-8.037508908,-179.7404401,-7.535127196,-289.175561,29.96008887,-89.61000692,0,960.5847665,,,,
788.4719994,3079,668.0838904,529.0929883,182.8480117,8.905573012,-83.71254697,0,-186.2346322,0,40.61889288,-102.594879,58.9960038,286.2909085,20.59221647,102.6366532,0,960.4020796,,,,
788.4799994,3080,-61.87069117,29.18238253,55.04230517,32.41292577,-42.88052159,0,88.55021348,0,3.696883039,-147.254577,-23.49785151,11.83173056,8.278939765,6.764468095,0,818.6534432,,,,
788.4879994,3080,581.5803449,371.7773807,190.5189814,-51.88263252,-151.3575496,0,9.830524364,0,-16.60049253,-189.7301614,7.44743771,-87.82816805,7.983694731,-6.015753224,0,1003.719926,,,,
788.4959994,3080,361.7048742,244.456807,82.83142442,29.15714872,-49.3387931,0,-107.2191128,0,25.92333444,-103.2167992,-4.059215288,357.7217607,-21.72380031,134.668014,0,835.0018568,,,,
788.5039994,3080,195.4007753,58.51084229,121.6371177,-16.76420975,-82.09375792,0,166.7070677,0,-13.96839672,-189.6827517,-25.19158669,-288.575253,24.46825566,-84.208184,0,883.1723647,,,,
788.5119994,3080,812.3181236,434.0981489,177.0912585,-27.26043714,-103.1804151,0,-154.8465713,0,17.53366112,-123.5253846,26.78644118,257.5612389,6.258470153,104.7680628,0,915.3215685,,,,
788.5199994,3080,100.4734705,-46.90509108,44.3437087,36.93350238,-28.10409543,0,84.00992587,0,3.352244634,-145.161393,-33.62490596,-10.86662533,4.78540641,0.432277207,0,748.9281877,,,,
788.5279994,3080,718.9626878,282.4761463,189.8023065,-46.82803774,-135.1041573,0,16.96127678,0,-7.749365328,-173.9358342,14.9672407,-129.6276224,27.83139105,-22.32150301,0,911.6681732,,,,
788.5359994,3080,501.314917,162.2023602,83.78807039,28.2200412,-46.40263069,0,-111.4154753,0,22.45600285,-99.59162243,-8.274922171,349.738403,-16.13250198,131.6880676,0,751.2646182,,,,
788.5439994,3080,289.2708151,-28.59522363,119.0056306,12.00299802,-72.08433181,0,156.4489766,0,-13.67868183,-185.6578918,-21.72176261,-291.342873,23.70814898,-93.12324216,0,778.658799,,,,
788.5519994,3080,901.3932574,356.7759361,194.4722229,-16.09513381,-114.3492242,0,-147.3250085,0,27.36022352,-109.0531715,52.9849018,259.9024661,12.45778151,100.7712281,0,811.3118023,,,,
788.5599994,3080,155.2703328,-136.5884705,56.29991965,30.30148774,-41.47789587,0,92.73178674,0,5.650902619,-142.9850596,-24.92749864,21.37032187,-10.00139151,15.08187061,0,664.4564111,,,,
788.5679994,3080,738.5366416,188.5695859,199.8019127,-30.7155762,-130.4529889,0,24.02281091,0,-3.501234341,-171.9710541,21.6832505,-129.9757773,15.1308976,-28.67917861,0,828.0262345,,,,
788.5759994,3080,541.2826022,77.79565401,100.2495994,20.13054727,-62.79250296,0,-100.9295459,0,31.64473055,-75.04470352,5.800978146,375.3981024,-13.64634701,133.4498909,0,675.8196306,,,,
788.5839994,3080,285.2238249,-154.3661214,111.5417057,-24.50578496,-95.4367314,0,181.5398265,0,-25.50632974,-172.2901698,-47.44938577,-271.3886033,8.406806284,-81.07224533,0,725.2301621,,,,
788.5919994,3080,918.1866832,242.2265369,177.6715179,-29.75941628,-119.6251129,0,-139.5188625,0,11.02170833,-96.69277834,12.14734645,248.1514969,-8.14959773,99.77018357,0,766.95515,,,,
788.5999994,3080,191.5938531,-248.3683726,39.54422144,27.76740537,-47.37746473,0,91.71392605,0,11.19245915,-103.8817431,-41.84150696,31.17013651,-8.373115991,14.33341916,0,594.1797668,,,,
788.6079994,3080,761.8520055,59.14912318,180.8530348,-37.29192936,-139.1517329,0,37.10244619,0,1.177023861,-143.2769796,12.38239882,-144.1425872,18.41700169,-32.94367461,0,756.5081361,,,,
788.6159994,3080,602.056858,-21.07159916,85.9062602,41.61121703,-47.98781782,0,-123.4645923,0,43.61756168,-49.57925192,9.471766982,359.9431775,-13.41455176,126.3948537,0,595.0317947,,,,
788.6239994,3080,315.5338173,-268.6024627,108.3754023,4.272080806,-80.16166663,0,159.9602705,0,-0.572406548,-136.5921411,-30.50381523,-302.4765796,19.98704222,-101.4662755,0,603.329538,,,,
788.6319994,3080,945.7016147,132.0234045,194.8547056,-23.18133417,-128.2466053,0,-140.2922618,0,20.31448199,-78.30579676,18.64618808,209.9749611,1.526455194,82.23384327,0,655.9813862,,,,
788.6399994,3080,210.6280585,-345.0369996,55.57334328,40.34028105,-44.14270889,0,79.59502916,0,20.09580917,-90.27080462,-37.99936362,19.97489197,4.331267722,5.234177713,0,487.3592738,,,,
788.6479994,3080,740.4897878,-53.33210859,192.9482989,-36.07357093,-138.5732175,0,36.51283973,0,10.93530206,-127.3241185,16.00477822,-184.3329794,37.86660703,-55.53478433,0,640.1780134,,,,
788.6559994,3080,826.7146595,51.13415001,127.6625871,22.65320935,-80.99250252,0,-238.3113963,0,44.41314002,-21.71204605,20.27379648,514.0433532,-14.23465665,180.1354484,0,561.6377864,,,,
788.6639994,3080,688.1319475,-90.03775468,185.5438242,-28.76715409,-139.076612,0,42.28283447,0,-2.412734708,-123.9629353,4.630897682,-234.6939395,35.49393686,-75.26630242,0,677.779532,,,,
788.6719994,3080,1341.174812,281.5581177,315.8508296,-93.82772925,-220.3198432,0,-133.3347553,0,7.734356859,-112.4574396,70.76310669,-90.02372002,50.65442417,-18.68794514,0,761.7721248,,,,
788.6799994,3080,760.9070615,-86.25698864,162.3555681,-6.462431129,-113.9484065,0,-88.17463556,0,20.05212101,-71.34015681,15.13481513,130.3460177,13.24024817,47.46585488,0,524.8894186,,,,
788.6879994,3080,703.8540605,-152.2986995,173.4658465,-13.24485309,-122.49194,0,-15.89944498,0,12.59375347,-93.19062023,14.3890718,-48.1032371,27.00607738,-17.51752932,0,523.1619827,,,,
788.6959994,3080,345.1748871,-377.3929249,73.96268165,50.50190132,-45.59093037,0,-15.2978768,0,35.63752676,-46.70429696,-5.241776329,175.1836628,6.215509643,44.35724951,0,359.7260632,,,,
788.7039994,3080,444.4484608,-359.6548437,139.2512642,8.127748653,-92.78932792,0,93.7190428,0,19.44153412,-90.46082337,5.021970991,-177.6432302,34.97294605,-75.25196957,0,424.8065196,,,,
788.7119994,3080,808.4971385,-137.8872545,173.6510821,-10.04960277,-113.1866581,0,-100.4534001,0,31.68104123,-43.76562607,25.89294813,182.2435126,13.41981201,51.4942159,0,436.5920696,,,,
788.7199994,3080,165.8725037,-567.8975403,46.87787171,50.15417676,-41.14527078,0,90.00805708,0,13.06131101,-66.41762615,-41.77424581,9.337167298,-1.20157139,-17.50590506,0,285.5348858,,,,
788.7279994,3080,753.9725185,-237.5492387,191.7637829,-23.61722704,-139.6801572,0,15.97269317,0,14.53538069,-87.01193754,28.46061466,-114.8055971,36.93841414,-58.18235937,0,436.6142093,,,,
788.7359994,3081,496.1986009,-381.173399,85.39521657,40.64112984,-56.13225421,0,-71.65315834,0,38.03010697,-21.28442264,3.115955854,320.2457503,-9.843028312,82.68165136,0,287.1323365,,,,
788.7439994,3081,300.1201491,-559.7702186,107.3259493,20.34148344,-73.10286252,0,157.9192706,0,-1.795621039,-103.5887714,-28.91646713,-210.5324106,21.47984524,-94.57460585,0,324.8649412,,,,
788.7519994,3081,880.6364105,-213.7701873,193.0664154,-4.615728716,-110.8972402,0,-100.4573379,0,33.96890823,-36.38825366,32.53634409,210.7829625,32.58839796,49.76736527,0,360.2076265,,,,
788.7599994,3081,206.437241,-667.3541944,57.07453761,62.06164701,-29.97002146,0,95.94209755,0,23.70170537,-42.80950317,-36.50964941,94.97612718,4.746056007,3.804195805,0,194.3284665,,,,
788.7679994,3081,707.6053989,-401.3362503,189.3922709,-15.99548332,-137.1448189,0,82.26436946,0,7.246845117,-85.12659527,10.22297677,-136.4800764,32.89949794,-58.35993389,0,359.44774,,,,
788.7759994,3081,601.7790802,-459.1537338,103.6956269,32.0076328,-74.39761342,0,-71.31248325,0,46.04084136,0.784512169,5.589754746,383.371643,-3.058158951,114.926257,0,225.9511122,,,,
788.7839994,3081,284.8067205,-715.9159965,100.4411009,22.98558796,-69.39407104,0,200.2472786,0,5.659814743,-93.00230567,-37.99591466,-215.6826669,12.90609853,-90.55800132,0,239.7804142,,,,
788.7919994,3081,924.7604044,-313.2904343,195.5204156,-5.687965182,-111.0877348,0,-85.05264193,0,32.75297066,-34.53326954,31.67295941,199.4870578,15.95540804,47.21969589,0,291.1940899,,,,
788.7999994,3081,229.8048332,-769.174794,55.55815271,57.37952541,-26.89375491,0,92.81205816,0,24.97284274,-33.37130093,-29.35611513,104.3789086,-4.299241299,-1.058397188,0,102.4252507,,,,
788.8079994,3081,681.2009273,-531.9973975,183.5379813,-9.251060767,-115.6257326,0,98.71384514,0,3.887479546,-92.54585992,7.74688794,-188.1168812,30.17643054,-84.84324878,0,257.0401561,,,,
788.8159994,3081,657.8533366,-538.5173256,114.5139583,27.83268612,-71.67232495,0,-71.81920177,0,41.5409257,3.21783575,11.20436265,382.0147799,5.55598138,109.5396657,0,134.5890953,,,,
788.8239994,3081,277.8743536,-845.0699667,98.09436903,9.273304146,-84.7245702,0,234.8842614,0,-2.13864987,-82.37268955,-42.27932698,-234.4253199,13.07193718,-94.53389663,0,143.5982859,,,,
788.8319994,3081,959.1667788,-417.5318683,195.2950199,-8.143785971,-118.5169634,0,-68.27065156,0,26.71050516,-33.0112474,26.02245261,173.858513,17.60595419,54.21246274,0,220.4898643,,,,
788.8399994,3081,271.5892689,-875.7976894,56.54546559,51.66814898,-31.320496,0,107.9259864,0,25.67596755,-28.90923636,-31.4429595,114.0942263,15.235239,18.14972866,0,31.34051079,,,,
788.8479994,3081,681.5678285,-666.0449404,174.0827549,-27.42534861,-131.7326291,0,135.4159874,0,-2.69856908,-94.18898752,-9.295886943,-202.5903963,30.45858528,-80.11180793,0,188.2404425,,,,
788.8559994,3081,683.0524437,-631.5784728,102.3505067,39.67687217,-64.57317075,0,-84.14501873,0,44.26344455,3.644255361,8.232857685,378.1470823,-0.764966727,110.6299357,0,60.40927102,,,,
788.8639994,3081,260.5771296,-956.2407458,90.07836755,34.01195113,-63.91547419,0,220.7567456,0,14.84819864,-72.9665301,-26.96815228,-238.5282693,28.37579888,-104.093913,0,34.98571635,,,,
788.8719994,3081,951.4422447,-527.3433619,201.6509758,-14.57240958,-123.6827875,0,-55.29842173,0,33.58930518,-26.23200979,26.74772121,163.7008712,18.66923366,43.05806794,0,121.3917755,,,,
788.8799994,3081,268.4982172,-975.3552802,63.70952021,40.45176351,-37.26886015,0,124.0425192,0,30.85740194,-21.68351156,-38.32250721,121.4542345,1.669281013,19.17787957,0,-59.31503826,,,,
788.8879994,3081,647.6114968,-787.4228479,178.6160486,-41.23878438,-143.3325183,0,169.2022137,0,-3.927253695,-100.3612943,-20.77389314,-223.8868107,18.86069245,-81.1742631,0,108.238984,,,,
788.8959994,3081,669.9177887,-733.8497841,104.4547363,31.90017021,-63.37005669,0,-65.98153403,0,31.94517545,-8.550208607,-15.64776849,375.0262195,-21.41566168,118.7608643,0,4.415262375,,,,
788.9039994,3081,215.877717,-1065.800168,89.43653986,42.10980818,-31.14207242,0,237.447877,0,22.24323666,-71.62272164,-33.93417145,-231.9618697,26.7239321,-106.7820417,0,-41.28816921,,,,
788.9119994,3081,910.4237121,-634.728753,209.8875375,-13.20695125,-107.7025704,0,-38.00363469,0,52.25587268,-26.90505592,38.68216736,157.1175321,28.40180848,30.22052983,0,35.56257037,,,,
788.9199994,3081,232.7186202,-1064.641574,64.34655941,60.27139649,-6.816689181,0,108.2226115,0,46.03934442,-13.34997285,-24.03790797,150.1649309,8.828305062,20.49473907,0,-148.3373796,,,,
788.9279994,3081,581.0591991,-875.7465431,186.6516392,-12.93123182,-89.41530999,0,160.6826691,0,29.25347034,-61.04544013,27.47138057,-210.3669624,61.26575633,-96.812115,0,-16.48260937,,,,
788.9359994,3081,608.5093393,-823.3202944,123.7943359,5.704208327,-64.90412455,0,-47.66791496,0,50.37498262,27.31775265,31.13080097,403.0335251,10.36374415,122.1740653,0,-117.3516677,,,,
788.9439994,3081,101.50492,-1194.125873,75.00825566,-9.693628423,-59.7592384,0,271.9713035,0,-11.98623991,-72.21550173,-52.77455093,-204.0449914,9.352426534,-67.25615497,0,-113.7681939,,,,
788.9519994,3081,787.4550409,-747.4883176,187.1423205,-36.47591454,-108.0662822,0,-19.25375081,0,21.26860132,-32.90291305,24.02939229,134.0916357,25.82420279,47.61643864,0,-30.95033496,,,,
788.9599994,3081,99.99964608,-1167.213765,52.39630652,33.76714835,-16.25630718,0,120.5955688,0,36.11726584,-13.9143276,-11.15414457,143.367054,14.47255261,28.05129915,0,-237.1467977,,,,
788.9679994,3081,389.5699057,-1012.716199,163.0751564,-54.03151075,-115.4653754,0,190.1131765,0,-4.23647642,-91.65297488,1.700443573,-234.927552,31.24330715,-86.70856382,0,-78.5689517,,,,
788.9759994,3081,412.952716,-931.4382333,109.7488211,-3.745105402,-70.01429991,0,-48.51281124,0,29.67659748,-7.767315235,15.65791126,371.8238963,-7.012286507,115.5922608,0,-180.560661,,,,
788.9839994,3081,-154.1503844,-1293.511802,76.51592447,8.922270795,-50.21845301,0,265.5461467,0,-2.338917721,-86.29624595,-24.19170644,-216.5198068,16.92617347,-88.74745223,0,-209.491085,,,,
788.9919994,3082,502.3223934,-837.4385936,192.1696805,-29.78293605,-114.2680785,0,-14.13883242,0,19.14189614,-43.14604095,46.03978599,123.1046964,19.52951834,32.85620208,0,-111.6669028,,,,
788.9999994,3082,-195.8316071,-1247.952426,53.59839153,46.4984509,-19.29488265,0,109.1986655,0,34.11867815,-16.30128388,6.247026106,159.5952994,5.860700188,26.76816674,0,-321.3539684,,,,
789.0079994,3082,62.0198557,-1110.482161,163.7942708,-31.39871642,-108.0366776,0,188.7972656,0,2.165359675,-92.14380256,30.42729399,-231.3116639,40.21350907,-97.60973234,0,-176.6842764,,,,
789.0159994,3082,145.010872,-998.0077349,115.7278306,21.88816105,-62.23923447,0,-57.09660155,0,37.5264802,1.356624052,39.99974037,396.66454,9.683816294,113.8701764,0,-270.0802569,,,,
789.0239994,3082,-389.20733,-1371.816896,79.48011211,48.49998098,-28.34784989,0,251.055425,0,21.3558357,-62.82974805,-0.157686481,-178.4272833,33.53248958,-83.8144482,0,-314.3970259,,,,
789.0319994,3082,313.7508158,-940.1846805,203.1084081,-29.76939463,-112.8140132,0,-7.336219963,0,40.11360189,-30.26407955,69.23949358,144.0195805,36.08190069,28.7447146,0,-219.531254,,,,
789.0399994,3082,-322.9251808,-1339.929286,62.01067531,27.48819351,-30.23803792,0,121.3003817,0,34.52308122,-11.46632198,-2.520748416,202.4770536,5.513090506,38.90690052,0,-404.8042895,,,,
789.0479994,3082,-21.66588234,-1208.961132,163.4603122,-19.16048409,-94.58234667,0,196.5028041,0,9.337093514,-81.61656294,16.17701306,-234.7423446,29.03987054,-91.87474876,0,-255.084835,,,,
789.0559994,3082,119.2336425,-1108.444219,114.434666,-2.073184732,-77.05998058,0,-52.38307109,0,40.65132897,7.611005882,37.23725571,383.2198525,-1.581448657,113.1058173,0,-359.7302013,,,,
789.0639994,3082,-440.008613,-1502.354841,60.66184395,7.067843302,-65.19868703,0,273.541323,0,-15.74785156,-81.48376616,-36.9450546,-183.7901541,5.582137749,-73.92361573,0,-387.2293777,,,,
789.0719994,3082,290.9963597,-1034.629932,183.6428823,-9.925777773,-105.1978532,0,-9.0200941,0,8.019190045,-48.9807243,40.75025603,93.37325623,11.2167165,25.12107032,0,-282.8171404,,,,
789.0799994,3082,-320.2436522,-1430.135823,53.88414771,44.70596043,-23.50576,0,96.08249741,0,39.58711458,-0.815934945,14.68381536,172.5886402,12.29779725,20.75648908,0,-516.3853904,,,,
789.0879994,3082,-64.76236142,-1334.756342,156.5599812,-38.14341308,-121.5927805,0,207.1621912,0,-1.477640603,-77.08137825,11.26621769,-258.1520637,37.70852008,-111.2576501,0,-364.6223883,,,,
789.0959994,3082,118.3074487,-1188.838281,111.077422,5.465829365,-77.66693363,0,-53.7483777,0,22.99218498,4.581067885,17.84162264,367.1871427,-5.71761401,105.8363187,0,-436.2860414,,,,
789.1039994,3082,-430.3391911,-1591.473459,56.3004768,14.0455863,-59.32528778,0,274.4438041,0,-3.383624284,-61.61779812,-30.64934572,-190.7782173,12.28453412,-85.60606172,0,-487.7802286,,,,
789.1119994,3082,317.850179,-1141.482982,178.2018851,-31.53656253,-126.9512724,0,18.87647315,0,11.34410129,-25.0478954,31.83488116,74.64394883,8.628043359,12.62511004,0,-370.4486125,,,,
789.1199994,3082,-255.4679032,-1507.969795,39.09408698,37.38073451,-31.80272458,0,115.6004956,0,20.17865025,9.564695729,-15.29444141,181.7398031,-11.69083257,33.20724965,0,-575.817537,,,,
789.1279994,3082,-12.1414877,-1424.663089,137.9141824,-40.78743783,-123.7556583,0,236.1507024,0,-12.15542492,-70.57971038,-1.662457432,-265.9035579,18.94907159,-107.4630755,0,-431.8978564,,,,
789.1359994,3082,199.1751336,-1265.92526,100.9776578,5.439720153,-82.168653,0,-39.76572652,0,19.73356736,19.27915949,17.25013121,377.650967,-22.85548643,106.055667,0,-503.9857102,,,,
789.1439994,3082,-366.0895651,-1657.41545,47.98789943,43.78686478,-34.26565391,0,268.7485083,0,-0.553482378,-42.90355467,-22.37427715,-154.4549692,8.974164784,-83.78215375,0,-572.1909673,,,,
789.1519994,3082,374.257549,-1213.538883,185.2827088,-18.28384411,-114.0137667,0,21.39998217,0,32.81012306,-5.585824797,60.44219036,88.54691954,30.26623888,2.681862166,0,-471.874127,,,,
789.1599994,3082,-305.2363373,-1635.245559,-17.78524855,57.91535895,-8.509826291,0,41.37664958,0,43.06062045,67.26438998,-20.32394064,513.3628582,-37.71354599,141.7294457,0,-728.9735133,,,,
789.1679994,3082,-322.5014522,-1716.595232,33.67181294,-5.49444266,-79.63323755,0,292.2729795,0,-26.6338637,-62.34741928,-60.79366539,-149.5657371,-19.5319458,-57.44467732,0,-560.7576977,,,,
789.1759994,3082,378.7134778,-1294.047444,159.9071227,-63.4176283,-154.5202932,0,79.74520956,0,-11.92682563,-54.97858396,9.522032848,16.9274459,-1.423405798,6.52971295,0,-425.8026998,,,,
789.1839994,3082,-84.39587926,-1583.516203,50.5744666,-6.390509742,-82.14350826,0,138.9137057,0,2.321757699,-16.32959989,-24.54221859,158.7530862,-23.88111494,45.24867696,0,-600.3682554,,,,
789.1919994,3082,-22.481812,-1567.808189,83.81484191,-23.69481105,-106.1107535,0,196.8457881,0,-14.13774372,-48.81706876,-26.4745758,-31.50263418,-19.21759412,-4.391331875,0,-545.9534857,,,,
789.1999994,3082,153.7194575,-1468.214288,119.8064264,-32.49296049,-119.8466922,0,159.7523491,0,-9.697054925,-46.89185818,-2.254558599,-44.10112255,-10.91152588,2.054399429,0,-508.0125943,,,,
789.2079994,3082,24.49184412,-1541.210298,64.64172327,10.21076991,-70.455882,0,101.7747887,0,13.48173417,2.529842296,4.658995037,175.8279007,-13.00700211,72.00064544,0,-600.6980395,,,,
789.2159994,3082,-67.83426591,-1634.192984,83.01533689,-3.51803288,-90.78848138,0,223.513419,0,-1.149303808,-35.5199961,-2.706084014,-88.94739052,5.256042858,-13.85266899,0,-575.3030168,,,,
789.2239994,3082,233.6005062,-1452.449249,131.8744503,-11.03365344,-106.0051325,0,86.99263826,0,17.78849719,-13.87626583,26.76254806,68.10260312,5.448972059,36.02230537,0,-553.2788847,,,,
789.2319994,3082,-75.291093,-1644.829352,59.90726633,36.47855588,-38.84248213,0,107.380266,0,33.68962855,11.45783647,8.976308363,145.269516,5.997441822,40.4327296,0,-695.4174942,,,,
789.2399994,3082,50.61562395,-1607.179956,133.0404148,-16.4703489,-113.0126104,0,220.3807703,0,3.103721146,-46.79450064,17.45623684,-200.2992911,31.30261134,-64.13153724,0,-607.977855,,,,
789.2479994,3083,229.7060215,-1480.359719,105.7922669,5.992352315,-97.48125379,0,12.03662824,0,25.28549692,21.69024115,35.08769735,290.1742683,-1.658313277,110.5384274,0,-658.4319238,,,,
789.2559994,3083,-216.0528838,-1804.132221,51.70242001,36.81537195,-51.59995077,0,243.6500208,0,4.319666491,-29.92158387,-8.16559209,-117.523038,9.255204256,-31.99890842,0,-710.33019,,,,
789.2639994,3083,385.8871219,-1450.869761,171.0870226,-1.621817928,-109.2754598,0,62.92446958,0,27.37081227,-2.203725096,58.85253344,25.86057108,34.73297243,16.80816542,0,-627.3383403,,,,
789.2719994,3083,-9.595196817,-1706.65521,70.80486883,45.17928965,-40.93751069,0,104.4004049,0,34.10896551,36.16710795,17.70788499,224.1164466,10.30319446,74.39262885,0,-794.6421545,,,,
789.2799994,3083,295.1503874,-1593.082348,184.5491203,-37.8097007,-146.8405888,0,258.7332321,0,-28.62818505,-80.73524089,9.153707904,-331.6087019,20.12021801,-86.94593293,0,-558.8641149,,,,
789.2879994,3083,1110.846484,-1067.765979,249.0992962,-63.82461761,-196.4551687,0,-189.986854,0,12.59541536,21.35432508,85.57957715,471.1759605,-12.79728713,195.5261702,0,-478.9272881,,,,
789.2959994,3083,423.8801455,-1509.712598,122.0234627,-7.230709994,-113.825279,0,5.752365934,0,10.10814083,22.21432772,27.46648723,360.2148043,-20.01820467,143.9343387,0,-690.0726898,,,,
789.3039994,3083,749.0983563,-1340.234129,222.6948148,-54.10783822,-176.7314491,0,22.53887836,0,-7.524273279,-26.27314687,51.37896189,94.00370092,2.853655514,62.15673902,0,-601.6582648,,,,
789.3119994,3083,342.3452772,-1591.974762,99.93259714,16.34553198,-87.41066808,0,10.41889963,0,19.90369508,35.71396905,24.20116785,381.3792793,-18.9440977,142.7609949,0,-788.9305773,,,,
789.3199994,3083,-236.2853835,-2011.504535,45.65911827,48.29072453,-42.87230407,0,337.7555968,0,-0.539921003,-30.61342882,-29.72082528,-196.6264734,5.150675067,-68.81795851,0,-862.6879881,,,,
789.3279994,3083,568.5938244,-1528.770599,183.7450632,-14.62383323,-129.8423792,0,88.36903272,0,11.99777181,-13.79368566,44.78169699,36.16206264,14.20581449,15.66003709,0,-716.8892709,,,,
789.3359994,3083,189.8099263,-1768.715952,68.19646282,32.94477787,-59.54700655,0,101.9021737,0,24.25367099,27.50807245,20.67330388,262.7691333,-3.515211783,83.8058212,0,-871.6288233,,,,
789.3439994,3083,50.90258128,-1906.647944,85.32178421,26.94517941,-71.48769195,0,289.5095429,0,-1.603835813,-39.72634621,-0.349037208,-175.0593914,18.43064627,-60.3977352,0,-828.1608052,,,,
789.3519994,3083,602.3609816,-1565.148623,159.7352813,4.462046997,-117.1141921,0,47.56007649,0,20.71350621,7.977998571,47.96541027,217.3101506,8.595417445,74.58819682,0,-773.4049475,,,,
789.3599994,3083,58.54441861,-1923.570649,54.88355471,54.22351153,-45.95022684,0,199.7781747,0,19.85473828,18.72251768,1.239038332,152.9034235,-0.358916022,38.08685389,0,-932.3912401,,,,
789.3679994,3083,389.0439542,-1767.699806,151.3519931,9.465577765,-100.7755141,0,225.0924437,0,5.489304196,-26.97038208,22.65745958,-106.4993688,26.00717904,-40.2353017,0,-807.2091482,,,,
789.3759994,3083,531.7164873,-1674.274091,114.7399857,29.91015636,-75.56160905,0,30.8548387,0,41.8258955,40.34314899,44.81990228,370.5903336,11.18218284,114.2277562,0,-882.1075353,,,,
789.3839994,3083,60.07821707,-2016.49448,53.28142347,34.89691953,-58.10627653,0,293.239353,0,19.73693381,-21.48611381,-5.110807029,-53.14325597,22.80412931,-36.36172406,0,-942.2909388,,,,
789.3919994,3083,704.4390369,-1626.148478,166.3105651,-7.604548446,-120.8486351,0,93.19356886,0,24.10384901,-13.52772565,42.40928935,116.5010219,20.96792277,36.74706687,0,-823.4169773,,,,
789.3999994,3083,248.5038956,-1900.107036,53.34682495,65.53308034,-23.26954433,0,121.0945758,0,35.21054144,22.98944854,8.423793444,278.3856335,3.431544349,78.42261231,0,-1009.98962,,,,
789.4079994,3083,366.8697031,-1888.615446,141.9998604,7.952782236,-88.51491198,0,268.6921157,0,14.31552027,-52.42322012,15.99200269,-192.9347464,45.97892398,-78.72997843,0,-915.9184362,,,,
789.4159994,3083,686.4852454,-1677.70059,135.8647829,13.77943216,-91.43872224,0,9.115492372,0,47.79493107,25.84159863,44.74396899,369.9825218,11.19912852,117.1707252,0,-942.7694604,,,,
789.4239994,3083,74.58955921,-2090.485765,38.95214986,57.64293594,-35.90587375,0,278.8646943,0,18.40472336,-28.37206827,-16.60828992,-38.01643801,11.88108747,-29.60847224,0,-1029.146093,,,,
789.4319994,3083,763.341676,-1692.949793,180.6573492,2.34387006,-119.6528293,0,102.0317631,0,30.59279339,-22.71421777,52.89898506,56.14062685,41.15042789,2.938833813,0,-905.2507675,,,,
789.4399994,3083,348.5891649,-1951.143806,61.38222734,55.42183035,-45.39018215,0,115.8386384,0,41.04786742,27.76717925,13.9029311,333.7190222,-2.611108122,92.58089707,0,-1074.920622,,,,
789.4479994,3083,385.0984985,-1980.487795,123.065616,7.257782427,-93.00421331,0,302.3602509,0,-0.748151853,-61.70660795,1.406196955,-210.6909307,20.35365623,-80.23769785,0,-962.2776284,,,,
789.4559994,3083,787.3819589,-1720.851456,135.0590013,10.37601943,-101.4118657,0,11.25877371,0,39.73413743,28.11235182,46.84921835,378.6059324,11.55547442,113.5950947,0,-1002.391583,,,,
789.4639994,3083,123.8967512,-2170.149362,31.47471706,47.20738385,-51.67483638,0,309.8319875,0,-3.956083723,-33.54911592,-38.59831583,-11.6897845,-7.312272685,-11.33303074,0,-1077.421502,,,,
789.4719994,3083,813.6535195,-1744.105254,170.9027627,2.301832945,-110.8662299,0,127.6728108,0,5.456905761,-36.77669025,29.30488651,50.33939655,9.74962578,19.69988181,0,-921.4246315,,,,
789.4799994,3083,412.6876677,-1983.777326,59.03703879,55.66906926,-31.5166711,0,105.2528764,0,50.2124895,36.97872402,29.18795121,358.0557719,9.661096562,96.3825474,0,-1142.693305,,,,
789.4879994,3083,401.8801784,-2048.540719,120.3975019,0.846012568,-98.63986629,0,315.9868333,0,-8.930385057,-68.07026808,-1.030582142,-214.8365247,29.13927758,-77.94613414,0,-1028.933921,,,,
789.4959994,3083,835.9576939,-1750.515252,138.0987785,23.74014252,-81.09401033,0,-4.60703608,0,26.82456515,23.85042583,40.47128046,387.5556294,6.498670615,123.6246386,0,-1047.891976,,,,
789.5039994,3084,136.6529919,-2225.839466,37.99626382,49.4567347,-24.4824774,0,291.2047665,0,18.62142903,-11.80216849,-10.3776064,-3.424467231,23.88141665,-25.21395719,0,-1178.088776,,,,
789.5119994,3084,806.3319202,-1823.984708,179.0354302,-24.1666831,-128.7159604,0,143.5513506,0,7.363516139,-37.38430317,29.16386155,18.05253929,27.35407747,5.097778631,0,-1001.529593,,,,
789.5199994,3084,410.1936635,-2050.076575,52.86152674,45.74359835,-39.6236248,0,105.3898064,0,30.12588846,33.39201724,-11.06710568,339.957033,-14.01063629,99.68886579,0,-1184.892634,,,,
789.5279994,3084,356.2608181,-2139.483512,106.7490929,-12.44636943,-92.48121323,0,326.1994833,0,-7.665817718,-51.10308164,-24.10299113,-265.5832844,18.05665744,-103.8646177,0,-1099.323027,,,,
789.5359994,3084,819.5876571,-1804.705572,137.3075373,16.63268299,-85.22446166,0,4.569038229,0,33.29997682,38.68867577,30.75485892,329.120203,6.065490406,97.95776526,0,-1109.668348,,,,
789.5439994,3084,114.1827773,-2264.833256,35.93388855,80.94334581,-9.133008479,0,276.253826,0,33.02998437,22.30045641,-5.19749489,-38.91418814,32.36125073,-41.53215072,0,-1248.91589,,,,
789.5519994,3084,781.2321711,-1880.699087,184.3449478,-9.345306617,-118.7780632,0,130.3054714,0,30.69636588,13.26921248,56.45050224,-26.07563801,52.73685995,-27.85318267,0,-1103.6505,,,,
789.5599994,3084,424.5712433,-2082.307981,63.43692309,51.97023718,-39.04808822,0,84.09556401,0,35.76759344,67.61483529,1.841075732,335.3914905,-1.871314083,88.91051657,0,-1277.08829,,,,
789.5679994,3084,353.3110252,-2174.725614,111.4716621,13.79361594,-77.26153379,0,308.7351737,0,-0.906144197,-24.4784048,-11.21487565,-276.2689284,28.08331078,-113.9147122,0,-1192.27112,,,,
789.5759994,3084,836.8616535,-1847.244666,147.6436343,16.50649357,-84.42924043,0,-5.226208072,0,43.8367254,61.25884492,52.49277633,313.8782334,19.57226411,80.45696734,0,-1207.736652,,,,
789.5839994,3084,118.5393126,-2320.723532,35.99493852,71.44485656,-11.52751414,0,277.8327801,0,26.78748054,27.76069133,-14.14198551,-35.80454688,27.58965173,-45.35622184,0,-1337.374271,,,,
789.5919994,3084,769.5902937,-1922.076828,179.4658425,8.006343891,-95.46625946,0,138.4919195,0,31.17629004,14.82311539,47.11205632,-49.95394466,49.46793284,-39.39826463,0,-1182.715921,,,,
789.5999994,3084,426.6134179,-2102.037789,66.51282221,66.21534435,-20.20557429,0,83.46573083,0,51.1346235,82.3600056,21.38423321,332.3197791,10.82736477,80.64830925,0,-1364.363667,,,,
789.6079994,3084,312.9892097,-2224.954639,109.6799179,14.70166804,-77.77726451,0,327.8778081,0,5.40350391,-12.74262101,-7.240453397,-288.3239191,36.24812744,-122.1861393,0,-1280.712974,,,,
789.6159994,3084,807.2652672,-1885.734053,141.8871828,8.200251172,-94.72908707,0,14.79300461,0,36.14363426,57.80238706,33.37714937,301.4280755,5.242002617,77.72844536,0,-1273.775816,,,,
789.6239994,3084,76.92431765,-2356.49311,25.37238365,53.22630462,-30.88951859,0,299.276856,0,9.95461327,19.54980816,-36.82536733,-19.5088838,-2.967208795,-38.1752261,0,-1399.269878,,,,
789.6319994,3084,715.1108652,-1961.767173,175.8130506,10.90380607,-101.5482283,0,164.29008,0,21.69007923,15.44362067,32.57533247,-62.33426966,27.30980707,-48.31761467,0,-1242.277599,,,,
789.6399994,3084,397.799356,-2133.914048,70.85604136,77.74584423,-11.42017467,0,90.33638304,0,63.70329741,94.29205436,25.9607463,347.5698738,8.86128778,73.69709986,0,-1431.801235,,,,
789.6479994,3084,257.166123,-2285.246517,110.2989548,2.63700732,-80.92647769,0,353.7361992,0,17.95583689,-6.994892662,0.108764452,-268.4158355,45.63355327,-127.9790498,0,-1357.859293,,,,
789.6559994,3084,778.8826887,-1917.227418,148.7544115,12.37439105,-90.78997725,0,28.54472115,0,39.98741829,58.23357442,36.05939061,299.8661022,8.415697172,67.39278885,0,-1337.225771,,,,
789.6639994,3084,45.49200785,-2383.481851,31.33912051,69.15575127,-15.9812492,0,299.6504016,0,19.8536034,22.40733476,-31.7098615,-9.774164888,3.000134308,-45.38120908,0,-1472.501974,,,,
789.6719994,3084,665.6674927,-2007.707502,176.1294774,1.482057435,-105.7520432,0,179.7297153,0,31.89756172,13.86415062,37.63125169,-76.73216865,46.52290045,-62.07058147,0,-1316.938963,,,,
789.6799994,3084,374.8224354,-2145.287963,64.43682429,79.62371113,-11.67699696,0,70.38088757,0,67.84524234,96.35355803,22.40343682,351.0807156,11.54476168,64.54513453,0,-1503.99927,,,,
789.6879994,3084,201.8725428,-2307.152274,99.33322366,6.350474702,-80.10499846,0,336.0535896,0,16.08904118,0.304655601,-7.2480511,-267.7207623,35.7142403,-139.6353265,0,-1446.580225,,,,
789.6959994,3084,728.502882,-1942.827786,140.0963376,-14.84926955,-119.7311078,0,27.72784377,0,30.25631299,63.33775458,34.82926998,294.4631258,1.96166503,61.73091651,0,-1411.687672,,,,
789.7039994,3084,-22.79638926,-2403.841045,8.962254329,45.06086514,-36.63521673,0,289.2674728,0,9.298801993,27.95923022,-29.38393533,1.865677321,-11.38412902,-39.22442098,0,-1539.643938,,,,
789.7119994,3084,556.0934306,-2045.027062,151.1793881,-40.56946034,-130.1388881,0,190.8014377,0,15.61961836,10.27789213,40.06174546,-93.9848766,24.94664033,-68.09017465,0,-1382.673672,,,,
789.7199994,3084,248.2013428,-2177.074231,41.35369206,28.79250599,-53.9430474,0,90.38416713,0,33.68576104,82.39327441,6.18320868,359.7524463,-24.03144418,69.93117052,0,-1538.791938,,,,
789.7279994,3084,15.37605059,-2329.503488,76.65509045,10.18647757,-79.60137549,0,353.3134517,0,-7.534076115,-1.348912769,-23.07129076,-266.0365006,11.18641837,-135.4072115,0,-1471.477211,,,,
789.7359994,3084,538.6566944,-1937.091258,139.8144225,4.690373011,-96.052812,0,28.80598989,0,38.61782628,89.34948313,53.32289734,285.9134977,10.16737702,47.57193995,0,-1460.898508,,,,
789.7439994,3084,-231.0898432,-2405.671548,9.385718389,66.80077587,-20.09960658,0,276.0305361,0,14.5360164,59.97531675,-17.24531937,39.74441397,-7.003132772,-45.31834097,0,-1606.106527,,,,
789.7519994,3084,349.7492941,-2051.003439,154.9521217,6.279088752,-98.12561698,0,179.7724747,0,19.45360912,37.32248378,49.76013803,-71.22060434,38.63251191,-75.26069894,0,-1454.660237,,,,
789.7599994,3085,101.9518367,-2157.323602,60.47475983,60.50684822,-24.72100875,0,65.76032288,0,58.91150463,121.4221196,48.55810243,396.9662323,8.625652809,69.18899366,0,-1631.523165,,,,
789.7679994,3085,-87.00520783,-2306.525183,114.8979955,-0.546460425,-98.746158,0,378.7195766,0,-8.642428213,-13.50675948,12.50738994,-418.3043522,32.69280243,-187.9069915,0,-1492.426546,,,,
789.7759994,3085,592.2203735,-1807.723206,192.32058,-1.621157894,-118.016424,0,-36.38731364,0,44.91472869,89.98341082,102.0969246,222.2165226,34.6011385,26.29770886,0,-1433.681635,,,,
789.7839994,3085,-443.0316701,-2431.636705,-19.82802879,97.70678546,23.51123793,0,179.1844839,0,54.7388882,135.7582995,17.97673309,276.886366,5.596600665,22.55447234,0,-1730.058194,,,,
789.7919994,3085,67.93347486,-2172.485203,154.8427849,-22.63924221,-116.4712258,0,285.7398077,0,-9.370775992,6.374302389,22.73143894,-295.5750761,35.76734076,-135.8161706,0,-1478.51746,,,,
789.7999994,3085,263.2317991,-1993.37161,113.6846348,19.55459967,-69.19320323,0,-17.44896795,0,34.87564957,112.3582781,51.38459736,415.1272709,-1.024876655,104.9914676,0,-1566.499325,,,,
789.8079994,3085,-465.2904573,-2476.864207,19.48241713,42.3256571,-31.7153144,0,340.7784785,0,5.503895412,59.51119476,-9.967744687,-96.50174138,-0.569998595,-66.64523141,0,-1653.218322,,,,
789.8159994,3085,328.2574562,-1982.205255,168.0868974,-28.78584072,-135.8178695,0,131.6007872,0,3.098500516,48.7409194,52.04919703,1.657341657,12.10440757,-13.0436266,0,-1452.721748,,,,
789.8239994,3085,-269.2218655,-2300.260725,-34.36738058,85.38136789,10.06580587,0,27.12484809,0,52.34911563,176.3179086,17.91463538,650.6937447,-28.92857086,177.4821491,0,-1768.426483,,,,
789.8319994,3085,-589.8574366,-2539.893116,-45.1833607,70.53280592,1.905782093,0,274.3837457,0,19.655629,109.0990565,-17.15952371,179.8945245,-12.62335168,20.50089546,0,-1797.898331,,,,
789.8399994,3085,71.30794107,-2141.006383,104.1785145,9.780277525,-84.93571572,0,154.5811288,0,9.536935716,75.20195804,30.55755821,64.85963769,6.941462024,-4.148318209,0,-1621.156944,,,,
789.8479994,3085,-52.58278101,-2218.674315,92.34407037,27.44983523,-64.20738183,0,203.9849519,0,8.637644232,81.68485176,19.28347817,-40.45122414,11.94043112,-47.06068087,0,-1649.242558,,,,
789.8559994,3085,29.42939577,-2139.82022,95.02119309,45.30625101,-47.4093892,0,104.0584202,0,33.81329627,127.3155019,41.1311801,164.7064343,12.62273744,20.84725425,0,-1689.398315,,,,
789.8639994,3085,-207.6109713,-2287.570645,69.32447848,49.99666658,-28.21672119,0,198.0610212,0,36.86911169,126.0584319,35.90488817,21.83064384,21.07581748,-33.72169175,0,-1756.618982,,,,
789.8719994,3085,24.18662795,-2151.747278,130.6041275,8.891932376,-74.69185277,0,173.5169754,0,21.90101643,110.0807202,52.65151312,-52.78535626,21.89248942,-50.41013882,0,-1686.456397,,,,
789.8799994,3085,-82.47571784,-2177.557992,73.91894626,64.03604752,-18.3730598,0,65.10431891,0,51.31656731,168.4819275,54.37257859,287.9469625,15.95151674,60.29565276,0,-1787.814965,,,,
789.8879994,3085,-263.2726873,-2328.233066,95.79824219,20.01576694,-59.26533429,0,280.5720467,0,22.62296784,102.870437,31.78679036,-181.9922557,38.03893411,-91.86856261,0,-1756.577185,,,,
789.8959994,3085,175.9618176,-2047.733887,136.2265039,-31.36476041,-115.2151422,0,75.3211158,0,12.70444663,134.4702679,43.42463501,202.7170493,-17.46035745,63.46868299,0,-1691.05107,,,,
789.9039994,3085,-380.1032575,-2392.951736,21.03820269,27.2231879,-45.38111155,0,246.0728341,0,-7.802621769,116.2275589,-20.785122,50.96788573,-33.51351307,13.2883188,0,-1788.474759,,,,
789.9119994,3085,38.76480651,-2145.217163,129.6271315,-0.596920018,-97.49326692,0,206.1479205,0,-10.07940219,91.5504234,28.26085033,-136.2196692,11.28846497,-51.91088907,0,-1661.042774,,,,
789.9199994,3085,-44.56518314,-2158.841435,64.60783573,56.77633133,-24.0700136,0,46.16405616,0,31.64006425,183.5439817,49.51520983,347.9050284,2.009725289,93.02585584,0,-1802.529078,,,,
789.9279994,3085,-331.4102326,-2391.006306,69.96455807,14.78332176,-56.38547622,0,318.5286884,0,-6.393402808,96.32617998,7.021999833,-222.5852728,18.87813821,-93.60546754,0,-1774.541888,,,,
789.9359994,3085,257.0773941,-2001.820629,141.7705676,-13.53596359,-102.481563,0,40.47057475,0,16.07569569,149.2693645,45.33985065,207.743714,-4.587510688,66.43122903,0,-1708.970208,,,,
789.9439994,3085,-461.2844005,-2409.263826,17.16707452,55.8997641,-10.62366075,0,222.7843924,0,15.41674984,150.4449653,-2.082896888,67.27296542,1.302400539,4.493095735,0,-1873.904011,,,,
789.9519994,3085,-80.00104977,-2149.243785,140.1480247,-9.109198894,-99.94003313,0,203.9897985,0,-6.104191268,90.70631388,39.68775676,-156.6198433,19.23596658,-60.88920198,0,-1718.430534,,,,
789.9599994,3085,-191.255322,-2152.177742,69.48332029,56.72853429,-24.76162933,0,30.69907493,0,42.43165355,182.3650698,52.84235401,376.1825619,-7.178462174,111.9034634,0,-1856.280811,,,,
789.9679994,3085,-559.4442856,-2417.094475,73.10719665,24.48801615,-37.92288941,0,324.2827312,0,12.13595128,104.0378836,13.83630946,-235.0430441,38.31658296,-92.02335676,0,-1845.38177,,,,
789.9759994,3085,67.71417209,-2000.644568,152.1502053,-25.45133581,-108.5074454,0,38.57317059,0,8.782999774,134.3571207,40.45133188,212.0508201,1.25613225,75.04167941,0,-1759.232719,,,,
789.9839994,3085,-630.4836983,-2426.554665,12.24138183,53.80531462,-20.51748576,0,229.851995,0,4.397089003,128.4440579,-18.82803441,90.32868387,-17.54164543,23.71217419,0,-1916.11934,,,,
789.9919994,3085,-172.6671606,-2150.00952,141.8661421,14.66811596,-85.68559223,0,200.3282385,0,7.770158608,93.57596079,44.79813911,-163.3976986,29.20501318,-57.11997948,0,-1758.498634,,,,
789.9999994,3085,-238.1136228,-2144.156359,74.05785177,65.36460652,-26.90184892,0,11.17895475,0,48.99168443,183.5331565,62.10714756,401.7564143,3.888468293,114.7597888,0,-1905.256855,,,,
790.0079994,3085,-617.3152431,-2431.374606,68.42892423,29.54469134,-51.24236611,0,326.3238353,0,2.026492554,89.16455954,7.452024172,-211.0201687,21.37025629,-91.04513368,0,-1890.074196,,,,
790.0159994,3086,47.50120732,-1987.774273,158.5998259,5.801787013,-87.70804349,0,31.67645969,0,20.54147194,141.6454648,51.05977097,224.7164116,0.558387004,75.38130378,0,-1798.187037,,,,
790.0239994,3086,-668.1873154,-2431.166494,20.0009067,52.74342256,-15.04343905,0,235.3340394,0,15.78755684,134.3950974,-5.656004586,129.3727077,-9.332618135,36.33333507,0,-1963.149156,,,,
790.0319994,3086,-236.6247583,-2186.809571,132.3344408,-39.34076977,-120.5262997,0,246.1879939,0,-18.52521863,50.42725309,17.42521754,-154.4313632,7.846016827,-42.05763206,0,-1777.394753,,,,
790.0399994,3086,-274.3104382,-2156.54471,47.64072331,23.02023922,-43.55656194,0,37.07003392,0,16.87395912,115.2214898,14.82124023,395.8033764,-33.43981272,136.0985293,0,-1897.321551,,,,
790.0479994,3086,-658.3028104,-2447.004866,36.94041505,21.36058411,-39.38680495,0,330.6895576,0,-8.324754213,22.65058261,-18.57471761,-237.9374629,-0.716719108,-83.65708297,0,-1899.426951,,,,
790.0559994,3086,40.74272853,-2003.445631,137.0663195,-24.335043,-102.8344731,0,37.176302,0,14.73438675,73.24069211,46.52177976,180.186039,-6.428135528,60.79803465,0,-1821.961087,,,,
790.0639994,3086,-650.6627947,-2432.452984,-5.425255718,22.95778915,-35.28916015,0,235.3932027,0,-3.423972949,72.0558048,-24.35035011,107.3665378,-36.17559864,27.71299958,0,-1987.346669,,,,
790.0719994,3086,-210.5579878,-2182.428192,113.546915,-21.38375971,-108.1146439,0,243.2653026,0,-28.67474809,20.88074946,0.480690397,-205.239082,-9.505192369,-58.19601189,0,-1806.524373,,,,
790.0799994,3086,-207.3679512,-2140.892241,48.14396153,38.94343497,-44.0881791,0,28.32796982,0,25.01878554,128.5425794,26.17185167,368.0836113,-7.098278647,121.4450327,0,-1939.196195,,,,
790.0879994,3086,-615.6504034,-2445.371605,33.95007541,20.7050594,-53.99475616,0,343.9194794,0,-11.64103314,40.16714764,-16.37008489,-234.7910833,17.20787226,-85.52226973,0,-1937.301191,,,,
790.0959994,3086,92.10307183,-1984.823722,135.6508541,2.401944918,-84.97752632,0,36.92875372,0,11.45107659,81.79170569,39.45845135,168.230507,-0.423815148,57.05525713,0,-1845.974581,,,,
790.1039994,3086,-594.8301307,-2407.66514,-0.411290035,72.62805102,6.443031618,0,191.7334112,0,24.52432283,98.16371754,-4.264250416,111.9659976,4.582253217,11.31728654,0,-2049.476828,,,,
790.1119994,3086,-177.6433181,-2189.001439,123.2393311,-8.316270838,-104.2851085,0,228.4044786,0,-0.815676834,34.36092773,27.65902212,-201.8542953,26.58203477,-86.16831091,0,-1888.579376,,,,
790.1199994,3086,-142.4732891,-2132.122635,57.96009467,38.81243295,-51.87051169,0,25.85393921,0,32.47610865,120.7034776,32.86559558,399.7388446,-16.65603778,114.788834,0,-1991.812832,,,,
790.1279994,3086,-574.3775039,-2440.020812,29.94734003,33.72353389,-43.97679832,0,337.4338618,0,-3.450007184,34.25710095,-16.54690982,-200.0667209,6.712347628,-84.89111485,0,-1986.545956,,,,
790.1359994,3086,144.1052468,-1972.509883,131.884088,1.983554572,-96.17039688,0,40.83335771,0,19.56313717,66.851993,41.74243622,183.6530119,-8.408551239,51.70071652,0,-1888.136183,,,,
790.1439994,3086,-526.9179132,-2388.724484,0.285779248,77.49788505,-4.222882706,0,199.7630183,0,36.00354784,91.52520872,0.919771902,159.4842189,-8.842035399,21.3152877,0,-2083.305746,,,,
790.1519994,3086,-144.5295508,-2191.452572,117.6733605,-9.566716883,-104.0574942,0,252.4890845,0,10.06494942,35.15393483,28.06973545,-173.2811352,27.58178204,-75.42617415,0,-1913.163065,,,,
790.1599994,3086,-92.79526123,-2109.090431,50.95403609,39.89746845,-33.26879516,0,21.11498337,0,41.88462066,105.5240085,27.95930246,417.8758875,-14.23545035,119.0383578,0,-2016.225708,,,,
790.1679994,3086,-542.8422757,-2436.812227,32.96219305,43.3950896,-21.14181905,0,335.9139013,0,17.04853932,13.54998782,-12.28357761,-189.3103813,24.64498749,-88.81337789,0,-2035.131159,,,,
790.1759994,3086,184.4562105,-1979.161685,142.8056286,-4.942343392,-98.3394096,0,61.41879144,0,30.79176906,45.29407625,38.69209737,173.0321065,11.59625331,51.6910396,0,-1925.497656,,,,
790.1839994,3086,-476.8697884,-2367.582805,2.057135261,87.59799611,19.81285023,0,189.3459221,0,31.78498486,58.6129867,-16.44876626,159.0658835,-9.375196392,26.1763602,0,-2121.566732,,,,
790.1919994,3086,-107.4871747,-2181.246314,128.9042338,14.89476551,-67.8510881,0,243.5629567,0,21.73764706,5.933127116,35.35687502,-205.3481834,52.07346984,-93.01706694,0,-1978.857883,,,,
790.1999994,3086,-11.81386888,-2086.583013,70.79617664,52.42457614,-29.34315955,0,17.62866917,0,57.19872623,97.11533402,45.94561682,408.0738585,12.2575674,110.811311,0,-2079.522602,,,,
790.2079994,3086,-487.7161053,-2421.474068,34.90477231,56.14852127,-15.93073945,0,334.9072093,0,11.80943132,6.172662251,-13.2800789,-172.398007,19.24046673,-87.02397838,0,-2095.852961,,,,
790.2159994,3086,235.6468555,-1976.327745,144.368263,-11.2457676,-109.4663275,0,73.59409074,0,23.41150681,38.11296244,43.31451151,169.9104004,10.36664952,44.68424792,0,-1981.40163,,,,
790.2239994,3086,-411.2992516,-2364.943513,-10.05738492,63.96385694,-13.70053949,0,206.1639196,0,13.15099128,47.61798359,-29.02416631,180.4880927,-23.63598431,39.4160281,0,-2151.962854,,,,
790.2319994,3086,-71.58041122,-2180.493638,104.8855384,9.239829036,-72.53072233,0,266.0560051,0,-3.009888485,-24.37253674,5.326664187,-207.8182903,18.17050267,-85.9624218,0,-2000.616271,,,,
790.2399994,3086,36.366297,-2076.678198,61.88720009,46.0947707,-33.22725658,0,28.70238005,0,52.81320281,85.50443558,37.63074712,402.7349844,1.012253705,110.4722019,0,-2118.277919,,,,
790.2479994,3086,-526.7123422,-2493.208481,26.67161697,16.14103456,-52.51258913,0,456.637086,0,-25.5954474,-31.04788559,-55.29067833,-396.300483,13.53055547,-147.7603102,0,-2071.834416,,,,
790.2559994,3086,365.7495786,-1937.030106,152.8206564,-64.55876086,-149.7060548,0,147.0268847,0,-26.98408884,-15.39511757,-6.769244011,-8.547181957,-19.60993149,5.339913953,0,-1866.97755,,,,
790.2639994,3086,-309.8198098,-2302.845598,-53.43819675,69.63417834,8.591957818,0,103.0197972,0,26.31094074,85.39614528,-36.88111858,467.2892977,-47.60245223,140.8909611,0,-2155.626896,,,,
790.2719994,3087,-616.7738606,-2569.213328,19.25504879,9.694974441,-46.10389461,0,574.794435,0,-38.82287725,-80.57045793,-64.48048327,-691.2872858,38.95115267,-240.927974,0,-2028.888881,,,,
790.2799994,3087,-147.2982585,-2262.997573,79.41373848,-24.89140907,-87.87875526,0,366.0399965,0,-23.9836755,-45.76735168,-28.06209259,-359.4413552,18.98607577,-123.7748997,0,-1995.915368,,,,
790.2879994,3087,-206.1030196,-2263.916076,11.59133975,29.53474941,-29.96729325,0,204.7287885,0,6.100453445,31.23886229,-24.21811877,110.7419569,-9.206428354,22.26217249,0,-2135.970392,,,,
790.2959994,3087,141.8685502,-2052.74627,81.96886918,-11.55451971,-73.3746496,0,120.5002526,0,-0.228542304,26.64963087,-0.008470979,163.3872778,-8.327333388,44.19374987,0,-2056.402641,,,,
790.3039994,3087,-298.0766917,-2320.112298,2.900324073,32.47843061,-19.55643353,0,263.0767856,0,-8.868831194,24.65913825,-41.596572,51.96756666,-29.15473592,3.319709264,0,-2148.043501,,,,
790.3119994,3087,3.205771752,-2136.772384,80.04402711,28.75314885,-38.41043731,0,221.411241,0,0.756449061,10.63268116,4.420789521,-58.16991434,2.449822748,-27.6220077,0,-2062.477316,,,,
790.3199994,3087,51.21471342,-2080.81416,54.24679947,73.12057435,1.600384969,0,76.10540596,0,48.09640386,71.65332632,37.08794265,293.0876481,13.71568173,75.25097335,0,-2147.057105,,,,
790.3279994,3087,-333.5877911,-2344.178851,27.86114458,69.94652934,-2.939990983,0,311.5215076,0,31.79373913,28.29137801,6.475657206,-105.8411422,31.20371051,-65.7655389,0,-2188.135501,,,,
790.3359994,3087,282.0653973,-1957.738269,122.7070468,10.67023959,-62.8171367,0,88.78612893,0,36.82869984,46.9241929,43.50198706,167.9282561,11.53888183,38.7151409,0,-2083.951206,,,,
790.3439994,3087,-264.3973377,-2292.084892,-5.472259176,57.89873855,17.51006274,0,198.5313788,0,27.73687499,39.91898289,-27.76968949,176.2178835,-9.728565165,33.88742679,0,-2235.533389,,,,
790.3519994,3087,-3.804925563,-2163.545001,84.24932651,-8.000362602,-63.42615683,0,266.8339432,0,0.188683535,-28.98488495,-13.24356506,-176.0750638,15.37636923,-73.20140077,0,-2111.153907,,,,
790.3599994,3087,152.2744951,-2030.224542,45.21518302,28.67987658,-24.15990287,0,47.02257284,0,24.92562935,44.19404237,2.346214862,348.4665322,-23.61371425,105.0567528,0,-2171.514183,,,,
790.3679994,3087,-363.6848297,-2370.849281,-8.623190461,43.90275439,13.56909196,0,332.7387038,0,-1.490377858,-19.18775387,-42.52188708,-138.9962218,4.171695033,-61.41476567,0,-2208.527107,,,,
790.3759994,3087,325.0061992,-1924.255021,115.432627,-3.649631604,-55.68885275,0,93.71128205,0,25.5600893,12.29011085,30.94716294,103.0277897,16.66076499,22.469966,0,-2104.689707,,,,
790.3839994,3087,-233.9861022,-2250.698762,-15.01624298,68.71229546,32.73982156,0,183.7257713,0,27.93899355,40.80894011,-21.50211832,204.9016536,-20.02882448,46.28742565,0,-2281.997578,,,,
790.3919994,3087,-10.50234523,-2152.86418,84.17965728,-3.820640118,-45.21976869,0,302.8062276,0,-5.636245312,-32.84500495,-6.993485257,-214.6452057,15.89915212,-80.99435707,0,-2135.569091,,,,
790.3999994,3087,195.2668468,-1983.360984,53.6389439,23.77595063,-20.41350431,0,50.96737876,0,29.461728,52.89103678,9.37922625,373.3619989,-10.85514354,114.5058518,0,-2198.321766,,,,
790.4079994,3087,-381.1792868,-2372.039445,-16.60618362,28.88209939,-2.083896158,0,358.7704621,0,-8.103877189,-22.88398606,-58.25297935,-142.7444407,-6.379752316,-57.71001203,0,-2238.900784,,,,
790.4159994,3087,331.4842004,-1923.617526,105.0533149,-29.86471991,-91.16673321,0,124.2197163,0,-4.569566187,-14.2657534,-2.966127898,75.38718275,-8.854618674,29.12595043,0,-2098.317466,,,,
790.4239994,3087,-226.9340668,-2240.051476,-34.85219737,56.42859488,10.7425416,0,189.4910942,0,6.55140861,25.14653566,-50.60345926,207.7041028,-36.55260601,57.83050598,0,-2279.538254,,,,
790.4319994,3087,-17.0917722,-2146.082233,68.07387531,3.115411468,-37.10176253,0,304.9541585,0,-9.82083868,-42.12030515,-13.2201864,-260.78572,14.1533474,-95.83979275,0,-2150.244131,,,,
790.4399994,3087,228.943691,-1952.386657,52.31898187,27.63217746,-12.0616669,0,39.07964346,0,26.29187422,46.69563814,21.59907071,359.6532637,-15.11740738,111.0127705,0,-2216.699879,,,,
790.4479994,3087,-370.758153,-2352.920113,-21.62460204,29.37102257,1.436240336,0,368.9653235,0,-16.33388613,-25.88535571,-54.90341573,-137.2979574,-23.63084223,-49.57812696,0,-2248.840526,,,,
790.4559994,3087,361.0719722,-1888.2122,105.8960317,-9.48196965,-55.94711052,0,123.2329271,0,-2.174029718,-6.919688293,9.306031513,61.67089742,-4.830298485,25.03205992,0,-2107.105549,,,,
790.4639994,3087,-187.5572117,-2197.867201,-23.80646942,75.93925913,55.97926934,0,165.1594332,0,26.83978595,50.69357052,-15.86986983,218.9436054,1.184397947,47.23943817,0,-2325.915589,,,,
790.4719994,3087,-18.88891869,-2133.293966,74.8480261,-10.78739498,-30.6281443,0,317.2443088,0,2.049779205,-28.36364184,-1.446586897,-260.6711665,34.53231509,-106.4236427,0,-2192.725338,,,,
790.4799994,3087,240.5409476,-1917.585462,49.68848026,16.04851611,-6.810971369,0,35.05637107,0,30.3195428,59.00935082,17.13212084,358.96655,-8.396174645,106.8883545,0,-2236.268293,,,,
790.4879994,3087,-383.9350895,-2315.708813,-26.33982079,34.35149256,23.75145408,0,344.840439,0,0.595950387,3.903991597,-40.2304982,-144.0087617,6.219786025,-64.75198568,0,-2300.881518,,,,
790.4959994,3087,340.9996782,-1859.422108,119.4209808,-36.23572309,-67.05439486,0,138.5334979,0,17.05733203,13.83642924,31.17467479,39.64836333,12.16693042,11.59990903,0,-2156.47627,,,,
790.5039994,3087,-218.4195706,-2169.188034,-21.67171317,40.01832674,33.43407512,0,190.2186781,0,14.58853557,58.22908516,-22.44078269,224.8158406,-33.8899659,68.85695419,0,-2329.603765,,,,
790.5119994,3087,-103.8814663,-2117.414984,52.53428653,-34.29001664,-49.00763,0,343.8776575,0,-30.30899315,-31.88075266,-25.82476478,-279.1884766,-13.84452282,-88.96709121,0,-2183.134529,,,,
790.5199994,3087,165.296202,-1877.935778,37.33056466,-1.357520127,-29.86906022,0,52.77855946,0,19.78326333,54.19265358,16.48607532,342.2101295,-30.2904388,111.0234634,0,-2237.384807,,,,
790.5279994,3088,-487.059993,-2282.032831,-37.20921759,46.31579417,37.31700804,0,349.464137,0,-2.559523059,15.27930062,-34.891931,-134.5259035,-1.322120867,-54.46998968,0,-2309.62811,,,,
790.5359994,3088,218.4296607,-1824.811881,111.0341475,-34.79334576,-48.05971406,0,148.6445214,0,13.79453222,31.23973831,30.13932853,34.87612309,14.47342651,17.46740689,0,-2165.266257,,,,
790.5439994,3088,-352.0476377,-2111.451249,-24.22785027,31.09163794,37.21180293,0,195.2133321,0,19.52701522,65.4533057,-24.90255048,241.9984998,-30.29366065,84.46812658,0,-2334.925928,,,,
790.5519994,3088,-250.6723923,-2060.083773,58.17625834,2.277046719,-10.31822385,0,341.3517335,0,-18.79934276,-18.05212209,-20.39491147,-282.5252353,3.156930686,-75.76853655,0,-2189.043675,,,,
790.5599994,3088,73.84477081,-1795.901204,67.42847829,42.12802491,14.76156867,0,31.79792178,0,56.20516562,99.41169194,59.42303378,333.1473688,17.93965551,112.8419233,0,-2273.162824,,,,
790.5679994,3088,-610.3249901,-2225.68694,-9.442171252,49.40960402,35.26449663,0,349.4980689,0,27.21882625,54.14477344,3.909327537,-114.2852239,26.36677353,-44.925481,0,-2356.314034,,,,
790.5759994,3088,102.4463201,-1782.319718,123.7802906,-37.79405325,-64.0632109,0,160.1539578,0,6.518451031,37.98782749,28.86578383,39.94242889,1.425325827,30.99369042,0,-2172.876897,,,,
790.5839994,3088,-405.7627642,-2056.581346,-12.52240446,42.35475185,40.28594894,0,171.9141267,0,17.33070312,74.24149157,-17.15456973,255.052374,-29.65562924,88.33706236,0,-2356.926229,,,,
790.5919994,3088,-325.0993036,-2052.932878,69.8260406,-15.31421482,-21.6316952,0,345.6294551,0,-16.15176052,-14.51390072,-5.41271843,-284.5695456,18.95933466,-87.62911301,0,-2228.922496,,,,
790.5999994,3088,22.92095027,-1787.107642,62.48051745,-10.82628657,-22.58231561,0,54.58728975,0,26.13138203,71.17573123,27.61048215,332.1044143,-10.96759393,114.3635827,0,-2260.395995,,,,
790.6079994,3088,-660.4198166,-2220.386107,-37.95155962,6.464209694,5.371024941,0,359.5609332,0,-18.06255053,8.461104576,-47.80137061,-118.6299474,-20.73698746,-39.81185307,0,-2326.975527,,,,
790.6159994,3088,66.37636296,-1781.047439,101.9863826,-45.86870584,-58.2103858,0,158.4166841,0,-20.59578643,3.496941945,11.29391702,-9.686187701,-6.290535488,8.851896334,0,-2163.735566,,,,
790.6239994,3088,-397.1653407,-2015.95552,-27.19781529,58.32045118,71.18971377,0,138.4841056,0,22.05974139,77.29052398,-6.571305443,236.3979405,-15.93430853,62.22396823,0,-2373.205865,,,,
790.6319994,3088,-329.4625179,-2023.041183,57.52371277,-13.7896336,-20.62017263,0,326.7772217,0,-7.204212381,6.79115141,8.513616931,-295.0263661,22.34885085,-114.8585103,0,-2259.306442,,,,
790.6399994,3088,54.42970309,-1752.447531,63.66985576,-15.47352229,-25.26906428,0,46.77135004,0,12.97607658,82.85928718,29.4237365,323.9898049,-20.10843841,99.92908982,0,-2269.961267,,,,
790.6479994,3088,-620.805954,-2173.499741,-33.96811797,34.27106715,49.67786568,0,338.3034888,0,-10.37969169,32.5642621,-39.16338573,-104.6359459,-2.230047412,-42.47296955,0,-2346.009513,,,,
790.6559994,3088,113.8364414,-1741.95626,116.855116,-39.19283408,-49.62663452,0,160.5277936,0,7.14650956,28.4311627,35.4128081,-14.95271483,18.92603233,-1.511111878,0,-2190.461723,,,,
790.6639994,3088,-318.4811658,-1984.128718,-14.67751739,29.67844878,40.13007649,0,169.685492,0,18.19525429,76.05069247,-13.06375852,251.0038885,-37.56652549,81.528634,0,-2363.387482,,,,
790.6719994,3088,-267.5624156,-1998.903652,55.80666019,-12.39052906,-8.294452784,0,360.7742997,0,-18.87850858,1.389542714,-14.08386704,-305.3542139,3.275491673,-88.43509959,0,-2235.147735,,,,
790.6799994,3088,152.3753175,-1705.876415,68.0119136,-5.679194658,-9.208898851,0,55.63350141,0,24.10068374,86.02008343,41.52190138,290.9498347,-20.05292651,102.8558435,0,-2271.209551,,,,
790.6879994,3088,-524.0311107,-2139.806566,-35.99385289,33.52795562,47.69569654,0,343.888302,0,-0.043227985,33.59441425,-19.07790428,-116.6119891,-10.676774,-36.27287965,0,-2361.521334,,,,
790.6959994,3088,204.4967226,-1715.112235,114.5911417,-27.75161199,-37.57047731,0,161.5313388,0,16.29323093,33.36185748,52.02828897,-47.22538176,36.61341385,-3.827572678,0,-2206.041603,,,,
790.7039994,3088,-207.8619762,-1936.220035,-10.47434346,39.92253756,45.47486597,0,146.7143303,0,30.98379285,87.7143561,6.172468815,244.894125,-10.28028656,73.86519306,0,-2396.072281,,,,
790.7119994,3088,-185.8225622,-1966.222346,56.57150739,-9.361970207,-22.92535596,0,352.0987413,0,-10.16692274,6.221268777,-3.705763215,-303.7420198,17.04450941,-88.50731234,0,-2264.509383,,,,
790.7199994,3088,259.0635438,-1670.394204,73.1851657,-14.25107832,-34.43896452,0,53.31483518,0,29.88813457,91.56577944,49.98175347,290.2825279,-2.706970721,108.760747,0,-2282.806094,,,,
790.7279994,3088,-601.0370084,-2224.563658,-51.10355037,12.60583822,20.081458,0,468.8166617,0,-22.65082846,14.07415432,-49.33934905,-314.3082008,-14.14540209,-99.76000217,0,-2353.64375,,,,
790.7359994,3088,230.8784186,-1745.029081,162.6350154,-71.63159667,-105.4896378,0,391.1393768,0,-26.2978673,-36.09408393,19.65976138,-604.4723276,40.82169838,-176.7837873,0,-2061.743775,,,,
790.7439994,3088,276.6792253,-1669.545488,103.1456293,-20.30739591,-48.43859035,0,161.461971,0,18.32923976,56.66615177,37.31781077,-23.55315081,9.188283826,1.843632143,0,-2216.492932,,,,
790.7519994,3088,-165.6952168,-1962.167553,62.67450208,-29.89553953,-44.95568079,0,434.7521689,0,-26.23617811,-14.08344817,-14.36129139,-494.3478469,16.44697034,-151.2459087,0,-2248.161846,,,,
790.7599994,3088,357.9698012,-1604.111909,106.2342643,-17.11060537,-50.4258186,0,111.1624786,0,22.48067336,70.26240122,42.6412793,72.614914,10.16247225,35.32730944,0,-2247.864422,,,,
790.7679994,3088,-194.2215653,-1919.433812,-47.95776257,42.08233853,34.92757403,0,156.7533881,0,25.87490354,110.9304844,-9.962655232,302.7955268,-29.08631128,102.7150441,0,-2438.29716,,,,
790.7759994,3088,-132.5498312,-1931.649228,22.30197489,-37.98755498,-38.10874247,0,360.8455189,0,-34.15684882,-0.446076585,-31.03681203,-261.8810131,-10.68935432,-57.49977044,0,-2261.044947,,,,
790.7839994,3089,261.1496253,-1656.194362,48.01899997,-11.04640157,-17.8833678,0,85.45274062,0,6.074298565,61.48120107,7.949789342,189.9606515,-19.75304667,89.805208,0,-2270.081328,,,,
790.7919994,3089,-243.6349745,-1967.575105,-41.54952163,31.84416302,30.87331345,0,234.1279346,0,10.67696704,71.04438655,-27.9992928,64.94531902,-9.817646504,30.09692054,0,-2404.375913,,,,
790.7999994,3089,76.80238985,-1808.325527,56.45789934,-43.75050558,-53.16224566,0,274.1135635,0,-13.59642926,24.21204634,-9.49946933,-198.4311269,8.106623172,-44.23846295,0,-2255.303849,,,,
790.8079994,3089,156.004573,-1723.246199,11.63528017,-9.892338788,-1.199889178,0,90.53512327,0,10.32502744,83.1653452,-5.02830109,250.0528927,-26.59049298,97.25194463,0,-2339.782473,,,,
790.8159994,3089,-271.0265921,-2009.765978,-35.23013483,-5.523270693,10.17407772,0,339.1086908,0,-20.0584361,27.93776913,-45.17341652,-152.3908751,-13.49831627,-38.09123493,0,-2349.420079,,,,
790.8239994,3089,280.5116978,-1669.145943,64.26605771,-42.34423967,-48.21483575,0,167.1817182,0,-7.401280939,36.02853904,11.71125709,-10.74736859,-3.531265237,11.66711915,0,-2234.080204,,,,
790.8319994,3089,-89.798246,-1860.76836,-36.03350715,20.41865395,31.32298985,0,167.0141629,0,8.932424264,75.48761451,-16.23894635,181.3517485,-28.94282763,48.48657702,0,-2399.410303,,,,
790.8399994,3089,-54.48864048,-1882.326388,27.44808979,-27.38345635,-28.99601237,0,337.9458146,0,-26.71957292,9.354520667,-21.37521936,-273.5582204,-13.39950243,-95.45850633,0,-2279.779278,,,,
790.8479994,3089,308.0290143,-1633.166675,41.63098915,-24.27223518,-26.82099113,0,76.57912456,0,15.4345354,81.78546693,19.70721664,231.8718612,-28.0609981,65.13892467,0,-2311.633071,,,,
790.8559994,3089,-315.7138364,-2024.530667,-58.661148,-11.93715398,9.242119355,0,341.0201089,0,-21.40502732,32.96999762,-59.87591448,-98.81154617,-25.73832925,-44.24503509,0,-2383.199341,,,,
790.8639994,3089,285.1465972,-1673.593409,60.10882713,-69.493011,-67.65287339,0,210.9761253,0,-35.93811987,17.0003715,-24.82607197,-86.33896863,-20.55519981,-21.58926796,0,-2206.154956,,,,
790.8719994,3089,-25.50312182,-1840.808069,-44.2133319,9.177839834,33.24662393,0,148.9644852,0,-4.643229906,79.42537801,-42.17228902,222.1741227,-41.33669379,54.78609852,0,-2386.124483,,,,
790.8799994,3089,-99.0017471,-1941.877121,7.668793696,-16.56564269,-2.1602948,0,353.4347248,0,-32.60267264,9.50480111,-43.51884896,-312.0321517,5.90374805,-118.3229709,0,-2288.120295,,,,
790.8879994,3089,380.8165624,-1642.768175,50.49847062,-12.32367363,-12.00906023,0,47.49695337,0,18.63693229,98.73825247,29.16836021,214.7246559,3.273710341,37.74921582,0,-2316.130565,,,,
790.8959994,3089,-311.5149961,-2099.298318,-62.14375732,19.28069734,48.19918966,0,313.4969036,0,-10.59097375,66.34518292,-42.22087977,-77.46193363,-8.978921367,-68.46615212,0,-2426.137709,,,,
790.9039994,3089,311.0810389,-1761.519699,69.98144851,-38.36269408,-41.73802165,0,195.8623534,0,-16.26536535,40.20071148,-0.4439006,-104.8406364,-4.985701514,-51.96332535,0,-2237.218607,,,,
790.9119994,3089,19.82147422,-1936.061848,-36.02804105,12.01807951,16.67412593,0,131.1909939,0,12.64461166,101.4976143,-24.26025155,259.2761555,-38.2205468,50.53054647,0,-2421.833626,,,,
790.9199994,3089,-105.4425452,-2063.922562,-2.644658333,-22.88352186,-11.55722847,0,367.6462523,0,-41.30953244,19.77455499,-60.99583317,-302.0884743,-9.429170241,-118.5667478,0,-2300.392525,,,,
790.9279994,3089,430.1846873,-1707.305757,46.21366915,3.08907993,-1.93530243,0,33.55546497,0,20.21262956,118.8438401,18.32639741,223.4579397,-7.525818713,41.5130939,0,-2310.239826,,,,
790.9359994,3089,-291.7978326,-2169.452596,-67.05876787,20.255347,35.4017099,0,307.0937871,0,1.86884884,96.96101163,-37.79534358,-42.03943705,-18.1861033,-63.25000332,0,-2448.466911,,,,
790.9439994,3089,315.5857547,-1823.745899,64.94788663,-58.09196671,-64.10462806,0,211.7463218,0,-29.16814389,53.41513626,-13.99497919,-94.53296663,-20.99087646,-53.76195667,0,-2238.900068,,,,
790.9519994,3089,49.81475473,-1947.36513,-34.94259913,24.12962276,26.33139305,0,117.1963936,0,12.72565689,127.2455739,-32.01118711,290.8985491,-43.8705236,54.98422878,0,-2414.871054,,,,
790.9599994,3089,-118.4994294,-2097.053255,1.609717679,-20.28574585,-17.08298539,0,374.640014,0,-28.64334027,48.99475452,-63.42882533,-278.7727612,-16.14561425,-116.9709409,0,-2305.766055,,,,
790.9679994,3089,430.0192593,-1737.579872,50.70876956,-28.22394218,-36.83737529,0,57.04155809,0,-0.362205803,116.2208033,-10.30883848,235.2252615,-33.20691941,52.69073523,0,-2285.524337,,,,
790.9759994,3089,-287.5587286,-2173.293863,-68.19047365,23.78086759,37.79644106,0,310.8221924,0,-9.323306397,96.82906205,-60.92249857,-29.97877885,-23.32770069,-50.24515133,0,-2417.865994,,,,
790.9839994,3089,315.0233416,-1827.089884,69.42543886,-40.4522613,-50.58642782,0,216.8649593,0,-10.30676768,73.68500997,-5.444951297,-109.2330785,0.853303236,-57.06797564,0,-2222.494147,,,,
790.9919994,3089,76.7036125,-1935.676606,-27.78271836,33.69542596,36.58110015,0,108.2460622,0,24.28829971,147.613509,-16.21442166,302.4793464,-35.79459873,57.27865729,0,-2405.00098,,,,
790.9999994,3089,-110.3262396,-2080.287453,1.652081008,-1.474592552,11.02515811,0,359.9964556,0,-16.80864459,68.13701909,-44.27957583,-274.1865045,-3.902518714,-126.9248171,0,-2314.826961,,,,
791.0079994,3089,458.2331318,-1709.032126,52.73715308,-36.38736623,-45.524684,0,55.86788419,0,5.037585258,129.7829025,-1.781136381,227.2499761,-26.98569786,40.43493524,0,-2289.471798,,,,
791.0159994,3089,-257.7649054,-2152.915974,-72.15292603,4.694942508,12.75982946,0,323.0249354,0,-18.17471268,94.75087367,-78.57097604,-17.58345334,-48.56971393,-42.01131723,0,-2401.574431,,,,
791.0239994,3089,333.5747304,-1809.814464,61.72929647,-42.63199982,-59.854205,0,231.7458486,0,-13.11985368,70.147434,-24.82386381,-122.4161679,-14.46618534,-53.05517764,0,-2195.941915,,,,
791.0319994,3089,117.2956358,-1896.471494,-33.76672727,22.29896411,5.389381336,0,115.6294143,0,19.42153601,157.3613502,-32.64632529,302.9630137,-45.72685928,66.17689923,0,-2380.352247,,,,
791.0399994,3090,-96.3682814,-2057.427237,-7.842112587,-15.70037129,-17.06506064,0,384.2735729,0,-29.81679733,71.12999542,-64.32032261,-271.4511057,-27.29002843,-114.5989473,0,-2282.004531,,,,
791.0479994,3090,491.7995514,-1669.583438,52.65171657,-29.57057997,-44.93735222,0,65.34808886,0,-0.164897959,133.9771813,-3.90087473,221.0159117,-27.77636682,44.13544263,0,-2253.123711,,,,
791.0559994,3090,-232.6126566,-2100.733329,-73.68680399,13.06713259,15.72892968,0,316.2096341,0,-22.56068737,114.2420338,-69.66026223,1.13862707,-36.01614312,-37.2245578,0,-2388.399043,,,,
791.0639994,3090,328.2728221,-1773.445511,50.87204828,-39.49376891,-48.50326698,0,226.319049,0,-23.23603648,75.78263896,-24.46783676,-125.930572,-11.85286096,-58.52004116,0,-2180.332284,,,,
791.0719994,3090,138.0774661,-1859.998333,-38.11921011,35.86385367,33.18022089,0,80.68492268,0,24.34701921,159.1762659,-20.40302765,307.5596121,-28.29675214,49.96234901,0,-2378.092772,,,,
791.0799994,3090,-99.1231171,-2043.117091,-9.918025554,-2.528440797,6.154515901,0,355.8737865,0,-16.16591005,80.36470141,-46.05106369,-264.2694848,-0.032923668,-132.4031691,0,-2300.336285,,,,
791.0879994,3090,503.179104,-1653.731459,55.3297807,-4.882849813,-4.078433962,0,21.48180979,0,23.28779132,148.3575841,16.12290985,206.3913387,4.432898272,18.7308799,0,-2277.088791,,,,
791.0959994,3090,-219.732808,-2113.37664,-65.83405798,46.27357456,64.38841798,0,254.1054438,0,9.877594322,134.9868469,-40.55331928,2.318423347,3.312707336,-69.33517216,0,-2445.301021,,,,
791.1039994,3090,318.8524947,-1836.94591,60.33005311,-40.4521114,-43.65530337,0,211.628988,0,-13.15464684,83.57742967,-7.816767224,-133.9600973,3.833066314,-77.47641069,0,-2224.793249,,,,
791.1119994,3090,148.2847935,-1929.007496,-37.83183799,17.38636645,23.85118809,0,75.16280555,0,16.28568677,157.7116564,-24.42129418,314.1384059,-39.05445822,61.81223497,0,-2385.036959,,,,
791.1199994,3090,-114.2436719,-2149.758003,-26.20777025,-16.53444256,2.470342659,0,359.2263449,0,-27.43279401,76.76056115,-58.59580529,-254.1124943,-20.12393588,-116.4439105,0,-2299.374464,,,,
791.1279994,3090,510.7635795,-1772.238495,42.89586688,-25.81384296,-27.2194876,0,45.2628887,0,4.908138891,140.0848933,2.073584662,211.6016594,-24.13173739,36.10046662,0,-2254.568959,,,,
791.1359994,3090,-212.3500081,-2216.739483,-78.80718405,41.23160707,50.6708448,0,270.612413,0,-13.3273452,125.9533481,-60.44373587,28.20208898,-19.43680488,-40.84761043,0,-2407.852697,,,,
791.1439994,3090,306.7183715,-1932.13475,57.22284244,-20.63608352,-27.3040075,0,222.1126248,0,-15.71462973,91.51808738,-0.730320761,-131.7615811,11.79912499,-71.26370916,0,-2197.676154,,,,
791.1519994,3090,178.6833893,-1997.652129,-21.50000531,40.2199726,32.06294245,0,69.59129164,0,33.03954163,181.1127801,7.365017787,335.4034543,-17.60016319,63.09440228,0,-2369.943632,,,,
791.1599994,3090,-113.1905049,-2219.297214,-12.1565082,2.892916138,-3.977660504,0,356.9543061,0,-20.95711808,84.07289626,-45.47423352,-231.9439526,-0.897223971,-109.4803799,0,-2284.622745,,,,
791.1679994,3090,515.4699171,-1827.671504,58.38012342,-17.06012083,-37.06130761,0,42.14547517,0,13.01797549,137.7859427,14.20879297,211.9085845,-9.465668532,43.75959942,0,-2231.601103,,,,
791.1759994,3090,-197.446859,-2283.925346,-72.47180866,26.29632131,26.00139052,0,272.2218875,0,-8.073068834,127.2507405,-55.90961866,51.90931414,-32.90298438,-13.63433432,0,-2381.967287,,,,
791.1839994,3090,300.5878254,-2014.549373,47.00912442,-45.20628669,-45.81436304,0,234.3342297,0,-39.32340998,76.05088431,-28.64610584,-135.0745396,-17.63723332,-41.95404562,0,-2156.313346,,,,
791.1919994,3090,194.0448977,-2049.748052,-41.71119585,34.38514432,34.51244278,0,47.70287106,0,13.11456527,160.4025268,-16.00797559,330.9951572,-38.31982237,86.90572452,0,-2333.336179,,,,
791.1999994,3090,-122.0720761,-2298.164349,-35.29464311,5.353024824,3.102125694,0,338.666963,0,-18.30597088,83.71182892,-43.01856723,-239.3815159,-12.68908126,-97.75893861,0,-2277.818404,,,,
791.2079994,3090,700.7729524,-1864.333371,95.9498826,-38.3420402,-46.04513158,0,23.82103987,0,6.005688214,125.0378499,29.65724801,105.1672395,-1.656302093,26.27618796,0,-2123.859268,,,,
791.2159994,3090,108.4551991,-2312.213734,-26.07126423,35.00775102,31.99190176,0,155.6789562,0,9.144257688,137.3311752,-22.75568743,92.3909751,-10.19242379,2.35190275,0,-2261.766025,,,,
791.2239994,3090,153.6514366,-2294.914338,8.014548485,10.18811117,0.039477747,0,208.3698103,0,10.4314023,121.943422,-7.114304206,-53.53507977,6.018816097,-43.71852728,0,-2222.297958,,,,
791.2319994,3090,213.3842056,-2240.677145,-1.288623442,10.91150344,14.68067778,0,129.3139585,0,19.38551955,145.4797051,-4.599034505,147.2124743,-11.57019429,18.0513868,0,-2265.867688,,,,
791.2399994,3090,150.5660151,-2336.403941,5.985379681,-11.12935153,-11.21902221,0,248.4336102,0,-21.0195326,87.50079336,-30.51531653,-99.99988031,-20.37394319,-46.29188554,0,-2170.64624,,,,
791.2479994,3090,264.5840936,-2238.835382,-10.52172026,28.8728405,20.93403703,0,89.89318417,0,13.33526994,149.8522652,-0.250948423,208.4117263,-25.40429559,47.8415714,0,-2239.396664,,,,
791.2559994,3090,26.31044221,-2415.377924,-13.99652964,23.60740874,17.49971556,0,266.915186,0,0.074947438,118.6232524,-23.26313714,-93.57088381,0.546159251,-53.09074274,0,-2225.071849,,,,
791.2639994,3090,435.5447658,-2184.750858,48.65331684,-11.25337276,-15.48662569,0,109.7994372,0,6.346222361,139.9849677,6.601822299,95.82021241,3.333447125,14.46969716,0,-2158.002614,,,,
791.2719994,3090,16.11943751,-2423.21653,-48.59505166,35.23034946,48.18781827,0,193.0997696,0,-2.067163759,151.2171107,-31.49822246,112.9822592,-20.70545529,8.822011188,0,-2287.320256,,,,
791.2799994,3090,273.5425702,-2295.349394,31.47717008,-12.83050396,-13.84939862,0,236.2347522,0,-20.27255757,105.978179,-3.686224586,-158.4341514,2.503063617,-62.90235163,0,-2125.913815,,,,
791.2879994,3090,321.9068013,-2239.236613,-13.14743252,36.02294818,44.51124484,0,32.7699267,0,27.74587122,184.7681154,26.38548215,289.056201,-4.706440251,64.82349054,0,-2266.447384,,,,
791.2959994,3091,-42.48687662,-2495.972169,-30.4124503,29.57524028,37.34217702,0,299.0777126,0,-11.83147243,105.4628907,-22.54998337,-178.2492165,4.898519354,-79.94080862,0,-2230.132998,,,,
791.3039994,3091,551.7131797,-2141.183104,59.83130067,-0.746104074,-19.44303016,0,50.06331891,0,16.70497334,153.8643356,35.56959117,126.2636241,5.24064369,23.69412877,0,-2160.562981,,,,
791.3119994,3091,-37.62186902,-2499.401889,-54.92728667,45.08109701,45.46796963,0,198.0409337,0,13.19817315,178.0128681,-10.61731558,108.2936428,-15.96589789,-3.260052742,0,-2337.369916,,,,
791.3199994,3091,295.7886282,-2315.776339,40.47378108,-10.4960576,-18.58738922,0,230.3493372,0,-21.6997218,112.6661531,4.534891586,-169.6752798,0.831886561,-66.48232075,0,-2126.647873,,,,
791.3279994,3091,315.3091351,-2259.978952,-17.41023373,42.39740695,40.4483837,0,16.64907532,0,21.16952957,193.6764328,24.6998533,327.6727957,-10.6777459,77.42709945,0,-2273.687933,,,,
791.3359994,3091,-104.268139,-2533.789804,-35.70692214,16.06571103,27.74824941,0,325.2913627,0,-20.77322218,122.2584356,-24.26725233,-190.5653007,-0.183293545,-85.97151385,0,-2234.426654,,,,
791.3439994,3091,553.960752,-2114.033745,60.513722,-9.656450066,-14.09295738,0,36.39373516,0,6.118027539,167.6323339,29.98885299,135.479449,-3.918517916,33.23133208,0,-2146.97824,,,,
791.3519994,3091,-97.39398077,-2507.314915,-64.81883383,29.3564925,41.05194208,0,204.8776078,0,-0.640031275,172.767106,-32.12659546,96.19375919,-18.29962134,8.037285283,0,-2330.112477,,,,
791.3599994,3091,256.0242848,-2307.076257,33.15245096,-48.13737318,-47.25051995,0,248.0902833,0,-38.37096319,99.3932457,-21.55616659,-192.5443108,-11.09142133,-53.11500539,0,-2098.158819,,,,
791.3679994,3091,297.2103944,-2220.493752,-27.2899916,36.26043759,34.28999637,0,3.265541321,0,10.28630062,187.8162131,2.374865549,313.1697615,-35.36864444,93.32530571,0,-2244.075735,,,,
791.3759994,3091,-135.9776325,-2502.026154,-38.58027175,24.47412781,29.54136875,0,314.3670225,0,-17.77530439,120.2403859,-28.55844584,-210.5186766,-2.757924429,-76.25722731,0,-2221.403607,,,,
