Time:125Hz,Epoch,FP1,FP2,C3,C4,P7,P8,O1,O2,F7,F8,F3,F4,T7,T8,P3,P4,,,,
699.1039995,2730,-0.320836722,-66.72955642,-200.0064706,-177.0251486,-492.3026275,-125.2866351,0,-64.08347809,20.53313167,38.22265808,430.5307819,-0.597331685,74.1423261,-67.71070129,1078.430345,436.4325154,,,,
699.1119995,2730,-0.320812106,-14.15966619,-191.6828316,-81.85483607,-651.2285423,-5.619486104,0,149.2417041,68.22726348,-281.2651148,-863.1858732,-149.6792969,-99.35595126,89.31817362,-495.4293158,-937.8389421,,,,
699.1199995,2730,-0.320779485,126.2846933,366.7233601,102.1788109,372.9162921,16.77878393,0,-49.3282486,109.4741063,120.7395138,499.178199,183.2662028,143.0260989,-18.21002777,900.7625171,368.1441903,,,,
699.1279995,2730,-0.320738891,-155.6306955,-543.4059495,-292.405765,-1130.274169,-147.0902748,0,46.86049435,-4.146559311,-209.790694,-428.852862,-205.6833444,-68.38145687,1.134460712,137.5269198,-449.4309413,,,,
699.1359995,2731,-0.320690355,146.732722,385.3798396,171.5365125,292.8278256,93.66015414,0,71.60802921,125.5490945,-62.70767519,-282.9783388,106.1085612,37.86420285,73.59680919,-56.78833275,-453.6828975,,,,
699.1439995,2731,-0.32063391,-69.30027733,-177.5377728,-162.0599268,-470.027215,-123.1532654,0,-73.08634667,15.4785592,51.1453768,442.3751414,10.07060683,81.67513659,-63.162951,1049.879662,417.6619392,,,,
699.1519995,2731,-0.320569588,-27.40934798,-177.8435204,-72.34910862,-638.0365164,-10.96831858,0,132.5414627,54.53530714,-265.5384833,-862.3939513,-145.738278,-98.5051057,87.21944414,-511.2509736,-947.2296672,,,,
699.1599995,2731,-0.320497419,115.0133964,390.9587506,114.7397791,409.1017479,11.19423903,0,-60.57744996,96.95911989,135.6486817,494.6643152,187.8984709,140.379879,-24.21970616,891.8484566,370.1987164,,,,
699.1679995,2731,-0.320417437,-167.7865876,-533.2943824,-293.4124232,-1116.609393,-159.8471945,0,39.65472626,-9.069294328,-197.1738202,-420.7100414,-202.5899729,-67.63237947,-0.051375323,143.8568629,-435.4107932,,,,
699.1759995,2731,-0.320329673,129.2498022,375.7514557,152.1948301,268.4728866,71.47962425,0,67.5158203,130.2451669,-64.48240509,-308.4841959,100.9671831,37.99248348,81.14265821,-108.6010879,-496.8021178,,,,
699.1839995,2731,-0.32023416,-84.13188742,-178.2983242,-179.5845073,-474.8527983,-145.4266451,0,-85.04665941,15.21587427,47.27886098,436.1632306,10.09759583,85.3600205,-67.77521019,1004.705912,382.6777448,,,,
699.1919995,2731,-0.320130929,-37.78484044,-193.2283446,-90.53724332,-674.3814155,-26.90286158,0,133.2466764,49.81007524,-274.563418,-867.5068589,-150.8373171,-99.61418789,82.74423929,-558.272348,-982.4739418,,,,
699.1999995,2731,-0.320020013,118.4901511,385.3367369,110.5285417,374.9987318,12.59113385,0,-37.57993077,111.7441287,131.3598636,487.0645764,197.8675685,142.7044832,-6.447823635,814.211989,310.8690981,,,,
699.2079995,2731,-0.319901445,-164.8687086,-533.8001878,-284.08019,-1129.763229,-151.4706681,0,43.79142344,0.510685976,-190.7722216,-408.2528592,-174.6055183,-63.16833378,9.62916298,99.92165777,-467.9201189,,,,
699.2159995,2731,-0.319775256,129.078872,372.155981,167.0208189,263.7687969,79.20186832,0,54.70684253,119.716296,-63.01346665,-316.1310106,114.433453,25.88125322,66.19997257,-140.5207592,-520.4972734,,,,
699.2239995,2731,-0.31964148,-80.05240008,-176.3233748,-161.9373903,-467.751759,-135.5448822,0,-83.45802853,14.61753084,52.07951345,444.4008467,13.53441063,75.37461898,-80.78424633,987.0775269,375.687444,,,,
699.2319995,2731,-0.319500148,-38.93131946,-193.013912,-72.39051155,-667.7026313,-15.79523563,0,133.2674411,52.81420403,-272.9836935,-866.7369976,-148.1892568,-101.0416835,79.46607064,-581.3412238,-992.6598041,,,,
699.2399995,2731,-0.319351294,123.6401271,401.4463606,128.50459,411.0035272,19.12521719,0,-54.94607919,101.7027483,129.5868351,484.5459665,191.2309672,138.696189,-17.18600666,804.3791528,320.1274184,,,,
699.2479995,2731,-0.319194949,-150.3875826,-541.5199771,-287.4719584,-1143.903157,-154.6239871,0,44.07327099,4.767782149,-192.5425067,-396.6405544,-199.499044,-63.06228741,9.233480198,87.86688468,-455.196774,,,,
699.2559995,2731,-0.319031148,151.9226934,364.9372627,166.2037761,226.0708401,86.15506902,0,73.27868538,147.1212281,-60.78799308,-324.3229777,107.9104888,36.44196023,90.38243543,-222.2770557,-567.0026848,,,,
699.2639995,2731,-0.318859922,-51.8722134,-148.8436698,-146.6933685,-450.4180036,-119.8529425,0,-84.27934174,29.29490202,75.52608163,466.7020982,38.21820827,91.58120822,-65.52697445,943.4498343,362.8048231,,,,
699.2719995,2731,-0.318681305,-14.42347007,-181.5423018,-67.02791667,-664.9127177,-8.079497051,0,123.245983,45.85166999,-252.9102839,-850.0032575,-143.1878578,-95.38981605,75.02103222,-585.4474874,-972.9397131,,,,
699.2799995,2731,-0.318495329,155.161467,415.7644141,135.801824,425.8099219,29.49111388,0,-61.39445816,101.0153724,142.7735115,484.1889037,187.9999617,136.9662903,-25.10464046,788.4348738,331.1953397,,,,
699.2879995,2731,-0.318302028,-118.5596113,-525.6669265,-279.2727645,-1117.112198,-139.3870222,0,42.11688483,11.76734078,-170.7237757,-382.2670154,-185.2070213,-63.50477003,2.184555469,88.39547429,-433.9534903,,,,
699.2959995,2731,-0.318101434,177.7002698,379.3445143,175.9448663,258.6438388,99.75687116,0,71.82482501,144.2668629,-40.93448059,-324.4706551,122.7054571,31.97308904,82.79393972,-218.8726498,-541.3078283,,,,
699.3039995,2731,-0.317893581,-23.46663431,-143.2245561,-144.8069266,-426.1499461,-118.9047083,0,-93.49649943,32.98925554,92.17100191,478.0213632,43.57382653,83.83600888,-72.1896897,958.7090738,403.4778236,,,,
699.3119995,2731,-0.317678502,15.66966877,-205.0585104,-82.52849976,-702.1814814,-15.96333424,0,123.1354899,77.94914967,-243.5702406,-856.0243671,-135.6347808,-101.3075285,81.26954216,-632.345873,-992.2606047,,,,
699.3199995,2731,-0.317456229,182.2038783,421.5916812,134.0627156,418.7219839,26.04031711,0,-70.61116856,131.0708807,156.013182,478.6815493,212.7710134,140.2265205,-20.98744717,708.6949969,281.8687849,,,,
699.3279995,2731,-0.317226797,-102.5753002,-512.4160477,-278.4198165,-1106.221106,-149.3814466,0,13.49841228,9.963293389,-155.1718678,-362.4984509,-174.0249462,-63.13357354,-15.62080745,66.11610775,-436.966465,,,,
699.3359995,2731,-0.316990239,198.994216,380.8709774,174.9472333,250.2940944,92.62077288,0,63.35404708,146.0632618,-31.27546071,-329.582328,118.1413925,27.02935345,76.68407373,-265.2473971,-570.5646634,,,,
699.3439995,2731,-0.316746587,-3.366877926,-128.29189,-136.2616715,-407.0954833,-118.5111454,0,-90.83883901,36.27353211,109.3918523,488.0475133,49.15131686,85.53924751,-65.91816059,920.6982295,383.1374334,,,,
699.3519995,2731,-0.316495876,13.32442932,-201.1639363,-73.36627632,-681.1088832,-16.782256,0,127.7538487,53.53813539,-233.2384156,-849.9887604,-139.1712738,-105.1593574,80.49375821,-636.3250345,-981.655757,,,,
699.3599995,2731,-0.316238139,181.9485317,427.3572999,146.9530969,449.6763401,32.4092012,0,-53.941066,115.0827733,162.8123138,475.5601921,206.3364555,137.2267802,-8.14546872,700.2384577,290.3840882,,,,
699.3679995,2731,-0.315973409,-108.311341,-519.7815374,-275.932741,-1098.183904,-145.8948389,0,27.02200164,10.77278242,-148.8543226,-356.295304,-179.3185611,-63.7427261,3.380979284,61.10194695,-427.87097,,,,
699.3759995,2731,-0.315701719,177.6943529,369.6936277,173.6075109,247.1452295,88.11859705,0,66.50596741,144.4336329,-38.15247807,-345.7072378,108.55889,22.17331701,81.97354866,-289.4299518,-579.5195691,,,,
699.3839995,2731,-0.315423105,-18.68351592,-127.0634064,-138.7071876,-392.8789787,-126.72313,0,-105.3254919,41.23390313,106.673559,494.109255,49.88631706,90.11582886,-71.42278008,913.0868778,387.7233048,,,,
699.3919995,2732,-0.315137599,0.233270969,-224.1793354,-91.5144495,-711.0558437,-29.09604488,0,107.7594392,63.61365659,-234.741515,-853.4177626,-138.7448307,-103.4362652,72.66904745,-668.8192969,-1007.723637,,,,
699.3999995,2732,-0.314845234,163.2239266,412.2314443,136.8910189,432.4100382,19.85730739,0,-70.95257935,114.8066761,161.8585372,461.4178602,210.1236803,131.2760662,-21.72970343,646.269582,245.7385492,,,,
699.4079995,2732,-0.314546046,-121.7266249,-533.4027231,-280.6286911,-1105.896412,-157.7831467,0,10.24269465,0.109594497,-151.9247606,-353.4336016,-180.3069354,-67.76798063,-15.77420475,37.17086063,-443.9835102,,,,
699.4159995,2732,-0.314240066,181.3616238,342.8477578,165.3162526,215.3115106,82.83207199,0,60.68555137,137.7870969,-50.25604962,-368.808766,94.32946111,19.11898434,75.25198787,-345.5893273,-623.9032876,,,,
699.4239995,2732,-0.31392733,-15.33092633,-137.0062106,-134.947904,-396.0438631,-126.9469298,0,-106.6686216,35.50519394,103.2290968,489.855576,41.93838159,86.92931619,-69.95912598,865.6401653,357.6447384,,,,
699.4319995,2732,-0.313607872,-3.24969731,-230.7159718,-79.38521075,-706.1128527,-26.0019973,0,107.625454,54.67347438,-238.6051458,-851.8635787,-151.8146797,-113.2536225,70.6289576,-691.5397425,-1012.627811,,,,
699.4399995,2732,-0.313281724,169.028536,411.4792438,145.4168628,442.8072484,24.51644687,0,-78.39281575,111.6127729,155.3962733,455.1565783,194.7533615,123.8426027,-24.40056506,625.0141607,244.7312535,,,,
699.4479995,2732,-0.312948921,-120.9363272,-540.4654314,-285.1992235,-1107.338461,-161.2625464,0,-5.044289716,-2.336649824,-157.62286,-348.4342739,-186.8458777,-72.44755208,-18.47958757,16.13426628,-444.6992207,,,,
699.4559995,2732,-0.312609498,178.459034,334.6408092,160.686062,213.9872843,79.10540542,0,53.44721708,133.6750091,-59.68255424,-379.0939952,94.74177257,9.428738632,71.51123614,-389.3988883,-644.9542776,,,,
699.4639995,2732,-0.312263487,-9.743122929,-145.3509716,-144.3497819,-394.8106859,-132.5603812,0,-116.9690216,33.77577814,98.97464203,491.7936614,44.57700209,82.45455603,-78.01765724,839.7789453,349.4819924,,,,
699.4719995,2732,-0.311910923,10.17982467,-253.9028892,-95.31674852,-740.2387733,-32.83680454,0,101.397528,51.37860687,-246.6277025,-863.8132512,-151.4327666,-113.3415776,67.31273,-742.4159577,-1046.84693,,,,
699.4799995,2732,-0.311551841,193.0946048,418.6291158,155.0663671,453.7546573,28.82609982,0,-76.9138354,105.3905312,156.0102231,445.8104215,207.8848176,127.6699107,-23.02425037,569.9721864,215.1446908,,,,
699.4879995,2732,-0.311186274,-103.9478391,-534.54882,-273.5678955,-1084.955162,-158.8507515,0,-13.46590748,-11.82209773,-146.8284799,-334.860046,-183.4317739,-68.72962167,-23.20498474,16.68488595,-423.412446,,,,
699.4959995,2732,-0.310814256,192.4145526,327.5027774,163.1693025,206.124864,83.41461919,0,52.82765635,130.6677787,-59.91566794,-394.6522261,84.26309218,9.087627524,74.37586029,-417.4601574,-650.6985759,,,,
699.5039995,2732,-0.310435822,3.7535183,-137.0609939,-138.391057,-391.1919754,-125.4684172,0,-105.1557032,40.94881123,99.84650985,491.0966703,47.84580994,87.99113573,-68.8537134,805.0160693,341.3671421,,,,
699.5119995,2732,-0.310051006,10.00141171,-264.4788972,-100.664415,-767.3800133,-34.84559667,0,115.0435481,62.38994402,-251.2005353,-868.98991,-153.6804208,-110.5440564,76.11397094,-783.982647,-1064.144256,,,,
699.5199995,2732,-0.309659842,196.3404237,411.058829,149.8699875,425.8948701,26.72571094,0,-61.98508224,120.6449795,147.3283469,434.3549979,209.0385788,130.9618581,-6.98403593,502.7084324,175.2728596,,,,
699.5279995,2732,-0.309262364,-104.2022679,-543.0776047,-281.6087496,-1117.594339,-166.0782268,0,-3.09251215,-0.348776526,-153.2988321,-323.8927958,-171.5700428,-61.77927371,-7.727458962,-45.77625762,-459.6070668,,,,
699.5359995,2732,-0.308858607,187.382654,319.2902598,157.4961241,178.7602479,75.48477865,0,52.93697125,132.5563899,-70.92798737,-405.9997309,87.62845447,4.214920695,78.82311311,-498.7248931,-704.4620046,,,,
699.5439995,2732,-0.308448605,2.05504402,-130.3545526,-136.6366481,-379.0381775,-129.0002997,0,-121.5385661,31.3100676,98.26662963,497.857749,44.31044776,81.47411235,-72.04421526,764.7477472,327.5029969,,,,
699.5519995,2732,-0.308032392,-3.583055876,-279.7926362,-112.8766859,-784.7766726,-43.40012212,0,93.81431089,47.44299927,-255.1659058,-866.5546821,-171.4915953,-113.2775347,77.30420034,-817.083558,-1072.811926,,,,
699.5599995,2732,-0.307610003,182.1728958,409.1294588,142.7541197,420.5167627,23.01869421,0,-76.68011057,110.7581432,136.4899293,416.7911105,190.0461048,129.3521775,-7.02972094,440.5892793,140.2118206,,,,
699.5679995,2732,-0.307181473,-120.9625363,-534.4602695,-280.068492,-1106.401981,-166.2911801,0,-17.11816994,-15.48096206,-164.0594212,-326.9848271,-188.6169618,-63.07323105,-13.67058711,-77.48130344,-467.727316,,,,
699.5759995,2732,-0.306746834,166.2326132,314.8953299,157.3428419,164.4095646,74.98321491,0,47.43920125,115.8922975,-85.66414482,-423.5767793,68.5051261,5.151668037,80.62406954,-539.0588925,-718.2393692,,,,
699.5839995,2732,-0.306306123,-8.289027123,-126.0581203,-132.2662537,-394.9861582,-123.5886407,0,-110.7106564,29.98560079,92.75653311,495.1632704,48.38311724,91.3465386,-62.27014464,714.1505928,303.1770134,,,,
699.5919995,2732,-0.305859373,-17.07446672,-279.7731174,-108.3840431,-810.275581,-36.80179329,0,100.951996,51.06596262,-258.1448276,-871.9420466,-157.515962,-107.8198142,87.25761522,-880.3674299,-1115.422274,,,,
699.5999995,2732,-0.30540662,164.8173162,412.7559484,146.6112918,411.5449138,24.89018884,0,-80.62079093,109.3994352,132.5286425,401.8068783,191.8771752,131.7140749,-5.514063952,376.3487582,96.65303823,,,,
699.6079995,2732,-0.304947896,-138.2346259,-540.7943311,-285.3085,-1124.026926,-169.824442,0,-11.55236511,-19.0758041,-167.3509963,-332.0776824,-191.6448764,-60.78524299,-16.40852813,-127.1123938,-500.0287459,,,,
699.6159995,2732,-0.304483238,143.6993306,305.0750946,155.5440342,147.7863655,75.99609817,0,55.31202803,106.2798686,-93.53940173,-447.6868978,66.17305887,-3.263649603,83.94007675,-607.8341124,-768.964213,,,,
699.6239995,2732,-0.304012679,-34.19823186,-128.2081706,-129.7698308,-389.4571827,-124.9027941,0,-119.3509712,12.30155802,87.82073341,485.2864317,38.78409881,78.4453131,-64.09053398,674.3590626,280.8422746,,,,
699.6319995,2732,-0.303536255,-45.04613926,-296.6007767,-112.7850094,-826.752845,-44.6543303,0,94.33150572,30.98531413,-275.0730651,-889.3633054,-175.0346626,-121.8129471,81.16064432,-920.4068325,-1136.533852,,,,
699.6399995,2732,-0.303053999,146.694695,415.6783265,156.9357326,424.0253871,27.53912761,0,-85.26664775,91.26493861,110.624621,386.292578,181.7871411,120.8047427,-12.78226865,336.3658945,78.34979239,,,,
699.6479995,2733,-0.302565946,-154.4729806,-541.5427568,-280.3644293,-1124.090313,-170.5385305,0,-25.39227066,-27.55093939,-178.3388072,-322.0038496,-203.2379438,-66.19882554,-24.230972,-139.4180358,-497.4840178,,,,
699.6559995,2733,-0.302072131,121.7852118,292.9938345,149.9889937,121.0341266,65.71050437,0,45.25387019,113.0614986,-108.0491015,-462.1344,55.41150906,-3.090344481,84.76863915,-667.9618655,-808.6492571,,,,
699.6639995,2733,-0.301572589,-60.04508055,-122.0267286,-130.4885929,-378.7685927,-135.0845557,0,-135.4491467,9.949301749,67.95334759,485.5235381,29.24631209,83.31076216,-75.80653441,631.5108816,259.6063612,,,,
699.6719995,2733,-0.301067353,-77.95871364,-304.0822421,-126.9284773,-837.592459,-57.25603788,0,78.76594724,13.23622123,-301.4839896,-891.2175384,-203.3870779,-127.2224082,61.05572523,-944.7617586,-1146.32133,,,,
699.6799995,2733,-0.30055646,114.3267214,409.0824419,140.2599526,408.3654497,17.1885692,0,-93.78284266,80.96107063,91.40366365,372.9064561,159.0105416,113.1924778,-13.80484031,285.9072962,49.35977731,,,,
699.6879995,2733,-0.300039942,-188.2345704,-555.1503515,-298.1070246,-1141.722972,-180.797337,0,-38.03056862,-45.36992677,-193.4246609,-324.5076769,-223.2693523,-70.91955922,-24.7683054,-173.8047875,-510.3439698,,,,
699.6959995,2733,-0.299517836,98.96524634,276.5938306,136.0338692,90.86204168,63.06105281,0,44.36260238,89.86562926,-126.8054023,-490.4353339,27.67249445,-11.81130365,82.20512635,-723.3705194,-845.2861363,,,,
699.7039995,2733,-0.298990175,-68.65289808,-122.1340837,-131.2445439,-394.9895961,-133.5402529,0,-134.7734354,2.964416335,70.51836445,475.9097321,17.23194122,84.99063564,-68.00012997,582.7877012,231.5557914,,,,
699.7119995,2733,-0.298456995,-84.98947089,-317.1462195,-126.4919068,-871.5473892,-61.2646571,0,77.31348448,8.617929997,-294.6789161,-899.647098,-210.7239317,-121.702286,67.51823257,-993.273153,-1171.047677,,,,
699.7199995,2733,-0.297918329,119.6428666,409.1785219,151.1417074,394.1825562,21.51251838,0,-80.4172868,83.73981591,96.79906407,358.1791474,161.3766211,118.8335033,-7.76656963,218.9648826,8.428026719,,,,
699.7279995,2733,-0.297374214,-180.2184388,-552.583996,-286.1343567,-1156.950919,-174.6675405,0,-25.70059725,-29.2557335,-181.6850862,-314.883435,-212.7073121,-61.53037962,-17.81861195,-222.3788953,-537.2635651,,,,
699.7359995,2733,-0.296824682,105.0186857,274.0676506,147.8456068,62.42254462,69.3204771,0,52.14717288,107.5330658,-124.1801289,-489.8382169,36.69710749,-6.298726569,89.85044821,-787.6642904,-883.5539008,,,,
699.7439995,2733,-0.29626977,-61.56606156,-110.9123339,-112.7154715,-398.1176789,-124.8188414,0,-122.9744306,23.39510739,74.88671187,497.7596453,42.20742136,94.30037528,-55.64894473,529.2431866,206.198455,,,,
699.7519995,2733,-0.295709511,-84.76347142,-311.5104782,-108.1394983,-883.7121632,-55.59005062,0,86.11918818,22.21117068,-293.1726026,-883.2080214,-189.7637776,-117.1357693,74.36811882,-1038.70547,-1189.794096,,,,
699.7599995,2733,-0.295143941,123.6083575,433.8098092,181.9193279,408.9247958,29.48694182,0,-77.83677728,87.01607648,101.5167839,366.9030713,174.3733359,115.0507581,-5.369985066,182.3704491,3.155560964,,,,
699.7679995,2733,-0.294573094,-184.8142442,-532.1926519,-262.0702722,-1139.915661,-178.9522502,0,-24.78291127,-31.04412843,-171.4698848,-293.2794407,-205.6194254,-68.01572176,-13.70406735,-232.0682832,-518.9835629,,,,
699.7759995,2733,-0.293997005,94.96217807,284.1539484,163.7132723,70.57476075,55.34304392,0,52.49411136,94.50248314,-132.3856928,-501.5811892,22.47983191,-18.43506628,85.30482363,-818.2048023,-885.6820321,,,,
699.7839995,2733,-0.293415708,-62.02138291,-84.28272851,-89.20765373,-356.7826395,-134.0393588,0,-123.6865127,4.650891903,71.4503971,501.5284327,29.31243962,86.98823318,-64.08231993,525.06631,229.1560133,,,,
699.7919995,2733,-0.292829238,-94.08439304,-308.018376,-103.1500642,-877.0075683,-71.70002821,0,85.07152625,9.373246143,-293.8148361,-881.107493,-202.92434,-125.0921045,73.86340669,-1038.758669,-1168.933064,,,,
699.7999995,2733,-0.29223763,113.8331388,433.5310323,176.6929128,405.2450739,14.41718388,0,-81.07046159,84.50275215,84.72531869,352.6112972,156.9311145,110.5865483,-8.611013541,149.4314264,-7.997286927,,,,
699.8079995,2733,-0.291640918,-190.3325888,-532.6569036,-264.8868178,-1142.577539,-181.2296553,0,-19.43071577,-29.49364964,-185.0208578,-284.0076313,-211.2766295,-56.05291842,-14.8570152,-252.1917868,-520.0629732,,,,
699.8159995,2733,-0.291039138,80.02289086,278.1099072,160.6594795,66.12232128,56.78954149,0,55.05623234,90.73651415,-137.66464,-504.7594355,24.50537932,-7.826687301,88.89743035,-846.667705,-891.0240606,,,,
699.8239995,2733,-0.290432324,-78.45022696,-84.0728446,-93.08669584,-341.3352561,-132.754798,0,-137.9708959,-6.348420474,65.57746261,504.2854932,25.19375352,83.74771487,-80.64550085,513.9466849,244.4229515,,,,
699.8319995,2733,-0.28982051,-104.5155337,-329.8325217,-111.8971277,-899.2790081,-61.96048923,0,94.60444394,4.422288568,-301.6292491,-887.3593538,-209.8618066,-133.5180896,66.72351007,-1067.547272,-1171.585925,,,,
699.8399995,2733,-0.289203731,103.9591873,427.5654472,180.3436876,412.857067,27.90822927,0,-68.9300165,82.8393365,88.96788134,341.4458673,168.4640236,104.0905587,3.199202232,96.64500147,-26.64354156,,,,
699.8479995,2733,-0.288582022,-206.1790756,-527.3422996,-260.9230561,-1100.173661,-180.814075,0,-41.82279643,-53.91384818,-180.768271,-277.4815705,-213.3868496,-74.9931922,-30.95460475,-252.8899509,-488.2663132,,,,
699.8559995,2733,-0.287955417,79.22969319,271.2576312,157.5220821,77.74973816,58.39018168,0,55.11567368,71.8298127,-140.1645837,-520.5938974,1.693170045,-30.70030713,79.40105994,-857.3958542,-873.2469274,,,,
699.8639995,2733,-0.287323951,-67.43305902,-78.92252797,-91.94637182,-317.5840686,-127.2482739,0,-127.9128067,-1.476073088,77.54042959,508.0153869,24.45077423,84.51190027,-60.59998359,496.4610849,250.2787386,,,,
699.8719995,2733,-0.286687659,-109.9965532,-328.2036212,-113.8957984,-864.5451568,-67.55431606,0,70.44870031,-8.246738508,-297.4793956,-881.4129869,-216.6134943,-130.2918084,68.56524304,-1063.120198,-1148.895367,,,,
699.8799995,2733,-0.286046576,97.4410165,426.5124517,176.2872511,442.8368593,23.02929582,0,-82.59178834,60.49654214,82.14122098,330.8653406,139.4728509,96.22232809,-7.78816915,107.0223509,1.164204331,,,,
699.8879995,2733,-0.285400735,-210.5036268,-544.2454467,-270.3443548,-1108.197244,-179.6721497,0,-31.6574015,-55.13842236,-184.4364294,-283.5557904,-230.3302307,-78.85734943,-24.83271071,-255.4077361,-483.5050804,,,,
699.8959995,2733,-0.284750171,72.1765547,254.2396036,154.8376577,63.65801314,64.28862903,0,59.12411228,74.48843942,-149.1063857,-547.6751587,4.961364383,-35.84968791,86.80646834,-901.0506713,-908.3911333,,,,
699.9039995,2734,-0.28409492,-67.41341411,-78.7708706,-90.84439123,-314.4305516,-122.5528911,0,-119.661639,-2.84482227,76.08718037,502.6752627,33.24614724,76.84305421,-61.19578271,471.2606572,238.3688394,,,,
699.9119995,2734,-0.283435015,-102.7382289,-334.3623437,-117.8172639,-896.4558713,-64.44089301,0,99.20431153,3.191718806,-296.0138309,-885.4046047,-203.6771981,-129.6423489,76.32596529,-1100.712939,-1179.350358,,,,
699.9199995,2734,-0.282770491,120.8636445,446.0683157,190.0613649,439.2140539,33.05803897,0,-55.21836976,74.46078315,90.06205127,325.3006148,172.1112187,110.8432158,-2.569105605,57.84536719,-38.26115755,,,,
699.9279995,2734,-0.282101383,-184.601354,-522.1685145,-256.3701319,-1101.389772,-171.9947736,0,-11.71583484,-50.815361,-166.5171755,-262.4151212,-200.257598,-63.22753504,-29.26128821,-271.9257105,-486.6269152,,,,
699.9359995,2734,-0.281427725,88.89128322,273.2788393,168.5084584,67.98843738,74.72536714,0,82.87521828,78.46223805,-136.3415293,-540.7154441,20.59474754,-25.26182097,83.07640921,-930.411772,-924.2712712,,,,
699.9439995,2734,-0.280749552,-57.61024216,-47.49100107,-73.20825407,-279.460018,-111.2378282,0,-102.2181628,-6.132560322,88.62759379,521.3872377,43.92352553,88.9761553,-75.52066422,478.7784441,254.5029481,,,,
699.9519995,2734,-0.280066897,-103.9230994,-338.0315563,-120.827698,-904.7112078,-62.13747157,0,115.5429741,-6.18132165,-298.8457943,-885.0831997,-212.3622729,-127.8056442,60.5605833,-1103.191714,-1174.429754,,,,
699.9599995,2734,-0.279379796,123.7096093,452.4178618,191.8289704,443.8052558,39.64650882,0,-30.84434454,74.99608565,79.79382668,315.148625,165.1853443,116.4915653,-3.278357978,18.13486915,-65.89831941,,,,
699.9679995,2734,-0.278688283,-180.0598635,-514.908639,-257.927364,-1103.975365,-172.5146274,0,14.94364909,-47.88481871,-169.6619922,-245.4926988,-198.3421941,-41.41933616,-26.74388555,-283.0531229,-491.7951416,,,,
699.9759995,2734,-0.277992393,98.18706836,255.3041418,157.0080664,8.731116684,68.57299229,0,113.0759467,94.45662436,-143.4769432,-552.6180805,29.01087714,0.089077595,95.08699137,-1001.126159,-985.1453413,,,,
699.9839995,2734,-0.277292159,-38.90329457,-33.6296597,-59.05875068,-296.2073672,-103.4946739,0,-75.2913905,26.88135126,99.98157922,534.0803023,77.77418948,123.846374,-55.66865134,391.320243,182.566868,,,,
699.9919995,2734,-0.276587616,-97.89925206,-323.1551547,-99.46046058,-909.775682,-53.23187091,0,125.2702781,9.456450394,-273.3632479,-852.3113095,-181.2473072,-98.80789876,65.70529172,-1138.348933,-1199.117551,,,,
699.9999995,2734,-0.275878798,125.7558672,459.6158524,209.6451457,435.4007678,49.76153372,0,-38.98941375,80.76611972,105.6905517,327.3656695,185.9368058,128.2000595,-4.792294214,-21.03860978,-92.594032,,,,
700.0079995,2734,-0.275165741,-179.5714967,-495.8633827,-236.8122696,-1082.236936,-156.7111815,0,-3.824590162,-44.8217717,-135.8020315,-216.7168953,-174.0768378,-36.72159966,-27.45625702,-301.4311656,-498.6784925,,,,
700.0159995,2734,-0.274448477,87.8611963,281.1264754,176.4244801,55.7747276,83.33358554,0,91.94597769,73.35505092,-118.8116225,-537.1588309,37.55921645,-9.938044971,83.85261768,-991.1157299,-963.7835071,,,,
700.0239995,2734,-0.273727041,-50.73328282,-17.88998207,-55.84616821,-259.2784745,-96.03395522,0,-99.7731923,0.157451552,110.3838376,543.9372959,65.87052041,101.4499979,-71.7657479,412.7837252,214.9760861,,,,
700.0319995,2734,-0.273001468,-111.4311087,-335.7346447,-116.1597696,-922.2925857,-52.72093593,0,108.1563104,-2.625583818,-272.2594613,-853.08895,-194.1962563,-122.7181295,57.37002588,-1147.111312,-1197.037524,,,,
700.0399995,2734,-0.272271792,121.1343908,465.3261242,203.7993786,439.0231046,55.50699054,0,-30.29821386,80.36906434,104.4047112,323.2630973,189.3403875,111.1052414,-8.015033744,-54.01821921,-110.4583225,,,,
700.0479995,2734,-0.271538047,-180.5357901,-490.086688,-239.2890537,-1089.717049,-151.0239991,0,11.01563779,-38.85849271,-139.360678,-200.5085457,-167.3882963,-45.77428196,-27.05666882,-319.0246563,-505.7519876,,,,
700.0559995,2734,-0.270800266,82.70540653,272.428026,173.949452,26.44490114,88.59599875,0,95.02802985,78.45966375,-129.3816839,-540.8315279,42.15521738,-14.95319379,88.11850392,-1032.919915,-993.769185,,,,
700.0639995,2734,-0.270058485,-50.56478794,-11.42009265,-46.09260775,-254.8368467,-89.60149681,0,-102.2958146,0.488024296,109.1091779,554.0035668,83.03086418,103.4221319,-73.79499256,386.6438095,201.7048454,,,,
700.0719995,2734,-0.269312737,-110.7163451,-338.0126889,-108.6632342,-931.7781419,-49.44052432,0,109.7387953,-2.588025951,-266.9085998,-844.6645388,-178.5136908,-120.521053,60.9485261,-1173.425008,-1212.908343,,,,
700.0799995,2734,-0.268563056,119.6916671,470.1097893,213.5059519,445.2192516,61.80636582,0,-34.95674249,77.38090069,114.6743181,318.7384145,198.7704357,115.1313952,5.829052029,-92.46019994,-136.7251614,,,,
700.0879995,2734,-0.267809477,-191.0723652,-492.2054794,-238.8085568,-1078.939414,-152.4182378,0,-6.296999841,-50.87903418,-129.5673732,-196.9562951,-170.8521411,-44.0326569,-23.76400457,-328.9052564,-510.2599803,,,,
700.0959995,2734,-0.267052033,70.67067439,257.7370986,164.5865246,14.43327994,80.63712501,0,94.83756581,71.54599884,-131.2937007,-567.6575606,21.94170396,-23.26150936,89.9242175,-1077.04381,-1031.982818,,,,
700.1039995,2734,-0.266290758,-54.26780898,-17.0251113,-54.59276763,-260.5043908,-94.67057275,0,-84.70783123,-1.797892384,113.2397491,544.3602848,64.09417009,103.2106877,-63.88426804,351.4006362,173.2773009,,,,
700.1119995,2734,-0.265525687,-115.8184823,-353.2814404,-119.6130948,-962.9240331,-51.24302585,0,134.4488559,-0.284223965,-265.2204403,-851.5090471,-196.7919066,-112.5079293,79.49736508,-1216.041871,-1249.801962,,,,
700.1199995,2734,-0.264756852,115.3788944,477.2678324,216.1858417,449.4137083,62.28603686,0,-28.72539894,80.04220842,114.9231055,309.9352665,192.5050211,121.6960503,13.14525881,-148.8571465,-178.5679135,,,,
700.1279995,2734,-0.263984289,-195.8822012,-488.2759982,-240.124287,-1062.403053,-163.3015338,0,-27.38327081,-64.45414905,-121.4126716,-175.2115965,-178.493797,-41.97560059,-44.85005438,-327.2600325,-494.610192,,,,
700.1359995,2734,-0.26320803,68.48346733,243.3699756,158.9289812,2.361796442,70.02713482,0,80.07268057,62.33386791,-128.0651462,-570.3453311,7.585143067,-24.84028527,76.25393509,-1101.062419,-1040.96508,,,,
700.1439995,2734,-0.26242811,-56.37210105,-9.256095484,-49.00804989,-232.8430859,-99.20791735,0,-114.0080948,-11.27164931,118.2571958,552.9308818,65.21852551,100.6474128,-76.82253504,338.203039,175.8180062,,,,
700.1519995,2734,-0.261644562,-119.9159029,-360.122906,-124.6908834,-950.4220297,-61.75487756,0,98.46569615,-21.03798309,-265.6820916,-847.1280859,-205.8755779,-127.6553054,52.09240527,-1202.4726,-1225.932729,,,,
700.1599995,2735,-0.260857421,127.5318247,462.2097864,207.5560014,440.1167293,56.56530376,0,-36.61012875,77.91424376,113.3910089,290.0389292,180.730386,106.678865,3.71854724,-169.7578764,-187.5277384,,,,
700.1679995,2735,-0.260066719,-186.8472614,-503.6636064,-252.2347494,-1079.688001,-166.4061253,0,-26.21707673,-56.65416067,-117.3588313,-174.7125899,-181.6776252,-49.16493854,-37.07361326,-346.0640787,-504.6966618,,,,
700.1759995,2735,-0.25927249,72.3535934,233.3392222,146.28591,-13.43538084,70.74492253,0,87.65383241,62.91988951,-131.4077528,-581.2416808,-3.880770718,-35.54109687,83.79790084,-1136.925164,-1067.775872,,,,
700.1839995,2735,-0.258474768,-43.2543902,6.570429298,-50.73158982,-207.9946379,-92.16414477,0,-97.34959173,-6.209192449,124.695438,555.6600877,57.90185258,102.0095373,-68.93970336,312.4251292,160.2983732,,,,
700.1919995,2735,-0.257673587,-126.2751444,-357.5367265,-135.1646439,-935.7313278,-63.09543291,0,102.3622309,-29.45828488,-255.3317207,-837.7632442,-218.1478802,-121.6219253,57.58587725,-1200.32059,-1218.736064,,,,
700.1999995,2735,-0.25686898,114.6094685,467.688931,196.282047,466.0151764,56.42046893,0,-36.06553453,56.74172329,120.3536097,291.5335376,159.5985544,107.1120972,4.44050897,-166.17757,-178.0450041,,,,
700.2079995,2735,-0.25606098,-186.2853448,-492.376683,-257.8115289,-1049.689446,-157.2815881,0,-7.292767021,-59.12865273,-99.15748582,-158.7254834,-192.1020289,-39.63401825,-29.59449873,-343.4644271,-496.6620788,,,,
700.2159995,2735,-0.255249621,72.47961455,234.7998113,141.9711537,-5.221756622,81.55888954,0,97.96535698,66.08099872,-112.1430215,-580.2410618,2.470119571,-28.54085346,94.38694088,-1147.414661,-1071.2969,,,,
700.2239995,2735,-0.254434936,-37.2373171,7.335939416,-57.41206344,-199.2227488,-85.52748795,0,-104.8736905,-7.325546204,143.1394724,571.3521639,71.58555481,98.82414064,-65.36306007,316.7507071,173.9541854,,,,
700.2319995,2735,-0.253616959,-108.7194963,-375.3887054,-149.4443732,-962.1571885,-58.33222427,0,110.7441912,-16.19333978,-243.0230141,-827.3847089,-208.9700165,-124.1817214,64.65679215,-1231.06923,-1237.480709,,,,
700.2399995,2735,-0.252795723,133.1738921,466.5684602,194.7881176,461.5803457,64.35413429,0,-30.24551298,69.66934336,123.8314626,290.7426539,179.6321207,108.3061023,5.61786158,-217.9312463,-215.0517273,,,,
700.2479995,2735,-0.251971261,-179.4563927,-483.6970195,-257.5079713,-1028.792366,-159.8118665,0,-27.59293926,-73.25272391,-103.1625626,-138.2719642,-175.0035837,-46.697656,-49.42410286,-336.3999386,-482.6494288,,,,
700.2559995,2735,-0.251143606,83.03565078,230.4199447,136.7971936,-4.346769,77.15501217,0,89.61819596,53.4384169,-122.7398166,-584.711655,-0.016411218,-37.58797102,79.25557227,-1157.961698,-1074.44841,,,,
700.2639995,2735,-0.250312791,-23.14315785,14.95084874,-54.05480257,-182.754758,-82.07306551,0,-107.2356437,-1.002039819,146.6537001,574.5282072,79.71079992,108.9703119,-66.49772722,297.1354082,165.0982038,,,,
700.2719995,2735,-0.249478851,-113.7877831,-375.0511442,-147.0988109,-958.3607365,-63.34010862,0,89.32806591,-18.56982118,-239.0121155,-824.8567709,-201.9211003,-113.9208221,55.89641581,-1238.212233,-1234.72314,,,,
700.2799995,2735,-0.248641816,132.4349188,468.5985523,203.0858857,461.8788504,62.50760846,0,-36.10727385,74.22040074,127.8818971,279.0019731,179.2430542,120.0825843,1.845494287,-244.7046292,-224.5357644,,,,
700.2879995,2735,-0.247801722,-168.3488238,-488.1753992,-251.5966171,-1045.595539,-153.1848285,0,-8.43230243,-46.79745387,-84.05994982,-130.5926024,-166.4101767,-21.76262468,-33.7097669,-370.7145021,-497.6446358,,,,
700.2959995,2735,-0.2469586,90.04704921,219.5284397,141.6608029,-38.91950928,81.39947473,0,105.364197,75.45542247,-108.2854996,-592.2727721,9.001288063,-20.32796465,97.03711376,-1225.493608,-1120.455517,,,,
700.3039995,2735,-0.246112483,-14.23524816,19.80334859,-37.54355236,-187.8049165,-78.91674948,0,-104.568574,7.993599246,157.4167332,586.9146859,91.92476681,122.7144019,-59.43701156,253.7674249,141.8993279,,,,
700.3119995,2735,-0.245263405,-104.4844535,-384.9627948,-137.3454732,-977.3967499,-59.19737141,0,88.43015404,-18.4900473,-237.939332,-810.8858,-195.1664527,-106.7561689,57.75817987,-1269.363431,-1252.564903,,,,
700.3199995,2735,-0.244411398,146.2194665,464.3194924,212.8814653,455.3587973,70.46863845,0,-42.90498803,65.939416,121.8348527,273.0486136,176.6940911,113.6235103,1.761510353,-290.5269266,-257.2148972,,,,
700.3279995,2735,-0.243556495,-151.8995908,-497.6622712,-244.8834678,-1060.628642,-143.9419154,0,-19.3747595,-50.59235027,-85.61736617,-123.3171252,-169.3356537,-26.56175319,-30.38045717,-397.8422331,-515.5445487,,,,
700.3359995,2735,-0.242698729,96.80996709,197.72612,143.9399001,-78.97602194,94.35034617,0,102.3043401,84.28095087,-113.27529,-608.4392905,15.85133049,-22.2676658,111.4152328,-1295.010519,-1176.823279,,,,
700.3439995,2735,-0.241838132,-15.34999199,23.16909257,-28.93393805,-185.47424,-67.01704136,0,-105.0209792,13.14407993,157.7276913,584.5939792,104.6142527,118.1243609,-54.32200141,205.2068218,108.8661052,,,,
700.3519995,2735,-0.240974736,-101.673653,-386.4951611,-134.787189,-987.0108733,-49.21740104,0,106.3899287,-10.4262562,-237.0572134,-806.2914548,-197.0425295,-110.942771,64.32566498,-1293.922389,-1265.445442,,,,
700.3599995,2735,-0.240108575,151.131975,470.7449354,216.7312374,452.4804704,80.91148993,0,-22.71105626,84.8463723,128.5130392,267.5957216,183.5639715,118.2789731,22.86705939,-342.4766978,-290.2631866,,,,
700.3679995,2735,-0.239239681,-165.4463902,-480.8601466,-242.2065382,-1029.725245,-152.4246855,0,-34.09124238,-61.89986478,-75.45753775,-109.151076,-166.0521711,-27.70641419,-42.98580754,-397.7279639,-496.2172954,,,,
700.3759995,2735,-0.238368086,87.91969023,209.7556952,145.6912312,-45.65196223,82.69755883,0,87.19755299,55.31464769,-115.0892974,-617.3418965,-8.639517495,-37.23411528,77.78246613,-1280.731435,-1142.794193,,,,
700.3839995,2735,-0.237493823,-6.56769426,40.38462535,-24.80256871,-150.033991,-67.5609177,0,-107.6591626,14.16238623,168.3902975,583.4164192,92.73492537,113.6548235,-63.0931489,207.820919,134.5511785,,,,
700.3919995,2735,-0.236616923,-106.0911585,-386.4937697,-139.2407326,-980.0080215,-57.32083642,0,95.00051028,-5.584370755,-222.733603,-797.8299984,-193.7411596,-115.7212422,58.81124641,-1291.782511,-1242.460924,,,,
700.3999995,2735,-0.23573742,148.5928537,479.1853991,221.4246544,478.2402485,76.68722256,0,-34.31965649,79.62226338,133.4786162,271.7824852,190.4691606,100.2191605,13.0654238,-344.6504346,-270.202789,,,,
700.4079995,2735,-0.234855345,-157.2540618,-470.3517274,-237.5422353,-999.1448062,-149.5950907,0,-39.13043306,-53.15724332,-68.36278866,-81.63673955,-153.8283484,-40.38018339,-33.49446593,-386.0380795,-463.5501787,,,,
700.4159995,2736,-0.233970731,90.98808777,210.3617677,142.2420129,-31.02966684,81.03455084,0,80.64522545,63.42840163,-114.9077916,-599.122273,5.947932912,-44.69929659,89.3760679,-1279.293937,-1120.158544,,,,
700.4239995,2736,-0.233083609,-6.250486536,45.87983327,-29.24283401,-116.6238546,-76.4472897,0,-125.2111259,3.707260715,161.8782737,604.049679,104.8891598,101.6406987,-75.75148647,228.0979752,171.68682,,,,
700.4319995,2736,-0.232194013,-111.6305818,-402.0938602,-158.4532201,-983.1037491,-72.83223152,0,78.67937623,-15.09075766,-237.2639102,-793.0995661,-196.3560645,-130.8564996,45.26403969,-1287.253665,-1222.231234,,,,
700.4399995,2736,-0.231301972,149.5858336,473.3376348,210.0898783,471.9257078,68.72492437,0,-31.77302438,84.76092124,121.3806654,266.6124535,195.2597369,95.77344312,14.27616899,-373.5721834,-274.2630223,,,,
700.4479995,2736,-0.23040752,-151.1754918,-468.975246,-236.9756177,-1003.534982,-152.5159632,0,-30.58133625,-40.56813119,-74.59903187,-64.52445459,-138.4201726,-37.394253,-30.8450571,-401.1205621,-459.6008496,,,,
700.4559995,2736,-0.229510689,93.52098442,206.0552421,143.637873,-55.50546484,81.45015723,0,82.68821101,82.58149644,-131.518935,-602.7234693,15.18518388,-44.09957212,93.50885093,-1327.10697,-1150.670217,,,,
700.4639995,2736,-0.228611509,4.983505149,63.87009002,-16.81614733,-109.6505708,-70.07437966,0,-127.3594152,23.97370661,150.8544101,618.8089176,116.8984148,112.2439422,-73.53701283,195.1125669,160.342,,,,
700.4719995,2736,-0.227710013,-98.37216868,-392.7929992,-147.8114317,-983.660792,-70.73945902,0,67.7693107,3.40098476,-244.4850023,-770.7483245,-190.5563746,-117.0785346,40.18342926,-1297.364623,-1215.700801,,,,
700.4799995,2736,-0.226806233,159.2944747,483.8246524,219.6569575,477.5625227,72.23382187,0,-46.74730567,102.0859721,110.1401193,263.4660311,195.7210488,106.314964,3.051397723,-408.7674382,-293.4882598,,,,
700.4879995,2736,-0.2259002,-146.0027857,-458.6512607,-231.2957319,-984.3727391,-150.4377966,0,-40.32199756,-41.91641916,-79.13674514,-57.09376945,-141.4775771,-26.09943613,-47.70163233,-406.2589766,-454.2488872,,,,
700.4959995,2736,-0.224991945,95.92214641,193.9332674,138.9092273,-63.97930067,78.06076648,0,77.6219478,74.86009491,-138.053877,-613.2998442,-1.964361553,-36.81359358,81.95183334,-1342.706378,-1160.804212,,,,
700.5039995,2736,-0.2240815,8.118480789,60.84301408,-16.85768642,-106.4116384,-67.04344479,0,-127.8814091,25.51598393,147.3014416,611.3200506,100.9068231,119.6954293,-73.26135435,154.6896034,124.6539766,,,,
700.5119995,2736,-0.223168897,-96.91979907,-389.0642332,-138.7835192,-961.1325882,-60.36904944,0,70.97563524,-12.309465,-244.9478368,-769.0766492,-208.6573856,-114.8026593,41.92602965,-1313.99974,-1232.359185,,,,
700.5199995,2736,-0.222254166,167.7163682,493.3070774,235.4858377,515.2703219,83.67093653,0,-39.33398887,82.53511394,111.5188429,264.5208026,172.4818277,106.5759091,6.367238928,-403.4260082,-288.1865959,,,,
700.5279995,2736,-0.221337339,-136.3843714,-449.9062561,-218.8999007,-955.186413,-141.1290293,0,-24.65953677,-39.91886752,-69.74103412,-37.49292014,-153.7228359,-19.24911341,-27.98523896,-398.7385804,-442.4991079,,,,
700.5359995,2736,-0.220418447,109.7430763,207.755398,156.0369067,-29.32541835,91.46042644,0,96.69153461,75.34010156,-127.6724098,-610.1836723,-2.105942307,-35.51063089,108.6152874,-1351.206312,-1157.097872,,,,
700.5439995,2736,-0.219497522,36.0375445,82.12862409,4.005382318,-61.27586755,-53.50927159,0,-107.1025467,25.98608355,169.5302465,624.4133197,110.4985638,118.0839859,-55.43901886,173.6675785,158.8991126,,,,
700.5519995,2736,-0.218574594,-70.35809479,-396.9338097,-136.2691267,-982.3893888,-56.07471795,0,98.03734683,13.20369187,-214.6370871,-757.2794771,-189.0380839,-110.3156884,69.62287169,-1326.555972,-1227.608586,,,,
700.5599995,2736,-0.217649694,189.8883402,493.9528619,241.1302024,500.3261662,84.89314989,0,-35.26571896,113.2663571,141.7387817,263.772257,207.058202,111.1501398,29.73278652,-463.814349,-322.5392028,,,,
700.5679995,2736,-0.216722853,-118.7331247,-447.0569855,-211.1475606,-952.6582096,-144.4730872,0,-38.4151863,-32.40812178,-41.20811631,-19.68272741,-133.6798038,-25.49532283,-37.61613913,-414.5997751,-434.3497691,,,,
700.5759995,2736,-0.215794103,122.8888538,185.257529,150.8532112,-71.03934581,84.14341575,0,104.482632,83.26824789,-109.2191342,-614.6367595,-4.740258052,-45.29444432,108.3966447,-1386.73845,-1169.087577,,,,
700.5839995,2736,-0.214863473,43.23689411,68.88749765,-4.084482444,-88.81914653,-67.59950332,0,-110.2083934,46.75979548,188.6203724,620.9877638,118.0617893,115.7291998,-35.08122806,108.4955914,121.9396344,,,,
700.5919995,2736,-0.213930994,-73.01748163,-415.6468706,-153.1606397,-1007.802913,-82.50352855,0,74.78791556,11.0160944,-208.1456604,-764.2788222,-195.9379816,-121.2704783,69.15383664,-1374.225333,-1250.125212,,,,
700.5999995,2736,-0.212996698,193.3407705,484.4998183,226.6691234,485.9241169,62.99085478,0,-48.46523828,95.31356931,132.9547306,244.9275145,180.1229106,99.13036672,17.98682888,-496.9005623,-332.612745,,,,
700.6079995,2736,-0.212060615,-111.3169006,-445.8926215,-223.4975241,-957.5548238,-161.9617802,0,-53.37900537,-36.66464318,-51.11152854,-19.16091578,-155.5572724,-24.37938203,-43.94408609,-436.9463335,-438.2369534,,,,
700.6159995,2736,-0.211122774,131.5257243,192.6219215,146.3036906,-63.54713145,67.7854887,0,79.54069517,71.28204553,-124.7950522,-627.5207867,-26.23714039,-45.05082512,87.16742406,-1411.237617,-1177.772944,,,,
700.6239995,2736,-0.210183208,57.37315215,101.5635424,10.34083989,-30.01526637,-75.6531184,0,-140.6092583,18.8360622,173.7340397,624.0767714,94.95075347,114.3112592,-77.57781722,140.5031409,165.6008228,,,,
700.6319995,2736,-0.209241945,-64.44841344,-395.3060741,-137.8870247,-967.2270649,-81.36633079,0,61.90778198,-3.581109847,-223.9992694,-753.7558794,-214.2209085,-123.2957287,35.16250881,-1322.545043,-1193.082987,,,,
700.6399995,2736,-0.208299016,207.0079676,504.200823,250.1940662,517.7715247,74.0618987,0,-37.5951617,102.9591853,129.2635573,243.4747537,185.218283,99.2211658,8.491470685,-478.999568,-307.400121,,,,
700.6479995,2736,-0.207354452,-99.50043209,-431.059737,-206.8378313,-932.0022442,-162.1528735,0,-55.7197634,-26.37247443,-40.49581772,-4.640490409,-138.0493498,-24.05957804,-51.0631942,-406.3194736,-402.1121675,,,,
700.6559995,2736,-0.206408282,132.6431409,187.7602128,146.0981687,-72.20244409,55.20793833,0,66.09471727,78.89483615,-120.5968146,-631.8566202,-15.07989037,-56.17737878,76.52400955,-1407.348656,-1164.70244,,,,
700.6639995,2736,-0.205460537,62.31217444,102.9176682,10.36660267,-37.15561142,-84.86667609,0,-142.4995194,30.67730796,187.0388029,625.6777451,112.5162844,104.574939,-77.62906553,126.3891492,165.8995087,,,,
700.6719995,2737,-0.204511246,-61.58472386,-406.7790218,-149.3302536,-996.7019444,-96.53908624,0,63.11757934,8.729305934,-206.1692634,-750.4379566,-200.8319506,-128.169115,45.68034932,-1347.630295,-1204.561208,,,,
700.6799995,2737,-0.20356044,208.9560585,501.5347128,239.6005767,507.7725355,55.84904413,0,-51.15024174,109.0433605,137.5893376,235.3569269,188.305286,92.87611098,11.75650505,-519.6469387,-329.2770702,,,,
700.6879995,2737,-0.202608147,-98.46089804,-424.7223496,-209.2204022,-920.6821892,-174.3650537,0,-72.33609523,-30.28203565,-32.23680542,8.404638961,-140.104027,-28.05368768,-60.03904532,-409.5806965,-390.0882988,,,,
700.6959995,2737,-0.201654399,133.1379261,176.9753483,142.3434671,-92.72397833,52.50205084,0,78.37041813,79.08266409,-117.0275845,-635.8002244,-20.79888788,-57.93624133,79.21877088,-1432.691369,-1179.818757,,,,
700.7039995,2737,-0.200699225,74.18449675,98.49451252,12.5700131,-53.10689932,-77.13746985,0,-112.3739627,41.55995223,193.9514652,629.5862328,121.1049872,114.4431997,-60.60671469,85.0337503,135.2208035,,,,
700.7119995,2737,-0.199742653,-43.89340402,-413.5805257,-144.4667974,-1023.182534,-86.64571498,0,87.3739355,21.0576721,-199.1977741,-741.9490453,-184.9364439,-115.3205529,62.24746386,-1388.613102,-1233.524343,,,,
700.7199995,2737,-0.198784714,236.8501747,502.6486388,247.8215236,484.3535795,64.41498069,0,-34.56519919,118.3887834,141.4149032,232.5359706,205.7844813,98.99527806,21.10395679,-578.2401354,-370.8140372,,,,
700.7279995,2737,-0.197825438,-57.26301409,-413.8627498,-201.6365926,-934.3351762,-166.346578,0,-55.7046423,-22.79598551,-17.76081175,31.57591848,-118.1776652,-15.76975918,-56.23170351,-442.6012993,-407.8704285,,,,
700.7359995,2737,-0.196864852,175.8272364,193.4391735,149.763436,-105.9658829,61.98837403,0,88.79756362,96.39900212,-102.8227319,-621.3014776,0.70154471,-42.80192159,81.91594848,-1475.57363,-1204.677002,,,,
700.7439995,2737,-0.195902988,107.5268809,132.4005299,21.88854448,-27.81743917,-73.59737036,0,-130.5065461,52.44167076,204.9479883,654.2640549,141.4640752,124.6685285,-78.40702903,68.61063144,138.7810661,,,,
700.7519995,2737,-0.194939873,-26.30950123,-397.6069826,-145.9707142,-1006.465176,-89.11632144,0,68.93754883,13.64031321,-193.390153,-713.5466725,-180.6700424,-109.7357569,30.58041177,-1371.085494,-1204.078831,,,,
700.7599995,2737,-0.193975538,248.977322,512.764334,246.1454256,498.894615,71.51725793,0,-27.6298409,115.5841414,142.9051373,247.5490933,206.8651071,105.332919,4.318014336,-580.7850086,-361.8204265,,,,
700.7679995,2737,-0.19301001,-60.38772989,-410.018238,-207.8410661,-921.5013708,-159.8316712,0,-43.3349658,-23.83467053,-17.74822226,59.62404332,-113.1745979,-9.537793691,-61.52404868,-441.3654676,-395.3529173,,,,
700.7759995,2737,-0.19204332,157.7157895,182.8989217,138.7297637,-110.4379609,62.72718322,0,102.9712103,88.16924558,-111.6865869,-616.556202,-3.264160623,-37.79682072,83.9669474,-1496.582404,-1216.082996,,,,
700.7839995,2737,-0.191075495,95.09824755,135.0566071,21.24814371,-5.668447606,-69.84910386,0,-114.145921,39.32649697,200.1126183,662.9029169,135.1058302,135.7129338,-77.15817045,55.40978654,132.0679333,,,,
700.7919995,2737,-0.190106564,-41.33462363,-405.2716623,-150.2294965,-1004.070908,-87.35535521,0,91.34366109,3.029887674,-196.3131791,-705.1327864,-194.2638546,-101.5849795,33.7333931,-1375.087581,-1205.2687,,,,
700.7999995,2737,-0.189136558,235.2812011,510.1595657,243.1798979,497.4123931,73.86179878,0,-3.450058493,119.3413826,146.7493847,238.7112105,201.3615528,113.9885287,19.30480529,-607.520176,-383.4210656,,,,
700.8079995,2737,-0.188165503,-69.9837416,-407.0436696,-210.8438348,-914.5056482,-160.7293835,0,-39.06494971,-20.28555158,-1.687854678,64.32330901,-107.1243007,3.486224655,-55.9036235,-453.2643301,-403.6388278,,,,
700.8159995,2737,-0.187193428,146.7416591,183.9889113,136.3699358,-110.6870363,62.26830878,0,101.2926289,86.12368527,-102.9171607,-625.7212254,-3.659802923,-34.29530631,75.88592464,-1520.884096,-1231.050493,,,,
700.8239995,2737,-0.186220362,83.52328911,157.9473682,28.5586875,30.00261849,-68.52519465,0,-118.257236,39.60467577,210.5507716,672.106921,136.8263424,137.553515,-91.46734352,52.32365621,141.5515964,,,,
700.8319995,2737,-0.185246334,-60.40298419,-394.2485413,-152.0525332,-969.6757219,-97.67863845,0,58.0977098,-14.69448201,-190.908025,-692.1274594,-202.3492518,-102.5918856,2.47086558,-1342.364948,-1166.23792,,,,
700.8399995,2737,-0.184271371,221.2368459,519.0637904,241.0842519,541.382352,64.37829289,0,-45.03855783,97.16464662,139.5923861,229.272145,182.1252469,108.9337263,-18.13881176,-583.6642573,-349.5288681,,,,
700.8479995,2737,-0.183295501,-83.40144338,-406.2090779,-216.9484675,-872.6413535,-169.5404246,0,-64.99118978,-23.74037833,-7.853788777,72.46896429,-127.6733382,2.273229852,-84.65806531,-416.5868858,-359.9365062,,,,
700.8559995,2737,-0.182318754,131.6765893,161.2262435,120.5486416,-103.6974938,53.6411047,0,81.81757762,80.83489945,-114.36562,-636.159627,-26.1604158,-40.73200732,56.54180308,-1501.35847,-1209.701975,,,,
700.8639995,2737,-0.181341156,81.43884876,139.3877603,14.91413891,30.10624772,-63.9371737,0,-123.8817641,41.66665534,201.7867618,660.8594105,130.7087756,132.4717673,-90.87950463,49.82032208,142.6175611,,,,
700.8719995,2737,-0.180362737,-60.90448389,-424.8429907,-174.372982,-1006.044258,-86.5775847,0,74.0539122,6.795851292,-195.3821226,-699.7639218,-196.9153256,-105.7235326,20.65693671,-1377.29049,-1196.294736,,,,
700.8799995,2737,-0.179383522,219.2373946,507.3565379,229.6156638,523.4293547,80.47566513,0,-24.20352236,114.3483963,138.0445431,212.9785017,193.9570229,105.0861052,3.048014125,-641.7715525,-400.5710526,,,,
700.8879995,2737,-0.178403541,-89.46042092,-399.6309849,-218.9143515,-859.9199113,-154.6802415,0,-56.84545321,-32.56938228,-8.02507124,75.39028944,-116.304317,-2.086505338,-75.5921166,-422.9043091,-364.4218768,,,,
700.8959995,2737,-0.177422822,125.1511564,156.7704556,110.4646983,-107.5648394,66.08063549,0,82.47353479,60.0356707,-124.669941,-654.8820639,-28.17712613,-52.26670099,54.36086081,-1507.259758,-1212.380781,,,,
700.9039995,2737,-0.17644139,83.06521859,144.8150048,6.57351318,34.34943198,-54.61378995,0,-120.2294973,35.06943081,198.5605197,649.9882325,132.5371224,130.0398263,-87.37471274,34.25333242,133.4249232,,,,
700.9119995,2737,-0.175459275,-70.19745088,-427.8819487,-183.6104485,-1018.171096,-88.49762597,0,75.44725762,-1.718755767,-198.849109,-701.2049171,-193.7289982,-103.543334,21.84993646,-1387.145032,-1202.66983,,,,
700.9199995,2737,-0.174476503,204.6968074,510.6750428,226.7206822,523.6250971,81.86101921,0,-37.10538226,96.61216346,125.3800566,201.519128,192.3837544,98.70424877,-11.12882967,-651.3448418,-402.516676,,,,
700.9279995,2738,-0.173493103,-99.30119357,-399.5726839,-228.052747,-868.8783947,-152.0079042,0,-72.23408391,-32.93351854,-14.59210587,87.16386324,-120.5415356,-5.760446082,-86.61768563,-412.0456399,-347.0714966,,,,
700.9359995,2738,-0.1725091,108.0694308,138.8512217,95.89817824,-149.4625771,66.43044572,0,80.74476654,76.26040959,-132.9061911,-664.8905418,-35.00268542,-52.52573448,61.79270995,-1543.918478,-1240.734061,,,,
700.9439995,2738,-0.171524522,60.74918621,149.2396621,9.154761074,42.91148687,-43.16851869,0,-134.4145407,33.51160522,190.6681233,645.3514766,126.1487918,127.8362716,-89.92919522,15.86573318,123.8297972,,,,
700.9519995,2738,-0.170539397,-95.39543516,-426.860597,-186.1281588,-1006.897241,-75.26695518,0,57.63951291,-15.5411838,-211.0695828,-698.1149041,-215.6928967,-110.4592995,8.865182102,-1360.124973,-1173.704572,,,,
700.9599995,2738,-0.169553751,183.6921667,507.9841501,218.1193031,523.1109269,93.28061534,0,-31.1400033,94.71275855,109.5684809,183.0999313,169.4294439,95.9601742,-6.348308827,-656.5563659,-402.0314139,,,,
700.9679995,2738,-0.168567611,-118.4846,-400.7743594,-235.6063025,-864.8992405,-138.530889,0,-67.23785931,-37.60717212,-22.85135789,83.19244447,-128.8887116,-2.840420145,-76.62584286,-408.5053105,-339.2840358,,,,
700.9759995,2738,-0.167581004,87.57333604,135.2360872,89.66611824,-154.0801266,78.18217193,0,86.72277119,71.01122159,-144.3269377,-682.9297897,-38.5460647,-53.22903537,71.67150116,-1553.310208,-1247.533639,,,,
700.9839995,2738,-0.166593957,46.21626781,163.2734871,10.71689165,66.23178712,-34.82788725,0,-122.9388001,32.95837073,183.5901896,638.1105908,133.4872422,129.9254688,-77.26957348,10.07545465,122.6405456,,,,
700.9919995,2738,-0.165606495,-106.4769796,-434.376161,-194.6836017,-1010.958211,-69.89436842,0,56.81141897,-24.59574776,-218.4951401,-700.3311121,-213.4104554,-112.4819811,14.89835998,-1354.516364,-1166.300229,,,,
700.9999995,2738,-0.164618647,183.5020303,497.8074273,212.182266,510.5772899,100.109946,0,-36.48943932,90.52422886,104.4671136,164.8292688,171.9426879,92.14394511,-5.384621124,-681.0376648,-420.9734368,,,,
701.0079995,2738,-0.163630437,-118.9497359,-396.6921531,-233.6024188,-856.0490968,-140.0077709,0,-71.56977483,-37.84259532,-16.93214041,86.95820902,-122.5521011,-0.443992054,-79.95644649,-423.9560656,-348.7268452,,,,
701.0159995,2738,-0.162641893,80.42010208,130.7304093,87.09330723,-155.9949436,67.79409709,0,79.31905233,57.00766045,-147.7679149,-692.6582814,-55.12080631,-61.10148003,59.83292402,-1570.137056,-1257.220967,,,,
701.0239995,2738,-0.16165304,49.78727546,167.3210499,12.07926718,73.06214746,-44.12803843,0,-125.4066909,26.66544044,186.8082809,635.5221626,113.9612816,120.5678333,-92.02410025,2.15349224,125.031947,,,,
701.0319995,2738,-0.160663905,-107.543878,-431.7946132,-188.6956786,-1007.275616,-80.05295229,0,67.95486952,-20.4669427,-206.7835138,-691.4771953,-222.7559188,-113.5635461,11.96226915,-1361.508381,-1161.666882,,,,
701.0399995,2738,-0.159674514,170.9421485,506.8506169,224.357261,542.134866,89.86253161,0,-31.99448799,70.51169087,102.5013337,162.0280516,157.8257905,84.76938955,-9.467666082,-683.2708019,-410.3094055,,,,
701.0479995,2738,-0.158684893,-134.0210391,-398.587348,-230.7293357,-835.7629597,-149.6168601,0,-71.94278155,-65.23234903,-27.86851181,93.13033614,-143.6133299,-11.67223676,-90.95341093,-393.4047007,-313.1211155,,,,
701.0559995,2738,-0.157695068,66.37570174,116.791267,88.23355835,-167.1389461,70.73276616,0,100.0864251,58.33910987,-159.77194,-703.5504847,-61.44427879,-58.48099283,73.56345149,-1583.715277,-1262.396566,,,,
701.0639995,2738,-0.156705063,31.86310241,167.6155199,20.39205632,95.08275132,-36.59792453,0,-115.7676339,28.96904423,177.7294615,635.1506401,125.8507292,133.1316837,-72.53409754,-14.07791576,120.3079342,,,,
701.0719995,2738,-0.155714906,-134.489832,-456.5235572,-198.98044,-1019.63074,-84.51606876,0,56.33973567,-28.75853596,-224.9027569,-696.3191586,-220.346173,-110.0157948,15.4057261,-1367.971383,-1166.285819,,,,
701.0799995,2738,-0.154724621,153.870132,486.3986301,215.3075612,514.7734421,92.60949409,0,-28.90059677,86.10929205,85.71413837,138.6136254,167.1507408,92.49817659,4.568458923,-736.7558227,-455.7453914,,,,
701.0879995,2738,-0.153734235,-147.092803,-401.5394493,-230.098675,-835.5827287,-143.2543826,0,-67.55910692,-48.75042905,-33.58984498,101.2302921,-125.5852479,5.25874054,-77.52041273,-420.0245961,-325.9340887,,,,
701.0959995,2738,-0.152743772,47.31936819,105.4437187,87.74175531,-171.33733,68.92716807,0,87.95513613,49.2188421,-173.5614492,-709.5158741,-59.58407604,-54.43491329,73.21327878,-1600.951919,-1265.9132,,,,
701.1039995,2738,-0.151753258,15.77799897,172.7246527,22.98008986,109.9281023,-41.03959606,0,-130.8903998,13.9792641,164.8623628,627.4902579,121.342734,128.8474596,-80.2935689,-26.91101283,124.9118405,,,,
701.1119995,2738,-0.150762717,-149.8366927,-460.0771834,-206.0259893,-1029.404333,-90.68042343,0,60.13095348,-38.58315378,-237.4501613,-700.7689673,-235.5170307,-113.0717722,7.26308615,-1377.305878,-1155.832372,,,,
701.1199995,2738,-0.149772176,148.768613,485.7857311,216.0001895,498.2166842,92.97973163,0,-11.8526311,92.05037919,78.29969817,119.8663722,157.5853066,97.78309877,15.80027481,-788.0171696,-481.251402,,,,
701.1279995,2738,-0.148781658,-151.1765342,-389.7442735,-222.5389008,-831.8347291,-146.580792,0,-67.0762718,-44.10767885,-29.43517166,107.287198,-123.6881711,11.42176779,-71.7175122,-453.1557257,-337.6926546,,,,
701.1359995,2738,-0.14779119,37.57697651,101.4696015,81.27705595,-195.576131,60.5507526,0,89.90185756,41.33233648,-180.8732858,-718.0249138,-73.02813088,-59.93542841,63.06823393,-1635.495318,-1285.633047,,,,
701.1439995,2738,-0.146800795,16.46994574,178.1522923,21.59201129,90.67390652,-37.03213761,0,-115.0877679,18.58766287,162.1303861,626.9247197,120.9234835,134.9243205,-68.92109644,-71.95377591,94.65841375,,,,
701.1519995,2738,-0.145810499,-150.7501887,-449.0277414,-197.2245942,-1032.705767,-79.06030993,0,61.40555878,-40.25408955,-231.4857812,-684.0627905,-222.3782236,-104.7000669,20.65599784,-1399.542836,-1166.665295,,,,
701.1599995,2738,-0.144820326,145.2774707,503.187095,229.1596115,523.1026981,106.4158899,0,-23.60266238,66.80355551,78.45026724,128.4942254,157.1314941,90.60536357,3.379966298,-781.4954323,-465.4960662,,,,
701.1679995,2738,-0.143830301,-154.3875461,-377.6593807,-215.1107599,-798.2745323,-140.450991,0,-74.53649787,-67.98802292,-27.99583173,132.3848438,-128.802511,4.55213684,-82.85050213,-412.6988975,-293.5807443,,,,
701.1759995,2738,-0.142840447,32.44861027,101.004798,85.69973781,-174.0519436,59.81894094,0,83.06476918,22.65186149,-187.8800339,-716.1823796,-80.65704767,-72.17329484,55.41078953,-1618.049513,-1263.148369,,,,
701.1839995,2739,-0.14185079,14.95695845,184.0163453,27.35505296,133.1498411,-43.40640863,0,-127.6305779,-2.421953015,153.6222572,630.2425806,112.3572879,116.1820147,-89.32865062,-44.15573006,131.840015,,,,
701.1919995,2739,-0.140861353,-155.7657126,-470.8250224,-209.8603714,-1029.422768,-100.0117485,0,56.32465789,-53.5037641,-240.9339206,-683.0974881,-236.937632,-126.3506689,9.435218479,-1374.976573,-1133.017472,,,,
701.1999995,2739,-0.139872161,147.6942826,479.5914766,216.9023879,507.0528332,91.82336406,0,-18.2046103,71.31824784,67.19881778,105.2633578,150.5404899,73.7881912,10.52561859,-809.6953407,-478.3347248,,,,
701.2079995,2739,-0.138883237,-149.8969224,-386.1679586,-219.3299038,-799.5605441,-142.6103067,0,-71.84945593,-59.05209548,-26.88947206,133.3633601,-117.8138015,2.654621925,-72.29624637,-430.8939344,-297.1746449,,,,
701.2159995,2739,-0.137894607,31.28181593,86.7249062,77.84191419,-184.8348068,60.93681222,0,83.07857185,20.98337052,-187.1849547,-728.9738618,-81.89294612,-77.4413737,62.8089529,-1641.187017,-1272.864264,,,,
701.2239995,2739,-0.136906292,22.91687449,181.1405527,25.23354088,135.9114409,-33.17986997,0,-124.9164888,-3.018781438,158.177034,619.4107773,103.0827822,112.2878423,-85.6794108,-62.9750818,125.5761209,,,,
701.2319995,2739,-0.135918318,-155.4116903,-481.4211004,-212.8006786,-1052.001648,-89.76731346,0,75.22422939,-46.00126446,-236.9309859,-685.9365314,-241.6590029,-118.9150797,20.87450563,-1400.671489,-1152.00431,,,,
701.2399995,2739,-0.134930707,139.0548989,480.0674753,217.7133886,491.7083435,96.89026276,0,4.105522113,78.25245464,62.89188444,90.86937189,148.0733173,80.20305975,24.83410862,-860.0638703,-520.4687693,,,,
701.2479995,2739,-0.133943484,-161.5691896,-371.4781608,-216.1215388,-783.8651511,-139.8371733,0,-73.4059134,-62.01259638,-27.1592907,145.6109495,-123.5003056,2.19514152,-77.45436318,-428.0951151,-289.0609688,,,,
701.2559995,2739,-0.132956671,10.26977015,94.47780221,80.06081043,-171.0536384,60.97164287,0,77.349582,12.59649491,-194.3137178,-728.849212,-97.96829591,-83.89805253,50.8714367,-1625.360936,-1251.049859,,,,
701.2639995,2739,-0.131970292,-2.004843789,200.838558,29.77228851,179.2963304,-38.610203,0,-135.0408019,-8.527293786,146.1352065,621.8840399,88.38252177,108.389899,-94.72733449,-38.11091465,159.9959325,,,,
701.2719995,2739,-0.130984371,-184.6740007,-478.8473364,-221.6794742,-1018.711998,-101.0760203,0,44.46493326,-56.52484438,-251.2681402,-680.2964392,-260.3852177,-126.9369802,0.480834265,-1346.911078,-1090.47528,,,,
701.2799995,2739,-0.12999893,114.6907285,468.1801141,205.161902,508.6695607,88.84879136,0,-18.71641197,65.8628041,46.26357337,71.44414327,125.7373487,66.89801861,4.497539731,-829.9707903,-477.598421,,,,
701.2879995,2739,-0.129013992,-175.7929759,-393.0784826,-232.260976,-791.7614015,-147.1466471,0,-77.49760236,-62.82464079,-37.14139593,136.5123228,-134.6543698,-2.240920823,-80.03025797,-417.6200731,-265.4876531,,,,
701.2959995,2739,-0.128029581,8.709089132,68.6163345,68.48639545,-206.562501,61.43636835,0,83.78619014,28.94854178,-200.0361809,-748.1162411,-90.34188319,-80.28535227,64.72240211,-1661.123012,-1269.914825,,,,
701.3039995,2739,-0.127045719,9.975888299,204.7075572,42.80635919,180.103468,-24.6451536,0,-122.9753887,6.587042817,150.388288,622.2054295,114.2527083,114.7627259,-83.32048052,-70.00050846,151.7337986,,,,
701.3119995,2739,-0.126062428,-174.1506918,-481.696134,-212.4694665,-1032.20221,-88.40479022,0,57.276925,-51.75113267,-247.9241056,-663.4540364,-240.1565092,-122.5644379,13.17915707,-1359.678914,-1082.528651,,,,
701.3199995,2739,-0.125079732,128.1373309,480.4602331,219.7118602,513.9967134,107.3403625,0,-3.526297117,77.35537553,46.44956709,78.5014155,145.8639151,73.7852714,28.58237893,-862.8609233,-489.5457866,,,,
701.3279995,2739,-0.124097653,-163.0650709,-366.2130165,-213.0860284,-759.0885212,-129.5044621,0,-68.24321665,-59.87044281,-34.23186787,166.4553359,-115.57998,3.301531912,-69.77855315,-401.9865074,-235.3589214,,,,
701.3359995,2739,-0.123116214,14.47080648,63.25610249,66.99073412,-227.9146334,69.22143415,0,94.16321376,31.36170074,-208.9285848,-744.1539295,-84.06725271,-78.83857642,76.43613584,-1663.412044,-1266.047043,,,,
701.3439995,2739,-0.122135436,18.27611712,215.6244549,50.08192008,185.0124707,-13.36512544,0,-119.9295019,21.79531677,147.603672,621.9898055,133.9161388,125.3883158,-63.40343484,-102.3497445,121.6619129,,,,
701.3519995,2739,-0.121155342,-174.2895003,-464.1024037,-200.2417816,-997.0054974,-83.82900915,0,33.74003961,-60.42086471,-244.0189603,-651.9895205,-224.1805173,-121.8374058,0.311704114,-1342.701756,-1068.772819,,,,
701.3599995,2739,-0.120175954,126.4566267,483.3632162,222.2923927,537.6511334,106.6283006,0,-26.66576537,64.04469102,43.39659015,70.54919309,145.4560042,62.78439551,2.979872348,-841.8235516,-467.5628454,,,,
701.3679995,2739,-0.119197294,-156.4636127,-365.3323194,-209.4642121,-737.4191643,-123.8537646,0,-72.79995868,-51.29983795,-30.90386223,171.6262116,-110.7183654,3.131400682,-75.45089375,-397.3789023,-223.688059,,,,
701.3759995,2739,-0.118219384,18.26450483,65.87865005,76.33877032,-196.9212157,76.44944223,0,88.36389429,27.22132375,-204.2544869,-745.7725452,-74.99194741,-79.73751252,69.66803162,-1666.151877,-1256.187834,,,,
701.3839995,2739,-0.117242245,23.54655031,222.4098682,55.33750399,230.3371866,-14.17772953,0,-136.5377725,5.767917029,153.8019274,623.8215672,138.961067,119.6560678,-82.31931995,-79.20089727,157.7487707,,,,
701.3919995,2739,-0.1162659,-167.334966,-478.5563678,-211.3373332,-990.0663318,-95.35814861,0,25.04394265,-64.18978968,-241.2955785,-654.2380785,-227.7225622,-127.6560008,-12.29509953,-1325.436193,-1044.362288,,,,
701.3999995,2739,-0.11529037,127.3764813,474.6549247,213.54358,550.1287496,93.03590797,0,-38.32062306,59.03948131,39.62695466,53.4778578,150.3185038,57.06104683,-6.032529476,-848.7783573,-465.4131373,,,,
701.4079995,2739,-0.114315677,-161.8395069,-373.1177896,-221.7090967,-721.7139588,-143.0249918,0,-102.8772359,-61.75002808,-35.63902232,170.7971819,-107.9474238,-5.716914056,-93.80618768,-384.0249851,-204.2967171,,,,
701.4159995,2739,-0.113341841,20.3430878,50.90210652,64.84430477,-203.4465456,62.41536548,0,64.78131621,25.69826232,-214.996314,-760.8879489,-86.01926885,-97.64741824,51.5250996,-1676.609506,-1264.623775,,,,
701.4239995,2739,-0.112368884,37.84276247,231.1462739,64.36245123,256.7026078,-7.000626626,0,-143.9288568,5.492325453,155.5818534,625.9400296,140.8351076,106.8315918,-93.52263015,-72.42287137,166.7788497,,,,
701.4319995,2739,-0.111396828,-155.9996037,-482.1943102,-201.8982333,-983.0327762,-76.95174965,0,33.74484048,-61.31659321,-225.4771291,-639.6908481,-217.6250181,-132.5056778,-4.945342771,-1302.343253,-1019.719747,,,,
701.4399995,2740,-0.110425693,145.242848,477.238081,231.709712,562.6526159,116.4120499,0,-29.51583842,67.5047314,60.23724796,51.05249678,164.2221784,49.12354318,8.439409361,-858.5351101,-468.8073576,,,,
701.4479995,2740,-0.1094555,-142.639747,-355.41205,-193.5009941,-681.265644,-118.5702476,0,-99.41309765,-64.69675858,-8.017767411,188.5503652,-90.21245545,-13.68076823,-92.66232919,-359.751384,-173.4139421,,,,
701.4559995,2740,-0.108486271,22.61098884,46.0235534,77.57099582,-194.9877358,77.57681355,0,77.49215942,20.0107879,-193.2461431,-759.6853981,-77.89321828,-104.1286058,59.3177855,-1650.95443,-1229.49145,,,,
701.4639995,2740,-0.107518025,27.56962228,227.8853591,67.44006176,272.6911855,-8.213984566,0,-146.7618047,10.95113948,168.0419774,615.149532,142.1686989,103.2420176,-81.82686452,-75.41064837,179.6282112,,,,
701.4719995,2740,-0.106550784,-179.0188769,-484.2552177,-197.3369508,-961.4141522,-85.45675303,0,20.21966061,-66.20131452,-230.0270086,-650.5249034,-231.4357238,-137.4187805,-6.07462262,-1304.293375,-1006.237702,,,,
701.4799995,2740,-0.105584568,125.5049661,476.3628745,237.4869361,581.3768085,114.3296898,0,-22.75945916,48.41506514,47.81123838,33.2693249,143.9894595,44.04840177,11.59732105,-847.9279912,-444.5491111,,,,
701.4879995,2740,-0.104619398,-151.8321944,-364.0663635,-201.132152,-679.1510925,-125.6979166,0,-84.76254966,-69.84606066,-10.37818234,189.6078672,-97.21458594,-7.109842984,-76.21824175,-338.7117655,-147.2615104,,,,
701.4959995,2740,-0.103655294,14.89778604,31.98709862,70.08182323,-208.7569083,68.09046711,0,86.70942483,22.85235422,-197.8371145,-772.1127613,-75.07190435,-95.48350941,71.11263984,-1665.200932,-1239.52598,,,,
701.5039995,2740,-0.102692276,31.13074595,236.8748929,75.30997402,286.4132734,-8.298702062,0,-140.6274747,9.29544257,172.830181,616.3817203,157.9775284,109.0080238,-81.24183529,-73.31070659,187.3418749,,,,
701.5119995,2740,-0.101730364,-167.4876794,-486.3294594,-198.7640112,-976.9339434,-89.2223637,0,26.72227504,-54.26680353,-215.7988613,-638.2839025,-212.9003821,-130.4832912,-1.918924613,-1293.222996,-996.2695946,,,,
701.5199995,2740,-0.100769579,132.5337827,485.3195429,246.676111,578.2013701,110.4118347,0,-24.41769921,67.55543406,56.75261143,28.0244922,161.5437977,51.03113839,16.27640349,-876.7065838,-469.3098999,,,,
701.5279995,2740,-0.09980994,-154.8248239,-334.7199398,-174.6896812,-635.4758497,-126.7089924,0,-101.1626123,-77.46347424,-2.60045494,206.407323,-90.70453529,-7.480418155,-85.51811868,-322.5976459,-125.7460115,,,,
701.5359995,2740,-0.098851467,15.36357874,41.60520769,87.71558792,-195.0611073,70.88688765,0,82.96346773,8.768627686,-196.0029754,-769.040943,-88.42692993,-106.0748918,72.82145417,-1644.182277,-1212.765692,,,,
701.5439995,2740,-0.09789418,40.84034176,248.9956656,92.17971958,299.8313295,1.449770642,0,-129.0682983,17.96189773,179.4249594,623.5089613,162.7481174,106.3171069,-58.72396625,-79.64963683,192.8198997,,,,
701.5519995,2740,-0.096938098,-167.551702,-483.4916769,-189.6760917,-969.5943593,-83.47655587,0,35.89165673,-52.45453872,-210.4653449,-618.461372,-201.073098,-132.8507019,13.69190305,-1292.996014,-986.4513212,,,,
701.5599995,2740,-0.095983241,140.8447479,483.6448481,248.3040663,575.4292374,121.1774935,0,-7.737442544,61.61431853,54.20178741,28.72193267,164.03319,45.2652185,27.68503722,-890.3153005,-472.8872672,,,,
701.5679995,2740,-0.095029628,-134.3202706,-331.6926412,-178.1837083,-633.2119619,-117.1609952,0,-85.04884574,-72.20209951,0.210461064,224.4644723,-71.25477384,-1.702149619,-76.96148922,-324.0552519,-118.809168,,,,
701.5759995,2740,-0.094077278,29.82207062,34.49964587,75.64566146,-206.9586519,68.16866601,0,99.4781447,10.57632111,-202.9234936,-765.5020602,-70.19838385,-101.8117192,69.45781452,-1663.336499,-1227.21777,,,,
701.5839995,2740,-0.093126212,55.20907273,255.6704675,84.23897388,308.6197499,-0.183697875,0,-97.22027476,8.472482989,169.7556993,624.3091286,166.6292663,110.9441484,-63.41223818,-97.79713168,177.5275155,,,,
701.5919995,2740,-0.092176447,-161.1463093,-482.4938502,-203.2319316,-969.9542496,-86.99504439,0,70.03835925,-62.06695121,-215.9950049,-609.1960422,-203.8034234,-122.6176408,15.32187226,-1294.77655,-988.2893394,,,,
701.5999995,2740,-0.091228003,145.2937902,484.4218544,235.8426689,567.5085747,118.5776032,0,24.26984807,60.40292916,51.1188568,23.75545968,162.6374,55.33655961,33.2279955,-920.5397158,-502.0077733,,,,
701.6079995,2740,-0.090280899,-129.6270517,-321.422901,-184.0385336,-631.5610891,-117.9985578,0,-52.29646163,-71.04079382,13.45146303,240.6762116,-64.85412443,16.43256586,-71.98416396,-339.5829901,-137.137599,,,,
701.6159995,2740,-0.089335153,25.87771738,37.52180211,70.12352908,-211.2872831,64.95232031,0,128.7233651,10.10114083,-189.9094755,-757.2911374,-64.44995425,-78.64898696,67.66699743,-1678.503882,-1249.289359,,,,
701.6239995,2740,-0.088390784,55.85388651,267.8749241,84.00667157,323.9574642,-0.047754629,0,-80.58726348,10.39718684,179.440952,637.3356725,176.0360184,133.627034,-78.32185297,-103.1725652,159.9492015,,,,
701.6319995,2740,-0.08744781,-159.3133056,-478.4901935,-206.7359101,-967.4413354,-89.14011635,0,69.40078486,-60.06978151,-208.8073686,-588.4830321,-193.01892,-102.3409272,-9.994424842,-1283.236728,-995.3829108,,,,
701.6399995,2740,-0.086506251,147.4010311,493.1937704,237.4478289,584.0615013,115.8248323,0,19.37986729,59.59167536,48.81431802,26.81598053,172.6194074,71.51241879,5.40271881,-919.0868024,-513.9701362,,,,
701.6479995,2740,-0.085566124,-130.5999785,-310.1551004,-186.6777107,-610.9476802,-116.5720803,0,-51.26566634,-70.90728415,12.14722408,255.0537575,-58.92636585,28.41374724,-90.41742545,-318.6873028,-129.548062,,,,
701.6559995,2740,-0.084627447,15.47812041,38.64381952,60.45483542,-220.0861255,73.12947801,0,128.3577896,7.119110517,-193.9141447,-762.661147,-64.10330415,-72.30809951,63.57095564,-1673.537335,-1255.542508,,,,
701.6639995,2740,-0.083690239,49.4404838,291.1964023,89.14914347,345.0223294,13.08857859,0,-89.83169154,3.043420277,179.1003884,634.1035403,185.8061896,143.1481904,-77.67764559,-95.85120101,165.0135558,,,,
701.6719995,2740,-0.082754518,-161.3649834,-462.0555151,-200.9706191,-963.0406897,-77.04498189,0,72.1950576,-64.60265669,-202.6095414,-579.8678989,-183.4883922,-94.94848848,-1.285633113,-1269.477393,-981.7937004,,,,
701.6799995,2740,-0.081820301,148.524678,508.0253513,247.8002068,586.0406994,131.5880223,0,31.67458856,53.24820829,58.82128898,25.9623433,186.3257938,71.19331788,19.83587676,-920.7094685,-511.3074801,,,,
701.6879995,2740,-0.080887607,-126.7049654,-290.192156,-169.4092716,-586.0268834,-103.3454493,0,-54.5905936,-78.66819791,30.36103608,274.8513605,-38.41913719,26.92745136,-85.00395685,-288.0060277,-96.75805502,,,,
701.6959995,2741,-0.079956453,21.75706193,40.50355796,70.93294034,-222.8781914,81.53674655,0,127.2459782,7.257959697,-178.1364817,-754.063266,-53.63937751,-79.61483949,68.70273845,-1655.786174,-1239.204179,,,,
701.7039995,2741,-0.079026856,60.56307541,300.1704003,99.73267359,355.5200886,23.42414983,0,-80.05098641,9.987971545,197.461577,646.1873041,197.307771,139.4056642,-66.53184341,-89.43372985,169.7307237,,,,
701.7119995,2741,-0.078098835,-159.9310092,-466.7089255,-199.6785722,-960.1434852,-70.34345007,0,80.68974153,-59.0784234,-187.5081136,-568.3783333,-177.48339,-92.57407164,6.244400693,-1255.578363,-974.215601,,,,
701.7199995,2741,-0.077172406,146.987864,493.2786168,242.2559294,572.1675926,138.8001129,0,40.6979437,58.1818457,65.1199635,13.27769158,187.4068454,75.20508945,23.20908714,-930.447893,-521.676193,,,,
701.7279995,2741,-0.076247587,-122.9356786,-296.8356045,-174.0824553,-594.2827683,-90.449865,0,-44.937827,-73.84576014,37.47204786,284.5764641,-30.2755372,39.46152513,-81.85588937,-292.0419432,-96.53277404,,,,
701.7359995,2741,-0.075324395,21.74834469,31.64425969,67.59300224,-237.2093903,98.71897247,0,138.5946032,12.29732993,-179.1508804,-755.4618592,-51.50647707,-65.62855258,75.92693153,-1683.247126,-1260.65148,,,,
701.7439995,2741,-0.074402846,61.25581868,304.9876308,102.200179,365.3838957,37.17977643,0,-81.19192733,7.047940469,198.6737989,645.4684316,196.6992593,149.9985063,-68.08070754,-103.0802983,163.0183863,,,,
701.7519995,2741,-0.073482959,-159.0221195,-472.42291,-206.2708824,-969.130125,-66.77857295,0,67.04801108,-75.95918631,-184.0271856,-556.9447346,-179.7369301,-87.85195068,-3.733210743,-1238.145529,-953.6372082,,,,
701.7599995,2741,-0.072564749,153.048351,489.7103659,239.7614102,553.9359518,145.4825737,0,41.660738,58.65011909,66.18122225,7.014335651,192.0235868,82.65203849,32.88646584,-957.1884533,-542.7459878,,,,
701.7679995,2741,-0.071648234,-119.7198993,-291.33874,-171.1386372,-593.1441621,-92.30615011,0,-46.03520163,-66.51180891,45.94809791,295.7027181,-21.2677954,51.37817705,-69.20958746,-302.1659176,-104.5745589,,,,
701.7759995,2741,-0.07073343,19.763763,21.39021828,61.71729918,-248.4604486,86.59902576,0,126.3117971,-2.929227955,-179.8067363,-758.6077937,-64.46465739,-67.68529436,73.61031118,-1673.833267,-1248.277453,,,,
701.7839995,2741,-0.069820354,68.11932452,308.5804837,106.6141658,381.3068077,39.09584038,0,-83.00746077,-6.053537905,192.7548015,641.067409,181.9011584,142.8472104,-64.60388794,-93.30045417,183.2573046,,,,
701.7919995,2741,-0.068909021,-155.6778336,-466.9753104,-197.1811648,-941.2754993,-60.34028235,0,69.87541955,-84.31234304,-191.9400006,-550.7309474,-192.788728,-97.16711245,1.426390922,-1207.781916,-918.5234941,,,,
701.7999995,2741,-0.067999449,157.7625898,501.3454064,251.649639,602.2737289,153.0116904,0,37.94474084,42.23869395,53.27462143,0.540265032,166.2719703,67.19070078,19.37624536,-910.2163202,-492.743671,,,,
701.8079995,2741,-0.067091653,-107.8797798,-272.6562575,-154.8328584,-526.4739986,-83.28508499,0,-51.92095792,-80.70408534,40.11439685,312.6663151,-41.35350975,39.60271364,-91.40594081,-217.1241471,-15.77760487,,,,
701.8159995,2741,-0.06618565,29.28670121,28.27054939,77.31164071,-204.9198578,92.52514919,0,117.7737719,-8.371200164,-185.7399362,-754.2786809,-68.45676206,-77.36757362,58.0032495,-1616.426347,-1187.709503,,,,
701.8239995,2741,-0.065281456,79.67402649,327.8582919,127.8752178,442.8792884,46.18911724,0,-103.6330558,-3.713073174,197.3369743,650.7415611,194.1632642,143.2071671,-85.83232716,-41.78885485,237.8755025,,,,
701.8319995,2741,-0.064379085,-142.9572875,-459.8819814,-180.9988292,-901.4339331,-58.79751297,0,42.94069759,-76.14263136,-175.9787204,-525.8937939,-176.0682259,-88.92977262,-18.3045946,-1136.106882,-848.0738668,,,,
701.8399995,2741,-0.063478555,175.5579669,501.6357964,266.9284104,621.4836299,154.0980399,0,13.59636888,55.55822745,66.74485819,2.458476419,187.1909718,71.83529682,15.48574581,-881.4934331,-464.5944339,,,,
701.8479995,2741,-0.062579881,-89.77136375,-269.5186005,-141.3669068,-502.7438577,-77.40299422,0,-58.96905519,-62.66690102,55.84838744,329.1156988,-17.06368637,46.85044257,-86.40220417,-185.6194976,9.924260203,,,,
701.8559995,2741,-0.061683079,45.00531796,16.54393011,83.90259555,-207.4330947,98.24571863,0,138.1925423,14.45987478,-174.0481265,-748.7282333,-49.8626196,-71.65591226,78.53003078,-1592.316571,-1173.293191,,,,
701.8639995,2741,-0.060788163,100.2138584,323.1995715,135.0307637,451.5957583,51.63792459,0,-76.98523243,11.53382289,209.8073747,654.2419034,214.9434028,142.5900704,-54.87016256,-28.85891568,246.415065,,,,
701.8719995,2741,-0.059895149,-131.3415812,-473.7271926,-184.5702518,-895.8157509,-56.25648566,0,68.17551793,-79.21028037,-163.0978521,-516.163624,-165.7451714,-94.93343036,9.221597711,-1119.273483,-833.3480481,,,,
701.8799995,2741,-0.059004053,181.4853898,492.9884239,263.2994519,640.627167,157.402857,0,35.84323211,46.60450731,76.30487067,-6.040299545,186.9605428,61.81305151,34.09068969,-878.2002519,-458.7375199,,,,
701.8879995,2741,-0.058114889,-78.02468532,-266.5475513,-144.5446433,-466.23162,-74.24748066,0,-57.15136086,-76.80911609,67.84004094,340.2569997,-16.19143493,37.82195164,-86.30821557,-146.9441997,51.98485756,,,,
701.8959995,2741,-0.057227673,64.5656677,6.610738318,70.99320547,-202.7932545,99.34629999,0,130.1967899,3.774562149,-167.1128037,-746.9251406,-49.43465798,-75.34525265,74.45879758,-1568.339664,-1142.275107,,,,
701.9039995,2741,-0.05634242,133.5082661,325.9823365,125.1234598,459.8540188,52.31819423,0,-85.06000571,27.1863702,220.9295387,658.0842923,230.7170192,151.9217594,-57.8356729,-31.59721221,253.8410122,,,,
701.9119995,2741,-0.055459143,-95.44589558,-469.7579031,-194.4308809,-902.6385814,-54.58968255,0,61.06572732,-48.89542931,-152.8554877,-496.974436,-142.6468462,-79.95143459,-0.079996619,-1118.974281,-828.2048351,,,,
701.9199995,2741,-0.054577859,223.4396312,502.6313658,262.6717572,623.5036628,169.0758254,0,35.71636157,82.0855206,88.67122172,4.411794581,214.3023819,81.78868465,39.63005621,-904.0011074,-474.8275782,,,,
701.9279995,2741,-0.053698581,-38.50078816,-253.2060571,-144.8419141,-477.3162454,-65.74281298,0,-66.97813441,-35.85746061,97.7662456,371.3799105,17.58226397,64.06466268,-70.91113289,-162.8551879,46.38205401,,,,
701.9359995,2741,-0.052821324,82.92226658,7.134312469,61.7335227,-227.2131327,101.5254837,0,123.0061077,37.87221372,-149.2129049,-729.1401401,-33.09644505,-60.84392224,82.95181348,-1594.033114,-1161.928532,,,,
701.9439995,2741,-0.051946103,146.1655316,344.9627214,129.627259,465.8824222,61.95512644,0,-75.23273369,49.85749797,225.9969479,672.2967866,236.585153,161.391425,-45.14585453,-50.77957879,241.7083016,,,,
701.9519995,2742,-0.051072931,-92.35623601,-463.6013745,-196.5753976,-907.4250667,-53.49676567,0,70.24587749,-32.31818353,-148.66763,-478.5434551,-148.2776477,-71.90859813,20.43353571,-1119.100673,-821.675494,,,,
701.9599995,2742,-0.050201823,214.1503232,495.8735298,252.0130137,606.3038406,160.464629,0,46.9104412,96.44724076,81.89731685,-0.337570928,200.0195721,83.25103251,60.11982987,-930.5305858,-493.0795476,,,,
701.9679995,2742,-0.049332794,-52.78490654,-241.4400433,-139.7293748,-460.2556752,-73.12944523,0,-57.63753262,-34.12222731,87.94623573,381.8152942,12.72775163,64.90868744,-63.0447544,-163.3541579,48.32908458,,,,
701.9759995,2742,-0.048465855,65.49500691,18.79582396,75.04235803,-201.6278258,92.05917306,0,114.8004476,27.64261825,-159.3735477,-727.0426919,-45.4027235,-66.91278456,73.11895167,-1575.274401,-1144.818718,,,,
701.9839995,2742,-0.047601023,134.3053675,356.6700231,140.8278571,500.3911316,46.37349318,0,-100.6886157,39.05551314,222.8329499,672.7368967,220.4139244,154.5402226,-70.70474446,-18.44449761,271.4289171,,,,
701.9919995,2742,-0.04673831,-100.9594882,-467.3688254,-193.3450191,-897.2198765,-76.43415662,0,39.5231568,-42.749342,-150.6254015,-473.7345992,-153.5214982,-77.38646393,-12.73770718,-1076.357105,-789.8091373,,,,
701.9999995,2742,-0.04587773,212.5739143,501.0682884,264.0249368,629.9234344,141.9750367,0,14.31129911,95.83379056,75.58225029,-8.35281015,206.2436924,74.06567114,31.34245773,-910.8754036,-483.7184406,,,,
702.0079995,2742,-0.045019297,-52.14773587,-230.4959755,-134.1830819,-420.855415,-93.5586191,0,-90.00383936,-31.7165725,87.38695682,397.2755742,14.39027604,54.24773936,-92.04605878,-111.8982815,90.81314634,,,,
702.0159995,2742,-0.044163024,65.80953578,-6.209963192,54.58241733,-225.5660978,66.62428542,0,105.0909388,30.16435529,-166.9658757,-729.8788472,-56.77679935,-82.32732543,61.10734076,-1545.534485,-1120.046967,,,,
702.0239995,2742,-0.043308924,142.7271951,342.2359265,130.6965659,483.4844785,35.31388885,0,-97.27862698,60.10686696,216.944499,664.1573921,225.9181421,148.7156944,-52.68946718,-43.90247266,251.6051955,,,,
702.0319995,2742,-0.042457011,-103.8326598,-468.0450386,-195.2746818,-886.2602748,-78.58561465,0,41.14636247,-30.31675433,-153.8179044,-466.450638,-150.1480956,-77.31479481,-2.29672188,-1080.667376,-787.4856028,,,,
702.0399995,2742,-0.041607297,203.0676661,495.3842861,253.2543572,637.2197329,138.3094877,0,27.88462352,83.70680851,64.36262136,-20.11793475,184.0168361,66.94318807,30.53876505,-893.8975239,-458.3617411,,,,
702.0479995,2742,-0.040759796,-55.56862759,-240.7876347,-147.997136,-427.7566768,-99.91283279,0,-78.98330362,-27.20091562,79.97960464,393.1078927,-3.936186776,54.47823198,-79.66638259,-104.7635268,106.6638881,,,,
702.0559995,2742,-0.03991452,60.55322643,-15.56478296,49.18516141,-239.4218098,62.72196914,0,102.3482561,50.27702867,-176.9936706,-740.9442833,-65.09140649,-78.46447127,65.40008713,-1567.629363,-1136.239007,,,,
702.0639995,2742,-0.039071483,141.3440176,349.7994915,132.7560128,500.0197613,33.57694745,0,-110.7293198,64.6853124,207.8771438,664.2056937,218.4358504,147.2519392,-72.00333311,-29.48734741,269.3464516,,,,
702.0719995,2742,-0.038230697,-103.5567383,-481.0377317,-206.028955,-902.0277342,-88.52474449,0,23.55859144,-23.77427687,-160.356558,-455.8742986,-155.4593451,-80.27325,-15.73130764,-1054.744389,-761.4771465,,,,
702.0799995,2742,-0.037392174,207.4700423,487.3983487,253.5661661,620.9617717,132.7538397,0,14.68974547,99.88015931,59.8540197,-23.83681629,192.895843,68.63567846,26.30269572,-911.504666,-473.4217025,,,,
702.0879995,2742,-0.036555928,-51.51172414,-230.4226321,-136.5889676,-404.4292117,-100.2464603,0,-96.90008014,-31.2956602,83.01056156,411.9115266,7.324129723,60.64819491,-94.55132269,-76.34886674,132.4121825,,,,
702.0959995,2742,-0.03572197,47.11142348,-21.93483034,47.71016033,-224.4425417,58.72995373,0,84.83729363,22.5610759,-183.4430712,-743.433456,-73.29180095,-81.50920296,52.40441115,-1526.837925,-1102.45926,,,,
702.1039995,2742,-0.034890312,125.5303766,353.6941768,136.1583908,535.7546408,33.14014851,0,-115.9022702,35.32457657,202.02823,650.9151973,203.9428471,138.3886585,-74.82814119,6.034477744,299.3759692,,,,
702.1119995,2742,-0.034060967,-109.2611373,-480.7632011,-203.413314,-882.4336249,-86.9483972,0,26.65893138,-38.7074082,-159.2920822,-457.2637568,-172.880118,-86.84351462,-8.288045931,-1006.940383,-723.2429576,,,,
702.1199995,2742,-0.033233947,205.8624395,484.0251699,251.5097429,627.8666822,137.0856047,0,12.36207699,97.25372117,57.13199542,-41.5980744,180.0336647,59.53680882,39.32114253,-898.8909887,-466.999107,,,,
702.1279995,2742,-0.032409264,-50.96568427,-231.6619282,-139.5023422,-389.8118631,-96.71945807,0,-103.584609,-30.66096783,84.72627652,412.2944848,5.019508493,47.27274461,-90.30074246,-57.93591873,148.78222,,,,
702.1359995,2742,-0.03158693,57.83183073,-34.15341966,41.03785904,-239.9923151,61.07027965,0,90.43801391,36.62147234,-176.9612477,-746.1325375,-73.03260062,-92.90141213,59.16725035,-1522.441694,-1096.74439,,,,
702.1439995,2742,-0.030766956,143.4844244,356.706965,131.7158538,530.8758068,36.17103033,0,-109.7121733,60.93098082,214.2846593,648.0712921,214.4353587,137.7433172,-63.22633886,-15.87215403,282.2241855,,,,
702.1519995,2742,-0.029949354,-109.9454556,-482.7880864,-212.88724,-886.7499975,-92.18142765,0,23.99163695,-35.80478253,-154.4353598,-456.110574,-170.6227141,-90.01676944,-12.71900304,-1015.108455,-728.8942695,,,,
702.1599995,2742,-0.029134135,197.683489,481.7175058,247.774571,630.8423032,133.3608672,0,13.51312023,82.97392295,51.87448466,-58.75978929,167.3824273,49.91895837,29.23241657,-903.0003016,-465.5564872,,,,
702.1679995,2742,-0.028321312,-52.8351317,-230.2422859,-137.712456,-377.7390428,-97.38795708,0,-101.4013557,-36.25672797,85.63638048,413.1985453,-7.033156621,44.29120727,-92.20102623,-41.86341026,168.618386,,,,
702.1759995,2742,-0.027510894,45.04883598,-47.91448637,42.27580897,-247.194132,60.76824614,0,96.08398249,30.30659896,-183.9040872,-755.2333371,-86.63599714,-97.24620979,63.47729101,-1522.26079,-1093.368195,,,,
702.1839995,2742,-0.026702894,122.9889708,360.1676006,145.2014776,560.2547856,43.12190321,0,-109.0652656,43.10961497,200.4261602,638.4438106,202.548262,130.0620647,-58.0001094,-12.325988,292.3295174,,,,
702.1919995,2742,-0.025897323,-128.8493376,-489.6211343,-206.2101923,-865.4772039,-86.87697337,0,12.49860386,-58.5933922,-170.9833563,-456.7880241,-191.3839089,-101.334913,-16.44813258,-979.7376135,-692.2430044,,,,
702.1999995,2742,-0.025094191,182.9982542,462.2731861,248.9647694,626.8957297,140.3716709,0,11.26093675,79.34042854,33.93515026,-80.54515097,150.4589795,40.11529023,32.16770172,-906.0470951,-466.1363265,,,,
702.2079995,2743,-0.02429351,-71.17616718,-228.1770826,-128.3890974,-353.4660852,-88.87934767,0,-97.81031927,-39.85441255,75.12302713,410.5461755,-9.008884142,43.50213316,-82.4810865,-45.64362615,168.4508149,,,,
702.2159995,2743,-0.02349529,25.6512421,-40.98901474,53.21151599,-217.9884673,63.90647714,0,94.13135417,6.174656389,-198.1883279,-758.9079673,-99.02621695,-103.0274392,63.94344791,-1501.84061,-1070.232729,,,,
702.2239995,2743,-0.022699542,115.3244906,371.0114666,158.3316543,594.7897863,45.17819791,0,-114.3917499,32.54675322,195.6550684,639.7678842,194.0515434,120.3258715,-59.94427976,23.90077619,332.696669,,,,
702.2319995,2743,-0.021906277,-138.0011584,-491.4756657,-204.5995972,-852.7769437,-90.33812216,0,14.22559117,-58.94811265,-169.9683763,-446.0600237,-191.9105351,-113.1405176,-15.95636054,-944.6967849,-655.4051586,,,,
702.2399995,2743,-0.021115505,175.8576605,464.9037055,244.7275182,639.5567409,134.1292872,0,9.964054831,68.44979618,22.71080599,-90.37329654,148.3763204,25.5117419,30.40533368,-897.5085181,-452.5638771,,,,
702.2479995,2743,-0.020327236,-72.20724069,-218.4455885,-134.3381409,-329.4011174,-95.34907945,0,-109.9801118,-50.99174256,67.99637131,415.8433995,-5.45596671,31.50186922,-91.4468917,-11.59175093,205.5161939,,,,
702.2559995,2743,-0.019541481,20.04843761,-52.65860574,35.02788418,-228.2577667,57.44386072,0,97.73877064,1.500628855,-209.0962647,-769.509752,-101.5248019,-116.0525139,53.63237983,-1485.41038,-1054.506065,,,,
702.2639995,2743,-0.018758249,112.1548752,374.6040709,144.4337465,607.6634788,44.8586888,0,-106.1807859,30.57342394,179.0388668,625.6321701,190.7460213,119.0449165,-67.10486124,21.00896285,330.9134615,,,,
702.2719995,2743,-0.017977552,-139.3107309,-484.4690628,-212.5899673,-831.7194289,-86.8552391,0,13.53536805,-59.43003592,-177.521895,-439.706893,-191.5188404,-104.1344782,-17.17553379,-922.6250152,-635.9084195,,,,
702.2799995,2743,-0.017199399,175.909707,463.8535918,239.911116,643.4373292,141.0573445,0,18.12873943,74.98922048,24.86814642,-96.5124277,148.9293711,30.90212121,35.01911243,-888.2208836,-444.6820956,,,,
702.2879995,2743,-0.016423799,-70.45391484,-219.5056996,-138.5329855,-330.1316852,-88.97603325,0,-94.19180323,-36.2997016,80.77724245,424.4393086,1.101452792,42.79830518,-81.22572724,0.8768964,218.1962054,,,,
702.2959995,2743,-0.015650763,25.05549549,-63.40977963,33.1760578,-247.8736068,65.73087548,0,109.7195576,18.16533619,-192.6385838,-768.2903499,-88.39645056,-101.6308402,76.96012886,-1492.110766,-1057.997817,,,,
702.3039995,2743,-0.014880301,124.890884,374.7589662,153.6452907,605.63163,54.67507897,0,-103.1394459,45.03956065,203.5585293,626.2223688,210.9290229,129.9496792,-44.26707078,2.681677565,321.0747133,,,,
702.3119995,2743,-0.014112421,-138.7469435,-495.1056853,-211.2286524,-844.9222697,-90.59957118,0,11.81296224,-57.09765223,-153.5058707,-427.8198832,-177.7913431,-99.06765231,-7.040287853,-926.4176825,-631.8942456,,,,
702.3199995,2743,-0.013347133,170.1956335,451.1839312,240.0081545,632.9350588,137.8947435,0,17.47001393,65.4910093,36.28227685,-100.6687577,155.9770461,27.63239727,39.2437649,-903.4436773,-450.2351497,,,,
702.3279995,2743,-0.012584447,-73.4331768,-224.6726193,-138.658011,-321.3347762,-86.02086221,0,-101.2887232,-41.38500203,90.94641197,436.4573357,7.657611687,39.36198803,-76.32962392,2.582929377,223.1593402,,,,
702.3359995,2743,-0.011824372,10.06838206,-78.22281439,22.69399791,-254.0064276,64.14228179,0,96.21154264,7.052493348,-191.1319868,-764.6613199,-93.58693814,-110.106052,80.31442284,-1494.208422,-1061.950005,,,,
702.3439995,2743,-0.011066917,110.782674,370.2369113,143.3986823,617.9783297,54.05017694,0,-109.1543647,12.25319607,199.5784713,625.7135939,198.4026441,115.963314,-54.53465824,21.00481562,339.6549719,,,,
702.3519995,2743,-0.010312091,-147.6931544,-515.1541456,-232.7461253,-862.5833015,-89.6989349,0,19.23549037,-73.93730945,-158.4121893,-427.2955241,-189.973688,-102.4263819,-3.244631917,-909.7800435,-616.3571173,,,,
702.3599995,2743,-0.009559903,162.0389566,438.8382364,224.346849,610.2180158,143.4488123,0,22.73977121,74.78193092,24.95741388,-116.8610784,155.4494893,37.37051316,62.39644638,-941.7299686,-483.755966,,,,
702.3679995,2743,-0.008810361,-83.61829833,-220.6213919,-148.796326,-315.5480615,-87.44021942,0,-105.101636,-49.1349206,78.9327199,447.6686465,10.80423304,47.18827482,-79.33349739,8.437796824,235.4947006,,,,
702.3759995,2743,-0.008063476,-2.367874943,-89.23729633,6.744310817,-274.8989972,57.13234006,0,106.3793244,9.808753288,-209.6025274,-763.8820971,-100.4041542,-105.9131112,78.3415486,-1500.912788,-1060.078581,,,,
702.3839995,2743,-0.007319255,103.2174026,388.4622309,147.6990087,633.4187253,58.20447718,0,-103.3046178,38.24636966,185.7281837,630.7471434,202.0915866,126.9457561,-42.37080685,-5.878701836,325.7094053,,,,
702.3919995,2743,-0.006577707,-158.0737212,-492.3748043,-229.8039551,-830.7585981,-91.00536904,0,4.043399806,-75.0436988,-166.8167083,-396.9516917,-194.1586982,-101.4993284,-15.21444382,-872.9053572,-571.2301743,,,,
702.3999995,2743,-0.00583884,155.8110647,452.6028998,225.5309654,637.0104886,137.4806788,0,19.84619439,66.31184927,19.80341579,-106.1181827,134.9423776,25.45102963,50.15203966,-911.5544988,-443.2516377,,,,
702.4079995,2743,-0.005102662,-86.29068113,-201.5361414,-139.384178,-271.1885461,-90.99122373,0,-103.7572344,-48.26728325,90.55953291,468.5454987,-0.814745139,36.88411647,-79.0566371,49.67735943,288.2222633,,,,
702.4159995,2743,-0.004369183,-7.067236155,-99.18674349,-2.845057961,-274.5164476,45.73873145,0,98.28212089,2.175150218,-200.1487385,-760.1220026,-112.5806169,-121.6605382,78.33279274,-1462.928343,-1011.885304,,,,
702.4239995,2743,-0.003638409,111.458534,373.4828591,133.5167547,613.4861451,47.11102374,0,-100.5573242,40.53196999,191.7451963,618.7633389,199.0750664,117.3915041,-31.61741352,-13.44419743,326.4481697,,,,
702.4319995,2743,-0.00291035,-147.804348,-505.9089243,-237.6323819,-856.824798,-98.5426756,0,16.91807085,-69.88738206,-161.2157826,-403.0264578,-183.5267791,-104.0731434,0.8747672,-885.8632014,-586.0583358,,,,
702.4399995,2743,-0.002185013,163.6503011,444.9326448,221.7037994,619.1059215,130.4903419,0,32.35571137,58.62334249,16.85211375,-123.9243289,144.7853153,19.00561574,62.6393937,-925.2857453,-459.9758104,,,,
702.4479995,2743,-0.001462406,-80.56907641,-191.7932358,-138.0548439,-253.8417637,-98.72347367,0,-98.28409418,-65.48522055,87.27164325,474.8155361,4.985678332,36.45614364,-79.46236881,63.92432461,298.1692062,,,,
702.4559995,2743,-0.000742536,-10.08748048,-95.76420606,-4.334218509,-260.5065831,36.47069735,0,104.0882401,-28.18985758,-208.3570791,-759.0557668,-118.9850187,-125.7712911,64.56841256,-1429.803111,-986.6525258,,,,
702.4639995,2744,-2.54E-05,104.9568942,387.8379969,138.6890412,650.6340701,41.70361355,0,-85.06500797,14.18039611,189.6179568,618.4053079,194.2621742,109.526211,-42.35085837,25.0762496,364.0787009,,,,
702.4719995,2744,0.00068896,-170.3693616,-491.8573107,-229.017133,-803.5196045,-105.5514091,0,21.77324887,-89.83923526,-158.3317477,-391.0042756,-191.6866822,-109.3273517,-21.49802765,-833.0138101,-531.0494665,,,,
702.4799995,2744,0.00140057,139.9771932,447.3379222,227.0734954,656.3032684,121.3008591,0,29.35545564,39.48945614,14.93972246,-132.1550585,125.4876247,12.13543945,26.55843499,-878.4515499,-410.9865487,,,,
702.4879995,2744,0.002109414,-83.70491597,-198.0025004,-139.532905,-255.1797447,-103.3390655,0,-78.56513449,-58.76272012,96.87535141,478.5712726,-1.217836736,41.94333973,-92.82939832,93.70559647,327.3279324,,,,
702.4959995,2744,0.002815482,-7.717785282,-113.7475548,-7.892410159,-304.5944525,40.92869769,0,139.7921362,0.153994937,-196.182376,-762.3692224,-108.0593969,-103.4547233,73.83418587,-1457.111351,-1017.352246,,,,
702.5039995,2744,0.003518769,111.2998783,386.9076833,146.1613068,631.7357554,51.45957277,0,-60.80744689,33.74068545,204.7516253,619.1810947,215.3234426,140.4555544,-36.35259704,-8.161005035,326.3818949,,,,
702.5119995,2744,0.004219266,-166.8190317,-499.3522067,-230.3757021,-837.5042482,-99.48304978,0,46.90427959,-77.05078756,-139.3872053,-375.4170517,-173.727412,-79.37553136,-7.898661989,-849.4701907,-557.0206836,,,,
702.5199995,2744,0.004916966,136.5514121,446.9082126,226.8982375,624.1437504,135.0394814,0,57.20822595,54.02048298,29.02245742,-133.3633107,145.1208924,42.35477177,51.71996163,-924.8578082,-465.3829225,,,,
702.5279995,2744,0.005611864,-97.60476652,-179.3491777,-134.4743928,-233.8696154,-94.49220766,0,-85.4972171,-62.92627153,114.285046,495.8935523,15.9788263,68.06554624,-89.13622486,94.409243,317.7471484,,,,
702.5359995,2744,0.006303952,-37.63585272,-115.434377,-17.32104031,-291.3179916,31.81056127,0,114.0905655,-24.38415619,-192.6626289,-763.5481375,-119.5117431,-104.1431081,56.6409285,-1433.785157,-1005.584849,,,,
702.5439995,2744,0.006993224,90.48222762,398.8862679,147.2403518,668.869225,51.31516233,0,-77.0745509,11.57828252,201.2887527,606.3007896,197.7391227,127.7078592,-50.89225971,9.036795936,337.5436219,,,,
702.5519995,2744,0.007679672,-178.0284822,-487.3371556,-224.9255761,-795.1116689,-90.9134527,0,37.62678778,-95.27687638,-134.002329,-368.6192879,-188.8812371,-86.34917817,-17.93837796,-801.1338138,-517.1651578,,,,
702.5599995,2744,0.008363291,128.0849381,440.5095944,222.775126,635.3667271,144.106245,0,56.84511718,42.87859473,29.61591328,-144.5344861,127.8319119,33.86282599,48.59460583,-895.2431414,-442.8555949,,,,
702.5679995,2744,0.009044074,-96.71640215,-178.9181649,-133.242259,-224.6933801,-77.7138201,0,-85.13820657,-59.8290795,119.7556541,497.7801655,15.78132402,62.99861395,-80.99080587,111.427095,328.2021433,,,,
702.5759995,2744,0.009722015,-39.23625018,-113.5678772,-9.834799248,-286.5286382,52.75228189,0,120.1496026,-22.87314252,-180.7206132,-760.7346129,-111.9731396,-107.153548,70.25082378,-1426.424037,-1006.462172,,,,
702.5839995,2744,0.010397107,83.88193918,409.2195573,152.9985403,689.7655521,67.16697708,0,-70.03226639,5.408804902,212.3101212,608.5443553,201.2706545,123.4871133,-44.95742481,30.84347891,350.5140711,,,,
702.5919995,2744,0.011069345,-186.0437395,-492.0370127,-233.4971893,-795.3364165,-88.63901573,0,27.58317256,-94.60344179,-127.2251887,-358.8374554,-190.5807134,-92.0206889,-20.10881983,-763.8308986,-494.0588356,,,,
702.5999995,2744,0.011738723,116.2054687,431.2434955,216.2912115,634.9264893,140.69441,0,41.80851401,44.92187881,29.26321658,-155.4234409,124.7906284,24.0559437,43.62585959,-892.5259506,-450.1216609,,,,
702.6079995,2744,0.012405233,-108.682447,-169.1873175,-125.8626688,-187.6283136,-78.11042782,0,-95.72196674,-71.22086413,120.0420564,503.6360302,9.812814238,54.64167489,-93.66921713,143.1954837,351.845977,,,,
702.6159995,2744,0.013068872,-39.20879865,-112.9561621,-0.790804215,-271.6542504,57.25704436,0,106.8827908,-28.68671437,-182.8532274,-752.2234229,-126.2254393,-109.5176609,57.48389726,-1374.367774,-966.1668353,,,,
702.6239995,2744,0.013729632,92.35896088,406.9881677,163.3330159,696.7622282,75.32681089,0,-81.94058457,19.56047136,210.9095068,616.0979205,197.2894403,129.9854291,-45.8672698,57.72693022,367.1432127,,,,
702.6319995,2744,0.014387509,-184.3520481,-492.5097085,-221.4219419,-788.0847402,-81.87608868,0,27.87606566,-87.64481064,-129.3393618,-346.6751383,-185.4316771,-84.94907015,-14.17987288,-749.2772811,-488.521274,,,,
702.6399995,2744,0.015042497,123.3694192,440.8504471,233.8741765,648.835516,146.2488828,0,41.14697269,37.01001057,24.09299962,-158.2413523,127.2254053,26.00775976,40.0043795,-875.0485095,-436.9605441,,,,
702.6479995,2744,0.015694591,-100.7513238,-160.8776158,-117.983395,-172.3596778,-83.07328794,0,-97.73163566,-72.43721584,119.5686231,515.1159275,14.23848187,59.90620327,-100.6578196,186.1147096,387.9436744,,,,
702.6559995,2744,0.016343784,-44.89554803,-118.7934364,-3.642520478,-278.6419389,44.42826391,0,118.3729502,-24.38588315,-189.6796181,-758.2408125,-122.4530996,-106.1719077,60.29563971,-1367.634401,-967.8088702,,,,
702.6639995,2744,0.016990072,86.5119318,417.8440065,168.5818587,714.1727115,63.0910709,0,-77.77033326,14.7211679,204.1196596,607.0580048,202.8772335,130.3902737,-52.93403129,62.66750304,369.0227551,,,,
702.6719995,2744,0.01763345,-193.1761843,-495.1230506,-224.9439904,-787.009417,-99.05519697,0,24.070792,-96.55110128,-135.8587223,-344.3525636,-187.1903284,-83.97781011,-24.13399945,-715.4250195,-460.2680472,,,,
702.6799995,2744,0.018273912,113.1494807,427.5605766,227.3456836,628.6072141,136.8741827,0,41.06108613,39.01094811,9.603414373,-179.8050791,119.8082216,29.11181199,49.23313394,-890.2158332,-455.7820292,,,,
702.6879995,2744,0.018911454,-105.5356413,-158.8494142,-117.8509664,-169.8579608,-84.60012692,0,-108.3787854,-68.64314083,111.7434254,515.528281,16.34137004,69.83032741,-96.69495269,179.8985291,381.1856318,,,,
702.6959995,2744,0.019546071,-52.9643557,-121.2061629,-8.084067506,-276.21774,37.70752632,0,98.13266579,-34.76131168,-199.0766133,-756.7308652,-125.257425,-98.96725774,49.02510571,-1345.959091,-947.0084686,,,,
702.7039995,2744,0.020177758,82.52513094,420.7026925,164.0462124,730.7485759,54.37547943,0,-101.2438847,6.437212533,196.4093763,601.5483688,194.2172782,134.7985552,-63.25342566,84.56060673,389.6567283,,,,
702.7119995,2744,0.02080651,-190.1118987,-506.9489296,-237.2421159,-791.9173676,-110.8434961,0,9.879749029,-90.1061753,-134.3599059,-339.4680841,-194.9528958,-82.71072045,-34.95379342,-693.513616,-442.982045,,,,
702.7199995,2745,0.021432323,116.5183725,416.5637301,218.6795929,621.9771302,128.9366979,0,44.83613627,44.30542177,14.55554941,-188.7267073,117.4180574,24.41115935,44.02703246,-885.357858,-452.8232088,,,,
702.7279995,2745,0.022055192,-106.3207964,-160.455888,-121.8392359,-161.6827288,-91.81217023,0,-104.1442923,-69.38406159,124.2837236,517.7444786,12.55610544,63.93997381,-92.25628237,200.3167684,400.1406896,,,,
702.7359995,2745,0.022675113,-52.71965201,-140.8588271,-19.19204733,-305.8792095,27.69276824,0,107.2605037,-29.86536128,-190.0854412,-765.7288817,-138.8588645,-109.8108931,56.52212998,-1347.302228,-948.3412077,,,,
702.7439995,2745,0.023292081,89.49122915,426.8859156,167.5620381,729.499292,55.15835273,0,-86.46609585,14.7072359,203.6340153,597.8358132,191.9868296,132.6470304,-55.50601068,74.87799677,384.6662606,,,,
702.7519995,2745,0.023906092,-189.7243778,-493.0305868,-228.2672279,-781.4320615,-109.5432853,0,12.68049787,-90.71822709,-129.4640594,-323.4402065,-200.6793053,-75.00408945,-30.3691246,-672.4642568,-420.0448328,,,,
702.7599995,2745,0.024517143,119.855708,422.8301014,228.295758,622.5735675,125.8640397,0,44.25217668,35.53569139,13.80475649,-190.5216826,105.4599141,28.0743554,43.4469282,-874.0472966,-437.7126969,,,,
702.7679995,2745,0.025125228,-99.32659276,-144.8512671,-106.0560173,-137.798644,-93.64265255,0,-103.7697147,-80.74910227,131.2930626,530.2925987,16.86754422,70.60987329,-98.18440139,234.8285913,435.0483157,,,,
702.7759995,2745,0.025730345,-52.74960693,-142.5822601,-7.727440529,-304.742655,27.12979663,0,115.6490105,-36.60637092,-183.707456,-764.3683433,-132.2865859,-101.9318223,64.05695389,-1323.347109,-929.3356808,,,,
702.7839995,2745,0.026332488,97.43519127,428.2726744,183.0241446,737.6125159,58.53788996,0,-74.68151337,9.155851368,214.804694,592.1805909,208.6086665,137.8821672,-39.18583161,88.85953218,396.5275371,,,,
702.7919995,2745,0.026931655,-184.0029587,-493.3837952,-218.3335409,-773.1850307,-110.3921744,0,15.2504708,-98.676668,-113.5395337,-318.8187309,-177.8630371,-73.51406672,-21.18822438,-636.7329537,-389.4016358,,,,
702.7999995,2745,0.027527842,118.4119854,418.517783,232.5817737,618.1344631,125.8672927,0,45.38475465,39.22898646,21.95351274,-202.2168408,118.7209163,27.85636749,58.77412884,-869.7647791,-437.6114802,,,,
702.8079995,2745,0.028121045,-96.44699908,-139.9614441,-101.8780515,-124.9990468,-86.93203158,0,-116.3599475,-74.89261523,143.0737558,547.1881862,30.45564849,71.5134152,-89.95901948,265.7376343,461.9347512,,,,
702.8159995,2745,0.02871126,-46.48747717,-146.3618694,-11.83740325,-303.0730639,36.22440313,0,102.3314957,-30.42287451,-170.6096671,-748.1731475,-123.3060446,-109.0241992,64.64837557,-1286.623477,-896.7140455,,,,
702.8239995,2745,0.029298485,107.8420438,432.9944126,181.1732736,748.7537389,73.72126243,0,-73.5426519,22.96495795,231.9502236,599.4553448,215.9805377,129.1290312,-29.51579423,94.35253073,402.5453914,,,,
702.8319995,2745,0.029882715,-178.4534488,-490.9995083,-222.4630263,-758.7626526,-93.72781402,0,15.45902283,-98.26526996,-90.91717772,-292.5219504,-171.534976,-79.4522279,-13.65925701,-605.1424715,-361.6053005,,,,
702.8399995,2745,0.030463948,122.6981167,425.4677859,234.5495921,647.1933015,142.357022,0,54.00514409,27.7957,38.01417842,-191.1102928,117.1939164,19.69206869,60.70712821,-833.6759467,-408.2158578,,,,
702.8479995,2745,0.03104218,-88.96008289,-121.5722605,-90.76847471,-75.12433634,-76.30870967,0,-99.26171434,-86.49550121,152.0574298,558.9190411,20.89048062,63.31311984,-91.60400496,314.2233091,501.4617625,,,,
702.8559995,2745,0.031617409,-43.79707185,-143.6966234,-9.174849847,-279.1471411,32.29333496,0,113.289143,-43.5073981,-170.0728034,-746.4418828,-137.8588225,-117.0069813,62.95728797,-1237.241293,-857.8061957,,,,
702.8639995,2745,0.032189631,108.531914,449.9694055,189.112521,796.5849438,60.37924366,0,-73.0116516,6.2457027,228.9922424,601.7207097,206.035437,124.2144631,-38.3042151,146.4214293,444.6539081,,,,
702.8719995,2745,0.032758844,-173.7774499,-475.8625813,-216.3257356,-715.4842932,-110.7383668,0,12.63910635,-113.0178313,-98.2164468,-281.3606405,-186.9522353,-86.30115406,-28.35374121,-536.6448174,-305.109643,,,,
702.8799995,2745,0.033325044,140.5536031,423.5631427,234.0582116,647.0033674,131.8796209,0,51.71148884,40.41790092,35.56504452,-196.0199002,116.1681688,16.56468045,69.72476907,-805.5162989,-383.3867018,,,,
702.8879995,2745,0.033888229,-66.36520432,-117.6193853,-82.94079261,-74.19600734,-78.63805481,0,-106.9849113,-57.9034851,167.4018835,574.8662642,51.63187869,74.74203374,-70.11513899,323.9075616,510.9938876,,,,
702.8959995,2745,0.034448396,-31.23542302,-144.9443437,3.507871384,-284.0621497,37.50845983,0,102.2971858,-33.65401028,-160.0477816,-735.9025858,-112.7951159,-106.8502483,71.29945454,-1230.842761,-853.2621316,,,,
702.9039995,2745,0.035005543,123.6806721,452.1841396,204.1268384,793.8350696,76.00307303,0,-71.2006313,17.49480433,236.9140266,605.3346588,225.6473245,136.1657121,-23.75318393,146.7869401,448.6246994,,,,
702.9119995,2745,0.035559667,-160.4848587,-483.1949956,-208.7118604,-735.7886092,-94.87331028,0,40.05049015,-89.80562285,-84.74947969,-266.2653635,-163.6464445,-66.02239814,-1.845721741,-541.0649953,-308.3499267,,,,
702.9199995,2745,0.036110766,141.9794393,410.0372636,234.9549169,623.0432867,142.4963611,0,79.99055956,52.67766417,40.97810962,-202.5316347,129.2478318,30.51606122,86.70728764,-835.2942059,-411.7056055,,,,
702.9279995,2745,0.036658838,-74.92617329,-127.6393814,-92.96487053,-79.71355366,-80.42233771,0,-92.52637647,-58.8514743,169.8445792,575.4275466,51.88206439,79.72265108,-66.73992564,311.656924,499.9978712,,,,
702.9359995,2745,0.03720388,-49.28341545,-162.3093379,-16.73063086,-291.4608301,27.75134024,0,117.3469412,-47.027705,-168.6529289,-740.6060673,-130.3899045,-114.0265142,65.23621856,-1229.239463,-856.1997596,,,,
702.9439995,2745,0.03774589,115.2381001,448.1452124,195.5212303,813.6082209,71.85282892,0,-72.62876844,5.184574673,222.8694507,598.8495317,200.4594993,123.9182383,-36.57831774,165.3799594,459.465419,,,,
702.9519995,2745,0.038284866,-164.9414738,-493.3444278,-214.1232895,-723.2502761,-101.7060475,0,13.16610716,-92.29935847,-95.93669193,-255.8411733,-185.3097575,-76.35813892,-14.15029183,-501.1019227,-279.6569725,,,,
702.9599995,2745,0.038820807,132.7107387,404.5655396,235.1548839,639.1948794,138.3067768,0,53.64976754,46.92909518,22.3353854,-203.9471983,108.8962137,15.76532655,72.96817527,-810.0341472,-393.8971109,,,,
702.9679995,2745,0.03935371,-75.22211414,-118.5129658,-88.23446223,-44.2573223,-78.88588589,0,-114.3625602,-61.33420824,152.3149752,587.3315311,28.57147783,68.69147673,-84.03579584,361.5085242,544.1016276,,,,
702.9759995,2746,0.039883574,-44.56814985,-174.3554286,-21.76850794,-296.5330295,24.97435445,0,100.8110491,-32.20676546,-181.5580544,-736.9119818,-150.4075164,-116.5381484,63.72899444,-1204.039832,-836.0186554,,,,
702.9839995,2746,0.040410396,112.8570674,442.731192,193.5378422,815.78235,65.36792287,0,-87.37540557,20.56902486,216.7493845,591.7042132,195.3642844,124.7461265,-30.48071094,148.320826,444.3167287,,,,
702.9919995,2746,0.040934176,-178.4786757,-494.6257386,-220.194045,-708.9859573,-114.0081755,0,-5.095166141,-102.2789286,-104.4074513,-256.3009689,-199.0702547,-83.93003143,-31.0109287,-486.8089428,-265.8226948,,,,
702.9999995,2746,0.041454912,126.4753134,397.3012106,225.6908696,639.8149466,128.1459609,0,56.13385593,33.70271754,8.323009485,-225.2817316,85.84685116,1.476248624,58.68884189,-801.8252073,-389.8844108,,,,
703.0079995,2746,0.041972602,-75.34741371,-118.6317785,-91.37549232,-42.2019167,-85.3530837,0,-101.9803222,-59.97529837,148.1345972,578.6609103,21.42678285,64.90979774,-81.36132153,365.4677552,542.0892934,,,,
703.0159995,2746,0.042487244,-52.36955786,-181.5147093,-27.77610724,-309.456975,19.76393824,0,108.9286158,-32.46819826,-192.5901685,-746.5638103,-156.9704589,-116.0540463,66.67075717,-1195.781338,-834.6770743,,,,
703.0239995,2746,0.042998839,111.8948277,442.3984213,186.2980424,814.3155012,65.58035156,0,-74.72913048,25.35257171,198.2666827,575.0104038,188.4137008,124.4099844,-16.56668799,152.8413269,443.3464044,,,,
703.0319995,2746,0.043507383,-182.2490865,-495.3594182,-230.3103812,-709.5956056,-118.2122543,0,-2.159005825,-92.94561795,-121.894111,-264.4944691,-203.3084379,-84.29369737,-17.63233277,-471.973982,-260.2680757,,,,
703.0399995,2746,0.044012877,119.8357454,399.8302719,221.5832365,642.6488059,124.9729549,0,50.01308505,40.97798638,-12.52314888,-242.8117323,77.55143275,5.35984714,61.36368302,-797.1237354,-391.7275988,,,,
703.0479995,2746,0.04451532,-77.25276207,-118.0421299,-97.71557585,-41.21036762,-87.68503936,0,-109.2076875,-50.04541558,134.3867922,581.3986464,17.21424865,78.73608226,-75.37753157,381.7242175,555.4179533,,,,
703.0559995,2746,0.045014709,-69.4125115,-195.1386996,-39.61443598,-333.1438796,12.12563936,0,97.78770702,-26.60264301,-206.4650285,-753.8693468,-157.2708622,-110.8794404,69.40331144,-1198.396722,-842.2030638,,,,
703.0639995,2746,0.045511045,89.04729099,460.7702119,198.0716894,839.2762891,68.49760704,0,-94.82266943,13.86329717,190.8302918,569.0867089,192.3349415,121.0209776,-31.82496888,162.424623,445.5734178,,,,
703.0719995,2746,0.046004327,-203.417171,-486.5512724,-227.2511237,-694.8064772,-116.1932853,0,-24.34949471,-110.1762531,-122.4311998,-246.0121102,-209.7300739,-84.24399186,-36.16165548,-419.2478126,-220.2734716,,,,
703.0799995,2746,0.046494553,92.13879209,390.4141356,208.9241078,627.5242744,120.8387305,0,42.70540099,36.6908319,-23.99975555,-247.9917477,68.73558016,2.738674926,55.74918624,-786.4503262,-391.5907799,,,,
703.0879995,2746,0.046981723,-102.7854261,-98.65920994,-95.24898386,-9.599819596,-86.93272241,0,-110.0761563,-58.71467256,127.4861276,587.5102879,21.19213331,71.08044021,-78.26407687,408.9076066,573.4707207,,,,
703.0959995,2746,0.047465838,-88.0687205,-186.4051436,-39.87704554,-315.176137,10.56661391,0,96.88170018,-40.93754645,-213.0933676,-746.6530466,-165.6259759,-120.3283009,72.54765471,-1150.766456,-800.7812726,,,,
703.1039995,2746,0.047946895,79.4112884,461.69784,196.7466952,843.147402,68.73054359,0,-79.01533664,12.36347799,178.8351145,565.4388968,182.2877269,119.3653324,-18.62791979,174.4885193,464.1531184,,,,
703.1119995,2746,0.048424895,-209.9173216,-482.947127,-222.9456189,-687.7225415,-116.4239823,0,0.630833289,-106.5817245,-126.1365417,-241.4558173,-207.2251778,-81.22040854,-17.77163562,-417.1164606,-206.6448787,,,,
703.1199995,2746,0.048899838,83.54981996,398.703854,216.7436351,651.5706392,111.3686707,0,41.02503453,21.78465737,-27.50088731,-254.8827741,65.94118566,-2.19432975,59.39881471,-773.6943014,-366.0396636,,,,
703.1279995,2746,0.049371722,-107.2318242,-86.1418228,-91.06340513,33.14292529,-101.3725298,0,-131.1679832,-82.53248,120.2419696,592.2300741,7.948372122,63.58486171,-98.84341317,460.0335912,637.0415423,,,,
703.1359995,2746,0.049840549,-83.37490619,-190.2457048,-47.91526012,-307.9142653,-2.322248119,0,85.89944556,-45.91284809,-223.5934314,-751.2583572,-178.7479058,-126.9411437,52.60544066,-1116.1504,-755.7104009,,,,
703.1439995,2746,0.050306318,93.08859176,465.8598318,190.2962103,852.4493247,59.38052908,0,-92.29319397,19.0120402,170.3912909,554.8274242,185.2755701,113.8711739,-33.84312723,189.8950053,488.8325909,,,,
703.1519995,2746,0.050769028,-196.9387218,-480.1173278,-229.7452118,-685.6647338,-119.2402892,0,-11.12719071,-96.88163844,-129.7079962,-238.3073835,-198.4390525,-84.67081079,-26.56461066,-394.3300421,-178.4113046,,,,
703.1599995,2746,0.051228681,99.15173585,402.5961046,218.5947183,642.2806618,125.6683126,0,56.86947833,36.60718163,-26.99767828,-258.60569,77.17193389,-2.909844215,67.90549631,-773.0915176,-359.4401771,,,,
703.1679995,2746,0.051685275,-88.6975335,-66.53092146,-77.08562699,44.04157523,-78.43342819,0,-108.0300262,-68.86436763,136.4731059,610.3891913,30.58175927,69.82803185,-79.04381061,478.7770988,657.4884482,,,,
703.1759995,2746,0.052138812,-71.24853592,-179.7415681,-39.07211331,-305.4024295,13.78798571,0,94.44008578,-40.07204366,-197.1338277,-734.0192901,-158.8238527,-122.3785757,71.89660219,-1092.385139,-733.6160187,,,,
703.1839995,2746,0.052589292,99.59020691,478.6628291,198.8337358,877.2245386,64.59376007,0,-93.04802138,18.10449551,201.4640187,567.2433393,200.2866772,117.1598986,-25.2614011,217.8382751,519.1406974,,,,
703.1919995,2746,0.053036714,-200.5054813,-485.0417856,-235.3693375,-672.6302469,-127.3757198,0,-17.56384533,-107.0741594,-107.2729833,-225.2427666,-198.0497274,-86.43968733,-35.18564328,-346.5831411,-130.8035401,,,,
703.1999995,2746,0.05348108,98.06465591,381.5140275,204.0062328,627.7525901,121.2398927,0,52.13477604,25.89399565,-17.61085392,-275.3138201,72.15718833,-14.80181429,59.95430704,-763.5111328,-348.8257185,,,,
703.2079995,2746,0.05392239,-84.17111926,-83.90035672,-86.24647326,38.92734556,-77.35256543,0,-111.465224,-70.34529961,149.2441482,605.6186241,39.72246677,65.58022795,-72.53257406,479.5122473,660.6812392,,,,
703.2159995,2746,0.054360644,-72.38000191,-212.2100097,-51.60978832,-340.0306526,11.962568,0,104.8142163,-39.17829946,-198.2183008,-745.4950365,-156.5206142,-120.1850774,78.79669087,-1106.392836,-746.9960374,,,,
703.2239995,2746,0.054795844,108.7241382,469.3437627,202.5123193,856.1009988,71.49071301,0,-72.52073523,26.06025868,197.1621842,553.6828722,210.085653,123.4328495,-19.110072,185.6618711,488.3734403,,,,
703.2319995,2747,0.055227989,-184.1256466,-475.9410855,-218.1293236,-675.7753744,-119.8930677,0,-14.31839921,-96.12605789,-97.22406146,-208.7521635,-173.7444438,-74.02084015,-27.54004338,-344.298509,-129.2245381,,,,
703.2399995,2747,0.055657082,113.7482945,391.1391931,224.2087609,620.8958462,122.2559131,0,44.25090309,39.21550836,-7.19735418,-268.7890712,90.3692812,-0.87288437,66.99942213,-769.4598537,-350.9720265,,,,
703.2479995,2747,0.056083122,-76.1389192,-54.92540591,-60.28764751,72.44497671,-82.35379299,0,-133.2998681,-68.74076348,161.4060171,623.1821493,53.33114159,73.07990654,-83.89682634,499.0393276,684.2414094,,,,
703.2559995,2747,0.05650611,-75.86713031,-189.4367412,-33.33736027,-299.4084498,3.366625116,0,82.59838049,-59.42998342,-196.6434803,-734.1659917,-163.3135269,-132.8144528,52.71096905,-1047.282861,-688.8975162,,,,
703.2639995,2747,0.056926049,113.1921035,482.9867845,211.2322157,887.5424459,69.80473452,0,-70.06569301,18.12389861,193.9763099,552.021975,193.8151864,108.4399482,-20.76283568,233.1662513,537.5757686,,,,
703.2719995,2747,0.057342938,-179.1318006,-478.399552,-221.2606567,-660.458097,-123.5508473,0,-9.959984069,-98.58399695,-96.15462871,-203.0970181,-182.7972119,-83.61604092,-13.34231327,-300.6175075,-87.40187586,,,,
703.2799995,2747,0.057756778,119.7795605,375.4592698,215.8785494,610.2013436,120.9570784,0,56.35701983,39.67767675,-13.35604335,-287.1075749,83.37855027,-11.35038789,86.44875573,-764.0299924,-349.9064621,,,,
703.2879995,2747,0.058167573,-58.61224154,-62.05078501,-65.38627882,51.78587798,-75.25851029,0,-98.30292669,-47.05570759,161.3730053,617.3091354,64.72056394,76.84750271,-49.96817967,476.6559693,659.7088019,,,,
703.2959995,2747,0.058575321,-55.78362705,-196.0473052,-36.24306562,-335.2395137,6.706170627,0,104.8359039,-39.35055024,-191.4552268,-728.0894439,-137.8637813,-121.9579397,83.84784788,-1074.743319,-717.5089626,,,,
703.3039995,2747,0.058980026,138.674378,494.7995633,219.9394414,874.7902957,73.98317421,0,-78.65970644,32.51625383,199.1233388,559.961772,221.8884271,119.9741744,-9.614603975,204.5193859,509.4773624,,,,
703.3119995,2747,0.059381688,-160.11135,-456.6769681,-211.5080449,-651.7677958,-121.4822808,0,-28.49055949,-90.22054987,-95.542765,-181.3214341,-161.8841289,-72.54325059,-25.71652434,-304.0939656,-94.25972182,,,,
703.3199995,2747,0.059780309,138.2567522,391.2480224,219.3757607,626.7414666,116.9027714,0,41.70713594,32.6906406,-28.86721771,-276.4706576,88.16182734,-10.70357914,55.87228892,-745.5289465,-338.4039287,,,,
703.3279995,2747,0.060175891,-26.54596445,-50.58897604,-66.37073288,77.57853337,-77.87874972,0,-108.78417,-48.58803634,143.5568403,634.870268,65.60380703,77.01959133,-83.43544,514.0643952,687.8027753,,,,
703.3359995,2747,0.060568435,-33.91346842,-198.9037471,-44.63916768,-322.9790617,2.01316559,0,95.90915984,-35.91855625,-207.1899675,-721.6166811,-139.7603701,-121.6485185,56.76955522,-1051.392813,-702.2819187,,,,
703.3439995,2747,0.060957942,155.6723197,489.7771403,210.3464538,888.3927205,69.60480357,0,-74.2577807,24.39524365,184.4557836,552.1524426,211.703174,113.3815751,-37.97451119,226.0699136,524.2339168,,,,
703.3519995,2747,0.061344416,-136.6537755,-471.3983014,-225.8582494,-670.0023571,-114.6405095,0,10.05216315,-79.6408019,-99.15980058,-181.0737965,-169.2536349,-70.32741437,-35.88415441,-290.5043003,-93.62153358,,,,
703.3599995,2747,0.061727857,153.3299384,390.6311646,216.6279299,613.2928476,131.8225251,0,81.52614835,61.35693701,-21.27633202,-274.6619634,98.5629466,7.520593735,68.24556273,-765.1686399,-370.565066,,,,
703.3679995,2747,0.062108268,-21.72741699,-29.63371786,-56.69220041,111.2949308,-71.85541321,0,-98.25297842,-40.90304942,155.1205782,660.7522247,73.23995295,92.41794006,-90.28543179,542.5126082,701.5472915,,,,
703.3759995,2747,0.062485651,-34.93353465,-196.3751128,-50.58142356,-312.5264852,-1.571099162,0,109.6430569,-29.83795714,-203.2076083,-701.2120027,-150.1017686,-114.398191,40.44011923,-1010.831651,-684.4786877,,,,
703.3839995,2747,0.062860008,148.4512698,501.3153622,202.8399571,915.6510533,64.58421131,0,-60.57869853,31.94993246,181.4160746,569.4909875,207.4998938,124.1993054,-48.15695286,250.6562321,525.1070509,,,,
703.3919995,2747,0.06323134,-150.8529744,-459.2900726,-232.7691833,-622.5964007,-128.0706708,0,1.097415502,-95.17962692,-112.9149599,-155.1774613,-175.4439309,-66.72269159,-56.62202201,-231.5011525,-56.75832622,,,,
703.3999995,2747,0.063599651,140.7761491,381.379242,194.1067307,624.6201728,113.8649983,0,70.26892978,48.56403462,-43.16296298,-277.9866421,84.41609817,-0.942201759,47.81833091,-726.2372498,-346.9622451,,,,
703.4079995,2747,0.063964943,-31.1381064,-39.13339894,-83.87657951,104.0536769,-80.15616675,0,-102.9940002,-40.70812104,144.5519123,664.2423839,75.8660691,90.37288744,-100.4730505,564.7691886,714.2529928,,,,
703.4159995,2747,0.064327217,-41.53079575,-211.2407202,-70.14541842,-339.2869369,7.743170475,0,104.9988267,-28.8516941,-212.2841732,-698.9484428,-137.4605441,-110.926435,39.93495735,-1005.077121,-682.6170675,,,,
703.4239995,2747,0.064686476,153.7774362,497.6113543,196.9710778,894.4761899,87.54168436,0,-57.71393342,51.9843829,180.0726504,568.637686,229.320408,135.6765144,-31.61111201,228.9140179,507.7932658,,,,
703.4319995,2747,0.065042724,-149.9968959,-458.1301176,-235.6853762,-642.5560943,-109.2753241,0,10.26104395,-66.57438892,-96.31224907,-136.2308852,-148.8380045,-44.02815619,-32.1759129,-246.3530084,-63.54655513,,,,
703.4399995,2747,0.065395962,130.7208232,381.3155936,194.3042933,610.6590324,129.8961771,0,74.99845807,54.42051405,-32.53354273,-274.0548323,93.09402727,14.08840627,59.43958411,-741.5171269,-350.1931735,,,,
703.4479995,2747,0.065746192,-42.31977665,-30.30074757,-76.34314062,116.406998,-61.56854148,0,-92.35515558,-40.08708171,153.1037225,671.5741302,77.08003505,99.84576825,-86.39914008,566.5316224,722.6548595,,,,
703.4559995,2747,0.066093419,-55.24906619,-210.1516595,-66.84965691,-333.7581635,18.89261654,0,119.8661402,-25.3823471,-203.6427025,-700.2706273,-141.16858,-105.7793637,65.32787968,-999.6045121,-676.0873468,,,,
703.4639995,2747,0.066437644,147.1823998,509.7930377,203.9283632,924.7497709,94.29802486,0,-63.31054504,40.50686727,184.4264274,560.011041,219.5454399,127.0039942,-27.79182533,253.9875349,533.2907279,,,,
703.4719995,2747,0.066778871,-149.3789931,-455.1435034,-236.273477,-618.1422834,-106.8029604,0,-1.670845114,-79.82323596,-92.18908972,-135.493154,-156.9208543,-59.9979145,-44.41917952,-193.6017151,-22.36699775,,,,
703.4799995,2747,0.067117102,134.4646145,369.4667917,182.8543218,607.3587721,126.4466743,0,67.02276729,59.04332178,-34.2532977,-295.2728967,91.13555513,0.824540491,53.10539659,-727.5225363,-350.161223,,,,
703.4879995,2748,0.067452339,-31.83609821,-32.15030984,-86.14557376,116.7114618,-70.27131178,0,-114.8488676,-24.31793239,154.9700654,663.8186326,81.06523593,93.61597953,-106.5256242,575.7609855,722.1561836,,,,
703.4959995,2748,0.067784588,-46.40168158,-229.2722162,-81.68685213,-375.120424,6.00288137,0,110.0981034,-6.455050348,-198.5058546,-706.2781887,-138.3408414,-107.197917,41.01994538,-1012.921204,-700.3643035,,,,
703.5039995,2748,0.068113849,149.7049099,497.9836975,198.9840387,887.7140087,89.034065,0,-53.70023064,60.06927422,190.3306589,550.9394638,232.9838874,135.4934189,-33.62063351,207.5946536,480.12356,,,,
703.5119995,2748,0.068440127,-152.3094216,-454.8558823,-231.5991184,-637.2745136,-104.6792766,0,0.535810029,-71.53120516,-88.13154443,-124.2315801,-150.6701065,-49.8447265,-42.00079067,-211.790568,-45.97711197,,,,
703.5199995,2748,0.068763425,128.7454137,367.3470179,189.2988736,583.2641561,133.1912504,0,75.25302932,57.30179241,-35.00365662,-294.8130678,82.31593607,5.972442513,65.25659384,-747.0355729,-375.0714575,,,,
703.5279995,2748,0.069083746,-44.34667091,-24.62362495,-78.67965907,121.9437283,-64.76369176,0,-109.9146645,-37.75177778,154.0919689,675.0462262,73.64922235,98.80466434,-96.98251446,584.5603882,723.5170524,,,,
703.5359995,2748,0.069401093,-65.43224183,-227.4960287,-79.85121345,-362.290696,5.784931374,0,100.7315806,-29.48583444,-214.2891127,-702.5440666,-160.4706395,-115.3380937,38.60010474,-979.7601226,-677.2163442,,,,
703.5439995,2748,0.06971547,132.7605123,498.2286112,197.3752145,908.1322508,84.06491631,0,-71.21605617,39.98548516,166.3854879,542.1743915,203.0601098,120.0132972,-41.41557363,243.1304438,505.2024604,,,,
703.5519995,2748,0.07002688,-169.8622705,-468.9782385,-246.2167648,-639.0173262,-119.5686693,0,-27.8759834,-90.64123659,-110.9911792,-128.2895274,-180.5684477,-63.70094847,-61.28631107,-160.7967602,-8.780695216,,,,
703.5599995,2748,0.070335326,125.5324102,350.6112164,174.7839559,557.7622418,126.1456028,0,60.89584408,58.18021841,-58.26109533,-320.4368607,61.97917545,-5.619024956,52.87682545,-746.4536102,-382.0660903,,,,
703.5679995,2748,0.070640814,-32.71267017,-28.34839862,-88.29113726,101.3722628,-62.26098417,0,-108.6077689,-21.78167682,145.7051812,666.1556382,75.93511316,97.39753121,-96.82372744,565.6712208,701.0388432,,,,
703.5759995,2748,0.070943345,-58.23236465,-237.4009744,-95.2658932,-405.1480822,6.220973104,0,102.4683363,-20.41948021,-213.4795936,-705.6652553,-151.6390571,-113.8108033,43.05874292,-1002.498972,-704.4672947,,,,
703.5839995,2748,0.071242923,142.0985754,507.807722,194.4051405,882.1291154,94.57251836,0,-59.94303475,56.01097572,174.8938896,537.8327462,218.4300001,126.3190198,-27.25089971,196.1008702,460.3719941,,,,
703.5919995,2748,0.071539553,-168.2603118,-457.9037922,-250.3563951,-654.5195646,-112.6945284,0,-15.39147076,-84.26224235,-99.3398001,-111.7827093,-171.1411364,-60.4962924,-57.75916755,-180.2471697,-27.29703544,,,,
703.5999995,2748,0.071833239,115.4164113,358.4761156,168.8100312,555.5568977,124.6101205,0,61.93134672,43.55685675,-53.34914272,-314.7565285,55.75073581,-14.76738546,42.51695889,-742.754239,-381.7035549,,,,
703.6079995,2748,0.072123984,-43.81408305,-5.366968872,-82.02953215,138.4508432,-59.15657679,0,-116.560776,-32.69302086,155.0768308,677.5311147,63.9943997,94.90622106,-105.6313469,598.7948871,729.8591732,,,,
703.6159995,2748,0.072411791,-76.68649304,-240.0906364,-105.033897,-396.8963516,0.115032553,0,89.1700297,-34.06787676,-215.5992491,-704.3088553,-180.3303921,-115.7382214,24.32480458,-954.9533407,-663.1430748,,,,
703.6239995,2748,0.072696666,133.1737447,502.3472467,178.4996639,880.507654,85.39348597,0,-66.01320435,45.14223433,164.9547028,523.0591273,194.2672062,124.413128,-43.64640802,220.3838468,477.3205901,,,,
703.6319995,2748,0.072978613,-172.0640991,-443.8273679,-246.4178095,-636.6998491,-109.3257315,0,-11.60218073,-77.83278076,-93.14493457,-116.8547499,-170.184478,-46.39062879,-54.97100468,-165.3580707,-20.65839452,,,,
703.6399995,2748,0.073257634,93.54195323,367.5285453,174.7618388,574.6632411,123.2326003,0,49.74591553,33.44791734,-52.3874571,-330.2322946,51.07024973,-7.274267796,33.1625493,-716.6869029,-360.6002054,,,,
703.6479995,2748,0.073533735,-73.01970157,-10.79100449,-92.54774162,148.4432183,-77.82823885,0,-143.5767389,-59.30093472,143.1464381,665.054472,48.2402494,84.03095112,-131.6227042,643.6782939,766.8761814,,,,
703.6559995,2748,0.07380692,-101.8788837,-253.841793,-114.4416733,-406.5428472,-12.52393413,0,83.18331489,-41.78995913,-226.7467027,-725.2076775,-186.5421648,-126.9718477,16.76875243,-941.4004838,-658.7020577,,,,
703.6639995,2748,0.074077193,110.6805966,502.5325481,183.5127761,894.1861277,85.3013214,0,-61.8714242,43.13545696,159.2632194,506.2973099,198.211298,118.1472156,-43.08865389,226.4025533,481.7610083,,,,
703.6719995,2748,0.074344558,-194.5251886,-456.4237587,-251.1123016,-625.196484,-120.609767,0,-19.09073047,-93.30694085,-101.9306494,-115.0098255,-167.9596841,-56.13658364,-68.72812799,-128.6691936,11.99801201,,,,
