Time:125Hz,Epoch,FP1,FP2,C3,C4,P7,P8,O1,O2,F7,F8,F3,F4,T7,T8,P3,P4,,,,
522.8879996,2042,-0.282981729,53.82392134,201.6498149,169.3447471,-840.9106006,105.6741893,-1.97E-05,51.85682306,40.9168985,-137.4527958,-640.9405381,-17.14086256,-64.28340763,82.04609381,-0.036248432,-1535.15156,,,,
522.8959996,2042,-0.283193064,-57.37803402,39.81126012,9.405312938,-946.3855155,-52.77197409,-1.95E-05,-112.6971356,-24.37694401,287.7618675,872.1699274,67.43232614,84.70346277,-70.77402535,-0.036115031,-293.4590498,,,,
522.9039996,2042,-0.283396444,-223.1480399,-402.9910807,-240.6796935,-1763.462876,-55.80663049,-1.93E-05,91.66185956,-25.95423331,-307.347978,-808.1199671,-243.5219652,-147.3467221,57.04485428,-0.035981173,-1633.882638,,,,
522.9119996,2042,-0.283591894,172.2321086,466.391319,317.2390624,-348.9665237,109.1986575,-1.91E-05,-58.61277916,59.51712689,208.3301452,395.1967448,180.6862716,87.52954209,13.53239321,-0.035847107,-701.5367804,,,,
522.9199996,2042,-0.283779439,-261.462189,-482.8081004,-318.356247,-1804.158366,-139.3855435,-1.89E-05,-19.82253298,-66.7912726,-61.0937859,89.14627915,-194.1149815,-56.11313054,-33.19794621,-0.035712744,-904.6641005,,,,
522.9279996,2042,-0.283959105,77.79856536,193.4379607,165.1480685,-852.6764742,114.4788387,-1.87E-05,58.94486229,42.65051941,-155.2162401,-651.067641,-10.59585216,-56.74679614,87.47625705,-0.035577164,-1528.633583,,,,
522.9359996,2042,-0.284130918,-28.98423115,33.17250835,3.700038117,-958.4464939,-41.52157534,-1.85E-05,-88.79006058,-8.554801531,277.5821624,859.3766713,78.56508898,91.3234859,-55.77095705,-0.035441855,-316.3706662,,,,
522.9439996,2042,-0.284294903,-201.5455637,-412.6132942,-244.1761115,-1777.311155,-51.73256915,-1.83E-05,107.1068203,-26.76005171,-300.8414945,-810.4256845,-232.7254269,-145.8198432,57.15958343,-0.035306026,-1648.501641,,,,
522.9519996,2042,-0.284451087,190.317158,459.5707185,307.3498487,-360.4040108,107.1751464,-1.81E-05,-40.07302079,46.71076,219.2695616,387.2728608,179.5547877,85.33630995,1.364669966,-0.03517008,-712.675768,,,,
522.9599996,2042,-0.284599495,-243.8842285,-491.7796282,-336.2393917,-1822.594128,-142.3230552,-1.80E-05,20.58388385,-55.5083934,-48.41481047,86.97307078,-189.509629,-52.36702867,-39.67223883,-0.035033364,-930.9784682,,,,
522.9679996,2042,-0.284740153,97.11565976,188.3257179,156.6410664,-866.7351912,113.3386692,-1.78E-05,109.1291143,52.08586908,-146.002816,-666.5073954,0.789049513,-53.88969189,84.00218104,-0.034896461,-1563.678479,,,,
522.9759996,2042,-0.284873088,-0.436929391,40.87336794,0.016817172,-954.7890222,-41.88043858,-1.76E-05,-54.5468385,-10.09947047,288.9413348,861.6021234,92.96065467,95.97419908,-61.23259254,-0.034759925,-325.2212115,,,,
522.9839996,2042,-0.284998326,-167.7868189,-399.7646851,-242.892692,-1763.713742,-42.05980888,-1.74E-05,135.2988887,-22.30400986,-291.5229773,-798.9214006,-211.9604894,-135.7131648,52.25916546,-0.034622058,-1655.422391,,,,
522.9919996,2042,-0.285115893,232.0884457,490.6581644,330.0890032,-305.7411527,127.8841702,-1.72E-05,-3.774282101,47.92681309,238.4433492,406.6217498,200.9809265,100.4745903,0.926799611,-0.034484493,-697.7909428,,,,
522.9999996,2042,-0.285225816,-205.7646156,-468.4295845,-324.0879887,-1770.212788,-136.8581057,-1.70E-05,39.39858385,-62.83859667,-17.35933785,129.5302972,-176.9331543,-40.03631404,-40.88295884,-0.034346515,-881.7600399,,,,
523.0079996,2043,-0.285328121,129.2858055,202.636225,157.7700113,-822.9351829,105.3356882,-1.68E-05,99.06750593,41.8999317,-120.5998541,-647.3697252,7.476876154,-50.8579186,73.67267404,-0.034207925,-1532.53274,,,,
523.0159996,2043,-0.285422835,35.39253456,50.55810789,-8.437421149,-911.0254684,-53.45869555,-1.66E-05,-61.97694965,-11.43759109,324.0276524,886.4440809,96.54733265,103.452041,-69.40071368,-0.034069161,-286.3118203,,,,
523.0239996,2043,-0.285509984,-141.8567457,-419.4465364,-279.9247696,-1778.153369,-56.9968339,-1.65E-05,148.4809652,0.119481887,-261.2385566,-789.6329132,-206.5237255,-120.6988058,66.75446786,-0.033929363,-1651.984381,,,,
523.0319996,2043,-0.285589596,252.6391868,487.7403601,310.16313,-306.2594839,122.6194446,-1.63E-05,-0.197679922,66.7222577,261.1147442,396.767336,219.9898157,115.2143419,18.31741297,-0.0337898,-724.3397024,,,,
523.0399996,2043,-0.285661698,-191.2300082,-462.3071954,-329.6711357,-1746.819124,-138.1956107,-1.61E-05,29.66282434,-68.24835562,12.16045482,151.3774339,-164.0069392,-30.69141065,-38.72790302,-0.033650844,-861.3603058,,,,
523.0479996,2043,-0.285726315,135.803721,199.6657481,153.5185001,-809.2203878,111.8754416,-1.59E-05,102.6641325,47.39870387,-106.3443404,-644.4356545,6.693808049,-41.81904379,79.41168893,-0.03351078,-1524.425213,,,,
523.0559996,2043,-0.285783476,43.18979987,84.42663472,29.53789804,-831.1841125,-30.73437584,-1.57E-05,-62.2412125,-8.3939281,341.6328285,910.2433313,103.5687759,121.8372412,-68.8083552,-0.033370352,-249.4357854,,,,
523.0639996,2043,-0.285833207,-145.0034283,-380.4616299,-233.1788542,-1670.878697,-44.83263747,-1.55E-05,124.6504984,-22.15727583,-238.5048837,-738.172782,-213.2889243,-110.7877104,49.93428611,-0.033229786,-1550.079787,,,,
523.0719996,2043,-0.285875536,245.9731841,521.4100257,344.9552215,-194.5398509,118.2218268,-1.54E-05,-33.0891408,52.41652384,266.7484553,430.1682537,195.3090204,111.0681807,-6.944594499,-0.033087688,-620.7777959,,,,
523.0799996,2043,-0.28591049,-194.9954791,-421.2313048,-295.9039047,-1616.555927,-143.0401172,-1.52E-05,8.805692204,-67.51553441,10.64002418,198.9230765,-187.1520978,-31.55793265,-63.82296102,-0.03294643,-747.7714035,,,,
523.0879996,2043,-0.285938097,133.2632844,242.1333901,179.4875677,-670.7543733,110.8238278,-1.50E-05,87.47379668,49.5842101,-110.9518607,-599.1426015,-10.68038519,-39.47096765,59.96873854,-0.032805385,-1405.113432,,,,
523.0959996,2043,-0.285958383,45.4249664,133.1921473,56.26527831,-664.2462283,-32.64030441,-1.48E-05,-82.05928592,-6.8535522,340.7648941,968.8095446,99.25546048,121.9927099,-90.36117391,-0.03266308,-112.983839,,,,
523.1039996,2043,-0.285971378,-144.2417865,-346.5880968,-215.2603628,-1510.248795,-48.18674007,-1.46E-05,120.4051333,-20.57270343,-246.7448948,-685.8418346,-219.7289621,-114.9063437,31.19117225,-0.03252126,-1412.668221,,,,
523.1119996,2043,-0.285977107,256.1029087,560.5198711,362.1719202,-23.55144515,120.3348762,-1.44E-05,-29.80970449,59.55500849,261.8729651,468.2839487,199.0497566,112.6466178,-16.40624653,-0.032379025,-490.5705948,,,,
523.1199996,2043,-0.285975599,-181.2354079,-386.1935205,-282.870557,-1448.396487,-141.2928863,-1.43E-05,15.57767757,-51.8083934,20.46196603,256.7306749,-162.953598,-21.13351042,-62.66995383,-0.032235382,-605.7156738,,,,
523.1279996,2043,-0.285966882,143.5945978,267.6712006,195.8204098,-515.9994344,114.1250011,-1.41E-05,105.7381478,68.41417096,-105.5906722,-561.0252818,13.88266292,-32.47576488,78.40678785,-0.032091662,-1284.501664,,,,
523.1359996,2043,-0.285950983,56.71248165,171.8198157,86.05222153,-489.6514547,-31.88811025,-1.39E-05,-79.18748044,2.400062276,353.4478392,1018.049994,113.1549708,121.5302921,-77.68035189,-0.031948218,25.01649813,,,,
523.1439996,2043,-0.285927931,-143.0395099,-325.3846223,-199.9155651,-1363.567898,-53.05251794,-1.37E-05,121.8359088,-21.71199423,-240.5329811,-634.6353386,-223.1792244,-124.0335972,33.14014799,-0.031805251,-1265.484218,,,,
523.1519996,2043,-0.285897753,259.9334268,589.4376033,391.2554692,136.9674093,132.7407971,-1.35E-05,-20.51782692,52.85333307,256.4793035,505.9230324,197.1068987,104.326408,-7.499709604,-0.031662448,-355.6514074,,,,
523.1599996,2043,-0.285860478,-179.9046182,-350.1121568,-239.4293543,-1263.572707,-123.7060381,-1.34E-05,-0.3739559,-68.50142554,20.68685969,314.6664059,-172.0214797,-30.07320336,-65.68330546,-0.031517695,-437.1012664,,,,
523.1679996,2043,-0.285816134,132.6999736,287.0645377,228.5374163,-343.5745455,123.5884585,-1.32E-05,78.69919995,44.83691329,-117.3126589,-529.8760209,-18.22517827,-54.0741148,57.47445287,-0.031372845,-1113.16505,,,,
523.1759996,2043,-0.285764749,51.25727888,198.9882727,125.2066836,-297.528403,-13.50734986,-1.30E-05,-93.90505671,-25.96572932,333.8875373,1042.892367,82.10977114,100.8555015,-92.92924449,-0.031228995,199.3543761,,,,
523.1839996,2043,-0.285706351,-150.0409725,-308.2888962,-162.0260576,-1177.631078,-31.91938433,-1.28E-05,104.2644599,-52.7827057,-261.6849733,-608.4299293,-250.5127945,-138.2042192,26.6302761,-0.031083976,-1078.896762,,,,
523.1919996,2043,-0.285640969,245.2475922,592.9814522,419.1708629,313.3738752,143.9357764,-1.26E-05,-36.34128484,32.49222464,234.2525792,513.1990546,170.4351731,89.98992259,-10.99553754,-0.030939269,-176.7081292,,,,
523.1999996,2043,-0.28556863,-198.7236267,-357.0672651,-228.2275628,-1102.709899,-119.7427905,-1.25E-05,9.975446919,-86.81943544,-2.675813269,322.8265088,-199.3394568,-45.48328486,-59.70013685,-0.030794933,-266.6137,,,,
523.2079996,2043,-0.285489365,116.890391,274.3556808,226.7557725,-200.5061057,128.0590306,-1.23E-05,97.37537851,22.47470745,-145.6459198,-534.2661837,-42.48534062,-66.34932556,71.44560516,-0.030649041,-958.4460893,,,,
523.2159996,2043,-0.2854032,43.54575992,193.7464896,121.5084872,-149.9023342,-15.33428584,-1.21E-05,-88.66400829,-32.09397288,321.7771446,1054.051418,77.65509891,101.7066387,-79.69518573,-0.030503614,355.7951676,,,,
523.2239996,2043,-0.285310166,-158.4722637,-316.7015898,-173.6142782,-1045.772921,-46.64478007,-1.19E-05,111.4146555,-51.05248074,-267.0713379,-597.6606331,-251.9403685,-137.0444203,32.08380181,-0.030358554,-933.0878653,,,,
523.2319996,2043,-0.28521029,243.9772407,598.8595871,410.7961164,455.3543382,129.0318421,-1.17E-05,-34.6594491,33.74118793,226.0522614,519.888225,162.0948228,86.3505601,-12.81874427,-0.030211939,-29.32486515,,,,
523.2399996,2043,-0.285103601,-197.8864865,-347.1058616,-233.3605702,-962.3366508,-131.3018694,-1.16E-05,4.157922967,-80.30205668,-7.71162604,348.8508948,-204.1864783,-40.91308554,-58.04392834,-0.0300644,-106.0940474,,,,
523.2479996,2043,-0.284990128,118.5468627,285.0141203,227.1539398,-67.94630297,120.2978468,-1.14E-05,106.3535637,25.82651596,-158.3360053,-532.9239456,-40.6820249,-56.17801036,80.7167389,-0.02991826,-823.8200527,,,,
523.2559996,2043,-0.2848699,47.74990549,215.9595806,127.5662701,0.646156296,-21.58540657,-1.12E-05,-82.06312721,-31.03683991,312.8901192,1062.615739,82.83815316,111.8376815,-74.96743859,-0.029772814,505.1720791,,,,
523.2639996,2044,-0.284742947,-168.0565921,-312.1470059,-178.404925,-912.6170738,-51.00201415,-1.10E-05,117.7980422,-56.837842,-277.9720294,-592.0035526,-260.4579112,-133.6980949,34.12351843,-0.029625722,-779.2380737,,,,
523.2719996,2044,-0.284609296,236.1206717,604.5589631,414.545685,598.3480624,137.4452565,-1.09E-05,-19.88009216,19.55550993,217.2261715,509.0080549,155.140363,91.25420051,-1.303681568,-0.029478703,104.7515032,,,,
523.2799996,2044,-0.284468976,-203.0872185,-344.8847911,-229.6928005,-822.302369,-122.628013,-1.07E-05,3.464311712,-86.40381505,-2.505692637,353.0897037,-204.8068569,-34.48167248,-52.04511038,-0.02933067,38.27841859,,,,
523.2879996,2044,-0.284322019,108.1954025,274.5102758,219.4370016,52.03328845,125.3101691,-1.05E-05,102.1046408,28.61567643,-156.380248,-550.5315129,-51.96165881,-59.37912501,78.40451989,-0.029183229,-699.1971511,,,,
523.2959996,2044,-0.284168451,39.83968789,210.8609651,122.9414584,130.1351471,-14.67746987,-1.03E-05,-83.25385543,-25.52994717,322.6514313,1057.307424,77.8387665,112.624133,-71.68381769,-0.029036463,628.0129849,,,,
523.3039996,2044,-0.284008303,-177.0548641,-324.730458,-182.9060936,-794.7112634,-50.88725833,-1.02E-05,104.3527042,-42.10901054,-265.4017646,-596.5999133,-259.3213186,-132.0804878,37.08512508,-0.028887902,-662.0552897,,,,
523.3119996,2044,-0.283841603,238.9526455,607.240438,425.3944572,738.3457488,137.0415253,-1.00E-05,-33.26682212,34.86779519,232.773612,496.554343,158.7329075,86.64116112,-5.630877573,-0.028740602,227.8232608,,,,
523.3199996,2044,-0.283668382,-196.4239002,-338.9060443,-216.259013,-683.4634382,-122.4254263,-9.83E-06,7.21946542,-74.46515083,21.10463832,366.2830375,-196.5844978,-36.16973276,-49.07002791,-0.028592582,186.5676544,,,,
523.3279996,2044,-0.283488668,109.8631367,278.0631487,236.3684146,187.6214875,126.0553588,-9.66E-06,103.6511587,41.3957973,-142.1748125,-551.8746738,-42.44004823,-61.43839773,82.00944261,-0.028443592,-564.8183802,,,,
523.3359996,2044,-0.283302491,48.69456974,226.1437695,152.4156547,289.5068465,-11.86150393,-9.48E-06,-101.2800663,-24.79801373,337.2988722,1074.660426,91.00163369,105.5484503,-89.20410389,-0.028295454,787.594408,,,,
523.3439996,2044,-0.28310988,-172.296197,-330.4590393,-173.1289843,-683.3182276,-45.39671642,-9.31E-06,99.22124035,-43.46209164,-260.0883023,-586.3275978,-247.3234095,-140.7649912,23.93185185,-0.028146823,-521.6967947,,,,
523.3519996,2044,-0.282910866,242.0330161,597.6478269,424.0943445,827.7680079,152.5029167,-9.14E-06,-11.58054496,42.23429642,231.2337062,481.8273439,177.5351681,85.56549842,-4.275330478,-0.027998576,325.1018829,,,,
523.3599996,2044,-0.282705477,-199.5783874,-352.7447154,-224.3103142,-603.8250146,-114.2060198,-8.97E-06,17.14811035,-69.77527051,24.30277901,369.9176665,-174.4994203,-32.35831663,-52.12478563,-0.027850676,287.6511465,,,,
523.3679996,2044,-0.282493743,93.76903697,246.7428102,205.3799391,222.4606134,123.9485742,-8.80E-06,104.6593973,46.06961574,-151.889786,-579.9856771,-34.03322245,-61.7401522,82.45719948,-0.027701476,-506.6995258,,,,
523.3759996,2044,-0.282275693,32.91683523,198.0811396,109.5174132,305.8625098,-8.432159615,-8.63E-06,-80.36558079,-12.77996795,326.7655008,1037.195622,93.83537934,110.319734,-73.44220321,-0.027551775,815.0912837,,,,
523.3839996,2044,-0.282051359,-190.7194481,-355.771223,-209.5722003,-666.8065284,-43.16676016,-8.46E-06,105.8715141,-28.36890704,-270.6254781,-619.1777444,-246.7859582,-132.1194503,44.18608591,-0.027402679,-505.7621772,,,,
523.3919996,2044,-0.281820768,225.3337019,586.5504044,401.5427839,874.3440814,149.6692693,-8.29E-06,-40.81968836,48.81748398,217.9624003,447.8525088,169.7505881,87.61074172,-1.587758993,-0.027253758,346.991121,,,,
523.3999996,2044,-0.281583952,-213.3513074,-365.9154894,-249.4788589,-557.4405819,-118.087052,-8.13E-06,-7.20064737,-77.62747581,17.59255214,356.3987456,-189.5313948,-37.62821332,-59.40066609,-0.027104661,335.7941513,,,,
523.4079996,2044,-0.28134094,84.65051856,236.415686,194.3286175,278.8892925,126.0237604,-7.96E-06,91.27889059,41.45999223,-157.0302163,-604.2839797,-43.36891529,-69.41711026,86.67418253,-0.026954937,-472.5010634,,,,
523.4159996,2044,-0.281091761,33.71300181,207.3269216,121.1189284,409.0510073,-3.70412155,-7.79E-06,-105.4482134,-15.84211683,335.6786168,1042.976607,99.24246231,104.8306026,-76.2598755,-0.026805655,879.17117,,,,
523.4239996,2044,-0.280836447,-194.2806725,-365.1878148,-218.6171555,-589.1970107,-42.1920123,-7.62E-06,104.9183483,-37.83356473,-262.5376263,-601.4839967,-234.8057998,-139.9964992,37.58525889,-0.026656315,-419.5380564,,,,
523.4319996,2044,-0.280575026,227.7511059,593.3404936,402.8136254,974.4156869,158.1562541,-7.46E-06,-21.36641815,50.10932228,218.9876549,450.3754697,198.0910712,87.34594174,15.40184424,-0.026506179,411.6622109,,,,
523.4399996,2044,-0.280307529,-208.440468,-340.867635,-225.4379788,-411.1055947,-112.563408,-7.29E-06,-16.23050707,-89.16330742,28.89293248,391.3636686,-164.9735822,-34.3021091,-51.65837405,-0.026355707,441.2305758,,,,
523.4479996,2044,-0.280033985,79.72567983,240.5821267,200.3570506,412.245526,118.9275969,-7.13E-06,80.55034057,14.92752399,-157.0777958,-583.023723,-44.18599529,-79.82956891,77.72451243,-0.026205131,-348.506062,,,,
523.4559996,2044,-0.279754426,32.4998659,221.5725021,131.8392159,564.9253385,-10.76627739,-6.96E-06,-104.0096953,-23.73538707,328.8103659,1060.834761,97.18659802,97.27071034,-70.83596275,-0.026055042,993.4891271,,,,
523.4639996,2044,-0.279468881,-197.1515267,-345.9151585,-193.1348263,-421.2325309,-47.11086582,-6.80E-06,96.92423229,-44.90493537,-258.3037197,-570.4886265,-240.4550482,-143.7859245,45.71114361,-0.025905712,-287.2053675,,,,
523.4719996,2044,-0.27917738,221.0538833,607.1039736,424.571407,1138.865704,151.0907314,-6.63E-06,-35.17288859,40.08121731,230.9632359,475.874565,191.7284934,75.8008505,16.5200288,-0.025756201,555.2696711,,,,
523.4799996,2044,-0.278879953,-217.6554705,-342.4496402,-223.2754253,-277.3450977,-123.0145734,-6.47E-06,-21.71507108,-78.13453914,37.4677213,417.199948,-163.0503919,-44.05157667,-44.16997856,-0.025605032,558.9717516,,,,
523.4879996,2044,-0.278576631,72.97893281,240.2387687,200.4561301,527.144758,121.3616152,-6.31E-06,93.76768881,38.50139032,-151.4371611,-577.2393083,-31.8509619,-79.88104742,94.95419986,-0.025454531,-269.1641824,,,,
523.4959996,2044,-0.278267444,28.72538169,242.4345931,144.3386574,703.1144843,-1.53131576,-6.14E-06,-97.3510244,-4.411815481,348.5558446,1088.448717,122.0163262,106.271173,-60.64593175,-0.025304147,1100.695252,,,,
523.5039996,2044,-0.277952422,-208.5781631,-337.1577623,-190.9608153,-297.7911766,-51.36364319,-5.98E-06,79.24472322,-32.65885145,-255.1201144,-548.592021,-233.2948045,-139.5107141,39.33413301,-0.025153299,-183.0794776,,,,
523.5119996,2044,-0.277631596,217.5743919,628.1813535,435.5543837,1286.875824,149.0796458,-5.82E-06,-51.90016411,46.39674378,223.7186116,486.6785574,184.3548646,78.17798188,-1.987873732,-0.025002769,653.6886433,,,,
523.5199996,2045,-0.277304996,-220.4520797,-312.2971475,-202.9472846,-107.9879506,-125.6593338,-5.66E-06,-25.5434394,-79.37261446,44.18387502,460.5172597,-166.1645415,-37.66277113,-67.81189587,-0.024851919,707.7838583,,,,
523.5279996,2045,-0.276972652,63.84604441,261.8606688,221.9536833,695.0111661,112.6607988,-5.50E-06,85.87178367,27.26370243,-162.1243718,-559.0865748,-37.34803889,-81.10396675,77.64492996,-0.02470215,-129.365804,,,,
523.5359996,2045,-0.276634594,28.30007024,265.3320403,170.228805,884.4120346,-7.748038503,-5.34E-06,-112.1538448,-23.44241564,338.9331528,1114.715072,120.3674036,101.6168985,-71.63970801,-0.024551708,1252.59799,,,,
523.5439996,2045,-0.276290854,-213.3779501,-341.1103158,-189.5556382,-164.1218006,-63.05768423,-5.18E-06,80.75103303,-45.59296542,-260.1010845,-528.7318694,-232.5095083,-145.8721492,41.18684134,-0.024401067,-37.054675,,,,
523.5519996,2045,-0.275941461,216.1844407,635.1644992,440.9108161,1429.9645,140.3735039,-5.02E-06,-46.22174587,47.77071369,208.1637532,481.1609073,191.2802142,74.6019269,14.59764626,-0.024249787,764.5463187,,,,
523.5599996,2045,-0.275586446,-218.010943,-294.5926425,-186.4213968,57.11927318,-131.3926793,-4.86E-06,-40.13367677,-79.31348851,34.54509811,487.9510479,-162.7469295,-38.52182615,-60.32645194,-0.024098685,850.6806883,,,,
523.5679996,2045,-0.27522584,65.29782805,261.8214473,223.2733365,829.949802,104.9707772,-4.70E-06,72.50836919,27.78587132,-178.6240599,-553.6441446,-49.26489577,-85.89834628,77.96367515,-0.023948956,7.454365999,,,,
523.5759996,2045,-0.274859674,44.15424584,274.5119359,174.7627193,1027.363953,-8.787293345,-4.54E-06,-107.6854097,-9.399237063,319.8676484,1116.008734,118.6311379,102.4327157,-66.62541396,-0.023797672,1380.057343,,,,
523.5839996,2045,-0.274487976,-198.0136281,-337.9441264,-182.6080839,-33.26595474,-60.2167418,-4.38E-06,96.86954928,-29.74537271,-273.6526807,-517.613833,-217.5100701,-145.0463863,47.18035098,-0.023646126,90.15788842,,,,
523.5919996,2045,-0.27411078,229.432742,652.687263,464.7240266,1586.157414,150.1950745,-4.23E-06,-36.35444058,53.00963514,204.1594641,484.1072924,218.2796715,73.73508132,18.53470461,-0.023495283,889.2221068,,,,
523.5999996,2045,-0.273728114,-203.5516794,-266.0678724,-154.4923457,242.5436492,-117.1603679,-4.07E-06,-41.60577735,-83.54949186,43.99840673,516.289658,-142.8344019,-38.7549803,-64.24531742,-0.023344235,1013.850981,,,,
523.6079996,2045,-0.273340009,74.19477094,290.0119705,254.5058129,1031.239965,117.7949777,-3.91E-06,65.4705567,24.77673536,-166.7654479,-521.9986221,-40.9144428,-88.30173974,68.58412137,-0.023193653,185.6704068,,,,
523.6159996,2045,-0.272946497,43.22803994,324.8149336,223.4135752,1287.048008,-3.500768714,-3.76E-06,-137.8941625,-20.5143524,339.6265323,1173.493057,124.907496,102.4318313,-89.54011109,-0.023043584,1599.596557,,,,
523.6239996,2045,-0.272547608,-218.5593593,-313.7563223,-157.099303,197.8599301,-67.86063084,-3.60E-06,58.53704854,-58.39108058,-269.7059083,-474.7308638,-244.1568836,-152.7537246,15.09457496,-0.02289235,330.9486189,,,,
523.6319996,2045,-0.272143372,207.975455,641.9909088,454.2871096,1751.424183,138.5291969,-3.45E-06,-52.97358992,35.03339105,187.9560077,474.5167272,182.472408,63.36526792,5.390363201,-0.022740755,1078.928362,,,,
523.6399996,2045,-0.271733821,-229.7504524,-310.2266682,-193.2660254,330.1413362,-136.6499629,-3.30E-06,-46.1760012,-87.24832071,22.39503837,480.1407457,-156.7751341,-44.85940727,-63.47273123,-0.022589429,1138.135553,,,,
523.6479996,2045,-0.271318984,39.29240683,214.9966099,196.9865854,1032.599631,99.98967748,-3.14E-06,76.58578976,21.85078603,-206.1076525,-628.3466472,-50.88538258,-98.57483136,78.56344989,-0.022438917,211.4101819,,,,
523.6559996,2045,-0.270898893,17.77046124,239.0101953,159.0055934,1234.659326,-13.57162754,-2.99E-06,-106.446921,-12.99714536,302.1885778,1041.984123,123.3793602,96.95006795,-64.18471143,-0.022287985,1557.064941,,,,
523.6639996,2045,-0.270473579,-240.6095761,-426.6904957,-238.8142845,68.97593735,-84.6598775,-2.84E-06,89.48296635,-34.12421112,-303.8072502,-619.148246,-237.65548,-153.4265597,44.87234589,-0.022137293,218.3198712,,,,
523.6719996,2045,-0.270043072,199.8702819,542.8106556,389.0840107,1609.248957,127.8514599,-2.68E-06,-36.18833394,70.02768192,162.1933842,320.2309431,200.6216269,67.18535857,31.46144462,-0.021986522,911.7515626,,,,
523.6799996,2045,-0.269607403,-230.3697604,-393.887949,-243.8438923,182.6188741,-145.7597234,-2.53E-06,-38.32144162,-56.54372493,14.17136711,365.3799363,-131.3158433,-36.33848967,-44.66965223,-0.021835342,973.7524997,,,,
523.6879996,2045,-0.269166603,35.05453999,130.8237502,145.0726487,858.0235651,80.18427166,-2.38E-06,78.85894329,42.3355951,-216.8129671,-748.4527393,-32.03281216,-95.80139648,86.14209849,-0.02168516,19.15600102,,,,
523.6959996,2045,-0.268720702,23.60391065,183.2691135,126.0396839,1084.847538,-32.31676608,-2.23E-06,-123.6365825,-4.236825113,304.3671281,942.6355517,137.9826002,97.38159496,-72.25311551,-0.021533651,1375.336747,,,,
523.7039996,2045,-0.268269732,-241.6997539,-478.0445627,-272.2918652,-90.1154694,-106.0452435,-2.08E-06,66.32061429,-38.67897818,-302.2671352,-703.2733132,-238.7023598,-158.1047546,28.87787745,-0.021382847,49.50151508,,,,
523.7119996,2045,-0.267813723,187.1244674,495.301558,344.8229513,1441.231228,101.8127128,-1.93E-06,-39.81333758,67.59728906,146.8848851,227.9743011,193.685617,64.02924591,20.64821191,-0.021232748,731.2474125,,,,
523.7199996,2045,-0.267352706,-239.4041935,-440.0682143,-297.4898166,1.634095294,-168.2734348,-1.78E-06,-25.87335546,-42.62802696,-5.851465773,293.493496,-131.9732125,-27.95991832,-37.91674638,-0.0210818,795.5641844,,,,
523.7279996,2045,-0.266886712,29.97629014,81.39075625,86.97373683,656.3906598,64.08986173,-1.64E-06,92.43934526,61.56693501,-244.9334335,-830.4118341,-31.63477168,-86.64281758,106.1530269,-0.020930685,-183.1730189,,,,
523.7359996,2045,-0.266415771,22.62322944,157.2429914,81.23573302,913.9616091,-42.99051945,-1.49E-06,-120.1637938,4.902976271,282.6615938,887.860943,145.4952796,104.6731161,-60.07331205,-0.020779642,1185.279273,,,,
523.7439996,2045,-0.265939916,-238.7558688,-495.5527567,-307.1512929,-246.3009044,-110.7895043,-1.34E-06,67.36503799,-44.96565984,-322.214565,-736.8641766,-236.6003165,-158.4872987,32.76762091,-0.020629661,-120.268103,,,,
523.7519996,2045,-0.265459175,199.6833315,482.6049545,313.5596924,1298.908791,100.0814568,-1.19E-06,-38.26685961,44.96452174,129.9873518,187.2530179,184.5689232,54.97585263,12.69983072,-0.020479634,572.9675483,,,,
523.7599996,2045,-0.264973581,-225.4512704,-446.9533065,-323.4258439,-115.8805961,-174.7452771,-1.05E-06,-35.13010256,-72.89374828,-4.079920714,278.4897016,-138.7054739,-36.38610713,-60.75684282,-0.020328997,664.7810159,,,,
523.7679996,2045,-0.264483165,44.35465043,79.41156498,76.27147795,562.7769613,61.77787401,-9.02E-07,88.36959098,32.40168778,-241.0349586,-847.6922606,-36.31840564,-93.82639422,81.28327834,-0.020179156,-304.4437128,,,,
523.7759996,2046,-0.263987956,46.67060204,148.2703727,57.78626164,811.9810182,-43.71994697,-7.57E-07,-87.72349316,-2.700595154,287.448293,879.5114986,146.9442612,107.7718337,-73.17893321,-0.020028814,1074.452844,,,,
523.7839996,2046,-0.263487986,-214.1078378,-525.4568362,-354.1661185,-392.609281,-116.5461789,-6.12E-07,127.9132409,-13.70287844,-315.9393198,-743.7607626,-212.8905224,-137.733181,47.29413409,-0.019878444,-266.6851976,,,,
523.7919996,2046,-0.262983286,236.4836485,484.0003147,302.8896658,1199.031208,105.3581889,-4.68E-07,9.552482856,83.17083162,142.0479546,184.9776344,225.8841447,82.26700114,33.05871608,-0.019728423,413.4975294,,,,
523.7999996,2046,-0.262473887,-182.1730348,-436.9019211,-326.8513458,-195.7813452,-174.4858908,-3.25E-07,-7.012897663,-51.95131287,13.15913187,314.5239601,-115.3096893,-19.20751124,-63.30377608,-0.019578224,557.0282398,,,,
523.8079996,2046,-0.261959819,80.30050754,69.03303053,46.40013599,443.7463101,52.41912643,-1.82E-07,124.754349,59.16945478,-241.2543179,-836.769895,-31.03729066,-84.46927717,83.31062905,-0.019427817,-435.4730775,,,,
523.8159996,2046,-0.261441114,87.18967273,169.1056179,53.99215365,742.8644237,-36.75044402,-3.93E-08,-56.82404089,18.75262514,291.2328006,893.7404398,161.5204433,123.1309866,-61.03035471,-0.0192774,943.5698081,,,,
523.8239996,2046,-0.260917802,-185.1140183,-502.5773527,-346.2382233,-440.0718696,-104.0138356,1.03E-07,127.8286352,-24.6178144,-305.979772,-711.6635988,-210.6563389,-126.9551063,39.68703694,-0.019127741,-349.2689629,,,,
523.8319996,2046,-0.260389914,253.8733007,488.0809186,296.8371304,1130.526787,115.5753336,2.44E-07,5.801685744,66.47303742,137.8765713,190.8280412,212.4851885,90.07847474,24.08634352,-0.01897798,328.3996926,,,,
523.8399996,2046,-0.259857481,-165.6723299,-428.8744672,-325.8714499,-257.5939006,-157.256676,3.85E-07,-2.70932381,-59.51458243,8.418953563,329.0437214,-116.3662314,0.033969023,-53.78127229,-0.018828315,471.7114001,,,,
523.8479996,2046,-0.259320535,93.83692515,85.34679058,64.89505296,403.049321,69.6762518,5.25E-07,100.7271345,44.76925025,-246.710521,-826.6529396,-35.21353365,-70.99930808,79.04345643,-0.018679277,-510.0708775,,,,
523.8559996,2046,-0.258779104,99.98271389,183.5817023,66.46736065,705.4597862,-35.00802257,6.64E-07,-99.09247437,4.192100428,285.3719335,911.1803547,137.7288956,125.2955224,-86.86193963,-0.018529777,901.9941972,,,,
523.8639996,2046,-0.258233222,-176.8621631,-498.406895,-344.4636213,-499.1815756,-111.2277973,8.03E-07,104.5594032,-30.79784149,-317.4881762,-693.3029197,-236.0619184,-128.3409493,24.15410163,-0.018380329,-388.2255939,,,,
523.8719996,2046,-0.257682918,266.6477733,514.9367097,324.0802235,1115.53381,114.4329117,9.42E-07,-27.61223055,56.38658409,123.827598,200.3833587,196.1656729,83.6813914,4.659263061,-0.018232158,291.7569002,,,,
523.8799996,2046,-0.257128223,-156.6759713,-410.8343388,-306.0243241,-264.2218121,-163.1093847,1.08E-06,-40.00671631,-84.24794964,-2.276650859,357.0283035,-144.0425559,-14.17332181,-91.53583517,-0.018082872,482.1305626,,,,
523.8879996,2046,-0.256569169,96.01876523,71.04818708,53.84663894,345.5303095,67.01465905,1.22E-06,108.1296809,25.25404998,-272.1438435,-833.4878336,-64.02338875,-86.42948535,68.27136227,-0.017933191,-529.9058685,,,,
523.8959996,2046,-0.256005785,108.3926854,177.2763487,59.67136184,658.0564082,-26.27472118,1.35E-06,-80.78915807,8.050164253,265.9255194,897.449451,141.2107435,126.9149088,-65.99710371,-0.017784519,848.9554684,,,,
523.9039996,2046,-0.255438104,-175.321758,-516.4579009,-361.0872859,-554.2515442,-110.766516,1.49E-06,109.8574064,-29.28191703,-324.9396722,-696.7931271,-226.0532845,-121.6254098,35.91637994,-0.017636132,-433.731949,,,,
523.9119996,2046,-0.254866154,267.8144508,495.4106336,297.7915301,1052.916446,112.8564646,1.63E-06,-6.428876198,56.27873068,113.490734,180.6108976,198.2913425,89.556541,13.74151533,-0.017487417,230.0900478,,,,
523.9199996,2046,-0.254289969,-150.7743764,-419.0780649,-329.5262945,-323.049861,-162.4720625,1.76E-06,-15.12738793,-66.11772301,-5.293623098,357.9232307,-133.0155086,4.889688596,-75.76452999,-0.017338283,416.4188536,,,,
523.9279996,2046,-0.253709577,100.6955511,72.64342698,43.61793893,296.2985264,66.88725177,1.90E-06,113.7816587,41.05431468,-269.9873245,-831.5964251,-43.91336332,-64.54500369,69.21698262,-0.017190929,-590.898412,,,,
523.9359996,2046,-0.25312501,120.6337568,211.8770453,85.73026348,668.2764483,-20.12884976,2.03E-06,-91.23480775,4.249444249,280.1224112,919.612901,166.9377785,143.4157486,-87.78756345,-0.017042599,830.9496888,,,,
523.9439996,2046,-0.252536299,-164.9868425,-489.9578377,-330.8583954,-542.3441411,-104.3335692,2.16E-06,92.26751598,-45.63488833,-306.8189454,-663.8254963,-220.2901042,-116.937409,6.733665634,-0.016893624,-416.8645776,,,,
523.9519996,2046,-0.251943475,277.2828151,516.5729793,327.8593174,1062.918952,122.6846885,2.30E-06,-21.41531113,41.80962351,130.7614238,190.4353228,193.0879625,82.11335522,-1.270024396,-0.016746398,242.7272285,,,,
523.9599996,2046,-0.251346568,-148.6695969,-403.5210226,-304.6339408,-310.7660613,-156.6494505,2.43E-06,-27.24164696,-78.88584066,17.53456795,376.5659959,-138.2439046,-12.92907248,-81.03712603,-0.016598317,442.8004699,,,,
523.9679996,2046,-0.250745608,90.20503131,58.25689019,42.54503123,271.0344906,65.82528811,2.56E-06,102.5921516,27.6595192,-260.900214,-835.2043607,-66.16168839,-93.21713497,69.65334212,-0.016450449,-585.338467,,,,
523.9759996,2046,-0.250140628,115.0027152,209.2525768,89.83753401,655.3141981,-13.12282289,2.69E-06,-96.18630901,-5.119883134,285.4441129,917.3348403,150.6207819,121.3725155,-74.5760015,-0.01630341,823.1417545,,,,
523.9839996,2046,-0.249531656,-182.8770492,-505.5819183,-343.0270593,-583.4978314,-102.2060495,2.82E-06,94.8654537,-47.01459226,-309.387101,-661.1609113,-231.1800986,-131.6444474,25.79834085,-0.016156239,-430.4545451,,,,
523.9919996,2046,-0.248918725,242.9918903,491.7696336,305.0343348,1006.071181,120.5234525,2.95E-06,-24.83812028,45.35940633,115.6077067,175.0825886,194.9138291,73.77685209,10.68822767,-0.016008809,206.6997757,,,,
523.9999996,2046,-0.248301864,-190.9763065,-403.3341471,-304.1461982,-331.5414072,-153.2713208,3.08E-06,-34.90283427,-87.88340384,4.128971114,384.8625023,-121.0120903,-12.65078792,-81.13290026,-0.015862024,425.8195292,,,,
524.0079996,2046,-0.247681105,29.4992728,55.1368497,40.93217726,242.6259091,65.35140202,3.21E-06,103.0593692,3.324790999,-292.120899,-844.0339648,-72.3768591,-98.48968535,70.02768946,-0.01571498,-600.0593392,,,,
524.0159996,2046,-0.247056477,44.30810277,201.2653883,80.80834331,627.3144346,-16.69134445,3.34E-06,-103.6128125,-36.02839927,243.1950236,901.5289441,135.5510319,112.4255813,-78.88846662,-0.015567408,815.2497925,,,,
524.0239996,2046,-0.246428012,-255.1611671,-518.2973792,-355.7970293,-621.4698643,-102.0283624,3.47E-06,97.27052426,-65.67076944,-355.3743147,-671.5563185,-235.6230693,-138.1439488,26.22429096,-0.015421303,-446.9073869,,,,
524.0319996,2047,-0.24579574,180.7916059,494.3116572,304.8526889,985.2164195,124.3899642,3.59E-06,-5.896013924,37.5086212,73.5317083,159.2890092,196.1592859,71.48873256,28.13592022,-0.015276085,174.8494497,,,,
524.0399996,2047,-0.245159691,-244.090497,-395.3001761,-298.3530583,-333.7312119,-156.6773754,3.72E-06,-40.99142375,-111.2172448,-21.10445555,398.894497,-121.6000474,-11.88301437,-78.26247412,-0.015130329,436.911439,,,,
524.0479996,2047,-0.244519896,-16.01649382,50.07309492,39.73478097,226.3504547,59.33970078,3.85E-06,94.03291135,-14.981894,-319.1067783,-845.112519,-76.08983603,-99.83810378,69.09651438,-0.014983794,-599.1909772,,,,
524.0559996,2047,-0.243876387,15.60008701,214.4351567,96.7315758,647.7123455,-17.15202277,3.97E-06,-98.57225289,-45.58186489,231.0151592,909.680039,136.0808886,110.0455264,-74.72818218,-0.014837649,818.1495334,,,,
524.0639996,2047,-0.243229192,-278.124512,-511.0133825,-343.7147342,-598.3082438,-109.3629774,4.10E-06,82.39113359,-93.3143301,-353.4399507,-645.4734984,-246.65468,-149.8842462,7.861905385,-0.014692185,-400.5115067,,,,
524.0719996,2047,-0.242578343,175.014961,498.42076,308.0115908,1000.399793,120.6901822,4.22E-06,-22.02413211,25.6381642,68.54096634,159.5481564,185.242828,57.33117865,18.24323067,-0.014547228,201.2493723,,,,
524.0799996,2047,-0.24192387,-228.1501096,-372.8047963,-283.3966961,-293.54521,-147.3744096,4.35E-06,-29.47627807,-98.42809554,-13.46123418,419.9955233,-114.4660382,-13.97559108,-64.64446258,-0.014401441,456.8794079,,,,
524.0879996,2047,-0.241265803,7.027773495,76.75789747,61.13782901,279.2521878,65.16618663,4.47E-06,94.39845052,-16.01264847,-297.0050112,-816.2512286,-67.69368426,-105.4109229,60.18991152,-0.014255809,-551.8328719,,,,
524.0959996,2047,-0.240604174,49.63557318,245.2067415,117.7405243,712.928377,-21.09601182,4.59E-06,-127.0421644,-44.70610878,264.5848184,940.7125001,143.9604932,101.6233371,-99.24586166,-0.014111616,883.2390191,,,,
524.1039996,2047,-0.239939011,-240.6281778,-489.3298195,-328.2473062,-546.362983,-114.4368875,4.71E-06,73.18699954,-78.12343477,-313.8668832,-614.4582621,-236.0655241,-150.4131118,0.64245265,-0.013966744,-349.8958793,,,,
524.1119996,2047,-0.239270346,214.2160659,526.3024871,334.5159693,1072.365224,120.9844746,4.84E-06,-16.98885686,36.26726322,111.4389896,183.314461,197.2037795,54.73936769,7.11261949,-0.01382208,253.014691,,,,
524.1199996,2047,-0.238598209,-193.156823,-350.5384348,-258.2707424,-208.634707,-155.9861816,4.96E-06,-54.1863511,-88.88442416,35.10196374,467.5710067,-108.9795533,-21.22596139,-85.56302624,-0.013677808,547.2720014,,,,
524.1279996,2047,-0.237922629,35.62627889,78.763614,71.63930791,339.13448,53.70363388,5.08E-06,74.12699279,-2.328895253,-265.3735916,-794.7043163,-73.83695886,-110.7352059,54.27323362,-0.013533476,-484.8327495,,,,
524.1359996,2047,-0.237243639,86.41436908,259.9468913,135.4130381,791.2945722,-19.48681563,5.20E-06,-114.8946887,-28.10838326,288.2606949,959.1216471,146.8401597,104.4592214,-92.93925661,-0.013389986,937.6167316,,,,
524.1439996,2047,-0.236561266,-211.7575743,-479.7254477,-310.3286543,-471.0815181,-113.2225411,5.31E-06,83.86073213,-63.76954106,-294.1775483,-580.8997598,-227.0615394,-143.2003967,9.998471441,-0.013247003,-279.1629641,,,,
524.1519996,2047,-0.235875543,236.8215554,535.355457,352.3007249,1145.981479,122.4198507,5.43E-06,-17.30761749,34.68981098,116.3964448,194.6024652,198.7046041,61.24963347,12.95829211,-0.01310413,318.841531,,,,
524.1599996,2047,-0.235186498,-164.0009213,-333.6254046,-242.4231948,-132.0810158,-146.4646294,5.55E-06,-46.54408359,-96.41857608,42.35016972,496.1300265,-102.6093227,-17.57620022,-83.70162651,-0.012960929,632.5923039,,,,
524.1679996,2047,-0.234494162,65.7498295,91.55136634,83.59783526,394.0486239,75.57771898,5.67E-06,100.9760558,13.19850068,-256.5442412,-769.3440788,-51.66629779,-106.2541135,73.63267272,-0.012817508,-410.5271479,,,,
524.1759996,2047,-0.233798566,111.9971787,282.6074025,150.5119055,853.9717841,8.234653944,5.78E-06,-94.63973446,-1.232791398,300.3769069,985.9409145,177.7747761,121.2033397,-64.99493984,-0.012674374,1007.479933,,,,
524.1839996,2047,-0.233099738,-200.9289179,-461.6391893,-304.4708896,-415.5460928,-92.07907099,5.90E-06,76.02684466,-45.06906805,-285.4697791,-546.3055754,-208.6304144,-127.3584725,18.09742993,-0.01253145,-200.4862463,,,,
524.1919996,2047,-0.23239771,244.7919545,560.9055276,364.2633055,1210.968052,147.6835358,6.02E-06,-26.69182031,60.46493696,121.5505149,218.9814685,209.2775011,72.40107417,11.77522278,-0.012389624,389.3309767,,,,
524.1999996,2047,-0.231692511,-160.6982854,-314.9259059,-237.5551441,-79.32917865,-123.3540636,6.13E-06,-33.52666583,-64.85805755,53.50148682,533.5298791,-94.47189894,2.034804479,-74.62141668,-0.012248461,704.1299577,,,,
524.2079996,2047,-0.230984171,56.82681755,88.7638805,73.65861013,410.7152088,87.89224677,6.25E-06,116.0296653,40.56423801,-254.4330336,-759.3622269,-41.36275065,-85.14801036,94.38704784,-0.012106238,-376.9945237,,,,
524.2159996,2047,-0.23027272,110.407449,308.7069699,173.8000244,928.1374289,23.47100316,6.36E-06,-101.5460845,14.52603106,311.4480159,1004.955386,200.9524937,139.0319043,-51.75915172,-0.011963943,1051.341826,,,,
524.2239996,2047,-0.229558188,-204.4207308,-439.7351832,-277.6230381,-327.6718073,-79.73884596,6.47E-06,73.4523813,-48.31915907,-268.4269956,-504.5783954,-199.7982985,-118.6353904,22.41473704,-0.011822499,-118.5834373,,,,
524.2319996,2047,-0.228840605,241.4363152,570.597381,377.6382882,1284.103045,156.0520682,6.58E-06,-25.68421667,59.51807963,130.9457629,234.2442943,219.1222544,75.59050076,25.1908434,-0.011682082,454.3868298,,,,
524.2399996,2047,-0.22812,-156.9415849,-279.001965,-197.2389515,50.79327112,-110.5690257,6.70E-06,-67.68861711,-66.44543296,77.74471173,572.1378813,-68.50462605,7.729142056,-78.6444115,-0.011541272,802.0354332,,,,
524.2479996,2047,-0.227396404,52.80725758,118.0777957,116.8402002,556.2799205,95.77889183,6.81E-06,69.65075465,22.61368392,-232.9374731,-720.9825898,-45.33158173,-91.03873386,63.42016435,-0.01140055,-240.7734345,,,,
524.2559996,2047,-0.226669846,103.4695006,325.3622514,199.6138156,1057.035635,23.05115169,6.92E-06,-129.199097,3.767936493,317.8303658,1023.28501,182.5066302,125.8131479,-76.49064121,-0.011260316,1182.207597,,,,
524.2639996,2047,-0.225940355,-212.4462187,-418.9226594,-245.5831389,-196.5801071,-79.53523594,7.03E-06,52.49311783,-55.04570178,-262.7929534,-483.2241873,-202.7117359,-128.1762604,4.083364707,-0.011119537,15.30875957,,,,
524.2719996,2047,-0.225207962,233.8469006,598.7355674,420.6914801,1431.370577,162.5553102,7.14E-06,-33.64042045,47.40482918,139.5899316,254.305688,212.7112728,70.04460115,12.74944628,-0.01098014,605.4514001,,,,
524.2799996,2047,-0.224472696,-168.9903947,-263.0216463,-170.7928375,180.2507152,-108.0898914,7.25E-06,-58.24847774,-63.47836713,78.55455076,601.0842265,-80.45039187,11.52252413,-70.16227684,-0.010840887,950.0974613,,,,
524.2879996,2048,-0.223734586,39.04756006,129.9347992,136.3243093,674.0778827,99.62225841,7.36E-06,83.79067532,28.57921157,-246.8578202,-707.478829,-49.88424006,-82.31087195,71.24718135,-0.010700592,-118.8097584,,,,
524.2959996,2048,-0.222993663,97.82092273,346.3531568,216.9595568,1193.047548,31.95191082,7.46E-06,-110.3828968,8.201164887,314.3886816,1050.883802,186.0004785,140.5190421,-74.05233914,-0.010561831,1324.824221,,,,
524.3039996,2048,-0.222249955,-225.2290975,-424.8624634,-260.3967817,-99.54202772,-86.28022346,7.57E-06,67.39048276,-34.24119064,-266.5330667,-459.8819188,-197.7023781,-108.0653865,19.47171807,-0.010423214,141.8025521,,,,
524.3119996,2048,-0.221503492,226.0995053,603.1633129,416.5974699,1545.897462,152.0768066,7.68E-06,-35.67707976,54.27644081,130.720276,248.4240872,224.3722941,87.06618298,9.846775247,-0.010284953,704.3830515,,,,
524.3199996,2048,-0.220754304,-171.0671371,-253.3315596,-169.0719846,311.2786865,-119.5305718,7.78E-06,-63.89603976,-78.20486649,83.31611458,618.5497952,-73.75223064,20.73819686,-87.51505481,-0.010147236,1085.91001,,,,
524.3279996,2048,-0.22000242,27.4130435,110.2182063,108.4811304,749.2201296,76.92500407,7.89E-06,86.65805909,31.58752861,-247.4343329,-713.913874,-50.35252494,-80.14223327,84.55986578,-0.010008848,-21.06716156,,,,
524.3359996,2048,-0.219247868,98.35564679,356.4421741,213.3763437,1301.507927,18.38052279,7.99E-06,-115.6954667,15.3344024,321.3772652,1044.873081,201.6854761,145.7451884,-57.28842909,-0.009871492,1403.146177,,,,
524.3439996,2048,-0.218490679,-218.3018617,-407.4391874,-247.4772627,24.65949853,-88.35338601,8.10E-06,60.22528986,-41.11959908,-252.8860095,-435.7432116,-191.1645409,-110.2866636,17.06322643,-0.009734224,259.3628179,,,,
524.3519996,2048,-0.217730882,232.7933435,601.5662009,411.6719393,1634.952848,154.376117,8.20E-06,-34.34159406,66.49301529,133.56344,256.2279139,220.5127607,75.71839318,19.47665546,-0.009597529,798.0782607,,,,
524.3599996,2048,-0.216968505,-156.3767969,-243.1270765,-169.7690504,408.1968584,-109.489682,8.30E-06,-63.02051714,-51.38533059,100.8437699,643.5356111,-51.53757948,18.70529885,-70.69621063,-0.009460223,1172.461399,,,,
524.3679996,2048,-0.216203579,44.04050668,125.6994217,123.2233539,862.8277378,92.54022539,8.41E-06,94.9915414,42.6153676,-224.7287322,-689.5888342,-24.50761077,-83.10353589,89.53385151,-0.009322457,82.66762648,,,,
524.3759996,2048,-0.215436131,110.9547398,367.2655991,232.2853675,1426.747389,30.8208463,8.51E-06,-112.0065907,14.64678079,334.4727576,1067.565976,208.2097345,136.5531343,-59.58285543,-0.009186823,1522.090518,,,,
524.3839996,2048,-0.214666191,-218.7342189,-414.2575971,-239.1535956,128.2452786,-83.34162952,8.61E-06,51.25194903,-45.65636355,-245.6933512,-414.3810055,-194.6022336,-119.1056768,15.19572662,-0.00905151,374.2677948,,,,
524.3919996,2048,-0.213893788,232.1329261,597.8336631,422.0058223,1739.77007,159.0386879,8.71E-06,-35.94328684,64.14551709,132.3114793,254.8223727,219.9685559,68.4967845,21.63887871,-0.008915728,891.4686347,,,,
524.3999996,2048,-0.213118952,-156.6914883,-240.3586274,-151.512966,529.2938356,-109.1691197,8.81E-06,-61.32962163,-58.39537481,94.03394611,661.8231,-46.23690573,12.73770844,-77.73118668,-0.008779888,1287.401655,,,,
524.4079996,2048,-0.21234171,37.84413555,125.3142426,141.7889106,971.7495645,92.41434496,8.91E-06,89.29995171,30.89142615,-240.2456499,-683.2931034,-19.30239973,-92.78045112,77.84654753,-0.008645237,193.908172,,,,
524.4159996,2048,-0.211562091,114.4374486,385.561066,251.3753662,1544.369012,37.40631127,9.01E-06,-117.646139,17.98909876,324.7790334,1074.08941,226.5754477,132.6580007,-59.05999559,-0.008511299,1625.170244,,,,
524.4239996,2048,-0.210780125,-220.4499693,-403.0525749,-230.1108202,233.6290639,-84.04545824,9.10E-06,52.10328425,-34.86468856,-256.4240868,-395.743008,-167.5982286,-118.4304974,21.53120346,-0.00837581,482.6250197,,,,
524.4319996,2048,-0.209995841,222.1137915,605.8854223,432.2563559,1847.054212,154.8793325,9.20E-06,-36.62912207,64.42808365,111.62275,255.5351811,239.3024285,65.96068837,25.47653014,-0.008241295,994.1779855,,,,
524.4399996,2048,-0.209209266,-166.8720946,-227.874252,-143.3173289,645.9748252,-107.4664842,9.30E-06,-65.31552716,-63.30837929,76.89430234,674.9090352,-36.28732842,11.49012945,-71.84802087,-0.008107698,1400.22456,,,,
524.4479996,2048,-0.208420429,22.87474533,129.3876381,150.6438895,1085.383831,93.68445688,9.39E-06,75.60321336,26.56822839,-264.4991378,-687.6928558,-18.41799944,-99.42878405,78.74290962,-0.007974324,291.6246039,,,,
524.4559996,2048,-0.20762936,100.0488951,398.0884769,281.1061617,1689.656421,32.69497804,9.49E-06,-150.462129,2.010290929,306.0175494,1079.246918,225.327758,119.2503545,-84.4148981,-0.007841435,1754.275667,,,,
524.4639996,2048,-0.206836086,-233.6298672,-408.6063174,-217.6877538,345.593162,-91.13139032,9.59E-06,46.17708836,-46.36662376,-270.7962366,-383.3259618,-173.8457709,-130.3969675,-0.776050725,-0.007708485,623.6859785,,,,
524.4719996,2048,-0.206040636,217.624173,602.7252583,439.1194468,1940.852833,151.7207369,9.68E-06,-15.71304131,80.65889921,97.11819349,234.2753977,240.6598703,65.19410532,30.03221654,-0.007575972,1078.0695,,,,
524.4799996,2048,-0.205243039,-170.1587948,-208.902356,-115.5150566,774.7438365,-117.8824244,9.77E-06,-76.34304038,-51.78136185,78.74805122,683.132457,-32.8081679,17.75188312,-81.26371024,-0.007443538,1511.676973,,,,
524.4879996,2048,-0.204443322,18.11549867,139.4475971,169.5641237,1204.317141,81.14726972,9.87E-06,62.92788899,24.95712011,-266.1919591,-677.4448812,-36.04178744,-95.41546834,60.16228971,-0.00731189,425.1609759,,,,
524.4959996,2048,-0.203641515,105.2668674,419.1376776,299.7984119,1822.90066,27.79659964,9.96E-06,-137.3833533,14.42511729,309.8707337,1081.920599,205.4628379,130.1507098,-82.96855562,-0.007179915,1866.686279,,,,
524.5039996,2048,-0.202837645,-235.3252776,-382.4490527,-192.9169885,496.5186866,-103.4441259,1.01E-05,37.26445105,-44.21376896,-254.886523,-362.0374761,-194.8169772,-124.4905123,-9.165604315,-0.00704762,759.6870341,,,,
524.5119996,2048,-0.20203174,216.153478,622.3023365,459.7200193,2096.702027,138.1653027,1.01E-05,-44.15533718,70.15320052,107.8055273,254.0279686,220.4448365,61.36316918,5.80303817,-0.006916769,1242.749251,,,,
524.5199996,2048,-0.201223829,-164.5003148,-201.8538019,-109.255435,913.9584825,-128.0742286,1.02E-05,-83.06266174,-42.73007447,86.16819804,710.6704438,-37.62097765,18.39289362,-92.4750479,-0.006787418,1671.249325,,,,
524.5279996,2048,-0.20041394,13.42712659,134.2822963,168.7332184,1315.395442,67.1981107,1.03E-05,66.35741871,31.11270369,-267.094435,-666.5083329,-31.80476203,-97.63775834,58.05232964,-0.00665706,558.4424065,,,,
524.5359996,2048,-0.199602101,100.3790022,418.4260383,299.905758,1933.632518,17.04324996,1.04E-05,-135.4149909,14.57603584,306.2708651,1093.393481,217.6854446,128.8821854,-78.15205965,-0.006525919,2003.681956,,,,
524.5439996,2049,-0.198788339,-234.6887689,-393.9483123,-203.6398414,584.7338979,-107.456749,1.05E-05,45.45005661,-30.21093748,-266.4654196,-351.5665481,-183.5332018,-124.7031971,5.713387942,-0.006396429,885.9809072,,,,
524.5519996,2049,-0.197972684,225.4966448,627.3579972,465.9431273,2204.322786,142.7679361,1.06E-05,-41.86916901,73.26456073,95.54086801,251.5950117,227.8821399,56.38796876,14.31026438,-0.006267884,1360.331434,,,,
524.5599996,2049,-0.197155161,-149.1079932,-192.2391199,-101.8082751,1027.072604,-124.5986322,1.07E-05,-76.20824917,-49.92662965,87.32238713,730.3145527,-36.22131884,15.62314315,-86.38605508,-0.006138859,1814.403408,,,,
524.5679996,2049,-0.1963358,33.16361069,122.2430779,153.9131488,1391.405775,70.71249127,1.08E-05,89.14147997,38.98665849,-273.1463479,-669.3767939,-38.94973361,-99.99256621,72.97580039,-0.006009147,670.6661986,,,,
524.5759996,2049,-0.195514628,136.4440157,422.8919972,292.6374278,2029.453015,32.47141909,1.09E-05,-112.9414446,31.64488676,313.3867293,1096.111532,218.7102513,137.4538428,-68.16441295,-0.005880355,2109.514127,,,,
524.5839996,2049,-0.194691673,-195.5691909,-389.1066659,-208.1701037,676.2163096,-90.40745372,1.09E-05,80.65375506,-6.41952525,-239.5059291,-327.4232225,-173.6896092,-99.10376811,15.8913229,-0.005753253,997.2766243,,,,
524.5919996,2049,-0.193866962,265.6059454,638.814732,473.0563538,2308.429483,158.2686022,1.10E-05,0.869607359,96.46144012,120.5660691,261.4054957,241.179028,83.0573245,24.36102922,-0.00562559,1453.081642,,,,
524.5999996,2049,-0.193040522,-105.1550444,-165.8400336,-81.92518367,1164.613809,-115.5980809,1.11E-05,-54.51860311,-47.22800708,120.2368273,770.9793871,-30.62161422,38.96799108,-101.9043365,-0.005498059,1955.584572,,,,
524.6079996,2049,-0.192212382,78.79225383,155.4675571,186.3251401,1542.904174,75.4054977,1.12E-05,113.1432644,39.54503719,-243.6898277,-628.7794966,-39.56616667,-72.7930141,54.23576045,-0.005372038,829.3295067,,,,
524.6159996,2049,-0.191382569,188.9671533,480.4615557,350.7284978,2231.928069,37.58643622,1.13E-05,-95.27494369,21.78306639,335.2709911,1143.140779,220.7961541,161.9839398,-80.8424667,-0.005245395,2293.8178,,,,
524.6239996,2049,-0.19055111,-155.8224919,-355.6236204,-176.626153,861.1901301,-101.8270578,1.14E-05,77.43851416,-44.5101662,-231.780455,-272.1625135,-199.4318793,-93.61921467,-10.72789575,-0.005118047,1222.362933,,,,
524.6319996,2049,-0.189718032,301.2419375,659.5608488,483.5698473,2472.374961,147.3015451,1.14E-05,17.0487966,81.63341299,113.1015245,284.4112328,211.6871199,87.56419067,17.22829441,-0.004992158,1641.116401,,,,
524.6399996,2049,-0.188883363,-64.60168374,-122.5901689,-52.31064609,1361.767722,-111.0901795,1.15E-05,-37.75485171,-41.99240672,126.3104011,815.0472578,-30.39562126,55.12067497,-87.0179267,-0.004867872,2142.999159,,,,
524.6479996,2049,-0.188047129,106.6885611,182.3494724,202.2304893,1725.304953,76.7044916,1.16E-05,116.2178994,32.45957659,-232.1242915,-585.2044433,-43.47744247,-67.62793957,60.99338123,-0.004742472,1027.507447,,,,
524.6559996,2049,-0.187209358,211.4145113,506.7892116,359.5082669,2421.779327,38.51987362,1.17E-05,-78.0059504,28.97632469,349.1032641,1181.453516,222.1905376,168.1827668,-71.00781656,-0.004616852,2476.127253,,,,
524.6639996,2049,-0.186370078,-135.6028178,-307.1414381,-138.8511544,1090.109787,-88.8126897,1.18E-05,79.99118272,-39.16293688,-207.1052777,-215.0665127,-180.1235912,-78.2314932,-2.74025642,-0.004492325,1420.714407,,,,
524.6719996,2049,-0.185529314,318.9811674,730.0897179,551.9082712,2752.43409,167.747802,1.18E-05,-10.83760869,55.27989484,148.862536,350.0330746,225.6671393,92.1480467,2.688089149,-0.004368685,1899.603895,,,,
524.6799996,2049,-0.184687093,-56.49397322,-56.95228743,10.02070406,1659.006075,-99.64636755,1.19E-05,-67.77922516,-70.29094077,160.1024218,896.3056389,-37.58794425,49.23061011,-113.1426302,-0.004244794,2454.702569,,,,
524.6879996,2049,-0.183843444,104.2992118,229.6971802,251.5324344,2005.122182,84.57467556,1.20E-05,82.51363891,20.31779823,-221.0287427,-534.5205516,-62.76088037,-78.37500902,36.97757798,-0.004121427,1323.699386,,,,
524.6959996,2049,-0.182998391,216.0959153,559.3577969,418.3338158,2719.495779,52.44957542,1.21E-05,-116.5529294,11.8295216,361.8933588,1230.600502,213.6646534,151.1739027,-99.44519368,-0.003999064,2790.293428,,,,
524.7039996,2049,-0.182151963,-130.8740822,-281.428175,-101.0779903,1355.432513,-80.60591921,1.22E-05,65.20447251,-53.73141923,-198.3257567,-169.404516,-185.1297787,-102.4516443,-20.66886653,-0.003875537,1735.135031,,,,
524.7119996,2049,-0.181304185,325.5720273,737.2919241,572.0925571,2983.133124,175.923488,1.22E-05,-7.80024819,65.88428111,141.0375193,354.905898,232.9952753,75.36275038,6.853622745,-0.003752982,2151.857465,,,,
524.7199996,2049,-0.180455085,-42.835879,-54.5839795,22.62889815,1865.716019,-88.47811262,1.23E-05,-58.44614242,-53.47081979,159.2935981,914.9557086,-9.869569784,46.83415031,-107.9407654,-0.003631715,2696.974625,,,,
524.7279996,2049,-0.179604688,116.8914472,219.3158841,250.2490656,2175.752157,96.61005044,1.24E-05,111.1690731,30.33259444,-223.3271545,-532.7387848,-30.48075306,-77.33799787,48.91298497,-0.003510764,1533.301898,,,,
524.7359996,2049,-0.178753022,231.9288049,562.7363896,423.4933813,2905.863869,66.53998288,1.25E-05,-95.47896768,28.79382361,362.0287258,1225.339029,245.3036931,160.6114528,-82.35291328,-0.003389612,2973.510267,,,,
524.7439996,2049,-0.177900112,-120.2442786,-279.6401392,-96.31005721,1532.610846,-74.38570369,1.25E-05,65.19323169,-34.4476435,-196.0576556,-157.55569,-167.7584837,-87.99464399,-21.77800151,-0.003268614,1935.576776,,,,
524.7519996,2049,-0.177045985,328.72459,737.4718047,575.3239715,3157.312739,178.2762855,1.26E-05,-5.804993155,71.64282722,136.4143606,351.5901395,235.53334,82.01983996,-4.309039626,-0.003148034,2353.70589,,,,
524.7599996,2049,-0.176190667,-48.67956484,-57.21272674,23.69486373,2044.257215,-89.04080886,1.27E-05,-60.50502742,-59.70813598,160.3641171,922.6641253,-13.10395464,48.05425209,-117.291705,-0.00302797,2915.979264,,,,
524.7679996,2049,-0.175334184,107.0345066,211.5405598,253.158627,2334.284525,97.15719127,1.27E-05,111.4053077,28.82399139,-227.1358395,-534.6000449,-39.79480005,-76.39764717,47.69161986,-0.002908239,1751.055474,,,,
524.7759996,2049,-0.174476562,228.9883283,575.6613524,443.6129617,3087.185098,74.14705797,1.28E-05,-80.053235,31.73810382,361.3446519,1234.358619,242.1573327,166.5426347,-74.63403991,-0.002788525,3201.986604,,,,
524.7839996,2049,-0.173617828,-133.0487852,-267.6677387,-75.30836175,1721.571507,-73.61166515,1.29E-05,73.18465998,-46.93645059,-188.4549674,-125.9458414,-171.3976982,-86.65555327,-19.65374036,-0.002670646,2189.116323,,,,
524.7919996,2049,-0.172758006,318.5348756,761.5282846,607.5630064,3368.665422,179.5843591,1.30E-05,-11.84742919,53.41725615,140.0513403,377.1430351,227.5319009,77.98538806,-6.767979749,-0.002553256,2613.920595,,,,
524.7999996,2050,-0.171897124,-48.84610003,-12.1724165,76.26094851,2303.294205,-85.20048678,1.30E-05,-75.346812,-74.60059052,168.368336,974.2171006,-17.51934565,45.76462434,-120.2843482,-0.002434351,3207.576311,,,,
524.8079996,2050,-0.171035207,99.49903374,240.3428257,296.118247,2597.520785,87.39553609,1.31E-05,85.95973518,1.768634069,-222.3998815,-489.4870677,-57.8269991,-90.7587883,28.014792,-0.002315964,2060.543426,,,,
524.8159996,2050,-0.17017228,224.9126304,601.1926515,479.4292195,3363.718015,59.69878826,1.32E-05,-109.8397978,3.527915233,365.9137339,1273.467827,223.3407006,149.5488341,-101.2138101,-0.002198957,3524.867424,,,,
524.8239996,2050,-0.16930837,-138.0965661,-254.2515888,-49.10202255,1982.041405,-81.79811395,1.32E-05,50.92678123,-64.10772216,-190.3633904,-93.34634187,-185.4757696,-101.011595,-28.15707428,-0.002082772,2504.440421,,,,
524.8319996,2050,-0.168443501,313.2580737,754.6595199,609.7490226,3590.036293,176.8673176,1.33E-05,-18.83560517,48.62026183,128.7322942,386.3263133,210.7658979,60.96127394,-6.717782644,-0.00196677,2901.631382,,,,
524.8399996,2050,-0.167577699,-48.02347535,-28.33005754,60.19151723,2495.907801,-82.01891531,1.34E-05,-59.35452534,-59.1649478,168.8681789,999.6348981,-16.95693164,41.64963994,-108.3252623,-0.001849872,3488.888897,,,,
524.8479996,2050,-0.16671099,101.0406708,224.4980519,286.492523,2772.690509,102.7818821,1.34E-05,117.7139735,22.14497077,-224.7574212,-483.775237,-42.51414561,-88.0252827,61.39769057,-0.001734362,2308.092638,,,,
524.8559996,2050,-0.165843399,231.3158205,602.731767,490.5252616,3550.360416,81.21647596,1.35E-05,-98.13274157,9.513239076,365.4479413,1280.91407,237.06424,149.0398944,-77.46468836,-0.001619599,3784.078983,,,,
524.8639996,2050,-0.164974952,-134.5408164,-266.5550156,-45.02264129,2127.291897,-69.18058259,1.36E-05,53.33024584,-59.64818385,-183.8524641,-83.52598657,-180.9836553,-100.3380674,-16.71397698,-0.001504138,2774.979249,,,,
524.8719996,2050,-0.164105673,314.6499464,742.4561382,622.3542737,3713.261687,185.8793296,1.36E-05,-3.813358012,57.24403074,131.8359529,347.394447,220.3049477,63.46134922,14.78593375,-0.001389207,3116.539206,,,,
524.8799996,2050,-0.163235587,-51.67947888,-39.92645053,82.25134685,2604.858858,-79.58254747,1.37E-05,-54.85504719,-66.6916781,175.2913576,953.5998578,-12.25836276,39.9127515,-97.44872188,-0.001274906,3688.769751,,,,
524.8879996,2050,-0.162364721,83.63944037,180.6032823,286.076742,2811.950111,92.16564522,1.38E-05,105.9406409,10.31005639,-229.3659752,-563.3310241,-55.55472422,-97.31278694,54.73483901,-0.00116172,2465.392071,,,,
524.8959996,2050,-0.161493097,206.9682365,550.3201526,477.2157919,3550.11234,64.88830841,1.38E-05,-105.776282,15.35678328,354.1050532,1173.098978,231.2917466,138.5816406,-80.38020076,-0.0010491,3872.792923,,,,
524.9039996,2050,-0.160620743,-167.2974729,-344.9961488,-86.32532016,2057.063365,-91.21023865,1.39E-05,69.82513712,-43.66392373,-204.3605206,-205.2941399,-186.3421736,-110.9871726,-10.43811196,-0.000935559,2803.152394,,,,
524.9119996,2050,-0.159747682,282.2833574,650.6914937,564.7611103,3599.035569,163.2002835,1.39E-05,12.46126694,81.04701437,98.91654735,197.0454309,220.0936958,63.1813915,30.2060555,-0.000822348,3076.506525,,,,
524.9199996,2050,-0.158873938,-81.22250096,-125.692707,21.60347467,2482.824725,-106.7498944,1.40E-05,-62.99810737,-42.57121374,146.7344451,824.7734491,-4.29342182,49.34729742,-84.83121472,-0.00071099,3631.215509,,,,
524.9279996,2050,-0.157999538,59.06026835,89.36259879,210.995125,2652.961852,64.35301765,1.41E-05,103.6211207,28.52228848,-264.3357287,-699.4884367,-57.64508657,-93.07180873,61.9732911,-0.000599509,2373.157055,,,,
524.9359996,2050,-0.157124505,202.6389656,490.703057,424.1023191,3421.239805,54.70176355,1.41E-05,-96.56856739,26.82877282,332.5086877,1054.982549,244.9066995,153.4169784,-69.39254107,-0.00048856,3772.818675,,,,
524.9439996,2050,-0.156248863,-170.3046418,-385.308341,-118.3877199,1958.608346,-95.97332924,1.42E-05,72.25135966,-44.70492171,-205.5918944,-277.6409637,-165.0487468,-91.82108296,1.101473007,-0.000378038,2738.368897,,,,
524.9519996,2050,-0.155372638,277.6301101,618.4786209,533.3250569,3507.555129,159.3824117,1.42E-05,18.13053546,86.54144254,95.81179018,135.5823286,221.9889466,67.86613342,37.66110749,-0.000267381,3017.280725,,,,
524.9599996,2050,-0.154495854,-82.23303301,-146.7985034,-8.080637566,2401.54988,-106.9712086,1.43E-05,-45.67373523,-22.09170109,151.8173457,802.6682644,2.109925723,59.63138969,-74.76070023,-0.000157688,3589.614882,,,,
524.9679996,2050,-0.153618534,50.26326106,71.54201048,189.271977,2579.374136,59.6593818,1.44E-05,115.6354252,43.96832135,-256.2532996,-713.8223322,-40.12370133,-78.23485397,81.39886312,-4.84E-05,2333.363702,,,,
524.9759996,2050,-0.152740704,194.7260299,482.7859942,407.9228772,3369.112634,43.8116657,1.44E-05,-100.5401723,34.64034297,340.3836454,1048.385337,253.282106,157.4385259,-64.00859914,6.06E-05,3751.375343,,,,
524.9839996,2050,-0.151862386,-182.775813,-417.0321069,-158.2661367,1866.132038,-116.4328448,1.45E-05,74.45470108,-35.86538304,-207.5571074,-290.9281194,-167.4332451,-91.67799074,-1.811648777,0.000170487,2711.280376,,,,
524.9919996,2050,-0.150983606,260.0445693,586.1154734,496.5469398,3409.622277,139.8957927,1.45E-05,18.44102116,84.17747365,81.63109614,84.34672143,227.4551657,66.61640747,44.38678705,0.000278136,2949.37956,,,,
524.9999996,2050,-0.150104387,-96.32797933,-167.4882808,-31.27777665,2323.474223,-121.0220446,1.46E-05,-60.85636854,-38.61340066,144.3157309,761.9866149,6.072467802,50.1649409,-81.37994799,0.000385504,3536.919454,,,,
525.0079996,2050,-0.149224753,34.668052,27.84922677,147.8856724,2448.533015,52.34184344,1.46E-05,125.7080692,42.41383925,-273.3356032,-781.5792112,-52.29497931,-87.64777301,80.87445675,0.000494329,2250.594811,,,,
525.0159996,2050,-0.148344727,176.596445,446.6305335,370.906194,3230.532738,47.12350593,1.47E-05,-82.82671848,45.41823223,320.1316264,968.0084307,246.3824886,160.8881763,-44.68555607,0.000600296,3630.042495,,,,
525.0239996,2050,-0.147464335,-211.2329092,-451.6554054,-193.3743222,1724.817705,-116.0236843,1.47E-05,61.72888654,-43.48596821,-225.2317727,-354.6361667,-180.9105395,-93.43108108,-3.454024746,0.000706466,2593.93434,,,,
525.0319996,2050,-0.146583598,235.897573,542.8227993,448.9149589,3240.682111,143.7032218,1.48E-05,14.72081092,77.70819695,58.51764838,2.262350326,203.5434295,61.90822232,34.33412848,0.000812831,2804.204109,,,,
525.0399996,2050,-0.145702541,-115.1766547,-204.5907784,-73.15868137,2149.425476,-109.0153793,1.48E-05,-56.1965979,-31.11007029,127.5780168,690.4100215,-1.962873629,57.21901116,-76.66952062,0.000918014,3370.486695,,,,
525.0479996,2050,-0.144821187,6.481947377,-18.63959648,105.3868862,2257.966438,54.77320948,1.49E-05,104.9513893,33.24158154,-298.2197879,-863.3494289,-61.71597032,-94.56060941,69.63623962,0.001023463,2066.737929,,,,
525.0559996,2051,-0.143939559,157.8176703,390.7883843,313.8997754,3021.193018,40.26812825,1.49E-05,-100.0429243,36.89610131,293.5648483,874.8707715,239.6211311,148.9205157,-56.40329155,0.001128547,3420.22024,,,,
525.0639996,2051,-0.143057681,-223.1179166,-516.5885034,-258.558316,1486.29812,-123.4080434,1.50E-05,62.46034018,-26.39733607,-243.3499185,-449.1943919,-167.1776506,-88.27965408,11.37401243,0.001233019,2343.903376,,,,
525.0719996,2051,-0.142175576,225.1556671,489.7037059,397.8346495,3010.060128,134.8748635,1.50E-05,10.01916892,96.20444624,42.79519911,-99.55208553,221.7014008,67.76430797,45.99679577,0.001336851,2530.462349,,,,
525.0799996,2051,-0.141293268,-130.5556215,-253.9016461,-121.915081,1929.941595,-133.9503677,1.51E-05,-73.14691139,-35.04602071,120.3954168,621.8363017,3.926401408,53.42871188,-80.40916027,0.001441106,3125.243088,,,,
525.0879996,2051,-0.140410778,-21.10076402,-88.74159863,38.07942239,2003.554137,18.20391813,1.51E-05,86.50827831,22.94086259,-316.5980845,-948.0910709,-77.82850388,-107.353714,64.86987697,0.001544199,1800.191389,,,,
525.0959996,2051,-0.139528131,135.3280042,333.4203986,252.696891,2771.796193,15.80746676,1.52E-05,-108.6947598,43.85096447,269.8474336,784.8555738,220.4999858,135.2863166,-60.82300799,0.001646525,3127.809874,,,,
525.1039996,2051,-0.138645348,-246.2818726,-572.7828074,-313.7414489,1230.975544,-141.2038362,1.52E-05,57.92281913,-28.12267898,-263.4271166,-511.1931115,-184.7466914,-107.1875926,2.864616704,0.001749104,2068.722253,,,,
525.1119996,2051,-0.137762454,203.6360582,427.7377182,337.6711034,2732.356657,121.7194281,1.53E-05,6.266386855,84.56235014,18.52086015,-178.9137724,200.801784,48.92151601,44.33534603,0.001851229,2240.546358,,,,
525.1199996,2051,-0.136879469,-142.1316239,-311.8830927,-189.3831758,1630.141488,-136.3143773,1.53E-05,-61.45655559,-14.550151,108.3901254,549.0768055,0.049461743,54.55665211,-59.38886858,0.001952383,2807.900333,,,,
525.1279996,2051,-0.135996418,-30.5467091,-141.0987491,-20.9124968,1689.797402,27.88367965,1.54E-05,116.7124646,56.72020757,-314.1989683,-1016.903791,-60.02938516,-96.52441895,101.7987113,0.00205237,1458.9211,,,,
525.1359996,2051,-0.135113323,126.3455253,298.7615472,212.4647399,2488.458221,26.5764418,1.54E-05,-95.80198947,48.533555,287.3197096,732.0625087,244.4122029,148.6521619,-35.06165483,0.002153948,2807.329225,,,,
525.1439996,2051,-0.134230205,-265.8182879,-631.0449916,-380.8479038,910.0036712,-151.698238,1.55E-05,51.08660814,-26.59307046,-254.1296948,-566.8363449,-176.1419138,-96.28589151,16.61660418,0.002254278,1737.084313,,,,
525.1519996,2051,-0.133347088,189.3490643,374.2179417,272.3796418,2399.56241,109.2193141,1.55E-05,11.45967613,98.17055881,10.62356179,-262.4255503,213.9350037,54.18670341,59.61916899,0.002353129,1860.001374,,,,
525.1599996,2051,-0.132463994,-149.0262864,-340.7487178,-230.3944826,1334.148175,-142.7387277,1.56E-05,-66.30402484,-24.64058607,108.3814817,499.6582569,22.37154548,56.80855459,-59.7511477,0.002453029,2461.089473,,,,
525.1679996,2051,-0.131580945,-42.83067562,-184.7947548,-79.41960609,1368.36296,9.63673585,1.56E-05,97.36066952,36.92062832,-328.6929357,-1078.76423,-55.20939887,-106.8408327,86.82275198,0.002551876,1109.385829,,,,
525.1759996,2051,-0.130697962,128.8647895,276.6257568,164.320047,2184.727182,9.784905498,1.56E-05,-101.0291132,46.02810755,264.6852867,663.9951145,253.6981715,137.8046505,-40.91241926,0.002650169,2438.022752,,,,
525.1839996,2051,-0.129815069,-265.0875948,-648.5574749,-419.7893173,616.3585742,-163.3708797,1.57E-05,47.52385811,-34.91196345,-261.88249,-603.9627949,-165.7727767,-105.079349,15.77101232,0.002748013,1395.759145,,,,
525.1919996,2051,-0.128932287,179.3604113,352.4436168,231.8579615,2108.793836,98.15542791,1.57E-05,1.183432051,85.30007833,4.744488014,-313.2492117,209.6674398,39.82492527,49.26880963,0.002845157,1513.293014,,,,
525.1999996,2051,-0.128049637,-151.0537972,-345.7265645,-257.8301085,1069.120499,-147.7401088,1.58E-05,-63.03581559,-19.64110151,109.4824265,467.3682341,20.84885732,55.36024096,-69.21712831,0.00294184,2125.357793,,,,
525.2079996,2051,-0.127167142,-48.28905167,-198.2699265,-102.9653586,1096.913289,13.01193287,1.58E-05,104.3722683,44.85709733,-324.5563578,-1107.68619,-52.07865678,-98.55928556,89.94993289,0.003037892,787.0749591,,,,
525.2159996,2051,-0.126284824,123.6848792,268.5863776,148.2103911,1929.289063,21.26717434,1.58E-05,-101.2651643,47.36984421,266.8052141,631.9423432,255.2501827,144.0741313,-40.57309088,0.003133427,2120.603284,,,,
525.2239996,2051,-0.125402703,-260.0566328,-656.9563389,-440.3705431,350.8200083,-147.4716972,1.59E-05,74.04394826,-15.23505207,-260.5557636,-621.0798484,-155.986107,-86.91312106,29.18961697,0.003229336,1080.307549,,,,
525.2319996,2051,-0.124520801,184.852264,338.7999791,204.2671145,1835.165954,111.9472554,1.59E-05,28.40261539,115.8815883,5.778626795,-335.2997868,234.455723,66.8977377,86.77234383,0.003325127,1184.083829,,,,
525.2399996,2051,-0.123639141,-157.6063104,-364.5087976,-295.0709433,801.7602004,-146.6693701,1.60E-05,-66.39682622,-11.90190707,110.1582467,461.4979887,29.6852835,69.05874068,-50.59319302,0.003420091,1810.615354,,,,
525.2479996,2051,-0.122757742,-52.3106255,-213.0024925,-135.5242179,834.9781444,15.2750985,1.60E-05,121.6296558,52.60786553,-331.5185703,-1118.384594,-52.50138893,-85.41370111,102.1836141,0.003514164,471.2791537,,,,
525.2559996,2051,-0.121876627,128.4894923,284.8666768,144.1310301,1723.958776,30.09790135,1.60E-05,-80.14623173,62.87854124,272.7678522,643.5367028,270.8613981,166.4255614,-20.31412376,0.003607158,1834.494656,,,,
525.2639996,2051,-0.120995816,-267.5325817,-637.1085843,-434.2470436,175.5283555,-144.6817393,1.61E-05,64.66219734,-26.60914028,-248.0085686,-585.0386452,-158.5160112,-82.33946974,22.9254492,0.003700735,845.8471825,,,,
525.2719996,2051,-0.12011533,180.6646277,374.7924651,233.5953562,1702.014675,120.8588104,1.61E-05,24.22910362,93.6911467,15.3586702,-309.2891715,224.4462105,64.1693605,68.31047648,0.00379464,982.4655184,,,,
525.2799996,2051,-0.119235191,-156.5056611,-318.85897,-256.8201884,702.6406058,-139.0959915,1.61E-05,-58.8426428,-29.18585894,133.6906589,520.2001516,34.55311272,74.23129088,-57.96788843,0.003887685,1667.231321,,,,
525.2879996,2051,-0.11835542,-58.6166781,-190.3647347,-114.6213969,718.1658519,12.80318543,1.62E-05,114.4255815,32.83431701,-315.7925385,-1075.609364,-59.28849705,-90.77651613,97.80339664,0.003979281,327.4410346,,,,
525.2959996,2051,-0.117476036,129.1872725,316.9674451,174.406733,1636.537913,30.86174594,1.62E-05,-102.5649824,46.87205782,283.5915335,677.8234448,259.8908124,158.1271783,-26.55439374,0.00407041,1696.757782,,,,
525.3039996,2051,-0.116597062,-268.375926,-604.830667,-400.1524389,104.0531275,-142.3371152,1.62E-05,45.29378292,-43.82566842,-234.5014698,-531.215231,-172.7665953,-89.59824271,16.08613859,0.004161187,750.5549672,,,,
525.3119996,2052,-0.115718516,180.4937187,399.3269605,262.1780594,1631.709802,122.1397294,1.63E-05,1.513264041,77.85866888,23.72120202,-279.5402505,196.8373315,49.2806303,57.40093018,0.004251686,892.9794063,,,,
525.3199996,2052,-0.114840421,-149.8294006,-297.1847641,-234.1164762,640.7857673,-140.1661114,1.63E-05,-85.02805184,-35.85351209,140.711999,556.701857,9.417583306,59.10863952,-68.20060757,0.004342273,1589.583769,,,,
525.3279996,2052,-0.113962796,-59.54109876,-180.5295067,-102.0029308,646.0333282,12.69889103,1.63E-05,101.7567207,23.98788823,-322.1659943,-1051.198202,-81.25115065,-107.780748,93.63772065,0.004432062,243.0072179,,,,
525.3359996,2052,-0.113085662,124.6632808,323.7201786,174.7484164,1561.489478,30.16685015,1.64E-05,-102.9399797,43.23201086,273.7852983,691.74973,240.805497,143.457241,-31.54387976,0.0045214,1612.766562,,,,
525.3439996,2052,-0.112209039,-281.0789555,-626.2973691,-431.4514301,-22.07157301,-154.5151157,1.64E-05,60.87725185,-27.61887965,-256.563265,-527.2915914,-181.874642,-99.03161911,22.61001979,0.004610191,639.0011596,,,,
525.3519996,2052,-0.111332947,173.2441799,380.8613692,233.0463387,1498.083166,118.6228384,1.64E-05,29.95465701,101.7417275,-12.26861331,-299.8808696,209.0246948,44.00372254,83.31242071,0.004698916,726.8515671,,,,
525.3599996,2052,-0.110457406,-140.1884269,-282.0411878,-233.1614826,556.7389474,-130.9057584,1.65E-05,-68.56687468,-21.51231553,127.97009,577.1454728,32.32206988,64.00156001,-50.59413376,0.004787102,1458.079643,,,,
525.3679996,2052,-0.109582436,-47.15137012,-170.9248364,-104.555942,552.5525826,13.38679346,1.65E-05,115.2931646,27.1053478,-326.9125855,-1029.304667,-74.16619796,-107.1596121,94.77561056,0.004874151,135.7953874,,,,
525.3759996,2052,-0.108708058,153.8881449,350.9781007,183.5202456,1498.166134,35.47511948,1.65E-05,-87.44213396,44.35323731,275.4481224,715.318702,250.3645259,144.4170853,-31.73453221,0.004960839,1510.840734,,,,
525.3839996,2052,-0.10783429,-239.8245232,-580.7552299,-399.315681,-42.96667333,-139.799196,1.66E-05,58.33963732,-30.21364888,-233.4450531,-470.9290325,-174.5355491,-85.60612465,12.66014956,0.005047971,577.3279735,,,,
525.3919996,2052,-0.106961153,211.1289983,425.5691378,269.6957564,1494.476573,129.7097833,1.66E-05,27.42652192,88.65666987,16.86734903,-252.2130743,194.5229678,56.98140327,57.1488636,0.005133995,700.9760057,,,,
525.3999996,2052,-0.106088665,-107.2960067,-239.4367375,-202.8736789,567.1413687,-128.8076564,1.66E-05,-66.00993356,-38.88339738,158.0673431,637.7618899,10.50192477,76.17195282,-81.6647842,0.00521887,1469.869644,,,,
525.4079996,2052,-0.105216848,-17.71017511,-143.0588325,-84.35887647,543.3074599,13.86321826,1.66E-05,118.6742552,18.89344435,-304.6770615,-985.5131935,-100.6461658,-92.75667019,70.51609596,0.005304544,136.6304024,,,,
525.4159996,2052,-0.10434572,192.0967233,390.840544,212.6546891,1505.983399,44.45857424,1.67E-05,-68.68790569,45.30168956,301.359411,757.1974162,234.5430178,164.0558742,-44.62197547,0.005389467,1516.565537,,,,
525.4239996,2052,-0.1034753,-205.6429217,-540.9822031,-371.9736193,-28.07422545,-135.8859248,1.67E-05,83.21492358,-33.23284563,-211.9467363,-409.7564672,-175.6274026,-65.37546272,8.418823893,0.005473254,606.3862718,,,,
525.4319996,2052,-0.102605608,245.0263968,460.0979507,295.0868786,1514.882938,129.2212952,1.67E-05,43.67369079,85.568119,20.71230913,-213.2064758,194.2529828,71.40556557,55.59492991,0.005557253,716.0479302,,,,
525.4399996,2052,-0.101736662,-68.15507851,-206.3402395,-177.1750005,599.6415261,-122.342639,1.67E-05,-42.15470905,-26.20573462,169.2402599,692.74334,11.89762675,91.59346043,-77.42306006,0.005641125,1502.583507,,,,
525.4479996,2052,-0.100868483,13.62856044,-116.3299081,-59.81999189,577.5701867,27.33174007,1.68E-05,155.8352771,37.37737388,-295.1481825,-936.9210072,-91.3721977,-77.0000447,90.69730112,0.005724348,167.5563847,,,,
525.4559996,2052,-0.100001088,223.8555562,431.4055115,247.1804799,1580.306301,57.71648044,1.68E-05,-53.76485199,51.35929819,312.5958545,800.7522142,243.6472788,178.899717,-26.68421208,0.005806618,1555.823277,,,,
525.4639996,2052,-0.099134497,-178.6348545,-518.22942,-355.2222745,27.40669808,-129.0370756,1.68E-05,84.13625576,-30.43798216,-190.608599,-358.2174228,-184.8427884,-57.76098691,14.67843747,0.00588794,665.5779072,,,,
525.4719996,2052,-0.098268729,269.5313586,490.971745,320.2941151,1575.279566,146.7427487,1.68E-05,52.14188948,90.61371993,44.70963124,-179.8214793,195.8732417,75.92817701,64.91503614,0.005968891,765.6948902,,,,
525.4799996,2052,-0.097403802,-48.45270076,-163.403971,-145.5962763,678.0677734,-106.5863463,1.69E-05,-46.31157017,-23.59170307,197.0344275,744.9555007,27.300037,101.1258488,-70.45339221,0.006050306,1573.799337,,,,
525.4879996,2052,-0.096539735,13.8653774,-101.9158111,-53.73825139,612.0454394,25.09467429,1.69E-05,143.2029789,45.68318226,-285.6135846,-904.7372856,-86.86820434,-72.81164713,94.83498529,0.006131137,220.6502394,,,,
525.4959996,2052,-0.095676546,221.7693868,464.4364121,274.3544293,1647.822866,59.87360709,1.69E-05,-66.47875312,55.72538153,316.3521351,828.5927634,259.9093279,180.9676256,-26.91625718,0.006210801,1609.945695,,,,
525.5039996,2052,-0.094814253,-182.5252216,-491.3609565,-328.9759357,96.18927104,-127.0785544,1.69E-05,67.26634045,-39.84795202,-190.7480109,-312.2201741,-172.3730431,-60.42111002,9.14589837,0.006290229,749.4648589,,,,
525.5119996,2052,-0.093952876,263.6164874,504.6427023,330.9721018,1624.137987,145.3691834,1.69E-05,36.98058535,85.6825569,25.40736862,-164.2605715,193.4278562,66.06370097,64.13742614,0.006369583,824.4716811,,,,
525.5199996,2052,-0.093092432,-45.43043342,-126.5194959,-117.5290355,765.3769258,-101.9435639,1.70E-05,-58.42150933,-31.65618417,185.7039752,778.9812996,29.53052589,97.77088258,-77.08198625,0.006448419,1652.517084,,,,
525.5279996,2052,-0.092232939,20.44774113,-73.89287126,-28.73893052,695.57822,27.89907838,1.70E-05,135.0376867,30.00415766,-294.1865843,-869.29324,-92.4544378,-75.54617346,86.16674285,0.006526679,311.4837556,,,,
525.5359996,2052,-0.091374416,234.415118,491.1834617,295.0808353,1739.724335,58.27428209,1.70E-05,-73.61274582,47.84217173,308.5593606,855.4573772,251.8168623,173.8720779,-35.66247743,0.006604561,1691.55139,,,,
525.5439996,2052,-0.09051688,-171.0627454,-470.481352,-313.8765547,180.4637148,-133.431472,1.70E-05,64.23012129,-43.6901347,-191.587373,-280.4930753,-181.2891491,-65.20124587,-5.353252917,0.006681404,832.9709756,,,,
525.5519996,2052,-0.089660349,276.5027088,517.5821115,342.0057152,1691.246918,144.8209407,1.70E-05,51.06478099,92.59888486,24.90573625,-156.5942021,187.7206246,67.83178332,68.32341117,0.006758328,882.6206992,,,,
525.5599996,2052,-0.088804842,-36.57964814,-117.5131034,-108.3751503,833.0896109,-98.41545689,1.70E-05,-45.9013889,-23.46984012,192.7404429,802.030292,39.0054954,98.79945675,-61.92676278,0.006834838,1718.235151,,,,
525.5679996,2053,-0.087950375,16.68831221,-81.9429365,-31.33633717,732.2623577,30.991565,1.71E-05,133.8811014,26.80232537,-296.2564371,-864.1893151,-90.51180888,-86.71582724,89.90118711,0.00691017,360.8695913,,,,
525.5759996,2053,-0.087096966,239.9376545,502.0251114,308.7847346,1795.356507,78.67802225,1.71E-05,-70.63212467,49.11291387,312.3271228,857.4122521,250.8665145,168.5595467,-31.02413556,0.006985281,1739.194402,,,,
525.5839996,2053,-0.086244633,-171.0576163,-453.0529098,-287.310992,256.4351367,-106.6762806,1.71E-05,65.16370074,-45.03940936,-174.8431387,-247.9657691,-179.8664949,-63.38064689,2.809896651,0.007060357,926.028554,,,,
525.5919996,2053,-0.085393392,265.6492373,533.982053,369.2451297,1775.0812,163.4051538,1.71E-05,34.61098709,74.57669382,27.46945076,-145.837537,171.7768427,53.30789854,60.38101032,0.007135399,976.8338018,,,,
525.5999996,2053,-0.084543262,-37.49659687,-96.1135679,-84.00695837,926.604493,-81.13700394,1.71E-05,-64.14885769,-40.88068919,199.4730657,827.1542085,11.68887873,77.97600753,-82.47555152,0.007209871,1827.601651,,,,
525.6079996,2053,-0.08369426,18.70137122,-71.47771146,-14.58373821,809.3805366,52.25814214,1.71E-05,131.8799031,26.96669632,-282.0999698,-837.8927126,-105.3913832,-97.0407182,88.94907116,0.007283381,471.5118014,,,,
525.6159996,2053,-0.082846402,242.3330438,522.6266936,333.7570404,1892.038093,97.47230969,1.72E-05,-77.89262014,48.09351437,323.4102283,875.1355093,249.7272985,165.336916,-23.95398643,0.007356509,1841.450294,,,,
525.6239996,2053,-0.081999706,-177.4289568,-452.8348532,-282.5867171,323.8538176,-104.441411,1.72E-05,51.87424173,-57.17522148,-170.0705261,-225.4562823,-192.8875224,-70.47396065,-6.920381979,0.00742925,1032.008443,,,,
525.6319996,2053,-0.081154189,259.1110262,523.3403699,365.1048105,1823.35462,162.7291917,1.72E-05,30.4382961,74.64491821,32.75856867,-145.8613345,168.3295115,52.43718447,62.55906141,0.007501444,1053.944965,,,,
525.6399996,2053,-0.080309866,-38.09069376,-83.15784329,-62.2039225,1021.644107,-79.55778593,1.72E-05,-80.71678229,-42.44638557,221.4144966,846.4214083,20.39294305,86.51563882,-77.72202996,0.007572789,1918.844247,,,,
525.6479996,2053,-0.079466756,11.95382917,-62.42817623,13.08000345,911.5347999,46.07666077,1.72E-05,112.864945,2.258338961,-261.4466248,-818.5240591,-125.7671482,-100.0373248,66.45641993,0.007644134,597.1085686,,,,
525.6559996,2053,-0.078624875,241.1629882,535.6546255,363.0224539,2006.255845,89.69593432,1.72E-05,-83.81133552,32.95025408,345.8157542,888.4973468,224.7051226,159.421905,-41.00827639,0.007715639,1980.534248,,,,
525.6639996,2053,-0.077784238,-183.0085851,-452.2799089,-267.270889,422.2323253,-118.0694662,1.72E-05,39.33029358,-55.46016091,-149.7924731,-208.1872253,-211.7984964,-76.31997031,-11.15730469,0.007785451,1160.293883,,,,
525.6719996,2053,-0.076944863,246.7713087,509.9840724,364.8645135,1894.186474,149.0105902,1.72E-05,22.74192925,74.16080712,33.14710333,-150.8577938,145.6928739,44.71294188,57.46486651,0.007854997,1157.015318,,,,
525.6799996,2053,-0.076106767,-46.25492733,-90.21460647,-62.82202546,1091.569492,-86.87956333,1.72E-05,-74.17072931,-39.16616617,223.8661369,859.4800741,16.42524828,90.40983913,-72.66710985,0.007923822,2029.537617,,,,
525.6879996,2053,-0.075269964,-0.691826564,-72.7625824,10.83015337,966.7496277,40.30413898,1.73E-05,112.0914816,9.30540776,-261.5186398,-811.7471062,-120.1975336,-94.34430792,72.1685484,0.007992944,688.694079,,,,
525.6959996,2053,-0.074434472,228.3239915,538.5054599,370.7493245,2077.053625,92.93206185,1.73E-05,-87.82696199,37.64622111,344.5731765,897.0092411,229.6325603,166.480928,-42.78230142,0.008062385,2067.58574,,,,
525.7039996,2053,-0.073600306,-193.8442131,-442.4605494,-247.8705042,506.1604137,-103.5325596,1.73E-05,47.33877072,-57.50825412,-139.0536015,-173.4369045,-202.6152792,-65.17390982,-14.38535272,0.008129429,1277.709409,,,,
525.7119996,2053,-0.072767483,244.4485117,531.001457,400.4077547,1998.419306,168.633601,1.73E-05,26.08074701,71.59574338,49.675541,-125.4913712,158.3516452,50.90861466,48.28116296,0.008196929,1283.03807,,,,
525.7199996,2053,-0.071936018,-40.96322695,-57.51826855,-16.84868915,1220.278615,-69.26398246,1.73E-05,-84.28727676,-32.12454559,250.0401244,904.4433628,30.4944674,98.66096577,-81.6495162,0.008264144,2180.645586,,,,
525.7279996,2053,-0.071105927,-2.933161688,-62.63334913,40.35875913,1069.216559,51.87492506,1.73E-05,105.7796929,13.86120672,-244.4453974,-778.7447587,-119.7119911,-91.25640607,69.85381299,0.008331008,837.9520706,,,,
525.7359996,2053,-0.070277225,231.9803392,541.0136468,385.6116288,2170.75205,98.82565453,1.73E-05,-88.85811097,40.33102435,350.8120031,916.1144913,225.6508266,161.2145507,-45.45932537,0.00839781,2208.183785,,,,
525.7439996,2053,-0.069449929,-181.339031,-428.5008715,-222.1615186,617.0627356,-97.40787016,1.73E-05,47.09891999,-48.22913983,-126.2298885,-137.5077054,-196.6414122,-63.94786994,-7.004963763,0.008462836,1429.140159,,,,
525.7519996,2053,-0.068624053,251.6152658,546.9254979,432.3850716,2123.569536,176.7460929,1.73E-05,19.51110043,67.64978992,64.30092141,-99.80523385,155.5350012,49.87148357,57.35106239,0.008527811,1447.430924,,,,
525.7599996,2053,-0.067799614,-38.58993504,-58.5529861,-8.681830926,1326.151811,-65.12987436,1.73E-05,-83.20958341,-41.87669263,264.1281426,937.8213056,20.17634958,91.62963593,-82.91172394,0.008592402,2363.586452,,,,
525.7679996,2053,-0.066976626,4.346122687,-62.50338173,53.50094727,1163.036091,59.90182761,1.73E-05,126.7085995,20.03896009,-231.341593,-760.9131667,-110.32629,-91.42229192,80.52824545,0.008656453,991.7789628,,,,
525.7759996,2053,-0.066155105,243.3137851,568.5941997,431.3435413,2310.13496,106.6403399,1.73E-05,-91.12145234,35.50917885,376.5874643,942.0568755,250.6890373,165.3288534,-35.22622611,0.008720231,2378.940238,,,,
525.7839996,2053,-0.065335065,-181.9435807,-429.4607524,-201.565125,720.5367603,-108.4594485,1.73E-05,32.62535655,-68.7152554,-110.1600778,-103.5988359,-191.0517,-70.76004786,-13.66131787,0.008784461,1617.932056,,,,
525.7919996,2053,-0.064516523,256.4228188,525.9868516,432.9678606,2182.039157,163.0656653,1.73E-05,29.40039283,67.63704709,52.20911987,-111.828765,160.7946586,43.06738828,58.34492614,0.008847348,1571.529244,,,,
525.7999996,2053,-0.063699491,-23.8928477,-55.82257249,18.6090638,1421.665924,-72.48748934,1.73E-05,-92.87369942,-43.38620819,261.9694475,947.5505949,50.37423222,94.17469936,-80.82977929,0.008909132,2498.650238,,,,
525.8079996,2053,-0.062883987,10.69482475,-71.75944736,75.48810691,1250.139154,50.87735504,1.73E-05,98.98797577,-6.426736185,-232.4762993,-748.732969,-94.94977666,-102.3926576,65.56370896,0.008972017,1154.189072,,,,
525.8159996,2053,-0.062070023,259.2501834,549.439622,434.986136,2374.393711,103.6924755,1.73E-05,-98.97148037,28.85332751,368.0647681,930.6055007,257.2961428,151.7895082,-45.82893204,0.00903267,2515.430913,,,,
525.8239996,2054,-0.061257615,-168.4563325,-450.7173947,-199.5415569,766.8460197,-111.1902958,1.73E-05,21.64904788,-55.03384537,-114.2860562,-113.5631795,-173.0695863,-78.5734244,-14.62408638,0.009092988,1732.417622,,,,
525.8319996,2054,-0.060446778,259.6168217,507.4145245,436.6169415,2216.405329,159.3887373,1.73E-05,12.46144484,74.0584482,49.62650921,-141.7602999,169.2089027,26.76186464,53.6855321,0.009153895,1666.971155,,,,
525.8399996,2054,-0.059637525,-22.10877389,-91.39400446,-5.734100451,1409.458099,-82.32666748,1.73E-05,-91.85254709,-26.04088336,261.8061777,918.1725616,46.78005712,82.98324379,-78.00933172,0.009213861,2572.786816,,,,
525.8479996,2054,-0.058829872,0.514745251,-136.7512797,24.1873008,1162.360312,33.52684957,1.73E-05,111.9457178,29.70384833,-247.9034136,-812.6141056,-92.45483199,-100.7534427,91.52006264,0.009273739,1145.151048,,,,
525.8559996,2054,-0.058023832,245.789315,514.5404129,409.5702732,2303.793211,95.91938876,1.73E-05,-92.12146068,60.68733308,354.5535885,859.4733949,271.9381734,163.2617872,-15.68569426,0.009332617,2470.046131,,,,
525.8639996,2054,-0.057219419,-184.2446571,-488.6610859,-230.6712312,672.0198995,-117.8217904,1.73E-05,28.869317,-40.18753083,-122.199853,-167.3380718,-173.2109373,-64.53063614,0.221972275,0.009391683,1701.131269,,,,
525.8719996,2054,-0.056416648,248.3006049,466.3725919,406.3180756,2100.341931,158.4491937,1.73E-05,25.38805565,89.59566782,31.35734034,-225.4358158,178.8024901,43.55352374,72.55948737,0.009450444,1589.936528,,,,
525.8799996,2054,-0.055615532,-31.74512788,-89.24293311,6.114994096,1357.540781,-77.28766583,1.73E-05,-102.1299121,-19.30991785,252.681475,874.2663373,75.3138169,101.202259,-72.34639059,0.009508112,2527.44676,,,,
525.8879996,2054,-0.054816086,-14.839491,-143.8570986,24.75310636,1094.401003,30.57182286,1.73E-05,89.17103673,21.85552858,-268.4719721,-844.7122181,-96.93823761,-96.4139299,71.59645767,0.009565191,1133.428498,,,,
525.8959996,2054,-0.054018323,242.5939699,499.20149,391.9180323,2216.121531,98.39972041,1.73E-05,-97.89640165,66.14437092,326.883362,808.0059044,275.86296,168.9928685,-21.4124472,0.009622353,2422.153649,,,,
525.9039996,2054,-0.053222256,-190.5236864,-507.4995702,-250.9274733,582.2141363,-115.6744312,1.73E-05,22.65669468,-33.35894433,-138.8174254,-197.4534422,-143.3200961,-55.81962482,3.140104675,0.009679226,1647.86116,,,,
525.9119996,2054,-0.0524279,234.5202089,435.5492972,376.802419,1991.466092,152.6586271,1.73E-05,16.87256568,90.03635323,8.804357412,-267.2727412,190.8591831,38.17110122,64.75919228,0.009734094,1523.185967,,,,
525.9199996,2054,-0.051635268,-43.4222767,-124.0382964,-28.35852991,1238.326262,-84.56640369,1.73E-05,-101.8543767,-12.8745248,234.9910676,832.4831758,87.98152782,94.1532875,-77.83918955,0.009789836,2432.795389,,,,
525.9279996,2054,-0.050844373,-33.31088917,-191.4584632,-9.518672989,952.6461259,21.26366423,1.73E-05,90.71315664,23.35495992,-282.949994,-901.4613386,-76.87373602,-104.3020026,69.90162465,0.009845382,1006.26728,,,,
525.9359996,2054,-0.050055229,226.0749511,462.4716543,371.0668533,2085.073592,87.82465714,1.73E-05,-100.1842381,58.69825215,317.3095326,750.4313006,290.2377418,155.3635818,-30.70857456,0.009898614,2299.587666,,,,
525.9439996,2054,-0.049267848,-208.6624352,-548.252556,-273.6535763,433.7094926,-126.5959908,1.73E-05,25.52569101,-38.19684011,-142.5257931,-250.5348042,-136.4502305,-69.92004655,1.147781854,0.009953038,1518.408855,,,,
525.9519996,2054,-0.048482245,214.9080805,393.9758574,355.1885475,1831.272444,146.3468936,1.73E-05,18.41208325,80.04702985,2.216631111,-348.7810417,190.9834612,28.35738426,74.2817926,0.010007047,1358.772229,,,,
525.9599996,2054,-0.047698431,-59.73655785,-159.3183029,-55.44294727,1077.381846,-94.89483663,1.73E-05,-105.56733,-28.23449118,233.7640089,773.1047376,81.89298028,89.20259946,-72.52029349,0.010059853,2280.602384,,,,
525.9679996,2054,-0.04691642,-56.65017326,-245.7586034,-61.06819549,744.3599761,6.384665124,1.73E-05,106.060956,24.61580868,-292.1886184,-976.2804128,-86.99637284,-113.9097252,86.94825698,0.010112765,813.3936309,,,,
525.9759996,2054,-0.046136224,202.3233104,417.4360085,320.7158736,1879.546791,80.2570351,1.73E-05,-78.59080874,62.18695902,300.8258242,659.2871599,280.0410198,143.487224,-10.38716755,0.010165131,2068.093872,,,,
525.9839996,2054,-0.045357857,-230.51921,-596.3273575,-331.4664792,207.8736408,-134.1709345,1.73E-05,44.8805811,-37.88757906,-160.7066451,-322.8956624,-149.5233809,-74.9458286,12.74410296,0.01021725,1283.909939,,,,
525.9919996,2054,-0.044581331,194.5968892,340.3529726,290.3345295,1571.749635,139.4521264,1.73E-05,49.57337999,100.7612724,-17.27959711,-440.2011174,193.2476296,32.51617431,98.56499722,0.010268053,1079.848324,,,,
525.9999996,2054,-0.043806658,-77.31688326,-207.5870804,-121.040623,806.3050112,-100.3535485,1.73E-05,-75.4642487,-2.00526622,220.3291683,691.3203318,94.30549592,97.56259732,-40.4850541,0.010318584,1984.02332,,,,
526.0079996,2054,-0.043033851,-77.37378934,-307.9034812,-136.9768315,430.1205207,-2.068741724,1.73E-05,131.6511126,43.24459262,-311.1523638,-1071.527973,-81.61123583,-105.2237748,118.313219,0.010369509,480.8966291,,,,
526.0159996,2054,-0.042262922,187.8717302,377.9908145,268.9045301,1587.309777,74.60729641,1.72E-05,-62.95379858,81.30012617,291.8438583,563.9506203,293.7383002,158.5714833,17.5643493,0.010419821,1712.79566,,,,
526.0239996,2054,-0.041493884,-250.6134299,-622.2998832,-362.5455301,-54.2670901,-143.8237443,1.72E-05,34.31581127,-34.07941759,-165.1854159,-383.203798,-147.4046196,-68.68610498,19.04198479,0.010469424,963.285632,,,,
526.0319996,2054,-0.040726748,164.7780043,304.5253651,255.7313967,1303.982407,126.3887098,1.72E-05,31.79488924,90.25703921,-41.52713294,-517.1632383,171.1145712,19.97726712,85.13044157,0.010518248,759.9160066,,,,
526.0399996,2054,-0.039961527,-102.7979616,-239.3617676,-155.2063136,542.7830302,-108.0182198,1.72E-05,-80.51925507,-3.725779802,199.3454305,622.9270659,84.16424039,90.06054444,-51.19358462,0.010566884,1661.63194,,,,
526.0479996,2054,-0.039198233,-103.8470246,-337.9771265,-163.6976943,175.6229961,-7.55537885,1.72E-05,118.723341,39.40990567,-327.9163397,-1133.965238,-76.88431347,-106.2069112,107.7531627,0.010615696,163.1300959,,,,
526.0559996,2054,-0.038436877,164.3613503,353.5587534,243.9814239,1350.371471,66.12065324,1.72E-05,-86.77895378,70.00216988,274.748477,506.8969382,292.3890718,153.8347246,-2.19391703,0.010663174,1412.448117,,,,
526.0639996,2054,-0.037677472,-271.1964232,-665.1645138,-416.6885442,-335.7190782,-161.4640644,1.72E-05,39.08837355,-32.83493408,-184.4550548,-432.2501424,-148.581095,-70.56328414,17.50234007,0.010709846,652.585212,,,,
526.0719996,2054,-0.036920028,157.9280929,271.1200799,207.2865682,1022.182485,115.4976424,1.72E-05,67.06963018,103.3499569,-63.38900347,-581.9820432,189.8461958,28.07819239,113.2799843,0.010756577,410.0376481,,,,
526.0799996,2055,-0.036164558,-102.822752,-240.1547407,-168.1716059,329.5133528,-109.8220189,1.72E-05,-69.69205892,-1.399140997,198.3750346,608.2590135,104.0181908,100.8802933,-31.09502261,0.01080279,1368.766454,,,,
526.0879996,2055,-0.035411073,-115.4734104,-348.5854503,-182.9626967,-41.30882772,-15.71736949,1.72E-05,117.6915995,28.42746507,-333.5628853,-1134.046879,-89.28393174,-109.0638455,111.1688273,0.010849314,-88.1287383,,,,
526.0959996,2055,-0.034659585,163.8681251,351.3131097,225.1336575,1143.201837,61.83395043,1.71E-05,-62.76691303,71.54958521,257.7866363,496.6514413,279.9890656,151.5872138,8.377580941,0.010894496,1155.238584,,,,
526.1039996,2055,-0.033910104,-270.8284097,-662.9078294,-424.6560157,-521.1116921,-164.9836142,1.71E-05,44.6372786,-24.80606664,-188.8174043,-419.22234,-145.7870351,-66.87180703,25.19413405,0.010939354,422.7485443,,,,
526.1119996,2055,-0.033162642,150.3911212,274.7178471,205.51975,853.7512499,107.9572596,1.71E-05,39.4042334,95.57804125,-64.54150344,-580.7385963,183.51415,23.23357398,100.9569097,0.010984754,198.2396456,,,,
526.1199996,2055,-0.032417211,-103.6973194,-222.8913211,-165.6034616,186.8465618,-115.858742,1.71E-05,-84.98152305,-10.50603446,202.0590905,627.5272681,95.59724888,100.4750698,-46.99452454,0.011029009,1190.264176,,,,
526.1279996,2055,-0.03167382,-121.2909153,-337.917027,-182.3390879,-187.2426267,-19.81775157,1.71E-05,119.0945954,26.44309557,-331.5397322,-1116.714765,-91.50301492,-103.5603446,108.9082515,0.011071727,-254.4416514,,,,
526.1359996,2055,-0.030932481,152.8711571,373.170843,235.4867243,1030.712583,59.96451606,1.71E-05,-82.22115564,60.58271405,259.8198488,507.5405001,279.9155546,155.237536,0.246722022,0.011114793,1009.14444,,,,
526.1439996,2055,-0.030193206,-285.5806769,-640.9629308,-415.7805409,-616.7374469,-166.9817378,1.71E-05,20.96192849,-42.78803635,-188.1223405,-387.201563,-158.0150747,-64.40387235,7.26876329,0.011158267,315.0836586,,,,
526.1519996,2055,-0.029456004,142.9896895,295.4909102,214.7571201,762.0778269,113.1396382,1.70E-05,31.47038282,83.48122523,-78.95186483,-563.1464037,169.6747317,22.69080674,93.28991163,0.011200569,87.376066,,,,
526.1599996,2055,-0.028720886,-97.53896223,-195.796457,-159.4029645,104.5310819,-110.4821615,1.70E-05,-94.43607245,-22.69922032,185.698305,659.3650879,96.3778154,102.5329764,-56.5715659,0.011242864,1095.775068,,,,
526.1679996,2055,-0.027987863,-112.0813446,-320.3115667,-188.2930661,-289.641978,-17.2898872,1.70E-05,120.8807858,16.88542386,-350.0072412,-1091.556831,-88.97398612,-101.9451994,96.40624943,0.01128393,-358.8030584,,,,
526.1759996,2055,-0.027256945,175.897281,409.6563219,248.9040355,958.9188113,76.41201042,1.70E-05,-67.66583934,57.09287427,251.8093423,526.2821565,286.9518952,156.5319874,-9.135423555,0.011324238,899.43955,,,,
526.1839996,2055,-0.026528142,-262.1976136,-613.1345511,-405.2758554,-692.749065,-152.0889855,1.70E-05,43.99785958,-52.23450247,-183.8303347,-353.3919923,-155.618201,-58.98400298,-9.527342722,0.011365103,232.1672961,,,,
526.1919996,2055,-0.025801466,154.2980227,303.2258001,209.9744865,661.9980546,118.0903301,1.70E-05,64.92770165,76.88424073,-79.87281594,-560.3905089,160.0807417,27.81352033,78.41274391,0.011405487,-16.64670851,,,,
526.1999996,2055,-0.025076926,-83.54629299,-185.5418883,-158.3698989,20.45710979,-104.8193303,1.69E-05,-67.66445711,-24.02848235,191.0552728,661.1640872,80.8187028,104.2536662,-68.78572311,0.011444657,985.4586627,,,,
526.2079996,2055,-0.024354532,-93.76948762,-328.0457298,-194.925102,-395.9802612,-11.35481612,1.69E-05,143.2063981,14.13206795,-350.5640829,-1102.756223,-114.4180311,-105.2032322,83.06223102,0.011483701,-478.6094633,,,,
526.2159996,2055,-0.023634294,204.9264527,409.8283498,244.3137065,855.0858675,89.45185341,1.69E-05,-43.96367621,66.18605208,249.141623,510.2760669,276.3379201,162.0176699,-10.36933753,0.011522661,770.7372031,,,,
526.2239996,2055,-0.022916222,-229.9849421,-608.2830431,-412.3435065,-802.516394,-133.5921439,1.69E-05,61.26222293,-32.08575835,-180.2622392,-348.1317457,-152.2065728,-46.96201469,-1.149331253,0.011561174,102.8170184,,,,
526.2319996,2055,-0.022200326,188.5554266,317.8909843,212.7448949,559.1720337,143.531563,1.69E-05,82.31911122,92.111851,-80.84002128,-570.4440416,159.09689,36.16508633,82.27722448,0.011599611,-167.3292677,,,,
526.2399996,2055,-0.021486615,-50.21944137,-147.3071256,-133.911749,-40.36558229,-80.27194074,1.69E-05,-54.77313552,-25.99271369,200.5268243,682.9701291,79.18850212,114.7116049,-76.79942365,0.01163674,879.1935148,,,,
526.2479996,2055,-0.0207751,-77.49646433,-310.300494,-188.1819562,-478.324533,-3.320732449,1.68E-05,140.5902041,6.298970053,-344.5417274,-1076.344347,-128.7344426,-104.5695999,70.90867854,0.011673277,-569.3618883,,,,
526.2559996,2055,-0.02006579,216.0508766,424.3100385,244.2756572,778.161718,88.80600513,1.68E-05,-50.51022177,64.79974732,250.8201147,515.2347549,258.8778282,158.5483106,-23.39060636,0.011709329,652.5864776,,,,
526.2639996,2055,-0.019358693,-224.8662859,-593.2126206,-407.0938811,-860.7752953,-140.6010689,1.68E-05,55.29886005,-49.0778765,-171.3016232,-327.2965255,-169.8365474,-48.85123152,-25.49228369,0.011745538,10.75625787,,,,
526.2719996,2055,-0.01865382,189.8019042,315.2789924,206.0215544,484.6757554,137.3548619,1.68E-05,76.18076544,78.63597257,-78.33251809,-561.665816,138.7149287,28.69357938,65.79412085,0.01178168,-253.7858022,,,,
526.2799996,2055,-0.01795118,-46.5321691,-156.7326602,-151.5418255,-122.7785126,-82.25395069,1.67E-05,-58.41556248,-8.799723013,205.9969566,699.2092954,76.73001612,116.7000878,-72.45983745,0.01181732,781.9649796,,,,
526.2879996,2055,-0.017250782,-79.91624261,-324.1421312,-204.5417196,-561.7781675,-6.070031026,1.67E-05,139.5539327,11.82329327,-339.8186352,-1064.944094,-129.072115,-100.4003771,75.16212242,0.011852506,-671.1187689,,,,
526.2959996,2055,-0.016552635,218.8091972,425.003987,244.6368739,726.6168927,92.43655795,1.67E-05,-57.39651233,52.10818446,256.2127314,530.4353141,253.287128,153.3729925,-22.80505911,0.011886847,577.0159896,,,,
526.3039996,2055,-0.015856748,-222.3269416,-595.615615,-408.5286988,-914.9093693,-137.7624835,1.67E-05,45.72574273,-46.15228864,-162.4365537,-290.3127241,-171.344604,-57.12852069,-17.68847488,0.011920273,-39.57454107,,,,
526.3119996,2055,-0.01516313,185.4560972,309.9811967,198.023339,417.2423433,134.8682213,1.67E-05,73.12909422,81.70287693,-72.88409056,-552.1335667,142.0464631,21.16896931,76.63343041,0.011953942,-324.6119469,,,,
526.3199996,2055,-0.014471789,-47.35379281,-141.6982408,-152.7395973,-172.94304,-81.05911783,1.66E-05,-63.98000238,-16.3145643,221.1824691,711.2241404,89.23636212,112.9655915,-69.05109009,0.011987623,716.5291438,,,,
526.3279996,2055,-0.013782735,-82.43425426,-305.4493469,-204.2828823,-619.8899406,0.947464902,1.66E-05,137.0311719,8.659565296,-326.8764259,-1051.509976,-120.7126681,-103.1658921,75.87046039,0.012019783,-729.0629866,,,,
526.3359996,2056,-0.013095976,219.3807453,450.4382735,248.2044835,675.4229779,99.92923984,1.66E-05,-55.88343858,49.70395057,255.737914,535.210746,251.6796497,157.3035638,-20.23065216,0.012052107,519.4784178,,,,
526.3439996,2056,-0.012411521,-215.717662,-571.8836725,-408.5685922,-970.5846824,-134.0517334,1.66E-05,45.88007054,-49.52758998,-173.7404504,-285.9629713,-179.5194726,-45.74712918,-15.20577549,0.012083772,-103.9989626,,,,
526.3519996,2056,-0.011729377,197.4571809,340.8188577,211.9190507,382.939841,140.4417171,1.65E-05,66.28334407,77.26656745,-89.3845014,-555.4195777,129.0393291,29.10619797,72.91147928,0.012115149,-385.3071211,,,,
526.3599996,2056,-0.011049554,-31.36318092,-103.267211,-124.0102474,-166.7427095,-75.60625173,1.65E-05,-81.05430546,-29.54083904,209.5702143,737.8684541,65.08306461,114.2881405,-83.74514937,0.012146098,706.9914712,,,,
526.3679996,2056,-0.010372059,-70.16967218,-288.1569671,-189.8146358,-633.9369249,6.105886231,1.65E-05,132.0001356,-1.745778848,-341.1973763,-1030.682948,-152.5594273,-104.6400467,65.59656485,0.01217714,-739.4311175,,,,
526.3759996,2056,-0.009696901,231.1280798,466.283331,259.9220287,665.1001759,108.7894743,1.65E-05,-52.03161355,49.06659821,248.5757286,548.3220411,235.5618784,156.9303705,-24.16770489,0.012207297,496.8044529,,,,
526.3839996,2056,-0.009024088,-213.3554568,-565.9061038,-404.6999787,-984.6127419,-126.126552,1.64E-05,46.10138835,-55.93887432,-173.201563,-261.5695357,-188.9871696,-51.21302858,-20.48885104,0.012236492,-115.1674646,,,,
526.3919996,2056,-0.008353627,191.5350531,341.5363276,208.1014071,358.2414606,152.4415565,1.64E-05,67.31006097,73.35471521,-91.98565729,-552.6078956,117.6885426,26.00524801,73.25201125,0.012266064,-414.3428786,,,,
526.3999996,2056,-0.007685528,-36.84623174,-91.42100984,-125.2518457,-178.6216328,-65.40331104,1.64E-05,-94.50248498,-26.13712442,211.1877768,759.02751,59.3674782,123.5331499,-84.88623369,0.012295116,692.3912409,,,,
526.4079996,2056,-0.007019796,-79.70480697,-277.9491389,-190.8524773,-646.2403863,11.47411341,1.64E-05,116.1583131,-9.154508422,-349.712052,-1013.372796,-159.0583324,-97.41987436,61.77798221,0.012324194,-748.8865381,,,,
526.4159996,2056,-0.006356441,226.679973,502.7343319,280.4894223,703.7378837,118.0809434,1.63E-05,-58.22293162,29.07243959,241.433504,569.4131808,228.575284,159.650286,-24.15401303,0.012351562,512.8273437,,,,
526.4239996,2056,-0.00569547,-215.7440239,-515.6299219,-369.6022475,-907.5304729,-119.3555682,1.63E-05,22.92447901,-81.02816713,-169.4137914,-200.7445862,-204.3805519,-55.06931404,-29.10418486,0.012378417,-36.16359148,,,,
526.4319996,2056,-0.00503689,197.1450856,388.024217,242.956995,440.8420671,161.5639835,1.63E-05,54.02066831,52.8927357,-96.43643802,-502.2899611,96.79469627,9.086525652,59.13544588,0.012405945,-321.701461,,,,
526.4399996,2056,-0.004380709,-23.14218866,-50.18514071,-96.36397622,-87.24412826,-56.51422329,1.63E-05,-78.13397969,-37.12869985,211.910907,819.5075541,48.30646003,106.2281177,-85.05166421,0.012433028,803.9581933,,,,
526.4479996,2056,-0.003726934,-75.12915195,-258.8673721,-171.7565258,-571.2902801,12.32235849,1.62E-05,117.3392868,-10.06431051,-348.0906625,-963.7558105,-164.8692495,-111.9131498,68.9323204,0.01245953,-643.0049,,,,
526.4559996,2056,-0.003075572,229.8539562,512.3494233,292.0665203,766.7123794,118.0233737,1.62E-05,-73.32164435,42.76540226,238.6804976,596.5285746,226.8277408,150.2918426,-29.03991683,0.012484977,601.2318327,,,,
526.4639996,2056,-0.002426631,-219.217216,-530.4075278,-381.1083954,-889.747925,-124.8078047,1.62E-05,19.51605333,-57.50353968,-174.7611606,-182.7956878,-208.2479243,-57.31745652,-34.50425949,0.012509921,32.43445692,,,,
526.4719996,2056,-0.001780118,188.5856558,365.1486407,229.7858476,436.6378403,155.6466483,1.61E-05,51.41336755,74.52217978,-106.4387151,-525.4196143,96.79326252,7.861853182,65.69330601,0.012535846,-305.2982589,,,,
526.4799996,2056,-0.001136039,-31.70380116,-64.75328628,-104.3518889,-88.44329741,-58.26363043,1.61E-05,-89.90825142,-18.50756122,215.8471498,805.5552221,63.71346906,111.2254486,-84.18745466,0.012561031,818.6137788,,,,
526.4879996,2056,-0.000494402,-91.73547824,-281.87167,-185.8289616,-602.4486938,13.7688881,1.61E-05,109.3674022,9.903360016,-345.110088,-986.9649431,-150.5222561,-108.6146257,64.26292578,0.01258493,-652.7174285,,,,
526.4959996,2056,0.000144787,220.6491895,510.5949051,293.6787278,752.3101271,127.6512515,1.61E-05,-72.39812101,58.18496754,240.0934766,558.5611941,238.4785435,149.1158767,-28.02094015,0.01260864,562.6033343,,,,
526.5039996,2056,0.00078152,-225.8727067,-529.4204939,-378.5806815,-906.3701337,-115.8662809,1.60E-05,28.14018532,-54.12665439,-166.3288756,-194.0515212,-195.9772199,-48.96920896,-30.33243989,0.012631664,8.876058532,,,,
526.5119996,2056,0.001415792,174.5104429,365.6598321,240.5231069,421.8694744,165.283823,1.60E-05,54.60546604,69.32747659,-108.9085309,-547.633444,101.4620254,18.70984565,70.33799103,0.012655162,-345.8800306,,,,
526.5199996,2056,0.002047595,-43.80656559,-56.0830441,-87.71492384,-82.85979505,-50.52049259,1.60E-05,-95.88525949,-27.91094887,213.8549158,793.363626,55.98977184,112.3545146,-88.69181797,0.012678067,788.6611099,,,,
526.5279996,2056,0.002676924,-102.9695397,-301.9077734,-200.5606727,-644.2328746,6.36713711,1.59E-05,111.402647,5.716934774,-343.3351641,-999.3846914,-156.9039229,-111.924662,58.57322178,0.012700679,-679.8742004,,,,
526.5359996,2056,0.003303771,217.2066729,501.8074172,287.0880997,720.9882695,120.5585437,1.59E-05,-72.05087335,71.76519302,248.6256541,542.0107882,257.7907596,153.4928277,-22.0801082,0.012723005,511.2301925,,,,
526.5439996,2056,0.003928131,-227.5986909,-531.3601374,-376.9994139,-924.4731048,-113.9902026,1.59E-05,26.14348757,-31.95099233,-146.0673975,-190.9444082,-172.980532,-46.24542203,-23.91170592,0.012743524,-34.907751,,,,
526.5519996,2056,0.004549997,169.8609376,349.8647236,230.4382073,384.4651166,167.4336053,1.58E-05,58.26454766,84.38655688,-86.86406659,-556.8648593,119.4571707,12.010278,73.81256751,0.012764323,-386.0278905,,,,
526.5599996,2056,0.005169363,-44.80579331,-46.38816796,-70.56418548,-78.49250552,-50.50766315,1.58E-05,-97.77362299,-28.11496049,241.1180402,804.6578902,81.46571142,106.6736948,-86.24631633,0.012785588,770.4313194,,,,
526.5679996,2056,0.005786224,-104.6546844,-288.24657,-168.9575192,-624.4477046,6.890448395,1.58E-05,111.0423735,-3.185368193,-327.7614076,-982.9878777,-149.6934382,-123.9107997,59.51300638,0.012806026,-682.7989311,,,,
526.5759996,2056,0.006400572,220.1450306,513.125824,317.7573577,753.0309108,124.5032215,1.57E-05,-68.80498908,63.05053232,257.2790725,558.3699964,257.46375,138.8035981,-23.55877194,0.012825507,528.3946167,,,,
526.5839996,2056,0.007012403,-227.1969266,-526.6580308,-351.1223287,-890.0359946,-118.292079,1.57E-05,27.35110762,-47.49613588,-136.2963546,-155.9585337,-169.8110409,-58.49607516,-27.91873824,0.012844565,5.719934346,,,,
526.5919996,2057,0.007621711,173.3566943,348.9809938,249.1602202,410.6473817,163.4550626,1.57E-05,62.87581567,76.1914269,-88.91825902,-549.1215198,118.2181212,-2.86534956,77.40247792,0.01286317,-372.8749599,,,,
526.5999996,2057,0.008228489,-35.32037864,-37.47795439,-49.71098914,-32.50857418,-47.44502238,1.57E-05,-98.08096885,-23.62758021,250.1547608,830.1568474,87.03601119,99.67330247,-78.6482334,0.012881681,797.9112812,,,,
526.6079996,2057,0.008832732,-109.8968145,-290.3785604,-154.1694578,-588.0303163,4.920472379,1.56E-05,103.5956015,-3.68990662,-318.037868,-954.4017174,-156.6883401,-131.6900159,61.30085052,0.012900691,-644.6474677,,,,
526.6159996,2057,0.009434435,216.1704683,519.3081323,335.8104047,799.8663113,128.0205347,1.56E-05,-70.72737293,62.13535795,261.4059851,566.9126152,243.3139691,126.844614,-18.96212547,0.012918992,551.8231959,,,,
526.6239996,2057,0.010033592,-235.1571396,-518.7688717,-339.8277197,-846.9320174,-116.5014516,1.55E-05,22.3078153,-48.37097397,-125.1922292,-129.1822941,-175.5849999,-65.84635562,-23.0525246,0.012936244,47.47190757,,,,
526.6319996,2057,0.010630199,155.8890144,351.5932864,251.3405161,437.8941975,159.0793581,1.55E-05,50.39702798,79.84189163,-87.02167258,-538.0481721,108.587755,-5.690703247,72.61507488,0.012953175,-343.6020613,,,,
526.6399996,2057,0.011224248,-47.08171304,-29.25981772,-47.42884312,-0.150830198,-46.07851027,1.55E-05,-94.34513688,-7.530549182,251.5676709,844.648883,83.32014712,106.7487813,-79.3579956,0.012969613,818.1393628,,,,
526.6479996,2057,0.011815737,-125.4392033,-299.4359139,-165.4016355,-586.9558842,7.216144383,1.54E-05,122.9813727,9.862842965,-319.5353581,-946.0653017,-150.2998692,-120.5367057,73.77733388,0.012985533,-634.349633,,,,
526.6559996,2057,0.012404658,204.4453906,516.0782813,329.6708283,802.2225065,131.0938514,1.54E-05,-65.93259063,70.44354491,259.6147731,563.7044824,258.523473,140.8088164,-8.105456408,0.013001976,553.2653321,,,,
526.6639996,2057,0.012991008,-238.8048974,-520.1517161,-340.3156203,-845.7290998,-112.0334898,1.54E-05,22.95385107,-38.58110031,-121.4536895,-117.5983825,-156.6126362,-50.27425995,-13.56459591,0.013018335,54.0247752,,,,
526.6719996,2057,0.013574782,156.8743645,345.9194583,251.898782,426.5139909,166.1338793,1.53E-05,62.20961965,86.10762719,-90.57818414,-542.1098263,128.4136487,4.364450246,92.55405781,0.013033027,-355.5398111,,,,
526.6799996,2057,0.014155974,-43.47097604,-16.17567017,-31.32787857,12.7492049,-41.67869737,1.53E-05,-102.4969532,-10.84507358,251.8468762,858.1130646,104.3632229,114.312785,-68.32974075,0.013047428,825.0407431,,,,
526.6879996,2057,0.014734579,-124.8941878,-282.3988073,-140.4130126,-570.5814714,7.584739492,1.53E-05,97.82667399,-2.586634031,-324.0654641,-930.9199435,-141.3259517,-120.1323243,64.9237343,0.013061536,-616.1530163,,,,
526.6959996,2057,0.015310594,207.5669313,538.3054904,356.6979261,826.7326899,135.9504108,1.52E-05,-81.29631052,55.01386581,254.180732,569.007684,263.7825681,135.8032071,-19.81645878,0.013075432,572.0415947,,,,
526.7039996,2057,0.015884013,-245.7220097,-512.7913787,-329.5505117,-840.1385179,-112.7222614,1.52E-05,17.57041378,-45.93390951,-121.7296837,-105.0214116,-149.8274357,-56.09884971,-19.20175524,0.013089037,75.06712451,,,,
526.7119996,2057,0.016454833,136.9587397,340.5595224,255.9037918,413.2225064,159.8874814,1.52E-05,55.69059528,82.13405312,-100.7012313,-560.0685345,135.1259197,-5.294697796,86.14483796,0.01310146,-368.0720696,,,,
526.7199996,2057,0.017023048,-61.02349802,-18.37933589,-30.45870511,0.38231767,-45.43844128,1.51E-05,-103.0817843,-17.1897591,243.7709306,850.1926062,112.375638,108.354832,-77.35890267,0.013114625,815.3106871,,,,
526.7279996,2057,0.017588654,-145.3236707,-303.365523,-159.863104,-617.4098195,-0.308752592,1.51E-05,112.340118,2.375809714,-333.105709,-942.3477267,-136.2070436,-120.0907504,70.56428682,0.013127262,-648.314977,,,,
526.7359996,2057,0.018151647,189.3276763,523.4679532,342.6077545,788.2357319,122.0661702,1.50E-05,-82.02088616,59.08077635,247.8591035,544.1708334,271.0890617,136.3926561,-17.76646541,0.013138702,517.5404232,,,,
526.7439996,2057,0.018712023,-256.3085398,-526.0056627,-344.3634208,-886.5463599,-128.7760082,1.50E-05,10.30784071,-48.51277198,-123.8079177,-116.0435974,-150.1045173,-55.39289783,-32.2760044,0.013150512,31.52336932,,,,
526.7519996,2057,0.019269777,127.7637872,332.0284073,248.7450001,370.1102909,147.3912868,1.50E-05,46.02132906,81.46611789,-103.2690616,-585.7935963,133.7022793,-1.564762873,79.48351544,0.013162688,-428.3859142,,,,
526.7599996,2057,0.019824906,-73.83825733,-16.74319071,-25.4049461,-6.580628428,-61.0645853,1.49E-05,-138.7491464,-33.37830764,253.7440901,841.7457354,110.2039858,106.5527313,-97.15902993,0.013173335,785.5065255,,,,
526.7679996,2057,0.020377406,-162.5290265,-333.921624,-184.0898708,-673.499894,-20.26366512,1.49E-05,96.5776658,-12.82938462,-335.2874051,-969.4350929,-158.4762423,-135.1003066,49.06390214,0.013183017,-690.6773579,,,,
526.7759996,2057,0.020927273,175.8848243,495.9649742,320.7456453,729.8717913,111.1950957,1.49E-05,-81.86453519,60.98619032,237.8842786,494.7371124,252.0328327,126.4632567,-16.49078688,0.013193634,432.6856162,,,,
526.7839996,2057,0.021474503,-269.338814,-548.4878064,-358.9971504,-934.5147837,-136.571706,1.48E-05,1.014560338,-51.60085578,-123.0508179,-136.7695716,-166.8610868,-61.75166267,-29.18476169,0.013203511,-34.95360618,,,,
526.7919996,2057,0.022019092,122.3245122,299.4675568,222.1938992,287.4061447,145.0055723,1.48E-05,67.80159032,89.73998251,-109.7752783,-623.0883582,115.7731918,-10.94801276,96.43935943,0.013213363,-522.5298452,,,,
526.7999996,2057,0.022561037,-71.41888917,-34.64166809,-42.89840401,-84.55031522,-55.96839214,1.47E-05,-109.9106963,-12.84455053,253.29237,816.4621504,109.6271696,107.8200074,-68.74208257,0.013222463,679.0972194,,,,
526.8079996,2057,0.023100335,-168.2349304,-361.0267778,-208.963468,-777.0987728,-19.18541563,1.47E-05,103.6633105,-0.756850545,-333.6902159,-985.8841947,-155.6697176,-130.9466346,70.03066778,0.013230893,-793.2414501,,,,
526.8159996,2057,0.023636981,174.752257,483.1305282,304.5583146,637.5019316,114.2707991,1.47E-05,-84.40835353,74.54660739,231.7295952,468.827493,266.0020312,131.1037545,1.280612456,0.013239273,313.7740505,,,,
526.8239996,2057,0.024170972,-275.4526736,-549.1885304,-360.7745699,-996.7142069,-139.7944724,1.46E-05,-21.07397837,-58.17079855,-131.1325342,-141.9425398,-160.7978039,-62.73433164,-36.77362034,0.013246461,-124.5677532,,,,
526.8319996,2057,0.024702306,108.462255,269.7448488,194.4401906,185.679318,128.2585528,1.46E-05,51.70905057,74.70750361,-133.7643015,-655.0003718,94.66338971,-24.00399529,78.15069016,0.013254436,-621.4616229,,,,
526.8399996,2057,0.025230979,-75.52322609,-69.99449306,-84.9830362,-209.0570772,-74.55558421,1.45E-05,-113.9667832,-1.450924772,227.5003234,774.7033415,106.8978748,103.8443494,-70.66841407,0.013261943,540.0802321,,,,
526.8479996,2058,0.025756987,-172.7867832,-382.8107074,-231.9188168,-889.8132471,-33.98092792,1.45E-05,95.16423416,2.753978234,-344.6218727,-1015.852027,-143.4626157,-131.2471105,61.11122159,0.013268757,-935.8941194,,,,
526.8559996,2058,0.026280329,170.032335,471.2875553,294.0519694,536.2065117,104.1682831,1.45E-05,-73.69982681,68.01314899,236.9174047,443.3087465,270.9509434,126.3974198,-4.243068744,0.013275494,185.8937649,,,,
526.8639996,2058,0.026801,-284.0809046,-579.8338653,-389.2350923,-1130.73464,-153.858023,1.44E-05,-9.201254503,-53.55869631,-120.1485855,-164.0550213,-155.4275141,-65.57984576,-24.69874415,0.013281583,-263.2658749,,,,
526.8719996,2058,0.027318997,101.2072438,237.9345485,169.853161,43.24782335,119.4038705,1.44E-05,48.27959671,74.63215285,-122.4840883,-695.9627861,106.0854085,-28.07875162,84.81181336,0.013287449,-788.117491,,,,
526.8799996,2058,0.027834319,-75.64396169,-81.31291928,-94.9650749,-326.7465955,-74.50651099,1.43E-05,-107.0127849,2.41238194,252.9910583,754.5420814,125.0301671,106.6512715,-61.06448996,0.013292347,386.4621745,,,,
526.8879996,2058,0.028346963,-187.0382162,-406.4630455,-251.9205475,-1023.402444,-41.70865531,1.43E-05,100.6865621,11.52972131,-330.4637674,-1039.061513,-141.6404382,-129.8545652,76.4500343,0.013296944,-1098.691806,,,,
526.8959996,2058,0.028856925,152.139383,445.7939978,271.0556376,404.746117,91.74939754,1.42E-05,-79.80671862,66.09879578,228.6162608,407.6147358,252.2326341,118.7170646,-8.026915857,0.013302204,12.54121909,,,,
526.9039996,2058,0.029364203,-296.7510999,-601.8431299,-413.8430333,-1263.727016,-167.2012424,1.42E-05,-13.75512781,-50.99704198,-133.7044613,-176.5497392,-168.3712111,-67.14013581,-32.5776379,0.013307396,-428.3442299,,,,
526.9119996,2058,0.029868794,81.18368331,226.1390057,160.194916,-74.37922232,104.4214243,1.42E-05,32.98279682,73.11117506,-144.8467328,-715.6328241,96.94376611,-31.74558483,77.49606333,0.013311566,-959.9069641,,,,
526.9199996,2058,0.030370697,-99.98139896,-94.76705352,-108.7985559,-444.0969143,-94.34067432,1.41E-05,-125.5299203,-16.64840034,219.5734479,743.9569035,99.19936297,91.8438557,-79.67219149,0.013314507,236.4112384,,,,
526.9279996,2058,0.030869908,-203.3893774,-447.0847848,-299.7031309,-1203.584555,-58.94699113,1.41E-05,104.1793232,11.46264548,-370.1535717,-1062.463313,-155.7200939,-133.545094,78.6024356,0.013317215,-1278.202769,,,,
526.9359996,2058,0.031366426,154.7319957,422.3250037,236.3278498,235.7788496,91.65270634,1.40E-05,-65.77105902,86.79200514,204.3802858,372.9230586,276.2546407,136.1839462,18.28078631,0.013321109,-203.6636248,,,,
526.9439996,2058,0.031860249,-291.1366092,-618.2714502,-440.9288812,-1421.518017,-164.332646,1.40E-05,4.932614054,-47.48029795,-148.5004411,-187.6948534,-146.7032076,-51.38163266,-14.24242672,0.013323449,-621.232746,,,,
526.9519996,2058,0.032351373,92.81487556,196.7631446,112.6882613,-259.3248949,105.429752,1.40E-05,64.61204032,74.23814317,-167.0975669,-744.0593145,106.6229591,-20.64153262,92.32531933,0.013325258,-1163.133642,,,,
526.9599996,2058,0.032839798,-69.72868226,-106.2668395,-140.8422126,-594.8168374,-87.41688966,1.39E-05,-92.13056161,-0.720378807,216.8158545,726.6390457,120.0880178,113.9945651,-60.04329236,0.013328199,31.77472655,,,,
526.9679996,2058,0.033325521,-173.49352,-456.5043439,-315.1942583,-1334.596629,-58.75581524,1.39E-05,132.6278941,10.98473188,-359.4312796,-1067.04599,-146.7405628,-118.8319079,80.56946968,0.013329273,-1456.463011,,,,
526.9759996,2058,0.03380854,187.6899933,412.8350814,218.1087138,110.1940721,78.60028507,1.38E-05,-44.98471817,72.5004199,215.5401167,366.4267584,272.4154153,137.4004733,-0.562023374,0.013330184,-355.3848034,,,,
526.9839996,2058,0.034288854,-252.6670349,-627.9765745,-458.1796732,-1546.245716,-182.4998204,1.38E-05,23.75246949,-44.59125868,-130.1568272,-187.4889004,-143.7718606,-42.55098737,-28.2264079,0.013331479,-767.3318035,,,,
526.9919996,2058,0.034766461,129.6854497,188.6679261,108.6138994,-378.8640164,90.99964874,1.37E-05,86.8295619,79.96395807,-148.5553529,-762.6336862,112.3996835,-4.938602739,83.03296225,0.013332085,-1319.986478,,,,
526.9999996,2058,0.035241358,-35.71809957,-112.7853448,-143.7608682,-701.4798621,-105.5324888,1.37E-05,-85.15618024,-10.39293223,235.6852235,726.9771861,126.1956379,128.7457447,-80.23521948,0.013332015,-94.43245044,,,,
527.0079996,2058,0.035713545,-143.1769933,-482.3981329,-334.9930893,-1473.569967,-77.66514118,1.36E-05,147.9096886,8.318573255,-358.4964185,-1082.031029,-149.5849173,-108.9464798,69.88701397,0.01333206,-1606.162608,,,,
527.0159996,2058,0.03618302,228.4991312,413.390075,221.9548192,0.074051647,76.19455472,1.36E-05,-14.7702267,73.96396268,219.0263351,341.3926608,274.2306544,145.2380552,4.694895686,0.013331871,-521.4565176,,,,
527.0239996,2058,0.036649782,-218.1514758,-613.5272436,-447.4430432,-1636.447023,-187.0439575,1.36E-05,37.45645187,-62.61768105,-106.5590523,-169.3112175,-140.6250838,-36.09730507,-25.06356893,0.013330153,-885.2741896,,,,
527.0319996,2058,0.037113828,150.8033812,181.7890113,90.24090113,-508.6608569,80.04998261,1.35E-05,101.5766985,67.30367006,-140.7224151,-771.7870552,102.1946956,-4.072329525,97.1923546,0.01332886,-1469.146714,,,,
527.0399996,2058,0.037575159,-13.01334299,-96.99611609,-144.6632243,-797.7761743,-103.9491288,1.35E-05,-77.64445469,-16.58614199,244.4542785,722.7785454,125.7172415,124.839871,-69.66987049,0.013327769,-245.7762716,,,,
527.0479996,2058,0.038033772,-129.9000374,-455.6587507,-317.8646034,-1543.176475,-72.17385165,1.34E-05,135.9024594,-19.17137278,-340.9158507,-1062.036078,-157.1909317,-120.5849093,59.70099016,0.013326533,-1706.169826,,,,
527.0559996,2058,0.038489667,232.1424256,426.2564297,224.4887023,-78.42005094,79.0448628,1.34E-05,-19.85447558,52.07401719,226.3639468,343.923319,248.74262,139.1138786,3.527041692,0.013324628,-617.325842,,,,
527.0639996,2058,0.038942842,-222.230902,-606.5071169,-442.9282148,-1708.957033,-182.4168767,1.33E-05,28.51049361,-70.97071163,-108.1504264,-165.8316841,-166.7878556,-36.6754595,-22.16407757,0.013322235,-983.357072,,,,
527.0719996,2058,0.039393296,148.8993001,194.4540878,111.5597768,-567.8667489,91.39923941,1.33E-05,86.8960772,48.09962105,-143.4012313,-771.4467868,68.21531574,-13.18128219,83.53884127,0.013319807,-1550.130614,,,,
527.0799996,2058,0.039841029,-6.168148429,-84.588597,-129.1155906,-855.6510775,-88.03801949,1.32E-05,-70.81572082,-23.5631698,256.089448,738.7752676,102.152297,124.5181216,-67.21817091,0.013315393,-308.0002607,,,,
527.0879996,2058,0.04028604,-132.1379975,-451.652836,-303.1380588,-1602.640681,-58.10895891,1.32E-05,144.3510135,-16.16624773,-330.8506804,-1048.352236,-157.7683908,-116.280755,80.60574417,0.013311401,-1776.60977,,,,
527.0959996,2058,0.040728327,229.1927186,436.6056966,243.103631,-121.5483043,92.07519113,1.31E-05,-20.44695219,42.38285921,229.043406,354.6273335,244.2946332,133.7536806,5.009571773,0.013308761,-674.5698197,,,,
527.1039996,2059,0.041167891,-219.2380217,-610.9907827,-449.4286001,-1775.2774,-170.7260392,1.31E-05,41.14418787,-65.63592326,-104.7490649,-144.9257116,-176.3825809,-40.45044049,-20.81482182,0.013304821,-1040.009853,,,,
527.1119996,2059,0.04160473,153.9393323,198.2398841,120.924742,-614.1185632,107.099764,1.31E-05,95.43914744,61.96217512,-138.6003847,-764.8353633,80.73656533,-12.77163586,96.16392098,0.0132997,-1625.78659,,,,
527.1199996,2059,0.042038844,2.304077861,-53.9159341,-93.64790363,-848.5676008,-74.407207,1.30E-05,-81.13991734,-32.6227982,270.9663674,772.0125432,113.2377434,125.5050684,-74.79125938,0.013295031,-334.9944111,,,,
527.1279996,2059,0.042470232,-128.2460159,-445.2311327,-294.2273518,-1624.479105,-54.47400876,1.30E-05,126.9702032,-27.992449,-323.9242277,-1021.125175,-173.7768,-120.3513017,57.29966906,0.013290985,-1791.988785,,,,
527.1359996,2059,0.042898895,240.2573977,455.6956341,267.7135151,-113.9566934,103.439016,1.29E-05,-39.85087519,42.43906119,235.5261071,362.761658,246.7666599,131.2099348,-9.428111678,0.013285464,-703.891049,,,,
527.1439996,2059,0.043324831,-210.8490905,-577.5321564,-406.4235837,-1735.486934,-155.7171315,1.29E-05,27.06852358,-81.40538359,-86.50400142,-110.0113232,-160.3560506,-40.04246206,-31.89206963,0.013278715,-1025.494462,,,,
527.1519996,2059,0.04374804,148.2474906,211.0333281,142.9485934,-599.273222,117.7973405,1.28E-05,87.60914798,35.42752043,-132.1003225,-751.5669581,79.36567604,-21.19725809,82.85991088,0.013272553,-1608.442996,,,,
527.1599996,2059,0.044168522,1.552661488,-31.0286357,-65.4673973,-807.2722559,-60.3082496,1.28E-05,-88.27331558,-47.59967011,280.3247479,787.7431581,114.3248183,114.702583,-83.67826931,0.013266446,-311.4984437,,,,
527.1679996,2059,0.044586278,-129.9129541,-439.2797577,-284.2639478,-1610.000226,-47.10091334,1.27E-05,134.1117744,-33.10575563,-313.3769054,-999.6993418,-176.6285711,-129.5790047,62.52860427,0.013260412,-1764.497585,,,,
527.1759996,2059,0.045001306,237.8064444,450.7072475,253.008925,-131.577293,110.8824565,1.27E-05,-19.48242224,54.57419383,239.8706142,366.945218,250.7444687,131.3643298,15.29421884,0.01325411,-717.5260593,,,,
527.1839996,2059,0.045413607,-212.5680432,-569.3921024,-413.5939261,-1733.662895,-145.2650744,1.26E-05,37.19192451,-64.55759307,-68.53926817,-82.8081168,-141.4004188,-31.73346852,-10.55276037,0.013246464,-1034.330539,,,,
527.1919996,2059,0.045823181,147.0804434,221.2568334,140.5006266,-589.5658468,118.3327957,1.26E-05,87.62627101,44.92921836,-119.0797117,-727.8860818,83.66286863,-19.05450052,90.72011054,0.013238717,-1604.375893,,,,
527.1999996,2059,0.046230028,11.75476316,-11.97019443,-67.79921531,-793.9397438,-63.16564959,1.25E-05,-85.94474093,-33.54384358,285.7930267,820.5639536,115.6516739,121.7249487,-78.10622839,0.013230853,-295.5235537,,,,
527.2079996,2059,0.046634148,-121.0716833,-419.2761224,-281.5876617,-1599.70529,-47.44522691,1.25E-05,131.7542594,-17.75395724,-303.9917968,-964.6127316,-160.7863983,-116.993022,69.25957164,0.013222528,-1743.809518,,,,
527.2159996,2059,0.047035542,246.6355055,482.7755168,278.7875049,-85.02705107,109.8358514,1.24E-05,-41.28392829,58.40907019,248.1142822,395.7659667,260.8667699,137.1947841,8.022996029,0.01321459,-680.7949945,,,,
527.2239996,2059,0.04743421,-199.5887409,-538.502174,-381.033014,-1677.628748,-149.6155371,1.24E-05,8.492914265,-73.98270637,-67.01333942,-35.40510785,-150.1510363,-32.22586881,-40.28548384,0.013205301,-957.63246,,,,
527.2319996,2059,0.047830152,159.9009552,238.6937918,163.3033091,-555.4269473,119.5633271,1.23E-05,71.05886669,36.38298448,-120.8811656,-704.4375481,79.4731816,-19.67658901,66.5698094,0.013196241,-1543.122709,,,,
527.2399996,2059,0.048223368,22.63655669,4.440306725,-46.31935402,-752.0622773,-55.28711726,1.23E-05,-89.88859012,-28.36095681,294.1122417,843.6948783,126.0855783,126.8176199,-85.45348603,0.013187233,-247.4609072,,,,
527.2479996,2059,0.04861386,-118.5014056,-403.6744861,-251.8052885,-1552.500686,-39.73124562,1.22E-05,128.0271504,-14.47642704,-300.2847572,-938.5868778,-156.3411776,-116.2019896,57.65376619,0.013177043,-1694.260123,,,,
527.2559996,2059,0.049001627,248.8716962,514.9064386,325.8975127,-5.163655985,116.2495253,1.22E-05,-59.38829902,37.95052384,252.5098447,419.600752,259.2932964,128.124102,-18.97818247,0.013167503,-604.3871819,,,,
527.2639996,2059,0.049386672,-203.3431745,-526.5335105,-357.9526882,-1618.279133,-156.8797307,1.21E-05,0.086406672,-93.79121789,-62.38399026,-4.620858873,-156.1425855,-43.95952885,-52.72593971,0.013158018,-862.7947196,,,,
527.2719996,2059,0.049768993,151.9609406,228.6424536,161.6306302,-539.9994043,108.7919385,1.21E-05,91.27338131,47.70791244,-136.8745656,-712.7306076,75.89775597,-27.19939145,90.69095358,0.013147237,-1509.235582,,,,
527.2799996,2059,0.050148592,19.65580669,14.64798654,-31.55957285,-708.5683411,-59.41146864,1.20E-05,-86.68189955,-15.92055848,289.6253163,850.702733,139.12153,126.8248632,-65.24821482,0.013136284,-213.4653786,,,,
527.2879996,2059,0.05052547,-124.4312391,-417.7066587,-255.787923,-1540.310417,-49.98139609,1.20E-05,119.7976669,-16.34310801,-298.7195896,-920.8168364,-152.4270871,-120.2144484,62.97074395,0.013125826,-1644.12056,,,,
527.2959996,2059,0.050899628,253.7957676,495.3468818,308.2150872,-23.31974273,116.326301,1.19E-05,-31.96141028,63.69722327,246.1608869,411.3900714,269.9901729,132.7812111,9.730176176,0.01311388,-604.9183343,,,,
527.3039996,2059,0.051271067,-193.2615878,-513.2392386,-347.0771719,-1602.971771,-142.6131393,1.19E-05,20.53208432,-57.98382886,-48.98504334,16.79222987,-116.787338,-20.48612171,-24.9555474,0.01310186,-857.9500711,,,,
527.3119996,2059,0.051639788,155.4222705,244.734436,184.7094674,-510.6041334,125.2822633,1.18E-05,88.9981444,53.89386987,-118.043506,-684.1706832,99.87463756,-13.82754715,85.43912758,0.013090315,-1466.09358,,,,
527.3199996,2059,0.052005792,26.63021947,36.79266771,-4.35960742,-657.4131268,-38.63238036,1.18E-05,-84.82345324,-20.21061833,303.0875582,885.0419112,148.1098229,127.7318337,-73.15192215,0.013077776,-143.6813057,,,,
