Time:125Hz,Epoch,FP1,FP2,C3,C4,P7,P8,O1,O2,F7,F8,F3,F4,T7,T8,P3,P4,,,,
284.9919998,1113,0,-146.1850231,-3.09E-06,-3.56E-06,0,0,-1.00E-10,0,0,-121.8620447,0,0,0,3.41E-06,0,0,,,,
284.9999998,1113,0,968.9010575,-3.06E-06,-3.76E-06,0,0,-1.00E-10,0,0,-24.90187794,0,0,0,3.46E-06,0,0,,,,
285.0079998,1113,0,216.6492253,-3.03E-06,-3.46E-06,0,0,-1.00E-10,0,0,155.7009027,0,0,0,3.38E-06,0,0,,,,
285.0159998,1113,0,287.9017897,-3.00E-06,-3.64E-06,0,0,-1.00E-10,0,0,-249.8742209,0,0,0,3.38E-06,0,0,,,,
285.0239998,1113,0,853.0009863,-2.98E-06,-3.46E-06,0,0,-1.00E-10,0,0,200.297367,0,0,0,3.33E-06,0,0,,,,
285.0319998,1113,0,-189.4759542,-2.95E-06,-3.52E-06,0,0,-1.00E-10,0,0,-110.2082624,0,0,0,3.31E-06,0,0,,,,
285.0399998,1113,0,920.9111914,-2.92E-06,-3.44E-06,0,0,-1.00E-10,0,0,-37.4842469,0,0,0,3.28E-06,0,0,,,,
285.0479998,1113,0,217.5944825,-2.89E-06,-3.43E-06,0,0,-1.00E-10,0,0,155.5575081,0,0,0,3.25E-06,0,0,,,,
285.0559998,1113,0,277.1097739,-2.86E-06,-3.39E-06,0,0,-1.00E-10,0,0,-235.3571101,0,0,0,3.22E-06,0,0,,,,
285.0639998,1113,0,832.5127674,-2.84E-06,-3.36E-06,0,0,-1.00E-10,0,0,202.1540165,0,0,0,3.19E-06,0,0,,,,
285.0719998,1113,0,-239.5829867,-2.81E-06,-3.33E-06,0,0,-1.00E-10,0,0,-130.7260291,0,0,0,3.16E-06,0,0,,,,
285.0799998,1113,0,864.9470125,1.03E-06,-3.30E-06,0,0,-1.00E-10,0,0,-65.93787169,0,0,0,3.13E-06,0,0,,,,
285.0879998,1113,0,162.3051113,4.66E-06,-3.27E-06,0,0,-1.00E-10,0,0,136.9265216,0,0,0,3.10E-06,0,0,,,,
285.0959998,1113,0,221.846997,3.50E-06,-3.24E-06,0,0,-1.00E-10,0,0,-255.4167663,0,0,0,3.07E-06,0,0,,,,
285.1039998,1113,0,854.6369179,3.56E-06,-3.21E-06,0,0,-1.00E-10,0,0,212.9104933,0,0,0,3.04E-06,0,0,,,,
285.1119998,1113,0,-211.2024213,3.76E-06,-3.18E-06,0,0,-1.00E-10,0,0,-94.07964381,0,0,0,3.01E-06,0,0,,,,
285.1199998,1113,0,887.2881045,3.46E-06,-3.15E-06,0,0,-1.00E-10,0,0,-44.92913505,0,0,0,2.98E-06,0,0,,,,
285.1279998,1113,0,213.5653107,3.64E-06,-3.12E-06,0,0,-1.00E-10,0,0,166.0275282,0,0,0,2.95E-06,0,0,,,,
285.1359998,1113,0,216.0199497,3.46E-06,-3.09E-06,0,0,-1.00E-10,0,0,-239.4935884,0,0,0,2.92E-06,0,0,,,,
285.1439998,1113,0,812.8448488,3.52E-06,-3.06E-06,0,0,-1.00E-10,0,0,197.427557,0,0,0,2.90E-06,0,0,,,,
285.1519998,1113,0,-277.9877335,3.44E-06,-3.03E-06,0,0,-1.00E-10,0,0,-123.6657358,0,0,0,2.87E-06,0,0,,,,
285.1599998,1113,0,820.2655194,3.43E-06,-3.00E-06,0,0,-1.00E-10,0,0,-78.3483179,0,0,0,-9.74E-07,0,0,,,,
285.1679998,1113,0,172.8790367,3.39E-06,-2.98E-06,0,0,-1.00E-10,0,0,158.9336315,0,0,0,-4.60E-06,0,0,,,,
285.1759998,1113,0,150.4266912,3.36E-06,-2.95E-06,0,0,-1.00E-10,0,0,-256.5198802,0,0,0,-3.44E-06,0,0,,,,
285.1839998,1114,0,792.2411608,3.33E-06,-2.92E-06,0,0,-1.00E-10,0,0,179.3902132,0,0,0,-3.51E-06,0,0,,,,
285.1919998,1114,0,-272.3910265,3.30E-06,-2.89E-06,0,0,-1.00E-10,0,0,-101.9770597,0,0,0,-3.70E-06,0,0,,,,
285.1999998,1114,0,801.4086457,3.27E-06,-2.86E-06,0,0,-1.00E-10,0,0,-74.3199093,0,0,0,-3.40E-06,0,0,,,,
285.2079998,1114,0,172.4175288,3.24E-06,-2.84E-06,0,0,-1.00E-10,0,0,156.181361,0,0,0,-3.58E-06,0,0,,,,
285.2159998,1114,0,145.785157,3.21E-06,-2.81E-06,0,0,-1.00E-10,0,0,-244.1910213,0,0,0,-3.41E-06,0,0,,,,
285.2239998,1114,0,800.4067008,3.18E-06,1.03E-06,0,0,-1.00E-10,0,0,180.170888,0,0,0,-3.46E-06,0,0,,,,
285.2319998,1114,0,-267.9285181,3.15E-06,4.66E-06,0,0,-1.00E-10,0,0,-94.22359725,0,0,0,-3.38E-06,0,0,,,,
285.2399998,1114,0,795.6065619,3.12E-06,3.50E-06,0,0,-1.00E-10,0,0,-61.02369253,0,0,0,-3.38E-06,0,0,,,,
285.2479998,1114,0,173.5491413,3.09E-06,3.56E-06,0,0,-1.00E-10,0,0,157.2769303,0,0,0,-3.33E-06,0,0,,,,
285.2559998,1114,0,127.9684051,3.06E-06,3.76E-06,0,0,-1.00E-10,0,0,-251.3762842,0,0,0,-3.31E-06,0,0,,,,
285.2639998,1114,0,812.9294201,3.03E-06,3.46E-06,0,0,-1.00E-10,0,0,189.8732183,0,0,0,-3.28E-06,0,0,,,,
285.2719998,1114,0,-247.4167742,3.00E-06,3.64E-06,0,0,-1.00E-10,0,0,-76.43620188,0,0,0,-3.25E-06,0,0,,,,
285.2799998,1114,0,802.304582,2.98E-06,3.46E-06,0,0,-1.00E-10,0,0,-57.1553553,0,0,0,-3.22E-06,0,0,,,,
285.2879998,1114,0,185.0861955,2.95E-06,3.52E-06,0,0,-1.00E-10,0,0,169.4872897,0,0,0,-3.19E-06,0,0,,,,
285.2959998,1114,0,120.1732973,2.92E-06,3.44E-06,0,0,-1.00E-10,0,0,-250.5740616,0,0,0,-3.16E-06,0,0,,,,
285.3039998,1114,0,813.3025163,2.89E-06,3.43E-06,0,0,-1.00E-10,0,0,181.3884947,0,0,0,-3.13E-06,0,0,,,,
285.3119998,1114,0,-265.0518456,2.86E-06,3.39E-06,0,0,-1.00E-10,0,0,-72.76439708,0,0,0,-3.10E-06,0,0,,,,
285.3199998,1114,0,794.570491,2.84E-06,3.36E-06,0,0,-1.00E-10,0,0,-58.34059513,0,0,0,-3.07E-06,0,0,,,,
285.3279998,1114,0,227.1367805,2.81E-06,3.33E-06,0,0,-1.00E-10,0,0,190.0165129,0,0,0,-3.04E-06,0,0,,,,
285.3359998,1114,0,133.1106326,-1.03E-06,3.30E-06,0,0,-1.00E-10,0,0,-218.7855403,0,0,0,-3.01E-06,0,0,,,,
285.3439998,1114,0,814.5747268,-4.66E-06,3.27E-06,0,0,-1.00E-10,0,0,193.6136418,0,0,0,-2.98E-06,0,0,,,,
285.3519998,1114,0,-260.8571414,-3.50E-06,3.24E-06,0,0,-1.00E-10,0,0,-69.18313137,0,0,0,-2.95E-06,0,0,,,,
285.3599998,1114,0,790.4289915,-3.56E-06,3.21E-06,0,0,-1.00E-10,0,0,-54.60021688,0,0,0,-2.92E-06,0,0,,,,
285.3679998,1114,0,216.018742,-3.76E-06,3.18E-06,0,0,-1.00E-10,0,0,190.272273,0,0,0,-2.90E-06,0,0,,,,
285.3759998,1114,0,123.6506286,-3.46E-06,3.15E-06,0,0,-1.00E-10,0,0,-227.8241696,0,0,0,-2.87E-06,0,0,,,,
285.3839998,1114,0,862.0437424,-3.64E-06,3.12E-06,0,0,-1.00E-10,0,0,210.6631469,0,0,0,9.74E-07,0,0,,,,
285.3919998,1114,0,-241.0164269,-3.46E-06,3.09E-06,0,0,-1.00E-10,0,0,-47.84837908,0,0,0,4.60E-06,0,0,,,,
285.3999998,1114,0,785.4283593,-3.52E-06,3.06E-06,0,0,-1.00E-10,0,0,-58.07330635,0,0,0,3.44E-06,0,0,,,,
285.4079998,1114,0,244.1921784,-3.44E-06,3.03E-06,0,0,-1.00E-10,0,0,198.5716981,0,0,0,3.51E-06,0,0,,,,
285.4159998,1114,0,106.2905029,-3.43E-06,3.00E-06,0,0,-1.00E-10,0,0,-235.2019269,0,0,0,3.70E-06,0,0,,,,
285.4239998,1114,0,836.4397161,-3.39E-06,2.98E-06,0,0,-1.00E-10,0,0,187.0639945,0,0,0,3.40E-06,0,0,,,,
285.4319998,1114,0,-250.6255525,-3.36E-06,2.95E-06,0,0,-1.00E-10,0,0,-55.5087,0,0,0,3.58E-06,0,0,,,,
285.4399998,1115,0,788.9402726,-3.33E-06,2.92E-06,0,0,-1.00E-10,0,0,-58.22700801,0,0,0,3.41E-06,0,0,,,,
285.4479998,1115,0,245.8514765,-3.30E-06,2.89E-06,0,0,-1.00E-10,0,0,204.6883075,0,0,0,3.46E-06,0,0,,,,
285.4559998,1115,0,80.61074442,-3.27E-06,2.86E-06,0,0,-1.00E-10,0,0,-242.9326393,0,0,0,3.38E-06,0,0,,,,
285.4639998,1115,0,854.3926101,-3.24E-06,2.84E-06,0,0,-1.00E-10,0,0,183.4820183,0,0,0,3.38E-06,0,0,,,,
285.4719998,1115,0,-247.6003885,-3.21E-06,2.81E-06,0,0,-1.00E-10,0,0,-44.90653712,0,0,0,3.33E-06,0,0,,,,
285.4799998,1115,0,754.8263318,-3.18E-06,-1.03E-06,0,0,-1.00E-10,0,0,-75.16021266,0,0,0,3.31E-06,0,0,,,,
285.4879998,1115,0,256.8800765,-3.15E-06,-4.66E-06,0,0,-1.00E-10,0,0,195.6410737,0,0,0,3.28E-06,0,0,,,,
285.4959998,1115,0,103.3508542,-3.12E-06,-3.50E-06,0,0,-1.00E-10,0,0,-218.4819929,0,0,0,3.25E-06,0,0,,,,
285.5039998,1115,0,855.8990567,-3.09E-06,-3.56E-06,0,0,-1.00E-10,0,0,195.4197205,0,0,0,3.22E-06,0,0,,,,
285.5119998,1115,0,-251.2980568,-3.06E-06,-3.76E-06,0,0,-1.00E-10,0,0,-45.15097508,0,0,0,3.19E-06,0,0,,,,
285.5199998,1115,0,793.5523374,-3.03E-06,-3.46E-06,0,0,-1.00E-10,0,0,-51.70781509,0,0,0,3.16E-06,0,0,,,,
285.5279998,1115,0,290.2509175,-3.00E-06,-3.64E-06,0,0,-1.00E-10,0,0,228.8541175,0,0,0,3.13E-06,0,0,,,,
285.5359998,1115,0,78.58973221,-2.98E-06,-3.46E-06,0,0,-1.00E-10,0,0,-220.9118595,0,0,0,3.10E-06,0,0,,,,
285.5439998,1115,0,881.2997994,-2.95E-06,-3.52E-06,0,0,-1.00E-10,0,0,193.0247923,0,0,0,3.07E-06,0,0,,,,
285.5519998,1115,0,-222.5826519,-2.92E-06,-3.44E-06,0,0,-1.00E-10,0,0,-17.73046648,0,0,0,3.04E-06,0,0,,,,
285.5599998,1115,0,754.0108123,-2.89E-06,-3.43E-06,0,0,-1.00E-10,0,0,-56.65036605,0,0,0,3.01E-06,0,0,,,,
285.5679998,1115,0,283.7260262,-2.86E-06,-3.39E-06,0,0,-1.00E-10,0,0,209.4833091,0,0,0,2.98E-06,0,0,,,,
285.5759998,1115,0,88.85142036,-2.84E-06,-3.36E-06,0,0,-1.00E-10,0,0,-218.056242,0,0,0,2.95E-06,0,0,,,,
285.5839998,1115,0,865.9128193,-2.81E-06,-3.33E-06,0,0,-1.00E-10,0,0,182.4005138,0,0,0,2.92E-06,0,0,,,,
285.5919998,1115,0,-234.7828768,1.03E-06,-3.30E-06,0,0,-1.00E-10,0,0,-34.53383784,0,0,0,2.90E-06,0,0,,,,
285.5999998,1115,0,774.5745846,4.66E-06,-3.27E-06,0,0,-1.00E-10,0,0,-59.6654825,0,0,0,2.87E-06,0,0,,,,
285.6079998,1115,0,307.0199956,3.50E-06,-3.24E-06,0,0,-1.00E-10,0,0,214.5885929,0,0,0,-9.74E-07,0,0,,,,
285.6159998,1115,0,76.93382301,3.56E-06,-3.21E-06,0,0,-1.00E-10,0,0,-213.7302065,0,0,0,-4.60E-06,0,0,,,,
285.6239998,1115,0,895.1914717,3.76E-06,-3.18E-06,0,0,-1.00E-10,0,0,196.4466092,0,0,0,-3.44E-06,0,0,,,,
285.6319998,1115,0,-879.5287797,3.46E-06,-3.15E-06,0,0,-1.00E-10,0,0,-147.1020553,0,0,0,-3.51E-06,0,0,,,,
285.6399998,1115,0,-426.5829429,3.64E-06,-3.12E-06,0,0,-1.00E-10,0,0,-430.6583994,0,0,0,-3.70E-06,0,0,,,,
285.6479998,1115,0,589.7008326,3.46E-06,-3.09E-06,0,0,-1.00E-10,0,0,140.4378753,0,0,0,-3.40E-06,0,0,,,,
285.6559998,1115,0,457.5676833,3.52E-06,-3.06E-06,0,0,-1.00E-10,0,0,50.10744253,0,0,0,-3.58E-06,0,0,,,,
285.6639998,1115,0,270.8024139,3.44E-06,-3.03E-06,0,0,-1.00E-10,0,0,26.45786808,0,0,0,-3.41E-06,0,0,,,,
285.6719998,1115,0,341.7349682,3.43E-06,-3.00E-06,0,0,-1.00E-10,0,0,-25.61114693,0,0,0,-3.46E-06,0,0,,,,
285.6799998,1115,0,636.9825638,3.39E-06,-2.98E-06,0,0,-1.00E-10,0,0,101.3706844,0,0,0,-3.38E-06,0,0,,,,
285.6879998,1115,0,-25.24561779,3.36E-06,-2.95E-06,0,0,-1.00E-10,0,0,1.684630064,0,0,0,-3.38E-06,0,0,,,,
285.6959998,1116,0,659.2229562,3.33E-06,-2.92E-06,0,0,-1.00E-10,0,0,-26.44571759,0,0,0,-3.33E-06,0,0,,,,
285.7039998,1116,0,318.9707523,3.30E-06,-2.89E-06,0,0,-1.00E-10,0,0,161.0825515,0,0,0,-3.31E-06,0,0,,,,
285.7119998,1116,0,134.4415275,3.27E-06,-2.86E-06,0,0,-1.00E-10,0,0,-140.0519888,0,0,0,-3.28E-06,0,0,,,,
285.7199998,1116,0,809.0601307,3.24E-06,-2.84E-06,0,0,-1.00E-10,0,0,155.6858951,0,0,0,-3.25E-06,0,0,,,,
285.7279998,1116,0,-182.8890933,3.21E-06,-2.81E-06,0,0,-1.00E-10,0,0,-22.73715997,0,0,0,-3.22E-06,0,0,,,,
285.7359998,1116,0,694.1745968,3.18E-06,1.03E-06,0,0,-1.00E-10,0,0,-67.30113374,0,0,0,-3.19E-06,0,0,,,,
285.7439998,1116,0,363.059504,3.15E-06,4.66E-06,0,0,-1.00E-10,0,0,217.0082846,0,0,0,-3.16E-06,0,0,,,,
285.7519998,1116,0,73.07661603,3.12E-06,3.50E-06,0,0,-1.00E-10,0,0,-188.0719033,0,0,0,-3.13E-06,0,0,,,,
285.7599998,1116,0,863.0672723,3.09E-06,3.56E-06,0,0,-1.00E-10,0,0,161.1784484,0,0,0,-3.10E-06,0,0,,,,
285.7679998,1116,0,-228.837688,3.06E-06,3.76E-06,0,0,-1.00E-10,0,0,-34.22952331,0,0,0,-3.07E-06,0,0,,,,
285.7759998,1116,0,706.2749244,3.03E-06,3.46E-06,0,0,-1.00E-10,0,0,-85.37599848,0,0,0,-3.04E-06,0,0,,,,
285.7839998,1116,0,349.5845837,3.00E-06,3.64E-06,0,0,-1.00E-10,0,0,230.4254157,0,0,0,-3.01E-06,0,0,,,,
285.7919998,1116,0,1.381387166,2.98E-06,3.46E-06,0,0,-1.00E-10,0,0,-224.6190084,0,0,0,-2.98E-06,0,0,,,,
285.7999998,1116,0,859.5396479,2.95E-06,3.52E-06,0,0,-1.00E-10,0,0,149.0206773,0,0,0,-2.95E-06,0,0,,,,
285.8079998,1116,0,-259.6158841,2.92E-06,3.44E-06,0,0,-1.00E-10,0,0,-34.43808764,0,0,0,-2.92E-06,0,0,,,,
285.8159998,1116,0,670.2113982,2.89E-06,3.43E-06,0,0,-1.00E-10,0,0,-105.8848408,0,0,0,-2.90E-06,0,0,,,,
285.8239998,1116,0,341.96785,2.86E-06,3.39E-06,0,0,-1.00E-10,0,0,228.2423907,0,0,0,-2.87E-06,0,0,,,,
285.8319998,1116,0,-422.0405869,2.84E-06,3.36E-06,0,0,-1.00E-10,0,0,-279.1456131,0,0,0,9.74E-07,0,0,,,,
285.8399998,1116,0,546.9370337,2.81E-06,3.33E-06,0,0,-1.00E-10,0,0,28.27240203,0,0,0,4.60E-06,0,0,,,,
285.8479998,1116,0,288.5479988,-1.03E-06,3.30E-06,0,0,-1.00E-10,0,0,61.07897395,0,0,0,3.44E-06,0,0,,,,
285.8559998,1116,0,462.4808969,-4.66E-06,3.27E-06,0,0,-1.00E-10,0,0,-29.26556121,0,0,0,3.51E-06,0,0,,,,
285.8639998,1116,0,130.7949801,-3.50E-06,3.24E-06,0,0,-1.00E-10,0,0,78.51719299,0,0,0,3.70E-06,0,0,,,,
285.8719998,1116,0,465.6403652,-3.56E-06,3.21E-06,0,0,-1.00E-10,0,0,-55.62711337,0,0,0,3.40E-06,0,0,,,,
285.8799998,1116,0,372.6805947,-3.76E-06,3.18E-06,0,0,-1.00E-10,0,0,143.7884379,0,0,0,3.58E-06,0,0,,,,
285.8879998,1116,0,-167.3282461,-3.46E-06,3.15E-06,0,0,-1.00E-10,0,0,-378.3084302,0,0,0,3.41E-06,0,0,,,,
285.8959998,1116,0,688.530916,-3.64E-06,3.12E-06,0,0,-1.00E-10,0,0,-379.5479214,0,0,0,3.46E-06,0,0,,,,
285.9039998,1116,0,366.0501253,-3.46E-06,3.09E-06,0,0,-1.00E-10,0,0,142.7771006,0,0,0,3.38E-06,0,0,,,,
285.9119998,1116,0,279.8709211,-3.52E-06,3.06E-06,0,0,-1.00E-10,0,0,61.2710355,0,0,0,3.38E-06,0,0,,,,
285.9199998,1116,0,220.2190676,-3.44E-06,3.03E-06,0,0,-1.00E-10,0,0,-51.90926194,0,0,0,3.33E-06,0,0,,,,
285.9279998,1116,0,395.5858851,-3.43E-06,3.00E-06,0,0,-1.00E-10,0,0,30.61703538,0,0,0,3.31E-06,0,0,,,,
285.9359998,1116,0,304.2453209,-3.39E-06,2.98E-06,0,0,-1.00E-10,0,0,91.99970175,0,0,0,3.28E-06,0,0,,,,
285.9439998,1116,0,106.0561743,-3.36E-06,2.95E-06,0,0,-1.00E-10,0,0,-124.335344,0,0,0,3.25E-06,0,0,,,,
285.9519998,1117,0,661.7133751,-3.33E-06,2.92E-06,0,0,-1.00E-10,0,0,126.6025332,0,0,0,3.22E-06,0,0,,,,
285.9599998,1117,0,-97.99999662,-3.30E-06,2.89E-06,0,0,-1.00E-10,0,0,-7.008100764,0,0,0,3.19E-06,0,0,,,,
285.9679998,1117,0,508.0597071,-3.27E-06,2.86E-06,0,0,-1.00E-10,0,0,-71.06167197,0,0,0,3.16E-06,0,0,,,,
285.9759998,1117,0,316.1166178,-3.24E-06,2.84E-06,0,0,-1.00E-10,0,0,180.7391532,0,0,0,3.13E-06,0,0,,,,
285.9839998,1117,0,-45.86085007,-3.21E-06,2.81E-06,0,0,-1.00E-10,0,0,-196.2037431,0,0,0,3.10E-06,0,0,,,,
285.9919998,1117,0,813.9504588,-3.18E-06,-1.03E-06,0,0,-1.00E-10,0,0,140.5858477,0,0,0,3.07E-06,0,0,,,,
285.9999998,1117,0,-190.0332398,-3.15E-06,-4.66E-06,0,0,-1.00E-10,0,0,24.01276071,0,0,0,3.04E-06,0,0,,,,
286.0079998,1117,0,564.2365942,-3.12E-06,-3.50E-06,0,0,-1.00E-10,0,0,-89.11716597,0,0,0,3.01E-06,0,0,,,,
286.0159998,1117,0,364.6677404,-3.09E-06,-3.56E-06,0,0,-1.00E-10,0,0,233.0425963,0,0,0,2.98E-06,0,0,,,,
286.0239998,1117,0,-70.70798451,-3.06E-06,-3.76E-06,0,0,-1.00E-10,0,0,-193.3840474,0,0,0,2.95E-06,0,0,,,,
286.0319998,1117,0,865.1533735,-3.03E-06,-3.46E-06,0,0,-1.00E-10,0,0,153.2880451,0,0,0,2.92E-06,0,0,,,,
286.0399998,1117,0,-207.6314572,-3.00E-06,-3.64E-06,0,0,-1.00E-10,0,0,40.13317107,0,0,0,2.90E-06,0,0,,,,
286.0479998,1117,0,571.068813,-2.98E-06,-3.46E-06,0,0,-1.00E-10,0,0,-94.80255416,0,0,0,2.87E-06,0,0,,,,
286.0559998,1117,0,341.0894415,-2.95E-06,-3.52E-06,0,0,-1.00E-10,0,0,228.339441,0,0,0,-9.74E-07,0,0,,,,
286.0639998,1117,0,-123.4084426,-2.92E-06,-3.44E-06,0,0,-1.00E-10,0,0,-217.3163198,0,0,0,-4.60E-06,0,0,,,,
286.0719998,1117,0,817.130234,-2.89E-06,-3.43E-06,0,0,-1.00E-10,0,0,127.3304828,0,0,0,-3.44E-06,0,0,,,,
286.0799998,1117,0,-281.6452946,-2.86E-06,-3.39E-06,0,0,-1.00E-10,0,0,7.715145241,0,0,0,-3.51E-06,0,0,,,,
286.0879998,1117,0,538.2558449,-2.84E-06,-3.36E-06,0,0,-1.00E-10,0,0,-115.7708832,0,0,0,-3.70E-06,0,0,,,,
286.0959998,1117,0,324.4924406,-2.81E-06,-3.33E-06,0,0,-1.00E-10,0,0,233.5410368,0,0,0,-3.40E-06,0,0,,,,
286.1039998,1117,0,-134.3891411,1.03E-06,-3.30E-06,0,0,-1.00E-10,0,0,-215.9816038,0,0,0,-3.58E-06,0,0,,,,
286.1119998,1117,0,848.5148012,4.66E-06,-3.27E-06,0,0,-1.00E-10,0,0,142.8032954,0,0,0,-3.41E-06,0,0,,,,
286.1199998,1117,0,-289.327977,3.50E-06,-3.24E-06,0,0,-1.00E-10,0,0,19.59194055,0,0,0,-3.46E-06,0,0,,,,
286.1279998,1117,0,512.8805657,3.56E-06,-3.21E-06,0,0,-1.00E-10,0,0,-136.2579183,0,0,0,-3.38E-06,0,0,,,,
286.1359998,1117,0,330.9967831,3.76E-06,-3.18E-06,0,0,-1.00E-10,0,0,234.3045475,0,0,0,-3.38E-06,0,0,,,,
286.1439998,1117,0,-157.6870527,3.46E-06,-3.15E-06,0,0,-1.00E-10,0,0,-208.362018,0,0,0,-3.33E-06,0,0,,,,
286.1519998,1117,0,822.9009702,3.64E-06,-3.12E-06,0,0,-1.00E-10,0,0,127.4994055,0,0,0,-3.31E-06,0,0,,,,
286.1599998,1117,0,-301.8938695,3.46E-06,-3.09E-06,0,0,-1.00E-10,0,0,10.73465528,0,0,0,-3.28E-06,0,0,,,,
286.1679998,1117,0,518.6154037,3.52E-06,-3.06E-06,0,0,-1.00E-10,0,0,-123.8002305,0,0,0,-3.25E-06,0,0,,,,
286.1759998,1117,0,346.1240377,3.44E-06,-3.03E-06,0,0,-1.00E-10,0,0,252.6644756,0,0,0,-3.22E-06,0,0,,,,
286.1839998,1117,0,-188.3833677,3.43E-06,-3.00E-06,0,0,-1.00E-10,0,0,-222.7112658,0,0,0,-3.19E-06,0,0,,,,
286.1919998,1117,0,811.5033811,3.39E-06,-2.98E-06,0,0,-1.00E-10,0,0,113.7602631,0,0,0,-3.16E-06,0,0,,,,
286.1999998,1117,0,-307.4845583,3.36E-06,-2.95E-06,0,0,-1.00E-10,0,0,11.54568226,0,0,0,-3.13E-06,0,0,,,,
286.2079998,1118,0,501.5428187,3.33E-06,-2.92E-06,0,0,-1.00E-10,0,0,-145.0469509,0,0,0,-3.10E-06,0,0,,,,
286.2159998,1118,0,374.076422,3.30E-06,-2.89E-06,0,0,0,0,0,250.8277227,0,0,0,-3.07E-06,0,0,,,,
286.2239998,1118,0,-176.6833427,3.27E-06,-2.86E-06,0,0,0,0,0,-212.148151,0,0,0,-3.04E-06,0,0,,,,
286.2319998,1118,0,830.6590879,3.24E-06,-2.84E-06,0,0,0,0,0,112.2564673,0,0,0,-3.01E-06,0,0,,,,
286.2399998,1118,0,-268.8845838,3.21E-06,-2.81E-06,0,0,0,0,0,19.82866111,0,0,0,-2.98E-06,0,0,,,,
286.2479998,1118,0,500.0239775,3.18E-06,1.03E-06,0,0,0,0,0,-146.3837424,0,0,0,-2.95E-06,0,0,,,,
286.2559998,1118,0,355.3241159,3.15E-06,4.66E-06,0,0,0,0,0,237.5351401,0,0,0,-2.92E-06,0,0,,,,
286.2639998,1118,0,-187.3917306,3.12E-06,3.50E-06,0,0,0,0,0,-231.5781291,0,0,0,-2.90E-06,0,0,,,,
286.2719998,1118,0,845.5172859,3.09E-06,3.56E-06,0,0,0,0,0,110.0959322,0,0,0,-2.87E-06,0,0,,,,
286.2799998,1118,0,-290.6579654,3.06E-06,3.76E-06,0,0,0,0,0,21.22453828,0,0,0,9.74E-07,0,0,,,,
286.2879998,1118,0,466.882751,3.03E-06,3.46E-06,0,0,0,0,0,-181.0498108,0,0,0,4.60E-06,0,0,,,,
286.2959998,1118,0,757.8156615,3.00E-06,3.64E-06,0,0,0,0,0,500.6573785,0,0,0,3.44E-06,0,0,,,,
286.3039998,1118,0,30.22461684,2.98E-06,3.46E-06,0,0,0,0,0,204.1912114,0,0,0,3.51E-06,0,0,,,,
286.3119998,1118,0,380.0466072,2.95E-06,3.52E-06,0,0,0,0,0,193.6705826,0,0,0,3.70E-06,0,0,,,,
286.3199998,1118,0,-366.447744,2.92E-06,3.44E-06,0,0,0,0,0,327.9100754,0,0,0,3.40E-06,0,0,,,,
286.3279998,1118,0,102.4482613,2.89E-06,3.43E-06,0,0,0,0,0,139.3184915,0,0,0,3.58E-06,0,0,,,,
286.3359998,1118,0,102.0842596,2.86E-06,3.39E-06,0,0,0,0,0,46.23741467,0,0,0,3.41E-06,0,0,,,,
286.3439998,1118,0,234.3902711,2.84E-06,3.36E-06,0,0,0,0,0,-181.5238082,0,0,0,3.46E-06,0,0,,,,
286.3519998,1118,0,628.4783017,2.81E-06,3.33E-06,0,0,0,0,0,123.0296451,0,0,0,3.38E-06,0,0,,,,
286.3599998,1118,0,-203.2158834,-1.03E-06,3.30E-06,0,0,0,0,0,-53.57346395,0,0,0,3.38E-06,0,0,,,,
286.3679998,1118,0,583.4810863,-4.66E-06,3.27E-06,0,0,0,0,0,-117.9554254,0,0,0,3.33E-06,0,0,,,,
286.3759998,1118,0,191.5149726,-3.50E-06,3.24E-06,0,0,0,0,0,144.4117756,0,0,0,3.31E-06,0,0,,,,
286.3839998,1118,0,-37.08444248,-3.56E-06,3.21E-06,0,0,0,0,0,-234.5445971,0,0,0,3.28E-06,0,0,,,,
286.3919998,1118,0,777.9859841,-3.76E-06,3.18E-06,0,0,0,0,0,87.99960771,0,0,0,3.25E-06,0,0,,,,
286.3999998,1118,0,-236.9368526,-3.46E-06,3.15E-06,0,0,0,0,0,-20.14028818,0,0,0,3.22E-06,0,0,,,,
286.4079998,1118,0,494.5947421,-3.64E-06,3.12E-06,0,0,0,0,0,-175.3737041,0,0,0,3.19E-06,0,0,,,,
286.4159998,1118,0,350.7125728,-3.46E-06,3.09E-06,0,0,0,0,0,189.2294298,0,0,0,3.16E-06,0,0,,,,
286.4239998,1118,0,-147.2310995,-3.52E-06,3.06E-06,0,0,0,0,0,-241.0898654,0,0,0,3.13E-06,0,0,,,,
286.4319998,1118,0,813.0322975,-3.44E-06,3.03E-06,0,0,0,0,0,60.82531219,0,0,0,3.10E-06,0,0,,,,
286.4399998,1118,0,-238.7964191,-3.43E-06,3.00E-06,0,0,0,0,0,-5.489721265,0,0,0,3.07E-06,0,0,,,,
286.4479998,1118,0,442.9140832,-3.39E-06,2.98E-06,0,0,0,0,0,-202.8157991,0,0,0,3.04E-06,0,0,,,,
286.4559998,1118,0,380.7281469,-3.36E-06,2.95E-06,0,0,0,0,0,194.3286929,0,0,0,3.01E-06,0,0,,,,
286.4639998,1119,0,-236.3076602,-3.33E-06,2.92E-06,0,0,0,0,0,-256.4479785,0,0,0,2.98E-06,0,0,,,,
286.4719998,1119,0,812.44481,-3.30E-06,2.89E-06,0,0,0,0,0,45.66265645,0,0,0,2.95E-06,0,0,,,,
286.4799998,1119,0,-262.2044994,-3.27E-06,2.86E-06,0,0,0,0,0,-3.469640749,0,0,0,2.92E-06,0,0,,,,
286.4879998,1119,0,404.8020097,-3.24E-06,2.84E-06,0,0,0,0,0,-217.8861036,0,0,0,2.90E-06,0,0,,,,
286.4959998,1119,0,407.6867171,-3.21E-06,2.81E-06,0,0,0,0,0,209.6845035,0,0,0,2.87E-06,0,0,,,,
286.5039998,1119,0,-241.2827536,-3.18E-06,-1.03E-06,0,0,0,0,0,-240.1074881,0,0,0,-9.74E-07,0,0,,,,
286.5119998,1119,0,836.5349177,-3.15E-06,-4.66E-06,0,0,0,0,0,54.63280462,0,0,0,-4.60E-06,0,0,,,,
286.5199998,1119,0,-246.5040788,-3.12E-06,-3.50E-06,0,0,0,0,0,20.25168974,0,0,0,-3.44E-06,0,0,,,,
286.5279998,1119,0,384.9275359,-3.09E-06,-3.56E-06,0,0,0,0,0,-217.8573592,0,0,0,-3.51E-06,0,0,,,,
286.5359998,1119,0,392.2237156,-3.06E-06,-3.76E-06,0,0,0,0,0,191.2756473,0,0,0,-3.70E-06,0,0,,,,
286.5439998,1119,0,-274.6535572,-3.03E-06,-3.46E-06,0,0,0,0,0,-256.1065185,0,0,0,-3.40E-06,0,0,,,,
286.5519998,1119,0,825.579085,-3.00E-06,-3.64E-06,0,0,0,0,0,46.75904869,0,0,0,-3.58E-06,0,0,,,,
286.5599998,1119,0,-258.4858676,-2.98E-06,-3.46E-06,0,0,0,0,0,21.43616041,0,0,0,-3.41E-06,0,0,,,,
286.5679998,1119,0,369.3891236,-2.95E-06,-3.52E-06,0,0,0,0,0,-218.7046429,0,0,0,-3.46E-06,0,0,,,,
286.5759998,1119,0,406.690582,-2.92E-06,-3.44E-06,0,0,0,0,0,206.2562637,0,0,0,-3.38E-06,0,0,,,,
286.5839998,1119,0,-310.664715,-2.89E-06,-3.43E-06,0,0,0,0,0,-247.7203175,0,0,0,-3.38E-06,0,0,,,,
286.5919998,1119,0,781.7374981,-2.86E-06,-3.39E-06,0,0,0,0,0,33.23913935,0,0,0,-3.33E-06,0,0,,,,
286.5999998,1119,0,-285.5080932,-2.84E-06,-3.36E-06,0,0,0,0,0,16.94840333,0,0,0,-3.31E-06,0,0,,,,
286.6079998,1119,0,317.3589485,-2.81E-06,-3.33E-06,0,0,0,0,0,-229.3319994,0,0,0,-3.28E-06,0,0,,,,
286.6159998,1119,0,391.9237754,1.03E-06,-3.30E-06,0,0,0,0,0,200.2445573,0,0,0,-3.25E-06,0,0,,,,
286.6239998,1119,0,-307.2080645,4.66E-06,-3.27E-06,0,0,0,0,0,-232.2953743,0,0,0,-3.22E-06,0,0,,,,
286.6319998,1119,0,780.4442808,3.50E-06,-3.24E-06,0,0,0,0,0,46.11324765,0,0,0,-3.19E-06,0,0,,,,
286.6399998,1119,0,-295.8347678,3.56E-06,-3.21E-06,0,0,0,0,0,19.35179573,0,0,0,-3.16E-06,0,0,,,,
286.6479998,1119,0,311.8806652,3.76E-06,-3.18E-06,0,0,0,0,0,-224.7674749,0,0,0,-3.13E-06,0,0,,,,
286.6559998,1119,0,397.0555427,3.46E-06,-3.15E-06,0,0,0,0,0,216.6770323,0,0,0,-3.10E-06,0,0,,,,
286.6639998,1119,0,-341.6484768,3.64E-06,-3.12E-06,0,0,0,0,0,-237.527075,0,0,0,-3.07E-06,0,0,,,,
286.6719998,1119,0,777.6480602,3.46E-06,-3.09E-06,0,0,0,0,0,36.96061061,0,0,0,-3.04E-06,0,0,,,,
286.6799998,1119,0,-293.1430909,3.52E-06,-3.06E-06,0,0,0,0,0,34.73598348,0,0,0,-3.01E-06,0,0,,,,
286.6879998,1119,0,270.7299467,3.44E-06,-3.03E-06,0,0,0,0,0,-237.3349336,0,0,0,-2.98E-06,0,0,,,,
286.6959998,1119,0,394.9008105,3.43E-06,-3.00E-06,0,0,0,0,0,206.0606972,0,0,0,-2.95E-06,0,0,,,,
286.7039998,1119,0,-352.7049929,3.39E-06,-2.98E-06,0,0,0,0,0,-221.6456314,0,0,0,-2.92E-06,0,0,,,,
286.7119998,1119,0,738.1826646,3.36E-06,-2.95E-06,0,0,0,0,0,29.5595667,0,0,0,-2.90E-06,0,0,,,,
286.7199998,1120,0,-317.0271438,3.33E-06,-2.92E-06,0,0,0,0,0,20.39203635,0,0,0,-2.87E-06,0,0,,,,
286.7279998,1120,0,252.6756898,3.30E-06,-2.89E-06,0,0,0,0,0,-235.8684799,0,0,0,9.74E-07,0,0,,,,
286.7359998,1120,0,360.6469447,3.27E-06,-2.86E-06,0,0,0,0,0,205.8739095,0,0,0,4.60E-06,0,0,,,,
286.7439998,1120,0,-402.1041359,3.24E-06,-2.84E-06,0,0,0,0,0,-237.2917865,0,0,0,3.44E-06,0,0,,,,
286.7519998,1120,0,761.6687651,3.21E-06,-2.81E-06,0,0,0,0,0,34.55289814,0,0,0,3.51E-06,0,0,,,,
286.7599998,1120,0,-270.2590077,3.18E-06,1.03E-06,0,0,0,0,0,54.35724334,0,0,0,3.70E-06,0,0,,,,
286.7679998,1120,0,258.1215944,3.15E-06,4.66E-06,0,0,0,0,0,-222.003198,0,0,0,3.40E-06,0,0,,,,
286.7759998,1120,0,395.0233,3.12E-06,3.50E-06,0,0,0,0,0,216.649721,0,0,0,3.58E-06,0,0,,,,
286.7839998,1120,0,-379.9188177,3.09E-06,3.56E-06,0,0,0,0,0,-226.3504546,0,0,0,3.41E-06,0,0,,,,
286.7919998,1120,0,935.5373414,3.06E-06,3.76E-06,0,0,0,0,0,-83.57750338,0,0,0,3.46E-06,0,0,,,,
286.7999998,1120,0,69.16971972,3.03E-06,3.46E-06,0,0,0,0,0,30.82006378,0,0,0,3.38E-06,0,0,,,,
286.8079998,1120,0,15.04665517,3.00E-06,3.64E-06,0,0,0,0,0,-111.751745,0,0,0,3.38E-06,0,0,,,,
286.8159998,1120,0,236.9481471,2.98E-06,3.46E-06,0,0,0,0,0,44.39390966,0,0,0,3.33E-06,0,0,,,,
286.8239998,1120,0,-26.57414574,2.95E-06,3.52E-06,0,0,0,0,0,-163.5828054,0,0,0,3.31E-06,0,0,,,,
286.8319998,1120,0,269.6647184,2.92E-06,3.44E-06,0,0,0,0,0,84.12704393,0,0,0,3.28E-06,0,0,,,,
286.8399998,1120,0,-213.5767604,2.89E-06,3.43E-06,0,0,0,0,0,-146.2500313,0,0,0,3.25E-06,0,0,,,,
286.8479998,1120,0,432.2244646,2.86E-06,3.39E-06,0,0,0,0,0,-37.50390365,0,0,0,3.22E-06,0,0,,,,
286.8559998,1120,0,-179.7047408,2.84E-06,3.36E-06,0,0,0,0,0,36.47315641,0,0,0,3.19E-06,0,0,,,,
286.8639998,1120,0,39.18151287,2.81E-06,3.33E-06,0,0,0,0,0,-250.8298356,0,0,0,3.16E-06,0,0,,,,
286.8719998,1120,0,320.6468812,-1.03E-06,3.30E-06,0,0,0,0,0,161.4416677,0,0,0,3.13E-06,0,0,,,,
286.8799998,1120,0,-442.0528832,-4.66E-06,3.27E-06,0,0,0,0,0,-207.1013101,0,0,0,3.10E-06,0,0,,,,
286.8879998,1120,0,576.044629,-3.50E-06,3.24E-06,0,0,0,0,0,-27.2217585,0,0,0,3.07E-06,0,0,,,,
286.8959998,1120,0,-273.8505305,-3.56E-06,3.21E-06,0,0,0,0,0,51.8081313,0,0,0,3.04E-06,0,0,,,,
286.9039998,1120,0,77.61020173,-3.76E-06,3.18E-06,0,0,0,0,0,-254.0132814,0,0,0,3.01E-06,0,0,,,,
286.9119998,1120,0,329.7324561,-3.46E-06,3.15E-06,0,0,0,0,0,188.5340739,0,0,0,2.98E-06,0,0,,,,
286.9199998,1120,0,-524.6273767,-3.64E-06,3.12E-06,0,0,0,0,0,-233.8186486,0,0,0,2.95E-06,0,0,,,,
286.9279998,1120,0,613.7986311,-3.46E-06,3.09E-06,0,0,0,0,0,-22.39134595,0,0,0,2.92E-06,0,0,,,,
286.9359998,1120,0,-935.4008698,-3.52E-06,3.06E-06,0,0,0,0,0,80.18797791,0,0,0,2.90E-06,0,0,,,,
286.9439998,1120,0,-612.3536771,-3.44E-06,3.03E-06,0,0,0,0,0,-410.5697792,0,0,0,2.87E-06,0,0,,,,
286.9519998,1120,0,1082.86928,-3.43E-06,3.00E-06,0,0,0,0,0,158.5718624,0,0,0,-9.74E-07,0,0,,,,
286.9599998,1120,0,-634.3098743,-3.39E-06,2.98E-06,0,0,0,0,0,3.144272942,0,0,0,-4.60E-06,0,0,,,,
286.9679998,1120,0,-15.10289201,-3.36E-06,2.95E-06,0,0,0,0,0,-267.211224,0,0,0,-3.44E-06,0,0,,,,
286.9759998,1121,0,525.5145816,-3.33E-06,2.92E-06,0,0,0,0,0,125.1600198,0,0,0,-3.51E-06,0,0,,,,
286.9839998,1121,0,-593.5576557,-3.30E-06,2.89E-06,0,0,0,0,0,-136.0281821,0,0,0,-3.70E-06,0,0,,,,
286.9919998,1121,0,393.7757153,-3.27E-06,2.86E-06,0,0,0,0,0,-129.6222888,0,0,0,-3.40E-06,0,0,,,,
286.9999998,1121,0,35.26580165,-3.24E-06,2.84E-06,0,0,0,0,0,133.8234239,0,0,0,-3.58E-06,0,0,,,,
287.0079998,1121,0,-349.1007394,-3.21E-06,2.81E-06,0,0,0,0,0,-206.2598532,0,0,0,-3.41E-06,0,0,,,,
287.0159998,1121,0,563.6415903,-3.18E-06,-1.03E-06,0,0,0,0,0,25.80081367,0,0,0,-3.46E-06,0,0,,,,
287.0239998,1121,0,-413.6533954,-3.15E-06,-4.66E-06,0,0,0,0,0,-16.39196322,0,0,0,-3.38E-06,0,0,,,,
287.0319998,1121,0,154.1318469,-3.12E-06,-3.50E-06,0,0,0,0,0,-222.5592336,0,0,0,-3.38E-06,0,0,,,,
287.0399998,1121,0,249.237876,-3.09E-06,-3.56E-06,0,0,0,0,0,182.1902727,0,0,0,-3.33E-06,0,0,,,,
287.0479998,1121,0,-488.8629392,-3.06E-06,-3.76E-06,0,0,0,0,0,-214.5356764,0,0,0,-3.31E-06,0,0,,,,
287.0559998,1121,0,598.0123756,-3.03E-06,-3.46E-06,0,0,0,0,0,-16.21888634,0,0,0,-3.28E-06,0,0,,,,
287.0639998,1121,0,-316.7993302,-3.00E-06,-3.64E-06,0,0,0,0,0,66.14299356,0,0,0,-3.25E-06,0,0,,,,
287.0719998,1121,0,88.06410878,-2.98E-06,-3.46E-06,0,0,0,0,0,-239.3137619,0,0,0,-3.22E-06,0,0,,,,
287.0799998,1121,0,320.5015778,-2.95E-06,-3.52E-06,0,0,0,0,0,184.7299293,0,0,0,-3.19E-06,0,0,,,,
287.0879998,1121,0,-556.5506355,-2.92E-06,-3.44E-06,0,0,0,0,0,-229.0758623,0,0,0,-3.16E-06,0,0,,,,
287.0959998,1121,0,583.0177833,-2.89E-06,-3.43E-06,0,0,0,0,0,-39.84649728,0,0,0,-3.13E-06,0,0,,,,
287.1039998,1121,0,-341.6319633,-2.86E-06,-3.39E-06,0,0,0,0,0,52.06818524,0,0,0,-3.10E-06,0,0,,,,
287.1119998,1121,0,33.50953932,-2.84E-06,-3.36E-06,0,0,0,0,0,-271.6688252,0,0,0,-3.07E-06,0,0,,,,
287.1199998,1121,0,341.0776881,-2.81E-06,-3.33E-06,0,0,0,0,0,190.1285523,0,0,0,-3.04E-06,0,0,,,,
287.1279998,1121,0,-569.0864256,1.03E-06,-3.30E-06,0,0,0,0,0,-225.9877352,0,0,0,-3.01E-06,0,0,,,,
287.1359998,1121,0,613.4388697,4.66E-06,-3.27E-06,0,0,0,0,0,-29.37273785,0,0,0,-2.98E-06,0,0,,,,
287.1439998,1121,0,-320.7667686,3.50E-06,-3.24E-06,0,0,0,0,0,76.60831467,0,0,0,-2.95E-06,0,0,,,,
287.1519998,1121,0,37.49289334,3.56E-06,-3.21E-06,0,0,0,0,0,-266.7233943,0,0,0,-2.92E-06,0,0,,,,
287.1599998,1121,0,406.4730355,3.76E-06,-3.18E-06,0,0,0,0,0,224.7179002,0,0,0,-2.90E-06,0,0,,,,
287.1679998,1121,0,-538.8343015,3.46E-06,-3.15E-06,0,0,0,0,0,-180.072876,0,0,0,-2.87E-06,0,0,,,,
287.1759998,1121,0,633.5694614,3.64E-06,-3.12E-06,0,0,0,0,0,-19.03983597,0,0,0,9.74E-07,0,0,,,,
287.1839998,1121,0,-294.0320402,3.46E-06,-3.09E-06,0,0,0,0,0,89.79469108,0,0,0,4.60E-06,0,0,,,,
287.1919998,1121,0,4.591922091,3.52E-06,-3.06E-06,0,0,0,0,0,-266.3925263,0,0,0,3.44E-06,0,0,,,,
287.1999998,1121,0,374.4124685,3.44E-06,-3.03E-06,0,0,0,0,0,200.2090299,0,0,0,3.51E-06,0,0,,,,
287.2079998,1121,0,-722.2205925,3.43E-06,-3.00E-06,0,0,0,0,0,-377.8568329,0,0,0,3.70E-06,0,0,,,,
287.2159998,1121,0,710.8031582,3.39E-06,-2.98E-06,0,0,0,0,0,-166.1629423,0,0,0,3.40E-06,0,0,,,,
287.2239998,1121,0,-127.056005,3.36E-06,-2.95E-06,0,0,0,0,0,324.9097752,0,0,0,3.58E-06,0,0,,,,
287.2319998,1122,0,-364.5989171,3.33E-06,-2.92E-06,0,0,0,0,0,-347.9838675,0,0,0,3.41E-06,0,0,,,,
287.2399998,1122,0,729.3319082,3.30E-06,-2.89E-06,0,0,0,0,0,140.2320422,0,0,0,3.46E-06,0,0,,,,
287.2479998,1122,0,-535.6733977,3.27E-06,-2.86E-06,0,0,0,0,0,31.00038745,0,0,0,3.38E-06,0,0,,,,
287.2559998,1122,0,262.8466453,3.24E-06,-2.84E-06,0,0,0,0,0,-235.1009789,0,0,0,3.38E-06,0,0,,,,
287.2639998,1122,0,169.4220469,3.21E-06,-2.81E-06,0,0,0,0,0,237.9323645,0,0,0,3.33E-06,0,0,,,,
287.2719998,1122,0,-536.3663868,3.18E-06,1.03E-06,0,0,0,0,0,-251.4227596,0,0,0,3.31E-06,0,0,,,,
287.2799998,1122,0,599.1585601,3.15E-06,4.66E-06,0,0,0,0,0,19.73312295,0,0,0,3.28E-06,0,0,,,,
287.2879998,1122,0,-416.4633081,3.12E-06,3.50E-06,0,0,0,0,0,60.72289677,0,0,0,3.25E-06,0,0,,,,
287.2959998,1122,0,19.07726292,3.09E-06,3.56E-06,0,0,0,0,0,-273.1597844,0,0,0,3.22E-06,0,0,,,,
287.3039998,1122,0,300.7077099,3.06E-06,3.76E-06,0,0,0,0,0,215.0336265,0,0,0,3.19E-06,0,0,,,,
287.3119998,1122,0,-604.5051551,3.03E-06,3.46E-06,0,0,0,0,0,-197.5721212,0,0,0,3.16E-06,0,0,,,,
287.3199998,1122,0,520.5018691,3.00E-06,3.64E-06,0,0,0,0,0,-35.28577089,0,0,0,3.13E-06,0,0,,,,
287.3279998,1122,0,-373.2397432,2.98E-06,3.46E-06,0,0,0,0,0,71.92333923,0,0,0,3.10E-06,0,0,,,,
287.3359998,1122,0,-64.66822312,2.95E-06,3.52E-06,0,0,0,0,0,-267.0944662,0,0,0,3.07E-06,0,0,,,,
287.3439998,1122,0,353.8376195,2.92E-06,3.44E-06,0,0,0,0,0,227.7105489,0,0,0,3.04E-06,0,0,,,,
287.3519998,1122,0,-648.0298255,2.89E-06,3.43E-06,0,0,0,0,0,-176.7940807,0,0,0,3.01E-06,0,0,,,,
287.3599998,1122,0,514.5070713,2.86E-06,3.39E-06,0,0,0,0,0,-33.52290932,0,0,0,2.98E-06,0,0,,,,
287.3679998,1122,0,-335.3018705,2.84E-06,3.36E-06,0,0,0,0,0,113.4651665,0,0,0,2.95E-06,0,0,,,,
287.3759998,1122,0,-118.9344362,2.81E-06,3.33E-06,0,0,0,0,0,-270.3920829,0,0,0,2.92E-06,0,0,,,,
287.3839998,1122,0,350.7720455,-1.03E-06,3.30E-06,0,0,0,0,0,219.4321568,0,0,0,2.90E-06,0,0,,,,
287.3919998,1122,0,-629.9801155,-4.66E-06,3.27E-06,0,0,0,0,0,-152.2713547,0,0,0,2.87E-06,0,0,,,,
287.3999998,1122,0,558.978424,-3.50E-06,3.24E-06,0,0,0,0,0,-8.782565807,0,0,0,-9.74E-07,0,0,,,,
287.4079998,1122,0,-322.443185,-3.56E-06,3.21E-06,0,0,0,0,0,141.6506969,0,0,0,-4.60E-06,0,0,,,,
287.4159998,1122,0,-150.2960418,-3.76E-06,3.18E-06,0,0,0,0,0,-271.8735305,0,0,0,-3.44E-06,0,0,,,,
287.4239998,1122,0,366.842992,-3.46E-06,3.15E-06,0,0,0,0,0,224.1027331,0,0,0,-3.51E-06,0,0,,,,
287.4319998,1122,0,-652.7034081,-3.64E-06,3.12E-06,0,0,0,0,0,-131.5462131,0,0,0,-3.70E-06,0,0,,,,
287.4399998,1122,0,500.0454868,-3.46E-06,3.09E-06,0,0,0,0,0,-24.48526594,0,0,0,-3.40E-06,0,0,,,,
287.4479998,1122,0,-336.7483623,-3.52E-06,3.06E-06,0,0,0,0,0,121.9674199,0,0,0,-3.58E-06,0,0,,,,
287.4559998,1122,0,-124.4169074,-3.44E-06,3.03E-06,0,0,0,0,0,-254.7986735,0,0,0,-3.41E-06,0,0,,,,
287.4639998,1122,0,401.6796237,-3.43E-06,3.00E-06,0,0,0,0,0,252.8171176,0,0,0,-3.46E-06,0,0,,,,
287.4719998,1122,0,-668.1860281,-3.39E-06,2.98E-06,0,0,0,0,0,-140.4171623,0,0,0,-3.38E-06,0,0,,,,
287.4799998,1122,0,493.4110268,-3.36E-06,2.95E-06,0,0,0,0,0,-36.92011584,0,0,0,-3.38E-06,0,0,,,,
287.4879998,1123,0,-332.5293891,-3.33E-06,2.92E-06,0,0,0,0,0,133.6662497,0,0,0,-3.33E-06,0,0,,,,
287.4959998,1123,0,-171.1577679,-3.30E-06,2.89E-06,0,0,0,0,0,-278.6830852,0,0,0,-3.31E-06,0,0,,,,
287.5039998,1123,0,396.8402985,-3.27E-06,2.86E-06,0,0,0,0,0,240.276785,0,0,0,-3.28E-06,0,0,,,,
287.5119998,1123,0,-641.7315231,-3.24E-06,2.84E-06,0,0,0,0,0,-113.4816079,0,0,0,-3.25E-06,0,0,,,,
287.5199998,1123,0,525.7402906,-3.21E-06,2.81E-06,0,0,0,0,0,-19.69994308,0,0,0,-3.22E-06,0,0,,,,
287.5279998,1123,0,-278.5420059,-3.18E-06,-1.03E-06,0,0,0,0,0,164.6665635,0,0,0,-3.19E-06,0,0,,,,
287.5359998,1123,0,-144.1222353,-3.15E-06,-4.66E-06,0,0,0,0,0,-248.8535204,0,0,0,-3.16E-06,0,0,,,,
287.5439998,1123,0,408.9223571,-3.12E-06,-3.50E-06,0,0,0,0,0,243.6671375,0,0,0,-3.13E-06,0,0,,,,
287.5519998,1123,0,-648.3969844,-3.09E-06,-3.56E-06,0,0,0,0,0,-113.2233377,0,0,0,-3.10E-06,0,0,,,,
287.5599998,1123,0,508.2854141,-3.06E-06,-3.76E-06,0,0,0,0,0,-22.38575857,0,0,0,-3.07E-06,0,0,,,,
287.5679998,1123,0,-298.3883541,-3.03E-06,-3.46E-06,0,0,0,0,0,158.1065038,0,0,0,-3.04E-06,0,0,,,,
287.5759998,1123,0,-159.6558578,-3.00E-06,-3.64E-06,0,0,0,0,0,-254.5078569,0,0,0,-3.01E-06,0,0,,,,
287.5839998,1123,0,425.3015111,-2.98E-06,-3.46E-06,0,0,0,0,0,240.8258696,0,0,0,-2.98E-06,0,0,,,,
287.5919998,1123,0,-643.9896499,-2.95E-06,-3.52E-06,0,0,0,0,0,-109.5410481,0,0,0,-2.95E-06,0,0,,,,
287.5999998,1123,0,529.8855985,-2.92E-06,-3.44E-06,0,0,0,0,0,-11.28988145,0,0,0,-2.92E-06,0,0,,,,
287.6079998,1123,0,-257.2566457,-2.89E-06,-3.43E-06,0,0,0,0,0,174.0672274,0,0,0,-2.90E-06,0,0,,,,
287.6159998,1123,0,-158.9473534,-2.86E-06,-3.39E-06,0,0,0,0,0,-249.2452386,0,0,0,-2.87E-06,0,0,,,,
287.6239998,1123,0,423.8349441,-2.84E-06,-3.36E-06,0,0,0,0,0,240.0727683,0,0,0,9.74E-07,0,0,,,,
287.6319998,1123,0,-690.6823062,-2.81E-06,-3.33E-06,0,0,0,0,0,-125.4580077,0,0,0,4.60E-06,0,0,,,,
287.6399998,1123,0,444.1736234,1.03E-06,-3.30E-06,0,0,0,0,0,-59.37884075,0,0,0,3.44E-06,0,0,,,,
287.6479998,1123,0,-321.1043707,4.66E-06,-3.27E-06,0,0,0,0,0,127.3682318,0,0,0,3.51E-06,0,0,,,,
287.6559998,1123,0,-231.0476387,3.50E-06,-3.24E-06,0,0,0,0,0,-287.7269684,0,0,0,3.70E-06,0,0,,,,
287.6639998,1123,0,795.7390989,3.56E-06,-3.21E-06,0,0,0,0,0,225.9952404,0,0,0,3.40E-06,0,0,,,,
287.6719998,1123,0,-324.6259196,3.76E-06,-3.18E-06,0,0,0,0,0,-46.52542546,0,0,0,3.58E-06,0,0,,,,
287.6799998,1123,0,-110.8048104,3.46E-06,-3.15E-06,0,0,0,0,0,-112.0229034,0,0,0,3.41E-06,0,0,,,,
287.6879998,1123,0,-200.3845864,3.64E-06,-3.12E-06,0,0,0,0,0,48.52982786,0,0,0,3.46E-06,0,0,,,,
287.6959998,1123,0,48.98786824,3.46E-06,-3.09E-06,0,0,0,0,0,-99.56414224,0,0,0,3.38E-06,0,0,,,,
287.7039998,1123,0,-153.5926354,3.52E-06,-3.06E-06,0,0,0,0,0,87.31380833,0,0,0,3.38E-06,0,0,,,,
287.7119998,1123,0,-205.4216023,3.44E-06,-3.03E-06,0,0,0,0,0,-432.8442432,0,0,0,3.33E-06,0,0,,,,
287.7199998,1123,0,680.995869,3.43E-06,-3.00E-06,0,0,0,0,0,-313.9293013,0,0,0,3.31E-06,0,0,,,,
287.7279998,1123,0,-131.610548,3.39E-06,-2.98E-06,0,0,0,0,0,109.2300225,0,0,0,3.28E-06,0,0,,,,
287.7359998,1123,0,-266.3666899,3.36E-06,-2.95E-06,0,0,0,0,0,3.647270122,0,0,0,3.25E-06,0,0,,,,
287.7439998,1124,0,-136.6532727,3.33E-06,-2.92E-06,0,0,0,0,0,-95.09516498,0,0,0,3.22E-06,0,0,,,,
287.7519998,1124,0,15.24739736,3.30E-06,-2.89E-06,0,0,0,0,0,10.49720117,0,0,0,3.19E-06,0,0,,,,
287.7599998,1124,0,-219.9202827,3.27E-06,-2.86E-06,0,0,0,0,0,45.90328033,0,0,0,3.16E-06,0,0,,,,
287.7679998,1124,0,-211.0066865,3.24E-06,-2.84E-06,0,0,0,0,0,-177.2562288,0,0,0,3.13E-06,0,0,,,,
287.7759998,1124,0,130.9862797,3.21E-06,-2.81E-06,0,0,0,0,0,136.3414724,0,0,0,3.10E-06,0,0,,,,
287.7839998,1124,0,-572.5809872,3.18E-06,1.03E-06,0,0,0,0,0,-96.19982513,0,0,0,3.07E-06,0,0,,,,
287.7919998,1124,0,217.755769,3.15E-06,4.66E-06,0,0,0,0,0,-61.94408511,0,0,0,3.04E-06,0,0,,,,
287.7999998,1124,0,-274.1158791,3.12E-06,3.50E-06,0,0,0,0,0,137.9975057,0,0,0,3.01E-06,0,0,,,,
287.8079998,1124,0,-324.8211383,3.09E-06,3.56E-06,0,0,0,0,0,-241.3262373,0,0,0,2.98E-06,0,0,,,,
287.8159998,1124,0,275.9241148,3.06E-06,3.76E-06,0,0,0,0,0,182.9710917,0,0,0,2.95E-06,0,0,,,,
287.8239998,1124,0,-711.97531,3.03E-06,3.46E-06,0,0,0,0,0,-90.29671697,0,0,0,2.92E-06,0,0,,,,
287.8319998,1124,0,316.0336433,3.00E-06,3.64E-06,0,0,0,0,0,-59.65114862,0,0,0,2.90E-06,0,0,,,,
287.8399998,1124,0,-279.2616056,2.98E-06,3.46E-06,0,0,0,0,0,184.0661821,0,0,0,2.87E-06,0,0,,,,
287.8479998,1124,0,-335.926129,2.95E-06,3.52E-06,0,0,0,0,0,-250.899571,0,0,0,-9.74E-07,0,0,,,,
287.8559998,1124,0,350.1550156,2.92E-06,3.44E-06,0,0,0,0,0,214.8520052,0,0,0,-4.60E-06,0,0,,,,
287.8639998,1124,0,-766.297008,2.89E-06,3.43E-06,0,0,0,0,0,-87.59273836,0,0,0,-3.44E-06,0,0,,,,
287.8719998,1124,0,320.8209789,2.86E-06,3.39E-06,0,0,0,0,0,-73.46443593,0,0,0,-3.51E-06,0,0,,,,
287.8799998,1124,0,-311.2217634,2.84E-06,3.36E-06,0,0,0,0,0,177.5719458,0,0,0,-3.70E-06,0,0,,,,
287.8879998,1124,0,-351.6752689,2.81E-06,3.33E-06,0,0,0,0,0,-262.0203555,0,0,0,-3.40E-06,0,0,,,,
287.8959998,1124,0,376.065178,-1.03E-06,3.30E-06,0,0,0,0,0,225.0462134,0,0,0,-3.58E-06,0,0,,,,
287.9039998,1124,0,-785.9353995,-4.66E-06,3.27E-06,0,0,0,0,0,-90.59647968,0,0,0,-3.41E-06,0,0,,,,
287.9119998,1124,0,342.696409,-3.50E-06,3.24E-06,0,0,0,0,0,-69.25239343,0,0,0,-3.46E-06,0,0,,,,
287.9199998,1124,0,-271.4821237,-3.56E-06,3.21E-06,0,0,0,0,0,198.3457547,0,0,0,-3.38E-06,0,0,,,,
287.9279998,1124,0,-334.4637921,-3.76E-06,3.18E-06,0,0,0,0,0,-252.6226337,0,0,0,-3.38E-06,0,0,,,,
287.9359998,1124,0,381.9856198,-3.46E-06,3.15E-06,0,0,0,0,0,232.6143997,0,0,0,-3.33E-06,0,0,,,,
287.9439998,1124,0,-808.1439744,-3.64E-06,3.12E-06,0,0,0,0,0,-99.17250157,0,0,0,-3.31E-06,0,0,,,,
287.9519998,1124,0,323.378504,-3.46E-06,3.09E-06,0,0,0,0,0,-83.53708465,0,0,0,-3.28E-06,0,0,,,,
287.9599998,1124,0,-308.6690812,-3.52E-06,3.06E-06,0,0,0,0,0,197.1543851,0,0,0,-3.25E-06,0,0,,,,
287.9679998,1124,0,-403.830828,-3.44E-06,3.03E-06,0,0,0,0,0,-275.91464,0,0,0,-3.22E-06,0,0,,,,
287.9759998,1124,0,347.1878546,-3.43E-06,3.00E-06,0,0,0,0,0,211.8253311,0,0,0,-3.19E-06,0,0,,,,
287.9839998,1124,0,-816.7421953,-3.39E-06,2.98E-06,0,0,0,0,0,-95.78190374,0,0,0,-3.16E-06,0,0,,,,
287.9919998,1124,0,351.704298,-3.36E-06,2.95E-06,0,0,0,0,0,-63.44661823,0,0,0,-3.13E-06,0,0,,,,
287.9999998,1125,0,-284.0955288,-3.33E-06,2.92E-06,0,0,0,0,0,225.7775771,0,0,0,-3.10E-06,0,0,,,,
288.0079998,1125,0,-435.2201698,-3.30E-06,2.89E-06,0,0,0,0,0,-295.252446,0,0,0,-3.07E-06,0,0,,,,
288.0159998,1125,0,359.1797645,-3.27E-06,2.86E-06,0,0,0,0,0,193.5897582,0,0,0,-3.04E-06,0,0,,,,
288.0239998,1125,0,-805.8106675,-3.24E-06,2.84E-06,0,0,0,0,0,-79.97058637,0,0,0,-3.01E-06,0,0,,,,
288.0319998,1125,0,325.3227982,-3.21E-06,2.81E-06,0,0,0,0,0,-78.81607454,0,0,0,-2.98E-06,0,0,,,,
288.0399998,1125,0,-271.9485978,-3.18E-06,-1.03E-06,0,0,0,0,0,214.9254173,0,0,0,-2.95E-06,0,0,,,,
288.0479998,1125,0,-396.7034525,-3.15E-06,-4.66E-06,0,0,0,0,0,-268.7672405,0,0,0,-2.92E-06,0,0,,,,
288.0559998,1125,0,395.1769513,-3.12E-06,-3.50E-06,0,0,0,0,0,229.2710794,0,0,0,-2.90E-06,0,0,,,,
288.0639998,1125,0,-816.9384003,-3.09E-06,-3.56E-06,0,0,0,0,0,-72.31350663,0,0,0,-2.87E-06,0,0,,,,
288.0719998,1125,0,240.166734,-3.06E-06,-3.76E-06,0,0,0,0,0,-269.5026918,0,0,0,9.74E-07,0,0,,,,
288.0799998,1125,0,-811.6674786,-3.03E-06,-3.46E-06,0,0,0,0,0,-54.2971914,0,0,0,4.60E-06,0,0,,,,
288.0879998,1125,0,-1617.598777,-3.00E-06,-3.64E-06,0,0,0,0,0,-502.5688839,0,0,0,3.44E-06,0,0,,,,
288.0959998,1125,0,-329.82453,-2.98E-06,-3.46E-06,0,0,0,0,0,-171.9485509,0,0,0,3.51E-06,0,0,,,,
288.1039998,1125,0,-544.8534594,-2.95E-06,-3.52E-06,0,0,0,0,0,-85.47022195,0,0,0,3.70E-06,0,0,,,,
288.1119998,1125,0,382.9796188,-2.92E-06,-3.44E-06,0,0,0,0,0,114.0587793,0,0,0,3.40E-06,0,0,,,,
288.1199998,1125,0,-371.9954474,-2.89E-06,-3.43E-06,0,0,0,0,0,89.97276503,0,0,0,3.58E-06,0,0,,,,
288.1279998,1125,0,-299.5238474,-2.86E-06,-3.39E-06,0,0,0,0,0,-204.6451724,0,0,0,3.41E-06,0,0,,,,
288.1359998,1125,0,390.549624,-2.84E-06,-3.36E-06,0,0,0,0,0,260.8033921,0,0,0,3.46E-06,0,0,,,,
288.1439998,1125,0,-754.5889347,-2.81E-06,-3.33E-06,0,0,0,0,0,-93.02616082,0,0,0,3.38E-06,0,0,,,,
288.1519998,1125,0,355.0525046,1.03E-06,-3.30E-06,0,0,0,0,0,-5.458848417,0,0,0,3.38E-06,0,0,,,,
288.1599998,1125,0,-287.7418265,4.66E-06,-3.27E-06,0,0,0,0,0,175.4673421,0,0,0,3.33E-06,0,0,,,,
288.1679998,1125,0,-374.2652966,3.50E-06,-3.24E-06,0,0,0,0,0,-250.9022466,0,0,0,3.31E-06,0,0,,,,
288.1759998,1125,0,421.8184369,3.56E-06,-3.21E-06,0,0,0,0,0,227.5577091,0,0,0,3.28E-06,0,0,,,,
288.1839998,1125,0,-780.5282378,3.76E-06,-3.18E-06,0,0,0,0,0,-76.83703606,0,0,0,3.25E-06,0,0,,,,
288.1919998,1125,0,367.5521191,3.46E-06,-3.15E-06,0,0,0,0,0,-43.13999882,0,0,0,3.22E-06,0,0,,,,
288.1999998,1125,0,-210.2932111,3.64E-06,-3.12E-06,0,0,0,0,0,241.9815937,0,0,0,3.19E-06,0,0,,,,
288.2079998,1125,0,-416.9731624,3.46E-06,-3.09E-06,0,0,0,0,0,-262.3036299,0,0,0,3.16E-06,0,0,,,,
288.2159998,1125,0,448.9696463,3.52E-06,-3.06E-06,0,0,0,0,0,227.5074834,0,0,0,3.13E-06,0,0,,,,
288.2239998,1125,0,-807.5212945,3.44E-06,-3.03E-06,0,0,0,0,0,-56.46141819,0,0,0,3.10E-06,0,0,,,,
288.2319998,1125,0,255.0907944,3.43E-06,-3.00E-06,0,0,0,0,0,-114.8223907,0,0,0,3.07E-06,0,0,,,,
288.2399998,1125,0,-270.9813592,3.39E-06,-2.98E-06,0,0,0,0,0,206.0243693,0,0,0,3.04E-06,0,0,,,,
288.2479998,1125,0,-489.7753968,3.36E-06,-2.95E-06,0,0,0,0,0,-299.4942156,0,0,0,3.01E-06,0,0,,,,
288.2559998,1126,0,399.1735413,3.33E-06,-2.92E-06,0,0,0,0,0,201.9807398,0,0,0,2.98E-06,0,0,,,,
288.2639998,1126,0,-820.4025292,3.30E-06,-2.89E-06,0,0,0,0,0,-53.39915949,0,0,0,2.95E-06,0,0,,,,
288.2719998,1126,0,272.3246263,3.27E-06,-2.86E-06,0,0,0,0,0,-111.9739675,0,0,0,2.92E-06,0,0,,,,
288.2799998,1126,0,-274.8148632,3.24E-06,-2.84E-06,0,0,0,0,0,220.7774892,0,0,0,2.90E-06,0,0,,,,
288.2879998,1126,0,-519.4705265,3.21E-06,-2.81E-06,0,0,0,0,0,-309.8892406,0,0,0,2.87E-06,0,0,,,,
288.2959998,1126,0,403.6835034,3.18E-06,1.03E-06,0,0,0,0,0,187.7300184,0,0,0,-9.74E-07,0,0,,,,
288.3039998,1126,0,-872.4960462,3.15E-06,4.66E-06,0,0,0,0,0,-68.874493,0,0,0,-4.60E-06,0,0,,,,
288.3119998,1126,0,217.8691395,3.12E-06,3.50E-06,0,0,0,0,0,-141.5137221,0,0,0,-3.44E-06,0,0,,,,
288.3199998,1126,0,-265.562675,3.09E-06,3.56E-06,0,0,0,0,0,223.7752787,0,0,0,-3.51E-06,0,0,,,,
288.3279998,1126,0,-534.5435149,3.06E-06,3.76E-06,0,0,0,0,0,-299.9419853,0,0,0,-3.70E-06,0,0,,,,
288.3359998,1126,0,405.3773998,3.03E-06,3.46E-06,0,0,0,0,0,195.7951001,0,0,0,-3.40E-06,0,0,,,,
288.3439998,1126,0,-874.1223531,3.00E-06,3.64E-06,0,0,0,0,0,-56.05562771,0,0,0,-3.58E-06,0,0,,,,
288.3519998,1126,0,200.5739339,2.98E-06,3.46E-06,0,0,0,0,0,-144.1532313,0,0,0,-3.41E-06,0,0,,,,
288.3599998,1126,0,-279.184393,2.95E-06,3.52E-06,0,0,0,0,0,218.0833916,0,0,0,-3.46E-06,0,0,,,,
288.3679998,1126,0,-589.7107735,2.92E-06,3.44E-06,0,0,0,0,0,-327.7967443,0,0,0,-3.38E-06,0,0,,,,
288.3759998,1126,0,377.5130146,2.89E-06,3.43E-06,0,0,0,0,0,165.3615816,0,0,0,-3.38E-06,0,0,,,,
288.3839998,1126,0,-879.232303,2.86E-06,3.39E-06,0,0,0,0,0,-60.42465668,0,0,0,-3.33E-06,0,0,,,,
288.3919998,1126,0,202.0075981,2.84E-06,3.36E-06,0,0,0,0,0,-139.1695916,0,0,0,-3.31E-06,0,0,,,,
288.3999998,1126,0,-271.578976,2.81E-06,3.33E-06,0,0,0,0,0,233.2753461,0,0,0,-3.28E-06,0,0,,,,
288.4079998,1126,0,-622.1224336,-1.03E-06,3.30E-06,0,0,0,0,0,-330.1345906,0,0,0,-3.25E-06,0,0,,,,
288.4159998,1126,0,352.9681374,-4.66E-06,3.27E-06,0,0,0,0,0,148.9755281,0,0,0,-3.22E-06,0,0,,,,
288.4239998,1126,0,-924.2075814,-3.50E-06,3.24E-06,0,0,0,0,0,-76.0430327,0,0,0,-3.19E-06,0,0,,,,
288.4319998,1126,0,142.4626311,-3.56E-06,3.21E-06,0,0,0,0,0,-170.9886468,0,0,0,-3.16E-06,0,0,,,,
288.4399998,1126,0,-285.4881077,-3.76E-06,3.18E-06,0,0,0,0,0,215.313796,0,0,0,-3.13E-06,0,0,,,,
288.4479998,1126,0,-625.1403919,-3.46E-06,3.15E-06,0,0,0,0,0,-325.2279881,0,0,0,-3.10E-06,0,0,,,,
288.4559998,1126,0,362.9550139,-3.64E-06,3.12E-06,0,0,0,0,0,159.8534441,0,0,0,-3.07E-06,0,0,,,,
288.4639998,1126,0,-923.713702,-3.46E-06,3.09E-06,0,0,0,0,0,-69.94122607,0,0,0,-3.04E-06,0,0,,,,
288.4719998,1126,0,135.9096794,-3.52E-06,3.06E-06,0,0,0,0,0,-171.2324099,0,0,0,-3.01E-06,0,0,,,,
288.4799998,1126,0,-282.685231,-3.44E-06,3.03E-06,0,0,0,0,0,223.0654418,0,0,0,-2.98E-06,0,0,,,,
288.4879998,1126,0,-650.7143164,-3.43E-06,3.00E-06,0,0,0,0,0,-329.8953546,0,0,0,-2.95E-06,0,0,,,,
288.4959998,1126,0,355.7904601,-3.39E-06,2.98E-06,0,0,0,0,0,152.881063,0,0,0,-2.92E-06,0,0,,,,
288.5039998,1126,0,-926.1815102,-3.36E-06,2.95E-06,0,0,0,0,0,-67.70213045,0,0,0,-2.90E-06,0,0,,,,
288.5119998,1127,0,115.084453,-3.33E-06,2.92E-06,0,0,0,0,0,-179.4271205,0,0,0,-2.87E-06,0,0,,,,
288.5199998,1127,0,-280.209478,-3.30E-06,2.89E-06,0,0,0,0,0,221.598304,0,0,0,9.74E-07,0,0,,,,
288.5279998,1127,0,-637.9075749,-3.27E-06,2.86E-06,0,0,0,0,0,-329.4006568,0,0,0,4.60E-06,0,0,,,,
288.5359998,1127,0,388.7888531,-3.24E-06,2.84E-06,0,0,0,0,0,159.2126584,0,0,0,3.44E-06,0,0,,,,
288.5439998,1127,0,-917.2770936,-3.21E-06,2.81E-06,0,0,0,0,0,-59.72098324,0,0,0,3.51E-06,0,0,,,,
288.5519998,1127,0,-49.04807437,-3.18E-06,-1.03E-06,0,0,0,0,0,-395.9751849,0,0,0,3.70E-06,0,0,,,,
288.5599998,1127,0,-139.1457801,-3.15E-06,-4.66E-06,0,0,0,0,0,68.61378946,0,0,0,3.40E-06,0,0,,,,
288.5679998,1127,0,-479.8928991,-3.12E-06,-3.50E-06,0,0,0,0,0,-62.7409882,0,0,0,3.58E-06,0,0,,,,
288.5759998,1127,0,-225.3855644,-3.09E-06,-3.56E-06,0,0,0,0,0,312.1199887,0,0,0,3.41E-06,0,0,,,,
288.5839998,1127,0,-1371.283161,-3.06E-06,-3.76E-06,0,0,0,0,0,226.7597544,0,0,0,3.46E-06,0,0,,,,
288.5919998,1127,0,-459.562454,-3.03E-06,-3.46E-06,0,0,0,0,0,93.05356903,0,0,0,3.38E-06,0,0,,,,
288.5999998,1127,0,-523.6779514,-3.00E-06,-3.64E-06,0,0,0,0,0,38.48686747,0,0,0,3.38E-06,0,0,,,,
288.6079998,1127,0,-173.9282915,-2.98E-06,-3.46E-06,0,0,0,0,0,-256.9793928,0,0,0,3.33E-06,0,0,,,,
288.6159998,1127,0,130.4219744,-2.95E-06,-3.52E-06,0,0,0,0,0,178.9585931,0,0,0,3.31E-06,0,0,,,,
288.6239998,1127,0,-835.3486374,-2.92E-06,-3.44E-06,0,0,0,0,0,-135.7948919,0,0,0,3.28E-06,0,0,,,,
288.6319998,1127,0,298.1099296,-2.89E-06,-3.43E-06,0,0,0,0,0,-86.6222926,0,0,0,3.25E-06,0,0,,,,
288.6399998,1127,0,-410.9544197,-2.86E-06,-3.39E-06,0,0,0,0,0,190.0134683,0,0,0,3.22E-06,0,0,,,,
288.6479998,1127,0,-475.9132934,-2.84E-06,-3.36E-06,0,0,0,0,0,-313.9774873,0,0,0,3.19E-06,0,0,,,,
288.6559998,1127,0,321.8300694,-2.81E-06,-3.33E-06,0,0,0,0,0,152.7038139,0,0,0,3.16E-06,0,0,,,,
288.6639998,1127,0,-841.7829914,1.03E-06,-3.30E-06,0,0,0,0,0,-53.8431627,0,0,0,3.13E-06,0,0,,,,
288.6719998,1127,0,209.9620778,4.66E-06,-3.27E-06,0,0,0,0,0,-142.3766568,0,0,0,3.10E-06,0,0,,,,
288.6799998,1127,0,-236.6280316,3.50E-06,-3.24E-06,0,0,0,0,0,240.7949524,0,0,0,3.07E-06,0,0,,,,
288.6879998,1127,0,-588.1685942,3.56E-06,-3.21E-06,0,0,0,0,0,-301.8850357,0,0,0,3.04E-06,0,0,,,,
288.6959998,1127,0,392.2135023,3.76E-06,-3.18E-06,0,0,0,0,0,135.9346556,0,0,0,3.01E-06,0,0,,,,
288.7039998,1127,0,-843.9487926,3.46E-06,-3.15E-06,0,0,0,0,0,-40.79011139,0,0,0,2.98E-06,0,0,,,,
288.7119998,1127,0,151.6218876,3.64E-06,-3.12E-06,0,0,0,0,0,-172.8229674,0,0,0,2.95E-06,0,0,,,,
288.7199998,1127,0,-145.7931739,3.46E-06,-3.09E-06,0,0,0,0,0,259.0958626,0,0,0,2.92E-06,0,0,,,,
288.7279998,1127,0,-605.184091,3.52E-06,-3.06E-06,0,0,0,0,0,-297.7932826,0,0,0,2.90E-06,0,0,,,,
288.7359998,1127,0,447.4445988,3.44E-06,-3.03E-06,0,0,0,0,0,142.0126478,0,0,0,2.87E-06,0,0,,,,
288.7439998,1127,0,-841.2767501,3.43E-06,-3.00E-06,0,0,0,0,0,-30.8956276,0,0,0,-9.74E-07,0,0,,,,
288.7519998,1127,0,120.626026,3.39E-06,-2.98E-06,0,0,0,0,0,-199.8330385,0,0,0,-4.60E-06,0,0,,,,
288.7599998,1127,0,-145.7403646,3.36E-06,-2.95E-06,0,0,0,0,0,246.7312205,0,0,0,-3.44E-06,0,0,,,,
288.7679998,1128,0,-655.575901,3.33E-06,-2.92E-06,0,0,0,0,0,-312.4788231,0,0,0,-3.51E-06,0,0,,,,
288.7759998,1128,0,445.0944793,3.30E-06,-2.89E-06,0,0,0,0,0,130.3651019,0,0,0,-3.70E-06,0,0,,,,
288.7839998,1128,0,-855.2702241,3.27E-06,-2.86E-06,0,0,0,0,0,-23.75991964,0,0,0,-3.40E-06,0,0,,,,
288.7919998,1128,0,72.28011115,3.24E-06,-2.84E-06,0,0,0,0,0,-213.4047062,0,0,0,-3.58E-06,0,0,,,,
288.7999998,1128,0,-170.9655748,3.21E-06,-2.81E-06,0,0,0,0,0,227.3607085,0,0,0,-3.41E-06,0,0,,,,
288.8079998,1128,0,-697.5827273,3.18E-06,1.03E-06,0,0,0,0,0,-325.8644123,0,0,0,-3.46E-06,0,0,,,,
288.8159998,1128,0,420.3227465,3.15E-06,4.66E-06,0,0,0,0,0,119.5332099,0,0,0,-3.38E-06,0,0,,,,
288.8239998,1128,0,-862.4678783,3.12E-06,3.50E-06,0,0,0,0,0,-29.38874469,0,0,0,-3.38E-06,0,0,,,,
288.8319998,1128,0,106.96225,3.09E-06,3.56E-06,0,0,0,0,0,-196.4507891,0,0,0,-3.33E-06,0,0,,,,
288.8399998,1128,0,-102.8056236,3.06E-06,3.76E-06,0,0,0,0,0,285.4302925,0,0,0,-3.31E-06,0,0,,,,
288.8479998,1128,0,-701.295432,3.03E-06,3.46E-06,0,0,0,0,0,-303.9102571,0,0,0,-3.28E-06,0,0,,,,
288.8559998,1128,0,420.4582491,3.00E-06,3.64E-06,0,0,0,0,0,108.2941661,0,0,0,-3.25E-06,0,0,,,,
288.8639998,1128,0,-835.9108647,2.98E-06,3.46E-06,0,0,0,0,0,-11.97338836,0,0,0,-3.22E-06,0,0,,,,
288.8719998,1128,0,76.91501053,2.95E-06,3.52E-06,0,0,0,0,0,-205.8908617,0,0,0,-3.19E-06,0,0,,,,
288.8799998,1128,0,-137.8056377,2.92E-06,3.44E-06,0,0,0,0,0,252.0287906,0,0,0,-3.16E-06,0,0,,,,
288.8879998,1128,0,-682.4517184,2.89E-06,3.43E-06,0,0,0,0,0,-305.5992046,0,0,0,-3.13E-06,0,0,,,,
288.8959998,1128,0,459.3453462,2.86E-06,3.39E-06,0,0,0,0,0,128.3356225,0,0,0,-3.10E-06,0,0,,,,
288.9039998,1128,0,-837.8455447,2.84E-06,3.36E-06,0,0,0,0,0,-2.988131367,0,0,0,-3.07E-06,0,0,,,,
288.9119998,1128,0,99.44208048,2.81E-06,3.33E-06,0,0,0,0,0,-196.1539594,0,0,0,-3.04E-06,0,0,,,,
288.9199998,1128,0,-85.95269846,-1.03E-06,3.30E-06,0,0,0,0,0,286.1044856,0,0,0,-3.01E-06,0,0,,,,
288.9279998,1128,0,-684.1593455,-4.66E-06,3.27E-06,0,0,0,0,0,-289.1834469,0,0,0,-2.98E-06,0,0,,,,
288.9359998,1128,0,473.4289486,-3.50E-06,3.24E-06,0,0,0,0,0,130.0934596,0,0,0,-2.95E-06,0,0,,,,
288.9439998,1128,0,-823.9568447,-3.56E-06,3.21E-06,0,0,0,0,0,6.012397105,0,0,0,-2.92E-06,0,0,,,,
288.9519998,1128,0,95.37024034,-3.76E-06,3.18E-06,0,0,0,0,0,-198.7185556,0,0,0,-2.90E-06,0,0,,,,
288.9599998,1128,0,-70.47629691,-3.46E-06,3.15E-06,0,0,0,0,0,291.6232158,0,0,0,-2.87E-06,0,0,,,,
288.9679998,1128,0,-711.4890351,-3.64E-06,3.12E-06,0,0,0,0,0,-294.5648232,0,0,0,9.74E-07,0,0,,,,
288.9759998,1128,0,460.8342625,-3.46E-06,3.09E-06,0,0,0,0,0,116.3013694,0,0,0,4.60E-06,0,0,,,,
288.9839998,1128,0,-833.4196032,-3.52E-06,3.06E-06,0,0,0,0,0,6.111102504,0,0,0,3.44E-06,0,0,,,,
288.9919998,1128,0,50.66139374,-3.44E-06,3.03E-06,0,0,0,0,0,-221.3032438,0,0,0,3.51E-06,0,0,,,,
288.9999998,1128,0,-65.58431107,-3.43E-06,3.00E-06,0,0,0,0,0,280.2810356,0,0,0,3.70E-06,0,0,,,,
289.0079998,1128,0,-705.7148882,-3.39E-06,2.98E-06,0,0,0,0,0,-282.2703916,0,0,0,3.40E-06,0,0,,,,
289.0159998,1128,0,462.9568571,-3.36E-06,2.95E-06,0,0,0,0,0,122.0905691,0,0,0,3.58E-06,0,0,,,,
289.0239998,1129,0,-821.3496244,-3.33E-06,2.92E-06,0,0,0,0,0,16.3592865,0,0,0,3.41E-06,0,0,,,,
289.0319998,1129,0,546.3731627,-3.30E-06,2.89E-06,0,0,0,0,0,-370.7610914,0,0,0,3.46E-06,0,0,,,,
289.0399998,1129,0,691.1001871,-3.27E-06,2.86E-06,0,0,0,0,0,341.3281353,0,0,0,3.38E-06,0,0,,,,
289.0479998,1129,0,-1337.74508,-3.24E-06,2.84E-06,0,0,0,0,0,-89.55925681,0,0,0,3.38E-06,0,0,,,,
289.0559998,1129,0,309.3319041,-3.21E-06,2.81E-06,0,0,0,0,0,-182.7592865,0,0,0,3.33E-06,0,0,,,,
289.0639998,1129,0,-55.66969334,-3.18E-06,-1.03E-06,0,0,0,0,0,213.9437741,0,0,0,3.31E-06,0,0,,,,
289.0719998,1129,0,-873.2533891,-3.15E-06,-4.66E-06,0,0,0,0,0,-209.1138738,0,0,0,3.28E-06,0,0,,,,
289.0799998,1129,0,359.7560972,-3.12E-06,-3.50E-06,0,0,0,0,0,-26.82497738,0,0,0,3.25E-06,0,0,,,,
289.0879998,1129,0,-532.1930964,-3.09E-06,-3.56E-06,0,0,0,0,0,138.9758185,0,0,0,3.22E-06,0,0,,,,
289.0959998,1129,0,-419.5711993,-3.06E-06,-3.76E-06,0,0,0,0,0,-258.7476648,0,0,0,3.19E-06,0,0,,,,
289.1039998,1129,0,270.442218,-3.03E-06,-3.46E-06,0,0,0,0,0,132.7868662,0,0,0,3.16E-06,0,0,,,,
289.1119998,1129,0,-798.0847162,-3.00E-06,-3.64E-06,0,0,0,0,0,-25.63548164,0,0,0,3.13E-06,0,0,,,,
289.1199998,1129,0,82.23914242,-2.98E-06,-3.46E-06,0,0,0,0,0,-159.2670081,0,0,0,3.10E-06,0,0,,,,
289.1279998,1129,0,-232.0550451,-2.95E-06,-3.52E-06,0,0,0,0,0,218.1214071,0,0,0,3.07E-06,0,0,,,,
289.1359998,1129,0,-698.979055,-2.92E-06,-3.44E-06,0,0,0,0,0,-288.1639387,0,0,0,3.04E-06,0,0,,,,
289.1439998,1129,0,1075.653022,-2.89E-06,-3.43E-06,0,0,0,0,0,306.974789,0,0,0,3.01E-06,0,0,,,,
289.1519998,1129,0,372.4276975,-2.86E-06,-3.39E-06,0,0,0,0,0,557.4462028,0,0,0,2.98E-06,0,0,,,,
289.1599998,1129,0,-481.1572474,-2.84E-06,-3.36E-06,0,0,0,0,0,-190.0137141,0,0,0,2.95E-06,0,0,,,,
289.1679998,1129,0,-455.8424723,-2.81E-06,-3.33E-06,0,0,0,0,0,-102.2379903,0,0,0,2.92E-06,0,0,,,,
289.1759998,1129,0,-144.7156168,1.03E-06,-3.30E-06,0,0,0,0,0,-26.32152177,0,0,0,2.90E-06,0,0,,,,
289.1839998,1129,0,-325.4987296,4.66E-06,-3.27E-06,0,0,0,0,0,16.93320042,0,0,0,2.87E-06,0,0,,,,
289.1919998,1129,0,-605.14945,3.50E-06,-3.24E-06,0,0,0,0,0,-175.6860153,0,0,0,-9.74E-07,0,0,,,,
289.1999998,1129,0,106.070093,3.56E-06,-3.21E-06,0,0,0,0,0,10.85082861,0,0,0,-4.60E-06,0,0,,,,
289.2079998,1129,0,-761.798419,3.76E-06,-3.18E-06,0,0,0,0,0,-42.07089781,0,0,0,-3.44E-06,0,0,,,,
289.2159998,1129,0,-143.1490522,3.46E-06,-3.15E-06,0,0,0,0,0,-187.2619369,0,0,0,-3.51E-06,0,0,,,,
289.2239998,1129,0,-184.9731603,3.64E-06,-3.12E-06,0,0,0,0,0,178.0345973,0,0,0,-3.70E-06,0,0,,,,
289.2319998,1129,0,-795.7261013,3.46E-06,-3.09E-06,0,0,0,0,0,-257.6945252,0,0,0,-3.40E-06,0,0,,,,
289.2399998,1129,0,279.5860494,3.52E-06,-3.06E-06,0,0,0,0,0,47.04072344,0,0,0,-3.58E-06,0,0,,,,
289.2479998,1129,0,-872.9068608,3.44E-06,-3.03E-06,0,0,0,0,0,-8.153111434,0,0,0,-3.41E-06,0,0,,,,
289.2559998,1129,0,-198.5459621,3.43E-06,-3.00E-06,0,0,0,0,0,-272.9469733,0,0,0,-3.46E-06,0,0,,,,
289.2639998,1129,0,-174.9856484,3.39E-06,-2.98E-06,0,0,0,0,0,212.2149876,0,0,0,-3.38E-06,0,0,,,,
289.2719998,1129,0,-922.2419248,3.36E-06,-2.95E-06,0,0,0,0,0,-307.6252003,0,0,0,-3.38E-06,0,0,,,,
289.2799998,1130,0,286.1609334,3.33E-06,-2.92E-06,0,0,0,0,0,33.73736253,0,0,0,-3.33E-06,0,0,,,,
289.2879998,1130,0,-904.9860603,3.30E-06,-2.89E-06,0,0,0,0,0,12.57139332,0,0,0,-3.31E-06,0,0,,,,
289.2959998,1130,0,-205.1736303,3.27E-06,-2.86E-06,0,0,0,0,0,-272.4219082,0,0,0,-3.28E-06,0,0,,,,
289.3039998,1130,0,-163.0802157,3.24E-06,-2.84E-06,0,0,0,0,0,238.3615714,0,0,0,-3.25E-06,0,0,,,,
289.3119998,1130,0,-915.6599716,3.21E-06,-2.81E-06,0,0,0,0,0,-299.261671,0,0,0,-3.22E-06,0,0,,,,
289.3199998,1130,0,356.2141364,3.18E-06,1.03E-06,0,0,0,0,0,67.57593426,0,0,0,-3.19E-06,0,0,,,,
289.3279998,1130,0,-879.6316797,3.15E-06,4.66E-06,0,0,0,0,0,38.75102113,0,0,0,-3.16E-06,0,0,,,,
289.3359998,1130,0,-175.9767433,3.12E-06,3.50E-06,0,0,0,0,0,-265.5113442,0,0,0,-3.13E-06,0,0,,,,
289.3439998,1130,0,-115.7583939,3.09E-06,3.56E-06,0,0,0,0,0,259.1183141,0,0,0,-3.10E-06,0,0,,,,
289.3519998,1130,0,-916.4957216,3.06E-06,3.76E-06,0,0,0,0,0,-293.3047177,0,0,0,-3.07E-06,0,0,,,,
289.3599998,1130,0,378.997662,3.03E-06,3.46E-06,0,0,0,0,0,73.23687205,0,0,0,-3.04E-06,0,0,,,,
289.3679998,1130,0,-861.8501102,3.00E-06,3.64E-06,0,0,0,0,0,50.96620123,0,0,0,-3.01E-06,0,0,,,,
289.3759998,1130,0,-184.4408755,2.98E-06,3.46E-06,0,0,0,0,0,-272.7707564,0,0,0,-2.98E-06,0,0,,,,
289.3839998,1130,0,-85.58951425,2.95E-06,3.52E-06,0,0,0,0,0,259.3337351,0,0,0,-2.95E-06,0,0,,,,
289.3919998,1130,0,-909.8906492,2.92E-06,3.44E-06,0,0,0,0,0,-290.3653604,0,0,0,-2.92E-06,0,0,,,,
289.3999998,1130,0,385.4740966,2.89E-06,3.43E-06,0,0,0,0,0,57.67594381,0,0,0,-2.90E-06,0,0,,,,
289.4079998,1130,0,-813.4132956,2.86E-06,3.39E-06,0,0,0,0,0,56.31386926,0,0,0,-2.87E-06,0,0,,,,
289.4159998,1130,0,-156.5655647,2.84E-06,3.36E-06,0,0,0,0,0,-253.5151513,0,0,0,9.74E-07,0,0,,,,
289.4239998,1130,0,-56.71903813,2.81E-06,3.33E-06,0,0,0,0,0,270.9088163,0,0,0,4.60E-06,0,0,,,,
289.4319998,1130,0,-889.2675822,-1.03E-06,3.30E-06,0,0,0,0,0,-281.3160156,0,0,0,3.44E-06,0,0,,,,
289.4399998,1130,0,384.0041568,-4.66E-06,3.27E-06,0,0,0,0,0,59.07361016,0,0,0,3.51E-06,0,0,,,,
289.4479998,1130,0,-830.5448039,-3.50E-06,3.24E-06,0,0,0,0,0,41.21420349,0,0,0,3.70E-06,0,0,,,,
289.4559998,1130,0,-158.9970909,-3.56E-06,3.21E-06,0,0,0,0,0,-278.8149112,0,0,0,3.40E-06,0,0,,,,
289.4639998,1130,0,-6.613696683,-3.76E-06,3.18E-06,0,0,0,0,0,286.7508767,0,0,0,3.58E-06,0,0,,,,
289.4719998,1130,0,-857.5736473,-3.46E-06,3.15E-06,0,0,0,0,0,-256.2162758,0,0,0,3.41E-06,0,0,,,,
289.4799998,1130,0,421.3684691,-3.64E-06,3.12E-06,0,0,0,0,0,60.67622805,0,0,0,3.46E-06,0,0,,,,
289.4879998,1130,0,-768.6353633,-3.46E-06,3.09E-06,0,0,0,0,0,68.66641043,0,0,0,3.38E-06,0,0,,,,
289.4959998,1130,0,-133.8766329,-3.52E-06,3.06E-06,0,0,0,0,0,-262.3083065,0,0,0,3.38E-06,0,0,,,,
289.5039998,1130,0,-12.57899015,-3.44E-06,3.03E-06,0,0,0,0,0,271.4712342,0,0,0,3.33E-06,0,0,,,,
289.5119998,1130,0,-869.6803186,-3.43E-06,3.00E-06,0,0,0,0,0,-274.069047,0,0,0,3.31E-06,0,0,,,,
289.5199998,1130,0,453.1133042,-3.39E-06,2.98E-06,0,0,0,0,0,59.36341497,0,0,0,3.28E-06,0,0,,,,
289.5279998,1130,0,-738.7746219,-3.36E-06,2.95E-06,0,0,0,0,0,83.38136417,0,0,0,3.25E-06,0,0,,,,
289.5359998,1131,0,-116.8250084,-3.33E-06,2.92E-06,0,0,0,0,0,-259.3671065,0,0,0,3.22E-06,0,0,,,,
289.5439998,1131,0,38.03536795,-3.30E-06,2.89E-06,0,0,0,0,0,288.6347174,0,0,0,3.19E-06,0,0,,,,
289.5519998,1131,0,-947.5547016,-3.27E-06,2.86E-06,0,0,0,0,0,-464.5229574,0,0,0,3.16E-06,0,0,,,,
289.5599998,1131,0,650.8402022,-3.24E-06,2.84E-06,0,0,0,0,0,-80.38917448,0,0,0,3.13E-06,0,0,,,,
289.5679998,1131,0,-665.0903863,-3.21E-06,2.81E-06,0,0,0,0,0,338.3481998,0,0,0,3.10E-06,0,0,,,,
289.5759998,1131,0,-520.6681501,-3.18E-06,-1.03E-06,0,0,0,0,0,-423.8226001,0,0,0,3.07E-06,0,0,,,,
289.5839998,1131,0,498.0670648,-3.15E-06,-4.66E-06,0,0,0,0,0,238.8313914,0,0,0,3.04E-06,0,0,,,,
289.5919998,1131,0,-979.1267319,-3.12E-06,-3.50E-06,0,0,0,0,0,-24.95092734,0,0,0,3.01E-06,0,0,,,,
289.5999998,1131,0,176.5073184,-3.09E-06,-3.56E-06,0,0,0,0,0,-226.2784558,0,0,0,2.98E-06,0,0,,,,
289.6079998,1131,0,-157.4555161,-3.06E-06,-3.76E-06,0,0,0,0,0,316.8317062,0,0,0,2.95E-06,0,0,,,,
289.6159998,1131,0,-696.6818435,-3.03E-06,-3.46E-06,0,0,0,0,0,-266.8673942,0,0,0,2.92E-06,0,0,,,,
289.6239998,1131,0,468.2735044,-3.00E-06,-3.64E-06,0,0,0,0,0,121.8357968,0,0,0,2.90E-06,0,0,,,,
289.6319998,1131,0,-777.3390287,-2.98E-06,-3.46E-06,0,0,0,0,0,51.84814721,0,0,0,2.87E-06,0,0,,,,
289.6399998,1131,0,-21.39474868,-2.95E-06,-3.52E-06,0,0,0,0,0,-237.6854072,0,0,0,-9.74E-07,0,0,,,,
289.6479998,1131,0,47.87575718,-2.92E-06,-3.44E-06,0,0,0,0,0,318.7703664,0,0,0,-4.60E-06,0,0,,,,
289.6559998,1131,0,-752.1841493,-2.89E-06,-3.43E-06,0,0,0,0,0,-229.2217117,0,0,0,-3.44E-06,0,0,,,,
289.6639998,1131,0,519.0322806,-2.86E-06,-3.39E-06,0,0,0,0,0,87.09056789,0,0,0,-3.51E-06,0,0,,,,
289.6719998,1131,0,-617.772734,-2.84E-06,-3.36E-06,0,0,0,0,0,126.4241186,0,0,0,-3.70E-06,0,0,,,,
289.6799998,1131,0,-67.17721334,-2.81E-06,-3.33E-06,0,0,0,0,0,-237.323898,0,0,0,-3.40E-06,0,0,,,,
289.6879998,1131,0,129.7454981,1.03E-06,-3.30E-06,0,0,0,0,0,297.6482034,0,0,0,-3.58E-06,0,0,,,,
289.6959998,1131,0,-765.0450706,4.66E-06,-3.27E-06,0,0,0,0,0,-220.9268433,0,0,0,-3.41E-06,0,0,,,,
289.7039998,1131,0,530.9447608,3.50E-06,-3.24E-06,0,0,0,0,0,66.12277012,0,0,0,-3.46E-06,0,0,,,,
289.7119998,1131,0,-611.8153999,3.56E-06,-3.21E-06,0,0,0,0,0,117.2226069,0,0,0,-3.38E-06,0,0,,,,
289.7199998,1131,0,-82.93561004,3.76E-06,-3.18E-06,0,0,0,0,0,-256.4238112,0,0,0,-3.38E-06,0,0,,,,
289.7279998,1131,0,214.1263882,3.46E-06,-3.15E-06,0,0,0,0,0,320.3401573,0,0,0,-3.33E-06,0,0,,,,
289.7359998,1131,0,-758.8803598,3.64E-06,-3.12E-06,0,0,0,0,0,-195.7949884,0,0,0,-3.31E-06,0,0,,,,
289.7439998,1131,0,523.5271252,3.46E-06,-3.09E-06,0,0,0,0,0,42.95117677,0,0,0,-3.28E-06,0,0,,,,
289.7519998,1131,0,-606.5018125,3.52E-06,-3.06E-06,0,0,0,0,0,107.5117018,0,0,0,-3.25E-06,0,0,,,,
289.7599998,1131,0,-126.9868254,3.44E-06,-3.03E-06,0,0,0,0,0,-280.5028266,0,0,0,-3.22E-06,0,0,,,,
289.7679998,1131,0,198.8224021,3.43E-06,-3.00E-06,0,0,0,0,0,278.9575264,0,0,0,-3.19E-06,0,0,,,,
289.7759998,1131,0,-765.0130618,3.39E-06,-2.98E-06,0,0,0,0,0,-210.3860532,0,0,0,-3.16E-06,0,0,,,,
289.7839998,1131,0,539.6351687,3.36E-06,-2.95E-06,0,0,0,0,0,44.19292933,0,0,0,-3.13E-06,0,0,,,,
289.7919998,1132,0,-571.4497717,3.33E-06,-2.92E-06,0,0,0,0,0,113.741393,0,0,0,-3.10E-06,0,0,,,,
289.7999998,1132,0,-94.81918263,3.30E-06,-2.89E-06,0,0,0,0,0,-265.1532031,0,0,0,-3.07E-06,0,0,,,,
289.8079998,1132,0,245.2327517,3.27E-06,-2.86E-06,0,0,0,0,0,312.6378484,0,0,0,-3.04E-06,0,0,,,,
289.8159998,1132,0,-767.2269591,3.24E-06,-2.84E-06,0,0,0,0,0,-188.1533431,0,0,0,-3.01E-06,0,0,,,,
289.8239998,1132,0,532.8486993,3.21E-06,-2.81E-06,0,0,0,0,0,45.24471417,0,0,0,-2.98E-06,0,0,,,,
289.8319998,1132,0,-565.3319766,3.18E-06,1.03E-06,0,0,0,0,0,116.8111989,0,0,0,-2.95E-06,0,0,,,,
289.8399998,1132,0,-134.9182382,3.15E-06,4.66E-06,0,0,0,0,0,-274.6438516,0,0,0,-2.92E-06,0,0,,,,
289.8479998,1132,0,205.7508721,3.12E-06,3.50E-06,0,0,0,0,0,295.2971045,0,0,0,-2.90E-06,0,0,,,,
289.8559998,1132,0,-797.7471645,3.09E-06,3.56E-06,0,0,0,0,0,-211.756488,0,0,0,-2.87E-06,0,0,,,,
289.8639998,1132,0,540.5279172,3.06E-06,3.76E-06,0,0,0,0,0,41.12055447,0,0,0,9.74E-07,0,0,,,,
289.8719998,1132,0,-540.1727185,3.03E-06,3.46E-06,0,0,0,0,0,149.7723672,0,0,0,4.60E-06,0,0,,,,
289.8799998,1132,0,-134.786362,3.00E-06,3.64E-06,0,0,0,0,0,-261.4166734,0,0,0,3.44E-06,0,0,,,,
289.8879998,1132,0,234.34473,2.98E-06,3.46E-06,0,0,0,0,0,307.8722887,0,0,0,3.51E-06,0,0,,,,
289.8959998,1132,0,-793.2181927,2.95E-06,3.52E-06,0,0,0,0,0,-194.1251405,0,0,0,3.70E-06,0,0,,,,
289.9039998,1132,0,525.7080219,2.92E-06,3.44E-06,0,0,0,0,0,28.15584969,0,0,0,3.40E-06,0,0,,,,
289.9119998,1132,0,-543.3566707,2.89E-06,3.43E-06,0,0,0,0,0,136.717702,0,0,0,3.58E-06,0,0,,,,
289.9199998,1132,0,-145.4897565,2.86E-06,3.39E-06,0,0,0,0,0,-279.2303912,0,0,0,3.41E-06,0,0,,,,
289.9279998,1132,0,259.1386779,2.84E-06,3.36E-06,0,0,0,0,0,298.2946905,0,0,0,3.46E-06,0,0,,,,
289.9359998,1132,0,-766.5879587,2.81E-06,3.33E-06,0,0,0,0,0,-186.7426714,0,0,0,3.38E-06,0,0,,,,
289.9439998,1132,0,548.8414554,-1.03E-06,3.30E-06,0,0,0,0,0,32.46088652,0,0,0,3.38E-06,0,0,,,,
289.9519998,1132,0,-529.988169,-4.66E-06,3.27E-06,0,0,0,0,0,144.8173661,0,0,0,3.33E-06,0,0,,,,
289.9599998,1132,0,-146.2559393,-3.50E-06,3.24E-06,0,0,0,0,0,-289.7233339,0,0,0,3.31E-06,0,0,,,,
289.9679998,1132,0,276.1292904,-3.56E-06,3.21E-06,0,0,0,0,0,293.0782182,0,0,0,3.28E-06,0,0,,,,
289.9759998,1132,0,-804.2832672,-3.76E-06,3.18E-06,0,0,0,0,0,-197.7604643,0,0,0,3.25E-06,0,0,,,,
289.9839998,1132,0,516.9996109,-3.46E-06,3.15E-06,0,0,0,0,0,-8.913658453,0,0,0,3.22E-06,0,0,,,,
289.9919998,1132,0,-523.4540023,-3.64E-06,3.12E-06,0,0,0,0,0,134.3877142,0,0,0,3.19E-06,0,0,,,,
289.9999998,1132,0,-186.4026161,-3.46E-06,3.09E-06,0,0,0,0,0,-301.1728718,0,0,0,3.16E-06,0,0,,,,
290.0079998,1132,0,269.1653599,-3.52E-06,3.06E-06,0,0,0,0,0,270.7468985,0,0,0,3.13E-06,0,0,,,,
290.0159998,1132,0,-964.5702611,-3.44E-06,3.03E-06,0,0,0,0,0,-396.3796189,0,0,0,3.10E-06,0,0,,,,
290.0239998,1132,0,639.0364617,-3.43E-06,3.00E-06,0,0,0,0,0,-151.960332,0,0,0,3.07E-06,0,0,,,,
290.0319998,1132,0,-281.2301028,-3.39E-06,2.98E-06,0,0,0,0,0,431.1875521,0,0,0,3.04E-06,0,0,,,,
290.0399998,1132,0,-555.9588982,-3.36E-06,2.95E-06,0,0,0,0,0,-374.9643131,0,0,0,3.01E-06,0,0,,,,
290.0479998,1133,0,670.8615021,-3.33E-06,2.92E-06,0,0,0,0,0,205.284193,0,0,0,2.98E-06,0,0,,,,
290.0559998,1133,0,-758.5361863,-3.30E-06,2.89E-06,0,0,0,0,0,63.81224465,0,0,0,2.95E-06,0,0,,,,
290.0639998,1133,0,155.1581015,-3.27E-06,2.86E-06,0,0,0,0,0,-257.6850121,0,0,0,2.92E-06,0,0,,,,
290.0719998,1133,0,116.9432205,-3.24E-06,2.84E-06,0,0,0,0,0,337.8238404,0,0,0,2.90E-06,0,0,,,,
290.0799998,1133,0,-700.1606734,-3.21E-06,2.81E-06,0,0,0,0,0,-242.0681629,0,0,0,2.87E-06,0,0,,,,
290.0879998,1133,0,525.7098902,-3.18E-06,-1.03E-06,0,0,0,0,0,56.8658001,0,0,0,-9.74E-07,0,0,,,,
290.0959998,1133,0,-596.9865931,-3.15E-06,-4.66E-06,0,0,0,0,0,96.42941167,0,0,0,-4.60E-06,0,0,,,,
290.1039998,1133,0,-107.8716776,-3.12E-06,-3.50E-06,0,0,0,0,0,-302.4463221,0,0,0,-3.44E-06,0,0,,,,
290.1119998,1133,0,222.7939515,-3.09E-06,-3.56E-06,0,0,0,0,0,288.6663015,0,0,0,-3.51E-06,0,0,,,,
290.1199998,1133,0,-767.1528586,-3.06E-06,-3.76E-06,0,0,0,0,0,-201.2188319,0,0,0,-3.70E-06,0,0,,,,
290.1279998,1133,0,509.1054106,-3.03E-06,-3.46E-06,0,0,0,0,0,4.406777927,0,0,0,-3.40E-06,0,0,,,,
290.1359998,1133,0,-483.2671932,-3.00E-06,-3.64E-06,0,0,0,0,0,146.5640825,0,0,0,-3.58E-06,0,0,,,,
290.1439998,1133,0,-168.132149,-2.98E-06,-3.46E-06,0,0,0,0,0,-291.6500402,0,0,0,-3.41E-06,0,0,,,,
290.1519998,1133,0,306.5437908,-2.95E-06,-3.52E-06,0,0,0,0,0,282.4753599,0,0,0,-3.46E-06,0,0,,,,
290.1599998,1133,0,-767.2552428,-2.92E-06,-3.44E-06,0,0,0,0,0,-168.2581114,0,0,0,-3.38E-06,0,0,,,,
290.1679998,1133,0,538.3485676,-2.89E-06,-3.43E-06,0,0,0,0,0,7.556037714,0,0,0,-3.38E-06,0,0,,,,
290.1759998,1133,0,-407.9142273,-2.86E-06,-3.39E-06,0,0,0,0,0,179.0986972,0,0,0,-3.33E-06,0,0,,,,
290.1839998,1133,0,-143.6983134,-2.84E-06,-3.36E-06,0,0,0,0,0,-272.7906987,0,0,0,-3.31E-06,0,0,,,,
290.1919998,1133,0,1074.357532,-2.81E-06,-3.33E-06,0,0,0,0,0,562.1775017,0,0,0,-3.28E-06,0,0,,,,
290.1999998,1133,0,-404.1231302,1.03E-06,-3.30E-06,0,0,0,0,0,168.5306872,0,0,0,-3.25E-06,0,0,,,,
290.2079998,1133,0,-305.6615808,4.66E-06,-3.27E-06,0,0,0,0,0,-344.8307744,0,0,0,-3.22E-06,0,0,,,,
290.2159998,1133,0,230.2386364,3.50E-06,-3.24E-06,0,0,0,0,0,173.8686791,0,0,0,-3.19E-06,0,0,,,,
290.2239998,1133,0,-180.0696335,3.56E-06,-3.21E-06,0,0,0,0,0,41.13092749,0,0,0,-3.16E-06,0,0,,,,
290.2319998,1133,0,-238.1604787,3.76E-06,-3.18E-06,0,0,0,0,0,-117.981777,0,0,0,-3.13E-06,0,0,,,,
290.2399998,1133,0,291.5308345,3.46E-06,-3.15E-06,0,0,0,0,0,113.5038526,0,0,0,-3.10E-06,0,0,,,,
290.2479998,1133,0,-318.5255492,3.64E-06,-3.12E-06,0,0,0,0,0,9.941610531,0,0,0,-3.07E-06,0,0,,,,
290.2559998,1133,0,-87.13510277,3.46E-06,-3.09E-06,0,0,0,0,0,-148.4713133,0,0,0,-3.04E-06,0,0,,,,
290.2639998,1133,0,223.4847496,3.52E-06,-3.06E-06,0,0,0,0,0,175.4816329,0,0,0,-3.01E-06,0,0,,,,
290.2719998,1133,0,-553.0385142,3.44E-06,-3.03E-06,0,0,0,0,0,-116.9860715,0,0,0,-2.98E-06,0,0,,,,
290.2799998,1133,0,449.7725126,3.43E-06,-3.00E-06,0,0,0,0,0,13.95351412,0,0,0,-2.95E-06,0,0,,,,
290.2879998,1133,0,-310.3978165,3.39E-06,-2.98E-06,0,0,0,0,0,119.3012748,0,0,0,-2.92E-06,0,0,,,,
290.2959998,1133,0,-141.210518,3.36E-06,-2.95E-06,0,0,0,0,0,-239.8137313,0,0,0,-2.90E-06,0,0,,,,
290.3039998,1134,0,406.1111666,3.33E-06,-2.92E-06,0,0,0,0,0,253.7185907,0,0,0,-2.87E-06,0,0,,,,
290.3119998,1134,0,-653.8726218,3.30E-06,-2.89E-06,0,0,0,0,0,-122.2135826,0,0,0,9.74E-07,0,0,,,,
290.3199998,1134,0,542.496626,3.27E-06,-2.86E-06,0,0,0,0,0,-11.67821201,0,0,0,4.60E-06,0,0,,,,
290.3279998,1134,0,-296.4517554,3.24E-06,-2.84E-06,0,0,0,0,0,183.7526495,0,0,0,3.44E-06,0,0,,,,
290.3359998,1134,0,-184.9049534,3.21E-06,-2.81E-06,0,0,0,0,0,-279.166209,0,0,0,3.51E-06,0,0,,,,
290.3439998,1134,0,417.3924028,3.18E-06,1.03E-06,0,0,0,0,0,259.7682908,0,0,0,3.70E-06,0,0,,,,
290.3519998,1134,0,-702.5233014,3.15E-06,4.66E-06,0,0,0,0,0,-128.9973324,0,0,0,3.40E-06,0,0,,,,
290.3599998,1134,0,578.1759837,3.12E-06,3.50E-06,0,0,0,0,0,-8.954825465,0,0,0,3.58E-06,0,0,,,,
290.3679998,1134,0,-48.90236707,3.09E-06,3.56E-06,0,0,0,0,0,419.6051536,0,0,0,3.41E-06,0,0,,,,
290.3759998,1134,0,277.0705202,3.06E-06,3.76E-06,0,0,0,0,0,-257.3808971,0,0,0,3.46E-06,0,0,,,,
290.3839998,1134,0,911.4680449,3.03E-06,3.46E-06,0,0,0,0,0,59.00169605,0,0,0,3.38E-06,0,0,,,,
290.3919998,1134,0,-930.7939813,3.00E-06,3.64E-06,0,0,0,0,0,130.1706813,0,0,0,3.38E-06,0,0,,,,
290.3999998,1134,0,113.6177413,2.98E-06,3.46E-06,0,0,0,0,0,-210.3396262,0,0,0,3.33E-06,0,0,,,,
290.4079998,1134,0,342.7454896,2.95E-06,3.52E-06,0,0,0,0,0,157.6062138,0,0,0,3.31E-06,0,0,,,,
290.4159998,1134,0,-634.9158342,2.92E-06,3.44E-06,0,0,0,0,0,-3.710927242,0,0,0,3.28E-06,0,0,,,,
290.4239998,1134,0,308.588107,2.89E-06,3.43E-06,0,0,0,0,0,-151.7195459,0,0,0,3.25E-06,0,0,,,,
290.4319998,1134,0,-36.2851249,2.86E-06,3.39E-06,0,0,0,0,0,219.6731244,0,0,0,3.22E-06,0,0,,,,
290.4399998,1134,0,-420.3844243,2.84E-06,3.36E-06,0,0,0,0,0,-124.5633388,0,0,0,3.19E-06,0,0,,,,
290.4479998,1134,0,459.0095542,2.81E-06,3.33E-06,0,0,0,0,0,33.65765632,0,0,0,3.16E-06,0,0,,,,
290.4559998,1134,0,-386.7136355,-1.03E-06,3.30E-06,0,0,0,0,0,139.1880632,0,0,0,3.13E-06,0,0,,,,
290.4639998,1134,0,-99.33513835,-4.66E-06,3.27E-06,0,0,0,0,0,-260.3859057,0,0,0,3.10E-06,0,0,,,,
290.4719998,1134,0,269.788952,-3.50E-06,3.24E-06,0,0,0,0,0,221.4438943,0,0,0,3.07E-06,0,0,,,,
290.4799998,1134,0,-638.7156026,-3.56E-06,3.21E-06,0,0,0,0,0,-119.6240179,0,0,0,3.04E-06,0,0,,,,
290.4879998,1134,0,470.4609158,-3.76E-06,3.18E-06,0,0,0,0,0,-29.77324014,0,0,0,3.01E-06,0,0,,,,
290.4959998,1134,0,-274.5764782,-3.46E-06,3.15E-06,0,0,0,0,0,199.3263061,0,0,0,2.98E-06,0,0,,,,
290.5039998,1134,0,-188.4792351,-3.64E-06,3.12E-06,0,0,0,0,0,-266.3392656,0,0,0,2.95E-06,0,0,,,,
290.5119998,1134,0,414.1682014,-3.46E-06,3.09E-06,0,0,0,0,0,257.8867835,0,0,0,2.92E-06,0,0,,,,
290.5199998,1134,0,-711.0530462,-3.52E-06,3.06E-06,0,0,0,0,0,-119.4570098,0,0,0,2.90E-06,0,0,,,,
290.5279998,1134,0,507.4373786,-3.44E-06,3.03E-06,0,0,0,0,0,-47.25336585,0,0,0,2.87E-06,0,0,,,,
290.5359998,1134,0,-256.8105254,-3.43E-06,3.00E-06,0,0,0,0,0,218.9335231,0,0,0,-9.74E-07,0,0,,,,
290.5439998,1134,0,-228.6337975,-3.39E-06,2.98E-06,0,0,0,0,0,-289.2103056,0,0,0,-4.60E-06,0,0,,,,
290.5519998,1134,0,485.4274587,-3.36E-06,2.95E-06,0,0,0,0,0,269.0902204,0,0,0,-3.44E-06,0,0,,,,
290.5599998,1135,0,-743.2322378,-3.33E-06,2.92E-06,0,0,0,0,0,-107.283668,0,0,0,-3.51E-06,0,0,,,,
290.5679998,1135,0,487.6607116,-3.30E-06,2.89E-06,0,0,0,0,0,-71.61068961,0,0,0,-3.70E-06,0,0,,,,
290.5759998,1135,0,-265.9952052,-3.27E-06,2.86E-06,0,0,0,0,0,207.8636181,0,0,0,-3.40E-06,0,0,,,,
290.5839998,1135,0,-281.8571576,-3.24E-06,2.84E-06,0,0,0,0,0,-312.4001395,0,0,0,-3.58E-06,0,0,,,,
290.5919998,1135,0,489.3335959,-3.21E-06,2.81E-06,0,0,0,0,0,245.0748441,0,0,0,-3.41E-06,0,0,,,,
290.5999998,1135,0,-727.4020008,-3.18E-06,-1.03E-06,0,0,0,0,0,-104.5969731,0,0,0,-3.46E-06,0,0,,,,
290.6079998,1135,0,505.3104858,-3.15E-06,-4.66E-06,0,0,0,0,0,-68.01339266,0,0,0,-3.38E-06,0,0,,,,
290.6159998,1135,0,-250.6846203,-3.12E-06,-3.50E-06,0,0,0,0,0,206.9843011,0,0,0,-3.38E-06,0,0,,,,
290.6239998,1135,0,-291.5902687,-3.09E-06,-3.56E-06,0,0,0,0,0,-316.3074691,0,0,0,-3.33E-06,0,0,,,,
290.6319998,1135,0,505.8505548,-3.06E-06,-3.76E-06,0,0,0,0,0,243.021438,0,0,0,-3.31E-06,0,0,,,,
290.6399998,1135,0,-728.734835,-3.03E-06,-3.46E-06,0,0,0,0,0,-98.6245307,0,0,0,-3.28E-06,0,0,,,,
290.6479998,1135,0,479.0134446,-3.00E-06,-3.64E-06,0,0,0,0,0,-74.25780734,0,0,0,-3.25E-06,0,0,,,,
290.6559998,1135,0,-261.909006,-2.98E-06,-3.46E-06,0,0,0,0,0,192.556147,0,0,0,-3.22E-06,0,0,,,,
290.6639998,1135,0,-309.7788394,-2.95E-06,-3.52E-06,0,0,0,0,0,-329.6852718,0,0,0,-3.19E-06,0,0,,,,
290.6719998,1135,0,496.4558827,-2.92E-06,-3.44E-06,0,0,0,0,0,235.2254192,0,0,0,-3.16E-06,0,0,,,,
290.6799998,1135,0,-754.7580648,-2.89E-06,-3.43E-06,0,0,0,0,0,-110.0639246,0,0,0,-3.13E-06,0,0,,,,
290.6879998,1135,0,478.1510862,-2.86E-06,-3.39E-06,0,0,0,0,0,-81.80583696,0,0,0,-3.10E-06,0,0,,,,
290.6959998,1135,0,-216.1980931,-2.84E-06,-3.36E-06,0,0,0,0,0,219.9048099,0,0,0,-3.07E-06,0,0,,,,
290.7039998,1135,0,-298.3603609,-2.81E-06,-3.33E-06,0,0,0,0,0,-305.8025532,0,0,0,-3.04E-06,0,0,,,,
290.7119998,1135,0,525.0514441,1.03E-06,-3.30E-06,0,0,0,0,0,256.6605135,0,0,0,-3.01E-06,0,0,,,,
290.7199998,1135,0,-708.17289,4.66E-06,-3.27E-06,0,0,0,0,0,-77.25052534,0,0,0,-2.98E-06,0,0,,,,
290.7279998,1135,0,504.3951115,3.50E-06,-3.24E-06,0,0,0,0,0,-64.08247822,0,0,0,-2.95E-06,0,0,,,,
290.7359998,1135,0,-192.1704012,3.56E-06,-3.21E-06,0,0,0,0,0,237.6913296,0,0,0,-2.92E-06,0,0,,,,
290.7439998,1135,0,-289.9918625,3.76E-06,-3.18E-06,0,0,0,0,0,-307.6102672,0,0,0,-2.90E-06,0,0,,,,
290.7519998,1135,0,533.8517948,3.46E-06,-3.15E-06,0,0,0,0,0,235.036237,0,0,0,-2.87E-06,0,0,,,,
290.7599998,1135,0,-718.9243689,3.64E-06,-3.12E-06,0,0,0,0,0,-91.18930222,0,0,0,9.74E-07,0,0,,,,
290.7679998,1135,0,501.2822308,3.46E-06,-3.09E-06,0,0,0,0,0,-75.4255314,0,0,0,4.60E-06,0,0,,,,
290.7759998,1135,0,-180.9190755,3.52E-06,-3.06E-06,0,0,0,0,0,229.950607,0,0,0,3.44E-06,0,0,,,,
290.7839998,1135,0,-283.5458925,3.44E-06,-3.03E-06,0,0,0,0,0,-312.5817281,0,0,0,3.51E-06,0,0,,,,
290.7919998,1135,0,590.2546534,3.43E-06,-3.00E-06,0,0,0,0,0,254.8887237,0,0,0,3.70E-06,0,0,,,,
290.7999998,1135,0,-696.4357906,3.39E-06,-2.98E-06,0,0,0,0,0,-75.03452988,0,0,0,3.40E-06,0,0,,,,
290.8079998,1135,0,512.4466567,3.36E-06,-2.95E-06,0,0,0,0,0,-83.80149236,0,0,0,3.58E-06,0,0,,,,
290.8159998,1136,0,-107.1662403,3.33E-06,-2.92E-06,0,0,0,0,0,253.8524328,0,0,0,3.41E-06,0,0,,,,
290.8239998,1136,0,-244.8914063,3.30E-06,-2.89E-06,0,0,0,0,0,-286.1931774,0,0,0,3.46E-06,0,0,,,,
290.8319998,1136,0,616.7430005,3.27E-06,-2.86E-06,0,0,0,0,0,260.1440806,0,0,0,3.38E-06,0,0,,,,
290.8399998,1136,0,-669.1534698,3.24E-06,-2.84E-06,0,0,0,0,0,-70.13734459,0,0,0,3.38E-06,0,0,,,,
290.8479998,1136,0,527.2779705,3.21E-06,-2.81E-06,0,0,0,0,0,-86.61320517,0,0,0,3.33E-06,0,0,,,,
290.8559998,1136,0,-86.5905655,3.18E-06,1.03E-06,0,0,0,0,0,257.5287027,0,0,0,3.31E-06,0,0,,,,
290.8639998,1136,0,-264.6721423,3.15E-06,4.66E-06,0,0,0,0,0,-300.8818167,0,0,0,3.28E-06,0,0,,,,
290.8719998,1136,0,589.7882325,3.12E-06,3.50E-06,0,0,0,0,0,229.065,0,0,0,3.25E-06,0,0,,,,
290.8799998,1136,0,-684.5350013,3.09E-06,3.56E-06,0,0,0,0,0,-81.50452593,0,0,0,3.22E-06,0,0,,,,
290.8879998,1136,0,519.2967077,3.06E-06,3.76E-06,0,0,0,0,0,-92.97897667,0,0,0,3.19E-06,0,0,,,,
290.8959998,1136,0,-77.52717158,3.03E-06,3.46E-06,0,0,0,0,0,258.6183054,0,0,0,3.16E-06,0,0,,,,
290.9039998,1136,0,-249.4255559,3.00E-06,3.64E-06,0,0,0,0,0,-291.8575539,0,0,0,3.13E-06,0,0,,,,
290.9119998,1136,0,629.0245514,2.98E-06,3.46E-06,0,0,0,0,0,244.1592127,0,0,0,3.10E-06,0,0,,,,
290.9199998,1136,0,-667.8042622,2.95E-06,3.52E-06,0,0,0,0,0,-65.76653457,0,0,0,3.07E-06,0,0,,,,
290.9279998,1136,0,512.9885606,2.92E-06,3.44E-06,0,0,0,0,0,-101.8229107,0,0,0,3.04E-06,0,0,,,,
290.9359998,1136,0,-99.25039356,2.89E-06,3.43E-06,0,0,0,0,0,241.556046,0,0,0,3.01E-06,0,0,,,,
290.9439998,1136,0,-303.9943919,2.86E-06,3.39E-06,0,0,0,0,0,-316.9337319,0,0,0,2.98E-06,0,0,,,,
290.9519998,1136,0,624.6430067,2.84E-06,3.36E-06,0,0,0,0,0,221.6478344,0,0,0,2.95E-06,0,0,,,,
290.9599998,1136,0,-667.3257192,2.81E-06,3.33E-06,0,0,0,0,0,-64.65825402,0,0,0,2.92E-06,0,0,,,,
290.9679998,1136,0,516.4317351,-1.03E-06,3.30E-06,0,0,0,0,0,-96.93441976,0,0,0,2.90E-06,0,0,,,,
290.9759998,1136,0,-37.01100329,-4.66E-06,3.27E-06,0,0,0,0,0,268.1831431,0,0,0,2.87E-06,0,0,,,,
290.9839998,1136,0,-263.2608206,-3.50E-06,3.24E-06,0,0,0,0,0,-282.3851672,0,0,0,-9.74E-07,0,0,,,,
290.9919998,1136,0,664.5292918,-3.56E-06,3.21E-06,0,0,0,0,0,241.5937012,0,0,0,-4.60E-06,0,0,,,,
290.9999998,1136,0,-658.2559431,-3.76E-06,3.18E-06,0,0,0,0,0,-56.62311976,0,0,0,-3.44E-06,0,0,,,,
291.0079998,1136,0,493.5179356,-3.46E-06,3.15E-06,0,0,0,0,0,-107.1126141,0,0,0,-3.51E-06,0,0,,,,
291.0159998,1136,0,-19.81486783,-3.64E-06,3.12E-06,0,0,0,0,0,268.7613473,0,0,0,-3.70E-06,0,0,,,,
291.0239998,1136,0,-269.4192404,-3.46E-06,3.09E-06,0,0,0,0,0,-283.7251392,0,0,0,-3.40E-06,0,0,,,,
291.0319998,1136,0,644.0125529,-3.52E-06,3.06E-06,0,0,0,0,0,230.235587,0,0,0,-3.58E-06,0,0,,,,
291.0399998,1136,0,-674.6608478,-3.44E-06,3.03E-06,0,0,0,0,0,-67.71778228,0,0,0,-3.41E-06,0,0,,,,
291.0479998,1136,0,493.1866273,-3.43E-06,3.00E-06,0,0,0,0,0,-125.6641294,0,0,0,-3.46E-06,0,0,,,,
291.0559998,1136,0,9.97904406,-3.39E-06,2.98E-06,0,0,0,0,0,270.5711894,0,0,0,-3.38E-06,0,0,,,,
291.0639998,1136,0,-243.3499201,-3.36E-06,2.95E-06,0,0,0,0,0,-269.7871179,0,0,0,-3.38E-06,0,0,,,,
291.0719998,1137,0,694.4055668,-3.33E-06,2.92E-06,0,0,0,0,0,245.9506927,0,0,0,-3.33E-06,0,0,,,,
291.0799998,1137,0,-633.2101272,-3.30E-06,2.89E-06,0,0,0,0,0,-45.92385358,0,0,0,-3.31E-06,0,0,,,,
291.0879998,1137,0,499.9857366,-3.27E-06,2.86E-06,0,0,0,0,0,-119.032644,0,0,0,-3.28E-06,0,0,,,,
291.0959998,1137,0,-30.69718155,-3.24E-06,2.84E-06,0,0,0,0,0,250.21475,0,0,0,-3.25E-06,0,0,,,,
291.1039998,1137,0,-337.0603389,-3.21E-06,2.81E-06,0,0,0,0,0,-327.288198,0,0,0,-3.22E-06,0,0,,,,
291.1119998,1137,0,656.4924701,-3.18E-06,-1.03E-06,0,0,0,0,0,199.1273801,0,0,0,-3.19E-06,0,0,,,,
291.1199998,1137,0,-641.6118806,-3.15E-06,-4.66E-06,0,0,0,0,0,-54.71774234,0,0,0,-3.16E-06,0,0,,,,
291.1279998,1137,0,491.9390988,-3.12E-06,-3.50E-06,0,0,0,0,0,-118.3452198,0,0,0,-3.13E-06,0,0,,,,
291.1359998,1137,0,16.68171945,-3.09E-06,-3.56E-06,0,0,0,0,0,276.7813845,0,0,0,-3.10E-06,0,0,,,,
291.1439998,1137,0,-293.958152,-3.06E-06,-3.76E-06,0,0,0,0,0,-294.1188833,0,0,0,-3.07E-06,0,0,,,,
291.1519998,1137,0,682.4305868,-3.03E-06,-3.46E-06,0,0,0,0,0,224.2375851,0,0,0,-3.04E-06,0,0,,,,
291.1599998,1137,0,-633.8435629,-3.00E-06,-3.64E-06,0,0,0,0,0,-40.62175334,0,0,0,-3.01E-06,0,0,,,,
291.1679998,1137,0,494.5119368,-2.98E-06,-3.46E-06,0,0,0,0,0,-127.9907928,0,0,0,-2.98E-06,0,0,,,,
291.1759998,1137,0,22.4449877,-2.95E-06,-3.52E-06,0,0,0,0,0,275.5343613,0,0,0,-2.95E-06,0,0,,,,
291.1839998,1137,0,-302.0751544,-2.92E-06,-3.44E-06,0,0,0,0,0,-304.6569625,0,0,0,-2.92E-06,0,0,,,,
291.1919998,1137,0,730.0826014,-2.89E-06,-3.43E-06,0,0,0,0,0,221.2893658,0,0,0,-2.90E-06,0,0,,,,
291.1999998,1137,0,-613.7255344,-2.86E-06,-3.39E-06,0,0,0,0,0,-26.59235066,0,0,0,-2.87E-06,0,0,,,,
291.2079998,1137,0,472.0281562,-2.84E-06,-3.36E-06,0,0,0,0,0,-145.4075744,0,0,0,9.74E-07,0,0,,,,
291.2159998,1137,0,48.04377106,-2.81E-06,-3.33E-06,0,0,0,0,0,274.0097028,0,0,0,4.60E-06,0,0,,,,
291.2239998,1137,0,-302.9026809,1.03E-06,-3.30E-06,0,0,0,0,0,-294.4767523,0,0,0,3.44E-06,0,0,,,,
291.2319998,1137,0,730.1678519,4.66E-06,-3.27E-06,0,0,0,0,0,209.3489475,0,0,0,3.51E-06,0,0,,,,
291.2399998,1137,0,-585.0459139,3.50E-06,-3.24E-06,0,0,0,0,0,-21.80613271,0,0,0,3.70E-06,0,0,,,,
291.2479998,1137,0,519.0413178,3.56E-06,-3.21E-06,0,0,0,0,0,-119.8020712,0,0,0,3.40E-06,0,0,,,,
291.2559998,1137,0,90.27058103,3.76E-06,-3.18E-06,0,0,0,0,0,293.8198126,0,0,0,3.58E-06,0,0,,,,
291.2639998,1137,0,-317.1529041,3.46E-06,-3.15E-06,0,0,0,0,0,-304.3899685,0,0,0,3.41E-06,0,0,,,,
291.2719998,1137,0,744.5375814,3.64E-06,-3.12E-06,0,0,0,0,0,206.0179396,0,0,0,3.46E-06,0,0,,,,
291.2799998,1137,0,-583.4689712,3.46E-06,-3.09E-06,0,0,0,0,0,-15.15761484,0,0,0,3.38E-06,0,0,,,,
291.2879998,1137,0,473.7091918,3.52E-06,-3.06E-06,0,0,0,0,0,-149.1970298,0,0,0,3.38E-06,0,0,,,,
291.2959998,1137,0,87.5716044,3.44E-06,-3.03E-06,0,0,0,0,0,275.2946,0,0,0,3.33E-06,0,0,,,,
291.3039998,1137,0,-317.3436005,3.43E-06,-3.00E-06,0,0,0,0,0,-296.8813967,0,0,0,3.31E-06,0,0,,,,
291.3119998,1137,0,723.7332537,3.39E-06,-2.98E-06,0,0,0,0,0,198.2015229,0,0,0,3.28E-06,0,0,,,,
291.3199998,1137,0,-621.8216892,3.36E-06,-2.95E-06,0,0,0,0,0,-35.3552768,0,0,0,3.25E-06,0,0,,,,
291.3279998,1138,0,451.3310876,3.33E-06,-2.92E-06,0,0,0,0,0,-155.8912296,0,0,0,3.22E-06,0,0,,,,
291.3359998,1138,0,-132.4181802,3.30E-06,-2.89E-06,0,0,0,0,0,571.6623704,0,0,0,3.19E-06,0,0,,,,
291.3439998,1138,0,-1200.496326,3.27E-06,-2.86E-06,0,0,0,0,0,80.72263107,0,0,0,3.16E-06,0,0,,,,
291.3519998,1138,0,146.5373397,3.24E-06,-2.84E-06,0,0,0,0,0,240.0196878,0,0,0,3.13E-06,0,0,,,,
291.3599998,1138,0,-529.2344434,3.21E-06,-2.81E-06,0,0,0,0,0,49.32296637,0,0,0,3.10E-06,0,0,,,,
291.3679998,1138,0,354.7291779,3.18E-06,1.03E-06,0,0,0,0,0,-278.9935404,0,0,0,3.07E-06,0,0,,,,
291.3759998,1138,0,353.309782,3.15E-06,4.66E-06,0,0,0,0,0,290.6162029,0,0,0,3.04E-06,0,0,,,,
291.3839998,1138,0,-583.4666358,3.12E-06,3.50E-06,0,0,0,0,0,-168.0406207,0,0,0,3.01E-06,0,0,,,,
291.3919998,1138,0,689.7917095,3.09E-06,3.56E-06,0,0,0,0,0,-39.75896086,0,0,0,2.98E-06,0,0,,,,
291.3999998,1138,0,-190.9644081,3.06E-06,3.76E-06,0,0,0,0,0,208.9426447,0,0,0,2.95E-06,0,0,,,,
291.4079998,1138,0,-39.53348969,3.03E-06,3.46E-06,0,0,0,0,0,-266.3356961,0,0,0,2.92E-06,0,0,,,,
291.4159998,1138,0,634.6884684,3.00E-06,3.64E-06,0,0,0,0,0,237.1226465,0,0,0,2.90E-06,0,0,,,,
291.4239998,1138,0,-547.8275657,2.98E-06,3.46E-06,0,0,0,0,0,-50.03315465,0,0,0,2.87E-06,0,0,,,,
291.4319998,1138,0,518.1416376,2.95E-06,3.52E-06,0,0,0,0,0,-120.0418776,0,0,0,-9.74E-07,0,0,,,,
291.4399998,1138,0,12.70341841,2.92E-06,3.44E-06,0,0,0,0,0,247.2203937,0,0,0,-4.60E-06,0,0,,,,
291.4479998,1138,0,-259.6720489,2.89E-06,3.43E-06,0,0,0,0,0,-301.4626771,0,0,0,-3.44E-06,0,0,,,,
291.4559998,1138,0,699.5884079,2.86E-06,3.39E-06,0,0,0,0,0,180.2881894,0,0,0,-3.51E-06,0,0,,,,
291.4639998,1138,0,-551.4003575,2.84E-06,3.36E-06,0,0,0,0,0,-17.4469125,0,0,0,-3.70E-06,0,0,,,,
291.4719998,1138,0,464.7166656,2.81E-06,3.33E-06,0,0,0,0,0,-150.2710141,0,0,0,-3.40E-06,0,0,,,,
291.4799998,1138,0,117.7289041,-1.03E-06,3.30E-06,0,0,0,0,0,281.8886532,0,0,0,-3.58E-06,0,0,,,,
291.4879998,1138,0,-332.7262555,-4.66E-06,3.27E-06,0,0,0,0,0,-296.21746,0,0,0,-3.41E-06,0,0,,,,
291.4959998,1138,0,726.2225603,-3.50E-06,3.24E-06,0,0,0,0,0,165.4490493,0,0,0,-3.46E-06,0,0,,,,
291.5039998,1138,0,-586.6660389,-3.56E-06,3.21E-06,0,0,0,0,0,-23.6541321,0,0,0,-3.38E-06,0,0,,,,
291.5119998,1138,0,422.98189,-3.76E-06,3.18E-06,0,0,0,0,0,-182.8412462,0,0,0,-3.38E-06,0,0,,,,
291.5199998,1138,0,124.986832,-3.46E-06,3.15E-06,0,0,0,0,0,281.8971992,0,0,0,-3.33E-06,0,0,,,,
291.5279998,1138,0,-379.8435573,-3.64E-06,3.12E-06,0,0,0,0,0,-307.5857791,0,0,0,-3.31E-06,0,0,,,,
291.5359998,1138,0,750.7915587,-3.46E-06,3.09E-06,0,0,0,0,0,154.3333909,0,0,0,-3.28E-06,0,0,,,,
291.5439998,1138,0,-588.7518608,-3.52E-06,3.06E-06,0,0,0,0,0,-17.51615659,0,0,0,-3.25E-06,0,0,,,,
291.5519998,1138,0,398.1568865,-3.44E-06,3.03E-06,0,0,0,0,0,-200.8000773,0,0,0,-3.22E-06,0,0,,,,
291.5599998,1138,0,140.4756717,-3.43E-06,3.00E-06,0,0,0,0,0,267.3838234,0,0,0,-3.19E-06,0,0,,,,
291.5679998,1138,0,-364.5668139,-3.39E-06,2.98E-06,0,0,0,0,0,-300.2444137,0,0,0,-3.16E-06,0,0,,,,
291.5759998,1138,0,789.697812,-3.36E-06,2.95E-06,0,0,0,0,0,179.7017539,0,0,0,-3.13E-06,0,0,,,,
291.5839998,1139,0,-567.691699,-3.33E-06,2.92E-06,0,0,0,0,0,-2.857280765,0,0,0,-3.10E-06,0,0,,,,
291.5919998,1139,0,442.4301693,-3.30E-06,2.89E-06,0,0,0,0,0,-184.4787608,0,0,0,-3.07E-06,0,0,,,,
291.5999998,1139,0,185.1118519,-3.27E-06,2.86E-06,0,0,0,0,0,295.8998549,0,0,0,-3.04E-06,0,0,,,,
291.6079998,1139,0,-394.8769597,-3.24E-06,2.84E-06,0,0,0,0,0,-317.9283667,0,0,0,-3.01E-06,0,0,,,,
291.6159998,1139,0,800.5814881,-3.21E-06,2.81E-06,0,0,0,0,0,164.3288668,0,0,0,-2.98E-06,0,0,,,,
291.6239998,1139,0,-571.2574376,-3.18E-06,-1.03E-06,0,0,0,0,0,-2.814020769,0,0,0,-2.95E-06,0,0,,,,
291.6319998,1139,0,384.1767112,-3.15E-06,-4.66E-06,0,0,0,0,0,-225.5239658,0,0,0,-2.92E-06,0,0,,,,
291.6399998,1139,0,197.6734242,-3.12E-06,-3.50E-06,0,0,0,0,0,281.9158707,0,0,0,-2.90E-06,0,0,,,,
291.6479998,1139,0,-379.4593628,-3.09E-06,-3.56E-06,0,0,0,0,0,-305.9058081,0,0,0,-2.87E-06,0,0,,,,
291.6559998,1139,0,793.3674927,-3.06E-06,-3.76E-06,0,0,0,0,0,150.4258733,0,0,0,9.74E-07,0,0,,,,
291.6639998,1139,0,-550.5169626,-3.03E-06,-3.46E-06,0,0,0,0,0,-3.177515303,0,0,0,4.60E-06,0,0,,,,
291.6719998,1139,0,423.226813,-3.00E-06,-3.64E-06,0,0,0,0,0,-200.6969846,0,0,0,3.44E-06,0,0,,,,
291.6799998,1139,0,227.9485317,-2.98E-06,-3.46E-06,0,0,0,0,0,304.0810803,0,0,0,3.51E-06,0,0,,,,
291.6879998,1139,0,-397.3779857,-2.95E-06,-3.52E-06,0,0,0,0,0,-308.8982179,0,0,0,3.70E-06,0,0,,,,
291.6959998,1139,0,806.4723637,-2.92E-06,-3.44E-06,0,0,0,0,0,153.8634295,0,0,0,3.40E-06,0,0,,,,
291.7039998,1139,0,-534.4704403,-2.89E-06,-3.43E-06,0,0,0,0,0,16.61971606,0,0,0,3.58E-06,0,0,,,,
291.7119998,1139,0,396.3719317,-2.86E-06,-3.39E-06,0,0,0,0,0,-203.6388354,0,0,0,3.41E-06,0,0,,,,
291.7199998,1139,0,230.7479251,-2.84E-06,-3.36E-06,0,0,0,0,0,309.6323911,0,0,0,3.46E-06,0,0,,,,
291.7279998,1139,0,-416.893843,-2.81E-06,-3.33E-06,0,0,0,0,0,-307.0606578,0,0,0,3.38E-06,0,0,,,,
291.7359998,1139,0,801.3782324,1.03E-06,-3.30E-06,0,0,0,0,0,142.4234961,0,0,0,3.38E-06,0,0,,,,
291.7439998,1139,0,-520.4671617,4.66E-06,-3.27E-06,0,0,0,0,0,25.42140863,0,0,0,3.33E-06,0,0,,,,
291.7519998,1139,0,369.6476686,3.50E-06,-3.24E-06,0,0,0,0,0,-217.0583518,0,0,0,3.31E-06,0,0,,,,
291.7599998,1139,0,218.33669,3.56E-06,-3.21E-06,0,0,0,0,0,290.4694344,0,0,0,3.28E-06,0,0,,,,
291.7679998,1139,0,-425.8021467,3.76E-06,-3.18E-06,0,0,0,0,0,-308.909245,0,0,0,3.25E-06,0,0,,,,
291.7759998,1139,0,819.8451287,3.46E-06,-3.15E-06,0,0,0,0,0,148.380539,0,0,0,3.22E-06,0,0,,,,
291.7839998,1139,0,-490.5146689,3.64E-06,-3.12E-06,0,0,0,0,0,51.39087306,0,0,0,3.19E-06,0,0,,,,
291.7919998,1139,0,398.7952816,3.46E-06,-3.09E-06,0,0,0,0,0,-198.3420881,0,0,0,3.16E-06,0,0,,,,
291.7999998,1139,0,290.5897246,3.52E-06,-3.06E-06,0,0,0,0,0,324.3107164,0,0,0,3.13E-06,0,0,,,,
291.8079998,1139,0,-397.5138654,3.44E-06,-3.03E-06,0,0,0,0,0,-269.4873505,0,0,0,3.10E-06,0,0,,,,
291.8159998,1139,0,803.067966,3.43E-06,-3.00E-06,0,0,0,0,0,129.1291952,0,0,0,3.07E-06,0,0,,,,
291.8239998,1139,0,-507.8112936,3.39E-06,-2.98E-06,0,0,0,0,0,18.15652168,0,0,0,3.04E-06,0,0,,,,
291.8319998,1139,0,396.8385855,3.36E-06,-2.95E-06,0,0,0,0,0,-201.9913458,0,0,0,3.01E-06,0,0,,,,
291.8399998,1140,0,316.3920238,3.33E-06,-2.92E-06,0,0,0,0,0,320.3854002,0,0,0,2.98E-06,0,0,,,,
291.8479998,1140,0,-388.3442782,3.30E-06,-2.89E-06,0,0,0,0,0,-279.5755916,0,0,0,2.95E-06,0,0,,,,
291.8559998,1140,0,839.7788592,3.27E-06,-2.86E-06,0,0,0,0,0,144.6346065,0,0,0,2.92E-06,0,0,,,,
291.8639998,1140,0,-472.0454883,3.24E-06,-2.84E-06,0,0,0,0,0,39.81662911,0,0,0,2.90E-06,0,0,,,,
291.8719998,1140,0,389.9381602,3.21E-06,-2.81E-06,0,0,0,0,0,-210.9185554,0,0,0,2.87E-06,0,0,,,,
291.8799998,1140,0,315.0310121,3.18E-06,1.03E-06,0,0,0,0,0,320.3561191,0,0,0,-9.74E-07,0,0,,,,
291.8879998,1140,0,-399.7179295,3.15E-06,4.66E-06,0,0,0,0,0,-275.7398501,0,0,0,-4.60E-06,0,0,,,,
291.8959998,1140,0,850.9494712,3.12E-06,3.50E-06,0,0,0,0,0,143.7157635,0,0,0,-3.44E-06,0,0,,,,
291.9039998,1140,0,-465.4951732,3.09E-06,3.56E-06,0,0,0,0,0,50.62535838,0,0,0,-3.51E-06,0,0,,,,
291.9119998,1140,0,386.9531135,3.06E-06,3.76E-06,0,0,0,0,0,-208.2205753,0,0,0,-3.70E-06,0,0,,,,
291.9199998,1140,0,337.4177432,3.03E-06,3.46E-06,0,0,0,0,0,343.9008568,0,0,0,-3.40E-06,0,0,,,,
291.9279998,1140,0,-421.4802286,3.00E-06,3.64E-06,0,0,0,0,0,-263.0585606,0,0,0,-3.58E-06,0,0,,,,
291.9359998,1140,0,853.6663637,2.98E-06,3.46E-06,0,0,0,0,0,134.5813439,0,0,0,-3.41E-06,0,0,,,,
291.9439998,1140,0,-441.9299159,2.95E-06,3.52E-06,0,0,0,0,0,75.66782539,0,0,0,-3.46E-06,0,0,,,,
291.9519998,1140,0,358.5217278,2.92E-06,3.44E-06,0,0,0,0,0,-200.9919579,0,0,0,-3.38E-06,0,0,,,,
291.9599998,1140,0,329.3554931,2.89E-06,3.43E-06,0,0,0,0,0,327.7021283,0,0,0,-3.38E-06,0,0,,,,
291.9679998,1140,0,-422.0202598,2.86E-06,3.39E-06,0,0,0,0,0,-257.7868637,0,0,0,-3.33E-06,0,0,,,,
291.9759998,1140,0,850.4016413,2.84E-06,3.36E-06,0,0,0,0,0,146.689929,0,0,0,-3.31E-06,0,0,,,,
291.9839998,1140,0,-439.435461,2.81E-06,3.33E-06,0,0,0,0,0,81.31185333,0,0,0,-3.28E-06,0,0,,,,
291.9919998,1140,0,362.7936499,-1.03E-06,3.30E-06,0,0,0,0,0,-196.4758199,0,0,0,-3.25E-06,0,0,,,,
291.9999998,1140,0,358.6486609,-4.66E-06,3.27E-06,0,0,0,0,0,347.7729799,0,0,0,-3.22E-06,0,0,,,,
292.0079998,1140,0,-405.0739154,-3.50E-06,3.24E-06,0,0,0,0,0,-240.3426263,0,0,0,-3.19E-06,0,0,,,,
292.0159998,1140,0,861.9381608,-3.56E-06,3.21E-06,0,0,0,0,0,157.5397938,0,0,0,-3.16E-06,0,0,,,,
292.0239998,1140,0,-447.2946239,-3.76E-06,3.18E-06,0,0,0,0,0,91.62794312,0,0,0,-3.13E-06,0,0,,,,
292.0319998,1140,0,330.348736,-3.46E-06,3.15E-06,0,0,0,0,0,-211.3208428,0,0,0,-3.10E-06,0,0,,,,
292.0399998,1140,0,329.5634038,-3.64E-06,3.12E-06,0,0,0,0,0,336.8609551,0,0,0,-3.07E-06,0,0,,,,
292.0479998,1140,0,-474.6881488,-3.46E-06,3.09E-06,0,0,0,0,0,-255.7911705,0,0,0,-3.04E-06,0,0,,,,
292.0559998,1140,0,823.4256913,-3.52E-06,3.06E-06,0,0,0,0,0,126.4234736,0,0,0,-3.01E-06,0,0,,,,
292.0639998,1140,0,-462.7944462,-3.44E-06,3.03E-06,0,0,0,0,0,86.14851369,0,0,0,-2.98E-06,0,0,,,,
292.0719998,1140,0,282.9510545,-3.43E-06,3.00E-06,0,0,0,0,0,-223.7824414,0,0,0,-2.95E-06,0,0,,,,
292.0799998,1140,0,346.8296484,-3.39E-06,2.98E-06,0,0,0,0,0,334.8712157,0,0,0,-2.92E-06,0,0,,,,
292.0879998,1140,0,-442.9577427,-3.36E-06,2.95E-06,0,0,0,0,0,-222.2128554,0,0,0,-2.90E-06,0,0,,,,
292.0959998,1141,0,832.2802609,-3.33E-06,2.92E-06,0,0,0,0,0,146.316393,0,0,0,-2.87E-06,0,0,,,,
292.1039998,1141,0,-450.9007382,-3.30E-06,2.89E-06,0,0,0,0,0,94.71645191,0,0,0,9.74E-07,0,0,,,,
292.1119998,1141,0,288.4027887,-3.27E-06,2.86E-06,0,0,0,0,0,-211.2049083,0,0,0,4.60E-06,0,0,,,,
292.1199998,1141,0,346.8311631,-3.24E-06,2.84E-06,0,0,0,0,0,346.4098041,0,0,0,3.44E-06,0,0,,,,
292.1279998,1141,0,-481.7662848,-3.21E-06,2.81E-06,0,0,0,0,0,-230.6127527,0,0,0,3.51E-06,0,0,,,,
292.1359998,1141,0,823.0296289,-3.18E-06,-1.03E-06,0,0,0,0,0,139.5536531,0,0,0,3.70E-06,0,0,,,,
292.1439998,1141,0,-444.9860931,-3.15E-06,-4.66E-06,0,0,0,0,0,113.4125244,0,0,0,3.40E-06,0,0,,,,
292.1519998,1141,0,272.089527,-3.12E-06,-3.50E-06,0,0,0,0,0,-206.6836012,0,0,0,3.58E-06,0,0,,,,
292.1599998,1141,0,360.4020842,-3.09E-06,-3.56E-06,0,0,0,0,0,355.3280564,0,0,0,3.41E-06,0,0,,,,
292.1679998,1141,0,-504.0158937,-3.06E-06,-3.76E-06,0,0,0,0,0,-225.8917411,0,0,0,3.46E-06,0,0,,,,
292.1759998,1141,0,809.4323175,-3.03E-06,-3.46E-06,0,0,0,0,0,116.8315745,0,0,0,3.38E-06,0,0,,,,
292.1839998,1141,0,-423.1594267,-3.00E-06,-3.64E-06,0,0,0,0,0,119.5935262,0,0,0,3.38E-06,0,0,,,,
292.1919998,1141,0,250.2557815,-2.98E-06,-3.46E-06,0,0,0,0,0,-206.4498095,0,0,0,3.33E-06,0,0,,,,
292.1999998,1141,0,349.0934415,-2.95E-06,-3.52E-06,0,0,0,0,0,334.2514356,0,0,0,3.31E-06,0,0,,,,
292.2079998,1141,0,-488.8490557,-2.92E-06,-3.44E-06,0,0,0,0,0,-221.8639269,0,0,0,3.28E-06,0,0,,,,
292.2159998,1141,0,825.3544912,-2.89E-06,-3.43E-06,0,0,0,0,0,129.6230094,0,0,0,3.25E-06,0,0,,,,
292.2239998,1141,0,-423.8855343,-2.86E-06,-3.39E-06,0,0,0,0,0,127.5676193,0,0,0,3.22E-06,0,0,,,,
292.2319998,1141,0,267.0380654,-2.84E-06,-3.36E-06,0,0,0,0,0,-200.9012635,0,0,0,3.19E-06,0,0,,,,
292.2399998,1141,0,381.5221581,-2.81E-06,-3.33E-06,0,0,0,0,0,347.7779235,0,0,0,3.16E-06,0,0,,,,
292.2479998,1141,0,-524.5344775,1.03E-06,-3.30E-06,0,0,0,0,0,-232.3326612,0,0,0,3.13E-06,0,0,,,,
292.2559998,1141,0,809.9565685,4.66E-06,-3.27E-06,0,0,0,0,0,103.6563061,0,0,0,3.10E-06,0,0,,,,
292.2639998,1141,0,-427.4030453,3.50E-06,-3.24E-06,0,0,0,0,0,113.5137722,0,0,0,3.07E-06,0,0,,,,
292.2719998,1141,0,222.4624042,3.56E-06,-3.21E-06,0,0,0,0,0,-230.6625301,0,0,0,3.04E-06,0,0,,,,
292.2799998,1141,0,372.3613114,3.76E-06,-3.18E-06,0,0,0,0,0,337.2836464,0,0,0,3.01E-06,0,0,,,,
292.2879998,1141,0,-553.2500297,3.46E-06,-3.15E-06,0,0,0,0,0,-243.9544281,0,0,0,2.98E-06,0,0,,,,
292.2959998,1141,0,790.1446674,3.64E-06,-3.12E-06,0,0,0,0,0,77.62252195,0,0,0,2.95E-06,0,0,,,,
292.3039998,1141,0,-420.6639331,3.46E-06,-3.09E-06,0,0,0,0,0,116.5185635,0,0,0,2.92E-06,0,0,,,,
292.3119998,1141,0,577.9509498,3.52E-06,-3.06E-06,0,0,0,0,0,-466.9116408,0,0,0,2.90E-06,0,0,,,,
292.3199998,1141,0,1118.964569,3.44E-06,-3.03E-06,0,0,0,0,0,314.0262596,0,0,0,2.87E-06,0,0,,,,
292.3279998,1141,0,-993.4490008,3.43E-06,-3.00E-06,0,0,0,0,0,69.20053804,0,0,0,-9.74E-07,0,0,,,,
292.3359998,1141,0,453.4069119,3.39E-06,-2.98E-06,0,0,0,0,0,-222.8649316,0,0,0,-4.60E-06,0,0,,,,
292.3439998,1141,0,389.3337375,3.36E-06,-2.95E-06,0,0,0,0,0,253.6317267,0,0,0,-3.44E-06,0,0,,,,
292.3519998,1142,0,-553.5378039,3.33E-06,-2.92E-06,0,0,0,0,0,-98.43468774,0,0,0,-3.51E-06,0,0,,,,
292.3599998,1142,0,640.1600199,3.30E-06,-2.89E-06,0,0,0,0,0,-31.60438753,0,0,0,-3.70E-06,0,0,,,,
292.3679998,1142,0,-108.0983018,3.27E-06,-2.86E-06,0,0,0,0,0,221.0807747,0,0,0,-3.40E-06,0,0,,,,
292.3759998,1142,0,-194.984806,3.24E-06,-2.84E-06,0,0,0,0,0,-212.3433789,0,0,0,-3.58E-06,0,0,,,,
292.3839998,1142,0,613.0142056,3.21E-06,-2.81E-06,0,0,0,0,0,124.7734533,0,0,0,-3.41E-06,0,0,,,,
292.3919998,1142,0,-427.5416753,3.18E-06,1.03E-06,0,0,0,0,0,37.46781563,0,0,0,-3.46E-06,0,0,,,,
292.3999998,1142,0,333.906218,3.15E-06,4.66E-06,0,0,0,0,0,-161.2974987,0,0,0,-3.38E-06,0,0,,,,
292.4079998,1142,0,220.899411,3.12E-06,3.50E-06,0,0,0,0,0,290.6218633,0,0,0,-3.38E-06,0,0,,,,
292.4159998,1142,0,-429.0672015,3.09E-06,3.56E-06,0,0,0,0,0,-214.388089,0,0,0,-3.33E-06,0,0,,,,
292.4239998,1142,0,720.2438158,3.06E-06,3.76E-06,0,0,0,0,0,90.94718273,0,0,0,-3.31E-06,0,0,,,,
292.4319998,1142,0,-408.7429346,3.03E-06,3.46E-06,0,0,0,0,0,97.02169555,0,0,0,-3.28E-06,0,0,,,,
292.4399998,1142,0,205.5211729,3.00E-06,3.64E-06,0,0,0,0,0,-231.1100931,0,0,0,-3.25E-06,0,0,,,,
292.4479998,1142,0,402.5160604,2.98E-06,3.46E-06,0,0,0,0,0,331.5461162,0,0,0,-3.22E-06,0,0,,,,
292.4559998,1142,0,-495.3198061,2.95E-06,3.52E-06,0,0,0,0,0,-191.7387823,0,0,0,-3.19E-06,0,0,,,,
292.4639998,1142,0,754.6795806,2.92E-06,3.44E-06,0,0,0,0,0,72.54445478,0,0,0,-3.16E-06,0,0,,,,
292.4719998,1142,0,-374.8760875,2.89E-06,3.43E-06,0,0,0,0,0,115.0018003,0,0,0,-3.13E-06,0,0,,,,
292.4799998,1142,0,169.7080864,2.86E-06,3.39E-06,0,0,0,0,0,-245.2188286,0,0,0,-3.10E-06,0,0,,,,
292.4879998,1142,0,417.2243105,2.84E-06,3.36E-06,0,0,0,0,0,321.6790937,0,0,0,-3.07E-06,0,0,,,,
292.4959998,1142,0,-543.1308384,2.81E-06,3.33E-06,0,0,0,0,0,-214.0396251,0,0,0,-3.04E-06,0,0,,,,
292.5039998,1142,0,773.8999978,-1.03E-06,3.30E-06,0,0,0,0,0,63.97042112,0,0,0,-3.01E-06,0,0,,,,
292.5119998,1142,0,-369.8665521,-4.66E-06,3.27E-06,0,0,0,0,0,125.7647325,0,0,0,-2.98E-06,0,0,,,,
292.5199998,1142,0,132.6249089,-3.50E-06,3.24E-06,0,0,0,0,0,-260.4118261,0,0,0,-2.95E-06,0,0,,,,
292.5279998,1142,0,432.6552941,-3.56E-06,3.21E-06,0,0,0,0,0,325.6421119,0,0,0,-2.92E-06,0,0,,,,
292.5359998,1142,0,-552.47166,-3.76E-06,3.18E-06,0,0,0,0,0,-199.5630458,0,0,0,-2.90E-06,0,0,,,,
292.5439998,1142,0,780.2848447,-3.46E-06,3.15E-06,0,0,0,0,0,65.11960833,0,0,0,-2.87E-06,0,0,,,,
292.5519998,1142,0,-332.8643949,-3.64E-06,3.12E-06,0,0,0,0,0,149.8679641,0,0,0,9.74E-07,0,0,,,,
292.5599998,1142,0,138.4947546,-3.46E-06,3.09E-06,0,0,0,0,0,-242.5084902,0,0,0,4.60E-06,0,0,,,,
292.5679998,1142,0,444.0192159,-3.52E-06,3.06E-06,0,0,0,0,0,319.2552674,0,0,0,3.44E-06,0,0,,,,
292.5759998,1142,0,-538.9063702,-3.44E-06,3.03E-06,0,0,0,0,0,-201.8680416,0,0,0,3.51E-06,0,0,,,,
292.5839998,1142,0,787.3067191,-3.43E-06,3.00E-06,0,0,0,0,0,65.23558626,0,0,0,3.70E-06,0,0,,,,
292.5919998,1142,0,-343.6684989,-3.39E-06,2.98E-06,0,0,0,0,0,142.8366739,0,0,0,3.40E-06,0,0,,,,
292.5999998,1142,0,116.7738476,-3.36E-06,2.95E-06,0,0,0,0,0,-266.6825052,0,0,0,3.58E-06,0,0,,,,
292.6079998,1143,0,459.9997459,-3.33E-06,2.92E-06,0,0,0,0,0,312.3953009,0,0,0,3.41E-06,0,0,,,,
292.6159998,1143,0,-527.0526928,-3.30E-06,2.89E-06,0,0,0,0,0,-181.9849895,0,0,0,3.46E-06,0,0,,,,
292.6239998,1143,0,811.9270127,-3.27E-06,2.86E-06,0,0,0,0,0,72.77338671,0,0,0,3.38E-06,0,0,,,,
292.6319998,1143,0,-297.8439223,-3.24E-06,2.84E-06,0,0,0,0,0,153.6190225,0,0,0,3.38E-06,0,0,,,,
292.6399998,1143,0,153.1208776,-3.21E-06,2.81E-06,0,0,0,0,0,-248.154253,0,0,0,3.33E-06,0,0,,,,
292.6479998,1143,0,516.2106864,-3.18E-06,-1.03E-06,0,0,0,0,0,336.0063325,0,0,0,3.31E-06,0,0,,,,
292.6559998,1143,0,-520.1211011,-3.15E-06,-4.66E-06,0,0,0,0,0,-175.3465022,0,0,0,3.28E-06,0,0,,,,
292.6639998,1143,0,789.9717454,-3.12E-06,-3.50E-06,0,0,0,0,0,46.11498061,0,0,0,3.25E-06,0,0,,,,
292.6719998,1143,0,-300.2123556,-3.09E-06,-3.56E-06,0,0,0,0,0,139.9328868,0,0,0,3.22E-06,0,0,,,,
292.6799998,1143,0,138.210429,-3.06E-06,-3.76E-06,0,0,0,0,0,-257.5282003,0,0,0,3.19E-06,0,0,,,,
292.6879998,1143,0,523.0204937,-3.03E-06,-3.46E-06,0,0,0,0,0,323.6727271,0,0,0,3.16E-06,0,0,,,,
292.6959998,1143,0,-528.6106915,-3.00E-06,-3.64E-06,0,0,0,0,0,-185.1048825,0,0,0,3.13E-06,0,0,,,,
292.7039998,1143,0,780.3417589,-2.98E-06,-3.46E-06,0,0,0,0,0,36.65771804,0,0,0,3.10E-06,0,0,,,,
292.7119998,1143,0,-302.0942308,-2.95E-06,-3.52E-06,0,0,0,0,0,136.0854123,0,0,0,3.07E-06,0,0,,,,
292.7199998,1143,0,107.5097059,-2.92E-06,-3.44E-06,0,0,0,0,0,-282.4152115,0,0,0,3.04E-06,0,0,,,,
292.7279998,1143,0,515.5983821,-2.89E-06,-3.43E-06,0,0,0,0,0,315.7946104,0,0,0,3.01E-06,0,0,,,,
292.7359998,1143,0,-542.9757452,-2.86E-06,-3.39E-06,0,0,0,0,0,-183.3884774,0,0,0,2.98E-06,0,0,,,,
292.7439998,1143,0,779.1693394,-2.84E-06,-3.36E-06,0,0,0,0,0,17.72852878,0,0,0,2.95E-06,0,0,,,,
292.7519998,1143,0,-294.1415474,-2.81E-06,-3.33E-06,0,0,0,0,0,145.1907942,0,0,0,2.92E-06,0,0,,,,
292.7599998,1143,0,70.88837299,1.03E-06,-3.30E-06,0,0,0,0,0,-289.4777778,0,0,0,2.90E-06,0,0,,,,
292.7679998,1143,0,505.3601261,4.66E-06,-3.27E-06,0,0,0,0,0,286.5087338,0,0,0,2.87E-06,0,0,,,,
292.7759998,1143,0,-534.7175774,3.50E-06,-3.24E-06,0,0,0,0,0,-170.9807689,0,0,0,-9.74E-07,0,0,,,,
292.7839998,1143,0,770.080272,3.56E-06,-3.21E-06,0,0,0,0,0,36.22455449,0,0,0,-4.60E-06,0,0,,,,
292.7919998,1143,0,-332.4320187,3.76E-06,-3.18E-06,0,0,0,0,0,129.9012235,0,0,0,-3.44E-06,0,0,,,,
292.7999998,1143,0,42.93212271,3.46E-06,-3.15E-06,0,0,0,0,0,-295.2583965,0,0,0,-3.51E-06,0,0,,,,
292.8079998,1143,0,786.9717235,3.64E-06,-3.12E-06,0,0,0,0,0,652.5183258,0,0,0,-3.70E-06,0,0,,,,
292.8159998,1143,0,-529.7802186,3.46E-06,-3.09E-06,0,0,0,0,0,425.9038065,0,0,0,-3.40E-06,0,0,,,,
292.8239998,1143,0,449.6684262,3.52E-06,-3.06E-06,0,0,0,0,0,216.1818293,0,0,0,-3.58E-06,0,0,,,,
292.8319998,1143,0,-197.6196744,3.44E-06,-3.03E-06,0,0,0,0,0,217.2041335,0,0,0,-3.41E-06,0,0,,,,
292.8399998,1143,0,-193.8956224,3.43E-06,-3.00E-06,0,0,0,0,0,-382.438746,0,0,0,-3.46E-06,0,0,,,,
292.8479998,1143,0,670.768469,3.39E-06,-2.98E-06,0,0,0,0,0,203.6009197,0,0,0,-3.38E-06,0,0,,,,
292.8559998,1143,0,-519.9678071,3.36E-06,-2.95E-06,0,0,0,0,0,-22.67174358,0,0,0,-3.38E-06,0,0,,,,
292.8639998,1144,0,332.4948969,3.33E-06,-2.92E-06,0,0,0,0,0,-233.1658685,0,0,0,-3.33E-06,0,0,,,,
292.8719998,1144,0,194.29921,3.30E-06,-2.89E-06,0,0,0,0,0,288.5116782,0,0,0,-3.31E-06,0,0,,,,
292.8799998,1144,0,-442.6537086,3.27E-06,-2.86E-06,0,0,0,0,0,-250.114846,0,0,0,-3.28E-06,0,0,,,,
292.8879998,1144,0,667.1785388,3.24E-06,-2.84E-06,0,0,0,0,0,65.72166701,0,0,0,-3.25E-06,0,0,,,,
292.8959998,1144,0,-362.3648763,3.21E-06,-2.81E-06,0,0,0,0,0,84.29571995,0,0,0,-3.22E-06,0,0,,,,
292.9039998,1144,0,118.1151301,3.18E-06,1.03E-06,0,0,0,0,0,-265.2610432,0,0,0,-3.19E-06,0,0,,,,
292.9119998,1144,0,399.1574969,3.15E-06,4.66E-06,0,0,0,0,0,286.9043112,0,0,0,-3.16E-06,0,0,,,,
292.9199998,1144,0,-534.5606715,3.12E-06,3.50E-06,0,0,0,0,0,-198.0281371,0,0,0,-3.13E-06,0,0,,,,
292.9279998,1144,0,683.7175499,3.09E-06,3.56E-06,0,0,0,0,0,9.110800782,0,0,0,-3.10E-06,0,0,,,,
292.9359998,1144,0,-280.134149,3.06E-06,3.76E-06,0,0,0,0,0,133.3140358,0,0,0,-3.07E-06,0,0,,,,
292.9439998,1144,0,40.58548657,3.03E-06,3.46E-06,0,0,0,0,0,-277.7415803,0,0,0,-3.04E-06,0,0,,,,
292.9519998,1144,0,488.348498,3.00E-06,3.64E-06,0,0,0,0,0,287.0000494,0,0,0,-3.01E-06,0,0,,,,
292.9599998,1144,0,-570.098287,2.98E-06,3.46E-06,0,0,0,0,0,-171.8122799,0,0,0,-2.98E-06,0,0,,,,
292.9679998,1144,0,682.6128221,2.95E-06,3.52E-06,0,0,0,0,0,-16.10461888,0,0,0,-2.95E-06,0,0,,,,
292.9759998,1144,0,-279.5567247,2.92E-06,3.44E-06,0,0,0,0,0,132.2846188,0,0,0,-2.92E-06,0,0,,,,
292.9839998,1144,0,6.986495102,2.89E-06,3.43E-06,0,0,0,0,0,-290.6058729,0,0,0,-2.90E-06,0,0,,,,
292.9919998,1144,0,499.865079,2.86E-06,3.39E-06,0,0,0,0,0,271.2600137,0,0,0,-2.87E-06,0,0,,,,
292.9999998,1144,0,-598.4873614,2.84E-06,3.36E-06,0,0,0,0,0,-188.4656529,0,0,0,9.74E-07,0,0,,,,
293.0079998,1144,0,733.6387352,2.81E-06,3.33E-06,0,0,0,0,0,0.256183893,0,0,0,4.60E-06,0,0,,,,
293.0159998,1144,0,-238.2635195,-1.03E-06,3.30E-06,0,0,0,0,0,170.838473,0,0,0,3.44E-06,0,0,,,,
293.0239998,1144,0,-12.72387843,-4.66E-06,3.27E-06,0,0,0,0,0,-307.7090608,0,0,0,3.51E-06,0,0,,,,
293.0319998,1144,0,548.6751676,-3.50E-06,3.24E-06,0,0,0,0,0,280.4925831,0,0,0,3.70E-06,0,0,,,,
293.0399998,1144,0,-593.5567274,-3.56E-06,3.21E-06,0,0,0,0,0,-161.2392848,0,0,0,3.40E-06,0,0,,,,
293.0479998,1144,0,695.4321316,-3.76E-06,3.18E-06,0,0,0,0,0,-28.26630636,0,0,0,3.58E-06,0,0,,,,
293.0559998,1144,0,-244.0327378,-3.46E-06,3.15E-06,0,0,0,0,0,157.9277564,0,0,0,3.41E-06,0,0,,,,
293.0639998,1144,0,-34.2942921,-3.64E-06,3.12E-06,0,0,0,0,0,-310.0615658,0,0,0,3.46E-06,0,0,,,,
293.0719998,1144,0,535.9644962,-3.46E-06,3.09E-06,0,0,0,0,0,271.6254575,0,0,0,3.38E-06,0,0,,,,
293.0799998,1144,0,-624.902119,-3.52E-06,3.06E-06,0,0,0,0,0,-168.5001762,0,0,0,3.38E-06,0,0,,,,
293.0879998,1144,0,666.0314044,-3.44E-06,3.03E-06,0,0,0,0,0,-51.21050935,0,0,0,3.33E-06,0,0,,,,
293.0959998,1144,0,-222.5573559,-3.43E-06,3.00E-06,0,0,0,0,0,164.4770191,0,0,0,3.31E-06,0,0,,,,
293.1039998,1144,0,-20.07545329,-3.39E-06,2.98E-06,0,0,0,0,0,-294.7470649,0,0,0,3.28E-06,0,0,,,,
293.1119998,1144,0,558.3950995,-3.36E-06,2.95E-06,0,0,0,0,0,270.4433568,0,0,0,3.25E-06,0,0,,,,
293.1199998,1145,0,-608.0810006,-3.33E-06,2.92E-06,0,0,0,0,0,-161.0198763,0,0,0,3.22E-06,0,0,,,,
293.1279998,1145,0,682.5362035,-3.30E-06,2.89E-06,0,0,0,0,0,-44.85744445,0,0,0,3.19E-06,0,0,,,,
293.1359998,1145,0,-211.9211537,-3.27E-06,2.86E-06,0,0,0,0,0,161.634591,0,0,0,3.16E-06,0,0,,,,
293.1439998,1145,0,-53.77710985,-3.24E-06,2.84E-06,0,0,0,0,0,-315.9772016,0,0,0,3.13E-06,0,0,,,,
293.1519998,1145,0,558.832886,-3.21E-06,2.81E-06,0,0,0,0,0,258.3430919,0,0,0,3.10E-06,0,0,,,,
293.1599998,1145,0,-608.4243497,-3.18E-06,-1.03E-06,0,0,0,0,0,-157.3899034,0,0,0,3.07E-06,0,0,,,,
293.1679998,1145,0,674.5652796,-3.15E-06,-4.66E-06,0,0,0,0,0,-52.54963376,0,0,0,3.04E-06,0,0,,,,
293.1759998,1145,0,-194.3344806,-3.12E-06,-3.50E-06,0,0,0,0,0,170.9768822,0,0,0,3.01E-06,0,0,,,,
293.1839998,1145,0,-51.53640139,-3.09E-06,-3.56E-06,0,0,0,0,0,-298.493441,0,0,0,2.98E-06,0,0,,,,
293.1919998,1145,0,573.8123209,-3.06E-06,-3.76E-06,0,0,0,0,0,264.2714539,0,0,0,2.95E-06,0,0,,,,
293.1999998,1145,0,-622.3080908,-3.03E-06,-3.46E-06,0,0,0,0,0,-153.5797508,0,0,0,2.92E-06,0,0,,,,
293.2079998,1145,0,645.7933427,-3.00E-06,-3.64E-06,0,0,0,0,0,-57.27241495,0,0,0,2.90E-06,0,0,,,,
293.2159998,1145,0,-216.2401817,-2.98E-06,-3.46E-06,0,0,0,0,0,161.9202689,0,0,0,2.87E-06,0,0,,,,
293.2239998,1145,0,-101.6955569,-2.95E-06,-3.52E-06,0,0,0,0,0,-316.3798049,0,0,0,-9.74E-07,0,0,,,,
293.2319998,1145,0,557.5999703,-2.92E-06,-3.44E-06,0,0,0,0,0,256.4207106,0,0,0,-4.60E-06,0,0,,,,
293.2399998,1145,0,-618.9160865,-2.89E-06,-3.43E-06,0,0,0,0,0,-142.6775321,0,0,0,-3.44E-06,0,0,,,,
293.2479998,1145,0,656.363475,-2.86E-06,-3.39E-06,0,0,0,0,0,-52.70742008,0,0,0,-3.51E-06,0,0,,,,
293.2559998,1145,0,-191.4576932,-2.84E-06,-3.36E-06,0,0,0,0,0,168.276033,0,0,0,-3.70E-06,0,0,,,,
293.2639998,1145,0,-106.449048,-2.81E-06,-3.33E-06,0,0,0,0,0,-321.7141476,0,0,0,-3.40E-06,0,0,,,,
293.2719998,1145,0,543.5784511,1.03E-06,-3.30E-06,0,0,0,0,0,230.7291599,0,0,0,-3.58E-06,0,0,,,,
293.2799998,1145,0,-631.0569959,4.66E-06,-3.27E-06,0,0,0,0,0,-163.4344403,0,0,0,-3.41E-06,0,0,,,,
293.2879998,1145,0,655.3118469,3.50E-06,-3.24E-06,0,0,0,0,0,-63.30584671,0,0,0,-3.46E-06,0,0,,,,
293.2959998,1145,0,-189.2773308,3.56E-06,-3.21E-06,0,0,0,0,0,170.4478435,0,0,0,-3.38E-06,0,0,,,,
293.3039998,1145,0,-110.0629356,3.76E-06,-3.18E-06,0,0,0,0,0,-322.6972457,0,0,0,-3.38E-06,0,0,,,,
293.3119998,1145,0,995.497933,3.46E-06,-3.15E-06,0,0,0,0,0,560.4318902,0,0,0,-3.33E-06,0,0,,,,
293.3199998,1145,0,-247.8610535,3.64E-06,-3.12E-06,0,0,0,0,0,465.7634044,0,0,0,-3.31E-06,0,0,,,,
293.3279998,1145,0,66.17402072,3.46E-06,-3.09E-06,0,0,0,0,0,-168.9566764,0,0,0,-3.28E-06,0,0,,,,
293.3359998,1145,0,-8.885435427,3.52E-06,-3.06E-06,0,0,0,0,0,-66.53215411,0,0,0,-3.25E-06,0,0,,,,
293.3439998,1145,0,201.7980323,3.44E-06,-3.03E-06,0,0,0,0,0,29.40956671,0,0,0,-3.22E-06,0,0,,,,
293.3519998,1145,0,0.029933328,3.43E-06,-3.00E-06,0,0,0,0,0,5.189553643,0,0,0,-3.19E-06,0,0,,,,
293.3599998,1145,0,-69.34719081,3.39E-06,-2.98E-06,0,0,0,0,0,-180.7225282,0,0,0,-3.16E-06,0,0,,,,
293.3679998,1145,0,411.8458604,3.36E-06,-2.95E-06,0,0,0,0,0,144.1582908,0,0,0,-3.13E-06,0,0,,,,
293.3759998,1146,0,-399.8507509,3.33E-06,-2.92E-06,0,0,0,0,0,-109.3872453,0,0,0,-3.10E-06,0,0,,,,
293.3839998,1146,0,504.1820668,3.30E-06,-2.89E-06,0,0,0,0,0,-31.43371624,0,0,0,-3.07E-06,0,0,,,,
293.3919998,1146,0,-74.83699206,3.27E-06,-2.86E-06,0,0,0,0,0,132.2310475,0,0,0,-3.04E-06,0,0,,,,
293.3999998,1146,0,-112.8114273,3.24E-06,-2.84E-06,0,0,0,0,0,-275.9571335,0,0,0,-3.01E-06,0,0,,,,
293.4079998,1146,0,558.1593627,3.21E-06,-2.81E-06,0,0,0,0,0,203.7861107,0,0,0,-2.98E-06,0,0,,,,
293.4159998,1146,0,-551.0090031,3.18E-06,1.03E-06,0,0,0,0,0,-117.4279988,0,0,0,-2.95E-06,0,0,,,,
293.4239998,1146,0,564.4647052,3.15E-06,4.66E-06,0,0,0,0,0,-80.76067738,0,0,0,-2.92E-06,0,0,,,,
293.4319998,1146,0,-114.4946419,3.12E-06,3.50E-06,0,0,0,0,0,155.916136,0,0,0,-2.90E-06,0,0,,,,
293.4399998,1146,0,-129.6178132,3.09E-06,3.56E-06,0,0,0,0,0,-301.1810031,0,0,0,-2.87E-06,0,0,,,,
293.4479998,1146,0,583.2547819,3.06E-06,3.76E-06,0,0,0,0,0,209.6373577,0,0,0,9.74E-07,0,0,,,,
293.4559998,1146,0,-609.3977636,3.03E-06,3.46E-06,0,0,0,0,0,-141.3321075,0,0,0,4.60E-06,0,0,,,,
293.4639998,1146,0,628.6927072,3.00E-06,3.64E-06,0,0,0,0,0,-74.89532565,0,0,0,3.44E-06,0,0,,,,
293.4719998,1146,0,-78.08011325,2.98E-06,3.46E-06,0,0,0,0,0,211.5392944,0,0,0,3.51E-06,0,0,,,,
293.4799998,1146,0,-136.3645542,2.95E-06,3.52E-06,0,0,0,0,0,-295.9130109,0,0,0,3.70E-06,0,0,,,,
293.4879998,1146,0,592.3424385,2.92E-06,3.44E-06,0,0,0,0,0,215.2545351,0,0,0,3.40E-06,0,0,,,,
293.4959998,1146,0,-643.54875,2.89E-06,3.43E-06,0,0,0,0,0,-129.395717,0,0,0,3.58E-06,0,0,,,,
293.5039998,1146,0,578.416998,2.86E-06,3.39E-06,0,0,0,0,0,-99.7508655,0,0,0,3.41E-06,0,0,,,,
293.5119998,1146,0,-114.1753242,2.84E-06,3.36E-06,0,0,0,0,0,183.6462654,0,0,0,3.46E-06,0,0,,,,
293.5199998,1146,0,-162.2418738,2.81E-06,3.33E-06,0,0,0,0,0,-298.5352438,0,0,0,3.38E-06,0,0,,,,
293.5279998,1146,0,594.4732833,-1.03E-06,3.30E-06,0,0,0,0,0,221.2600003,0,0,0,3.38E-06,0,0,,,,
293.5359998,1146,0,-642.7391851,-4.66E-06,3.27E-06,0,0,0,0,0,-130.3800376,0,0,0,3.33E-06,0,0,,,,
293.5439998,1146,0,580.5053993,-3.50E-06,3.24E-06,0,0,0,0,0,-89.39264731,0,0,0,3.31E-06,0,0,,,,
293.5519998,1146,0,-104.5199848,-3.56E-06,3.21E-06,0,0,0,0,0,198.9320759,0,0,0,3.28E-06,0,0,,,,
293.5599998,1146,0,-181.5631682,-3.76E-06,3.18E-06,0,0,0,0,0,-308.8095416,0,0,0,3.25E-06,0,0,,,,
293.5679998,1146,0,612.0151054,-3.46E-06,3.15E-06,0,0,0,0,0,223.6438999,0,0,0,3.22E-06,0,0,,,,
293.5759998,1146,0,-600.3242547,-3.64E-06,3.12E-06,0,0,0,0,0,-101.1851577,0,0,0,3.19E-06,0,0,,,,
293.5839998,1146,0,587.137229,-3.46E-06,3.09E-06,0,0,0,0,0,-80.07141631,0,0,0,3.16E-06,0,0,,,,
293.5919998,1146,0,-104.2959194,-3.52E-06,3.06E-06,0,0,0,0,0,196.5864769,0,0,0,3.13E-06,0,0,,,,
293.5999998,1146,0,-184.2811337,-3.44E-06,3.03E-06,0,0,0,0,0,-312.1020419,0,0,0,3.10E-06,0,0,,,,
293.6079998,1146,0,608.0275086,-3.43E-06,3.00E-06,0,0,0,0,0,218.1463005,0,0,0,3.07E-06,0,0,,,,
293.6159998,1146,0,-617.3592376,-3.39E-06,2.98E-06,0,0,0,0,0,-99.37152307,0,0,0,3.04E-06,0,0,,,,
293.6239998,1146,0,575.0411459,-3.36E-06,2.95E-06,0,0,0,0,0,-80.63193892,0,0,0,3.01E-06,0,0,,,,
293.6319998,1147,0,-127.7337142,-3.33E-06,2.92E-06,0,0,0,0,0,191.9337665,0,0,0,2.98E-06,0,0,,,,
293.6399998,1147,0,-238.8298989,-3.30E-06,2.89E-06,0,0,0,0,0,-331.679851,0,0,0,2.95E-06,0,0,,,,
293.6479998,1147,0,599.298551,-3.27E-06,2.86E-06,0,0,0,0,0,205.1630642,0,0,0,2.92E-06,0,0,,,,
293.6559998,1147,0,-636.8079162,-3.24E-06,2.84E-06,0,0,0,0,0,-104.9946338,0,0,0,2.90E-06,0,0,,,,
293.6639998,1147,0,541.1204453,-3.21E-06,2.81E-06,0,0,0,0,0,-105.6468373,0,0,0,2.87E-06,0,0,,,,
293.6719998,1147,0,-111.4775736,-3.18E-06,-1.03E-06,0,0,0,0,0,188.6453818,0,0,0,-9.74E-07,0,0,,,,
293.6799998,1147,0,-232.1075605,-3.15E-06,-4.66E-06,0,0,0,0,0,-319.0535473,0,0,0,-4.60E-06,0,0,,,,
293.6879998,1147,0,587.1770509,-3.12E-06,-3.50E-06,0,0,0,0,0,203.5645154,0,0,0,-3.44E-06,0,0,,,,
293.6959998,1147,0,-675.5489441,-3.09E-06,-3.56E-06,0,0,0,0,0,-118.6058671,0,0,0,-3.51E-06,0,0,,,,
293.7039998,1147,0,518.2791668,-3.06E-06,-3.76E-06,0,0,0,0,0,-115.752522,0,0,0,-3.70E-06,0,0,,,,
293.7119998,1147,0,-96.42563624,-3.03E-06,-3.46E-06,0,0,0,0,0,204.7650044,0,0,0,-3.40E-06,0,0,,,,
293.7199998,1147,0,-220.1491159,-3.00E-06,-3.64E-06,0,0,0,0,0,-301.4272967,0,0,0,-3.58E-06,0,0,,,,
293.7279998,1147,0,625.3584557,-2.98E-06,-3.46E-06,0,0,0,0,0,228.0755588,0,0,0,-3.41E-06,0,0,,,,
293.7359998,1147,0,-650.9273514,-2.95E-06,-3.52E-06,0,0,0,0,0,-90.8468061,0,0,0,-3.46E-06,0,0,,,,
293.7439998,1147,0,543.7764701,-2.92E-06,-3.44E-06,0,0,0,0,0,-103.6739858,0,0,0,-3.38E-06,0,0,,,,
293.7519998,1147,0,-74.28237027,-2.89E-06,-3.43E-06,0,0,0,0,0,221.0128764,0,0,0,-3.38E-06,0,0,,,,
293.7599998,1147,0,-258.5680988,-2.86E-06,-3.39E-06,0,0,0,0,0,-317.0573203,0,0,0,-3.33E-06,0,0,,,,
293.7679998,1147,0,620.5554839,-2.84E-06,-3.36E-06,0,0,0,0,0,204.7113718,0,0,0,-3.31E-06,0,0,,,,
293.7759998,1147,0,-666.8160086,-2.81E-06,-3.33E-06,0,0,0,0,0,-87.75056601,0,0,0,-3.28E-06,0,0,,,,
293.7839998,1147,0,480.4765925,1.03E-06,-3.30E-06,0,0,0,0,0,-130.6216849,0,0,0,-3.25E-06,0,0,,,,
293.7919998,1147,0,-100.3903336,4.66E-06,-3.27E-06,0,0,0,0,0,197.2206995,0,0,0,-3.22E-06,0,0,,,,
293.7999998,1147,0,-293.7286657,3.50E-06,-3.24E-06,0,0,0,0,0,-322.2080889,0,0,0,-3.19E-06,0,0,,,,
293.8079998,1147,0,1157.652411,3.56E-06,-3.21E-06,0,0,0,0,0,478.0610866,0,0,0,-3.16E-06,0,0,,,,
293.8159998,1147,0,30.47264838,3.76E-06,-3.18E-06,0,0,0,0,0,501.8346192,0,0,0,-3.13E-06,0,0,,,,
293.8239998,1147,0,-66.8684909,3.46E-06,-3.15E-06,0,0,0,0,0,-180.4666585,0,0,0,-3.10E-06,0,0,,,,
293.8319998,1147,0,-94.41846665,3.64E-06,-3.12E-06,0,0,0,0,0,-64.4820028,0,0,0,-3.07E-06,0,0,,,,
293.8399998,1147,0,150.5692501,3.46E-06,-3.09E-06,0,0,0,0,0,14.67844307,0,0,0,-3.04E-06,0,0,,,,
293.8479998,1147,0,-7.894758177,3.52E-06,-3.06E-06,0,0,0,0,0,26.68405664,0,0,0,-3.01E-06,0,0,,,,
293.8559998,1147,0,-169.6066899,3.44E-06,-3.03E-06,0,0,0,0,0,-153.7735269,0,0,0,-2.98E-06,0,0,,,,
293.8639998,1147,0,367.158762,3.43E-06,-3.00E-06,0,0,0,0,0,101.893237,0,0,0,-2.95E-06,0,0,,,,
293.8719998,1147,0,-521.7102803,3.39E-06,-2.98E-06,0,0,0,0,0,-106.5159272,0,0,0,-2.92E-06,0,0,,,,
293.8799998,1147,0,344.6929211,3.36E-06,-2.95E-06,0,0,0,0,0,-87.97492864,0,0,0,-2.90E-06,0,0,,,,
293.8879998,1148,0,-12.6971104,3.33E-06,-2.92E-06,0,0,0,0,0,174.4420692,0,0,0,-2.87E-06,0,0,,,,
293.8959998,1148,0,-264.7008252,3.30E-06,-2.89E-06,0,0,0,0,0,-244.3830826,0,0,0,9.74E-07,0,0,,,,
293.9039998,1148,0,552.1426344,3.27E-06,-2.86E-06,0,0,0,0,0,166.5905975,0,0,0,4.60E-06,0,0,,,,
293.9119998,1148,0,-601.9752168,3.24E-06,-2.84E-06,0,0,0,0,0,-65.03937146,0,0,0,3.44E-06,0,0,,,,
293.9199998,1148,0,434.1156431,3.21E-06,-2.81E-06,0,0,0,0,0,-104.8941076,0,0,0,3.51E-06,0,0,,,,
293.9279998,1148,0,-3.272747892,3.18E-06,1.03E-06,0,0,0,0,0,220.8537368,0,0,0,3.70E-06,0,0,,,,
293.9359998,1148,0,-287.8035673,3.15E-06,4.66E-06,0,0,0,0,0,-279.0336101,0,0,0,3.40E-06,0,0,,,,
293.9439998,1148,0,636.2331751,3.12E-06,3.50E-06,0,0,0,0,0,180.8957194,0,0,0,3.58E-06,0,0,,,,
293.9519998,1148,0,-598.4527501,3.09E-06,3.56E-06,0,0,0,0,0,-49.91022921,0,0,0,3.41E-06,0,0,,,,
293.9599998,1148,0,451.7574275,3.06E-06,3.76E-06,0,0,0,0,0,-115.4866603,0,0,0,3.46E-06,0,0,,,,
293.9679998,1148,0,-39.19590211,3.03E-06,3.46E-06,0,0,0,0,0,207.5068084,0,0,0,3.38E-06,0,0,,,,
293.9759998,1148,0,-327.2267282,3.00E-06,3.64E-06,0,0,0,0,0,-309.684819,0,0,0,3.38E-06,0,0,,,,
293.9839998,1148,0,619.9105673,2.98E-06,3.46E-06,0,0,0,0,0,178.5429439,0,0,0,3.33E-06,0,0,,,,
293.9919998,1148,0,-659.4538458,2.95E-06,3.52E-06,0,0,0,0,0,-75.40589483,0,0,0,3.31E-06,0,0,,,,
293.9999998,1148,0,441.5238002,2.92E-06,3.44E-06,0,0,0,0,0,-141.2632067,0,0,0,3.28E-06,0,0,,,,
294.0079998,1148,0,-5.127978317,2.89E-06,3.43E-06,0,0,0,0,0,230.089619,0,0,0,3.25E-06,0,0,,,,
294.0159998,1148,0,-321.2762456,2.86E-06,3.39E-06,0,0,0,0,0,-301.8689979,0,0,0,3.22E-06,0,0,,,,
294.0239998,1148,0,655.531326,2.84E-06,3.36E-06,0,0,0,0,0,184.257065,0,0,0,3.19E-06,0,0,,,,
294.0319998,1148,0,-596.9579056,2.81E-06,3.33E-06,0,0,0,0,0,-41.80851136,0,0,0,3.16E-06,0,0,,,,
294.0399998,1148,0,489.6918822,-1.03E-06,3.30E-06,0,0,0,0,0,-114.332608,0,0,0,3.13E-06,0,0,,,,
294.0479998,1148,0,29.13867953,-4.66E-06,3.27E-06,0,0,0,0,0,249.3456857,0,0,0,3.10E-06,0,0,,,,
294.0559998,1148,0,-313.3783522,-3.50E-06,3.24E-06,0,0,0,0,0,-299.0880062,0,0,0,3.07E-06,0,0,,,,
294.0639998,1148,0,643.8681657,-3.56E-06,3.21E-06,0,0,0,0,0,165.1779626,0,0,0,3.04E-06,0,0,,,,
294.0719998,1148,0,-669.231166,-3.76E-06,3.18E-06,0,0,0,0,0,-90.51256212,0,0,0,3.01E-06,0,0,,,,
294.0799998,1148,0,426.1370643,-3.46E-06,3.15E-06,0,0,0,0,0,-175.1326449,0,0,0,2.98E-06,0,0,,,,
294.0879998,1148,0,23.68970498,-3.64E-06,3.12E-06,0,0,0,0,0,235.8521325,0,0,0,2.95E-06,0,0,,,,
294.0959998,1148,0,-341.3027385,-3.46E-06,3.09E-06,0,0,0,0,0,-300.6456518,0,0,0,2.92E-06,0,0,,,,
294.1039998,1148,0,667.3873382,-3.52E-06,3.06E-06,0,0,0,0,0,169.3251737,0,0,0,2.90E-06,0,0,,,,
294.1119998,1148,0,-610.619588,-3.44E-06,3.03E-06,0,0,0,0,0,-46.67956922,0,0,0,2.87E-06,0,0,,,,
294.1199998,1148,0,439.3544021,-3.43E-06,3.00E-06,0,0,0,0,0,-143.8224531,0,0,0,-9.74E-07,0,0,,,,
294.1279998,1148,0,48.39119348,-3.39E-06,2.98E-06,0,0,0,0,0,250.5503465,0,0,0,-4.60E-06,0,0,,,,
294.1359998,1148,0,-309.8920679,-3.36E-06,2.95E-06,0,0,0,0,0,-284.3585986,0,0,0,-3.44E-06,0,0,,,,
294.1439998,1149,0,681.5975984,-3.33E-06,2.92E-06,0,0,0,0,0,182.0806332,0,0,0,-3.51E-06,0,0,,,,
294.1519998,1149,0,-621.6373882,-3.30E-06,2.89E-06,0,0,0,0,0,-42.41772635,0,0,0,-3.70E-06,0,0,,,,
294.1599998,1149,0,437.012447,-3.27E-06,2.86E-06,0,0,0,0,0,-152.8956273,0,0,0,-3.40E-06,0,0,,,,
294.1679998,1149,0,61.49935299,-3.24E-06,2.84E-06,0,0,0,0,0,257.7743597,0,0,0,-3.58E-06,0,0,,,,
294.1759998,1149,0,-329.8725945,-3.21E-06,2.81E-06,0,0,0,0,0,-279.2170588,0,0,0,-3.41E-06,0,0,,,,
294.1839998,1149,0,704.0718403,-3.18E-06,-1.03E-06,0,0,0,0,0,181.7019167,0,0,0,-3.46E-06,0,0,,,,
294.1919998,1149,0,-572.0977529,-3.15E-06,-4.66E-06,0,0,0,0,0,-9.94353699,0,0,0,-3.38E-06,0,0,,,,
294.1999998,1149,0,464.6930446,-3.12E-06,-3.50E-06,0,0,0,0,0,-114.624286,0,0,0,-3.38E-06,0,0,,,,
294.2079998,1149,0,98.82961527,-3.09E-06,-3.56E-06,0,0,0,0,0,272.1988742,0,0,0,-3.33E-06,0,0,,,,
294.2159998,1149,0,-324.6481196,-3.06E-06,-3.76E-06,0,0,0,0,0,-276.3170975,0,0,0,-3.31E-06,0,0,,,,
294.2239998,1149,0,716.1696387,-3.03E-06,-3.46E-06,0,0,0,0,0,192.2121242,0,0,0,-3.28E-06,0,0,,,,
294.2319998,1149,0,-557.5144963,-3.00E-06,-3.64E-06,0,0,0,0,0,-10.62202077,0,0,0,-3.25E-06,0,0,,,,
294.2399998,1149,0,465.4292527,-2.98E-06,-3.46E-06,0,0,0,0,0,-124.498024,0,0,0,-3.22E-06,0,0,,,,
294.2479998,1149,0,127.8548827,-2.95E-06,-3.52E-06,0,0,0,0,0,294.028005,0,0,0,-3.19E-06,0,0,,,,
294.2559998,1149,0,-317.6986824,-2.92E-06,-3.44E-06,0,0,0,0,0,-265.4552779,0,0,0,-3.16E-06,0,0,,,,
294.2639998,1149,0,734.191123,-2.89E-06,-3.43E-06,0,0,0,0,0,190.3451471,0,0,0,-3.13E-06,0,0,,,,
294.2719998,1149,0,-537.8639693,-2.86E-06,-3.39E-06,0,0,0,0,0,10.36364076,0,0,0,-3.10E-06,0,0,,,,
294.2799998,1149,0,434.2580704,-2.84E-06,-3.36E-06,0,0,0,0,0,-134.0257295,0,0,0,-3.07E-06,0,0,,,,
294.2879998,1149,0,80.98373938,-2.81E-06,-3.33E-06,0,0,0,0,0,263.2242054,0,0,0,-3.04E-06,0,0,,,,
294.2959998,1149,0,-364.5298453,1.03E-06,-3.30E-06,0,0,0,0,0,-288.3874718,0,0,0,-3.01E-06,0,0,,,,
294.3039998,1149,0,712.8614106,4.66E-06,-3.27E-06,0,0,0,0,0,177.5905724,0,0,0,-2.98E-06,0,0,,,,
294.3119998,1149,0,-1345.478951,3.50E-06,-3.24E-06,0,0,0,0,0,-101.0751348,0,0,0,-2.95E-06,0,0,,,,
294.3199998,1149,0,-1023.439517,3.56E-06,-3.21E-06,0,0,0,0,0,-522.6816975,0,0,0,-2.92E-06,0,0,,,,
294.3279998,1149,0,-400.303501,3.76E-06,-3.18E-06,0,0,0,0,0,31.93032148,0,0,0,-2.90E-06,0,0,,,,
294.3359998,1149,0,-499.1166144,3.46E-06,-3.15E-06,0,0,0,0,0,-240.1321327,0,0,0,-2.87E-06,0,0,,,,
294.3439998,1149,0,849.4916579,3.64E-06,-3.12E-06,0,0,0,0,0,144.3833105,0,0,0,9.74E-07,0,0,,,,
294.3519998,1149,0,-390.6792921,3.46E-06,-3.09E-06,0,0,0,0,0,112.1267634,0,0,0,4.60E-06,0,0,,,,
294.3599998,1149,0,7.065821818,3.52E-06,-3.06E-06,0,0,0,0,0,-245.0280531,0,0,0,3.44E-06,0,0,,,,
294.3679998,1149,0,617.5521646,3.44E-06,-3.03E-06,0,0,0,0,0,286.4847618,0,0,0,3.51E-06,0,0,,,,
294.3759998,1149,0,-611.6037525,3.43E-06,-3.00E-06,0,0,0,0,0,-100.3248636,0,0,0,3.70E-06,0,0,,,,
294.3839998,1149,0,577.8781737,3.39E-06,-2.98E-06,0,0,0,0,0,-17.34607031,0,0,0,3.40E-06,0,0,,,,
294.3919998,1149,0,-32.47618683,3.36E-06,-2.95E-06,0,0,0,0,0,233.8667446,0,0,0,3.58E-06,0,0,,,,
294.3999998,1150,0,-237.0297506,3.33E-06,-2.92E-06,0,0,0,0,0,-234.562407,0,0,0,3.41E-06,0,0,,,,
294.4079998,1150,0,673.7940489,3.30E-06,-2.89E-06,0,0,0,0,0,218.0418239,0,0,0,3.46E-06,0,0,,,,
294.4159998,1150,0,-568.4715294,3.27E-06,-2.86E-06,0,0,0,0,0,-15.51711416,0,0,0,3.38E-06,0,0,,,,
294.4239998,1150,0,413.0830214,3.24E-06,-2.84E-06,0,0,0,0,0,-103.9655858,0,0,0,3.38E-06,0,0,,,,
294.4319998,1150,0,55.86401742,3.21E-06,-2.81E-06,0,0,0,0,0,257.9490164,0,0,0,3.33E-06,0,0,,,,
294.4399998,1150,0,-341.7651983,3.18E-06,1.03E-06,0,0,0,0,0,-243.6212492,0,0,0,3.31E-06,0,0,,,,
294.4479998,1150,0,712.1004529,3.15E-06,4.66E-06,0,0,0,0,0,199.1916525,0,0,0,3.28E-06,0,0,,,,
294.4559998,1150,0,-538.3793892,3.12E-06,3.50E-06,0,0,0,0,0,45.33319737,0,0,0,3.25E-06,0,0,,,,
294.4639998,1150,0,403.5748616,3.09E-06,3.56E-06,0,0,0,0,0,-109.1337789,0,0,0,3.22E-06,0,0,,,,
294.4719998,1150,0,136.4773488,3.06E-06,3.76E-06,0,0,0,0,0,296.8748079,0,0,0,3.19E-06,0,0,,,,
294.4799998,1150,0,-395.8055861,3.03E-06,3.46E-06,0,0,0,0,0,-238.2575984,0,0,0,3.16E-06,0,0,,,,
294.4879998,1150,0,676.8038987,3.00E-06,3.64E-06,0,0,0,0,0,164.0735727,0,0,0,3.13E-06,0,0,,,,
294.4959998,1150,0,-595.1374925,2.98E-06,3.46E-06,0,0,0,0,0,18.12350219,0,0,0,3.10E-06,0,0,,,,
294.5039998,1150,0,338.7991357,2.95E-06,3.52E-06,0,0,0,0,0,-140.3148598,0,0,0,3.07E-06,0,0,,,,
294.5119998,1150,0,135.4016199,2.92E-06,3.44E-06,0,0,0,0,0,300.9961382,0,0,0,3.04E-06,0,0,,,,
294.5199998,1150,0,-426.3541946,2.89E-06,3.43E-06,0,0,0,0,0,-234.3855002,0,0,0,3.01E-06,0,0,,,,
294.5279998,1150,0,691.8352418,2.86E-06,3.39E-06,0,0,0,0,0,173.3162901,0,0,0,2.98E-06,0,0,,,,
294.5359998,1150,0,-571.6587644,2.84E-06,3.36E-06,0,0,0,0,0,38.08030785,0,0,0,2.95E-06,0,0,,,,
294.5439998,1150,0,320.5271435,2.81E-06,3.33E-06,0,0,0,0,0,-143.0941503,0,0,0,2.92E-06,0,0,,,,
294.5519998,1150,0,139.340671,-1.03E-06,3.30E-06,0,0,0,0,0,300.0418405,0,0,0,2.90E-06,0,0,,,,
294.5599998,1150,0,-415.6037352,-4.66E-06,3.27E-06,0,0,0,0,0,-228.1044167,0,0,0,2.87E-06,0,0,,,,
294.5679998,1150,0,708.4573756,-3.50E-06,3.24E-06,0,0,0,0,0,185.472862,0,0,0,-9.74E-07,0,0,,,,
294.5759998,1150,0,-586.9796751,-3.56E-06,3.21E-06,0,0,0,0,0,35.01409473,0,0,0,-4.60E-06,0,0,,,,
294.5839998,1150,0,307.8463472,-3.76E-06,3.18E-06,0,0,0,0,0,-156.668182,0,0,0,-3.44E-06,0,0,,,,
294.5919998,1150,0,159.30793,-3.46E-06,3.15E-06,0,0,0,0,0,315.2461569,0,0,0,-3.51E-06,0,0,,,,
294.5999998,1150,0,-450.2294441,-3.64E-06,3.12E-06,0,0,0,0,0,-236.468623,0,0,0,-3.70E-06,0,0,,,,
294.6079998,1150,0,688.1397002,-3.46E-06,3.09E-06,0,0,0,0,0,156.6262303,0,0,0,-3.40E-06,0,0,,,,
294.6159998,1150,0,-575.9535492,-3.52E-06,3.06E-06,0,0,0,0,0,37.2250016,0,0,0,-3.58E-06,0,0,,,,
294.6239998,1150,0,295.0987328,-3.44E-06,3.03E-06,0,0,0,0,0,-158.8143725,0,0,0,-3.41E-06,0,0,,,,
294.6319998,1150,0,147.4257128,-3.43E-06,3.00E-06,0,0,0,0,0,297.6557505,0,0,0,-3.46E-06,0,0,,,,
294.6399998,1150,0,-478.0607439,-3.39E-06,2.98E-06,0,0,0,0,0,-255.7168195,0,0,0,-3.38E-06,0,0,,,,
294.6479998,1150,0,696.4062848,-3.36E-06,2.95E-06,0,0,0,0,0,152.0683325,0,0,0,-3.38E-06,0,0,,,,
294.6559998,1151,0,-551.7987387,-3.33E-06,2.92E-06,0,0,0,0,0,52.08442839,0,0,0,-3.33E-06,0,0,,,,
294.6639998,1151,0,294.9544733,-3.30E-06,2.89E-06,0,0,0,0,0,-165.4179942,0,0,0,-3.31E-06,0,0,,,,
294.6719998,1151,0,174.6796944,-3.27E-06,2.86E-06,0,0,0,0,0,296.9206057,0,0,0,-3.28E-06,0,0,,,,
294.6799998,1151,0,-471.0732295,-3.24E-06,2.84E-06,0,0,0,0,0,-242.8979865,0,0,0,-3.25E-06,0,0,,,,
294.6879998,1151,0,690.4060036,-3.21E-06,2.81E-06,0,0,0,0,0,142.3795344,0,0,0,-3.22E-06,0,0,,,,
294.6959998,1151,0,-581.5894036,-3.18E-06,-1.03E-06,0,0,0,0,0,31.74701718,0,0,0,-3.19E-06,0,0,,,,
294.7039998,1151,0,244.2480464,-3.15E-06,-4.66E-06,0,0,0,0,0,-189.4178236,0,0,0,-3.16E-06,0,0,,,,
294.7119998,1151,0,172.9346807,-3.12E-06,-3.50E-06,0,0,0,0,0,299.7015951,0,0,0,-3.13E-06,0,0,,,,
294.7199998,1151,0,-490.4539388,-3.09E-06,-3.56E-06,0,0,0,0,0,-237.91289,0,0,0,-3.10E-06,0,0,,,,
294.7279998,1151,0,684.9491815,-3.06E-06,-3.76E-06,0,0,0,0,0,139.8365741,0,0,0,-3.07E-06,0,0,,,,
294.7359998,1151,0,-550.0683162,-3.03E-06,-3.46E-06,0,0,0,0,0,60.53922951,0,0,0,-3.04E-06,0,0,,,,
294.7439998,1151,0,249.5824025,-3.00E-06,-3.64E-06,0,0,0,0,0,-173.5424311,0,0,0,-3.01E-06,0,0,,,,
294.7519998,1151,0,199.5254766,-2.98E-06,-3.46E-06,0,0,0,0,0,305.2812282,0,0,0,-2.98E-06,0,0,,,,
294.7599998,1151,0,-452.2575522,-2.95E-06,-3.52E-06,0,0,0,0,0,-215.4739164,0,0,0,-2.95E-06,0,0,,,,
294.7679998,1151,0,714.0703117,-2.92E-06,-3.44E-06,0,0,0,0,0,156.1451741,0,0,0,-2.92E-06,0,0,,,,
294.7759998,1151,0,-537.7087205,-2.89E-06,-3.43E-06,0,0,0,0,0,63.27812977,0,0,0,-2.90E-06,0,0,,,,
294.7839998,1151,0,717.5549645,-2.86E-06,-3.39E-06,0,0,0,0,0,-154.4687729,0,0,0,-2.87E-06,0,0,,,,
294.7919998,1151,0,1402.117761,-2.84E-06,-3.36E-06,0,0,0,0,0,657.2917231,0,0,0,9.74E-07,0,0,,,,
294.7999998,1151,0,135.4966118,-2.81E-06,-3.33E-06,0,0,0,0,0,275.6470167,0,0,0,4.60E-06,0,0,,,,
294.8079998,1151,0,421.2243662,1.03E-06,-3.30E-06,0,0,0,0,0,68.84458207,0,0,0,3.44E-06,0,0,,,,
294.8159998,1151,0,-489.8348318,4.66E-06,-3.27E-06,0,0,0,0,0,-41.74115315,0,0,0,3.51E-06,0,0,,,,
294.8239998,1151,0,295.605408,3.50E-06,-3.24E-06,0,0,0,0,0,-30.52304672,0,0,0,3.70E-06,0,0,,,,
294.8319998,1151,0,54.28143409,3.56E-06,-3.21E-06,0,0,0,0,0,191.2034779,0,0,0,3.40E-06,0,0,,,,
294.8399998,1151,0,-482.6570942,3.76E-06,-3.18E-06,0,0,0,0,0,-242.8009489,0,0,0,3.58E-06,0,0,,,,
