Time:125Hz,Epoch,FP1,FP2,C3,C4,P7,P8,O1,O2,F7,F8,F3,F4,T7,T8,P3,P4,,,,
642.8719995,2511,3.353307583,99.59667902,0,-27.41935235,0,-64.48421049,0,0,-155.7087531,120.4462517,-135.07462,-1.56E-06,-98.83921423,-159.5827346,0,78.97557943,,,,
642.8799995,2511,-128.9162001,-2.695358165,0,-8.662619522,0,-104.2169863,0,0,179.3239193,-55.22868816,86.74009845,-1.55E-06,126.3971477,186.6874339,0,-553.3867594,,,,
642.8879995,2511,119.1235115,-117.8741467,0,15.07815456,0,75.90176097,0,0,-156.753104,71.94579834,-30.8997676,-1.53E-06,-31.81607095,-165.1157785,0,68.35447623,,,,
642.8959995,2511,-155.2961212,158.423193,0,-69.72827207,0,-191.254491,0,0,124.5516053,29.0101604,-41.87336474,-1.52E-06,31.51379749,61.93335657,0,-359.2713271,,,,
642.9039995,2511,26.71686376,-157.2525923,0,36.63269054,0,44.78590504,0,0,55.31218683,-37.90384222,89.24721838,-1.50E-06,83.85763298,43.35882685,0,-327.7888531,,,,
642.9119995,2511,4.925659187,133.3331181,0,-33.08211609,0,-86.99660468,0,0,-61.46857155,118.9342918,-94.75433291,-1.49E-06,-57.45884804,-121.1395967,0,30.55946735,,,,
642.9199995,2511,-165.4283737,-12.44552062,0,-17.12926187,0,-107.3824579,0,0,243.0501433,-57.38249846,106.6306148,-1.47E-06,127.3077134,202.9403622,0,-594.305913,,,,
642.9279995,2511,89.61887318,-92.73731839,0,17.95332636,0,73.1923152,0,0,-120.9024552,69.45759522,-29.28601359,-1.46E-06,-47.27432249,-154.3730406,0,56.34631048,,,,
642.9359995,2511,-175.8825186,188.3821336,0,-60.77439272,0,-194.2864572,0,0,159.9546602,30.77461843,-12.50771814,-1.45E-06,28.35300375,92.19327644,0,-359.2318014,,,,
642.9439995,2511,-15.2918332,-174.7535795,0,39.65824842,0,49.92866284,0,0,76.89039794,-36.10583408,124.3719587,-1.43E-06,70.36799837,56.4141036,0,-326.7842184,,,,
642.9519995,2511,-46.54486714,93.02584493,0,-38.0721854,0,-69.93121935,0,0,-80.86543539,116.6837818,-105.6080643,-1.42E-06,-82.23880639,-131.7664947,0,49.08712745,,,,
642.9599995,2511,-200.8950773,-36.53282052,0,-24.01734278,0,-76.75290474,0,0,189.6536342,-60.59101173,57.1145779,-1.40E-06,91.36146163,169.0487985,0,-547.3831201,,,,
642.9679995,2511,84.79343155,-75.75652556,0,28.77848118,0,94.28275703,0,0,-119.4372809,79.17506634,-29.6733702,5.17E-07,-44.35830172,-155.139073,0,91.71326616,,,,
642.9759995,2511,-185.6207754,170.5029984,0,-52.43897169,0,-161.8582611,0,0,176.7032538,49.74824261,-1.090045603,2.33E-06,64.88965021,114.9313455,0,-339.6168354,,,,
642.9839995,2511,-21.14106531,-200.6387943,0,28.15761816,0,97.97335517,0,0,37.74694347,-22.73537912,80.00852384,1.75E-06,59.9435217,43.26259489,0,-279.6866801,,,,
642.9919995,2511,-3.441450209,148.9083932,0,-39.35955641,0,-67.49031413,0,0,-54.40938736,134.5764809,-87.79066852,1.78E-06,-77.9304569,-104.9109137,0,80.65646567,,,,
642.9999995,2511,-168.4149297,-27.12960512,0,-19.667407,0,-90.36272597,0,0,249.2584638,-48.08431787,116.8278171,1.88E-06,129.9594476,216.1946016,0,-564.6272545,,,,
643.0079995,2511,83.07265871,-132.5240434,0,17.38190701,0,111.4172514,0,0,-154.9308976,68.91759325,-59.04124719,1.73E-06,-73.23675663,-183.214962,0,86.37867059,,,,
643.0159995,2511,-162.29797,184.6922119,0,-62.3390422,0,-167.2856557,0,0,170.878256,44.19719414,-14.27332772,1.82E-06,29.00992265,114.3718548,0,-340.2846787,,,,
643.0239995,2511,-4.26950756,-183.8689328,0,18.42259734,0,66.93790635,0,0,84.00614325,-21.32724561,119.9744599,1.73E-06,74.2160862,81.59558357,0,-316.4314261,,,,
643.0319995,2511,-25.30071068,104.6550213,0,-61.55218416,0,-72.3703661,0,0,-84.29924884,119.450643,-113.7235821,1.76E-06,-95.95184633,-144.3084442,0,46.64535784,,,,
643.0399995,2511,-167.6014645,-27.25965173,0,-23.640855,0,-93.7150402,0,0,237.2471165,-54.05166757,100.9102814,1.72E-06,100.3725707,194.5337788,0,-578.1280524,,,,
643.0479995,2511,105.3868769,-100.8413401,0,35.48031502,0,86.96095338,0,0,-104.4614734,81.77211462,-11.09486489,1.72E-06,-55.41040813,-144.2347074,0,74.08876888,,,,
643.0559995,2511,-161.2543684,172.2497259,0,-51.91735642,0,-178.806689,0,0,174.5831547,46.12486181,-0.863805116,1.69E-06,46.42771181,107.4133028,0,-344.6886022,,,,
643.0639995,2511,-4.074237556,-197.3084131,0,26.20026447,0,70.84962715,0,0,67.70888046,-24.48020279,114.5709872,1.68E-06,68.54421056,55.36204737,0,-309.1113936,,,,
643.0719995,2512,-18.9313961,110.0643267,0,-45.98825038,0,-65.71776332,0,0,-80.81193448,127.6142755,-97.66213297,1.67E-06,-81.60086284,-131.5103962,0,59.9078951,,,,
643.0799995,2512,-170.3707245,-26.49859566,0,-12.80816632,0,-83.88001934,0,0,225.824426,-41.2272315,107.3730505,1.65E-06,128.1535382,212.6570627,0,-561.4602332,,,,
643.0879995,2512,91.30691126,-108.6140917,0,29.92915945,0,96.59876338,0,0,-133.0648873,91.7882734,-20.94662708,1.63E-06,-62.30962985,-157.8419573,0,81.62091717,,,,
643.0959995,2512,-172.6861446,173.4448644,0,-54.89399916,0,-168.2590688,0,0,142.7450783,56.92513442,-17.57814881,1.62E-06,19.58568517,84.93843814,0,-344.6617304,,,,
643.1039995,2512,5.087414676,-181.0222252,0,49.02374921,0,81.56498595,0,0,70.17922264,0.255346772,128.8309642,1.60E-06,74.10809999,77.72969368,0,-305.9759679,,,,
643.1119995,2512,4.118017354,129.5796833,0,-17.44278206,0,-64.45783902,0,0,-51.42496767,160.2597992,-57.69210335,1.59E-06,-70.31462156,-102.6428535,0,65.26660782,,,,
643.1199995,2512,-151.9864055,-14.0370211,0,-7.923774125,0,-91.91266231,0,0,230.8134767,-21.68706471,124.3410148,1.57E-06,121.9302077,201.9698718,0,-562.4580292,,,,
643.1279995,2512,94.43225262,-138.051797,0,15.61193766,0,101.3244825,0,0,-146.8931363,98.46442248,-17.91951248,1.56E-06,-61.89132286,-161.1282749,0,77.07873681,,,,
643.1359995,2512,-171.0474083,142.2360865,0,-70.08668962,0,-154.0599886,0,0,113.4619841,55.74195256,-29.64580381,1.55E-06,0.791215519,65.32988839,0,-330.3457601,,,,
643.1439995,2512,10.66624813,-174.8233558,0,39.66632638,0,85.17604955,0,0,44.54651329,-6.611559252,114.136614,1.53E-06,53.05151315,46.9723182,0,-285.7682069,,,,
643.1519995,2512,-1.462217888,118.6962678,0,-24.60086149,0,-55.73601891,0,0,-62.91686821,151.1663643,-63.61318031,1.52E-06,-70.40366753,-102.4011657,0,81.21034961,,,,
643.1599995,2512,-163.4762697,-33.97327465,0,-17.00560614,0,-66.59128563,0,0,195.7809023,-35.28396225,92.25291334,1.50E-06,94.93152476,172.6076333,0,-525.9741504,,,,
643.1679995,2512,99.30835821,-107.3740964,0,14.08586293,0,112.5122026,0,0,-152.3965826,89.74644165,-28.07608643,1.49E-06,-82.22092836,-181.1158237,0,112.7717816,,,,
643.1759995,2512,-162.0044563,186.2569924,0,-61.18227304,0,-163.6652146,0,0,164.7479481,56.23793433,18.63422511,1.47E-06,29.14009725,103.8108872,0,-325.6346908,,,,
643.1839995,2512,-6.616433645,-180.3588876,0,40.78090379,0,94.19748998,0,0,41.2842082,-13.1699747,124.5819034,1.46E-06,46.17757011,36.76978564,0,-276.1992038,,,,
643.1919995,2512,-6.325209128,134.4070272,0,-20.7591156,0,-43.99508478,0,0,-93.50946862,143.8617306,-83.83588638,1.45E-06,-105.3024943,-132.8594074,0,105.719822,,,,
643.1999995,2512,-127.3226414,36.86167798,0,14.73752465,0,-88.4072582,0,0,244.2313488,-26.91264637,142.5565054,1.43E-06,135.6334323,231.3479785,0,-532.5413067,,,,
643.2079995,2512,124.5311026,-86.00586654,0,53.20901626,0,95.61741837,0,0,-111.4668635,97.45415674,26.42362527,1.42E-06,-27.06548445,-124.0428995,0,87.52378808,,,,
643.2159995,2512,-158.333085,152.0218933,0,-47.23633438,0,-157.1480649,0,0,133.894642,48.24781549,-3.792190138,1.40E-06,22.90584022,90.57607604,0,-328.1771952,,,,
643.2239995,2512,9.94621101,-188.3690351,0,34.28035885,0,89.41135631,0,0,18.30980341,-26.47734247,91.40148074,-5.17E-07,43.74656797,17.94786273,0,-269.3459633,,,,
643.2319995,2512,7.183914718,126.2990499,0,-29.03146375,0,-52.95619505,0,0,-84.06838782,132.7040659,-79.61233891,-2.33E-06,-82.64771845,-124.9930691,0,101.1560191,,,,
643.2399995,2512,-135.5035223,1.083806038,0,5.141984636,0,-82.64940176,0,0,233.2629709,-39.20382535,132.9179348,-1.75E-06,127.9296481,234.5040852,0,-530.121899,,,,
643.2479995,2512,127.1725545,-82.35417732,0,45.3294419,0,91.20468421,0,0,-137.0552848,85.78715531,-7.661942524,-1.78E-06,-49.04871625,-139.4421633,0,101.479863,,,,
643.2559995,2512,-142.3991974,171.3706701,0,-39.36518167,0,-173.6336815,0,0,144.8386489,46.4767479,0.869200576,-1.88E-06,44.68703858,112.7023929,0,-333.3503923,,,,
643.2639995,2512,4.754499187,-220.0697222,0,41.83269371,0,85.81469736,0,0,13.72556376,-26.9282639,93.41922715,-1.73E-06,54.3881134,47.42709676,0,-285.859911,,,,
643.2719995,2512,-20.40258401,68.9470936,0,-47.91484484,0,-42.10550185,0,0,-159.8503522,115.8760502,-146.4168493,-1.82E-06,-129.9820455,-178.9821779,0,96.80999621,,,,
643.2799995,2512,-158.3684212,-40.74555329,0,-18.1576726,0,-63.27968671,0,0,168.6908684,-59.15034255,69.03667641,-1.73E-06,94.45969781,166.3554519,0,-529.175689,,,,
643.2879995,2512,119.4702058,-90.46333996,0,38.60593035,0,112.2638354,0,0,-153.0004565,79.42760308,-24.13437768,-1.76E-06,-56.69604573,-140.9070162,0,112.1348745,,,,
643.2959995,2512,-141.9817938,191.0578345,0,-44.31172802,0,-162.3906549,0,0,138.8379534,47.47835452,3.804137434,-1.72E-06,37.40444348,119.6415175,0,-315.4205072,,,,
643.3039995,2512,29.72341259,-168.9092706,0,43.54108743,0,73.75446817,0,0,49.2416309,-23.04301948,132.7204708,-1.72E-06,86.56339072,56.0613287,0,-289.8204021,,,,
643.3119995,2512,17.82258027,121.3607464,0,-32.22013994,0,-71.52939886,0,0,-89.98409607,122.8169887,-76.33547185,-1.69E-06,-72.46597867,-132.4417497,0,68.10855306,,,,
643.3199995,2512,-136.9647801,-26.69982049,0,0.332048265,0,-85.10991354,0,0,187.587891,-56.66005242,104.3620912,-1.68E-06,117.8698426,188.6551499,0,-550.0026211,,,,
643.3279995,2513,145.6183054,-82.36558972,0,62.5213518,0,96.4239145,0,0,-161.2375827,78.57888301,-13.45691766,-1.67E-06,-41.51836869,-143.5728996,0,104.2407353,,,,
643.3359995,2513,-123.485844,171.9469853,0,-26.96080006,0,-176.4543062,0,0,142.7479755,46.41020484,20.66227645,-1.65E-06,55.43105618,128.1759705,0,-325.5564192,,,,
643.3439995,2513,2.531457569,-256.1942991,0,33.30653419,0,88.22942775,0,0,-17.72569458,-39.68447733,86.64342042,-1.63E-06,41.44677523,3.840656035,0,-275.2798413,,,,
643.3519995,2513,-8.349896513,57.11135066,0,-46.89437908,0,-39.02665833,0,0,-189.6838887,97.58771646,-160.9978509,-1.62E-06,-150.282578,-217.4127627,0,121.4366069,,,,
643.3599995,2513,-124.6222738,-15.13344583,0,0.274580084,0,-75.09360074,0,0,170.6177547,-70.29612745,88.85433026,-1.60E-06,89.28583346,166.544713,0,-504.8328186,,,,
643.3679995,2513,156.4618822,-78.69379743,0,63.87984584,0,95.34926133,0,0,-140.3264468,68.94604309,12.85405226,-1.59E-06,-40.60889219,-145.1545949,0,121.05415,,,,
643.3759995,2513,-119.2802271,168.7603528,0,-22.03154324,0,-176.2591592,0,0,152.3005007,37.42182293,32.62172234,-1.57E-06,50.31951984,123.1037731,0,-314.3653995,,,,
643.3839995,2513,40.47879565,-190.0029362,0,51.88739233,0,61.26275591,0,0,24.30149205,-36.70638448,121.2594168,-1.56E-06,65.82958606,48.47589165,0,-280.9505168,,,,
643.3919995,2513,47.07427935,135.1551874,0,-22.42112582,0,-91.65675992,0,0,-113.1592007,114.1098379,-87.81642882,-1.55E-06,-81.78243241,-140.0020311,0,78.7553062,,,,
643.3999995,2513,-111.4834578,-38.28222904,0,9.144320762,0,-111.8181168,0,0,205.4869889,-57.31805228,124.9192172,-1.53E-06,138.7256226,206.4753962,0,-562.465576,,,,
643.4079995,2513,141.1754358,-147.1417268,0,42.99716609,0,80.85178032,0,0,-195.197487,62.81313494,-46.94455047,-1.52E-06,-64.53846247,-184.8099556,0,87.31030601,,,,
643.4159995,2513,-111.488996,155.5446327,0,-49.23620368,0,-190.4885563,0,0,80.07053564,24.98310719,-51.27108395,-1.50E-06,-6.234953475,49.12719899,0,-326.9171148,,,,
643.4239995,2513,49.93995282,-211.645536,0,47.31527352,0,63.83043912,0,0,3.237114466,-34.82265107,95.10511438,-1.49E-06,46.83560105,15.68750563,0,-288.8282524,,,,
643.4319995,2513,42.73866292,94.66034815,0,-22.44464413,0,-67.00105809,0,0,-141.3706832,120.3690905,-109.1198833,-1.47E-06,-100.5322821,-164.5357102,0,99.61643352,,,,
643.4399995,2513,-102.6387806,-26.12714493,0,-5.204121104,0,-98.5802854,0,0,173.9484332,-55.84070823,99.36190159,-1.46E-06,98.88689277,181.0738923,0,-528.0005567,,,,
643.4479995,2513,135.3893054,-161.0618238,0,25.87798457,0,98.07035777,0,0,-196.1162788,66.02010975,-39.98248754,-1.45E-06,-70.95310586,-179.628765,0,105.3972208,,,,
643.4559995,2513,-139.0907424,113.9537735,0,-62.67964751,0,-148.760155,0,0,41.97894854,18.77416056,-74.14765279,-1.43E-06,-6.30895391,20.86427997,0,-288.486885,,,,
643.4639995,2513,44.36583612,-194.9310377,0,40.73020748,0,95.94106128,0,0,-29.63059058,-46.59695125,69.47884702,-1.42E-06,43.75676813,-14.51249275,0,-239.6720767,,,,
643.4719995,2513,39.9129952,97.63624761,0,-20.62226324,0,-46.25983211,0,0,-123.5165329,117.303761,-91.91175574,-1.40E-06,-74.19553653,-140.5713581,0,118.7605237,,,,
643.4799995,2513,-112.0907758,-30.72372618,0,-5.754741187,0,-77.57998477,0,0,161.9886671,-61.00103961,87.26233722,5.17E-07,111.3197948,174.7195022,0,-505.7837218,,,,
643.4879995,2513,153.685257,-99.55972256,0,28.24551751,0,96.90838608,0,0,-194.8164258,63.92249211,-37.5124931,2.33E-06,-66.0435033,-182.3983016,0,127.392615,,,,
643.4959995,2513,-121.6173477,151.9590547,0,-53.94337476,0,-160.6027858,0,0,93.99776715,29.23201176,-16.69685007,1.75E-06,17.16120875,77.12099044,0,-299.7817276,,,,
643.5039995,2513,46.57462485,-189.3219212,0,46.77971183,0,89.47605881,0,0,-6.158228521,-36.53183297,95.4920409,1.78E-06,46.16332715,11.4445571,0,-249.7336499,,,,
643.5119995,2513,51.67508126,125.156309,0,-11.42061819,0,-55.09916943,0,0,-111.2931099,127.2510014,-80.48386772,1.88E-06,-62.72185269,-135.0884196,0,118.3459509,,,,
643.5199995,2513,-119.8655038,-50.47278079,0,-0.952160709,0,-72.45870167,0,0,164.4329575,-56.48820797,91.47870589,1.73E-06,131.861257,179.6022417,0,-507.2022576,,,,
643.5279995,2513,147.0737946,-116.5820237,0,33.52888126,0,100.2476238,0,0,-203.6985928,58.04368892,-57.02857968,1.82E-06,-70.81354727,-202.5972338,0,133.0780796,,,,
643.5359995,2513,-117.6741844,145.5351764,0,-48.16071471,0,-163.6697108,0,0,104.5325468,23.71387939,-18.38922222,1.73E-06,29.92580702,66.17456472,0,-302.6747976,,,,
643.5439995,2513,16.68607663,-249.6205208,0,22.58394925,0,108.6214369,0,0,-46.1012297,-54.07775575,55.24780649,1.76E-06,32.73853498,-27.28289505,0,-241.1893772,,,,
643.5519995,2513,37.2582733,117.3319814,0,-41.63556169,0,-50.01443523,0,0,-150.1257128,102.8499566,-132.4813896,1.72E-06,-110.2060592,-174.9135886,0,143.0610409,,,,
643.5599995,2513,-108.2605044,-28.80166673,0,-1.81878076,0,-89.10174542,0,0,203.3445364,-63.15547608,117.4623248,1.72E-06,139.9180232,212.9394745,0,-507.2536206,,,,
643.5679995,2513,127.3513361,-152.0532009,0,35.81651698,0,102.8645778,0,0,-205.5412992,50.13672342,-50.49460504,1.69E-06,-62.11028599,-189.5851797,0,133.833391,,,,
643.5759995,2513,-139.2414024,131.6123255,0,-51.48829807,0,-159.9191108,0,0,55.27738985,6.047816369,-57.60030421,1.68E-06,9.450822261,48.87289843,0,-280.5325037,,,,
643.5839995,2514,14.95635524,-250.1599164,0,31.14479982,0,100.6236971,0,0,-54.7485946,-61.34711311,60.04694163,1.67E-06,43.38462195,9.914365305,0,-239.1421412,,,,
643.5919995,2514,19.95862363,84.96655699,0,-40.08153905,0,-45.09323782,0,0,-195.548187,94.23435349,-153.1341804,1.65E-06,-138.9857612,-178.2150891,0,139.3346659,,,,
643.5999995,2514,-113.0813241,-16.2041935,0,-1.075386529,0,-87.23685743,0,0,142.628358,-72.55934348,75.0421569,1.63E-06,88.28033985,177.8908377,0,-499.9218192,,,,
643.6079995,2514,144.2763207,-132.1123263,0,58.34958849,0,101.3453632,0,0,-197.3012905,60.34442779,-23.87763161,1.62E-06,-48.69892071,-141.9481067,0,128.1118584,,,,
643.6159995,2514,-135.3582969,109.6541163,0,-30.27609876,0,-143.649164,0,0,47.70505939,20.56319742,-46.7294023,1.60E-06,-0.064619259,80.28032979,0,-271.3450494,,,,
643.6239995,2514,27.90747671,-236.8942916,0,45.58097591,0,103.2959672,0,0,-49.03275616,-52.8940375,55.35707271,1.59E-06,27.10407658,-0.090290762,0,-224.1501794,,,,
643.6319995,2514,41.08024393,104.9420397,0,-18.04751109,0,-55.42156994,0,0,-132.6725497,103.7165412,-109.0476075,1.57E-06,-85.32500168,-147.6994697,0,122.5893255,,,,
643.6399995,2514,-104.580508,-24.27185662,0,18.47447914,0,-81.54021771,0,0,172.4919905,-63.48762659,99.20802602,1.56E-06,130.6052746,198.2650539,0,-511.8523643,,,,
643.6479995,2514,159.9107041,-111.110552,0,65.20647861,0,95.61601175,0,0,-172.2056359,71.62890727,-18.20391534,1.55E-06,-27.55538262,-147.7249057,0,124.8460845,,,,
643.6559995,2514,-119.1743812,146.0224522,0,-30.04345795,0,-172.0009817,0,0,100.6643632,33.31677298,-19.03505796,1.53E-06,51.12922925,84.57323279,0,-300.5198376,,,,
643.6639995,2514,19.58008794,-234.4407691,0,47.39600207,0,88.11538385,0,0,-39.99342877,-43.13698183,58.89936841,1.52E-06,63.78076113,-10.64823514,0,-256.7113577,,,,
643.6719995,2514,25.72045278,98.65582468,0,-16.62232893,0,-62.08919613,0,0,-143.4876608,115.8641318,-123.074413,1.50E-06,-91.02716478,-165.5838811,0,105.9644402,,,,
643.6799995,2514,-126.0534068,-34.3351732,0,-0.168513582,0,-89.70165315,0,0,159.2478038,-57.56588668,80.24126487,1.49E-06,96.93267254,166.3579786,0,-519.9402013,,,,
643.6879995,2514,116.3087861,-143.3042996,0,25.1800286,0,104.7208241,0,0,-224.0224703,61.44552768,-68.90879115,1.47E-06,-82.7204704,-213.4367614,0,134.3310648,,,,
643.6959995,2514,-134.138845,165.3709601,0,-52.19918525,0,-180.6863683,0,0,100.1875872,26.31273199,-30.4040176,1.46E-06,20.43278711,69.63295532,0,-291.3618877,,,,
643.7039995,2514,44.12086987,-171.1142475,0,49.43005566,0,51.97719634,0,0,22.4241799,-42.19076415,104.349071,1.45E-06,72.76026861,28.12090009,0,-266.1806117,,,,
643.7119995,2514,29.97295545,102.7334721,0,-18.69226691,0,-73.96158998,0,0,-105.0080411,110.1057432,-98.34705258,1.43E-06,-74.9232498,-157.4930386,0,101.6574437,,,,
643.7199995,2514,-142.2847214,-70.96178666,0,-13.60374175,0,-82.51455532,0,0,186.184164,-71.85893181,75.69670691,1.42E-06,92.28623806,153.3184255,0,-509.5667819,,,,
643.7279995,2514,107.7410144,-158.0814846,0,3.17748087,0,104.8538188,0,0,-196.0738177,37.34372014,-92.55215449,1.40E-06,-118.4704397,-235.9899561,0,144.1838841,,,,
643.7359995,2514,-144.1445383,154.3022554,0,-72.94552036,0,-170.1441761,0,0,128.3865904,-5.104465365,-61.16691344,-5.17E-07,-1.712953077,45.18739829,0,-289.4847729,,,,
643.7439995,2514,17.56279445,-200.9186307,0,33.76418938,0,86.23434445,0,0,53.26842363,-67.49896803,77.23207237,-2.33E-06,71.67880642,27.2665379,0,-252.4457684,,,,
643.7519995,2514,16.20994369,125.520466,0,-29.78223468,0,-45.8386812,0,0,-75.08548677,94.8370788,-119.3560338,-1.75E-06,-93.30030564,-147.5038165,0,131.9118626,,,,
643.7599995,2514,-122.7069427,10.7543638,0,-10.43205518,0,-84.05787092,0,0,259.7898212,-76.92180793,114.9523808,-1.78E-06,110.8584603,202.3668124,0,-510.8564195,,,,
643.7679995,2514,120.5005153,-122.2196523,0,9.634193244,0,99.71407833,0,0,-113.2452931,39.66209858,-24.22919455,-1.88E-06,-57.36082103,-160.3841157,0,115.5198163,,,,
643.7759995,2514,-142.2366716,166.9384643,0,-77.89977531,0,-166.8237618,0,0,153.2560614,-5.562807032,-41.97560488,-1.73E-06,9.121162449,75.2876845,0,-296.7438913,,,,
643.7839995,2514,34.87219434,-166.2688254,0,29.37074769,0,79.79565066,0,0,81.71348173,-67.0825273,106.1939475,-1.82E-06,63.07731272,42.51630558,0,-255.6967864,,,,
643.7919995,2514,22.06919973,119.8317364,0,-37.60591851,0,-49.43468266,0,0,-52.89923027,94.51466432,-87.07968207,-1.73E-06,-85.2983152,-132.7949067,0,127.1066735,,,,
643.7999995,2514,-137.5220908,-15.90971437,0,-24.24325235,0,-69.07128363,0,0,224.3459056,-84.90086641,86.4413358,-1.76E-06,93.85597913,179.1919321,0,-488.607406,,,,
643.8079995,2514,118.8077366,-102.9340008,0,18.05972406,0,115.1878173,0,0,-124.3679256,40.5053931,-36.62381873,-1.72E-06,-60.37777645,-173.1554934,0,149.7380777,,,,
643.8159995,2514,-146.7586825,184.4527997,0,-59.20111061,0,-159.7879381,0,0,177.9402008,4.933406631,-13.13049689,-1.72E-06,39.56375663,103.9786602,0,-277.3552418,,,,
643.8239995,2514,2.901446185,-182.3330274,0,28.25652193,0,81.19666362,0,0,75.35851715,-67.20548184,105.2277624,-1.69E-06,79.56118384,61.43236007,0,-249.9003589,,,,
643.8319995,2514,-17.36982296,105.9290002,0,-45.34887141,0,-54.1492886,0,0,-72.13033815,83.99945316,-110.9261139,-1.68E-06,-70.24620749,-140.5600015,0,127.9902711,,,,
643.8399995,2515,-157.8944755,-9.23038129,0,-19.33800688,0,-78.38932966,0,0,211.5846497,-96.30120092,65.30218524,-1.67E-06,111.3607293,166.9265016,0,-492.4876037,,,,
643.8479995,2515,134.0459413,-67.00683458,0,33.16834984,0,90.79551666,0,0,-113.8102534,35.98757707,-32.85598657,-1.65E-06,-40.02561947,-157.0251389,0,124.6475995,,,,
643.8559995,2515,-124.9998381,206.2674515,0,-49.77613908,0,-189.1663439,0,0,205.21472,7.969006707,18.85702707,-1.63E-06,77.6945271,132.8207431,0,-325.8477888,,,,
643.8639995,2515,16.86103818,-174.635473,0,27.61380284,0,59.71350888,0,0,63.23131709,-68.24852615,116.4625541,-1.62E-06,89.78120999,48.86710812,0,-292.6960949,,,,
643.8719995,2515,11.19925365,132.7931565,0,-45.49590306,0,-82.09910854,0,0,-77.59769855,83.07539048,-90.20956204,-1.60E-06,-72.35313206,-140.6896779,0,83.63390074,,,,
643.8799995,2515,-145.9724111,-19.34394103,0,-17.73068642,0,-99.36435931,0,0,241.8858841,-89.15894356,119.4400343,-1.59E-06,128.7378047,201.5135887,0,-541.1686211,,,,
643.8879995,2515,107.0845218,-114.2657585,0,25.06291796,0,94.26043957,0,0,-139.0909508,35.65690651,-27.24775242,-1.57E-06,-66.04273878,-187.6456518,0,120.5942916,,,,
643.8959995,2515,-157.1728826,171.3265175,0,-63.70746527,0,-172.2755826,0,0,148.3002364,1.048681746,-17.93829456,-1.56E-06,18.18548897,56.97395215,0,-289.6148308,,,,
643.9039995,2515,-10.71375727,-217.2435486,0,18.7244502,0,89.47819477,0,0,41.79248844,-66.89792992,95.99228996,-1.55E-06,45.71205736,6.121238583,0,-254.2744512,,,,
643.9119995,2515,-7.034733914,107.1120024,0,-54.858834,0,-45.53953306,0,0,-116.1359508,84.63804214,-125.9806367,-1.53E-06,-124.7826261,-194.4445196,0,134.6500404,,,,
643.9199995,2515,-127.9214953,18.91353154,0,-18.30111299,0,-84.14785172,0,0,230.435262,-84.61729945,103.044967,-1.52E-06,117.7621118,174.9025062,0,-498.6918743,,,,
643.9279995,2515,153.2717304,-57.94850172,0,44.54635037,0,86.53292678,0,0,-81.12004237,51.89818419,18.61520986,-1.50E-06,-14.18477351,-126.8487854,0,119.0186582,,,,
643.9359995,2515,-110.069092,212.7764685,0,-37.69179342,0,-189.2711378,0,0,188.5736323,16.03094047,25.22723092,-1.49E-06,61.96465604,122.6411403,0,-309.6272615,,,,
643.9439995,2515,32.30816212,-175.2076458,0,39.92351101,0,55.78750584,0,0,74.83360403,-60.40409165,128.7480937,-1.47E-06,92.15109497,54.3908772,0,-288.3401458,,,,
643.9519995,2515,14.42354533,116.2265297,0,-42.43515569,0,-82.28159629,0,0,-85.29388467,84.15837301,-98.64178976,-1.46E-06,-87.23027919,-160.5893268,0,81.53922505,,,,
643.9599995,2515,-138.2946997,-13.3862268,0,-16.57031733,0,-101.0445248,0,0,199.1877737,-92.432383,88.06929814,-1.45E-06,98.80420711,150.3898016,0,-531.9155224,,,,
643.9679995,2515,139.7492069,-80.23416409,0,43.51822771,0,79.25815778,0,0,-121.8091912,44.19409112,-6.77856978,-1.43E-06,-36.02186847,-164.5290666,0,108.8846095,,,,
643.9759995,2515,-126.4040596,179.7635122,0,-40.6088226,0,-183.4107481,0,0,169.1099784,13.93289476,4.773484775,-1.42E-06,60.72408928,111.2632444,0,-313.8256863,,,,
643.9839995,2515,13.11989967,-218.9243343,0,35.65381252,0,82.56999795,0,0,32.97879251,-62.16053835,84.43370035,-1.40E-06,64.21978269,29.57436019,0,-270.2545725,,,,
643.9919995,2515,9.562959883,101.1448782,0,-38.8276289,0,-54.60580242,0,0,-111.6400076,89.5433144,-123.9838614,5.17E-07,-114.5463523,-175.2299938,0,110.1850244,,,,
643.9999995,2515,-149.5271783,-35.41123148,0,-26.45642602,0,-73.32213894,0,0,185.770952,-81.19377161,77.70837749,2.33E-06,75.07238307,149.763287,0,-507.0754596,,,,
644.0079995,2515,120.228699,-110.1450707,0,11.13413803,0,112.0379474,0,0,-167.1225431,47.40024778,-47.34462008,1.75E-06,-96.85274617,-191.4909342,0,141.7153626,,,,
644.0159995,2515,-138.3184504,170.4677082,0,-62.32873027,0,-160.1547531,0,0,136.345291,14.65344945,-21.80797927,1.78E-06,8.446956724,90.52695511,0,-287.4270443,,,,
644.0239995,2515,8.563156915,-212.9048089,0,31.9245034,0,98.18405605,0,0,20.08787003,-59.03019865,75.60982289,1.88E-06,48.73597201,17.61471145,0,-250.0896219,,,,
644.0319995,2515,32.47847868,148.9237864,0,-24.10096578,0,-54.26149606,0,0,-94.22781832,97.53998222,-115.4175652,1.73E-06,-99.27989745,-157.4247236,0,121.7772408,,,,
644.0399995,2515,-110.7584681,32.20282909,0,5.537754447,0,-106.3640467,0,0,259.6140174,-67.49720311,139.9724367,1.82E-06,138.4238674,228.5361948,0,-538.2237236,,,,
644.0479995,2515,114.2415895,-123.3301458,0,23.42414911,0,81.83840151,0,0,-133.2510413,48.79977223,-10.79339819,1.73E-06,-45.45988857,-153.2794381,0,89.08398258,,,,
644.0559995,2515,-162.5382007,147.9579711,0,-71.12610537,0,-175.7916802,0,0,98.69765631,4.258164661,-55.91802071,1.76E-06,-8.340156138,46.88967456,0,-315.2663332,,,,
644.0639995,2515,11.32035585,-168.2173061,0,33.64176257,0,64.9897559,0,0,23.79369462,-57.61761051,83.89527603,1.72E-06,44.27218039,12.93675615,0,-273.8379585,,,,
644.0719995,2515,12.81233046,137.8705785,0,-23.45514277,0,-76.04660046,0,0,-73.01574254,103.4357285,-76.08196952,1.72E-06,-77.53269053,-128.1128217,0,94.2119085,,,,
644.0799995,2515,-145.1297394,-4.340027829,0,-2.249351532,0,-101.4077089,0,0,203.6082784,-71.15582417,103.9400551,1.69E-06,106.0061054,184.6300523,0,-531.107763,,,,
644.0879995,2515,111.3414127,-101.3471007,0,35.96702345,0,82.25014185,0,0,-171.9398946,53.32627504,-35.78945232,1.68E-06,-66.76978562,-189.9105917,0,107.603108,,,,
644.0959995,2516,-152.0257251,162.7531113,0,-47.93434561,0,-178.6617589,0,0,120.4508456,15.58936803,-24.30627774,1.67E-06,24.17627372,77.56781839,0,-315.0944655,,,,
644.1039995,2516,28.64587251,-162.1266149,0,36.19224663,0,58.61900482,0,0,16.47934235,-56.29382425,87.11870463,1.65E-06,51.5504876,24.77503961,0,-274.7900708,,,,
644.1119995,2516,50.29826713,170.3911734,0,-26.65593183,0,-102.3013727,0,0,-82.56828063,104.8539876,-74.30560815,1.63E-06,-80.75312311,-135.9457817,0,79.15948593,,,,
644.1199995,2516,-103.2112487,18.31335239,0,7.093506699,0,-132.5201503,0,0,225.3209616,-63.7872023,133.3836986,1.62E-06,123.8372442,201.4445726,0,-569.0092563,,,,
644.1279995,2516,148.7088467,-92.39693054,0,47.99164783,0,58.72643487,0,0,-168.7364391,58.85716725,-23.55481202,1.60E-06,-59.54996121,-180.9543927,0,73.91806188,,,,
644.1359995,2516,-128.888187,162.0854893,0,-40.46301656,0,-201.2952437,0,0,108.819156,21.22335041,-21.1670974,1.59E-06,21.8193037,57.94236321,0,-347.1681185,,,,
644.1439995,2516,3.035610727,-218.7242612,0,31.01043595,0,57.76627952,0,0,-20.78982315,-52.79410718,66.80925889,1.57E-06,37.46022343,-12.8265545,0,-297.3706588,,,,
644.1519995,2516,11.98274311,120.5033968,0,-43.04306244,0,-84.19165738,0,0,-159.3988192,100.2275551,-142.2786183,1.56E-06,-117.380753,-184.5935185,0,98.07633303,,,,
644.1599995,2516,-115.766298,12.88977554,0,-1.754581703,0,-121.6802893,0,0,192.3412167,-63.95893481,99.08530954,1.55E-06,103.5854977,188.4297981,0,-543.8418112,,,,
644.1679995,2516,117.1471141,-135.7143743,0,36.08024244,0,82.11691436,0,0,-191.1968843,61.66292735,-40.76143265,1.53E-06,-78.69054413,-188.0110886,0,94.9496102,,,,
644.1759995,2516,-148.3713709,148.526292,0,-57.67851552,0,-177.2960069,0,0,62.50958111,17.71001605,-63.52198676,1.52E-06,-16.12265016,30.05687864,0,-303.3817821,,,,
644.1839995,2516,37.91071538,-162.1544351,0,33.19880106,0,48.01165023,0,0,9.121093906,-50.2369988,89.85707905,1.50E-06,49.94374385,6.077747607,0,-281.5218788,,,,
644.1919995,2516,20.01707422,101.7921925,0,-38.70145031,0,-84.08397895,0,0,-124.1453446,104.7323084,-100.4028978,1.49E-06,-79.12594251,-164.0620151,0,78.75260461,,,,
644.1999995,2516,-137.0781076,-42.10051036,0,-8.484344593,0,-93.7609408,0,0,150.443331,-70.18060189,69.97122915,1.47E-06,96.76637711,153.9004721,0,-533.4286803,,,,
644.2079995,2516,143.0296952,-102.4147627,0,44.49069799,0,88.71737866,0,0,-191.590087,59.84636969,-44.38345319,1.46E-06,-72.37032723,-190.9847634,0,116.1969424,,,,
644.2159995,2516,-126.7500109,164.2005676,0,-34.47962456,0,-173.8866967,0,0,100.900175,27.56491632,-24.65200875,1.45E-06,28.01850196,77.211399,0,-302.8015494,,,,
644.2239995,2516,21.71932037,-194.4570216,0,54.52255331,0,80.72554644,0,0,-17.41254565,-43.57797533,76.21738041,1.43E-06,57.21992761,16.98372794,0,-261.87093,,,,
644.2319995,2516,31.67651537,139.823385,0,-17.32166159,0,-69.38400956,0,0,-127.5004784,113.2100827,-101.2294112,1.42E-06,-77.63574654,-152.9146955,0,104.1930558,,,,
644.2399995,2516,-119.8623886,14.72791747,0,-1.00546717,0,-106.0779411,0,0,196.7213416,-55.02734918,119.3205157,1.40E-06,140.854824,197.927398,0,-538.4867429,,,,
644.2479995,2516,125.3379653,-104.5055815,0,28.58842105,0,86.67146736,0,0,-191.6579572,70.52909032,-24.27203539,-5.17E-07,-44.76661779,-172.8696741,0,106.6956565,,,,
644.2559995,2516,-141.7374113,158.7970639,0,-48.75005471,0,-174.4916424,0,0,83.79625586,35.87701846,-24.99332243,-2.33E-06,28.55726682,74.01187506,0,-300.710633,,,,
644.2639995,2516,9.97799462,-198.0368756,0,49.91473761,0,81.54370217,0,0,-35.0496938,-35.67300656,65.95817953,-1.75E-06,54.379621,-0.681614539,0,-253.7936825,,,,
644.2719995,2516,8.651027827,117.8866135,0,-19.93941276,0,-54.05144158,0,0,-163.7352284,119.6172705,-134.4853944,-1.78E-06,-101.1066827,-191.1740033,0,123.4529284,,,,
644.2799995,2516,-130.4574054,8.497255562,0,4.036910224,0,-92.46114546,0,0,179.0357705,-47.52501712,93.21802451,-1.88E-06,107.9077511,172.2804203,0,-513.0423506,,,,
644.2879995,2516,117.8024948,-113.1756121,0,35.56838118,0,100.3043032,0,0,-194.6348694,76.50596621,-37.48993435,-1.73E-06,-58.92789535,-181.0661709,0,128.2814726,,,,
644.2959995,2516,-152.37364,148.6452027,0,-50.61196523,0,-159.8592998,0,0,70.05792988,38.60862941,-40.43941354,-1.82E-06,16.83688618,48.36244417,0,-281.8620007,,,,
644.3039995,2516,22.98078503,-177.1805543,0,47.60607988,0,77.52589467,0,0,-24.5144598,-32.99281221,75.45031746,-1.73E-06,47.21117925,-12.52586532,0,-248.1252826,,,,
644.3119995,2516,25.75169646,124.1991759,0,-19.06485811,0,-57.85842985,0,0,-148.7655187,119.2876854,-111.4562679,-1.76E-06,-94.15863951,-181.6808262,0,119.1970979,,,,
644.3199995,2516,-119.6538862,5.229595644,0,0.161893646,0,-95.31446817,0,0,170.9516425,-51.34761924,98.39086394,-1.72E-06,111.8636428,167.0357371,0,-515.132284,,,,
644.3279995,2516,143.3514066,-96.84599847,0,28.0287955,0,75.75144553,0,0,-182.0109807,72.76269935,-23.84317213,-1.72E-06,-60.69078028,-173.1086141,0,106.1939498,,,,
644.3359995,2516,-135.5005318,143.3087513,0,-59.28241412,0,-172.3422306,0,0,60.78352582,23.29559244,-50.56631279,-1.69E-06,1.641972477,51.39898759,0,-315.298876,,,,
644.3439995,2516,30.22590492,-179.6877785,0,40.72426141,0,80.40061433,0,0,-52.99621599,-50.21461273,41.83685676,-1.68E-06,35.5734811,-14.9563154,0,-257.1993051,,,,
644.3519995,2517,38.31417075,144.4287702,0,-22.42798571,0,-67.89849446,0,0,-133.3177227,118.709483,-105.9179997,-1.67E-06,-92.09522451,-152.0636222,0,116.753464,,,,
644.3599995,2517,-124.1051352,5.399869493,0,-4.953275313,0,-97.60789254,0,0,175.4370154,-51.4285527,102.1277717,-1.65E-06,105.2881758,176.5592254,0,-525.2869238,,,,
644.3679995,2517,125.6777297,-107.0367128,0,20.42743101,0,89.84999622,0,0,-211.2982089,67.56619262,-52.81949674,-1.63E-06,-66.33202697,-210.2179639,0,112.9298569,,,,
644.3759995,2517,-149.8472429,133.27606,0,-68.71566496,0,-155.6057848,0,0,48.15868067,24.63234488,-67.67538194,-1.62E-06,-7.02744055,22.72343747,0,-297.6623139,,,,
644.3839995,2517,33.55246674,-181.9710194,0,38.18127289,0,97.3594383,0,0,-47.86229414,-43.65787985,45.71834151,-1.60E-06,20.46936421,-21.54396884,0,-240.8924739,,,,
644.3919995,2517,56.79831477,146.0484141,0,-10.91498488,0,-50.44024442,0,0,-140.2360064,125.2663298,-108.0671746,-1.59E-06,-72.37208719,-158.5161885,0,140.1377544,,,,
644.3999995,2517,-109.4435872,-5.189076559,0,17.30996589,0,-78.51856297,0,0,149.1414255,-49.71204881,78.55513511,-1.57E-06,119.9935367,180.8281189,0,-497.5363398,,,,
644.4079995,2517,164.1358609,-60.73889532,0,64.22929146,0,90.91129059,0,0,-204.5659739,72.12249567,-54.37446186,-1.56E-06,-73.74045929,-175.3044221,0,134.6046454,,,,
644.4159995,2517,-94.79617717,231.5642236,0,-15.90877778,0,-194.8833277,0,0,122.4147317,42.3225185,-2.016377639,-1.55E-06,54.53627661,92.32945657,0,-310.0433075,,,,
644.4239995,2517,48.88055179,-135.8663377,0,63.21359527,0,34.94678832,0,0,14.53987609,-32.94263805,116.8627068,-1.53E-06,90.26948249,43.90018596,0,-298.6908201,,,,
644.4319995,2517,47.22210869,151.7259406,0,-12.34506074,0,-113.9217024,0,0,-131.7666249,114.6252813,-84.17580817,-1.52E-06,-83.69939948,-135.9171402,0,65.77454528,,,,
644.4399995,2517,-115.4717196,-16.20008457,0,2.056481569,0,-134.08278,0,0,152.5272709,-63.72930895,90.44410919,-1.50E-06,105.5489986,173.6089925,0,-569.5186158,,,,
644.4479995,2517,150.0549852,-107.4541774,0,34.60385973,0,48.69367158,0,0,-225.9658822,55.34339943,-67.45539324,-1.49E-06,-85.36744808,-198.6476512,0,76.54379381,,,,
644.4559995,2517,-108.2471317,181.9438184,0,-39.34210381,0,-224.984274,0,0,67.70385078,18.1447319,-49.10622022,-1.47E-06,8.302688103,73.39712898,0,-351.7601342,,,,
644.4639995,2517,49.83054925,-173.457059,0,64.97988257,0,21.55113376,0,0,-20.60256933,-48.16834914,84.49992103,-1.46E-06,69.67503887,32.61603,0,-326.3348634,,,,
644.4719995,2517,58.79143755,136.8951935,0,3.015450448,0,-120.9822709,0,0,-145.4482961,112.3801326,-100.2414458,-1.45E-06,-74.32107376,-152.7924029,0,60.91050898,,,,
644.4799995,2517,-111.7718603,-19.93925572,0,20.00190855,0,-138.7829449,0,0,146.4001602,-62.78831577,82.2881579,-1.43E-06,113.1102577,166.4392103,0,-562.8865416,,,,
644.4879995,2517,148.2966102,-103.1543545,0,58.7874335,0,51.47815534,0,0,-227.184499,56.69517839,-65.78092492,-1.42E-06,-78.16008951,-209.0245202,0,95.18930977,,,,
644.4959995,2517,-94.21675345,221.564787,0,-15.14510581,0,-241.0251054,0,0,93.06347611,25.60601577,-25.81264425,-1.40E-06,26.72786765,78.17029934,0,-333.6778756,,,,
644.5039995,2517,48.53252093,-166.1818997,0,69.26948875,0,-5.138998919,0,0,-1.962026008,-45.13186313,104.6620962,5.17E-07,94.34824194,53.08985564,0,-335.0201113,,,,
644.5119995,2517,22.89149721,91.56959206,0,-11.77256135,0,-128.9862716,0,0,-192.9531029,99.5537301,-134.0282578,2.33E-06,-95.15280445,-180.9495091,0,54.60886952,,,,
644.5199995,2517,-143.4753751,-44.60659941,0,8.217183809,0,-147.9738596,0,0,104.8328197,-79.57069093,40.82401598,1.75E-06,66.69229032,129.1186358,0,-562.1084292,,,,
644.5279995,2517,118.5657619,-138.3973393,0,47.0047652,0,43.23573318,0,0,-231.2086025,39.38938638,-86.26723049,1.78E-06,-96.21411871,-223.9839486,0,80.78788505,,,,
644.5359995,2517,-146.2686192,143.2148339,0,-39.44270358,0,-217.0891362,0,0,64.57167798,1.285880736,-72.63403511,1.88E-06,-7.332359703,21.30575727,0,-329.6954695,,,,
644.5439995,2517,13.77233501,-191.8925221,0,49.85421271,0,28.40073439,0,0,-8.19387791,-65.29750473,55.74000342,1.73E-06,33.76624077,-5.415710197,0,-292.7500955,,,,
644.5519995,2517,26.43616949,143.1669552,0,-14.70737566,0,-119.0374817,0,0,-111.4153223,94.03183524,-123.2709296,1.82E-06,-96.84922131,-165.8628886,0,93.4133398,,,,
644.5599995,2517,-135.3634882,15.33205155,0,15.71583516,0,-151.7616797,0,0,209.8056655,-80.55391353,86.98021239,1.73E-06,120.8936352,175.9515606,0,-548.7708723,,,,
644.5679995,2517,130.3191644,-72.14076471,0,64.30356027,0,30.24902797,0,0,-145.3718606,40.54243723,-39.53873221,1.76E-06,-57.93558892,-162.1702036,0,79.96150554,,,,
644.5759995,2517,-121.9891443,220.5087869,0,-21.70261732,0,-245.4034845,0,0,151.2896982,7.761512975,-21.48743004,1.72E-06,32.24439328,104.281711,0,-345.8812436,,,,
644.5839995,2517,28.02226522,-157.6228977,0,56.90001234,0,1.418531395,0,0,58.07201286,-63.50434183,98.29487847,1.72E-06,89.29547253,49.81662694,0,-323.7098893,,,,
644.5919995,2517,34.23695114,134.5430292,0,-14.04131328,0,-132.0691787,0,0,-84.14791549,91.54695645,-111.921545,1.69E-06,-74.90476345,-150.0251096,0,66.8572501,,,,
644.5999995,2517,-117.9926234,-1.636210915,0,10.6670474,0,-147.0152895,0,0,211.9952014,-78.70713313,74.5579686,1.68E-06,113.4147033,167.7103117,0,-556.0726091,,,,
644.6079995,2518,147.02568,-103.6034223,0,48.83067436,0,58.01813707,0,0,-163.7899183,43.34255313,-60.39904785,1.67E-06,-64.31915091,-204.1028789,0,100.3930726,,,,
644.6159995,2518,-101.7762578,194.5008053,0,-42.83891456,0,-211.3308088,0,0,122.2366749,9.171434049,-50.15887754,1.65E-06,10.73183017,47.75883826,0,-304.3867019,,,,
644.6239995,2518,58.04133163,-161.630623,0,38.52037841,0,26.70336844,0,0,51.08737572,-59.85631198,90.78404443,1.63E-06,67.87946254,26.08174955,0,-295.7028494,,,,
644.6319995,2518,56.9336093,129.9236868,0,-28.3033079,0,-105.8740841,0,0,-83.51873169,91.11494544,-99.58461121,1.62E-06,-75.6421613,-144.4287755,0,73.75946405,,,,
644.6399995,2518,-103.6356977,-0.148999003,0,1.818923681,0,-119.5458318,0,0,198.7470457,-84.10272992,73.60773219,1.60E-06,93.99055036,175.1018588,0,-548.4301589,,,,
644.6479995,2518,164.613533,-80.65891021,0,54.40732169,0,71.63437772,0,0,-142.0966993,46.6250416,-40.15337632,1.59E-06,-76.14765328,-172.6274665,0,99.7648963,,,,
644.6559995,2518,-112.8781766,172.3862361,0,-30.9925167,0,-186.4291886,0,0,143.1136521,16.08947126,-22.29921236,1.57E-06,23.78386937,83.20176731,0,-313.2664944,,,,
644.6639995,2518,24.81603109,-202.7645791,0,48.55045849,0,78.85605496,0,0,-1.491170632,-63.61320606,48.99817418,1.56E-06,19.58463595,-1.712366156,0,-272.337269,,,,
644.6719995,2518,50.24407017,152.9404354,0,-12.13530552,0,-71.73933888,0,0,-93.72859381,92.98639528,-123.7363478,1.55E-06,-117.9187713,-153.7913725,0,104.5521996,,,,
644.6799995,2518,-114.7155725,-1.285571317,0,2.732495278,0,-106.6538873,0,0,248.950395,-73.77617481,115.2623311,1.53E-06,125.807964,216.7706815,0,-548.8364052,,,,
644.6879995,2518,137.6709434,-117.4782162,0,31.78765045,0,88.59847597,0,0,-160.5629084,42.7181865,-42.8765905,1.52E-06,-77.39538518,-189.3089839,0,109.1368483,,,,
644.6959995,2518,-108.6160804,193.0585791,0,-41.82463054,0,-186.9533114,0,0,137.5152723,10.81876917,-19.46176128,1.50E-06,14.30405132,71.41634802,0,-297.404027,,,,
644.7039995,2518,39.99922893,-174.5288373,0,53.34328145,0,62.33836348,0,0,58.6428271,-56.09615431,114.4912514,1.49E-06,74.08105887,44.80683656,0,-279.7992729,,,,
644.7119995,2518,38.2378283,136.8812809,0,-11.86476389,0,-73.15660639,0,0,-82.90418511,96.90871084,-91.64538155,1.47E-06,-75.11266127,-154.7444259,0,109.3299277,,,,
644.7199995,2518,-135.4509056,-9.815818001,0,-0.320133109,0,-96.64141531,0,0,217.9826321,-75.976156,101.0322507,1.46E-06,113.7376273,174.8456207,0,-519.2621514,,,,
644.7279995,2518,127.7329576,-84.64841016,0,35.00408483,0,89.62783048,0,0,-157.1117798,47.46032885,-43.77770655,1.45E-06,-74.78904527,-188.7329401,0,131.7999586,,,,
644.7359995,2518,-110.6025831,250.0455998,0,-25.77778344,0,-208.3722238,0,0,185.5511244,27.57413182,16.96824625,1.43E-06,68.85908862,118.6286131,0,-305.6713728,,,,
644.7439995,2518,16.42503457,-168.489222,0,66.14934947,0,44.38100567,0,0,80.7839842,-37.44612665,149.2678699,1.42E-06,108.2824322,74.45277775,0,-307.2691177,,,,
644.7519995,2518,-7.459198288,98.35509492,0,-13.22575975,0,-65.09779299,0,0,-132.8259788,107.8084327,-112.8473234,1.40E-06,-97.96144835,-172.0486212,0,102.5946864,,,,
644.7599995,2518,-163.4697645,-18.38515782,0,6.13162533,0,-86.1198997,0,0,171.6843611,-64.1814493,73.87301776,-5.17E-07,100.7244656,171.2302185,0,-511.679019,,,,
644.7679995,2518,100.0758017,-116.7425711,0,43.22924094,0,118.4866358,0,0,-209.5334402,58.02326716,-65.66987646,-2.33E-06,-97.39587234,-200.745274,0,149.7946965,,,,
644.7759995,2518,-148.5320916,194.9328526,0,-36.17130837,0,-158.7947556,0,0,109.6950134,29.945795,-30.36446911,-1.75E-06,5.920004881,73.94287522,0,-257.6065655,,,,
644.7839995,2518,-6.485579783,-189.4235299,0,44.52441985,0,77.48821279,0,0,41.38531584,-41.80195494,118.7648526,-1.78E-06,70.98251124,61.98862615,0,-253.0067432,,,,
644.7919995,2518,-11.20265999,101.5098825,0,-36.74426194,0,-46.66528954,0,0,-160.3829813,95.11914297,-133.5547927,-1.88E-06,-127.7297329,-183.8109001,0,149.5558621,,,,
644.7999995,2518,-145.9677088,15.33355665,0,-2.509905251,0,-88.10708759,0,0,184.9117081,-72.36642101,78.86044384,-1.73E-06,90.65636558,172.8839718,0,-484.3157808,,,,
644.8079995,2518,114.9144535,-90.71756267,0,50.08811042,0,92.51849213,0,0,-141.6952057,55.3988181,-12.15907745,-1.82E-06,-42.63324295,-148.3544531,0,136.5877402,,,,
644.8159995,2518,-150.8831381,193.6696742,0,-32.31132481,0,-178.9381007,0,0,125.798252,15.48449181,-15.82370114,-1.73E-06,37.88535498,78.60075652,0,-279.590717,,,,
644.8239995,2518,-1.085146196,-171.2326767,0,54.4984753,0,62.82769506,0,0,39.50554809,-49.24358191,107.6625748,-1.76E-06,75.54391763,42.05207675,0,-264.8798726,,,,
644.8319995,2518,-6.080289758,113.1100705,0,-20.67382055,0,-68.97757266,0,0,-115.2724834,109.3615099,-101.2916446,-1.72E-06,-90.053797,-156.0131923,0,128.5976511,,,,
644.8399995,2518,-156.0966587,-9.571209364,0,4.870585676,0,-100.9750317,0,0,201.7328717,-64.30970736,93.66635709,-1.72E-06,111.5698633,168.5704022,0,-504.7028807,,,,
644.8479995,2518,105.8556662,-118.6543468,0,52.13380189,0,96.57023068,0,0,-165.0051239,54.63335555,-34.23160184,-1.69E-06,-74.393227,-192.4261694,0,135.4192325,,,,
644.8559995,2518,-156.7510724,172.1897791,0,-34.37126009,0,-166.3920604,0,0,106.0408729,20.65179996,-28.25313087,-1.68E-06,-10.34801511,54.43555273,0,-266.1144777,,,,
644.8639995,2519,11.06614476,-158.9163375,0,54.49224122,0,70.36352191,0,0,37.78281668,-42.29287742,111.9461641,-1.67E-06,53.4428687,28.5322183,0,-245.1144962,,,,
644.8719995,2519,21.46689545,148.377919,0,-15.93867173,0,-68.75514434,0,0,-106.3077063,117.1938658,-83.43524219,-1.65E-06,-90.56490461,-149.9368414,0,145.0994078,,,,
644.8799995,2519,-144.74121,0.719895772,0,3.057439459,0,-96.8059819,0,0,194.416641,-58.36122988,108.390208,-1.63E-06,102.1174759,198.2313165,0,-496.1014909,,,,
644.8879995,2519,126.8689108,-83.78422016,0,47.81631289,0,92.62819327,0,0,-173.1131507,58.97491982,-33.96208565,-1.62E-06,-81.12597832,-170.3804735,0,141.9216452,,,,
644.8959995,2519,-129.3456261,205.6742283,0,-37.49810974,0,-174.7183202,0,0,111.5024322,24.15057764,-25.69686175,-1.60E-06,3.090847399,78.14387345,0,-273.6872799,,,,
644.9039995,2519,4.242069346,-192.207018,0,49.4567574,0,82.27838526,0,0,24.10496416,-53.71213097,101.0026644,-1.59E-06,59.26772449,43.70314389,0,-258.6652122,,,,
644.9119995,2519,7.816307622,121.9705599,0,-16.4958311,0,-50.55485778,0,0,-135.9373963,94.20497152,-118.6210175,-1.57E-06,-105.019666,-166.2161089,0,151.7837129,,,,
644.9199995,2519,-151.4127088,0.514451436,0,-2.695790575,0,-81.29164258,0,0,165.1800188,-77.37259866,74.06816733,-1.56E-06,80.77960966,166.0647641,0,-478.2174616,,,,
644.9279995,2519,110.6538108,-106.7599502,0,31.27226171,0,115.5738589,0,0,-190.2483205,45.41013424,-46.26708078,-1.55E-06,-92.44602665,-194.2708722,0,156.9272479,,,,
644.9359995,2519,-132.3793392,203.0981473,0,-47.51726288,0,-164.5408509,0,0,118.5453386,17.60329643,-19.59778223,-1.53E-06,2.568465307,78.1001842,0,-260.2810441,,,,
644.9439995,2519,18.94731759,-166.3775396,0,40.70167291,0,79.21909649,0,0,18.97328379,-53.43425042,95.27610728,-1.52E-06,45.18971368,39.87662579,0,-243.3797103,,,,
644.9519995,2519,22.8442241,127.9737521,0,-28.91410972,0,-46.37695554,0,0,-136.201024,98.63362483,-115.7655701,-1.50E-06,-109.7926822,-174.266744,0,158.5192468,,,,
644.9599995,2519,-141.6656958,-9.791953856,0,-16.68661575,0,-74.7155381,0,0,179.3141494,-70.57514875,85.42767725,-1.49E-06,85.20289862,161.7610464,0,-479.117275,,,,
644.9679995,2519,98.26104854,-145.9439614,0,3.115729514,0,132.4250096,0,0,-223.1401439,44.37080787,-78.08261367,-1.47E-06,-132.3861867,-228.2628045,0,173.4430906,,,,
644.9759995,2519,-148.1793118,167.3900341,0,-73.85616543,0,-132.2902089,0,0,54.83528941,4.763710971,-77.59250843,-1.46E-06,-63.37936041,23.69952374,0,-220.1859277,,,,
644.9839995,2519,34.72562318,-147.1217976,0,40.13107915,0,102.1844653,0,0,3.938956189,-59.24295517,83.43607911,-1.45E-06,22.30598026,20.65641272,0,-205.159921,,,,
644.9919995,2519,46.64440376,153.0498612,0,-14.47419876,0,-37.41553507,0,0,-113.4526166,104.7319438,-83.18546736,-1.43E-06,-97.63222825,-150.9161798,0,183.3046522,,,,
644.9999995,2519,-126.550299,-2.449403578,0,-3.186094287,0,-63.97277451,0,0,173.8291296,-73.56415715,98.54525199,-1.42E-06,88.33832726,183.3524562,0,-453.9903117,,,,
645.0079995,2519,133.7920688,-115.2673067,0,18.76153169,0,133.1611742,0,0,-223.9388072,40.13945601,-64.14300898,-1.40E-06,-110.6246258,-205.6128169,0,191.3501669,,,,
645.0159995,2519,-97.10330355,211.3097639,0,-51.90864467,0,-153.6613152,0,0,94.58402263,15.99312534,-29.64844531,5.17E-07,-11.75099195,65.25347718,0,-225.7020952,,,,
645.0239995,2519,64.0271467,-147.3955662,0,58.51129239,0,84.643654,0,0,33.65014793,-47.59925574,126.8706125,2.33E-06,54.1509158,59.18287621,0,-223.0704164,,,,
645.0319995,2519,69.2333164,137.1884088,0,-5.546729214,0,-47.07257527,0,0,-118.8981831,105.6603439,-73.10319907,1.75E-06,-105.8510152,-141.5440401,0,172.0944502,,,,
645.0399995,2519,-94.72176625,4.82035791,0,8.338558746,0,-82.6949484,0,0,175.2988449,-71.64107728,110.1290447,1.78E-06,69.61480888,184.7942266,0,-466.7547291,,,,
645.0479995,2519,152.8214986,-119.7828562,0,36.62034862,0,120.4884157,0,0,-219.9616078,44.83055596,-43.9144831,1.88E-06,-132.4207814,-204.4131347,0,179.0296842,,,,
645.0559995,2519,-69.59827769,221.3454979,0,-41.04926212,0,-171.2111346,0,0,99.29451411,17.80321871,-11.47807833,1.73E-06,-23.76531154,61.87862302,0,-231.9271689,,,,
645.0639995,2519,90.02596131,-149.0011036,0,50.73734923,0,57.45893431,0,0,52.97362347,-48.17508569,154.7804085,1.82E-06,68.10203548,64.92804319,0,-249.6220751,,,,
645.0719995,2519,37.78056007,48.03245443,0,-39.43537358,0,-26.82024053,0,0,-186.9460438,93.36367794,-115.5584777,1.73E-06,-140.6804101,-206.0525142,0,162.5692326,,,,
645.0799995,2519,-124.9518917,-52.32591474,0,-20.91086862,0,-30.47068378,0,0,65.63035963,-82.64544305,22.09075304,1.76E-06,-3.212114077,81.08931797,0,-419.3942584,,,,
645.0879995,2519,175.4273322,-80.27828495,0,41.32020639,0,146.1424178,0,0,-226.8116767,58.59792009,-46.04067091,1.72E-06,-133.7961231,-212.092984,0,227.1445542,,,,
645.0959995,2519,-87.07982487,186.3189684,0,-41.10489682,0,-129.6228835,0,0,90.19055691,36.32431802,2.896006869,1.72E-06,-10.82582814,75.18584542,0,-196.9753609,,,,
645.1039995,2519,32.53467919,-231.5821153,0,31.05544391,0,129.6763232,0,0,-43.3397007,-49.64795401,87.10385344,1.69E-06,9.391780163,9.631527734,0,-178.8109648,,,,
645.1119995,2519,35.18327784,73.97971279,0,-47.73272728,0,7.805026359,0,0,-233.8906194,87.99123756,-162.793788,1.68E-06,-168.4214003,-229.527448,0,241.1160193,,,,
645.1199995,2520,-107.6036316,-17.73507836,0,-15.34125195,0,-27.87110831,0,0,111.2663253,-79.15139803,62.10811623,1.67E-06,51.22768647,139.189632,0,-391.5429006,,,,
645.1279995,2520,170.3404497,-102.1424647,0,47.39552693,0,159.9856986,0,0,-223.9270033,50.68904306,-37.44770671,1.65E-06,-99.97470997,-178.3480576,0,246.6732878,,,,
645.1359995,2520,-82.45723084,194.3145221,0,-35.97664206,0,-120.6844695,0,0,52.13422977,15.83043422,-27.86589761,1.63E-06,-3.6542938,74.91003551,0,-153.1745112,,,,
645.1439995,2520,52.16494993,-188.1950534,0,43.13831419,0,118.6508501,0,0,-23.19536602,-57.35055291,113.4069376,1.62E-06,40.20979454,50.44938371,0,-157.0663578,,,,
645.1519995,2520,45.03446531,100.9267282,0,-30.27109352,0,-3.098143358,0,0,-191.0455137,95.52548343,-117.3402389,1.60E-06,-137.4480555,-173.612223,0,238.5498842,,,,
645.1599995,2520,-114.8342767,-13.79726933,0,-2.408789558,0,-32.7477905,0,0,123.7540894,-75.09646253,76.01703488,1.59E-06,68.28232416,164.5965063,0,-387.2629212,,,,
645.1679995,2520,156.1929731,-114.1153452,0,52.4473124,0,156.6016849,0,0,-221.3638251,47.85124199,-36.31913757,1.57E-06,-89.73920731,-184.9318656,0,253.8656414,,,,
645.1759995,2520,-105.1376011,157.1289308,0,-37.2358627,0,-99.30809329,0,0,28.64977539,9.135857711,-60.208589,1.56E-06,-18.52162097,22.51077311,0,-135.6862255,,,,
645.1839995,2520,55.78196138,-183.6408854,0,59.64994572,0,153.1948925,0,0,-45.1134847,-59.15354595,78.88080412,1.55E-06,34.2658056,2.351210336,0,-110.0850288,,,,
645.1919995,2520,85.02819315,151.147844,0,8.131727726,0,9.487387329,0,0,-145.9591499,112.4397041,-77.57764774,1.53E-06,-90.23361177,-151.5894682,0,288.9404892,,,,
645.1999995,2520,-86.29551389,11.11461924,0,13.5398178,0,-31.00595406,0,0,155.8086399,-60.54825841,113.2450785,1.52E-06,97.4264312,180.5671468,0,-354.3383198,,,,
645.2079995,2520,177.4310158,-91.89969472,0,48.30519658,0,156.7048458,0,0,-213.7046471,55.26796248,-24.3533066,1.50E-06,-84.80003915,-186.4216249,0,271.8195682,,,,
645.2159995,2520,-86.46091058,162.5159752,0,-35.3544237,0,-96.63127175,0,0,51.57566186,22.33699444,-32.93437466,1.49E-06,-2.618275793,41.22341419,0,-128.132272,,,,
645.2239995,2520,53.53632421,-211.9475109,0,49.04603897,0,162.1255246,0,0,-68.31893811,-60.32375366,55.15169633,1.47E-06,7.704611376,-10.02810356,0,-98.87151388,,,,
645.2319995,2520,57.16846411,101.3107804,0,-17.03272911,0,29.89792578,0,0,-198.0798536,93.36502264,-139.035256,1.46E-06,-140.9688826,-185.14394,0,297.8095168,,,,
645.2399995,2520,-127.0866768,-55.5804558,0,-1.401612387,0,16.12157673,0,0,101.7109804,-80.2448928,50.56990351,1.45E-06,50.30807358,138.2690999,0,-326.0352092,,,,
645.2479995,2520,171.3602377,-80.4774542,0,56.25259062,0,189.8468773,0,0,-237.7962326,47.25983997,-66.76844981,1.43E-06,-113.8292676,-206.2840701,0,333.5345847,,,,
645.2559995,2520,-68.79172937,229.1506882,0,-19.96353354,0,-117.6099738,0,0,128.7500331,30.69023538,14.42936225,1.42E-06,51.45293056,111.8697796,0,-103.867744,,,,
645.2639995,2520,28.38567046,-239.3637339,0,38.60981772,0,139.7058725,0,0,-13.30716577,-61.54328203,95.92218448,1.40E-06,59.98090506,25.47351417,0,-105.8287905,,,,
645.2719995,2520,23.60753963,59.58026406,0,-42.86562583,0,24.08473942,0,0,-236.4403714,70.38354656,-186.6949819,-5.17E-07,-167.1508712,-251.3728417,0,325.4997813,,,,
645.2799995,2520,-109.6047176,-11.18666297,0,-6.683670432,0,-19.94591391,0,0,135.7676636,-93.61900404,58.49997476,-2.33E-06,70.19918448,140.0367855,0,-313.7606152,,,,
645.2879995,2520,180.4149266,-84.45165341,0,54.51362744,0,158.5530881,0,0,-187.9538873,37.28129806,-22.30808063,-1.75E-06,-74.23507632,-176.3185236,0,314.801827,,,,
645.2959995,2520,-90.89073216,177.9594796,0,-34.05421189,0,-114.7182092,0,0,89.67697334,2.564097995,-15.08239472,-1.78E-06,14.49999211,73.77426041,0,-91.89864627,,,,
645.3039995,2520,29.36368409,-220.3284945,0,29.76421987,0,131.2106049,0,0,-4.748348386,-89.12490684,86.47844836,-1.88E-06,39.81300411,30.53863146,0,-88.2845013,,,,
645.3119995,2520,39.41213287,102.8742121,0,-48.81124855,0,-3.649917468,0,0,-163.5979217,46.24001787,-142.3376977,-1.73E-06,-146.266352,-196.38037,0,311.6028899,,,,
645.3199995,2520,-111.1564657,1.266062953,0,-15.04813787,0,-45.91987654,0,0,191.9385988,-125.1915111,81.09193337,-1.82E-06,83.35461702,182.9178067,0,-340.4614425,,,,
645.3279995,2520,152.6272266,-91.83527205,0,40.0133143,0,141.7009519,0,0,-146.6371254,2.675351056,-32.48700919,-1.73E-06,-71.00157613,-155.2010309,0,289.817955,,,,
645.3359995,2520,-124.3514996,184.9523181,0,-51.49631569,0,-124.9716478,0,0,121.106419,-30.89731522,-35.04298269,-1.76E-06,-4.15847412,62.00009147,0,-110.3054777,,,,
645.3439995,2520,9.996633899,-195.7443212,0,26.66329789,0,124.6449837,0,0,28.84576131,-111.4668216,82.72769829,-1.72E-06,24.24333433,27.42345112,0,-103.9164298,,,,
645.3519995,2520,17.96860794,119.1254,0,-44.32520243,0,-7.203209076,0,0,-127.6814923,42.66033838,-133.6738829,-1.72E-06,-144.2217319,-170.3517873,0,300.0574399,,,,
645.3599995,2520,-126.723773,22.54438853,0,-12.02193316,0,-50.98759279,0,0,218.5406529,-119.9408866,91.70717486,-1.69E-06,79.68532825,199.8107593,0,-344.0667568,,,,
645.3679995,2520,151.1160535,-89.95480005,0,45.81472405,0,147.0742187,0,0,-128.0164679,11.25671634,-14.38812712,-1.68E-06,-84.31360674,-148.4691272,0,297.7110525,,,,
645.3759995,2521,-118.7139296,171.4942459,0,-46.61454616,0,-107.5095581,0,0,124.5387745,-13.9813606,-28.5410786,-1.67E-06,-30.4508188,66.66431762,0,-79.39243915,,,,
645.3839995,2521,31.33224154,-179.3016906,0,31.66141445,0,141.2143211,0,0,27.17636305,-86.75073606,87.57769935,-1.65E-06,1.376423922,20.23946655,0,-60.40804185,,,,
645.3919995,2521,33.88053394,111.3517484,0,-38.24554097,0,25.18053418,0,0,-137.758547,70.64124465,-120.351309,-1.63E-06,-154.3581633,-186.3416966,0,348.509155,,,,
645.3999995,2521,-125.9107857,-18.54803387,0,-8.998860053,0,-1.355702937,0,0,192.3799524,-95.20166237,87.44242622,-1.62E-06,52.52092817,178.0745488,0,-283.6195494,,,,
645.4079995,2521,165.7047439,-89.17725283,0,47.43094975,0,189.3157785,0,0,-160.7105233,28.84050776,-31.88141866,-1.60E-06,-118.0720725,-177.8126487,0,365.1815352,,,,
645.4159995,2521,-83.85632385,217.6245197,0,-38.45542151,0,-88.76641087,0,0,121.367269,1.857434063,-12.73753717,-1.59E-06,-20.38750139,61.53532791,0,-31.7065792,,,,
645.4239995,2521,61.75556005,-142.858697,0,53.17964608,0,136.4640977,0,0,85.41099299,-72.11911974,154.20817,-1.57E-06,53.20486682,74.31355812,0,-61.54767475,,,,
645.4319995,2521,48.49441579,125.396651,0,-15.94959399,0,14.69605927,0,0,-88.30111537,72.434142,-70.38314138,-1.56E-06,-116.8471764,-141.1818493,0,327.2590809,,,,
645.4399995,2521,-121.0959185,0.849298551,0,-6.77004665,0,-16.55743783,0,0,194.8762568,-107.0693158,94.34861435,-1.55E-06,68.86269281,166.0466106,0,-298.2242833,,,,
645.4479995,2521,150.299333,-89.88469723,0,31.55259527,0,169.4507818,0,0,-158.3017361,14.19832629,-28.70176614,-1.53E-06,-103.5004134,-184.1543726,0,340.4443669,,,,
645.4559995,2521,-114.5006741,189.9745398,0,-53.79076593,0,-98.26329627,0,0,106.0994299,-14.95236575,-36.36198051,-1.52E-06,-32.33387066,49.26060059,0,-47.98620676,,,,
645.4639995,2521,53.11059566,-138.0054637,0,51.20482355,0,126.655448,0,0,59.89955565,-85.93849769,116.5167365,-1.50E-06,42.18371244,54.57957191,0,-59.37530849,,,,
645.4719995,2521,61.07981541,146.8859405,0,-11.74294092,0,-4.700283369,0,0,-85.5958663,72.73422916,-75.61927999,-1.49E-06,-100.3337377,-114.6217201,0,325.1974349,,,,
645.4799995,2521,-137.866653,-31.19747784,0,-18.49075638,0,-15.09500032,0,0,161.2472752,-104.8509771,60.731806,-1.47E-06,45.98214038,159.9707346,0,-284.1218182,,,,
645.4879995,2521,126.9436287,-125.1432018,0,17.26310686,0,184.6529183,0,0,-197.7538596,12.95050384,-71.41691974,-1.46E-06,-134.8175397,-211.5040178,0,373.7409981,,,,
645.4959995,2521,-115.5247331,187.2667844,0,-51.75113422,0,-92.73476951,0,0,113.9107919,-10.66814639,-27.69846874,-1.45E-06,-15.6537494,85.34407571,0,-23.56954805,,,,
645.5039995,2521,24.4872249,-184.8838552,0,51.5265735,0,159.6412966,0,0,17.7767312,-83.65332823,95.47356549,-1.43E-06,18.24439419,47.51305925,0,-17.74078408,,,,
645.5119995,2521,41.37300494,115.6281258,0,-4.770874996,0,39.83282317,0,0,-135.5109937,78.53654819,-110.5544564,-1.42E-06,-147.3446238,-169.0010022,0,389.6743599,,,,
645.5199995,2521,-101.8452282,23.95961871,0,14.66277758,0,-9.834108128,0,0,190.7123174,-84.52561451,94.74069798,-1.40E-06,67.07542212,182.2945228,0,-246.10027,,,,
645.5279995,2521,165.2259629,-79.89371562,0,60.51234553,0,180.0760394,0,0,-162.6183786,38.28687702,-13.96079976,5.17E-07,-97.9598595,-168.2310824,0,385.138411,,,,
645.5359995,2521,-84.80296229,213.0878312,0,-19.84285686,0,-95.5695155,0,0,127.2708557,14.47105068,15.00719357,2.33E-06,8.965580696,85.77465379,0,-9.702451937,,,,
645.5439995,2521,62.8414405,-145.4418334,0,63.46123763,0,129.4065348,0,0,52.87725937,-58.31911258,149.0245086,1.75E-06,64.76409693,69.55579672,0,-21.54966398,,,,
645.5519995,2521,48.84686149,96.21357074,0,-16.06140386,0,7.360550726,0,0,-123.1100079,90.8781365,-80.3948067,1.78E-06,-123.1560193,-153.5157361,0,367.7598578,,,,
645.5599995,2521,-113.8145906,-13.91605264,0,1.300881072,0,-19.13446312,0,0,151.5185705,-88.49341485,72.9197385,1.88E-06,51.7264457,147.579975,0,-247.5995506,,,,
645.5679995,2521,181.0994269,-56.0180987,0,68.99242504,0,168.4441237,0,0,-166.9245312,41.72856804,-15.78349694,1.73E-06,-87.97939538,-157.8643589,0,389.3983268,,,,
645.5759995,2521,-72.98462314,219.6423741,0,-11.3218113,0,-114.0073614,0,0,159.7140076,25.65138545,36.12551052,1.82E-06,37.48915335,141.0223083,0,-25.20642435,,,,
645.5839995,2521,45.77224266,-175.4372553,0,54.22442907,0,127.7873145,0,0,36.07053092,-65.78229929,116.1058555,1.73E-06,59.25137327,60.00549318,0,-30.16928083,,,,
645.5919995,2521,41.5161267,108.1496854,0,-22.32655683,0,12.61163721,0,0,-147.4370257,74.67942377,-126.0144134,1.76E-06,-136.7201967,-171.6631904,0,374.0026575,,,,
645.5999995,2521,-113.9425308,-5.370598415,0,2.464591824,0,-18.8586956,0,0,175.1980824,-96.16205179,75.53662889,1.72E-06,60.85408497,190.6734672,0,-256.1542872,,,,
645.6079995,2521,161.6187249,-95.80685244,0,54.62560501,0,180.9047955,0,0,-180.2288756,24.19496999,-43.09771033,1.72E-06,-111.3097979,-174.8504827,0,384.4825009,,,,
645.6159995,2521,-95.96920994,188.0092397,0,-37.26083274,0,-89.24630247,0,0,103.3289885,-1.957685876,-32.05140622,1.69E-06,-32.895952,66.90209315,0,-3.242726708,,,,
645.6239995,2521,43.25691347,-173.8369845,0,38.06413716,0,147.6017083,0,0,7.684921352,-82.38827357,84.49358195,1.68E-06,6.155603199,37.45666915,0,-2.219995499,,,,
645.6319995,2522,58.48938216,128.0126923,0,-32.05063122,0,22.18571682,0,0,-152.7736389,68.53587905,-119.8031883,1.67E-06,-150.0783,-171.8884236,0,396.8468698,,,,
645.6399995,2522,-93.73774955,24.87432844,0,-3.052534721,0,-20.10424058,0,0,184.4062566,-98.06697636,99.7622262,1.65E-06,69.44869915,189.1739735,0,-236.9887137,,,,
645.6479995,2522,180.7758009,-60.43940022,0,59.08109167,0,168.7393603,0,0,-165.987179,26.03042633,-12.33795595,1.63E-06,-80.42366765,-164.7196673,0,401.8791492,,,,
645.6559995,2522,-78.47888924,198.5326477,0,-27.0055253,0,-97.58615491,0,0,119.8056582,3.040989656,1.821266653,1.62E-06,22.30119239,84.42025905,0,8.270871023,,,,
645.6639995,2522,59.70835161,-175.3068628,0,59.88110953,0,152.4692868,0,0,17.83732334,-75.51182785,103.9149837,1.60E-06,46.54946886,50.69540702,0,16.85901212,,,,
645.6719995,2522,67.09856673,128.8849971,0,-2.32738835,0,34.27303165,0,0,-156.9385967,75.82297857,-121.2676185,1.59E-06,-137.0920173,-176.1093757,0,433.0448374,,,,
645.6799995,2522,-112.9333427,-22.96895438,0,-1.718713112,0,4.489302712,0,0,169.8914811,-93.60143704,84.79468352,1.57E-06,61.97718424,164.9517998,0,-195.7723764,,,,
645.6879995,2522,153.7790763,-118.2410229,0,33.28724442,0,204.3666393,0,0,-214.4859778,23.84801095,-66.91691442,1.56E-06,-135.4243194,-201.906849,0,459.475482,,,,
645.6959995,2522,-85.93751451,192.4579948,0,-44.38988956,0,-66.7641583,0,0,66.45331462,0.418514961,-62.9004348,1.55E-06,-41.00464462,55.64639387,0,76.43858347,,,,
645.7039995,2522,61.09707873,-174.8648905,0,48.98262423,0,180.191059,0,0,11.98171209,-66.91926306,86.74924021,1.53E-06,29.3632128,46.6542983,0,78.60447937,,,,
645.7119995,2522,87.05361734,140.6884077,0,-7.374561605,0,51.55663429,0,0,-132.4071236,96.20750015,-109.0958022,1.52E-06,-133.8234878,-162.7737596,0,495.8258833,,,,
645.7199995,2522,-71.56317103,20.9990054,0,14.28388639,0,12.52826137,0,0,192.1673444,-70.96173919,99.45226483,1.50E-06,79.82282682,184.315553,0,-140.3141112,,,,
645.7279995,2522,193.3214285,-76.97732429,0,64.25293477,0,222.1299784,0,0,-185.1893657,53.93375948,-30.48962217,1.49E-06,-96.35314735,-167.2680738,0,510.0379225,,,,
645.7359995,2522,-57.6144977,220.544084,0,-16.2460202,0,-55.84359738,0,0,107.5514097,38.75294029,-7.375223662,1.47E-06,-9.325355758,99.17014734,0,128.2593021,,,,
645.7439995,2522,68.95581344,-169.977901,0,63.82899387,0,184.7790762,0,0,22.81669731,-43.99212855,121.0548744,1.46E-06,32.49718886,64.80066823,0,121.0831961,,,,
645.7519995,2522,79.86442582,132.83106,0,-1.130859825,0,67.5731747,0,0,-159.4836918,101.8158095,-105.1592518,1.45E-06,-154.9050881,-166.515523,0,541.6139496,,,,
645.7599995,2522,-85.87304837,-4.93522622,0,9.478599584,0,26.735315,0,0,171.0488894,-68.51490192,97.97216899,1.43E-06,69.57371092,189.8608607,0,-90.46328089,,,,
645.7679995,2522,160.2010042,-149.2163745,0,37.46477271,0,239.1383826,0,0,-219.0938094,42.49731385,-49.39544407,1.42E-06,-111.3365016,-187.4838822,0,560.7086214,,,,
645.7759995,2522,-93.07344925,158.598403,0,-45.40901595,0,-19.99275326,0,0,28.2274284,8.590677258,-65.06325674,1.40E-06,-73.1606495,25.98460161,0,198.4642511,,,,
645.7839995,2522,59.71923712,-184.3998428,0,60.35121223,0,227.6800627,0,0,-24.55089544,-62.45643711,87.98377095,-5.17E-07,-6.07371361,32.60789821,0,200.8434289,,,,
645.7919995,2522,90.77043532,147.5927091,0,11.64930994,0,102.6228481,0,0,-153.5357569,110.366014,-89.94942907,-2.33E-06,-136.6635158,-141.321772,0,620.225246,,,,
645.7999995,2522,-48.69806913,72.8248172,0,33.3222423,0,37.29353083,0,0,193.8497267,-50.83015706,127.7386485,-1.75E-06,79.75808627,213.3023843,0,-26.68261059,,,,
645.8079995,2522,204.8212307,-66.2758178,0,76.53670143,0,227.6377218,0,0,-145.1231379,66.30679148,15.95299121,-1.78E-06,-61.80755341,-131.1532623,0,577.4451367,,,,
645.8159995,2522,-78.90882687,176.9467201,0,-25.79931841,0,-33.34304669,0,0,98.78012713,31.95136745,-16.36111266,-1.88E-06,12.69187579,74.6842915,0,194.3286732,,,,
645.8239995,2522,58.71230493,-179.717986,0,37.01090515,0,203.2273842,0,0,-4.737571972,-56.27065971,79.83150901,-1.73E-06,31.93476358,22.62876124,0,196.8569396,,,,
645.8319995,2522,60.94320308,107.4967258,0,-32.70292841,0,81.68477827,0,0,-155.962155,97.19502863,-116.0831676,-1.82E-06,-123.5821932,-175.4385423,0,599.5514621,,,,
645.8399995,2522,-114.7736486,-20.49366049,0,-12.15354003,0,47.80884237,0,0,142.4729073,-79.02489012,63.97411055,-1.73E-06,71.89536489,147.8425079,0,-30.20783983,,,,
645.8479995,2522,154.3937814,-119.5781761,0,41.58668268,0,248.5328948,0,0,-211.1376312,39.17091024,-55.02155881,-1.76E-06,-105.0045515,-191.3618905,0,607.0273106,,,,
645.8559995,2522,-107.127985,159.3958996,0,-40.13142542,0,-14.08509054,0,0,66.11429987,14.05684215,-41.83892693,-1.72E-06,-21.48460985,62.163867,0,225.6103793,,,,
645.8639995,2522,40.55191667,-188.0897058,0,35.68773574,0,220.3790434,0,0,-21.92206227,-74.71734345,71.09845554,-1.72E-06,14.8942861,21.77493043,0,220.0188556,,,,
645.8719995,2522,62.87643989,123.2842355,0,-30.12429444,0,86.38242188,0,0,-146.6651135,79.06077574,-110.4253681,-1.69E-06,-129.0814512,-161.8060339,0,606.8293869,,,,
645.8799995,2522,-104.1867936,-4.5869008,0,-2.793022497,0,52.07843769,0,0,163.9980077,-90.93186273,84.10900251,-1.68E-06,86.52123131,180.6782276,0,-36.42564866,,,,
645.8879995,2523,178.737462,-91.83506514,0,55.73814369,0,246.9437691,0,0,-182.6948081,32.5549869,-30.70265045,-1.67E-06,-80.5821224,-161.9233904,0,597.5859962,,,,
645.8959995,2523,-75.87660848,199.6386602,0,-30.14902667,0,-28.75429144,0,0,105.5640743,11.15252537,-7.726995721,-1.65E-06,7.235422543,81.28374732,0,203.3071073,,,,
645.9039995,2523,59.28277729,-160.6754775,0,55.21522011,0,206.3238691,0,0,-2.892595843,-70.91778369,98.33399246,-1.63E-06,44.99180766,28.39393713,0,189.7546518,,,,
645.9119995,2523,98.96957303,175.6851078,0,10.05320568,0,58.55418016,0,0,-119.2509986,95.78527111,-81.21186213,-1.62E-06,-102.8919628,-135.2249977,0,575.2643324,,,,
645.9199995,2523,-72.90204448,31.99118906,0,19.94043977,0,20.06116595,0,0,181.4053014,-70.8393837,104.6776901,-1.60E-06,99.0218822,201.3766811,0,-72.21532501,,,,
645.9279995,2523,161.5438147,-124.0859233,0,43.96706074,0,232.3489083,0,0,-217.4850802,45.20702044,-45.89171218,-1.59E-06,-89.08905768,-194.0712572,0,568.7000524,,,,
645.9359995,2523,-107.8891834,163.8635366,0,-42.30792955,0,-40.711066,0,0,61.27505452,16.45063587,-44.3044762,-1.57E-06,-17.80234954,37.93427479,0,188.4275397,,,,
645.9439995,2523,21.9277205,-204.5309657,0,47.35539596,0,210.0802008,0,0,-44.91550885,-73.20139301,58.06622774,-1.56E-06,21.99102083,-10.68122414,0,182.0149575,,,,
645.9519995,2523,43.10547874,104.6242122,0,-9.404595601,0,86.5309735,0,0,-171.080366,89.02765645,-116.4550184,-1.55E-06,-119.1455733,-194.3920249,0,579.8442158,,,,
645.9599995,2523,-120.4854655,-3.229437227,0,-0.839361523,0,42.12993508,0,0,138.2666477,-81.87227294,75.58985504,-1.53E-06,74.62880972,151.9851665,0,-57.71196215,,,,
645.9679995,2523,141.4887193,-122.8731159,0,33.04130491,0,242.394097,0,0,-240.1541936,29.22471677,-61.11113513,-1.52E-06,-113.4937831,-203.8237243,0,565.4782824,,,,
645.9759995,2523,-99.82865312,189.6575134,0,-41.58286136,0,-38.57684282,0,0,63.33313734,2.875680721,-35.49560201,-1.50E-06,-26.71710602,55.59211903,0,160.1118553,,,,
645.9839995,2523,43.10069313,-171.7388043,0,57.4565273,0,205.8388864,0,0,-15.37869449,-71.50718556,92.58307152,-1.49E-06,39.62449842,45.88011753,0,149.0043271,,,,
645.9919995,2523,50.35013453,106.8776903,0,-3.139112751,0,83.58319748,0,0,-163.5848079,99.29521657,-102.0285386,-1.47E-06,-113.649568,-141.5769381,0,563.2545134,,,,
645.9999995,2523,-144.623994,-29.95558549,0,-5.775363043,0,33.46900647,0,0,121.7008357,-85.18132959,55.69671675,-1.46E-06,65.09036278,165.6756893,0,-76.6394401,,,,
646.0079995,2523,87.25016308,-182.1378253,0,22.94121683,0,233.8786855,0,0,-256.079768,13.96376589,-85.75482365,-1.45E-06,-95.57452163,-198.522354,0,537.034697,,,,
646.0159995,2523,-174.2343115,112.7470578,0,-51.98679295,0,-44.52857452,0,0,18.1608673,-16.41563031,-74.56699265,-1.43E-06,-26.10281024,41.07069315,0,148.3253037,,,,
646.0239995,2523,-57.63959991,-269.3608316,0,46.03424578,0,185.9315299,0,0,-58.30056462,-107.0979823,62.05782736,-1.42E-06,26.38416177,26.1324857,0,129.9492839,,,,
646.0319995,2523,-64.9775873,-18.679536,0,-14.18903031,0,56.56906796,0,0,-191.9729429,39.06297605,-115.8708993,-1.40E-06,-99.86808056,-152.4292466,0,520.9248357,,,,
646.0399995,2523,-239.8616004,-131.4826093,0,-11.3797337,0,5.941478056,0,0,89.35577265,-152.7107874,41.44859341,5.17E-07,66.06116925,149.3252154,0,-120.5849252,,,,
646.0479995,2523,22.93922659,-241.2954829,0,26.33890216,0,201.6666864,0,0,-266.2472396,-45.04455142,-88.90784464,2.33E-06,-112.0204407,-206.050169,0,491.2162586,,,,
646.0559995,2523,-205.8267741,81.7101816,0,-40.72784784,0,-78.7627543,0,0,45.30760881,-63.24094068,-62.84734869,1.75E-06,-23.52137356,61.04119119,0,87.04351359,,,,
646.0639995,2523,-52.54924798,-259.9928849,0,55.7136701,0,154.2363832,0,0,-17.45906826,-138.1664717,66.92631214,1.78E-06,26.99578536,47.83989044,0,59.28948659,,,,
646.0719995,2523,-33.51904832,31.02536703,0,-9.859612446,0,36.9299766,0,0,-155.2078254,25.36519009,-130.7583503,1.88E-06,-118.1356126,-158.0310819,0,458.1244478,,,,
646.0799995,2523,-192.5518409,-53.89093675,0,-8.402721833,0,-10.37296626,0,0,154.646534,-142.7672531,39.47032784,1.73E-06,57.83140886,166.6223751,0,-179.8453368,,,,
646.0879995,2523,70.02350952,-164.6278473,0,19.40258313,0,177.1935803,0,0,-177.8882135,-19.29404145,-71.94113881,1.82E-06,-97.62248762,-154.6350453,0,426.967164,,,,
646.0959995,2523,-178.1197571,128.1001132,0,-62.12735535,0,-94.49580121,0,0,104.4569811,-44.86910886,-63.37335832,1.73E-06,-13.54230345,76.82406803,0,30.86849694,,,,
646.1039995,2523,-21.562829,-202.727357,0,38.56233546,0,146.1071949,0,0,19.82924767,-122.2559778,54.81447345,1.76E-06,19.82438488,45.27332446,0,25.09165909,,,,
646.1119995,2523,21.47784612,114.4488954,0,-13.7380335,0,15.07117121,0,0,-88.14680517,57.73158362,-99.41828808,1.72E-06,-89.503473,-108.2735671,0,428.7043727,,,,
646.1199995,2523,-149.1821556,-12.23927933,0,-12.24898521,0,-28.57420479,0,0,215.7816486,-110.3664593,94.42226617,1.72E-06,103.0131544,208.9568876,0,-213.9099004,,,,
646.1279995,2523,95.27057146,-158.3126366,0,15.27859355,0,188.4526102,0,0,-190.9453421,-1.793281203,-70.56358985,1.69E-06,-117.6668171,-182.898654,0,423.562857,,,,
646.1359995,2523,-135.7990926,169.1644439,0,-52.88844988,0,-75.35678486,0,0,85.1472143,-21.00327447,-67.49412317,1.68E-06,-43.11073077,64.73817172,0,58.15378262,,,,
646.1439995,2524,26.29638373,-144.4827994,0,56.90850681,0,159.3238293,0,0,39.52051165,-87.57750769,97.72101663,1.67E-06,25.77234548,64.18772017,0,51.95849989,,,,
646.1519995,2524,51.05997855,147.6576111,0,2.325093026,0,34.77560445,0,0,-71.72150039,86.89733388,-55.6684846,1.65E-06,-89.28824889,-102.019431,0,456.0084312,,,,
646.1599995,2524,-115.9097517,34.2137007,0,8.389524271,0,-18.60902899,0,0,243.9834418,-85.40134703,134.6379101,1.63E-06,122.1157248,241.9355254,0,-195.3298059,,,,
646.1679995,2524,142.7450443,-89.82507921,0,37.75990859,0,180.138151,0,0,-150.1317448,24.76196675,-24.88078114,1.62E-06,-66.0333893,-148.737901,0,421.9717311,,,,
646.1759995,2524,-102.4550053,198.5467847,0,-43.26910097,0,-80.28648269,0,0,125.39696,4.028202765,-25.66268026,1.60E-06,16.90400387,81.95442465,0,35.78124082,,,,
646.1839995,2524,47.05344925,-143.7877483,0,55.38237754,0,159.5395289,0,0,62.83827328,-73.08721079,110.4973633,1.59E-06,65.51969735,80.16693725,0,19.69109665,,,,
646.1919995,2524,74.78544722,153.0589222,0,-8.804252851,0,32.81871037,0,0,-94.97710237,88.2050189,-92.48697248,1.57E-06,-90.6096656,-133.3320713,0,433.1974911,,,,
646.1999995,2524,-86.90511119,45.59309207,0,-1.823852288,0,-22.16359877,0,0,232.6894488,-86.80020421,112.3351876,1.56E-06,115.9488133,208.0825978,0,-221.5877864,,,,
646.2079995,2524,192.8560332,-43.1482681,0,43.96205037,0,161.4265887,0,0,-114.9726637,26.80053969,9.484643183,1.55E-06,-48.99571388,-124.3666975,0,385.9076548,,,,
646.2159995,2524,-47.48208237,256.7287686,0,-33.16600991,0,-118.1729909,0,0,156.6046618,6.735866516,19.79184849,1.53E-06,40.12109924,108.2636952,0,-5.001016919,,,,
646.2239995,2524,86.52960161,-108.2459977,0,65.20816695,0,115.8905957,0,0,88.49956874,-69.47185256,147.0595078,1.52E-06,78.0214014,93.24152654,0,-33.28794616,,,,
646.2319995,2524,109.9204397,183.2565431,0,11.28113606,0,-10.86156255,0,0,-65.2062621,92.35777351,-51.15985339,1.50E-06,-69.28073589,-107.8462243,0,376.2050446,,,,
646.2399995,2524,-70.16410948,51.23834361,0,24.88310209,0,-49.9920714,0,0,240.9152411,-80.58858152,142.0326815,1.49E-06,140.6222096,216.9316378,0,-265.7593711,,,,
646.2479995,2524,182.7720703,-66.02122309,0,71.8794749,0,160.1580038,0,0,-129.0912189,38.46021646,4.043802669,1.47E-06,-69.83220406,-137.8095209,0,368.5160497,,,,
646.2559995,2524,-69.04476337,237.8795768,0,-17.23000011,0,-113.4369448,0,0,141.0440499,17.16834786,0.676534707,1.46E-06,2.89981535,101.3023874,0,0.508841919,,,,
646.2639995,2524,52.49568468,-137.7080747,0,52.32873953,0,124.9406999,0,0,56.84700941,-73.63793949,120.7324812,1.45E-06,58.06452348,63.55510036,0,-26.4847409,,,,
646.2719995,2524,76.88504278,154.0651769,0,-19.5837136,0,8.617429516,0,0,-119.2630839,74.70999968,-102.4623079,1.43E-06,-113.3566459,-162.8436213,0,384.8750724,,,,
646.2799995,2524,-82.01632557,66.95805113,0,3.610906581,0,-46.67691027,0,0,220.3134091,-94.72126196,115.8304565,1.42E-06,111.2495993,199.5333151,0,-260.1249905,,,,
646.2879995,2524,172.7101735,-60.78559652,0,58.47638922,0,154.7457323,0,0,-129.7138574,26.03154767,11.96874945,1.40E-06,-43.29767711,-143.3119665,0,357.0959888,,,,
646.2959995,2524,-72.30802094,223.6605547,0,-31.29854265,0,-114.0194625,0,0,119.9574734,-0.086444247,-6.122758036,-5.17E-07,25.40615577,72.98688201,0,-9.972111657,,,,
646.3039995,2524,61.2824004,-127.3107362,0,48.65765945,0,111.9481544,0,0,55.69841036,-84.69197122,126.3862075,-2.33E-06,68.3512497,56.37029171,0,-35.18031508,,,,
646.3119995,2524,59.80348269,139.2419987,0,-19.72277195,0,1.641343179,0,0,-118.1514276,71.33171233,-86.25463111,-1.75E-06,-107.8407179,-151.2884202,0,377.6471646,,,,
646.3199995,2524,-102.4025973,55.02852035,0,2.763293715,0,-39.05887136,0,0,187.3014127,-99.32417133,100.2927248,-1.78E-06,82.34405569,194.2782888,0,-245.3791758,,,,
646.3279995,2524,176.1534078,-42.1905236,0,64.49112452,0,160.9217481,0,0,-144.0085915,26.89294269,8.618613775,-1.88E-06,-80.45984381,-141.3188481,0,378.0050771,,,,
646.3359995,2524,-72.20627217,230.1136426,0,-21.2548153,0,-105.5681997,0,0,132.7154397,14.58450545,14.30422485,-1.73E-06,12.30360743,99.21738778,0,7.143773802,,,,
646.3439995,2524,52.8600497,-120.040814,0,57.66652444,0,123.8821532,0,0,51.86610417,-66.80346662,126.566246,-1.82E-06,63.23988046,72.32095407,0,-16.42887464,,,,
646.3519995,2524,53.90766538,149.1115938,0,-16.23198891,0,6.07500517,0,0,-117.8857801,84.17329791,-83.07076258,-1.73E-06,-110.1167748,-150.2433867,0,383.3109691,,,,
646.3599995,2524,-97.83142032,70.15538891,0,4.710681591,0,-54.60277872,0,0,211.4964565,-93.88155147,117.4774023,-1.76E-06,97.80360474,200.0678058,0,-259.7333832,,,,
646.3679995,2524,185.0436925,-20.47769133,0,69.59602244,0,128.6903722,0,0,-111.1563551,25.77464869,28.42345831,-1.72E-06,-47.78608753,-128.1146098,0,341.9033049,,,,
646.3759995,2524,-80.33148189,223.58879,0,-21.67036951,0,-136.94043,0,0,154.6396453,5.989826692,35.7207944,-1.72E-06,37.80525255,97.03719403,0,-40.55517801,,,,
646.3839995,2524,43.43364493,-137.8764298,0,49.62675325,0,92.611029,0,0,52.36684752,-86.4225646,132.1955251,-1.69E-06,63.05957178,53.58576447,0,-56.39252619,,,,
646.3919995,2524,61.23504671,141.8402711,0,-22.0559126,0,-26.51800805,0,0,-123.59706,68.33204402,-85.09419125,-1.68E-06,-120.3153692,-164.8332574,0,350.5778742,,,,
646.3999995,2525,-97.62204299,44.24177461,0,-0.041974014,0,-68.82255155,0,0,194.477994,-98.22930606,109.1881501,-1.67E-06,93.39247549,174.5890788,0,-279.2138195,,,,
646.4079995,2525,194.2466805,-29.53921099,0,64.40835073,0,120.8499404,0,0,-129.5135586,27.71507227,18.98572866,-1.65E-06,-43.81605191,-143.2868169,0,341.8885073,,,,
646.4159995,2525,-58.51772587,222.8554862,0,-26.08964057,0,-144.18468,0,0,144.0502364,11.70610427,36.34977371,-1.63E-06,43.8472831,105.7898523,0,-39.30959644,,,,
646.4239995,2525,50.51851457,-165.6930626,0,53.20887012,0,108.0222454,0,0,17.5145415,-83.08743863,110.8053885,-1.62E-06,50.72286152,38.17464367,0,-43.97361805,,,,
646.4319995,2525,76.89210117,151.8829416,0,-3.749132282,0,-13.37245022,0,0,-149.9431173,71.96791217,-105.8117843,-1.60E-06,-131.8764809,-171.6169993,0,378.0288456,,,,
646.4399995,2525,-88.560942,52.48876975,0,4.832128339,0,-73.46328774,0,0,197.5473587,-92.93400267,121.3357769,-1.59E-06,103.735789,215.1598402,0,-273.7557152,,,,
646.4479995,2525,161.0905964,-88.47970643,0,38.96489629,0,125.4122343,0,0,-162.4861649,21.63847853,1.574982755,-1.57E-06,-65.44863487,-134.8477939,0,337.2786626,,,,
646.4559995,2525,-89.67736368,198.473373,0,-53.18025263,0,-145.6110776,0,0,92.10753123,-4.424306095,-11.92354059,-1.56E-06,-12.36735504,71.02939867,0,-32.59428153,,,,
646.4639995,2525,47.22823674,-136.2665625,0,39.39844633,0,82.21834476,0,0,21.78250072,-88.76961133,114.4896858,-1.55E-06,57.30118427,53.09841544,0,-58.06508411,,,,
646.4719995,2525,48.73602514,107.1021593,0,-25.30849371,0,-19.84662277,0,0,-147.4211229,71.43605175,-91.76044362,-1.53E-06,-98.89829871,-156.0757349,0,353.2334756,,,,
646.4799995,2525,-131.7159673,-14.0563104,0,-28.24812184,0,-48.23739325,0,0,132.0945601,-104.7889297,63.59655165,-1.52E-06,57.54952099,136.371014,0,-257.4976666,,,,
646.4879995,2525,150.2208003,-83.94170353,0,16.72457386,0,152.0641334,0,0,-220.1096056,14.28368752,-58.72218407,-1.50E-06,-114.7995733,-215.333441,0,383.0722172,,,,
646.4959995,2525,-81.96552274,213.6166548,0,-58.53365496,0,-125.0836642,0,0,87.76991837,0.456270154,-15.87205313,-1.49E-06,-6.128550246,65.70609039,0,5.123537358,,,,
646.5039995,2525,71.02336457,-115.4704433,0,45.06212928,0,93.28742363,0,0,41.59510828,-80.39278051,137.6648351,-1.47E-06,62.57544671,76.30496266,0,-30.01335204,,,,
646.5119995,2525,103.029192,182.1441402,0,-10.66608774,0,-34.34089269,0,0,-109.1100265,83.777098,-56.05941695,-1.46E-06,-84.32941836,-121.4109443,0,372.2065952,,,,
646.5199995,2525,-70.60403533,53.68933147,0,-11.52321211,0,-86.9918507,0,0,201.3450487,-92.42504315,129.2865098,-1.45E-06,122.5580081,210.4562967,0,-271.259077,,,,
646.5279995,2525,173.8944961,-115.2831055,0,20.11446529,0,128.6155888,0,0,-178.2925656,14.90805913,-2.447678095,-1.43E-06,-70.71699568,-157.5866907,0,348.6090291,,,,
646.5359995,2525,-101.3399158,134.826775,0,-75.12881316,0,-109.4711701,0,0,24.23365767,-19.5791862,-58.17330232,-1.42E-06,-56.6646908,13.98223395,0,6.381025178,,,,
646.5439995,2525,50.31345411,-156.4218305,0,27.55154106,0,125.6706102,0,0,-39.49846812,-105.922597,59.65364692,-1.40E-06,-4.092367923,-4.18043519,0,10.83950226,,,,
646.5519995,2525,99.51928001,172.3694443,0,-12.68793462,0,-6.419140195,0,0,-119.0751747,73.64882183,-65.9351908,5.17E-07,-103.7979188,-133.424351,0,415.0377435,,,,
646.5599995,2525,-74.11002088,52.20029272,0,2.066221468,0,-56.94985997,0,0,195.3161368,-92.32447937,134.9573115,2.33E-06,105.1904836,209.3732085,0,-233.8359439,,,,
646.5679995,2525,202.7439053,-52.29337187,0,61.36130616,0,143.8381819,0,0,-183.0458551,23.19674079,-2.603518215,1.75E-06,-72.03866026,-156.3468296,0,390.0665512,,,,
646.5759995,2525,-36.23225757,236.1747962,0,-18.1577259,0,-129.2436426,0,0,91.7954514,5.852367958,9.670915435,1.78E-06,28.81349953,91.09567675,0,19.20469303,,,,
646.5839995,2525,99.26422946,-110.0216173,0,61.13353544,0,93.29412549,0,0,23.71016399,-83.68252103,134.0695809,1.88E-06,89.78423434,83.26230947,0,-17.80990803,,,,
646.5919995,2525,134.0623234,191.2608447,0,-1.567150573,0,-35.45887518,0,0,-129.47389,76.50139085,-64.20333898,1.73E-06,-89.14896515,-122.590854,0,385.5679823,,,,
646.5999995,2525,-53.76211287,54.12121039,0,10.65235421,0,-76.7252765,0,0,175.6854218,-96.86736715,126.4822507,1.82E-06,101.4590462,197.0121011,0,-255.3272618,,,,
646.6079995,2525,200.4403513,-71.71803226,0,64.24516116,0,134.2946673,0,0,-198.2587161,11.24626573,-8.489270097,1.73E-06,-84.56506109,-161.9037055,0,369.8328327,,,,
646.6159995,2525,-47.85239512,209.1897913,0,-24.54623604,0,-126.9656032,0,0,70.20736282,-12.4556907,-13.35208465,1.76E-06,-17.01398009,76.55921167,0,1.206763631,,,,
646.6239995,2525,78.68342964,-152.0813332,0,51.81620118,0,119.8876122,0,0,-3.635632284,-97.90274701,106.597051,1.72E-06,36.01819606,44.54655254,0,-13.88033905,,,,
646.6319995,2525,111.7989859,154.8522061,0,-13.5074161,0,-0.401042136,0,0,-159.6590823,67.50452058,-88.42526627,1.72E-06,-128.8351321,-164.5186626,0,418.0420949,,,,
646.6399995,2525,-72.88032913,23.40050023,0,-2.219659177,0,-50.02225998,0,0,164.3285239,-104.185109,114.963182,1.69E-06,80.28773395,183.1234453,0,-231.8916971,,,,
646.6479995,2525,173.2730065,-115.296692,0,53.12191499,0,171.3650112,0,0,-216.2424504,7.81837857,-27.15437206,1.68E-06,-103.0311732,-181.1595431,0,391.1152641,,,,
646.6559995,2526,-71.2127759,183.956089,0,-35.97626733,0,-82.42827452,0,0,37.70079214,-8.757061954,-42.71058536,1.67E-06,-41.70401926,49.01548977,0,42.58227528,,,,
646.6639995,2526,89.42796379,-119.4422596,0,55.9433082,0,144.1308045,0,0,6.098571657,-85.06493017,112.2879003,1.65E-06,32.95058204,51.41866682,0,19.62077321,,,,
646.6719995,2526,150.5582481,222.1669064,0,14.65483061,0,3.345654756,0,0,-99.56676362,94.16961936,-36.73408646,1.63E-06,-92.54200176,-110.456215,0,431.5380142,,,,
646.6799995,2526,-40.28333315,77.65430732,0,16.22735585,0,-53.36872939,0,0,210.8901951,-72.96363914,157.1692039,1.62E-06,118.4942919,242.4907483,0,-221.9389749,,,,
646.6879995,2526,203.72499,-64.98052059,0,52.03988414,0,156.2851935,0,0,-182.0796153,38.26697706,2.887219452,1.60E-06,-71.29117102,-141.5315663,0,403.0381789,,,,
646.6959995,2526,-42.00343979,229.5086978,0,-35.12052764,0,-113.3380465,0,0,87.63382835,21.25200449,1.632073135,1.59E-06,-9.173408205,84.85012777,0,46.86091861,,,,
646.7039995,2526,71.65836588,-152.9358806,0,43.98530797,0,128.5686798,0,0,3.72836502,-73.89450259,108.31549,1.57E-06,26.76326171,52.17893773,0,18.42789988,,,,
646.7119995,2526,97.04311661,142.4120965,0,-16.51016488,0,16.59013261,0,0,-170.3411538,85.50334805,-106.9825045,1.56E-06,-136.0773051,-164.8368564,0,449.3621821,,,,
646.7199995,2526,-60.64953393,74.76945578,0,-4.555672666,0,-52.2060434,0,0,179.2803633,-80.39496414,118.2163258,1.55E-06,101.2806112,211.2297171,0,-198.5422533,,,,
646.7279995,2526,212.5354329,-33.40875169,0,43.52948504,0,136.1231785,0,0,-148.1725708,38.64176222,30.266929,1.53E-06,-37.80134786,-105.8207984,0,395.5903055,,,,
646.7359995,2526,-40.54017241,228.3443537,0,-43.743056,0,-130.8899874,0,0,105.923294,19.84161796,24.23614306,1.52E-06,32.45993447,107.8164365,0,25.00067975,,,,
646.7439995,2526,87.6901189,-125.1468031,0,47.45235862,0,105.2546826,0,0,13.0596744,-74.31466717,124.3363575,1.50E-06,66.53921086,56.33953816,0,-2.270017279,,,,
646.7519995,2526,118.6925353,165.4590522,0,-5.38971291,0,-4.786075185,0,0,-148.8392399,94.8651448,-74.95981636,1.49E-06,-100.5527161,-147.0871123,0,420.0001303,,,,
646.7599995,2526,-64.97692446,28.01856454,0,-0.04744819,0,-40.30425456,0,0,153.9794245,-75.75876374,103.587649,1.47E-06,83.28936683,177.2530078,0,-212.4456092,,,,
646.7679995,2526,225.2499853,-43.62370314,0,58.08575916,0,151.9699033,0,0,-184.4200349,37.08536013,-16.55035479,1.46E-06,-82.10228427,-164.1623387,0,407.0394666,,,,
646.7759995,2526,-0.136872972,274.0503567,0,-17.09873607,0,-143.3603252,0,0,130.3897283,29.62770399,22.60628892,1.45E-06,38.98014842,119.3913596,0,22.64643891,,,,
646.7839995,2526,109.6804196,-128.7900027,0,58.19826591,0,89.32062188,0,0,51.98836344,-67.60374936,138.3705733,1.43E-06,90.92263193,93.14915786,0,-22.11261258,,,,
646.7919995,2526,130.1909689,161.5058711,0,-8.72696958,0,-26.46583981,0,0,-121.7094524,88.07615069,-88.16402014,1.42E-06,-105.7552411,-141.3840563,0,408.0879968,,,,
646.7999995,2526,-53.47475985,63.39998137,0,5.176534076,0,-79.02758808,0,0,201.0743399,-80.59878281,94.22976806,1.40E-06,85.08550231,196.1892849,0,-226.3403912,,,,
646.8079995,2526,204.1530066,-53.33097356,0,62.02930018,0,131.0820576,0,0,-149.3731771,29.09784068,-30.32697144,-5.17E-07,-80.35753624,-146.1427522,0,393.0330229,,,,
646.8159995,2526,-48.94279651,237.5503123,0,-25.6656163,0,-139.4858093,0,0,143.5531641,17.96575155,-10.15341774,-2.33E-06,13.21569962,110.9590438,0,24.61579816,,,,
646.8239995,2526,55.20178148,-147.4454883,0,43.17996856,0,99.84475559,0,0,64.22397008,-72.91993391,108.2865811,-1.75E-06,55.7176451,75.34009647,0,-10.10985052,,,,
646.8319995,2526,54.85582005,118.2470011,0,-34.53403575,0,6.153015285,0,0,-143.7610971,76.0324024,-132.9597908,-1.78E-06,-145.4806709,-180.8579525,0,428.7432765,,,,
646.8399995,2526,-113.4845008,50.02031106,0,-16.23337983,0,-42.9163009,0,0,192.5765157,-91.35552149,68.35727713,-1.88E-06,65.12666847,184.602378,0,-208.4424182,,,,
646.8479995,2526,186.8487629,-18.09063716,0,57.85011993,0,146.7647859,0,0,-96.22562312,39.33098282,6.37776096,-1.73E-06,-54.49388912,-105.5402661,0,392.2831293,,,,
646.8559995,2526,-64.26596415,250.9768406,0,-31.540889,0,-119.0882778,0,0,167.2031002,29.24055353,10.87850621,-1.82E-06,33.1488866,118.870703,0,25.29340502,,,,
646.8639995,2526,55.71189183,-109.3283102,0,45.53649691,0,112.7620488,0,0,79.4306177,-66.62625342,117.2507064,-1.73E-06,65.11053684,79.03214659,0,-12.71964572,,,,
646.8719995,2526,88.94077565,195.7651857,0,-7.7514765,0,-9.847223191,0,0,-64.84495127,92.32982971,-72.72121095,-1.76E-06,-91.83349405,-117.2925367,0,400.6556825,,,,
646.8799995,2526,-98.59611332,68.67745649,0,-1.711450414,0,-51.15295814,0,0,233.5579608,-80.01313287,107.5753043,-1.72E-06,111.8856966,219.5142017,0,-236.8879453,,,,
646.8879995,2526,159.8265862,-71.0283285,0,36.92860259,0,165.9710942,0,0,-137.6320738,31.67393194,-19.90874788,-1.72E-06,-82.95688625,-139.6186492,0,383.4282851,,,,
646.8959995,2526,-79.44863806,242.2017952,0,-51.15680616,0,-110.2003431,0,0,135.3315264,13.3617775,-24.64202314,-1.69E-06,-20.90541833,87.89206164,0,17.74502435,,,,
646.9039995,2526,65.93871798,-79.5386755,0,45.26007262,0,111.0220887,0,0,84.08140174,-73.38277583,114.7437076,-1.68E-06,60.01760584,86.93077608,0,-31.47226294,,,,
646.9119995,2527,104.7356089,204.4958774,0,-9.775537627,0,-10.59773448,0,0,-50.81423289,97.52393092,-56.31514951,-1.67E-06,-75.06456812,-95.85449875,0,378.5622377,,,,
646.9199995,2527,-75.18695126,86.09696632,0,-11.12721497,0,-78.74892986,0,0,265.1513437,-80.27599105,127.4372634,-1.65E-06,127.6862689,242.4870741,0,-281.7897076,,,,
646.9279995,2527,176.9786517,-58.86402959,0,28.42855807,0,124.8672276,0,0,-120.6108207,18.69286062,-14.25342616,-1.63E-06,-55.0807081,-127.1835855,0,315.91981,,,,
646.9359995,2527,-56.65193061,255.6532855,0,-50.97047405,0,-151.7888917,0,0,135.7438206,1.190873101,-25.01538004,-1.62E-06,-1.487158908,95.77490616,0,-52.61030092,,,,
646.9439995,2527,92.08953231,-81.84231724,0,50.0988382,0,65.90490563,0,0,104.1777191,-79.07263493,138.1923232,-1.60E-06,78.00245972,116.14666,0,-117.2750407,,,,
646.9519995,2527,103.7660904,154.5807778,0,-10.57776728,0,-35.92760804,0,0,-69.95145677,88.69405196,-64.32743651,-1.59E-06,-88.9177272,-96.11575783,0,300.0258063,,,,
646.9599995,2527,-77.16188767,58.81722012,0,-12.01495351,0,-90.44714876,0,0,210.7126794,-88.99650883,85.58925364,-1.57E-06,63.90090518,212.3594486,0,-330.0839239,,,,
646.9679995,2527,206.7836881,-33.5296759,0,37.17144266,0,95.92338648,0,0,-107.0111442,28.78949718,5.096133688,-1.56E-06,-65.85599897,-100.0122738,0,270.2787779,,,,
646.9759995,2527,-33.99352644,260.7313084,0,-41.85878523,0,-186.1601017,0,0,185.7815781,23.76612521,25.78763198,-1.55E-06,46.08804947,150.0740101,0,-103.9514539,,,,
646.9839995,2527,81.76892271,-111.0502633,0,48.62650379,0,49.80984778,0,0,85.04596797,-69.4702045,123.8184392,-1.53E-06,69.09283185,99.99786817,0,-145.4266089,,,,
646.9919995,2527,101.6366243,167.5741933,0,-10.3159502,0,-64.91030494,0,0,-84.13590126,96.94917599,-75.38801804,-1.52E-06,-94.48647345,-123.6764477,0,278.2415553,,,,
646.9999995,2527,-75.47693679,87.13159861,0,-9.15380371,0,-139.4518833,0,0,253.8609772,-68.15151645,126.9508145,-1.50E-06,126.3880913,233.4652322,0,-380.7632212,,,,
647.0079995,2527,188.6082239,-54.01992828,0,29.0877968,0,68.0343725,0,0,-122.8167326,39.30743093,-2.657199709,-1.49E-06,-58.14841607,-120.013007,0,220.800913,,,,
647.0159995,2527,-45.12716258,241.0502811,0,-52.69941917,0,-200.9042836,0,0,132.5369437,19.82415984,-15.53896888,-1.47E-06,9.922763943,91.51556247,0,-144.5708117,,,,
647.0239995,2527,86.1284599,-100.8459497,0,45.76258816,0,28.27261766,0,0,72.91399301,-68.79954956,121.167952,-1.46E-06,79.88577169,72.70260371,0,-191.5982091,,,,
647.0319995,2527,107.6669789,169.5447695,0,-10.09298073,0,-75.21117655,0,0,-99.2552948,103.1665383,-73.4593847,-1.45E-06,-85.70828795,-139.6815257,0,245.9965398,,,,
647.0399995,2527,-73.61393859,63.04781738,0,-12.95006836,0,-130.9022922,0,0,221.1545195,-63.83305052,111.0754637,-1.43E-06,108.4732513,208.6203991,0,-400.7024545,,,,
647.0479995,2527,184.7836175,-78.90607534,0,21.54689616,0,81.45690336,0,0,-152.3735693,44.15211485,-23.67346182,-1.42E-06,-81.02072941,-147.9254147,0,212.4044918,,,,
647.0559995,2527,-60.03408038,217.5004921,0,-60.98633637,0,-187.7690928,0,0,112.1287944,28.20503472,-31.60496438,-1.40E-06,-16.51702096,77.48072247,0,-143.8479428,,,,
647.0639995,2527,65.55003601,-135.0596919,0,37.68035169,0,41.23840541,0,0,62.11021446,-61.61144591,110.7901994,5.17E-07,66.54213972,75.05737446,0,-196.4942036,,,,
647.0719995,2527,91.69636881,138.6407075,0,-16.46814697,0,-63.01542712,0,0,-111.8237275,104.6033903,-91.04582828,2.33E-06,-88.73680413,-138.6493976,0,243.3929762,,,,
647.0799995,2527,-89.22369988,41.62961874,0,-17.81420075,0,-119.6380462,0,0,208.7662366,-69.26514961,90.46907791,1.75E-06,99.23122641,209.0927367,0,-399.9561494,,,,
647.0879995,2527,179.8780239,-73.12742704,0,22.67208787,0,78.54891428,0,0,-140.9988203,38.73932202,-19.52436266,1.78E-06,-64.07894369,-138.8640495,0,207.2972464,,,,
647.0959995,2527,-58.67252745,227.1859767,0,-53.05849848,0,-195.0160786,0,0,133.6609886,28.26745253,-10.91160179,1.88E-06,19.90533719,101.1145692,0,-152.778585,,,,
647.1039995,2527,69.45254743,-133.9974091,0,46.38765289,0,45.91801689,0,0,61.84987771,-62.58988642,112.9348654,1.73E-06,64.28989899,87.59666378,0,-200.5981022,,,,
647.1119995,2527,119.1669694,172.6493424,0,-4.614650096,0,-71.62769333,0,0,-95.69929313,110.4966074,-80.25934393,1.82E-06,-96.45542971,-134.4208118,0,235.554676,,,,
647.1199995,2527,-59.16698286,58.04398987,0,-4.55736419,0,-139.3487947,0,0,249.0269995,-53.23352633,126.6667795,1.73E-06,115.9590781,233.4688384,0,-428.4388169,,,,
647.1279995,2527,184.2308342,-119.3853268,0,23.23208757,0,87.02358896,0,0,-162.0876252,44.32581688,-32.01107689,1.76E-06,-91.01452621,-155.5496374,0,185.9123909,,,,
647.1359995,2527,-49.52941654,202.420556,0,-67.01384838,0,-175.6232151,0,0,75.54090407,27.33558448,-66.89719156,1.72E-06,-39.27344365,38.53000073,0,-149.009674,,,,
647.1439995,2527,103.7786774,-118.9085575,0,32.15287976,0,43.11510235,0,0,67.25128635,-51.85305412,110.9129768,1.72E-06,58.9278751,78.66375263,0,-203.4129,,,,
647.1519995,2527,130.3575942,142.502773,0,-23.58660637,0,-67.46564281,0,0,-102.2465171,116.4269217,-78.29320618,1.69E-06,-92.45569558,-133.4324902,0,234.7476878,,,,
647.1599995,2527,-74.49340298,15.35993011,0,-24.33887733,0,-116.0717079,0,0,178.0487855,-65.93328076,69.4337891,1.68E-06,81.9271841,183.980118,0,-405.892514,,,,
647.1679995,2528,202.7743644,-88.61276127,0,31.75187334,0,87.85844738,0,0,-172.7559565,37.99104108,-46.99358184,1.67E-06,-80.26306538,-149.4157207,0,202.8516439,,,,
647.1759995,2528,-20.46461554,250.6217794,0,-46.79411049,0,-209.8292578,0,0,138.660017,34.04155593,-11.42217015,1.65E-06,24.19199668,112.0774917,0,-168.8091427,,,,
647.1839995,2528,84.73748163,-137.2697131,0,28.19731288,0,15.14914169,0,0,76.0073559,-59.60468356,126.9343707,1.63E-06,77.96811128,99.36420632,0,-240.7542081,,,,
647.1919995,2528,89.66184731,105.2789563,0,-38.20979948,0,-69.09343005,0,0,-164.9884331,98.7708061,-128.2947197,1.62E-06,-131.4713094,-167.5333026,0,224.7836397,,,,
647.1999995,2528,-88.18573612,46.43379573,0,-19.42513183,0,-127.3800261,0,0,158.9828318,-66.61814223,49.87229214,1.60E-06,67.79438188,192.9828316,0,-407.2108804,,,,
647.2079995,2528,211.9622218,-17.04832787,0,54.04250968,0,52.71648829,0,0,-119.8736699,53.31852886,4.25527372,1.59E-06,-42.31033274,-92.77710682,0,172.2535009,,,,
647.2159995,2528,-23.77915304,266.2186867,0,-32.22760791,0,-237.9091524,0,0,171.2496162,48.23612564,39.35263539,1.57E-06,63.25270534,145.733673,0,-211.0304759,,,,
647.2239995,2528,82.97983719,-137.294827,0,37.02665858,0,-11.27768768,0,0,68.06366385,-53.20202626,136.8378791,1.56E-06,93.21521369,107.583837,0,-277.5526631,,,,
647.2319995,2528,118.0316643,151.2621729,0,-21.07489447,0,-121.2453585,0,0,-134.11355,105.1444619,-92.1491168,1.55E-06,-104.6026347,-134.0788476,0,165.6446235,,,,
647.2399995,2528,-75.91773949,31.92802719,0,-7.146827456,0,-170.4229216,0,0,192.9699856,-62.6263735,102.168472,1.53E-06,95.40399205,215.1386087,0,-484.3826806,,,,
647.2479995,2528,188.5040793,-104.4006256,0,48.16524319,0,54.23879664,0,0,-199.1045832,43.65907374,-38.34148926,1.52E-06,-85.0958107,-159.072758,0,151.1627226,,,,
647.2559995,2528,-29.83002884,237.5041472,0,-39.37275032,0,-229.1293187,0,0,82.30599427,39.55943818,-27.44390416,1.50E-06,-3.105264455,77.67748726,0,-184.3617294,,,,
647.2639995,2528,90.00019436,-131.4524111,0,40.89969794,0,-10.94013758,0,0,76.03844645,-47.31495312,145.4057975,1.49E-06,78.77692214,118.1264134,0,-268.2922665,,,,
647.2719995,2528,93.32728265,112.6199694,0,-24.82012449,0,-99.90055532,0,0,-161.2517337,110.9610143,-109.8127578,1.47E-06,-123.5118732,-143.1152335,0,189.2573948,,,,
647.2799995,2528,-90.11262099,21.12957228,0,-11.36302053,0,-150.3347108,0,0,139.5826621,-57.59395043,54.5494595,1.46E-06,62.69473139,186.2596388,0,-441.390714,,,,
647.2879995,2528,211.5228002,-78.51324327,0,61.47633384,0,51.57098796,0,0,-172.8128392,60.33984724,-23.51989744,1.45E-06,-71.62131485,-131.9141435,0,164.0481919,,,,
647.2959995,2528,-24.08810367,223.0767373,0,-25.90065088,0,-224.278714,0,0,97.65850586,57.60167613,-13.6992435,1.43E-06,21.38128685,98.31277366,0,-180.1823899,,,,
647.3039995,2528,79.54461897,-175.3388244,0,42.61853424,0,9.954473897,0,0,48.13842829,-39.33401042,122.8086104,1.42E-06,77.96189599,97.74762525,0,-251.2940027,,,,
647.3119995,2528,110.9563267,99.95548887,0,-30.84151253,0,-86.97239749,0,0,-170.5385791,113.4935396,-124.3061866,1.40E-06,-132.4603215,-178.6812975,0,210.5767801,,,,
647.3199995,2528,-50.50185302,53.35228152,0,-17.11015056,0,-155.6116383,0,0,163.0593652,-52.95364851,67.63014757,-5.17E-07,72.92766148,166.2756964,0,-428.4362509,,,,
647.3279995,2528,220.2782321,-96.81777886,0,53.76407882,0,62.06916645,0,0,-146.7329137,65.85757609,0.066299576,-2.33E-06,-45.96835056,-125.4492111,0,168.6408077,,,,
647.3359995,2528,-44.46808069,170.6027355,0,-40.28766569,0,-190.8689722,0,0,68.8036497,50.38704351,-45.79916844,-1.75E-06,-1.070215478,56.92075807,0,-148.8179155,,,,
647.3439995,2528,81.99773881,-161.2930426,0,46.42922121,0,32.41377081,0,0,15.67130791,-48.47753968,83.9415672,-1.78E-06,51.52792697,51.80486052,0,-208.8740735,,,,
647.3519995,2528,116.7330572,107.7703654,0,-1.319721592,0,-63.28025125,0,0,-159.5670782,118.0539254,-105.4941255,-1.88E-06,-108.0331767,-148.8631297,0,234.0907474,,,,
647.3599995,2528,-63.90597862,27.50211325,0,3.398611466,0,-121.4533175,0,0,147.8052697,-59.01270427,66.72200644,-1.73E-06,75.59662865,180.3099173,0,-398.4547473,,,,
647.3679995,2528,222.366348,-78.5377725,0,61.20165297,0,76.54452844,0,0,-162.9450632,49.27553381,-8.975604029,-1.82E-06,-49.0466769,-129.5305597,0,197.434077,,,,
647.3759995,2528,-36.78675488,200.6596163,0,-23.85819849,0,-191.0499909,0,0,85.97472389,44.55211788,-22.69981548,-1.73E-06,17.87606382,97.23438636,0,-145.3522513,,,,
647.3839995,2528,76.94583121,-153.058187,0,67.76490612,0,47.25148016,0,0,3.671755451,-52.71690372,82.12620602,-1.76E-06,49.6180003,71.47399482,0,-198.6206721,,,,
647.3919995,2528,125.7012348,140.897793,0,20.23051388,0,-53.86777756,0,0,-144.4416628,122.4223091,-92.19867225,-1.72E-06,-82.04550971,-135.7747485,0,254.7064343,,,,
647.3999995,2528,-67.45676426,39.99691686,0,15.38915442,0,-123.6634776,0,0,191.471901,-45.46670984,102.9485198,-1.72E-06,117.3318576,218.7819229,0,-396.7803335,,,,
647.4079995,2528,193.3844101,-104.1607218,0,55.24160318,0,88.41652569,0,0,-183.3470001,50.2485511,-26.04963885,-1.69E-06,-55.43343237,-136.5264665,0,202.8557964,,,,
647.4159995,2528,-52.37353064,203.4256325,0,-31.67420044,0,-183.1405359,0,0,72.84532602,39.67440944,-35.21939814,-1.68E-06,28.5078002,67.61330451,0,-138.4470393,,,,
647.4239995,2529,49.18972328,-174.561557,0,58.87961758,0,52.04687306,0,0,20.20420507,-55.01122501,104.0609078,-1.67E-06,80.55320465,58.62987339,0,-209.1052712,,,,
647.4319995,2529,78.06066689,97.08638246,0,7.519195345,0,-37.53512757,0,0,-179.2084543,113.5286704,-112.2150971,-1.65E-06,-101.7528237,-181.9915285,0,259.5157036,,,,
647.4399995,2529,-82.89736635,60.16647607,0,16.87889305,0,-120.2361143,0,0,164.9884197,-53.72949583,83.3491049,-1.63E-06,96.90502936,169.759528,0,-385.3006774,,,,
647.4479995,2529,205.0924801,-75.26823003,0,73.31863653,0,81.7003546,0,0,-149.6996589,56.26325144,10.54494575,-1.62E-06,-32.4010608,-132.7839266,0,196.481111,,,,
647.4559995,2529,-39.58797627,210.6028988,0,-10.99793753,0,-178.9788827,0,0,79.3579081,52.43009239,-24.54673031,-1.60E-06,45.079702,82.07991092,0,-128.0234107,,,,
647.4639995,2529,83.83263871,-129.7248973,0,81.37069682,0,49.95884431,0,0,19.50387214,-40.19014448,97.2981315,-1.59E-06,102.0098093,84.18522903,0,-188.152911,,,,
647.4719995,2529,118.8271713,139.4228102,0,27.55477422,0,-51.43860352,0,0,-138.0300771,130.0960062,-85.92502622,-1.57E-06,-59.71879456,-140.6011668,0,255.1838792,,,,
647.4799995,2529,-69.18635602,67.49184428,0,32.5860937,0,-120.0779743,0,0,178.3432427,-41.37927069,84.28674285,-1.56E-06,124.9442631,192.7613636,0,-389.8106731,,,,
647.4879995,2529,213.0599445,-50.02991238,0,97.23321341,0,89.25183259,0,0,-150.5730399,71.76711945,3.066772352,-1.55E-06,-12.37630198,-103.0939041,0,208.1347468,,,,
647.4959995,2529,-33.87261156,241.2210315,0,6.633455497,0,-194.3932876,0,0,128.4262691,73.00082036,18.61377959,-1.53E-06,78.73392621,126.9462829,0,-138.9597206,,,,
647.5039995,2529,68.33436699,-134.7796071,0,74.28274614,0,23.72869087,0,0,53.72085247,-33.34760566,130.4438148,-1.52E-06,123.9832891,99.6538745,0,-224.7610356,,,,
647.5119995,2529,103.6353166,132.8161976,0,11.53235185,0,-73.07713289,0,0,-156.1481441,124.5249126,-91.60057958,-1.50E-06,-62.78545587,-150.4059943,0,228.7451942,,,,
647.5199995,2529,-78.53787403,52.46018403,0,20.26812947,0,-140.2498614,0,0,181.5301195,-44.22455503,97.90405034,-1.49E-06,153.3671385,190.8514252,0,-416.2270355,,,,
647.5279995,2529,193.8316584,-87.76113928,0,81.93124513,0,83.64286461,0,0,-164.5316682,61.15095692,-13.86413905,-1.47E-06,25.16352497,-134.7811523,0,192.6784522,,,,
647.5359995,2529,-40.13707112,232.2705613,0,-7.463363019,0,-190.2340357,0,0,98.78236157,56.67895591,-25.06318904,-1.46E-06,107.8942581,84.11580199,0,-131.0554465,,,,
647.5439995,2529,82.66173493,-122.0618568,0,67.00416384,0,29.33493179,0,0,83.82228304,-40.84401031,135.3710355,-1.45E-06,187.04051,89.65214496,0,-220.4794575,,,,
647.5519995,2529,112.3616084,142.0974628,0,2.481934274,0,-65.98633646,0,0,-111.7765461,120.5879233,-79.92160144,-1.43E-06,5.276503391,-140.9814096,0,237.7048681,,,,
647.5599995,2529,-75.58646136,67.59207108,0,8.839026339,0,-137.9859138,0,0,215.3837292,-51.05230227,100.0661671,-1.42E-06,196.8067511,217.6345608,0,-403.5311779,,,,
647.5679995,2529,218.1571835,-39.86212227,0,73.16879981,0,71.24654211,0,0,-106.1046372,57.20260938,12.28016052,-1.40E-06,51.83534137,-109.3568031,0,192.5585083,,,,
647.5759995,2529,-15.80931532,282.8411657,0,-11.90301035,0,-218.875284,0,0,186.4476024,61.10478584,28.15302918,5.17E-07,150.9538231,134.5048031,0,-151.5023132,,,,
647.5839995,2529,64.36672179,-136.0066927,0,60.23441146,0,15.86775449,0,0,120.3950882,-44.22164728,152.6900221,2.33E-06,209.9410438,134.9822235,0,-239.7357872,,,,
647.5919995,2529,83.31033599,129.7819364,0,-11.2571916,0,-60.06081518,0,0,-143.4329087,107.7855144,-123.167663,1.75E-06,-27.31702011,-163.481451,0,247.5364943,,,,
647.5999995,2529,-84.96287158,102.7610908,0,5.636756223,0,-146.0096928,0,0,229.9060008,-50.71199211,94.87777869,1.78E-06,201.3921587,215.2933033,0,-404.4078344,,,,
647.6079995,2529,178.3258245,-75.84192223,0,74.20494706,0,77.24755431,0,0,-89.69368644,63.43355929,29.94001297,1.88E-06,84.05895546,-85.96909558,0,181.026576,,,,
647.6159995,2529,-84.69401693,197.8553093,0,-31.96552569,0,-174.7220773,0,0,102.6433642,51.03416336,-36.4911141,1.73E-06,103.1283311,70.04781648,0,-116.5700506,,,,
647.6239995,2529,43.65153012,-127.8903699,0,43.0392935,0,37.90779709,0,0,77.31409264,-49.78214828,109.1799112,1.82E-06,165.8728253,79.05189152,0,-198.8936703,,,,
647.6319995,2529,72.74452733,126.3796375,0,-16.96336601,0,-53.2171585,0,0,-116.3767782,117.8987901,-91.28493739,1.73E-06,-7.995775619,-135.2059293,0,250.3353186,,,,
647.6399995,2529,-121.316034,44.73430173,0,-8.238884825,0,-114.0611617,0,0,190.9670462,-51.48773402,76.73702528,1.76E-06,175.5358992,194.9079735,0,-392.8482128,,,,
647.6479995,2529,172.2739494,-69.74873193,0,71.18221087,0,97.84645486,0,0,-122.2585753,62.44826372,10.02591654,1.72E-06,51.93851351,-111.7542566,0,202.4559089,,,,
647.6559995,2529,-89.26499026,207.3132519,0,-20.52343278,0,-164.4394248,0,0,109.2301524,60.25206803,-17.31440905,1.72E-06,111.7532925,105.6322799,0,-114.0075834,,,,
647.6639995,2529,24.02558501,-136.5537367,0,61.68273556,0,58.13628611,0,0,55.71675349,-43.9097275,97.13297008,1.69E-06,154.9739684,91.60612731,0,-195.7397035,,,,
647.6719995,2529,71.93831459,144.7980871,0,12.93317716,0,-35.70774388,0,0,-120.8929174,130.3013168,-91.53848644,1.68E-06,-10.20525852,-125.1275368,0,262.2404803,,,,
647.6799995,2530,-132.1075714,29.43147316,0,-0.597117482,0,-91.71319312,0,0,191.4342882,-38.54538578,84.65532292,1.67E-06,176.5777664,215.9646017,0,-376.4222282,,,,
647.6879995,2530,148.5103631,-107.3193951,0,46.59636671,0,124.3871198,0,0,-150.6652336,59.00844935,-21.53814169,1.65E-06,13.82851678,-129.3511057,0,230.3023879,,,,
647.6959995,2530,-93.2131381,201.8655942,0,-41.75447817,0,-147.6484884,0,0,100.6136526,53.3805727,-42.92376836,1.63E-06,80.98560018,86.06510071,0,-86.22113636,,,,
647.7039995,2530,29.23707931,-149.1965513,0,45.6736798,0,78.60383858,0,0,59.54742442,-49.79535683,85.20875524,1.62E-06,149.5440749,90.29515527,0,-170.9368247,,,,
647.7119995,2530,81.10884748,125.8207826,0,-1.415711399,0,-16.19980402,0,0,-113.1471698,120.0516641,-101.6424937,1.60E-06,-21.0490892,-134.9757282,0,290.7287257,,,,
647.7199995,2530,-121.3175406,27.24968567,0,0.270034434,0,-80.08575408,0,0,206.4623129,-47.12287673,82.56757621,1.59E-06,158.7737353,202.5739958,0,-352.029178,,,,
647.7279995,2530,149.2792105,-111.0358429,0,59.93954153,0,150.185938,0,0,-161.3199137,57.56838765,-39.27589657,1.57E-06,-14.95883877,-154.0574294,0,262.6320961,,,,
647.7359995,2530,-99.75286488,201.1182054,0,-23.93461772,0,-115.601142,0,0,92.74512177,63.58518225,-51.46242129,1.56E-06,46.51477019,68.90978326,0,-47.69056808,,,,
647.7439995,2530,15.20940816,-154.5489159,0,55.3381575,0,103.344508,0,0,63.10602194,-34.24901377,101.130393,1.55E-06,122.6614818,93.72692829,0,-142.796786,,,,
647.7519995,2530,71.49597382,132.8441126,0,-5.881459214,0,0.372807249,0,0,-124.2440319,134.1166794,-98.86769198,1.53E-06,-37.72075591,-139.7774274,0,314.9612794,,,,
647.7599995,2530,-123.1706425,55.55831828,0,-0.477886725,0,-76.48455697,0,0,208.9527495,-29.31396161,89.34393601,1.52E-06,166.8673271,214.3868569,0,-340.5891486,,,,
647.7679995,2530,151.8180341,-95.99014184,0,68.79321392,0,149.3582737,0,0,-144.4132269,76.64287521,-14.73600216,1.50E-06,2.719930031,-118.1303575,0,263.7095197,,,,
647.7759995,2530,-81.69723333,214.9443959,0,-17.33347295,0,-118.7767962,0,0,105.6824572,77.24182059,-30.5999912,1.49E-06,56.28317529,96.97208385,0,-41.75003519,,,,
647.7839995,2530,44.94191998,-131.0842505,0,66.85806727,0,95.79132935,0,0,83.60029509,-21.32076418,127.9989724,1.47E-06,130.1604802,120.5320275,0,-135.7634608,,,,
647.7919995,2530,106.6702177,157.3746385,0,19.66194732,0,-10.60704252,0,0,-88.00469837,153.6939636,-57.44791682,1.46E-06,-28.32187945,-89.73847596,0,322.8461107,,,,
647.7999995,2530,-101.9669921,55.12376845,0,19.15826409,0,-81.91243155,0,0,229.2663423,-18.03130794,118.1481011,1.45E-06,161.1964963,251.7421759,0,-337.4592349,,,,
647.8079995,2530,146.8431126,-125.6201483,0,67.91632906,0,155.2256634,0,0,-162.8535756,71.81175652,-19.04443566,1.43E-06,-38.32254087,-139.6227042,0,262.0863429,,,,
647.8159995,2530,-89.54113927,216.4599981,0,-21.93092106,0,-126.0322796,0,0,103.7465892,75.50403329,-33.09068609,1.42E-06,29.4181169,85.49215881,0,-55.38727832,,,,
647.8239995,2530,6.788209409,-159.2140403,0,49.96381211,0,95.04382667,0,0,74.33788582,-28.01771722,118.1931592,1.40E-06,111.1280486,111.3303858,0,-163.4213725,,,,
647.8319995,2530,37.4159203,79.09112099,0,-19.38458937,0,17.56026657,0,0,-163.0813819,125.2017497,-127.9186356,-5.17E-07,-98.52354616,-172.7599529,0,309.3037146,,,,
647.8399995,2530,-109.2052448,85.59759744,0,6.744538909,0,-84.34004461,0,0,215.4340145,-37.06725872,82.30127894,-2.33E-06,127.7230352,227.4685998,0,-356.4491179,,,,
647.8479995,2530,184.6556301,-48.85205778,0,89.98583257,0,117.0227802,0,0,-77.54396037,79.70486739,47.06387688,-1.75E-06,13.07454332,-54.13134573,0,209.2283723,,,,
647.8559995,2530,-87.16997027,207.5628159,0,-7.090296147,0,-147.732066,0,0,129.2190748,74.66672389,-0.651469634,-1.78E-06,46.54223793,116.739211,0,-104.9881839,,,,
647.8639995,2530,22.36214301,-136.4921212,0,68.89905883,0,67.86442544,0,0,67.58104228,-36.2437426,111.5505612,-1.88E-06,96.09531126,110.7567071,0,-200.5534444,,,,
647.8719995,2530,70.14745837,124.8863346,0,9.601072682,0,-25.75708469,0,0,-125.4624939,134.7414098,-88.38937858,-1.73E-06,-82.03628899,-131.7739148,0,258.1696147,,,,
647.8799995,2530,-137.3763914,17.81340837,0,10.51024476,0,-97.71285273,0,0,191.7038147,-35.49975469,74.45709868,-1.82E-06,105.2314927,215.2462858,0,-402.5001379,,,,
647.8879995,2530,141.2098888,-126.0620025,0,73.72780584,0,124.0131463,0,0,-179.0530856,58.81939859,-48.32744935,-1.73E-06,-64.29238408,-129.2823053,0,189.8022946,,,,
647.8959995,2530,-86.01932295,218.1981364,0,-16.41789043,0,-155.9920577,0,0,66.65822996,55.79508704,-63.28239266,-1.76E-06,-7.36367814,70.07386282,0,-130.4214503,,,,
647.9039995,2530,38.75646653,-119.9339663,0,70.94772701,0,46.8803106,0,0,88.61205171,-42.72112567,132.8747984,-1.72E-06,97.20301595,132.0584459,0,-253.7940808,,,,
647.9119995,2530,87.94379934,139.1089618,0,18.46070806,0,-52.75562821,0,0,-93.04368031,132.1079546,-57.12404536,-1.72E-06,-72.77088685,-94.65694142,0,206.9425001,,,,
647.9199995,2530,-112.1401859,60.47445402,0,18.43617161,0,-131.7359278,0,0,202.7403402,-39.92483322,94.43206103,-1.69E-06,99.79307533,214.153486,0,-452.0936571,,,,
647.9279995,2530,174.8315413,-86.25793176,0,84.08201936,0,85.58514053,0,0,-138.6063524,60.53241745,3.002451442,-1.68E-06,-38.7418008,-126.4311218,0,122.9418559,,,,
647.9359995,2531,-69.35004164,212.9142739,0,-5.3710617,0,-179.9023102,0,0,104.5477121,64.28466194,-19.22089281,-1.67E-06,22.2879638,83.37953664,0,-193.212792,,,,
647.9439995,2531,14.1890255,-171.4123025,0,65.22968883,0,51.62469289,0,0,35.81166397,-46.29061274,98.16227797,-1.65E-06,59.21623729,81.75168785,0,-282.0808007,,,,
647.9519995,2531,40.53015723,70.51701441,0,-6.424476333,0,-25.99348239,0,0,-193.6499881,116.9466736,-135.001203,-1.63E-06,-144.4284916,-191.1645175,0,208.1496446,,,,
647.9599995,2531,-164.6196433,-8.296071304,0,-10.64430305,0,-83.0857976,0,0,120.5799585,-56.45600651,26.45447626,-1.62E-06,33.35075845,137.0166306,0,-430.8548299,,,,
647.9679995,2531,141.5305032,-117.3575135,0,66.19047944,0,140.9722269,0,0,-205.4971073,45.20835803,-54.57842921,-1.60E-06,-110.3041078,-167.9591272,0,181.0677079,,,,
647.9759995,2531,-74.08997768,216.0782629,0,-16.75862783,0,-149.0749206,0,0,91.87548923,59.21257814,-31.91785689,-1.59E-06,-4.443458087,94.52152116,0,-134.0556332,,,,
647.9839995,2531,16.6533265,-172.3887435,0,51.19285977,0,70.43329995,0,0,41.18686655,-52.86450803,99.67630729,-1.57E-06,72.64863633,100.0388558,0,-247.2247391,,,,
647.9919995,2531,65.39629038,103.7157009,0,-5.304641632,0,-15.46135329,0,0,-185.9955158,109.6164142,-137.9429404,-1.56E-06,-131.5908293,-164.8182113,0,240.0858365,,,,
647.9999995,2531,-129.3660961,26.86074531,0,2.518329796,0,-97.36483021,0,0,186.2736264,-52.05744735,75.72239962,-1.55E-06,83.48709092,217.7822051,0,-431.5520781,,,,
648.0079995,2531,120.7298607,-174.0878835,0,59.71034194,0,149.6943652,0,0,-206.0444686,36.91009755,-50.25895058,-1.53E-06,-96.09652726,-158.0556809,0,172.6024289,,,,
648.0159995,2531,-116.7554107,168.7626772,0,-27.23237599,0,-107.3946306,0,0,-2.050577435,38.70066288,-111.3761207,-1.52E-06,-86.76014276,9.736275655,0,-100.1303323,,,,
648.0239995,2531,17.08634348,-155.0043315,0,72.76245499,0,106.9298556,0,0,29.30693787,-52.66727481,95.04805711,-1.50E-06,32.69274662,77.72602073,0,-215.6313938,,,,
648.0319995,2531,81.79986188,116.0492814,0,33.13581882,0,20.55121631,0,0,-150.236371,122.2401043,-89.10777216,-1.49E-06,-105.6433148,-158.751261,0,271.6738791,,,,
648.0399995,2531,-91.92803381,90.53065301,0,31.71775858,0,-84.49875583,0,0,207.3758184,-41.1826446,108.9241947,-1.47E-06,103.6363504,212.1008672,0,-389.7612647,,,,
648.0479995,2531,183.5081293,-89.56624092,0,82.76864763,0,125.4108838,0,0,-120.8858953,57.21026282,43.44564214,-1.46E-06,-24.57972031,-91.00016155,0,174.9587049,,,,
648.0559995,2531,-85.25747162,180.0530491,0,-15.11756638,0,-132.4792289,0,0,68.09592672,52.62582146,-29.33568762,-1.45E-06,5.562818148,65.60774003,0,-114.0702531,,,,
648.0639995,2531,22.19079286,-167.669851,0,64.44779241,0,93.3034322,0,0,13.01586241,-58.21082791,86.23027428,-1.43E-06,43.02077861,57.29545417,0,-214.2886057,,,,
648.0719995,2531,78.1944089,90.40975344,0,12.30560818,0,17.39124785,0,0,-184.159615,115.1933796,-113.5673759,-1.42E-06,-132.5091126,-174.2192656,0,271.3196499,,,,
648.0799995,2531,-124.0186636,26.85415414,0,4.126822244,0,-67.73218363,0,0,153.3592412,-50.48216418,68.58820501,-1.40E-06,82.72421629,191.4566891,0,-381.3543823,,,,
648.0879995,2531,159.8487263,-122.9532961,0,58.73554139,0,149.0434645,0,0,-186.8289182,41.5779353,-15.80547298,5.17E-07,-62.54838757,-132.7686611,0,201.3563493,,,,
648.0959995,2531,-82.12424066,183.0344068,0,-23.52700497,0,-118.0990352,0,0,52.93766463,45.0548156,-39.30116217,2.33E-06,-8.093593076,72.90771732,0,-96.72721371,,,,
648.1039995,2531,23.24963735,-167.5102163,0,70.56193793,0,97.51490546,0,0,29.3684967,-61.03892885,107.4747655,1.75E-06,70.92354861,105.4340701,0,-211.8669573,,,,
648.1119995,2531,91.55383216,129.6362493,0,30.33972024,0,-0.645285304,0,0,-159.8090548,111.2635074,-94.0655718,1.78E-06,-102.4507158,-127.8101298,0,267.4497337,,,,
648.1199995,2531,-102.2248294,79.4708209,0,25.548297,0,-102.4345958,0,0,203.0542416,-46.34334168,101.4374889,1.88E-06,117.7730874,244.0252735,0,-411.5077241,,,,
648.1279995,2531,169.5421217,-111.751658,0,69.10872555,0,121.3873994,0,0,-153.8267846,48.1203553,-2.15208561,1.73E-06,-35.94961414,-107.2280495,0,156.3104161,,,,
648.1359995,2531,-56.33788236,208.3115153,0,-19.75502644,0,-149.5727619,0,0,66.87915198,42.64426857,-46.56474997,1.82E-06,-3.798055633,63.24897932,0,-136.7505681,,,,
648.1439995,2531,60.88206566,-140.6105075,0,77.16579169,0,58.83547046,0,0,72.99967337,-64.39437286,131.6942395,1.73E-06,83.57247445,108.3689022,0,-260.8746143,,,,
648.1519995,2531,91.91162831,76.95959551,0,26.74334096,0,-10.93700043,0,0,-147.0157691,108.0197285,-81.03302834,1.76E-06,-101.0607044,-139.9636101,0,230.5993724,,,,
648.1599995,2531,-126.2029553,4.859342666,0,6.867825128,0,-86.06390325,0,0,143.985921,-64.78967643,55.75211602,1.72E-06,73.70110854,177.550326,0,-410.3526507,,,,
648.1679995,2531,157.3991792,-139.2703743,0,52.30526916,0,129.848249,0,0,-203.9343093,25.09211389,-38.22459074,1.72E-06,-93.23513796,-165.257376,0,169.1375573,,,,
648.1759995,2531,-77.26618187,191.3184806,0,-30.0221287,0,-152.4325159,0,0,51.2929044,31.63650248,-50.3086074,1.69E-06,-37.43431108,53.39133315,0,-145.7383319,,,,
648.1839995,2531,18.67677151,-171.8097934,0,63.93282046,0,63.0647415,0,0,29.25801923,-72.78431167,105.0554168,1.68E-06,56.37830096,87.34836449,0,-275.2374778,,,,
648.1919995,2532,63.93534838,65.65002377,0,15.53669674,0,-3.977934044,0,0,-208.2159626,100.3585995,-118.4670685,1.67E-06,-138.825897,-171.34261,0,235.3892196,,,,
648.1999995,2532,-132.7662941,18.89838758,0,6.076861572,0,-92.59158822,0,0,129.6084611,-67.46598173,54.22260108,1.65E-06,53.82329242,199.1361949,0,-418.5496718,,,,
648.2079995,2532,143.3420141,-148.2255214,0,51.39039414,0,121.8318106,0,0,-193.9164452,24.27153469,-26.52756342,1.63E-06,-84.17488181,-121.7052486,0,139.6363992,,,,
648.2159995,2532,-95.74724528,168.1518291,0,-39.36367113,0,-153.3884161,0,0,42.42990509,25.50462919,-66.96835048,1.62E-06,-47.66276073,69.54614669,0,-165.5630079,,,,
648.2239995,2532,13.78078094,-170.8493852,0,53.08948219,0,58.66754109,0,0,30.67545782,-83.49364775,80.81490082,1.60E-06,27.05272512,92.18080023,0,-296.4440427,,,,
648.2319995,2532,73.49111566,93.51065647,0,11.94684683,0,-23.1377702,0,0,-171.8281979,96.157524,-127.012997,1.59E-06,-137.1133836,-171.2381005,0,192.021855,,,,
648.2399995,2532,-118.1931668,46.91251343,0,12.89007605,0,-119.4663463,0,0,182.6172553,-66.07428883,54.50846884,1.57E-06,63.94985795,198.3246799,0,-475.8673568,,,,
648.2479995,2532,161.4053621,-129.6368796,0,64.80888942,0,106.6285934,0,0,-146.7256385,26.63795132,-28.59797153,1.56E-06,-87.15450645,-125.7812816,0,98.58522293,,,,
648.2559995,2532,-75.98679452,198.6989025,0,-27.07457148,0,-162.2140247,0,0,92.59958812,33.7653702,-65.18592858,1.55E-06,-30.58556657,69.80447355,0,-185.8799438,,,,
648.2639995,2532,23.75565241,-152.1479345,0,56.40305177,0,51.86917073,0,0,91.90017159,-74.09396742,99.32375565,1.53E-06,45.34765847,112.1004956,0,-318.2311516,,,,
648.2719995,2532,89.47293245,123.6821872,0,5.231450103,0,-39.73906393,0,0,-113.2744449,99.54135663,-102.9524067,1.52E-06,-141.5794877,-140.743853,0,171.4785452,,,,
648.2799995,2532,-93.811437,98.37053148,0,3.634082791,0,-155.7713063,0,0,250.4905313,-60.60306244,96.68708917,1.50E-06,96.04303659,264.4585785,0,-511.1568001,,,,
648.2879995,2532,163.5029259,-143.0903499,0,50.80748924,0,83.44085939,0,0,-114.5075891,31.10770207,2.486510746,1.49E-06,-51.84560339,-74.42564615,0,54.15933956,,,,
648.2959995,2532,-67.49020593,181.9316067,0,-42.92927389,0,-182.9732294,0,0,67.84113435,28.60442363,-77.97161007,1.47E-06,-57.6411097,57.25604838,0,-209.659424,,,,
648.3039995,2532,67.7167255,-114.7583265,0,56.891005,0,8.650312099,0,0,99.06048502,-78.90195392,113.4069335,1.46E-06,44.28845333,130.1272426,0,-353.1901721,,,,
648.3119995,2532,110.440341,86.81850459,0,7.210127633,0,-56.70976594,0,0,-99.55071782,99.86771943,-73.16666444,1.45E-06,-119.3082752,-120.1757333,0,127.5266667,,,,
648.3199995,2532,-98.37541723,30.94114399,0,-9.524901488,0,-138.9454943,0,0,202.7119703,-66.69041591,63.3486615,1.43E-06,55.0902126,202.7166479,0,-517.1479756,,,,
648.3279995,2532,187.0155924,-116.4690721,0,42.34128531,0,85.93588128,0,0,-135.4669791,26.00276591,-24.33065067,1.42E-06,-77.91913027,-126.3509072,0,64.64556978,,,,
648.3359995,2532,-50.17804667,208.3802088,0,-45.94106141,0,-187.2153828,0,0,110.9389062,35.93472346,-45.60360857,1.40E-06,-15.92523633,59.84339327,0,-223.1820554,,,,
648.3439995,2532,63.61336357,-120.7774846,0,49.870294,0,13.97902555,0,0,116.6507659,-73.84567772,124.2686771,-5.17E-07,75.50592497,125.3420463,0,-372.6242682,,,,
648.3519995,2532,128.8770677,132.6281292,0,6.839584248,0,-69.92694971,0,0,-91.60764182,102.226858,-71.80144627,-2.33E-06,-102.2244323,-121.0004836,0,111.6722649,,,,
648.3599995,2532,-79.20955792,77.69818094,0,-0.790190132,0,-172.1126574,0,0,248.9550627,-60.16117045,112.0343938,-1.75E-06,92.498006,225.6303413,0,-560.5272095,,,,
648.3679995,2532,176.2861003,-130.4725337,0,47.99050567,0,60.62534634,0,0,-110.8723974,26.28202294,16.93062321,-1.78E-06,-62.09389977,-117.3511777,0,10.03702452,,,,
648.3759995,2532,-74.87762797,174.3656019,0,-50.36336097,0,-203.3925185,0,0,90.00472152,25.91042084,-53.91206255,-1.88E-06,-44.37273219,40.8158022,0,-257.4151253,,,,
648.3839995,2532,39.7778093,-140.0636631,0,46.45397772,0,-0.799818946,0,0,91.18671416,-87.93482211,104.7961262,-1.73E-06,44.72424722,99.96380386,0,-397.4562186,,,,
648.3919995,2532,106.6390005,115.9281236,0,12.15253119,0,-80.96101292,0,0,-99.60580665,93.39230603,-71.70458624,-1.82E-06,-103.0205589,-122.8695062,0,89.6207265,,,,
648.3999995,2532,-120.4319005,17.85457143,0,-4.734946781,0,-163.6138079,0,0,217.3233195,-73.87079427,83.46416549,-1.73E-06,84.96975025,213.3756711,0,-569.7349058,,,,
648.4079995,2532,139.7733076,-178.2440525,0,40.50388057,0,81.0027943,0,0,-174.4989297,2.809166058,-47.33190598,-1.76E-06,-105.6794044,-158.809353,0,24.99457264,,,,
648.4159995,2532,-86.98456036,174.2028212,0,-40.77291835,0,-193.4842527,0,0,75.03661957,13.02443738,-66.48219851,-1.72E-06,-52.68096463,49.25797336,0,-245.7766012,,,,
648.4239995,2532,9.749644725,-177.1024267,0,53.53918517,0,21.42925811,0,0,90.67787179,-92.00451193,107.1895836,-1.72E-06,62.89541693,106.9516052,0,-386.4990537,,,,
648.4319995,2532,81.0107446,95.45294415,0,9.460874449,0,-52.18619334,0,0,-134.0925941,89.88425162,-110.992149,-1.69E-06,-128.9838019,-168.6872177,0,136.0538197,,,,
648.4399995,2532,-117.5356906,49.87613575,0,-4.096735765,0,-159.1968896,0,0,229.7124145,-67.13756272,93.79362719,-1.68E-06,86.00836271,223.9675214,0,-541.5032683,,,,
648.4479995,2533,138.5838547,-171.7670059,0,38.91387767,0,82.95486144,0,0,-139.2945267,21.83830189,1.026145444,-1.67E-06,-71.4440816,-118.7892358,0,19.42551049,,,,
648.4559995,2533,-82.3407958,188.0630593,0,-46.87020854,0,-191.9165007,0,0,60.71271627,34.45308155,-60.52396284,-1.65E-06,-61.91532325,41.89744039,0,-239.3918317,,,,
648.4639995,2533,25.98658255,-156.6419973,0,47.6096522,0,9.515066051,0,0,78.74024702,-76.37527089,122.8376535,-1.63E-06,58.48375182,120.5174579,0,-395.098387,,,,
648.4719995,2533,76.86345464,59.94420356,0,-2.066421421,0,-48.9366001,0,0,-146.788173,96.53493124,-90.91741122,-1.62E-06,-122.8717323,-153.289809,0,120.8655559,,,,
648.4799995,2533,-120.6565464,37.2837104,0,-12.90762357,0,-149.8765307,0,0,191.5521298,-66.45727537,72.94405778,-1.60E-06,51.10452843,181.6867962,0,-525.7966731,,,,
648.4879995,2533,160.9815902,-134.428365,0,49.45577952,0,71.24237487,0,0,-131.9478792,24.3758457,7.096517131,-1.59E-06,-78.1313525,-125.7248778,0,27.8656438,,,,
648.4959995,2533,-88.29896297,165.5913533,0,-38.25828887,0,-190.8636,0,0,76.78567638,34.3686372,-40.9278215,-1.57E-06,-33.60047388,62.48050935,0,-242.5533883,,,,
648.5039995,2533,0.571820374,-187.8330477,0,51.06737829,0,29.71161643,0,0,48.74362356,-79.99577127,99.93098343,-1.56E-06,34.52422202,93.23727796,0,-370.8518294,,,,
648.5119995,2533,95.46356447,117.4500611,0,19.13119738,0,-57.85417702,0,0,-132.8676214,107.4362434,-78.79146141,-1.55E-06,-137.2656578,-135.4616028,0,142.619295,,,,
648.5199995,2533,-102.4750573,73.78644855,0,7.265277143,0,-174.9154896,0,0,244.2770982,-46.5256767,134.604879,-1.53E-06,105.3816903,257.2386619,0,-541.0782246,,,,
648.5279995,2533,143.7749152,-167.6559989,0,51.89919702,0,67.06247114,0,0,-139.4021757,31.94810427,20.10626471,-1.52E-06,-54.47685473,-104.8765254,0,14.93716778,,,,
648.5359995,2533,-96.18216718,155.8196804,0,-40.34626073,0,-198.4092711,0,0,61.25053335,35.55242949,-57.40294702,-1.50E-06,-52.54411707,51.70277582,0,-243.1643591,,,,
648.5439995,2533,-6.752235496,-201.0850061,0,46.45844825,0,17.19897367,0,0,62.41097262,-80.54150409,100.2632075,-1.49E-06,38.83815318,93.68045403,0,-386.9736766,,,,
648.5519995,2533,58.0698367,57.52882299,0,8.232844817,0,-45.52598389,0,0,-168.1118337,94.57521355,-114.0912808,-1.47E-06,-149.4641611,-178.4384021,0,132.3034556,,,,
648.5599995,2533,-130.3722909,53.33794688,0,9.123405387,0,-153.8914977,0,0,200.177803,-63.78027065,86.20373191,-1.46E-06,64.50926539,211.7258875,0,-531.5109965,,,,
648.5679995,2533,153.5765341,-135.2475087,0,76.8383531,0,80.55467805,0,0,-129.1165613,28.77712024,25.24917777,-1.45E-06,-56.44181543,-94.99905989,0,34.28607946,,,,
648.5759995,2533,-88.09938734,162.0018171,0,-20.39954469,0,-184.2052331,0,0,78.04385653,40.39824535,-30.31508415,-1.43E-06,-17.40673656,58.13951298,0,-220.8670948,,,,
648.5839995,2533,-7.68300041,-207.3361552,0,43.71208605,0,23.19559869,0,0,59.56596803,-84.58968285,106.7829449,-1.42E-06,61.63613586,84.72045778,0,-372.0755807,,,,
648.5919995,2533,56.52821832,47.39345566,0,-4.62973174,0,-43.63952775,0,0,-184.9246084,86.39694839,-122.6458239,-1.40E-06,-140.4321921,-178.4429618,0,144.397616,,,,
648.5999995,2533,-146.5987697,16.30970563,0,-2.649039908,0,-134.3434008,0,0,152.3869495,-73.14253143,54.79357456,5.17E-07,53.81886377,182.5987047,0,-511.5994064,,,,
648.6079995,2533,142.4310114,-153.4896031,0,72.05772897,0,107.2087755,0,0,-171.6037719,24.59758353,-3.925262205,2.33E-06,-82.41307153,-138.4414001,0,61.06279018,,,,
648.6159995,2533,-95.05050192,168.7920802,0,-14.78289004,0,-162.5400261,0,0,61.37313323,46.89672057,-39.12754235,1.75E-06,-44.74386324,52.11526994,0,-194.1782265,,,,
648.6239995,2533,-14.64923414,-193.4309724,0,54.67054228,0,47.16701136,0,0,30.00457363,-83.86051053,88.79419187,1.78E-06,31.60184165,86.03910127,0,-348.298137,,,,
648.6319995,2533,66.2873076,76.32914959,0,4.468019236,0,-31.08626461,0,0,-173.073455,87.17196641,-105.0603014,1.88E-06,-132.5624054,-170.1670949,0,153.2949836,,,,
648.6399995,2533,-151.5783119,21.62416858,0,2.870190346,0,-133.7236829,0,0,197.3776685,-71.73877506,94.25141452,1.73E-06,82.19719964,199.8602304,0,-522.2744937,,,,
648.6479995,2533,122.7006936,-161.3821317,0,72.82104786,0,110.9429291,0,0,-183.2700456,7.044154951,-17.77399588,1.82E-06,-83.69619356,-159.674397,0,52.96478095,,,,
648.6559995,2533,-92.34817758,191.1236315,0,-13.24579425,0,-166.12458,0,0,66.26111156,30.38845784,-32.39742668,1.73E-06,-30.40956385,46.61621882,0,-210.7867458,,,,
648.6639995,2533,-13.2167076,-197.5639011,0,58.83769299,0,47.87889042,0,0,68.27977574,-84.26085446,130.5174662,1.76E-06,57.24200773,95.50239056,0,-367.1707866,,,,
648.6719995,2533,51.63353965,46.01582283,0,0.446512531,0,-11.11583849,0,0,-208.4326784,83.42606528,-129.6120318,1.72E-06,-159.242136,-224.8555551,0,180.1466299,,,,
648.6799995,2533,-149.4363877,28.03079043,0,-2.010969864,0,-124.7215311,0,0,172.9263192,-71.2611999,75.1347895,1.72E-06,65.94188062,177.77218,0,-492.3502786,,,,
648.6879995,2533,140.894156,-152.9599726,0,73.86954214,0,104.9549595,0,0,-148.1067428,21.06882265,12.53030981,1.69E-06,-68.28249706,-114.6929659,0,55.32237152,,,,
648.6959995,2533,-81.3603827,181.3786905,0,-18.28570733,0,-169.6376743,0,0,54.80357163,36.86025562,-48.29372576,1.68E-06,-45.5121804,44.37830922,0,-198.46782,,,,
648.7039995,2534,2.192596053,-191.0223873,0,58.55154311,0,33.0421731,0,0,67.17375981,-84.96057783,122.318476,1.67E-06,53.41599891,98.54832014,0,-373.1269329,,,,
