Time:125Hz,Epoch,FP1,FP2,C3,C4,P7,P8,O1,O2,F7,F8,F3,F4,T7,T8,P3,P4,,,,
279.3839998,1091,-76.42547652,98.01020199,0,56.11491113,0,127.9905639,0,0,-139.3759184,10.89121259,-35.62547906,-1.50E-06,-115.2242754,-138.2735861,0,0,,,,
279.3919998,1091,-62.3724223,57.37355045,0,-59.3435396,0,38.54335099,0,0,201.126747,6.924000308,-30.76894028,-1.49E-06,84.96596658,208.0221245,0,0,,,,
279.3999998,1091,-65.59304193,-57.93918426,0,52.44688425,0,135.2510291,0,0,-102.6458445,-112.4311493,100.414057,-1.47E-06,-27.86561568,-95.02221978,0,0,,,,
279.4079998,1091,-11.10656482,226.9328187,0,31.24038515,0,59.58178652,0,0,133.5441322,105.8055329,-47.53059847,-1.46E-06,22.72526968,131.2061298,0,0,,,,
279.4159998,1091,-96.88050944,-158.5409195,0,-38.37120581,0,68.70315035,0,0,107.669525,-119.0046052,103.701418,-1.45E-06,109.9128003,116.0561015,0,0,,,,
279.4239998,1091,-160.8027969,-9.983094781,0,48.72376652,0,145.3371849,0,0,-217.6678734,-7.243020404,-92.36053656,-1.43E-06,-174.2518992,-222.5376033,0,0,,,,
279.4319998,1091,-88.06316589,24.11811131,0,-60.82083391,0,56.35028718,0,0,154.1308455,-13.82303443,-96.80932186,-1.42E-06,19.81219789,147.363449,0,0,,,,
279.4399998,1091,-28.75310869,-45.35934742,0,56.0853808,0,153.2512561,0,0,-108.0479928,-116.5291111,78.93276451,-1.40E-06,-63.70221584,-133.6579376,0,0,,,,
279.4479998,1091,6.640649396,203.8133481,0,34.49709127,0,83.88605681,0,0,140.4960923,110.3087555,-42.47805145,5.17E-07,0.075295463,114.7165419,0,0,,,,
279.4559998,1091,-50.0340042,-140.2606269,0,-34.07186135,0,81.84767938,0,0,115.8658159,-115.5793404,104.5050043,2.33E-06,98.99571812,128.7899443,0,0,,,,
279.4639998,1091,-26.78367156,99.6255865,0,56.75295462,0,133.1250136,0,0,-169.6314444,8.94475437,-54.29002139,1.75E-06,-136.0714516,-174.8642538,0,0,,,,
279.4719998,1091,83.28596427,148.4496142,0,-49.58597507,0,12.18328104,0,0,289.7921598,22.61135323,24.45731979,1.78E-06,153.3026463,275.6130388,0,0,,,,
279.4799998,1091,92.22786758,27.46973771,0,68.37886294,0,94.70049413,0,0,14.37760612,-84.46308814,195.7071303,1.88E-06,80.00206113,9.272683209,0,0,,,,
279.4879998,1091,69.11573711,238.5859195,0,47.76223781,0,36.37390558,0,0,177.5368082,125.3089133,5.210812834,1.73E-06,62.76784269,165.8936834,0,0,,,,
279.4959998,1091,21.07163247,-97.3737729,0,-18.00627227,0,35.96948918,0,0,166.4900863,-94.62777378,156.5196639,1.82E-06,153.2672733,156.3679284,0,0,,,,
279.5039998,1091,14.56275259,97.96953431,0,71.44047935,0,92.63754324,0,0,-118.614784,35.79185845,-2.132485591,1.73E-06,-84.43660989,-129.4902395,0,0,,,,
279.5119998,1091,15.85947893,34.93500502,0,-44.47308035,0,9.463180642,0,0,220.094607,27.52253815,-15.70690049,1.76E-06,78.30931203,221.394174,0,0,,,,
279.5199998,1091,25.19934927,-63.45349055,0,63.04034357,0,106.6717953,0,0,-96.02729626,-97.60258622,93.21321657,1.72E-06,-57.31655564,-115.8263449,0,0,,,,
279.5279998,1091,58.22473658,216.3633438,0,39.31758107,0,37.92219053,0,0,143.7115304,115.1344782,-53.99255487,1.72E-06,3.844764235,103.515305,0,0,,,,
279.5359998,1091,-37.50394907,-163.116675,0,-29.24934669,0,48.78831664,0,0,134.1349661,-103.4032081,121.2124168,1.69E-06,97.6336589,102.3339254,0,0,,,,
279.5439998,1091,-45.8604811,64.16507658,0,58.76377595,0,105.5298948,0,0,-172.6671546,21.72004835,-61.16363809,1.68E-06,-166.9786139,-206.8861375,0,0,,,,
279.5519998,1092,17.67484637,62.2948915,0,-56.96388629,0,6.576709567,0,0,228.6670965,23.63076236,-33.57631109,1.67E-06,70.72744052,216.8499238,0,0,,,,
279.5599998,1092,25.06181538,-77.52488595,0,37.65117433,0,107.2441019,0,0,-87.59981695,-91.7041239,97.25828955,1.65E-06,-49.02707433,-122.00086,0,0,,,,
279.5679998,1092,95.8562464,232.2390293,0,12.87683729,0,34.97989349,0,0,137.9146851,120.2270429,-62.92477409,1.63E-06,-11.75237212,88.48032096,0,0,,,,
279.5759998,1092,81.4602458,-67.01608976,0,-25.51814697,0,22.65943586,0,0,208.5352435,-86.71512813,164.6015072,1.62E-06,148.5337008,197.0437583,0,0,,,,
279.5839998,1092,45.05081352,108.1131702,0,84.02052043,0,81.04917326,0,0,-97.97478799,39.99761181,2.990894357,1.60E-06,-92.6676085,-123.2774025,0,0,,,,
279.5919998,1092,67.15553056,68.67575468,0,-37.51132334,0,-8.570264814,0,0,241.8310411,31.0724352,-10.78563642,1.59E-06,106.7272929,212.4923809,0,0,,,,
279.5999998,1092,71.59975277,-46.31127894,0,48.75797015,0,79.15387413,0,0,-49.82057714,-84.34385444,123.1620206,1.57E-06,7.268278842,-86.34996239,0,0,,,,
279.6079998,1092,48.31214927,175.7765506,0,17.36915542,0,20.39051558,0,0,130.671209,114.9517714,-63.48398481,1.56E-06,8.469566979,98.90799442,0,0,,,,
279.6159998,1092,-13.36563543,-148.606049,0,-28.8299127,0,32.90822513,0,0,114.6808945,-105.7073475,91.15881084,1.55E-06,77.11929573,108.5227757,0,0,,,,
279.6239998,1092,51.70774339,154.6093291,0,80.92299307,0,69.64559742,0,0,-94.17663543,35.23948078,-17.38659813,1.53E-06,-123.8269326,-135.0930588,0,0,,,,
279.6319998,1092,81.11823483,112.1053159,0,-44.98353161,0,-40.52611154,0,0,314.6589582,30.86563681,49.15722626,1.52E-06,145.5159536,281.363621,0,0,,,,
279.6399998,1092,4.3605616,-91.57911298,0,30.80412827,0,58.42791155,0,0,-76.01581237,-105.6541393,126.0441349,1.50E-06,-0.652040532,-88.3946211,0,0,,,,
279.6479998,1092,25.04373701,174.0015825,0,2.312279987,0,-5.051508387,0,0,99.53630536,87.68225652,-92.85000507,1.49E-06,-27.47480517,76.23758333,0,0,,,,
279.6559998,1092,-0.720283494,-141.6182702,0,-49.32394027,0,-4.12294912,0,0,149.8920584,-121.2654901,109.8953453,1.47E-06,86.78524954,130.1337671,0,0,,,,
279.6639998,1092,-7.371042282,61.59292745,0,38.69323717,0,54.37889115,0,0,-149.6046411,11.19499201,-49.90682468,1.46E-06,-151.1359063,-176.5961027,0,0,,,,
279.6719998,1092,58.99832624,47.9275927,0,-69.10342506,0,-36.66177818,0,0,224.3630517,5.814990593,-31.98501207,1.45E-06,80.61569743,206.2484406,0,0,,,,
279.6799998,1092,94.50171989,-49.08136313,0,48.12019448,0,54.27324501,0,0,-35.84536954,-99.12159792,130.4243057,1.43E-06,-5.071356249,-66.78698823,0,0,,,,
279.6879998,1092,103.0699618,194.3373817,0,24.13932329,0,0.210594486,0,0,143.8149008,106.3105832,-45.12976036,1.42E-06,-11.04127529,106.1345988,0,0,,,,
279.6959998,1092,60.20269371,-148.7706194,0,-37.27536651,0,14.64662192,0,0,143.2890818,-107.9911484,132.4593266,1.40E-06,101.6237553,121.0031789,0,0,,,,
279.7039998,1092,67.53494866,75.04367117,0,49.65867988,0,66.75818698,0,0,-131.6010131,25.24956325,-27.85829492,-5.17E-07,-130.2138415,-172.7469051,0,0,,,,
279.7119998,1092,58.39738187,8.964350436,0,-70.79825976,0,-16.78950987,0,0,193.1202644,8.581107421,-40.27307669,-2.33E-06,41.37721816,150.0217373,0,0,,,,
279.7199998,1092,27.65325596,-144.629037,0,19.12496525,0,87.41867592,0,0,-140.0234857,-115.2724586,59.80120861,-1.75E-06,-100.9824548,-187.2754509,0,0,,,,
279.7279998,1092,57.87541812,128.4540916,0,-10.03827164,0,28.85288582,0,0,57.66595815,76.49942233,-134.2443604,-1.78E-06,-89.12671059,19.41623573,0,0,,,,
279.7359998,1092,42.77939181,-160.1659843,0,-41.21236741,0,37.35080943,0,0,105.2865818,-139.5964403,71.62137374,-1.88E-06,66.73367153,70.32549644,0,0,,,,
279.7439998,1092,72.14288347,102.4536023,0,71.39485801,0,83.10695139,0,0,-120.1489222,4.116028835,-39.58044581,-1.73E-06,-121.4353922,-179.657352,0,0,,,,
279.7519998,1092,92.35179648,54.12304728,0,-47.75446708,0,-13.13339377,0,0,262.0450439,-1.076903401,9.757195567,-1.82E-06,107.5935661,220.1881368,0,0,,,,
279.7599998,1092,69.52323649,-99.75580161,0,41.56174458,0,83.63736541,0,0,-58.55341288,-117.2264513,135.4652228,-1.73E-06,-0.922217504,-112.38046,0,0,,,,
279.7679998,1092,85.21015511,157.8304742,0,10.7574005,0,26.4095781,0,0,100.1268779,78.05919392,-83.06191285,-1.76E-06,-20.96147592,49.55288043,0,0,,,,
279.7759998,1092,52.63842287,-169.3858172,0,-43.06910937,0,39.08762579,0,0,108.8914118,-139.7433203,92.55149917,-1.72E-06,72.96824396,85.36687794,0,0,,,,
279.7839998,1092,81.29976758,69.41033514,0,47.28434147,0,89.84685135,0,0,-146.096839,-2.395525999,-52.13826432,-1.72E-06,-153.0911075,-188.8282322,0,0,,,,
279.7919998,1092,102.7924119,21.95019751,0,-60.6165741,0,5.178897879,0,0,199.3652035,-11.2607199,-46.10748695,-1.69E-06,64.39633473,161.3924062,0,0,,,,
279.7999998,1092,120.1870849,-93.81319686,0,54.9320455,0,100.7250276,0,0,-97.30732443,-120.0711854,85.75815808,-1.68E-06,-22.76696995,-156.0152045,0,0,,,,
279.8079998,1093,194.1258629,197.2058024,0,32.38162147,0,27.8352044,0,0,120.5513944,85.84004232,-77.19744239,-1.67E-06,-3.368173755,65.06293046,0,0,,,,
279.8159998,1093,175.5119653,-124.8746251,0,-21.80638156,0,30.23680047,0,0,146.5918492,-121.0182139,126.3593179,-1.65E-06,120.8340162,118.2471873,0,0,,,,
279.8239998,1093,211.1493607,112.794781,0,70.11817392,0,70.04543774,0,0,-68.1462635,30.72789903,14.26478799,-1.63E-06,-54.27062038,-127.4793101,0,0,,,,
279.8319998,1093,192.3161875,5.481658897,0,-46.05828541,0,-10.42396361,0,0,243.2747926,16.01435779,6.096264708,-1.62E-06,129.3979652,196.5639102,0,0,,,,
279.8399998,1093,152.1284911,-126.0514071,0,58.83282243,0,93.04276289,0,0,-137.4969698,-107.6703641,54.57063174,-1.60E-06,-65.03895177,-187.3756311,0,0,,,,
279.8479998,1093,226.7675734,243.476631,0,35.41501074,0,0.890965297,0,0,153.2809363,111.4022885,-77.27255436,-1.59E-06,-2.885922416,95.97602099,0,0,,,,
279.8559998,1093,151.4069177,-90.92970919,0,-23.75393066,0,-4.737472519,0,0,208.6996337,-86.78007269,178.5879487,-1.57E-06,182.7192344,173.8083626,0,0,,,,
279.8639998,1093,112.193207,93.47891448,0,62.43782553,0,48.3532358,0,0,-97.28487535,47.62584109,4.534751648,-1.56E-06,-63.20005543,-152.0382894,0,0,,,,
279.8719998,1093,138.9000548,35.52378005,0,-51.73632463,0,-36.61938693,0,0,242.1711983,35.40334941,-2.138039077,-1.55E-06,110.417753,210.8470119,0,0,,,,
279.8799998,1093,101.7560762,-131.0755517,0,38.59423563,0,75.95236099,0,0,-133.0149116,-79.29876928,80.27973,-1.53E-06,-51.79451085,-152.0205119,0,0,,,,
279.8879998,1093,132.2348721,144.866333,0,6.295731978,0,20.35347253,0,0,38.53608586,118.627043,-131.7660072,-1.52E-06,-62.96461619,11.36249127,0,0,,,,
279.8959998,1093,151.7599365,-123.7944292,0,-21.94125902,0,22.12063549,0,0,131.7616032,-75.99959485,106.9593412,-1.50E-06,105.7505629,104.8808573,0,0,,,,
279.9039998,1093,158.6993051,87.64479522,0,88.08453754,0,73.18862901,0,0,-92.93591782,80.03267914,-1.688555515,-1.49E-06,-92.33738735,-137.2542706,0,0,,,,
279.9119998,1093,156.4736212,10.97713433,0,-37.14673014,0,-6.763740511,0,0,188.5383258,55.26149158,-29.31025251,-1.47E-06,67.25883603,178.3885827,0,0,,,,
279.9199998,1093,190.4459786,-78.23033574,0,45.48906798,0,79.7212641,0,0,-98.83930187,-59.31438027,95.46003691,-1.46E-06,-10.54930947,-126.9590009,0,0,,,,
279.9279998,1093,195.2020764,161.1520718,0,12.65741751,0,14.06024408,0,0,129.2475021,139.7842464,-62.33090528,-1.45E-06,17.47214867,82.13445852,0,0,,,,
279.9359998,1093,113.9073658,-178.2774496,0,-19.69496426,0,38.55239265,0,0,67.56331776,-81.20440303,79.47486987,-1.43E-06,62.18988568,48.68082548,0,0,,,,
279.9439998,1093,159.7082169,93.74957597,0,92.44901396,0,84.19040033,0,0,-125.3380842,76.77460973,-34.7843058,-1.42E-06,-102.7214231,-161.757651,0,0,,,,
279.9519998,1093,156.5206098,-3.466338202,0,-36.13225802,0,-3.244738393,0,0,231.1394548,59.52980008,-7.374236212,-1.40E-06,110.2732858,220.0395629,0,0,,,,
279.9599998,1093,117.4327483,-156.1340206,0,41.38859108,0,99.4092271,0,0,-177.0391511,-75.74745985,38.2421353,5.17E-07,-89.1717765,-183.4772389,0,0,,,,
279.9679998,1093,185.121702,158.1540949,0,11.57593355,0,24.58209986,0,0,58.29695016,120.1782026,-137.0709305,2.33E-06,-55.02699318,41.5949764,0,0,,,,
279.9759998,1093,178.6173828,-131.5337293,0,-18.96021244,0,26.31552769,0,0,120.6446963,-85.58887126,95.968696,1.75E-06,111.9047891,114.1478076,0,0,,,,
279.9839998,1093,192.1971481,109.3740779,0,94.00863377,0,69.41564517,0,0,-86.02494203,68.73857818,-8.707450602,1.78E-06,-50.6716906,-105.865961,0,0,,,,
279.9919998,1093,151.2351892,2.319077396,0,-37.04701818,0,-17.4209074,0,0,224.864544,44.1616191,-12.17993086,1.88E-06,135.8490459,234.0653494,0,0,,,,
279.9999998,1093,92.70605566,-148.2661682,0,35.88759349,0,79.48553042,0,0,-157.8927792,-86.68323091,43.00995594,1.73E-06,-58.63648944,-173.7487261,0,0,,,,
280.0079998,1093,138.8432502,165.1632846,0,5.536793085,0,3.612126778,0,0,83.40397299,108.7157667,-124.9101474,1.82E-06,-36.71723544,43.14868068,0,0,,,,
280.0159998,1093,118.9026087,-125.1695765,0,-24.22655407,0,10.58130878,0,0,127.507079,-96.32260702,116.7169738,1.73E-06,111.5712829,116.6808119,0,0,,,,
280.0239998,1093,173.3262766,153.6652831,0,89.24553818,0,40.3457365,0,0,-45.08135287,66.28171269,37.32353418,1.76E-06,-49.9298681,-86.46628086,0,0,,,,
280.0319998,1093,146.7379862,42.46772893,0,-39.34585315,0,-57.0447009,0,0,284.5072582,41.56064626,45.5379612,1.72E-06,167.3585162,253.5778409,0,0,,,,
280.0399998,1093,47.22993889,-160.9862436,0,37.87617928,0,57.86926869,0,0,-156.3606061,-94.7287007,64.69295086,1.72E-06,-26.54409048,-167.4762235,0,0,,,,
280.0479998,1093,115.2002694,163.1199954,0,7.868492337,0,-11.09193887,0,0,72.15069093,104.2418392,-127.7798723,1.69E-06,-23.54921939,44.33987343,0,0,,,,
280.0559998,1093,87.86703215,-145.6538594,0,-41.48958026,0,-4.738917694,0,0,115.0168259,-103.6089258,105.0189732,1.68E-06,106.5293577,89.90089505,0,0,,,,
280.0639998,1094,80.31125081,103.1927298,0,48.78567693,0,36.91236609,0,0,-124.2090675,43.6135459,-29.66608569,1.67E-06,-101.1398675,-162.2023966,0,0,,,,
280.0719998,1094,80.03314132,51.78306732,0,-56.3390484,0,-54.78414251,0,0,231.0960511,28.11647296,-12.90976965,1.65E-06,113.7431087,215.9010115,0,0,,,,
280.0799998,1094,31.26337959,-107.755063,0,59.19935624,0,58.20204955,0,0,-120.5714883,-82.335036,84.20776911,1.63E-06,-30.45648556,-125.4907566,0,0,,,,
280.0879998,1094,89.1711708,197.2016306,0,33.63015873,0,-7.083539578,0,0,101.9201613,121.2128838,-98.3869739,1.62E-06,-6.672052741,69.74367748,0,0,,,,
280.0959998,1094,81.35481507,-104.5182403,0,-17.77388029,0,-2.239201418,0,0,134.8772789,-81.13081254,121.7833368,1.60E-06,131.3745882,108.087418,0,0,,,,
280.1039998,1094,97.43423774,121.8066164,0,69.27672577,0,38.49549016,0,0,-89.91494506,75.59326113,4.950429096,1.59E-06,-59.04761876,-102.5488838,0,0,,,,
280.1119998,1094,97.64892644,22.55685924,0,-48.68418618,0,-43.37225623,0,0,215.8047965,49.78343586,-6.224479276,1.57E-06,126.989759,222.7302598,0,0,,,,
280.1199998,1094,77.40919427,-124.075812,0,57.28037881,0,70.01397969,0,0,-173.9619649,-72.66979093,45.76590337,1.56E-06,-61.96027265,-178.8992763,0,0,,,,
280.1279998,1094,145.9710547,189.3318129,0,30.15135191,0,1.60111449,0,0,66.37113094,128.7921824,-126.2965769,1.55E-06,-35.87077899,60.0370729,0,0,,,,
280.1359998,1094,131.4777849,-110.1146666,0,-19.87863296,0,3.239633197,0,0,125.1290963,-74.31656373,116.7521288,1.53E-06,115.3832941,128.6952137,0,0,,,,
280.1439998,1094,100.9965401,92.65238881,0,66.41871461,0,48.7847113,0,0,-115.9577083,73.17058413,-20.42341339,1.52E-06,-91.10594259,-141.6042289,0,0,,,,
280.1519998,1094,72.39445043,-9.139590168,0,-54.13998532,0,-24.67973864,0,0,169.0088504,38.80993835,-55.41628542,1.50E-06,80.90113178,157.6447805,0,0,,,,
280.1599998,1094,73.47501293,-119.4453155,0,38.69024077,0,76.81642596,0,0,-164.1472922,-75.05543126,44.97908529,1.49E-06,-66.52859162,-169.5180951,0,0,,,,
280.1679998,1094,103.4685118,155.4047158,0,3.975800011,0,11.27232108,0,0,63.35853757,124.0040426,-115.2125937,1.47E-06,-28.86582796,60.82472605,0,0,,,,
280.1759998,1094,89.04647332,-145.7554514,0,-19.7113919,0,33.36716476,0,0,54.87708805,-88.47626435,71.57604807,1.46E-06,85.69153845,64.24395669,0,0,,,,
280.1839998,1094,139.4244703,125.4299009,0,93.35778949,0,71.47478205,0,0,-111.2028271,75.71197701,-22.55198071,1.45E-06,-79.08575124,-134.1662527,0,0,,,,
280.1919998,1094,111.6937654,7.413486292,0,-31.15564045,0,-7.690845049,0,0,224.5424631,55.21765707,-4.218705141,1.43E-06,126.0127428,217.3216448,0,0,,,,
280.1999998,1094,97.68790469,-115.6229498,0,58.35607874,0,108.9896979,0,0,-163.1253493,-61.21624611,46.76839954,1.42E-06,-62.21924014,-166.4157236,0,0,,,,
280.2079998,1094,187.3966551,225.0983376,0,27.46713211,0,31.1661866,0,0,114.9306585,152.4809727,-98.85149188,1.40E-06,8.592867207,99.2428248,0,0,,,,
280.2159998,1094,129.4322533,-126.3594342,0,-0.691655798,0,48.12466809,0,0,133.9148271,-47.4156804,127.2243561,-5.17E-07,155.4340626,128.6721605,0,0,,,,
280.2239998,1094,73.22447881,53.5846021,0,112.8145541,0,119.0591501,0,0,-152.880062,100.3816872,-53.20440413,-2.33E-06,-106.9248677,-183.3565679,0,0,,,,
280.2319998,1094,57.33985137,-7.906859271,0,-2.629062933,0,51.22255076,0,0,170.9839213,77.55668835,-69.64527692,-1.75E-06,62.85329463,145.9917104,0,0,,,,
280.2399998,1094,64.82409831,-107.1284598,0,98.19387673,0,163.6523716,0,0,-122.4787775,-14.87773695,65.53697469,-1.78E-06,-45.06707298,-144.4581886,0,0,,,,
280.2479998,1094,126.9070068,174.850695,0,72.09549403,0,96.72533357,0,0,131.092887,199.3722599,-75.67210789,-1.88E-06,15.35636721,105.5139199,0,0,,,,
280.2559998,1094,108.9089503,-121.3255083,0,44.33994541,0,110.1366955,0,0,124.7795673,-8.356062056,114.6852512,-1.73E-06,129.8836606,103.7768296,0,0,,,,
280.2639998,1094,146.0875053,150.9706412,0,159.2376508,0,154.6481916,0,0,-58.42533627,161.4752545,13.61690165,-1.82E-06,-38.18630041,-80.4246058,0,0,,,,
280.2719998,1094,148.1099322,47.26880563,0,29.38328544,0,70.75943993,0,0,279.5346009,143.9596408,40.59463239,-1.73E-06,169.4470705,282.194038,0,0,,,,
280.2799998,1094,89.59135035,-138.7194704,0,109.2115398,0,184.7620797,0,0,-111.4954074,21.50382375,90.06541862,-1.76E-06,-16.09288415,-137.1234803,0,0,,,,
280.2879998,1094,142.5588284,158.0500527,0,77.12553168,0,116.2279866,0,0,116.9606679,214.7639898,-106.7812018,-1.72E-06,12.5728259,74.11333951,0,0,,,,
280.2959998,1094,177.9578142,-95.48810449,0,44.19502288,0,122.6149441,0,0,138.8209116,7.980714211,107.4985708,-1.72E-06,141.8481536,108.8616844,0,0,,,,
280.3039998,1094,202.1849739,128.3331108,0,150.1702258,0,166.29419,0,0,-41.15156411,170.6148288,20.95981255,-1.69E-06,-23.17170369,-75.84666452,0,0,,,,
280.3119998,1094,174.6831368,-1.513170991,0,19.97973734,0,84.89890034,0,0,257.1646465,129.9127664,6.025208883,-1.68E-06,166.9939342,246.4457688,0,0,,,,
280.3199998,1095,145.131155,-123.5615501,0,97.87952264,0,189.6801418,0,0,-139.3360241,-0.893352037,36.99055293,-1.67E-06,-34.68037301,-167.9768842,0,0,,,,
280.3279998,1095,192.2636879,174.866349,0,56.51335588,0,111.224632,0,0,125.4542499,191.1791528,-121.7450926,-1.65E-06,-7.904173128,93.98332311,0,0,,,,
280.3359998,1095,185.0665411,-117.7667551,0,16.45057423,0,117.2936772,0,0,138.732404,-29.13415756,94.57244939,-1.63E-06,116.7915099,113.3317344,0,0,,,,
280.3439998,1095,240.6872881,170.039144,0,116.5892966,0,147.0425832,0,0,-35.47159029,127.9267612,2.419189226,-1.62E-06,-36.99798201,-100.847606,0,0,,,,
280.3519998,1095,238.8997744,56.05179217,0,-17.9296473,0,51.34075437,0,0,309.0069188,96.68906215,45.41138775,-1.60E-06,188.9289117,268.3952402,0,0,,,,
280.3599998,1095,192.6651519,-123.3007643,0,59.70066907,0,161.046117,0,0,-103.0902724,-31.80792161,85.25048352,-1.59E-06,-11.84057659,-148.9596592,0,0,,,,
280.3679998,1095,280.3943537,210.94121,0,25.66041802,0,84.31290868,0,0,146.7761616,162.6122608,-95.11899246,-1.57E-06,3.975508579,74.36698281,0,0,,,,
280.3759998,1095,288.2690451,-67.47409638,0,-0.042047066,0,88.93063811,0,0,186.3148085,-38.79632965,156.1520653,-1.56E-06,148.6304626,136.6711067,0,0,,,,
280.3839998,1095,276.4955049,145.8601682,0,110.4593724,0,135.7983028,0,0,-31.91456477,126.1610498,39.85435127,-1.55E-06,-39.36066816,-87.36394652,0,0,,,,
280.3919998,1095,249.9896506,28.82741257,0,-14.94796688,0,61.35148196,0,0,258.2874273,93.99855226,22.87877041,-1.53E-06,117.7141238,214.1260023,0,0,,,,
280.3999998,1095,224.1105745,-101.8168248,0,71.27215375,0,174.4254406,0,0,-123.8198174,-18.55058899,85.42827712,-1.52E-06,-59.14046353,-178.7295588,0,0,,,,
280.4079998,1095,260.6845486,173.0691251,0,37.34118102,0,108.4889616,0,0,146.3897805,186.6066402,-69.95826927,-1.50E-06,15.45016095,81.10559376,0,0,,,,
280.4159998,1095,222.3743539,-154.5593885,0,8.302208566,0,139.2283675,0,0,117.5739858,-25.96886509,109.0482375,-1.49E-06,103.2243867,73.11128914,0,0,,,,
280.4239998,1095,265.8417139,135.3312287,0,117.202254,0,185.3197936,0,0,-96.08365068,137.1036211,-29.92832663,-1.47E-06,-110.752497,-162.4896584,0,0,,,,
280.4319998,1095,275.9118674,55.84637328,0,-10.36031545,0,85.58934453,0,0,309.8191607,120.4623919,42.83058944,-1.46E-06,156.6348703,253.7988616,0,0,,,,
280.4399998,1095,199.5979071,-124.9320773,0,70.06029443,0,192.7708769,0,0,-82.15161507,1.486615854,105.7587917,-1.45E-06,-15.20038814,-125.9804656,0,0,,,,
280.4479998,1095,216.3716966,148.4553304,0,29.04231469,0,129.8494352,0,0,113.2521177,184.4633096,-112.2274835,-1.43E-06,-27.42913356,54.62422789,0,0,,,,
280.4559998,1095,187.5418571,-167.510381,0,-16.04854004,0,153.0800913,0,0,119.2188188,-29.07783497,91.67854922,-1.42E-06,83.8497508,63.78315563,0,0,,,,
280.4639998,1095,174.2216037,62.37254713,0,74.79443094,0,207.4610824,0,0,-109.3837352,127.3683628,-45.54424124,-1.40E-06,-107.3260962,-160.7955741,0,0,,,,
280.4719998,1095,180.9092563,-6.435457535,0,-28.67738553,0,131.694365,0,0,223.9665506,96.95219666,-30.98537031,5.17E-07,101.0872282,178.1357664,0,0,,,,
280.4799998,1095,188.1360487,-98.58164477,0,95.68236944,0,247.293533,0,0,-111.5615316,0.385105908,64.83247716,2.33E-06,-54.80539816,-179.5044758,0,0,,,,
280.4879998,1095,207.1206531,171.588592,0,62.54950873,0,180.3355275,0,0,140.9226462,205.6147693,-83.79685377,1.75E-06,3.139717373,77.95224366,0,0,,,,
280.4959998,1095,174.2754595,-153.4372949,0,5.592643186,0,189.5301437,0,0,122.3804352,-15.49386577,109.8067239,1.78E-06,106.2042552,65.39324273,0,0,,,,
280.5039998,1095,231.664829,124.5522926,0,88.08302885,0,218.030334,0,0,-80.46691284,136.6123658,-32.57970539,1.88E-06,-97.80935459,-157.3379658,0,0,,,,
280.5119998,1095,238.7713325,24.77881844,0,-22.78796029,0,132.0242187,0,0,275.2793223,104.3764466,6.572427862,1.73E-06,140.4611681,231.3465563,0,0,,,,
280.5199998,1095,208.4818954,-111.9108144,0,91.72433898,0,247.4907542,0,0,-103.2237051,-7.437871014,73.8201367,1.82E-06,-30.26412237,-152.8248684,0,0,,,,
280.5279998,1095,262.7975453,196.4987425,0,56.78754611,0,170.3559296,0,0,150.8361031,191.7442867,-96.49952736,1.73E-06,4.089914031,83.57543109,0,0,,,,
280.5359998,1095,250.7855948,-112.3485288,0,6.925391568,0,174.368436,0,0,177.6781145,-20.24274612,131.1765522,1.76E-06,133.2447015,110.628695,0,0,,,,
280.5439998,1095,263.1441967,124.1510527,0,89.10883179,0,208.9411676,0,0,-33.93497157,130.6303519,0.464675954,1.72E-06,-69.77619428,-128.5888163,0,0,,,,
280.5519998,1095,259.6931235,30.03876104,0,-22.66241083,0,122.8040395,0,0,277.5206085,90.54186846,6.457487484,1.72E-06,126.711466,210.6072757,0,0,,,,
280.5599998,1095,254.8958123,-78.44109129,0,94.09079374,0,231.3187409,0,0,-90.65052124,-14.37320372,75.7745077,1.69E-06,-38.66752674,-144.9111833,0,0,,,,
280.5679998,1095,289.0819357,186.9232844,0,56.10114742,0,155.8421688,0,0,194.2574336,192.237104,-56.80457151,1.68E-06,21.47121774,131.3688859,0,0,,,,
280.5759998,1096,238.5925007,-154.6916506,0,0.687172902,0,170.3413019,0,0,150.6109746,-33.7888278,127.0345827,1.67E-06,113.299552,90.07996476,0,0,,,,
280.5839998,1096,264.5233094,116.1993406,0,80.81790238,0,207.1237896,0,0,-81.40398067,111.3204271,-28.09762478,1.65E-06,-95.03104235,-171.1608168,0,0,,,,
280.5919998,1096,288.6517921,41.86195898,0,-29.32831991,0,114.9915319,0,0,316.82694,85.12056261,49.41479122,1.63E-06,149.7805702,247.5367129,0,0,,,,
280.5999998,1096,276.0346674,-74.14790351,0,86.01692204,0,222.1146287,0,0,-61.83836076,-20.82234424,124.1546177,1.62E-06,-9.633710766,-117.7724826,0,0,,,,
280.6079998,1096,324.8399501,212.4460756,0,47.10386934,0,143.7892637,0,0,190.9677005,182.6975989,-39.12932482,1.60E-06,40.59843834,130.0386061,0,0,,,,
280.6159998,1096,269.7763584,-147.6815612,0,-5.984186482,0,163.2860397,0,0,163.5365682,-30.52912591,153.8612562,1.59E-06,124.5833852,121.5538745,0,0,,,,
280.6239998,1096,243.8600501,60.06325821,0,75.29070452,0,218.479321,0,0,-119.7853875,115.3519638,-47.41815496,1.57E-06,-121.4502806,-160.9120655,0,0,,,,
280.6319998,1096,278.4136213,5.793614179,0,-31.46526312,0,130.7351821,0,0,240.2708272,83.2858873,-21.96418073,1.56E-06,111.5383357,218.757162,0,0,,,,
280.6399998,1096,286.2899668,-83.98925554,0,82.76562888,0,229.5855897,0,0,-84.5083814,-18.59449084,88.96489587,1.55E-06,-8.71197181,-127.2670004,0,0,,,,
280.6479998,1096,294.8170252,166.8778737,0,41.58137244,0,159.7519718,0,0,164.8355459,176.4317167,-72.09825892,1.53E-06,32.77060432,114.6299012,0,0,,,,
280.6559998,1096,239.4254913,-177.972037,0,-2.897116977,0,188.8160083,0,0,107.749049,-42.01076807,92.55284509,1.52E-06,94.53301512,83.74372007,0,0,,,,
280.6639998,1096,263.7045671,85.91456412,0,80.89132279,0,231.0430654,0,0,-114.6793798,113.3847179,-59.02282391,1.50E-06,-119.2401408,-174.1080413,0,0,,,,
280.6719998,1096,317.2279536,45.41213781,0,-31.30604141,0,131.7912719,0,0,284.9147912,84.7521351,12.13990549,1.49E-06,120.6630527,229.5555158,0,0,,,,
280.6799998,1096,310.2149645,-69.00192121,0,86.14057624,0,237.4484383,0,0,-77.22992488,-19.00449262,105.3012193,1.47E-06,-26.92526041,-132.1967109,0,0,,,,
280.6879998,1096,332.2472897,194.2211643,0,45.5726969,0,161.7608017,0,0,173.6325326,168.4414639,-56.39808612,1.46E-06,29.86724349,91.98728056,0,0,,,,
280.6959998,1096,303.232875,-110.6626174,0,-6.817966917,0,160.6099711,0,0,184.1243998,-54.45362511,162.4418552,1.45E-06,147.7513033,110.3121213,0,0,,,,
280.7039998,1096,293.6367017,123.891246,0,75.72038828,0,198.1740372,0,0,-63.83106262,90.74838263,8.667933866,1.43E-06,-65.55185007,-130.4323918,0,0,,,,
280.7119998,1096,331.6266851,54.26501038,0,-31.72312241,0,111.239432,0,0,289.9497875,53.44398455,40.4177413,1.42E-06,144.6229443,238.8116863,0,0,,,,
280.7199998,1096,353.2113194,-44.45437452,0,84.65616226,0,206.19667,0,0,-31.80704265,-41.10608728,146.1363557,1.40E-06,7.98475155,-98.65917596,0,0,,,,
280.7279998,1096,354.8381121,193.072359,0,41.72873087,0,129.1213935,0,0,189.0158876,147.8493372,-39.71432057,-5.17E-07,54.83478758,128.2492699,0,0,,,,
280.7359998,1096,297.4528571,-146.4101092,0,-7.930393785,0,143.4846613,0,0,138.8080481,-74.51062473,120.2080077,-2.33E-06,127.9487181,98.10732864,0,0,,,,
280.7439998,1096,299.1815923,98.08209829,0,72.03954582,0,180.5339997,0,0,-100.0074927,80.12057543,-43.66467072,-1.75E-06,-108.2329683,-171.5147215,0,0,,,,
280.7519998,1096,325.1888152,18.77934462,0,-49.9545146,0,86.56545181,0,0,262.4920312,43.63883345,2.215108789,-1.78E-06,122.1896554,205.6853668,0,0,,,,
280.7599998,1096,306.2472839,-113.3022952,0,43.30478674,0,184.6883049,0,0,-88.49277042,-59.87765413,89.95359353,-1.88E-06,-17.58982522,-129.2362954,0,0,,,,
280.7679998,1096,314.7990989,140.2370715,0,-4.138751727,0,117.1888557,0,0,100.5147832,121.0410666,-116.4087558,-1.73E-06,-21.96631364,53.21974151,0,0,,,,
280.7759998,1096,294.7424391,-176.8309085,0,-21.21077233,0,148.1344891,0,0,86.66779712,-92.42866334,84.1397811,-1.82E-06,79.37327482,34.90447428,0,0,,,,
280.7839998,1096,307.1309892,67.88663198,0,83.37026799,0,195.9135419,0,0,-100.1875869,74.40476603,-46.8850592,-1.73E-06,-94.13726688,-174.1795144,0,0,,,,
280.7919998,1096,336.141338,17.24828534,0,-45.74628747,0,102.1042772,0,0,238.3519283,34.10023735,-23.85653724,-1.76E-06,107.1719316,173.9673364,0,0,,,,
280.7999998,1096,335.7321593,-84.16673127,0,47.1054905,0,196.0381406,0,0,-83.78949905,-62.2295562,94.27909787,-1.72E-06,-22.98816996,-152.6841596,0,0,,,,
280.8079998,1096,357.0039984,169.6630613,0,7.072876195,0,116.9202481,0,0,184.0730844,136.7374466,-48.41603528,-1.72E-06,35.11393522,120.0100725,0,0,,,,
280.8159998,1096,358.3664538,-109.8629229,0,-16.49854691,0,121.702552,0,0,169.5394728,-77.1880065,152.7672661,-1.69E-06,137.1555204,116.6029317,0,0,,,,
280.8239998,1096,381.3510374,157.2277399,0,86.05045657,0,142.8255101,0,0,-18.67894286,84.08294859,35.84685023,-1.68E-06,-27.26870541,-95.73424161,0,0,,,,
280.8319998,1097,328.9455186,6.903703375,0,-41.24508635,0,55.98086004,0,0,290.1853325,37.46218483,57.58258927,-1.67E-06,174.2593325,236.2482859,0,0,,,,
280.8399998,1097,250.088542,-154.1526563,0,43.91750337,0,167.9374129,0,0,-133.7375279,-80.41479639,75.95222914,-1.65E-06,-40.81762447,-183.276856,0,0,,,,
280.8479998,1097,262.3182459,121.1429999,0,-3.672594272,0,92.8106269,0,0,98.54840282,98.09924326,-122.6098908,-1.63E-06,-31.28226449,32.5798447,0,0,,,,
280.8559998,1097,242.9393844,-183.4744846,0,-32.75599291,0,113.5591496,0,0,79.62607573,-125.4229065,79.35454031,-1.62E-06,70.33058164,20.50767027,0,0,,,,
280.8639998,1097,284.8962803,101.9054455,0,67.39441677,0,149.3863473,0,0,-122.1090755,30.87108218,-59.15169951,-1.60E-06,-128.3988734,-181.1601314,0,0,,,,
280.8719998,1097,311.4106501,39.69006898,0,-60.22598414,0,45.18571151,0,0,262.747357,-8.205893597,7.44836883,-1.59E-06,110.4780871,223.3770001,0,0,,,,
280.8799998,1097,277.6378509,-75.58616022,0,22.58895432,0,132.0072864,0,0,-90.68558041,-116.8642031,94.97598792,-1.57E-06,-3.157040705,-131.523462,0,0,,,,
280.8879998,1097,293.6799006,208.5396035,0,-25.33523309,0,39.4487365,0,0,148.9931776,65.69987685,-80.1122945,-1.56E-06,40.31671276,118.5891088,0,0,,,,
280.8959998,1097,236.6016296,-116.9801401,0,-53.32605528,0,44.06821584,0,0,149.8702795,-146.9541657,141.6585306,-1.55E-06,135.9048434,130.9880273,0,0,,,,
280.9039998,1097,215.1782836,105.5984953,0,47.73060198,0,89.84051856,0,0,-96.27910466,5.621133603,-34.43633175,-1.53E-06,-83.15917601,-135.5180971,0,0,,,,
280.9119998,1097,248.5426568,17.31582234,0,-79.69432477,0,5.373583677,0,0,233.8694392,-37.54092218,-16.15322658,-1.52E-06,105.3359106,203.1001198,0,0,,,,
280.9199998,1097,239.9542643,-102.5774417,0,0.903734086,0,96.64317891,0,0,-108.0026453,-135.1998086,79.6350818,-1.50E-06,-52.26689044,-153.6165723,0,0,,,,
280.9279998,1097,247.1876124,155.8685555,0,-44.53995959,0,19.12946846,0,0,110.6274807,44.68107957,-106.3885126,-1.49E-06,-22.29467049,68.83235087,0,0,,,,
280.9359998,1097,250.5552451,-140.8404126,0,-67.89642171,0,30.9971485,0,0,119.7953133,-165.1896689,119.3565609,-1.47E-06,99.78839165,92.98867547,0,0,,,,
280.9439998,1097,277.9655512,128.4464427,0,29.05191972,0,61.43130621,0,0,-88.91629955,-3.634684646,-24.97702117,-1.46E-06,-87.12569616,-137.8112465,0,0,,,,
280.9519998,1097,269.7201596,32.22324412,0,-96.61218302,0,-28.21557268,0,0,252.2762866,-46.58368638,11.37132551,-1.45E-06,133.6524309,223.6507191,0,0,,,,
280.9599998,1097,258.7521145,-90.98697802,0,-4.008793556,0,66.38480805,0,0,-75.05921574,-139.2362396,114.9703995,-1.43E-06,-7.003086719,-104.4019853,0,0,,,,
280.9679998,1097,278.5359775,159.5007765,0,-46.39095713,0,-4.921856867,0,0,109.8412639,40.06187871,-93.09850399,-1.42E-06,-4.863981849,78.47586093,0,0,,,,
280.9759998,1097,239.8548241,-169.1954936,0,-83.09189787,0,16.98241496,0,0,78.33168281,-174.8348364,104.1588066,-1.40E-06,95.94684142,55.25680977,0,0,,,,
280.9839998,1097,261.2393579,106.8635824,0,1.445297369,0,44.61629548,0,0,-119.4103916,-10.15360009,-46.6995685,5.17E-07,-114.0253156,-158.0251944,0,0,,,,
280.9919998,1097,289.290917,42.63342091,0,-101.9085242,0,-45.86092418,0,0,231.1124604,-45.7155871,-9.184276553,2.33E-06,97.77103368,209.0669962,0,0,,,,
280.9999998,1097,269.9672516,-76.74950411,0,24.32201144,0,62.74049254,0,0,-86.61940819,-131.0560941,107.3127503,1.75E-06,-5.728466721,-128.406464,0,0,,,,
281.0079998,1097,262.9005766,169.4699513,0,-14.65796167,0,-6.182292062,0,0,125.2433173,54.46107633,-80.28969302,1.78E-06,4.329943291,84.5066262,0,0,,,,
281.0159998,1097,228.7919244,-151.3562447,0,-59.24216142,0,7.54269022,0,0,96.64944561,-163.1550924,107.6570079,1.88E-06,89.21063437,81.7563628,0,0,,,,
281.0239998,1097,218.444989,76.48404911,0,20.09733088,0,48.34181271,0,0,-127.4731567,-8.92947132,-60.20388949,1.73E-06,-102.5435077,-151.5648649,0,0,,,,
281.0319998,1097,221.9368675,-10.80740586,0,-89.0978948,0,-25.34023904,0,0,187.3326048,-52.21306534,-42.72700624,1.82E-06,80.76295564,170.9995488,0,0,,,,
281.0399998,1097,294.8872159,-27.27866878,0,33.23071159,0,60.50433432,0,0,-97.04703275,-135.2979642,81.4000254,1.73E-06,-35.87571732,-139.5655545,0,0,,,,
281.0479998,1097,336.7827231,230.2367231,0,-10.5341896,0,-36.24595797,0,0,197.721042,59.41568289,-28.40137154,1.76E-06,68.24938369,166.1982816,0,0,,,,
281.0559998,1097,245.5096529,-174.9812482,0,-63.66870208,0,-22.77384912,0,0,123.4146258,-167.3224479,154.8029711,1.72E-06,131.9536082,108.4817002,0,0,,,,
281.0639998,1097,275.3978145,108.1031384,0,13.20327374,0,-0.670604608,0,0,-132.0446121,-28.83686287,-58.79789624,1.72E-06,-124.7902479,-184.3786138,0,0,,,,
281.0719998,1097,311.8296262,45.26631265,0,-91.7239701,0,-96.95399753,0,0,261.9338521,-64.78777738,12.10814558,1.69E-06,127.904352,224.5950909,0,0,,,,
281.0799998,1097,268.3242791,-96.13726782,0,19.08486446,0,3.26893676,0,0,-78.18237954,-149.7058626,108.3313857,1.68E-06,-6.036855867,-122.4272177,0,0,,,,
281.0879998,1098,284.6483075,163.6583484,0,-32.40900099,0,-83.42176674,0,0,131.1531875,31.31770644,-95.02517758,1.67E-06,14.06070045,87.3886258,0,0,,,,
281.0959998,1098,258.4284226,-155.7416978,0,-72.58915741,0,-71.90598454,0,0,118.005438,-177.4793791,122.4871319,1.65E-06,109.8934212,101.0267989,0,0,,,,
281.1039998,1098,255.9347886,88.12243551,0,5.106608242,0,-36.76114297,0,0,-109.2907442,-18.17639786,-49.30931761,1.63E-06,-115.4060103,-143.8422274,0,0,,,,
281.1119998,1098,271.8327656,4.758829129,0,-114.3953041,0,-131.3627207,0,0,240.7366293,-59.02707957,-10.68003396,1.62E-06,108.9650814,218.4999008,0,0,,,,
281.1199998,1098,219.7105841,-149.843263,0,-17.01770758,0,-30.81296377,0,0,-114.3186926,-152.3910729,80.45230057,1.60E-06,-33.97840956,-141.6180015,0,0,,,,
281.1279998,1098,201.1637103,71.81440752,0,-64.99793417,0,-89.7218527,0,0,42.16369373,14.33774441,-165.658882,1.59E-06,-64.33642378,-3.050893414,0,0,,,,
281.1359998,1098,238.3290739,-171.8138,0,-72.90578786,0,-70.25511325,0,0,55.69795118,-187.8254055,46.17533075,1.57E-06,39.38889268,5.741408253,0,0,,,,
281.1439998,1098,270.2155426,97.6014321,0,32.01507608,0,-44.09285365,0,0,-64.11061927,-4.084490376,-26.17063811,1.56E-06,-85.63755289,-125.9075426,0,0,,,,
281.1519998,1098,246.3621043,-11.42223633,0,-91.84279276,0,-130.7125864,0,0,240.3040709,-51.64446461,-0.970610059,1.55E-06,105.617665,210.7654189,0,0,,,,
281.1599998,1098,260.5548834,-62.53504684,0,1.544933884,0,-44.23529157,0,0,-93.57299436,-138.5065912,84.09025106,1.53E-06,-46.8510499,-131.8079625,0,0,,,,
281.1679998,1098,264.0219407,178.9585333,0,-47.45473433,0,-126.0041387,0,0,174.0523215,51.08705448,-54.5612775,1.52E-06,25.57853374,126.0599842,0,0,,,,
281.1759998,1098,175.8285135,-198.267914,0,-73.0068199,0,-97.50721166,0,0,96.70484147,-173.4070729,122.2835856,1.50E-06,90.99957864,73.31807488,0,0,,,,
281.1839998,1098,165.0982233,26.89421321,0,24.70448544,0,-54.00575645,0,0,-161.5643852,-26.41890736,-84.98786611,1.49E-06,-148.3582681,-203.4622372,0,0,,,,
281.1919998,1098,197.8075307,-58.8156657,0,-96.11433239,0,-131.1708609,0,0,148.9900069,-76.73403723,-76.1220454,1.47E-06,42.45096783,114.7999897,0,0,,,,
281.1999998,1098,252.6309552,-114.4364372,0,-7.900839427,0,-45.20210028,0,0,-140.6288119,-160.0375524,49.18475235,1.46E-06,-72.37845307,-178.3181656,0,0,,,,
281.2079998,1098,304.7538481,156.669991,0,-54.51570012,0,-137.5871818,0,0,136.3163128,22.0973147,-85.62311835,1.45E-06,1.726248555,81.89378814,0,0,,,,
281.2159998,1098,278.0383825,-156.2763787,0,-69.33139475,0,-119.1668895,0,0,100.2528312,-189.4724692,121.3435925,1.43E-06,93.08014217,50.40337378,0,0,,,,
281.2239998,1098,304.3429101,115.6328002,0,31.97429887,0,-93.97082682,0,0,-70.28948616,-15.75070743,-4.649069695,1.42E-06,-78.20037365,-120.4696507,0,0,,,,
281.2319998,1098,277.2008784,-8.368102842,0,-92.39089498,0,-183.5066216,0,0,237.5906547,-62.21614989,23.84282263,1.40E-06,130.8581568,221.4628301,0,0,,,,
281.2399998,1098,221.4900526,-136.9677691,0,-7.365452823,0,-85.49319607,0,0,-158.7532808,-159.8863456,58.41175968,-5.17E-07,-67.02582454,-171.977144,0,0,,,,
281.2479998,1098,253.007847,131.5284596,0,-59.16943777,0,-171.6994809,0,0,96.005795,21.6553613,-122.2284072,-2.33E-06,-31.28008031,65.64074577,0,0,,,,
281.2559998,1098,222.4382124,-197.5874877,0,-96.21606543,0,-156.2295658,0,0,76.22026134,-184.868386,99.58914197,-1.75E-06,79.22355458,51.12349481,0,0,,,,
281.2639998,1098,213.2707552,23.61131371,0,-16.87724088,0,-116.4100198,0,0,-164.7663762,-27.77854933,-73.25672403,-1.78E-06,-148.6589858,-192.3013816,0,0,,,,
281.2719998,1098,231.5802596,-66.8561272,0,-117.185598,0,-186.6292778,0,0,144.127615,-79.51633778,-62.96601415,-1.88E-06,51.65840333,122.7677546,0,0,,,,
281.2799998,1098,280.8074717,-97.16574792,0,9.01005644,0,-94.96924029,0,0,-142.3252664,-149.938359,51.99670779,-1.73E-06,-50.65694203,-175.6196261,0,0,,,,
281.2879998,1098,372.7127776,225.1523722,0,-32.07010544,0,-202.3396251,0,0,176.1545079,52.57865599,-50.4395458,-1.82E-06,41.46909358,145.7782355,0,0,,,,
281.2959998,1098,325.3919562,-116.5073432,0,-71.9260787,0,-198.2129398,0,0,169.6897112,-151.9172719,192.452788,-1.73E-06,172.1774613,146.7955529,0,0,,,,
281.3039998,1098,251.749442,57.40185153,0,2.068164369,0,-158.5440502,0,0,-95.82541855,-2.438986787,-10.41246408,-1.76E-06,-62.46435119,-128.6236209,0,0,,,,
281.3119998,1098,240.0935384,-55.316078,0,-100.0886076,0,-223.8113169,0,0,166.6797039,-59.13261889,-40.33521867,-1.72E-06,80.27884687,146.9698282,0,0,,,,
281.3199998,1098,283.0142229,-93.2684775,0,27.72252131,0,-122.8165346,0,0,-143.8462219,-131.0621651,56.85359768,-1.72E-06,-47.59621009,-170.2959675,0,0,,,,
281.3279998,1098,332.0474448,176.5547887,0,-21.7378901,0,-213.7423544,0,0,144.9810519,62.02434926,-58.97273728,-1.69E-06,49.95950367,119.449394,0,0,,,,
281.3359998,1098,268.2114716,-185.2422878,0,-69.84094452,0,-196.2078345,0,0,102.960212,-152.2103829,148.0447575,-1.68E-06,132.7880342,86.02930801,0,0,,,,
281.3439998,1099,248.7292301,52.81276241,0,2.197047722,0,-163.5000064,0,0,-136.6790488,-5.748254315,-57.63631142,-1.67E-06,-113.8029755,-160.9436976,0,0,,,,
281.3519998,1099,261.3464546,-37.3015483,0,-107.5925335,0,-241.8392437,0,0,185.1539128,-63.48057392,-32.28625904,-1.65E-06,78.41973188,173.7469436,0,0,,,,
281.3599998,1099,250.3281429,-134.0393029,0,6.614750037,0,-136.408549,0,0,-155.1536099,-145.5398573,53.04265568,-1.63E-06,-76.50415755,-173.0536282,0,0,,,,
281.3679998,1099,298.4340834,149.3363736,0,-39.08305319,0,-222.1971569,0,0,88.11318848,34.65888837,-112.4792234,-1.62E-06,-17.36570182,71.38126802,0,0,,,,
281.3759998,1099,297.1999063,-141.7424725,0,-68.66614478,0,-211.803526,0,0,95.19128484,-167.9877129,136.4470763,-1.60E-06,108.7124758,80.93017453,0,0,,,,
281.3839998,1099,294.6761594,99.46097451,0,10.65182125,0,-185.6294412,0,0,-93.98101111,0.09771401,-9.590021013,-1.59E-06,-90.88495996,-128.8133876,0,0,,,,
281.3919998,1099,266.5262174,-42.07723353,0,-110.3586942,0,-258.9351685,0,0,183.9013942,-61.55328324,0.799471561,-1.57E-06,83.95777637,158.9337284,0,0,,,,
281.3999998,1099,197.5005767,-194.8168837,0,-20.01993107,0,-143.9173144,0,0,-212.1224801,-161.0119833,38.43488673,-1.56E-06,-116.6077663,-232.3334395,0,0,,,,
281.4079998,1099,245.5713261,106.7985766,0,-71.94629502,0,-229.6949905,0,0,31.8083169,11.24815983,-163.8431272,-1.55E-06,-76.8775118,18.94111713,0,0,,,,
281.4159998,1099,284.049131,-129.4356957,0,-78.3209843,0,-221.2281299,0,0,64.43126019,-184.1784521,96.16361907,-1.53E-06,74.11824574,49.94772249,0,0,,,,
281.4239998,1099,260.1422442,75.58131179,0,20.53781432,0,-185.1411106,0,0,-93.84932693,-4.892685828,-5.239570236,-1.52E-06,-80.44692627,-110.7767191,0,0,,,,
281.4319998,1099,231.6047574,-64.72506566,0,-97.15419683,0,-254.1914749,0,0,177.648669,-65.70962501,-4.376832437,-1.50E-06,98.42647219,174.0805024,0,0,,,,
281.4399998,1099,265.3367533,-90.90888167,0,3.220290893,0,-161.6506064,0,0,-173.1142979,-151.4765942,59.89334958,-1.49E-06,-73.36414393,-204.6510826,0,0,,,,
281.4479998,1099,315.0347478,191.4673815,0,-43.83989713,0,-260.6005243,0,0,148.7944984,40.80350997,-51.56088269,-1.47E-06,22.96204613,138.59441,0,0,,,,
281.4559998,1099,241.6384187,-182.0824813,0,-66.8954051,0,-235.6803776,0,0,102.7624818,-171.0181822,155.9367493,-1.46E-06,126.2509842,108.7196387,0,0,,,,
281.4639998,1099,213.5094254,46.95499875,0,20.6939469,0,-194.4925061,0,0,-162.5926365,-20.14405523,-67.85813053,-1.45E-06,-124.7696639,-184.246107,0,0,,,,
281.4719998,1099,197.8544275,-60.20321635,0,-101.6728455,0,-273.4974096,0,0,148.7926456,-76.94324664,-47.36308249,-1.43E-06,56.80830559,148.2821923,0,0,,,,
281.4799998,1099,163.387154,-169.7171576,0,-12.33268045,0,-172.8523252,0,0,-184.5883463,-158.0986308,38.32893685,-1.42E-06,-89.31237551,-204.2105963,0,0,,,,
281.4879998,1099,201.77536,113.1587619,0,-62.54157442,0,-253.637626,0,0,32.72297499,13.12107435,-158.2121925,-1.40E-06,-69.90465198,10.65342656,0,0,,,,
281.4959998,1099,201.0692461,-160.8673371,0,-70.47945259,0,-232.4476925,0,0,22.44947238,-187.3108069,81.76118382,5.17E-07,45.41288381,21.16271265,0,0,,,,
281.5039998,1099,211.7440883,85.32992398,0,30.64511999,0,-201.2532126,0,0,-107.3235281,-0.96318335,-18.81284371,2.33E-06,-92.76382121,-123.5570524,0,0,,,,
281.5119998,1099,215.451647,-21.21715042,0,-91.44968805,0,-282.0216659,0,0,173.0479901,-59.98728236,-16.05906502,1.75E-06,78.74154345,172.6645781,0,0,,,,
281.5199998,1099,216.8791156,-94.3142796,0,1.298540003,0,-192.1083163,0,0,-164.1217293,-143.7175249,59.8665691,1.78E-06,-57.85194569,-182.4868053,0,0,,,,
281.5279998,1099,221.4830175,123.1273467,0,-48.46293978,0,-277.0839677,0,0,111.5884886,37.95547761,-88.56366881,1.88E-06,13.93047862,89.76988556,0,0,,,,
281.5359998,1099,166.1275971,-211.2861878,0,-82.14197643,0,-249.2796153,0,0,1.06167528,-182.4272885,61.81049798,1.73E-06,39.79151452,-10.90538007,0,0,,,,
281.5439998,1099,187.4352912,68.46490825,0,-8.41906474,0,-221.8929312,0,0,-190.3988237,-17.3470253,-103.4535492,1.82E-06,-153.1933408,-221.316812,0,0,,,,
281.5519998,1099,233.3052093,-1.004135859,0,-110.9009212,0,-312.6536527,0,0,192.8680071,-62.2418426,-17.70700145,1.73E-06,88.22346841,187.4969584,0,0,,,,
281.5599998,1099,225.7677681,-84.62615061,0,12.79795069,0,-216.4020809,0,0,-135.7277787,-132.8517088,76.51280612,1.76E-06,-47.44606107,-151.533345,0,0,,,,
281.5679998,1099,184.1808986,94.16026817,0,-38.22463875,0,-282.9822182,0,0,76.9177493,44.15089306,-110.6199513,1.72E-06,-9.272340493,63.64968097,0,0,,,,
281.5759998,1099,149.6401653,-217.7626109,0,-77.27592442,0,-254.077181,0,0,-4.448367254,-175.9524478,52.23691405,1.72E-06,17.72446708,-2.057784271,0,0,,,,
281.5839998,1099,205.189587,101.2774764,0,-4.556960556,0,-239.4284769,0,0,-159.988,-8.875000704,-92.92376193,1.69E-06,-155.9306715,-181.3810657,0,0,,,,
281.5919998,1099,213.2881642,-2.306585977,0,-111.3090241,0,-328.8092313,0,0,205.0838933,-54.43983867,-4.153058943,1.68E-06,115.7218673,207.2588597,0,0,,,,
281.5999998,1100,179.5954256,-103.0616257,0,6.786095139,0,-225.5567289,0,0,-153.894502,-131.8116858,65.9122586,1.67E-06,-55.32183351,-168.5265143,0,0,,,,
281.6079998,1100,197.0429408,141.1019059,0,-43.48198075,0,-305.7664699,0,0,95.2668387,44.43584711,-109.2733256,1.65E-06,-12.94631539,68.05213301,0,0,,,,
281.6159998,1100,172.4726317,-178.5727639,0,-77.15816809,0,-287.1605101,0,0,57.58565165,-164.329163,103.9565309,1.63E-06,88.35611525,55.11919933,0,0,,,,
281.6239998,1100,158.7043666,54.35639971,0,-6.889134227,0,-258.9307628,0,0,-162.0929691,-7.567391883,-75.79977307,1.62E-06,-143.1791919,-176.7573494,0,0,,,,
281.6319998,1100,161.3500107,-52.67566758,0,-112.4829757,0,-335.4116014,0,0,148.5942345,-70.9652847,-44.39747699,1.60E-06,39.8877579,149.1308139,0,0,,,,
281.6399998,1100,151.5426166,-135.056687,0,8.916303895,0,-230.4208695,0,0,-185.8112798,-148.0054165,37.06370599,1.59E-06,-102.9904151,-195.4767636,0,0,,,,
281.6479998,1100,154.2096758,93.1076468,0,-44.71248221,0,-305.5673151,0,0,45.938023,19.73019546,-147.6001837,1.57E-06,-67.72455843,41.88679491,0,0,,,,
281.6559998,1100,129.110633,-206.718486,0,-78.82161844,0,-282.0987908,0,0,-6.28725522,-193.8960912,45.52659358,1.56E-06,26.12203507,12.09309122,0,0,,,,
281.6639998,1100,128.336538,32.96689617,0,-8.572923914,0,-254.0271038,0,0,-177.4694237,-24.23893479,-102.1299063,1.55E-06,-147.6131089,-187.4941783,0,0,,,,
281.6719998,1100,105.0063195,-114.4966565,0,-123.3644904,0,-321.9022617,0,0,106.5923302,-88.27569158,-76.4675867,1.53E-06,7.240317296,119.680671,0,0,,,,
281.6799998,1100,87.00466125,-187.4902856,0,-21.41408544,0,-216.7550111,0,0,-268.07147,-169.488634,-27.70953423,1.52E-06,-179.9010382,-240.982062,0,0,,,,
281.6879998,1100,120.9393436,70.01289412,0,-81.34350789,0,-301.3323266,0,0,7.936392148,3.466131707,-179.9201935,1.50E-06,-106.0071776,20.45791785,0,0,,,,
281.6959998,1100,119.2272467,-209.4609014,0,-86.13269321,0,-276.5984792,0,0,-9.89580937,-204.0508486,54.74532351,1.49E-06,17.2544518,-8.446695868,0,0,,,,
281.7039998,1100,151.8567065,84.6962283,0,15.92054403,0,-250.7568073,0,0,-152.9015283,-25.58254055,-72.89084542,1.47E-06,-125.8382686,-164.4822172,0,0,,,,
281.7119998,1100,168.1544899,-16.1531081,0,-102.4688802,0,-336.9275713,0,0,169.1240272,-82.98027782,-23.7022877,1.46E-06,81.77253174,179.4379809,0,0,,,,
281.7199998,1100,183.7322889,-56.05217849,0,-8.609038117,0,-261.2907003,0,0,-150.0320315,-156.3403526,69.83030858,1.45E-06,-56.98724187,-164.779108,0,0,,,,
281.7279998,1100,213.4501317,193.3190069,0,-60.20389196,0,-363.6027904,0,0,157.2901704,22.60547161,-40.79080961,1.43E-06,41.01667677,136.2118567,0,0,,,,
281.7359998,1100,136.7724412,-163.5918533,0,-69.55919274,0,-331.0947188,0,0,57.25679128,-194.6118893,144.002692,1.42E-06,91.75330281,62.64899068,0,0,,,,
281.7439998,1100,113.6647064,89.22726053,0,17.93070826,0,-298.8406883,0,0,-156.8593565,-34.50433065,-55.08594076,1.40E-06,-140.9453276,-163.9416419,0,0,,,,
281.7519998,1100,95.97553135,-34.64612371,0,-107.8533952,0,-378.868821,0,0,152.7456148,-103.8018815,-15.30023003,-5.17E-07,58.11722744,172.2259179,0,0,,,,
281.7599998,1100,37.85113402,-149.9507358,0,-19.56073557,0,-273.3846245,0,0,-237.469274,-186.9176534,23.24089238,-2.33E-06,-114.8622659,-214.7593187,0,0,,,,
281.7679998,1100,65.18827255,101.445309,0,-74.52755255,0,-352.7703789,0,0,25.6709059,-15.7119888,-155.8005535,-1.75E-06,-61.40582457,42.95623587,0,0,,,,
281.7759998,1100,71.83802626,-171.0755647,0,-83.36832233,0,-332.1679424,0,0,-0.254653179,-219.898103,70.52696384,-1.78E-06,40.67794729,28.04403608,0,0,,,,
281.7839998,1100,104.7461418,115.2224793,0,1.374738169,0,-324.5740651,0,0,-134.1779097,-40.36788439,-54.86000325,-1.88E-06,-105.6144168,-131.3744538,0,0,,,,
281.7919998,1100,101.3065575,-21.60668078,0,-123.1856397,0,-413.1554618,0,0,186.359786,-104.9899039,7.149783115,-1.73E-06,114.8419081,201.5154578,0,0,,,,
281.7999998,1100,54.51618349,-128.9434059,0,-25.15675739,0,-310.7437276,0,0,-204.8646995,-186.3693759,42.65548051,-1.82E-06,-81.91868405,-184.4165652,0,0,,,,
281.8079998,1100,70.04892577,112.523435,0,-78.19885159,0,-393.068383,0,0,52.45348307,-13.39546372,-142.2649755,-1.73E-06,-35.05087664,68.15413906,0,0,,,,
281.8159998,1100,18.43722681,-216.4445236,0,-105.6259377,0,-357.4060683,0,0,-36.06454956,-226.3861012,45.73774856,-1.76E-06,31.73995472,-13.55677811,0,0,,,,
281.8239998,1100,47.23020797,82.48462854,0,-36.40927781,0,-342.7092702,0,0,-193.5095781,-52.55775642,-111.4709852,-1.72E-06,-156.850915,-190.4657536,0,0,,,,
281.8319998,1100,110.0771433,17.49092862,0,-132.1539756,0,-436.4942092,0,0,199.5638875,-100.1776227,0.806434219,-1.72E-06,108.5110909,216.4099669,0,0,,,,
281.8399998,1100,98.54181612,-48.88453361,0,1.325695464,0,-335.0859792,0,0,-143.3612072,-156.6592865,95.75231127,-1.69E-06,-29.73007233,-126.5102291,0,0,,,,
281.8479998,1100,100.5273704,184.0175874,0,-54.40227444,0,-426.4396824,0,0,129.5087723,29.93320427,-58.27333841,-1.68E-06,28.31852596,137.4188022,0,0,,,,
281.8559998,1101,-6.577086037,-214.3834242,0,-88.71143186,0,-384.1211582,0,0,8.129558065,-187.8494315,114.6874664,-1.67E-06,64.12694209,35.96209298,0,0,,,,
281.8639998,1101,-45.20064445,19.52903041,0,-16.58241135,0,-332.2330269,0,0,-263.0003374,-35.63864382,-140.8116526,-1.65E-06,-209.2781704,-240.6176394,0,0,,,,
281.8719998,1101,20.82224583,-26.19220245,0,-114.8161838,0,-406.7722733,0,0,104.9670436,-91.01838226,-76.85613365,-1.63E-06,14.3403319,123.8043049,0,0,,,,
281.8799998,1101,54.41451148,-48.19357295,0,9.072025115,0,-316.9330094,0,0,-168.2639667,-139.542252,63.28355088,-1.62E-06,-81.27331675,-157.7899634,0,0,,,,
281.8879998,1101,58.40346092,176.1621435,0,-55.18939576,0,-411.113221,0,0,105.5912342,36.27599219,-81.76651403,-1.60E-06,-2.857082994,123.409038,0,0,,,,
281.8959998,1101,-13.09088371,-184.5764671,0,-91.91405146,0,-379.2111725,0,0,-0.81805377,-189.3325954,87.60625765,-1.59E-06,51.21738187,27.25410663,0,0,,,,
281.9039998,1101,-6.781766371,85.48702886,0,-21.63481816,0,-353.5641087,0,0,-190.7320774,-24.45870621,-106.2060797,-1.57E-06,-151.3918605,-175.1291345,0,0,,,,
281.9119998,1101,6.800197322,-24.13147042,0,-123.7491398,0,-431.9338722,0,0,149.0479091,-84.05066791,-39.28976414,-1.56E-06,59.99445092,191.4997157,0,0,,,,
281.9199998,1101,-1.697365732,-80.21676639,0,-2.947760394,0,-331.6098027,0,0,-212.1248307,-151.6474588,32.16363638,-1.55E-06,-106.5011681,-172.6001453,0,0,,,,
281.9279998,1101,19.06718949,158.4793147,0,-63.76608158,0,-417.3803764,0,0,63.43344129,21.31940648,-113.4972008,-1.53E-06,-26.43050993,86.94835951,0,0,,,,
281.9359998,1101,-13.84992486,-165.6060145,0,-91.81250507,0,-387.8311751,0,0,1.407879908,-189.846332,97.68978091,-1.52E-06,43.25217423,27.04935923,0,0,,,,
281.9439998,1101,36.72198702,130.3991955,0,-21.81870565,0,-376.2866411,0,0,-154.4738809,-13.95463153,-68.47806216,-1.50E-06,-134.4409006,-147.9668475,0,0,,,,
281.9519998,1101,27.89928987,-37.14276998,0,-140.8270523,0,-456.4767223,0,0,169.9549028,-79.17349637,-9.949507466,-1.49E-06,101.3077575,191.5378558,0,0,,,,
281.9599998,1101,-14.58529384,-129.6003726,0,-38.39041408,0,-354.6302155,0,0,-231.0617521,-156.7171954,14.76692999,-1.47E-06,-110.1442052,-215.1477208,0,0,,,,
281.9679998,1101,37.22101161,146.575008,0,-92.36372494,0,-444.0741956,0,0,30.90210665,15.03272328,-153.8409707,-1.46E-06,-63.44832938,40.85324224,0,0,,,,
281.9759998,1101,20.60971748,-170.9375771,0,-91.21790272,0,-409.6499816,0,0,-3.745742779,-181.2817778,90.21138602,-1.45E-06,52.39102141,14.41849562,0,0,,,,
281.9839998,1101,71.36002212,132.2015258,0,0.718520842,0,-396.4564643,0,0,-129.1684637,8.429258101,-49.18190833,-1.43E-06,-112.138482,-133.4536405,0,0,,,,
281.9919998,1101,64.79366704,-12.44742664,0,-113.207679,0,-471.5585791,0,0,171.9690403,-54.27333499,5.158887479,-1.42E-06,94.9824105,202.2344015,0,0,,,,
281.9999998,1101,-15.58842952,-146.382701,0,-11.66790824,0,-351.6128904,0,0,-223.795377,-124.2217964,43.87009694,-1.40E-06,-81.43937776,-193.609472,0,0,,,,
282.0079998,1101,26.37694545,117.9993615,0,-66.25297849,0,-434.0064432,0,0,54.02377867,46.59631062,-130.3953217,5.17E-07,-20.45317054,50.54789483,0,0,,,,
282.0159998,1101,24.55673736,-164.5053973,0,-69.26094526,0,-401.1535855,0,0,-9.969657504,-159.4760679,87.43230843,2.33E-06,55.84719844,4.531757571,0,0,,,,
282.0239998,1101,24.79060028,101.6125413,0,16.22002015,0,-377.3225358,0,0,-151.0975448,23.64257562,-54.21127668,1.75E-06,-109.8636137,-142.4256175,0,0,,,,
282.0319998,1101,36.34133862,-10.00606879,0,-103.2118866,0,-459.4082218,0,0,160.7185508,-44.55892199,-6.037925483,1.78E-06,91.30830436,174.0544104,0,0,,,,
282.0399998,1101,60.78344383,-41.01402156,0,-9.84062016,0,-378.0070156,0,0,-173.009033,-109.630119,77.61047544,1.88E-06,-64.54698571,-164.3976025,0,0,,,,
282.0479998,1101,67.9931112,153.4146623,0,-71.13559586,0,-467.7261279,0,0,112.1489426,55.42892542,-55.34496698,1.73E-06,30.08185435,128.7164967,0,0,,,,
282.0559998,1101,6.3199821,-198.0007034,0,-67.51018623,0,-410.8569146,0,0,-46.74920025,-168.8930267,83.29828753,1.82E-06,41.5863037,-11.94981357,0,0,,,,
282.0639998,1101,68.66544352,133.451301,0,26.94431754,0,-392.7742109,0,0,-171.5985806,17.21838859,-70.69224053,1.73E-06,-123.1787399,-160.8662777,0,0,,,,
282.0719998,1101,79.66162991,3.033929472,0,-98.38944108,0,-488.5048053,0,0,199.5993552,-49.27713067,40.46503921,1.76E-06,144.1123887,223.6699064,0,0,,,,
282.0799998,1101,13.84422107,-111.9252036,0,-6.672718146,0,-387.7568444,0,0,-210.3776366,-131.7049351,63.42415017,1.72E-06,-67.40598462,-192.8390936,0,0,,,,
282.0879998,1101,26.74759299,111.8748453,0,-60.14890616,0,-468.4811657,0,0,53.09489556,33.06134304,-115.5165269,1.72E-06,-25.08348168,76.31206031,0,0,,,,
282.0959998,1101,-8.849785863,-217.6409042,0,-78.73674959,0,-427.8158049,0,0,-42.45722138,-178.8009774,64.69793608,1.69E-06,20.99180326,-6.281566307,0,0,,,,
282.1039998,1101,-44.76456235,6.814900404,0,-14.9545165,0,-388.848021,0,0,-243.8235704,-8.124509981,-143.6214865,1.68E-06,-193.3427027,-241.279024,0,0,,,,
282.1119998,1102,-25.16380988,-96.72036963,0,-110.5185781,0,-449.0979189,0,0,66.78682166,-79.7102533,-99.90703006,1.67E-06,-2.405432828,86.02582544,0,0,,,,
282.1199998,1102,74.55977272,-36.64630822,0,26.17794742,0,-364.6167335,0,0,-194.9160142,-120.1512018,26.12220126,1.65E-06,-104.4679655,-182.6613155,0,0,,,,
282.1279998,1102,108.2816951,191.2485655,0,-33.98499781,0,-470.6261908,0,0,166.4053946,69.91685523,-37.41442999,1.63E-06,61.72612165,177.9438071,0,0,,,,
282.1359998,1102,-33.09398777,-252.8590905,0,-70.3353386,0,-420.0130176,0,0,-9.853195648,-161.9507903,105.270968,1.62E-06,71.80388598,28.14367963,0,0,,,,
282.1439998,1102,-72.18767567,-32.10547595,0,-9.794463111,0,-375.0163561,0,0,-265.5828616,-13.9757186,-165.7761959,1.60E-06,-190.9325156,-244.2521489,0,0,,,,
282.1519998,1102,1.675134781,-83.2368005,0,-109.857309,0,-447.5029178,0,0,83.93175883,-87.02309236,-94.31918874,1.59E-06,14.68689427,101.8110856,0,0,,,,
282.1599998,1102,62.40874182,-49.2291223,0,18.85365878,0,-363.6324158,0,0,-183.9231644,-131.8771766,43.60767277,1.57E-06,-93.25304954,-174.801556,0,0,,,,
282.1679998,1102,44.82650392,137.0946671,0,-46.06794374,0,-460.2106949,0,0,119.7405016,39.65545421,-62.78675583,1.56E-06,25.71364155,157.7879273,0,0,,,,
282.1759998,1102,-2.881730346,-201.1967708,0,-74.91078845,0,-430.9154004,0,0,-10.01707979,-186.9046871,99.25897096,1.55E-06,34.64226635,39.55093381,0,0,,,,
282.1839998,1102,38.35296543,122.7071896,0,-4.567600984,0,-423.6878113,0,0,-153.6446219,-12.58891082,-82.77387025,1.53E-06,-140.5280419,-135.1323228,0,0,,,,
282.1919998,1102,-3.886193913,-50.83003712,0,-102.7120203,0,-490.6431562,0,0,173.7155414,-77.27963199,3.968998171,1.52E-06,114.8723756,217.6312628,0,0,,,,
282.1999998,1102,-13.25328101,-91.79843492,0,21.84418165,0,-390.4530892,0,0,-199.3083735,-133.834924,43.10540628,1.50E-06,-69.05041847,-175.4182473,0,0,,,,
282.2079998,1102,26.59311825,158.5309697,0,-43.36631805,0,-487.576265,0,0,107.8848611,38.94790578,-93.30905668,1.49E-06,19.50285133,124.9195541,0,0,,,,
282.2159998,1102,-68.17464793,-246.7113454,0,-65.5745319,0,-425.4955471,0,0,-23.05945688,-173.3442081,87.28997366,1.47E-06,62.56025243,13.79760132,0,0,,,,
282.2239998,1102,-39.78024834,54.84263593,0,6.042899471,0,-391.2941047,0,0,-231.1123738,1.159191125,-149.3871264,1.46E-06,-171.1562254,-222.835363,0,0,,,,
282.2319998,1102,15.84928877,-26.55504418,0,-103.3040398,0,-479.9458798,0,0,149.8813203,-59.41749428,-38.02270171,1.45E-06,73.04191643,178.9085777,0,0,,,,
282.2399998,1102,-49.49155898,-153.8438501,0,0.240207061,0,-374.9631087,0,0,-205.5464443,-115.6268373,42.08580635,1.43E-06,-72.05202107,-177.9987071,0,0,,,,
282.2479998,1102,-69.57093521,45.27794103,0,-66.74669964,0,-445.4653758,0,0,-5.56153832,33.27746033,-185.9755653,1.42E-06,-60.10522219,12.75345756,0,0,,,,
282.2559998,1102,-46.94224962,-213.1215804,0,-61.78966269,0,-405.9068676,0,0,-68.33074499,-178.9614999,12.20479966,1.40E-06,-0.063323519,-33.80020709,0,0,,,,
282.2639998,1102,25.00440108,108.4131475,0,25.86463594,0,-397.785848,0,0,-145.7580007,11.44843707,-87.13911276,-5.17E-07,-99.95781058,-126.3187551,0,0,,,,
282.2719998,1102,40.02789473,-27.90144723,0,-90.66206732,0,-480.6652325,0,0,189.0222138,-58.68650705,16.33521393,-2.33E-06,132.5945031,217.1996331,0,0,,,,
282.2799998,1102,17.92338882,-81.89818165,0,11.27075732,0,-384.8739788,0,0,-179.4732851,-117.3088024,55.00179652,-1.75E-06,-54.41499904,-161.1784149,0,0,,,,
282.2879998,1102,22.39885419,139.9223525,0,-57.75569981,0,-479.2138727,0,0,104.3034526,44.3909007,-101.48274,-1.78E-06,39.97338514,122.6456583,0,0,,,,
282.2959998,1102,-28.32234368,-200.273736,0,-82.28165398,0,-447.0124956,0,0,9.395490627,-171.9590653,91.76325971,-1.88E-06,99.61500668,42.19157677,0,0,,,,
282.3039998,1102,-35.96784711,68.09455627,0,-18.46063402,0,-427.0024238,0,0,-187.3777968,-1.678837065,-120.8426197,-1.73E-06,-120.2876053,-173.1507483,0,0,,,,
282.3119998,1102,-11.3367708,-45.91081512,0,-115.4020325,0,-503.8108671,0,0,145.1155857,-75.65303559,-39.62239779,-1.82E-06,83.42593011,160.5837683,0,0,,,,
282.3199998,1102,12.63646318,-59.60825382,0,15.63712769,0,-415.2358278,0,0,-161.9289717,-120.7720996,49.69738665,-1.73E-06,-55.25528756,-159.6598027,0,0,,,,
282.3279998,1102,-19.68489262,110.169361,0,-49.02677977,0,-495.4673288,0,0,88.74354513,42.377538,-111.0653786,-1.76E-06,22.74165132,94.41693862,0,0,,,,
282.3359998,1102,-61.83096642,-221.8509908,0,-73.9392797,0,-451.8629707,0,0,-40.81682225,-174.9375062,53.82598989,-1.72E-06,34.83250091,-27.14433656,0,0,,,,
282.3439998,1102,9.059515306,131.1660313,0,-3.549863293,0,-449.2179162,0,0,-161.7101288,13.01286649,-109.3180292,-1.72E-06,-128.232654,-159.4225113,0,0,,,,
282.3519998,1102,-24.79906821,-55.5603867,0,-102.8574203,0,-516.4554524,0,0,165.5405643,-57.14151541,-6.292873303,-1.69E-06,105.6118664,191.9580873,0,0,,,,
282.3599998,1102,-68.56909685,-136.7960349,0,17.99953563,0,-402.9306027,0,0,-241.2127611,-123.5078194,0.606155475,-1.68E-06,-120.679791,-229.3790588,0,0,,,,
282.3679998,1103,-63.02071335,78.61071399,0,-51.82405633,0,-483.2879625,0,0,24.0802152,33.58875963,-175.7776493,-1.67E-06,-38.02773802,32.27620767,0,0,,,,
282.3759998,1103,-116.9011515,-270.6353893,0,-80.42983851,0,-434.6053644,0,0,-67.356208,-179.9323691,19.75263874,-1.65E-06,33.42400767,-46.68212813,0,0,,,,
282.3839998,1103,-56.75677538,63.12535977,0,-18.12036394,0,-422.3373219,0,0,-207.5065478,-3.107972599,-168.2015401,-1.63E-06,-163.3777752,-210.3369488,0,0,,,,
282.3919998,1103,-22.95399474,-50.33629106,0,-118.3477589,0,-503.6372274,0,0,147.5765655,-73.19412775,-50.76564757,-1.62E-06,79.30903094,162.0794395,0,0,,,,
282.3999998,1103,-29.46504871,-88.06629502,0,7.732431035,0,-410.6637922,0,0,-183.1040752,-120.8054081,30.95330663,-1.60E-06,-64.72037847,-171.991984,0,0,,,,
282.4079998,1103,-5.78693435,152.4915699,0,-52.75488857,0,-499.774862,0,0,93.40131141,43.67329991,-118.5492356,-1.59E-06,-0.259016063,109.1480899,0,0,,,,
282.4159998,1103,-42.99315795,-174.8958902,0,-65.8496193,0,-455.5263068,0,0,2.057017465,-155.7882646,98.27332783,-1.57E-06,55.32196473,35.91059593,0,0,,,,
282.4239998,1103,-47.46681729,70.48325716,0,-2.888469813,0,-432.9431482,0,0,-146.804387,31.08528932,-86.37321206,-1.56E-06,-106.2056839,-134.0940675,0,0,,,,
282.4319998,1103,-56.30482198,-89.61581091,0,-112.1515901,0,-497.1009424,0,0,119.1004106,-61.48201389,-63.14103135,-1.55E-06,63.5659065,136.8028844,0,0,,,,
282.4399998,1103,-44.9096071,-101.3991355,0,10.90815572,0,-400.5670737,0,0,-220.934733,-116.522864,-8.788502007,-1.53E-06,-120.618861,-216.5826905,0,0,,,,
282.4479998,1103,-38.93560047,106.3690499,0,-57.69355887,0,-489.3864535,0,0,79.81538292,48.49998324,-132.899932,-1.52E-06,-12.76281115,96.04366851,0,0,,,,
282.4559998,1103,-84.31587439,-217.6195355,0,-76.86352566,0,-447.8213062,0,0,-45.70690295,-167.5824642,49.69158604,-1.50E-06,14.1258035,-17.24189164,0,0,,,,
282.4639998,1103,-57.51098661,86.52007865,0,-6.632182682,0,-433.4323453,0,0,-167.4001147,17.56813834,-116.7948097,-1.49E-06,-163.0580175,-167.2408638,0,0,,,,
282.4719998,1103,-66.1518473,-74.37765838,0,-116.394479,0,-498.0689943,0,0,135.7639579,-62.9796807,-39.11009314,-1.47E-06,63.08880526,163.3159527,0,0,,,,
282.4799998,1103,-84.68737123,-126.9167516,0,-13.51434454,0,-397.5346952,0,0,-232.8742163,-118.6985551,1.800219409,-1.46E-06,-116.2325005,-208.6424236,0,0,,,,
282.4879998,1103,-68.95744372,84.69048076,0,-84.50790754,0,-484.2936533,0,0,44.94538223,34.98584329,-153.1997421,-1.45E-06,-30.90379914,60.48077343,0,0,,,,
282.4959998,1103,-95.65611384,-228.6370941,0,-78.82793314,0,-436.6718464,0,0,-68.58426601,-179.0439166,32.93761228,-1.43E-06,11.49524192,-36.62612247,0,0,,,,
282.5039998,1103,-62.62353867,76.09657365,0,5.495917381,0,-423.4455719,0,0,-165.9917824,11.45551078,-124.0886149,-1.42E-06,-151.5754393,-149.7200101,0,0,,,,
282.5119998,1103,-61.60670452,-80.64558506,0,-104.3674118,0,-486.2271622,0,0,147.1272416,-66.8361638,-44.12857098,-1.40E-06,82.80175062,175.2077746,0,0,,,,
282.5199998,1103,-88.05506822,-139.9275686,0,1.489871087,0,-371.2108203,0,0,-240.094596,-113.4950386,-13.99519694,5.17E-07,-115.3447327,-217.5324913,0,0,,,,
282.5279998,1103,-68.6670894,85.07112785,0,-64.96470158,0,-459.9258251,0,0,46.76083977,46.08105215,-162.7187228,2.33E-06,-50.66665388,64.75768293,0,0,,,,
282.5359998,1103,-42.19810975,-168.6823568,0,-57.5657168,0,-430.3016446,0,0,-15.42892174,-156.322265,61.92221709,1.75E-06,43.78348567,2.352729241,0,0,,,,
282.5439998,1103,44.97494006,190.5365919,0,24.79178245,0,-437.8850622,0,0,-69.29433827,49.52370572,-47.04151135,1.78E-06,-47.81491089,-75.08839456,0,0,,,,
282.5519998,1103,-13.31878451,-31.00014218,0,-96.79028487,0,-511.9979908,0,0,225.0414053,-36.29714887,49.71378235,1.88E-06,185.5621382,238.6155082,0,0,,,,
282.5599998,1103,-101.7068237,-147.8185122,0,-2.699855717,0,-401.4769489,0,0,-212.5346563,-104.2478236,26.74290386,1.73E-06,-62.52909465,-209.939224,0,0,,,,
282.5679998,1103,-65.44634356,104.7695096,0,-66.23834367,0,-486.5889086,0,0,49.60721924,46.89199815,-158.0557618,1.82E-06,-30.42859522,60.11460967,0,0,,,,
282.5759998,1103,-115.9685395,-228.1689632,0,-52.9704671,0,-421.4357846,0,0,-64.51266932,-155.4180772,54.15884703,1.73E-06,20.96162539,-14.70633581,0,0,,,,
282.5839998,1103,-118.7903759,38.77118404,0,27.98055738,0,-393.9718761,0,0,-178.0935932,42.14381675,-119.8862149,1.76E-06,-155.7818058,-156.8780613,0,0,,,,
282.5919998,1103,-107.5521121,-88.94865002,0,-91.88937697,0,-468.9078751,0,0,115.5269318,-47.89125545,-59.56780816,1.72E-06,29.03751135,139.8132141,0,0,,,,
282.5999998,1103,-112.7179922,-114.4439758,0,8.416884878,0,-369.0108557,0,0,-254.9675878,-100.1964761,-15.42232578,1.72E-06,-129.4944434,-219.5290386,0,0,,,,
282.6079998,1103,-124.5046925,54.27613998,0,-57.86476334,0,-446.7532503,0,0,46.58305303,57.38960227,-155.3920001,1.69E-06,-4.270267155,79.62218306,0,0,,,,
282.6159998,1103,-203.5584872,-307.1067847,0,-54.8939673,0,-377.5031513,0,0,-122.9018285,-168.6242141,-9.341275329,1.68E-06,-21.21788368,-86.8077841,0,0,,,,
282.6239998,1104,-162.6467415,18.31087806,0,23.0046313,0,-352.6938775,0,0,-251.4306685,8.804555092,-201.1014583,1.67E-06,-219.3868947,-231.282773,0,0,,,,
282.6319998,1104,-137.2903497,-116.2370922,0,-90.52384074,0,-416.4293805,0,0,92.20418535,-72.95263967,-86.00020448,1.65E-06,38.15251894,123.5695598,0,0,,,,
282.6399998,1104,-123.9330016,-123.7761059,0,11.53326336,0,-314.9798795,0,0,-260.3379828,-111.7181231,-30.54816727,1.63E-06,-148.215547,-246.0555814,0,0,,,,
282.6479998,1104,-95.67964481,97.41123868,0,-60.44058612,0,-413.4118593,0,0,71.99413481,51.60689017,-137.0907029,1.62E-06,-28.22541555,83.63556831,0,0,,,,
282.6559998,1104,-150.5659577,-239.7946741,0,-60.16594335,0,-365.6921359,0,0,-51.13984113,-161.9539724,61.01763315,1.60E-06,32.06479486,-26.21046391,0,0,,,,
282.6639998,1104,-93.13248158,105.9442904,0,18.54272888,0,-356.7104514,0,0,-167.8029688,28.00831919,-122.6799944,1.59E-06,-152.0243789,-170.1006645,0,0,,,,
282.6719998,1104,-68.35596048,-35.32593757,0,-93.37144943,0,-432.9199764,0,0,184.880714,-47.26150938,6.107985361,1.57E-06,110.0970319,194.1176001,0,0,,,,
282.6799998,1104,-121.0532334,-115.3037732,0,6.742632808,0,-326.6333941,0,0,-210.6252327,-90.4793993,40.012216,1.56E-06,-83.92395038,-205.1713084,0,0,,,,
282.6879998,1104,-141.1210475,68.73630726,0,-65.0693703,0,-404.0162283,0,0,41.33051004,56.18551786,-139.02756,1.55E-06,-49.53536687,41.40599873,0,0,,,,
282.6959998,1104,-167.8820653,-231.606505,0,-68.1061907,0,-341.7822961,0,0,-92.40917338,-160.1514793,35.71495539,1.53E-06,-14.6331507,-79.36912187,0,0,,,,
282.7039998,1104,-113.043567,114.7956521,0,-4.970879401,0,-331.5242271,0,0,-177.4593862,34.90434146,-123.0950038,1.52E-06,-159.8702406,-180.5912219,0,0,,,,
282.7119998,1104,-143.8789617,-69.39737014,0,-109.6597791,0,-401.6093991,0,0,152.2123196,-54.16473784,-13.69795896,1.50E-06,77.42994387,174.2052714,0,0,,,,
282.7199998,1104,-211.2529256,-139.4800941,0,12.55397899,0,-287.1817891,0,0,-281.5428844,-114.5088076,-25.18467169,1.49E-06,-141.281163,-246.0097668,0,0,,,,
282.7279998,1104,-161.8253507,134.9053419,0,-61.11418241,0,-388.5534667,0,0,56.08018297,42.93569044,-151.5951306,1.47E-06,-45.42887813,76.68621894,0,0,,,,
282.7359998,1104,-170.1877471,-150.2410311,0,-73.46783211,0,-358.3543502,0,0,14.17061877,-155.366681,109.6649379,1.46E-06,58.07578063,35.22357788,0,0,,,,
282.7439998,1104,-175.3440513,112.3868266,0,-14.89207411,0,-344.7232388,0,0,-145.3832262,26.70910536,-85.55290561,1.45E-06,-110.6790175,-124.7667881,0,0,,,,
282.7519998,1104,-164.2260404,-45.09924624,0,-119.4319213,0,-412.0152126,0,0,147.1537881,-70.58641667,-18.82533177,1.43E-06,93.02948209,181.3725319,0,0,,,,
282.7599998,1104,-178.9867468,-80.33756405,0,8.352680285,0,-302.8930249,0,0,-217.3263927,-109.2800205,19.96349185,1.42E-06,-91.00154982,-186.4340101,0,0,,,,
282.7679998,1104,-173.0885895,109.5497249,0,-64.77219825,0,-382.6311715,0,0,52.73978968,52.50151267,-128.273519,1.40E-06,-23.39654459,90.92283963,0,0,,,,
282.7759998,1104,-173.1425847,-200.1604056,0,-79.08537201,0,-334.4115981,0,0,-69.66188391,-154.0196411,65.38599945,-5.17E-07,13.36916717,-39.92055867,0,0,,,,
282.7839998,1104,-130.2053368,105.1538353,0,-20.49119749,0,-325.1078457,0,0,-167.2757831,37.98531348,-111.1046487,-2.33E-06,-135.9423175,-161.0352485,0,0,,,,
282.7919998,1104,-136.6919963,-56.14624289,0,-125.2958099,0,-387.8657098,0,0,143.4075719,-45.99850352,-25.68281384,-1.75E-06,75.00272186,176.9169773,0,0,,,,
282.7999998,1104,-200.5217489,-120.0436948,0,1.692211252,0,-266.5440605,0,0,-263.4107978,-85.08270726,-15.88422628,-1.78E-06,-141.9429605,-231.1725041,0,0,,,,
282.8079998,1104,-178.2442038,114.0984771,0,-67.64404178,0,-355.4266521,0,0,45.51629074,76.49748821,-159.1257047,-1.88E-06,-31.40995353,76.53955464,0,0,,,,
282.8159998,1104,-155.8280058,-148.9470948,0,-72.3031324,0,-319.0336862,0,0,-11.51205043,-110.6718342,87.59861255,-1.73E-06,71.94918846,23.26635871,0,0,,,,
282.8239998,1104,-165.810669,108.3250221,0,-7.237570388,0,-297.2223616,0,0,-152.4499759,90.19472811,-84.01335322,-1.82E-06,-110.8645241,-127.5635218,0,0,,,,
282.8319998,1104,-164.0255251,-40.33981978,0,-110.132843,0,-363.5635175,0,0,138.2919157,-3.396371863,-13.31810175,-1.73E-06,79.76440994,178.0653849,0,0,,,,
282.8399998,1104,-156.5556145,-41.58326983,0,16.15663408,0,-269.9583021,0,0,-179.8473712,-39.44627015,47.24771422,-1.76E-06,-66.22890635,-158.990974,0,0,,,,
282.8479998,1104,-187.7799448,113.6525901,0,-59.23001166,0,-349.3929118,0,0,90.84122318,111.0884144,-100.3108542,-1.72E-06,23.47954345,119.4833647,0,0,,,,
282.8559998,1104,-223.279574,-202.0230872,0,-74.13205436,0,-295.3691382,0,0,-59.91903055,-105.7051989,62.98132099,-1.72E-06,35.3082649,-17.72110799,0,0,,,,
282.8639998,1104,-175.2717149,123.8868511,0,-20.20570792,0,-295.5794937,0,0,-149.2842798,84.47553166,-116.556868,-1.69E-06,-118.6303827,-120.9197985,0,0,,,,
282.8719998,1104,-206.6382241,-77.86158002,0,-126.2654092,0,-355.0078778,0,0,124.5365039,-18.26673677,-42.6719879,-1.68E-06,98.52067554,176.6123992,0,0,,,,
282.8799998,1105,-227.7381424,-112.1702289,0,2.561919362,0,-242.3082058,0,0,-248.8602489,-63.05934194,-19.6180951,-1.67E-06,-104.851609,-216.7812306,0,0,,,,
282.8879998,1105,-173.9243462,143.3378936,0,-73.7569731,0,-344.1904239,0,0,85.9909772,95.51385153,-131.1887382,-1.65E-06,-7.977205344,107.4140888,0,0,,,,
282.8959998,1105,-197.0505527,-158.5801329,0,-86.82610894,0,-306.0648502,0,0,-24.60905376,-114.9475521,91.28602708,-1.63E-06,54.89825019,7.615156311,0,0,,,,
282.9039998,1105,-181.4445186,128.0015305,0,-30.66759853,0,-308.7286419,0,0,-122.1987635,72.26778627,-79.34754402,-1.62E-06,-100.6751598,-110.1414251,0,0,,,,
282.9119998,1105,-214.819397,-70.17537029,0,-145.6914913,0,-374.6763608,0,0,140.533477,-28.38308487,-14.05613379,-1.60E-06,81.73840315,173.8045262,0,0,,,,
282.9199998,1105,-256.571337,-119.019837,0,-32.79864536,0,-260.0012571,0,0,-252.2664619,-65.94509232,-9.965609525,-1.59E-06,-126.7230477,-225.6328381,0,0,,,,
282.9279998,1105,-217.6397965,104.2607194,0,-102.6334571,0,-347.5857253,0,0,52.34782188,91.55973954,-159.8060958,-1.57E-06,-24.01968772,71.04399815,0,0,,,,
282.9359998,1105,-211.8693971,-184.8866391,0,-78.5899332,0,-290.7211609,0,0,-62.01309362,-106.6946078,49.8783507,-1.56E-06,32.78931564,-25.11821836,0,0,,,,
282.9439998,1105,-173.7346946,127.3666001,0,6.14408215,0,-277.5942,0,0,-134.7842426,103.9853954,-99.07959099,-1.55E-06,-108.0609374,-115.049622,0,0,,,,
282.9519998,1105,-188.1115672,-53.25586194,0,-107.2820401,0,-342.6249736,0,0,146.3540935,11.96314401,-14.67613571,-1.53E-06,102.3444904,184.304216,0,0,,,,
282.9599998,1105,-218.8884991,-95.021962,0,2.919916096,0,-234.151741,0,0,-229.2669111,-21.54703899,11.07090586,-1.52E-06,-92.77295549,-179.2109076,0,0,,,,
282.9679998,1105,-208.0302933,111.9570356,0,-67.52580449,0,-322.037199,0,0,66.56579297,133.0450189,-138.7904728,-1.50E-06,-9.376231395,111.3204802,0,0,,,,
282.9759998,1105,-222.5973956,-184.3761694,0,-54.65804177,0,-271.3227801,0,0,-68.95737069,-77.19935811,45.0795788,-1.49E-06,28.11649678,-28.59038572,0,0,,,,
282.9839998,1105,-173.2404777,142.4136413,0,24.87620335,0,-266.7046131,0,0,-125.6752951,126.2580622,-97.80762295,-1.47E-06,-91.51364391,-115.1391415,0,0,,,,
282.9919998,1105,-180.4798725,-27.94656563,0,-81.66573738,0,-333.8662115,0,0,184.3624436,37.71765026,13.79550825,-1.46E-06,138.6260641,214.8146995,0,0,,,,
282.9999998,1105,-218.7844569,-72.41881336,0,29.3782081,0,-226.6187057,0,0,-205.8541455,1.912610478,31.60977447,-1.45E-06,-70.75475964,-165.8816394,0,0,,,,
283.0079998,1105,-196.0511461,147.4060235,0,-41.20557891,0,-320.6217132,0,0,89.38401067,149.0872211,-109.351898,-1.43E-06,25.73681616,114.4057187,0,0,,,,
283.0159998,1105,-220.5971388,-160.3017665,0,-28.79379896,0,-269.3107318,0,0,-31.38208407,-60.59453978,98.10597896,-1.42E-06,72.53053376,-0.771065113,0,0,,,,
283.0239998,1105,-191.1190083,134.9765245,0,42.69416784,0,-258.3774839,0,0,-114.6201186,132.6073008,-68.91735097,-1.40E-06,-98.05257793,-101.5646825,0,0,,,,
283.0319998,1105,-217.4467934,-64.35379313,0,-78.04733786,0,-321.9321857,0,0,150.0854769,23.91766095,3.039568352,5.17E-07,93.40266681,173.6316033,0,0,,,,
283.0399998,1105,-335.9627646,-183.8014297,0,16.41077921,0,-194.5596013,0,0,-300.1921893,-31.15429133,-38.40928899,2.33E-06,-141.8007585,-277.4727486,0,0,,,,
283.0479998,1105,-318.201035,36.54315667,0,-61.28632308,0,-266.4224569,0,0,-25.06346111,107.430771,-224.9849767,1.75E-06,-88.36087488,-13.69979791,0,0,,,,
283.0559998,1105,-250.4656818,-165.1111213,0,-56.99120347,0,-222.1669693,0,0,-95.95356633,-84.90501906,15.94407699,1.78E-06,-25.92653491,-65.74502491,0,0,,,,
283.0639998,1105,-218.6216576,133.128901,0,0.906500019,0,-221.8711562,0,0,-125.8089959,128.3323493,-89.67443892,1.88E-06,-110.543653,-111.727502,0,0,,,,
283.0719998,1105,-249.3603857,-84.47445528,0,-99.78616568,0,-283.3118192,0,0,156.9243626,25.00664299,-2.359608171,1.73E-06,113.4041711,167.9751236,0,0,,,,
283.0799998,1105,-270.1999793,-103.3101632,0,29.81442999,0,-173.8693184,0,0,-258.9004945,-20.46311797,-22.00622184,1.82E-06,-123.1709542,-246.5696885,0,0,,,,
283.0879998,1105,-237.440657,121.6356302,0,-47.60458833,0,-267.3278823,0,0,75.95700672,133.8096289,-136.6684634,1.73E-06,-4.766324858,81.11491877,0,0,,,,
283.0959998,1105,-277.4173814,-197.3659761,0,-57.06922306,0,-213.9530418,0,0,-49.13833467,-66.08120813,77.064025,1.76E-06,59.95454378,-31.13033187,0,0,,,,
283.1039998,1105,-265.2053349,102.6864165,0,-2.637665815,0,-207.3258734,0,0,-176.3268804,123.786226,-123.1189462,1.72E-06,-112.0181738,-157.3335439,0,0,,,,
283.1119998,1105,-219.6556426,-29.66503337,0,-100.6811701,0,-282.1133845,0,0,163.5804249,32.19428167,5.363978419,1.72E-06,116.006261,190.821276,0,0,,,,
283.1199998,1105,-255.5206253,-87.92482126,0,34.29824467,0,-167.2953706,0,0,-207.960801,9.966539104,43.25254647,1.69E-06,-81.14090472,-184.6146312,0,0,,,,
283.1279998,1105,-296.1898462,51.57683009,0,-41.16128137,0,-235.541856,0,0,18.08226681,150.4456398,-149.0880395,1.68E-06,-39.72649121,50.63323456,0,0,,,,
283.1359998,1106,-302.0771094,-219.6426713,0,-52.52311687,0,-179.6897984,0,0,-132.8285334,-60.92593468,11.79173529,1.67E-06,-29.10916093,-94.85418374,0,0,,,,
283.1439998,1106,-243.9833673,110.9375172,0,1.955772675,0,-178.687842,0,0,-169.8543583,140.7513686,-136.0402922,1.65E-06,-134.4986556,-169.3059669,0,0,,,,
283.1519998,1106,-244.5815914,-82.08362634,0,-93.73319533,0,-236.5419254,0,0,137.1323636,44.27259865,-15.93338628,1.63E-06,99.6991642,152.2311805,0,0,,,,
283.1599998,1106,-276.2613296,-110.4675617,0,38.38433719,0,-122.0098059,0,0,-267.1165091,10.77774606,-13.96653398,1.62E-06,-118.7324622,-234.021167,0,0,,,,
283.1679998,1106,-272.4961388,75.2900624,0,-41.04523677,0,-208.1463333,0,0,38.31963535,157.4448893,-153.7128573,1.60E-06,-22.41908846,60.36689336,0,0,,,,
283.1759998,1106,-303.2448696,-236.597594,0,-45.14088027,0,-145.227567,0,0,-106.5784444,-47.45741559,33.24057359,1.59E-06,-8.414315235,-85.56925015,0,0,,,,
283.1839998,1106,-271.7726706,82.12285549,0,15.38655893,0,-133.8517404,0,0,-195.5181404,146.757289,-151.336739,1.57E-06,-164.8038733,-185.0206303,0,0,,,,
283.1919998,1106,-250.5397424,-67.6929541,0,-100.5068579,0,-212.2727671,0,0,136.9739084,41.0319735,-25.50143696,1.56E-06,84.67682752,143.5958082,0,0,,,,
283.1999998,1106,-269.8348035,-88.3801682,0,1.95794322,0,-121.6076241,0,0,-212.9786073,5.527906365,17.26457014,1.55E-06,-77.47583855,-211.0989779,0,0,,,,
283.2079998,1106,-244.0459446,116.3673111,0,-68.35947982,0,-211.3531337,0,0,69.50715492,146.6967794,-128.2185238,1.53E-06,10.1676476,92.79564935,0,0,,,,
283.2159998,1106,-200.6443316,-110.4782419,0,-34.1158811,0,-167.3391269,0,0,-25.18916689,-42.62349382,100.7147065,1.52E-06,52.52698381,-3.75035303,0,0,,,,
283.2239998,1106,-196.6357724,170.0677181,0,46.41033134,0,-164.6478822,0,0,-55.96698963,174.4562242,-16.80165869,1.50E-06,-38.84402814,-42.54886206,0,0,,,,
283.2319998,1106,-267.4205241,-75.7052163,0,-70.33819053,0,-218.2351061,0,0,169.769674,60.05398574,36.99407716,1.49E-06,136.573811,207.2374956,0,0,,,,
283.2399998,1106,-248.8697422,-39.63486842,0,34.15477833,0,-128.408606,0,0,-200.0673106,23.43529193,27.57164193,1.47E-06,-94.23829926,-197.9645259,0,0,,,,
283.2479998,1106,-228.8093119,154.1499926,0,-35.43870767,0,-223.2906947,0,0,125.44074,172.9259019,-76.64559727,1.46E-06,40.38737061,136.4502807,0,0,,,,
283.2559998,1106,-302.729442,-211.9887245,0,-15.81178347,0,-152.534119,0,0,-60.23599523,-34.37010939,96.50064941,1.45E-06,63.97019881,-33.35425274,0,0,,,,
283.2639998,1106,-270.9172137,97.32448471,0,55.67400699,0,-143.7662383,0,0,-143.206359,160.8149484,-108.7272703,1.43E-06,-104.8650602,-148.7360843,0,0,,,,
283.2719998,1106,-257.1670248,-62.36666483,0,-54.32946279,0,-206.6931734,0,0,142.9410979,53.85542407,-9.011484134,1.42E-06,104.1968708,157.4715601,0,0,,,,
283.2799998,1106,-284.8101073,-82.52227959,0,49.35181288,0,-103.0310775,0,0,-227.8178078,27.2258057,21.15984025,1.40E-06,-92.64940474,-214.7564281,0,0,,,,
283.2879998,1106,-275.7654901,104.0996455,0,-33.18054291,0,-195.2064951,0,0,63.80622193,166.8186564,-122.6394618,-5.17E-07,-10.42957035,89.90055403,0,0,,,,
283.2959998,1106,-313.8277181,-216.2849945,0,-34.5967515,0,-135.1468845,0,0,-99.37128777,-43.20044574,53.67711541,-2.33E-06,7.092306948,-64.14823414,0,0,,,,
283.3039998,1106,-280.3981704,98.38156636,0,20.0544432,0,-127.8738053,0,0,-175.0321172,151.8332904,-127.1499297,-1.75E-06,-129.9446456,-167.6314827,0,0,,,,
283.3119998,1106,-239.1381608,-51.1244809,0,-73.24102636,0,-197.7023181,0,0,141.2189442,46.99327691,1.181791553,-1.78E-06,116.2021619,170.8305648,0,0,,,,
283.3199998,1106,-265.1991231,-91.47528333,0,58.68811789,0,-93.88280271,0,0,-206.954344,24.25643454,45.0614951,-1.88E-06,-64.599012,-184.978071,0,0,,,,
283.3279998,1106,-236.4217428,123.1618135,0,-15.33022957,0,-183.9998027,0,0,74.90096744,163.6390421,-104.6663532,-1.73E-06,13.0814734,90.27619491,0,0,,,,
283.3359998,1106,-223.84493,-136.6859082,0,-12.1176565,0,-138.6684294,0,0,-30.7405465,-28.66798855,125.1035815,-1.82E-06,74.54864016,4.742582271,0,0,,,,
283.3439998,1106,-265.8810108,89.60956839,0,42.11900531,0,-124.1559315,0,0,-105.9998231,172.4801765,-39.87022026,-1.73E-06,-68.48381879,-73.38589423,0,0,,,,
283.3519998,1106,-284.1740759,-105.4394043,0,-56.31122343,0,-174.2063484,0,0,111.1489079,46.01331443,-6.537666897,-1.76E-06,82.54387716,145.5976981,0,0,,,,
283.3599998,1106,-234.9293137,-37.67375913,0,74.03624039,0,-85.82217763,0,0,-215.0986811,21.3979562,22.27961848,-1.72E-06,-81.88338468,-205.6654337,0,0,,,,
283.3679998,1106,-228.8242085,132.9544425,0,-10.08382499,0,-185.3157007,0,0,140.3336933,167.9809312,-54.12032715,-1.72E-06,72.2480895,160.7510327,0,0,,,,
283.3759998,1106,-311.8791374,-241.1419754,0,-22.26145733,0,-119.9617888,0,0,-62.94748066,-48.66163417,103.0514474,-1.69E-06,45.52176751,-31.37497967,0,0,,,,
283.3839998,1106,-307.8103163,51.13710703,0,24.63975786,0,-106.3634968,0,0,-200.6507236,131.7432651,-147.1651998,-1.68E-06,-158.3151346,-199.3163176,0,0,,,,
283.3919998,1107,-299.1750334,-131.5923071,0,-82.51359399,0,-156.820841,0,0,85.6592892,18.55693284,-47.82282869,-1.67E-06,66.89022473,107.0697115,0,0,,,,
283.3999998,1107,-339.1168933,-169.8015264,0,26.83883792,0,-36.05642254,0,0,-298.2069437,-5.837594462,-40.20314282,-1.65E-06,-143.1615735,-276.9123835,0,0,,,,
283.4079998,1107,-290.2953646,78.13171175,0,-55.29576053,0,-129.6075203,0,0,5.939285051,129.1131602,-188.2624367,-1.63E-06,-55.35302207,18.89669901,0,0,,,,
283.4159998,1107,-262.9382577,-172.324764,0,-24.58051698,0,-83.95298833,0,0,-50.35852521,-60.53821012,81.90990122,-1.62E-06,49.25404553,-25.95517699,0,0,,,,
283.4239998,1107,-281.4779472,77.82323436,0,50.99964993,0,-67.46215127,0,0,-128.073513,144.2705347,-72.70124318,-1.60E-06,-83.30843632,-103.3392857,0,0,,,,
283.4319998,1107,-286.454516,-99.96976474,0,-65.41427139,0,-123.2377393,0,0,81.89179816,23.98229281,-26.93179448,-1.59E-06,57.29566705,121.3092909,0,0,,,,
283.4399998,1107,-289.9395211,-102.5474784,0,39.08839377,0,-24.17932773,0,0,-258.7746514,4.936531399,-5.73263923,-1.57E-06,-122.3684421,-233.3433811,0,0,,,,
283.4479998,1107,-273.4712374,72.85979089,0,-33.33731391,0,-110.4032513,0,0,56.03798492,143.5821359,-125.2476447,-1.56E-06,-5.480180351,84.47378172,0,0,,,,
283.4559998,1107,-267.3521104,-197.1883217,0,-2.663343727,0,-44.48792177,0,0,-96.19789131,-52.21135972,71.69785949,-1.55E-06,8.829074297,-54.64158461,0,0,,,,
283.4639998,1107,-226.0826486,113.7034639,0,68.49974511,0,-37.12571005,0,0,-127.516373,161.2000243,-79.03983411,-1.53E-06,-96.91474478,-111.82346,0,0,,,,
283.4719998,1107,-228.8732176,-83.11796997,0,-50.27741468,0,-100.3764857,0,0,127.0932532,41.03970498,15.79425677,-1.52E-06,107.541233,144.6218356,0,0,,,,
283.4799998,1107,-257.3361743,-100.9066191,0,51.06813337,0,1.342411919,0,0,-250.9240608,17.74996184,16.2288426,-1.50E-06,-95.66265874,-240.4751063,0,0,,,,
283.4879998,1107,-238.6779626,85.62509074,0,-23.10817739,0,-85.97217273,0,0,76.97324945,160.8090481,-109.8524848,-1.49E-06,15.77701049,90.01192603,0,0,,,,
283.4959998,1107,-288.4927212,-233.0986499,0,0.780884883,0,-7.112405357,0,0,-117.9177687,-44.72810499,56.43842339,-1.47E-06,-2.696831006,-96.18756352,0,0,,,,
283.5039998,1107,-281.0171978,61.89807739,0,69.05577343,0,10.82578263,0,0,-181.278266,158.4019795,-130.9650523,-1.46E-06,-148.1511238,-179.808162,0,0,,,,
283.5119998,1107,-277.6097628,-116.9833704,0,-43.90235983,0,-45.99727799,0,0,98.17087521,43.30911511,-21.39889202,-1.45E-06,60.70894507,114.9475483,0,0,,,,
283.5199998,1107,-292.0233793,-99.24432044,0,58.64046008,0,56.75952801,0,0,-275.0303334,26.19441648,-11.50728606,-1.43E-06,-142.903264,-271.7645909,0,0,,,,
283.5279998,1107,-236.5461126,126.4777707,0,-17.97178232,0,-46.78977187,0,0,96.36709966,176.524627,-99.51165126,-1.42E-06,17.73987805,107.5549086,0,0,,,,
283.5359998,1107,-249.7999051,-177.3560574,0,2.277575913,0,9.408457473,0,0,-42.29799925,-21.71764111,117.3346308,-1.40E-06,72.92509169,-13.12683559,0,0,,,,
283.5439998,1107,-248.934119,97.30082991,0,63.50716564,0,17.29090857,0,0,-126.5374311,172.4424749,-80.04540342,5.17E-07,-82.37268179,-128.0215671,0,0,,,,
283.5519998,1107,-270.6592471,-113.2100868,0,-50.94718677,0,-35.0669629,0,0,103.5176926,45.10497927,-5.271425828,2.33E-06,95.31058045,133.3079816,0,0,,,,
283.5599998,1107,-281.7155236,-103.028262,0,51.52170475,0,67.82157904,0,0,-274.2059854,24.2579725,-3.282926378,1.75E-06,-118.9075659,-243.3332551,0,0,,,,
283.5679998,1107,-249.3282608,91.6188041,0,-31.93912641,0,-32.10543118,0,0,74.16028698,159.9701964,-104.4755843,1.78E-06,-13.1234804,97.02355728,0,0,,,,
283.5759998,1107,-271.1635607,-199.5405516,0,-14.57668737,0,27.06651584,0,0,-99.6760229,-51.27220499,79.39811836,1.88E-06,5.080864241,-66.10321678,0,0,,,,
283.5839998,1107,-254.7069905,105.4182045,0,47.64662576,0,32.51887851,0,0,-161.3901147,146.8934814,-102.3745297,1.73E-06,-110.4655371,-146.3289828,0,0,,,,
283.5919998,1107,-285.0335261,-125.1134501,0,-66.80367192,0,-19.45888983,0,0,111.9003739,26.8098843,12.07429621,1.82E-06,91.46883447,157.9441357,0,0,,,,
283.5999998,1107,-284.9573484,-100.2067143,0,35.89642026,0,78.33682868,0,0,-270.0944733,2.692048214,-3.523487043,1.73E-06,-134.8809183,-242.0573095,0,0,,,,
283.6079998,1107,-216.3078832,135.2348226,0,-45.69659339,0,-30.08775976,0,0,75.41556495,138.5109865,-104.5406582,1.76E-06,2.270085785,87.31610463,0,0,,,,
283.6159998,1107,-256.9025432,-193.4355075,0,-37.43973131,0,25.58960234,0,0,-63.61641969,-59.40446992,126.1774628,1.72E-06,53.10160899,-21.90638322,0,0,,,,
283.6239998,1107,-290.6671902,61.00758616,0,11.87679249,0,38.76666384,0,0,-170.3688021,135.2166826,-98.39853918,1.72E-06,-119.2497618,-139.7503331,0,0,,,,
283.6319998,1107,-291.5253886,-116.6595512,0,-77.80172624,0,-3.524887835,0,0,56.46486382,10.72543056,-41.46091382,1.69E-06,47.2882414,99.6988208,0,0,,,,
283.6399998,1107,-265.4162166,-71.79669611,0,56.56878795,0,92.27435725,0,0,-256.2478331,3.817159024,2.392116988,1.68E-06,-117.1650213,-225.060313,0,0,,,,
283.6479998,1108,-262.556176,81.25085247,0,-31.09995789,0,-9.491946489,0,0,84.29557462,138.7690965,-90.93542627,1.67E-06,11.75422195,109.0720969,0,0,,,,
283.6559998,1108,-354.2754143,-282.937522,0,-33.79776724,0,70.28875353,0,0,-161.7524502,-81.121891,38.31408956,1.65E-06,-33.07685374,-113.8562798,0,0,,,,
283.6639998,1108,-349.8944856,26.26432348,0,14.04137027,0,85.87205545,0,0,-251.634822,107.6023553,-191.8291095,1.63E-06,-211.0084835,-212.8640255,0,0,,,,
283.6719998,1108,-287.9139573,-83.20001571,0,-77.35955016,0,21.17756141,0,0,81.21535889,-1.956750495,-44.94407654,1.62E-06,33.62396296,118.6065922,0,0,,,,
283.6799998,1108,-259.0860315,-24.63452885,0,54.72744442,0,113.1271074,0,0,-211.6255711,4.165413148,29.14020942,1.60E-06,-89.10459371,-189.376886,0,0,,,,
283.6879998,1108,-266.0308066,124.045341,0,-36.16426333,0,18.74794344,0,0,107.0264877,138.7647048,-76.45997123,1.59E-06,39.54395609,149.1904496,0,0,,,,
283.6959998,1108,-281.2337034,-165.5131883,0,-36.84582827,0,74.36373947,0,0,-82.72668535,-75.46831179,92.36890846,1.57E-06,28.86988634,-27.59249928,0,0,,,,
283.7039998,1108,-263.8729628,131.296861,0,10.92256385,0,69.90846652,0,0,-131.0791479,119.9873021,-86.00199817,1.56E-06,-110.7522444,-100.2233133,0,0,,,,
283.7119998,1108,-302.5577472,-101.4637937,0,-82.30015887,0,26.67601242,0,0,99.7996849,-7.265915097,-4.875354293,1.55E-06,66.030417,155.9580404,0,0,,,,
283.7199998,1108,-276.3755024,-31.99108402,0,53.867003,0,129.7232356,0,0,-256.5957957,-13.65181536,-7.623292716,1.53E-06,-111.851417,-209.5490741,0,0,,,,
283.7279998,1108,-252.3419247,146.8868159,0,-31.43617678,0,31.54017737,0,0,110.403598,135.0642205,-72.26230206,1.52E-06,49.56632104,158.2655233,0,0,,,,
283.7359998,1108,-277.3232672,-155.9798894,0,-22.90949522,0,88.73520902,0,0,-64.81633531,-64.45538614,121.7634378,1.50E-06,40.24222718,0.55136834,0,0,,,,
283.7439998,1108,-196.6813646,223.472438,0,28.83233364,0,60.41595392,0,0,-76.28968004,145.2727906,-42.9012477,1.49E-06,-64.57260519,-31.3056801,0,0,,,,
283.7519998,1108,-227.1238601,-11.19169182,0,-81.09056993,0,-10.18888396,0,0,215.4587637,36.4567109,106.5851155,1.47E-06,181.2234794,267.6515624,0,0,,,,
283.7599998,1108,-306.0235861,-64.36643264,0,30.21043532,0,96.53348531,0,0,-201.206943,20.67924041,74.62060224,1.46E-06,-58.90834782,-162.9156005,0,0,,,,
283.7679998,1108,-301.4537924,113.2824926,0,-52.61402576,0,8.387685634,0,0,83.52981546,144.9520756,-87.27807188,1.45E-06,21.30423164,123.5268267,0,0,,,,
283.7759998,1108,-326.250388,-183.7780545,0,-19.54271809,0,81.8895561,0,0,-91.27065441,-53.29466574,93.57154276,1.43E-06,30.49846339,-49.90238416,0,0,,,,
283.7839998,1108,-300.8126,132.5785104,0,43.83413042,0,83.92730645,0,0,-139.0116587,149.2016578,-89.37399915,1.42E-06,-106.7405425,-121.0479013,0,0,,,,
283.7919998,1108,-335.6098088,-99.93710217,0,-72.43751952,0,35.93522786,0,0,113.9898798,20.67693529,26.30890294,1.40E-06,91.77943754,150.243822,0,0,,,,
283.7999998,1108,-400.306099,-136.7406409,0,25.84552934,0,150.4901478,0,0,-290.2955762,-3.89499481,-5.169747159,-5.17E-07,-142.7694936,-269.1551815,0,0,,,,
283.8079998,1108,-324.4112856,118.1486026,0,-58.57542443,0,44.03290923,0,0,40.89568147,112.8433732,-141.3888984,-2.33E-06,-48.87749089,66.49414594,0,0,,,,
283.8159998,1108,-275.6120595,-109.9407295,0,-21.46514435,0,90.42742754,0,0,-37.41265691,-76.79400288,134.4322434,-1.75E-06,41.56767497,11.34946165,0,0,,,,
283.8239998,1108,-295.5529231,137.3725082,0,37.06481042,0,90.98619163,0,0,-75.73665455,127.29071,-14.82262474,-1.78E-06,-48.20104971,-47.97279424,0,0,,,,
283.8319998,1108,-331.6184569,-90.39983697,0,-79.71435315,0,37.05226602,0,0,120.8937457,-16.56121586,32.5203633,-1.88E-06,99.37588054,155.5782935,0,0,,,,
283.8399998,1108,-347.6111638,-71.30848536,0,23.7109591,0,134.6012345,0,0,-240.8860527,-31.40312071,25.36018159,-1.73E-06,-110.1715674,-211.8181773,0,0,,,,
283.8479998,1108,-326.9479387,109.2126573,0,-65.03936987,0,40.39738768,0,0,88.32314878,96.15781244,-83.21125004,-1.82E-06,12.63548678,121.7787975,0,0,,,,
283.8559998,1108,-307.1548694,-139.080114,0,-34.99260103,0,100.2686781,0,0,-61.2853981,-95.7022878,118.3398878,-1.73E-06,23.91226613,-28.35651698,0,0,,,,
283.8639998,1108,-243.27298,197.3808505,0,27.46929997,0,81.71694795,0,0,-35.65343044,126.4442362,-6.159109381,-1.76E-06,-38.65338774,-32.53731932,0,0,,,,
283.8719998,1108,-267.0486863,-50.79962915,0,-81.7451288,0,23.25069741,0,0,199.6252909,1.537002131,107.5832709,-1.72E-06,186.2771106,233.3489334,0,0,,,,
283.8799998,1108,-315.5155295,-77.92413944,0,26.43384729,0,134.4811915,0,0,-243.4802915,-13.29398257,47.1333566,-1.72E-06,-84.27119715,-210.8106041,0,0,,,,
283.8879998,1108,-243.5460303,153.5010678,0,-55.79126171,0,34.27797782,0,0,98.02289303,119.9887896,-70.90560024,-1.69E-06,24.51959221,115.2047362,0,0,,,,
283.8959998,1108,-230.9539868,-123.1099603,0,-30.11530378,0,96.30895705,0,0,-23.83364971,-61.37354668,167.8102264,-1.68E-06,77.86083152,14.43045374,0,0,,,,
283.9039998,1109,-261.9158424,115.0796073,0,19.56547384,0,105.5872484,0,0,-93.32667094,147.370305,-27.42594404,-1.67E-06,-64.02508645,-57.02518033,0,0,,,,
283.9119998,1109,-292.6623413,-101.2938647,0,-69.45577511,0,65.76009612,0,0,106.2840843,12.23413146,35.5831271,-1.65E-06,103.5016802,145.4451729,0,0,,,,
283.9199998,1109,-287.0261308,-47.07278485,0,69.33687601,0,172.0856992,0,0,-246.6105331,14.17686446,37.04413694,-1.63E-06,-95.11065887,-220.2972165,0,0,,,,
283.9279998,1109,-273.1560685,116.7530208,0,-20.78741874,0,76.46171269,0,0,97.26496814,143.9897992,-59.55459456,-1.62E-06,33.1525745,131.6763551,0,0,,,,
283.9359998,1109,-334.0440275,-216.2223487,0,-8.441081923,0,155.5584399,0,0,-108.3399968,-64.63945425,113.4883606,-1.60E-06,19.50591331,-67.5085031,0,0,,,,
283.9439998,1109,-309.7625219,109.9663733,0,42.02298477,0,159.1445901,0,0,-145.4306845,140.454196,-85.1207112,-1.59E-06,-122.2364851,-115.3403453,0,0,,,,
283.9519998,1109,-315.0257823,-94.73943123,0,-50.6010242,0,112.6265557,0,0,122.7085533,15.63928907,30.03545876,-1.57E-06,96.54474292,172.0631803,0,0,,,,
283.9599998,1109,-359.5245602,-105.5885673,0,84.11577246,0,234.9282373,0,0,-278.5285779,9.608179454,3.704087403,-1.56E-06,-110.765692,-244.8233647,0,0,,,,
283.9679998,1109,-314.9965543,101.3563665,0,-6.108472785,0,138.6496241,0,0,51.60448754,137.2064848,-111.2404215,-1.55E-06,-7.38730141,93.96217232,0,0,,,,
283.9759998,1109,-304.6359953,-176.9424291,0,4.930843832,0,196.0887021,0,0,-75.10836319,-55.89742211,116.7463585,-1.53E-06,20.71080735,-30.69744786,0,0,,,,
283.9839998,1109,-286.6627612,103.9889863,0,48.75100418,0,198.386283,0,0,-132.9909968,144.655159,-75.78593177,-1.52E-06,-102.6536995,-116.9958928,0,0,,,,
283.9919998,1109,-283.1594484,-96.1808294,0,-43.00523918,0,155.3667993,0,0,99.13875944,12.64666738,36.11591425,-1.50E-06,74.09682013,129.03329,0,0,,,,
283.9999998,1109,-271.0216149,-40.73521834,0,98.79156111,0,260.4204974,0,0,-231.2179426,17.91526159,59.57758804,-1.49E-06,-114.23442,-208.9375236,0,0,,,,
284.0079998,1109,-233.9801368,148.4401045,0,3.425576205,0,153.2324055,0,0,112.1344261,143.6748589,-46.75209516,-1.47E-06,36.38783337,144.971973,0,0,,,,
284.0159998,1109,-253.7500992,-159.1475372,0,9.540103637,0,208.5018121,0,0,-43.97270654,-58.82665194,153.5743179,-1.46E-06,51.31129705,-20.29075265,0,0,,,,
284.0239998,1109,-250.6370922,123.7788671,0,56.1113422,0,206.5990997,0,0,-101.8093774,137.1948802,-56.0716771,-1.45E-06,-98.89766399,-97.64988712,0,0,,,,
284.0319998,1109,-275.6801187,-107.1972544,0,-50.71210851,0,157.4325397,0,0,124.7410205,1.921458989,38.07499219,-1.43E-06,85.53181388,158.1059695,0,0,,,,
284.0399998,1109,-288.9512312,-82.49763273,0,59.05486943,0,254.0592168,0,0,-231.2567367,-1.700355274,27.16847062,-1.42E-06,-122.5708797,-218.2286913,0,0,,,,
284.0479998,1109,-253.0490739,126.9338302,0,-36.70368531,0,142.0014469,0,0,95.92083561,113.7174628,-93.32259845,-1.40E-06,2.403571312,110.6364623,0,0,,,,
284.0559998,1109,-248.2829043,-134.8719014,0,1.100730867,0,190.1235848,0,0,-22.42651693,-74.89366276,150.7368137,5.17E-07,69.61690367,-7.797257916,0,0,,,,
284.0639998,1109,-248.3625564,135.7541753,0,61.88455449,0,186.8909249,0,0,-66.95676362,134.3040602,-36.07603519,2.33E-06,-46.70531764,-64.73555717,0,0,,,,
284.0719998,1109,-272.6853601,-85.25187278,0,-50.55177483,0,134.2646895,0,0,135.3243694,-8.689610877,29.07934273,1.75E-06,110.1691596,166.2243091,0,0,,,,
284.0799998,1109,-249.1250554,-2.262929806,0,60.25755113,0,214.998518,0,0,-194.6647586,-5.957608064,35.72621896,1.78E-06,-87.77566041,-184.6721325,0,0,,,,
284.0879998,1109,-238.5948962,142.1812839,0,-26.83331277,0,109.4373121,0,0,156.4695976,123.1974756,-42.43683048,1.88E-06,61.96676428,182.3177478,0,0,,,,
284.0959998,1109,-290.8324297,-191.2984613,0,8.822332269,0,180.2122699,0,0,-45.40235374,-77.19151559,128.5875397,1.73E-06,54.11786201,-6.762246626,0,0,,,,
284.1039998,1109,-259.6606903,144.0265703,0,67.10333411,0,179.7977269,0,0,-112.8480397,124.8002333,-98.60080978,1.82E-06,-99.40805123,-108.1698973,0,0,,,,
284.1119998,1109,-272.8388502,-84.23417485,0,-38.5185223,0,138.2537689,0,0,152.5319913,0.359692203,41.80599655,1.73E-06,129.1777598,170.7250423,0,0,,,,
284.1199998,1109,-302.8975416,-67.43527383,0,69.50468136,0,242.3437922,0,0,-232.1892729,3.336817805,21.53198842,1.76E-06,-99.79064885,-227.5101942,0,0,,,,
284.1279998,1109,-239.4935941,160.181406,0,-24.62089273,0,124.6915547,0,0,101.2274491,121.8513186,-92.03736808,1.72E-06,10.78936002,103.9002732,0,0,,,,
284.1359998,1109,-250.2041589,-148.7042951,0,13.09003383,0,183.936582,0,0,-16.69646895,-65.57787018,165.5909648,1.72E-06,78.17420922,-3.978310389,0,0,,,,
284.1439998,1109,-304.51015,65.95300945,0,72.91960082,0,206.6401835,0,0,-130.442468,131.7526992,-77.37646326,1.69E-06,-106.4759376,-122.7137852,0,0,,,,
284.1519998,1109,-319.5556102,-137.7467142,0,-39.77250326,0,163.5760589,0,0,56.02468479,-16.63486344,-38.37960374,1.68E-06,30.83623433,82.90393353,0,0,,,,
284.1599998,1110,-292.653977,-60.16491124,0,60.97839267,0,243.8731548,0,0,-234.7397703,-10.71670364,-11.09673448,1.67E-06,-123.0888146,-231.9778463,0,0,,,,
284.1679998,1110,-257.3897808,112.0320143,0,-35.43674101,0,137.6939504,0,0,112.6844003,102.9061331,-103.7441434,1.65E-06,12.78158281,111.2882574,0,0,,,,
284.1759998,1110,-231.7977928,-134.9486018,0,-0.699470359,0,197.3765235,0,0,-60.38367632,-94.72225815,99.60145725,1.63E-06,20.19211671,-60.08014118,0,0,,,,
284.1839998,1110,-193.5463348,181.2197893,0,55.95187428,0,180.0957416,0,0,-40.508363,121.8585773,-38.33967703,1.62E-06,-64.01808354,-51.31127361,0,0,,,,
284.1919998,1110,-252.2844869,-91.58720947,0,-56.13627715,0,130.6282613,0,0,172.3406552,-20.20474744,69.8533713,1.60E-06,115.3200826,199.9216416,0,0,,,,
284.1999998,1110,-296.3938763,-77.19237686,0,49.17566593,0,232.1663293,0,0,-248.3695542,-27.3153556,14.2331559,1.59E-06,-132.3334417,-232.2748835,0,0,,,,
284.2079998,1110,-261.2875925,106.2326402,0,-42.08885756,0,130.1359942,0,0,87.33959688,89.3456873,-102.2353409,1.57E-06,-14.69620708,98.36855516,0,0,,,,
284.2159998,1110,-273.3646425,-183.632802,0,-18.86481314,0,193.8278145,0,0,-76.05520802,-99.13744639,101.8735545,1.56E-06,0.657212308,-59.70649405,0,0,,,,
284.2239998,1110,-253.5877002,123.5800827,0,23.95824616,0,181.3030981,0,0,-106.5341614,110.8751909,-91.09746027,1.55E-06,-103.0077548,-118.4181569,0,0,,,,
284.2319998,1110,-230.9654114,-63.70776197,0,-59.50790483,0,128.356571,0,0,145.3052408,-21.04769692,34.73804405,1.53E-06,101.5344874,149.4916041,0,0,,,,
284.2399998,1110,-234.274302,-33.35385817,0,83.10550746,0,229.2149508,0,0,-178.5798449,4.542978697,60.19933615,1.52E-06,-78.0892379,-170.9831334,0,0,,,,
284.2479998,1110,-258.4572589,79.21456884,0,-11.26606831,0,136.0673411,0,0,123.0488579,123.3481758,-71.21835068,1.50E-06,33.47699692,144.9982523,0,0,,,,
284.2559998,1110,-293.7996537,-210.440667,0,1.151650464,0,206.799434,0,0,-113.1384351,-83.9760225,76.39874537,1.49E-06,-26.69208169,-96.12892983,0,0,,,,
284.2639998,1110,-257.3193496,116.3396971,0,41.75820855,0,192.364533,0,0,-115.5383184,119.7656454,-95.01756737,1.47E-06,-131.9238264,-134.8067779,0,0,,,,
284.2719998,1110,-265.3199039,-112.6663532,0,-47.22991984,0,140.7316357,0,0,138.4105018,-21.65402879,29.28740946,1.46E-06,83.82311135,144.6921541,0,0,,,,
284.2799998,1110,-278.8460576,-73.13261167,0,89.3273865,0,242.4643577,0,0,-231.6747625,-13.18698832,3.997256647,1.45E-06,-138.2768378,-222.1381955,0,0,,,,
284.2879998,1110,-251.5465297,97.68290879,0,-6.708151749,0,142.8679894,0,0,106.4525358,105.388327,-93.26787047,1.43E-06,3.019985095,115.1527281,0,0,,,,
284.2959998,1110,-240.3741975,-157.8917296,0,14.44426112,0,207.0918888,0,0,-58.76568651,-82.09214259,115.3142151,1.42E-06,10.87486582,-44.16375247,0,0,,,,
284.3039998,1110,-205.4130898,157.5647533,0,55.17325957,0,190.2579097,0,0,-60.61811944,133.2600951,-56.38949989,1.40E-06,-98.53240273,-55.7949359,0,0,,,,
284.3119998,1110,-240.6354683,-102.5309388,0,-55.44478337,0,136.2777335,0,0,150.5299905,-16.0952045,51.88106636,-5.17E-07,91.31894982,176.7480981,0,0,,,,
284.3199998,1110,-257.4861514,-59.42376345,0,59.77603966,0,227.6002604,0,0,-225.1085824,-12.69227527,26.71999439,-2.33E-06,-122.1950937,-203.2355008,0,0,,,,
284.3279998,1110,-227.4618281,108.3298904,0,-30.79455757,0,126.4918233,0,0,117.732132,108.262249,-67.94789655,-1.75E-06,11.11111448,141.3520655,0,0,,,,
284.3359998,1110,-234.7542308,-177.8637049,0,18.98431531,0,206.2798973,0,0,-71.26954822,-78.65749736,121.0800467,-1.78E-06,1.9812708,-54.68444546,0,0,,,,
284.3439998,1110,-201.525161,141.6036744,0,81.05897507,0,197.2618712,0,0,-71.03209952,140.0887623,-61.61091847,-1.88E-06,-92.8579117,-75.26276084,0,0,,,,
284.3519998,1110,-217.2118215,-88.06948042,0,-31.51461462,0,138.9996621,0,0,159.3428779,-3.146306529,56.96749449,-1.73E-06,93.63091986,172.258172,0,0,,,,
284.3599998,1110,-263.1681166,-77.91224436,0,71.66653446,0,236.7920034,0,0,-227.7181027,-1.077832496,26.31298953,-1.82E-06,-140.6849674,-228.5231762,0,0,,,,
284.3679998,1110,-267.6919323,58.73169245,0,-21.79885428,0,144.420979,0,0,84.19067331,108.8085834,-93.80705043,-1.73E-06,-20.24795203,92.31297288,0,0,,,,
284.3759998,1110,-262.9417745,-196.8578757,0,22.7005712,0,216.0709674,0,0,-108.6298238,-84.03882387,85.73870361,-1.76E-06,-30.78666494,-86.87800263,0,0,,,,
284.3839998,1110,-254.5570612,104.2255537,0,74.51407335,0,210.810218,0,0,-110.4091992,128.067915,-94.61475215,-1.72E-06,-124.8977975,-95.7247936,0,0,,,,
284.3919998,1110,-232.6450481,-72.46205823,0,-32.41270398,0,152.0126283,0,0,152.6565387,-9.961473342,42.51683042,-1.72E-06,95.78093694,176.0422654,0,0,,,,
284.3999998,1110,-175.6842302,57.31642547,0,80.93980053,0,219.7775754,0,0,-127.4992525,18.62640353,83.4447913,-1.69E-06,-49.96600414,-140.5330735,0,0,,,,
284.4079998,1110,-254.4733951,99.26299191,0,-21.44814746,0,124.7052193,0,0,184.9458199,132.3991645,-12.03928954,-1.68E-06,87.22538663,190.9308082,0,0,,,,
284.4159998,1111,-357.7951309,-270.1379451,0,-2.967978809,0,216.4874322,0,0,-141.2339079,-85.44999421,66.87721739,-1.67E-06,-30.04448746,-99.45930888,0,0,,,,
284.4239998,1111,-302.3295593,93.12534082,0,39.95598846,0,210.818546,0,0,-188.6728303,111.1158089,-178.3365141,-1.65E-06,-185.5663758,-156.8746633,0,0,,,,
284.4319998,1111,-268.170706,-88.59777984,0,-34.19317584,0,163.8190511,0,0,116.1983567,-13.5319802,2.055067917,-1.63E-06,71.01577167,179.480479,0,0,,,,
284.4399998,1111,-231.0068902,14.18882171,0,110.0281523,0,249.6004108,0,0,-180.1909325,28.95591728,51.29516592,-1.62E-06,-90.1220154,-126.7468754,0,0,,,,
284.4479998,1111,-248.3716935,132.4675256,0,5.080044991,0,138.715441,0,0,149.3691687,142.8723573,-37.24973051,-1.60E-06,42.27989842,189.3339501,0,0,,,,
284.4559998,1111,-316.2947064,-203.1878716,0,21.59245726,0,209.6354266,0,0,-90.52360619,-64.09032275,113.9549392,-1.59E-06,-2.45980464,-43.7477331,0,0,,,,
284.4639998,1111,-287.8684924,127.4898737,0,62.9008423,0,203.3082146,0,0,-136.3396261,136.6345536,-108.4335973,-1.57E-06,-137.4769154,-104.8200049,0,0,,,,
284.4719998,1111,-310.874873,-112.9249061,0,-29.11751951,0,163.8329919,0,0,110.7702387,-5.263501912,26.3571962,-1.56E-06,79.16084405,148.07555,0,0,,,,
284.4799998,1111,-304.1605194,-31.26311839,0,101.9061194,0,251.5290442,0,0,-219.3773154,17.72408871,19.81522457,-1.55E-06,-123.4568097,-201.0018953,0,0,,,,
284.4879998,1111,-278.6227539,136.9539125,0,-2.324569277,0,139.613622,0,0,117.3298239,125.7070166,-72.52332777,-1.53E-06,14.93067881,139.3960297,0,0,,,,
284.4959998,1111,-321.9447347,-184.8556827,0,17.7424644,0,212.9574551,0,0,-84.76113124,-71.30874106,118.4123796,-1.52E-06,4.137811427,-49.6765527,0,0,,,,
284.5039998,1111,-291.0976581,147.0111987,0,57.53650448,0,197.5394613,0,0,-108.7415091,136.1784407,-88.69283678,-1.50E-06,-125.7610009,-83.99895322,0,0,,,,
284.5119998,1111,-287.3566916,-68.40655094,0,-44.03753436,0,143.0614992,0,0,155.965239,-1.580297418,60.42536875,-1.49E-06,99.10805425,185.0087488,0,0,,,,
284.5199998,1111,-289.4777523,-18.53266196,0,71.52744834,0,233.2675046,0,0,-183.2333841,22.88854089,49.6106314,-1.47E-06,-107.213026,-177.6116703,0,0,,,,
284.5279998,1111,-296.3834931,110.6154147,0,-28.15994287,0,135.1910766,0,0,108.4978621,122.9710481,-80.17549845,-1.46E-06,-5.91457139,132.2445719,0,0,,,,
284.5359998,1111,-339.2314757,-188.2396923,0,18.97794074,0,213.4525159,0,0,-101.466855,-76.2819428,92.36372726,-1.45E-06,-22.73168611,-68.61156,0,0,,,,
284.5439998,1111,-277.8344071,169.6595789,0,71.63143158,0,190.8038244,0,0,-84.65687955,133.834992,-93.92745617,-1.43E-06,-120.8202277,-77.22626816,0,0,,,,
284.5519998,1111,-292.9653074,-84.62523531,0,-36.76966709,0,142.0830798,0,0,162.7279387,-9.700176732,58.5991785,-1.42E-06,98.91833148,192.7831327,0,0,,,,
284.5599998,1111,-355.5267149,-81.1933716,0,70.38065449,0,249.1119086,0,0,-241.4479242,5.353036558,2.324561516,-1.40E-06,-132.569748,-220.9642722,0,0,,,,
284.5679998,1111,-305.0425234,109.089413,0,-29.8895616,0,136.9825919,0,0,93.11606764,108.2552774,-115.7113655,5.17E-07,-10.89156,117.4584529,0,0,,,,
284.5759998,1111,-274.1353192,-143.5137238,0,19.11222834,0,198.3802923,0,0,-55.51961873,-78.53239961,121.3763888,2.33E-06,2.322154601,-20.08139215,0,0,,,,
284.5839998,1111,-274.7087187,133.9057424,0,72.29976921,0,197.4262677,0,0,-72.94183852,135.302956,-58.60728016,1.75E-06,-101.0884712,-43.18007496,0,0,,,,
284.5919998,1111,-276.1884195,-89.69062806,0,-34.78195189,0,150.8253785,0,0,159.9809115,-7.39195853,65.90724376,1.78E-06,95.17213795,201.2955183,0,0,,,,
284.5999998,1111,-214.9112841,53.48120146,0,73.21770855,0,220.1967047,0,0,-167.8759549,21.49428759,55.99825889,1.88E-06,-101.3783287,-164.2804387,0,0,,,,
284.6079998,1111,-181.2086653,207.3813958,0,-25.76105065,0,96.63581732,0,0,222.6633331,137.0955557,14.97896811,1.73E-06,103.1223363,219.997604,0,0,,,,
284.6159998,1111,-226.6467378,-120.7970757,0,19.91680052,0,165.1005845,0,0,23.82125462,-56.50472243,212.2063612,1.82E-06,107.8315359,36.18772457,0,0,,,,
284.6239998,1111,-213.78505,182.6839634,0,68.47703954,0,156.4655938,0,0,-58.1954504,140.3369279,-46.83055008,1.73E-06,-72.00185323,-28.25110715,0,0,,,,
284.6319998,1111,-226.295744,-68.92055076,0,-36.63642864,0,111.4807576,0,0,171.9696666,-7.853856594,78.65384145,1.76E-06,118.5948787,221.128197,0,0,,,,
284.6399998,1111,-215.6379718,8.26054088,0,74.73352888,0,196.1594011,0,0,-154.2354507,22.31738847,63.06948379,1.72E-06,-69.92210578,-147.5255828,0,0,,,,
284.6479998,1111,-207.5187212,148.1430488,0,-28.12217773,0,91.7170611,0,0,151.5022252,123.78032,-54.5882654,1.72E-06,41.95300035,183.6635726,0,0,,,,
284.6559998,1111,-269.3107492,-169.7082945,0,1.563054452,0,169.4620179,0,0,-76.87586163,-74.24984543,119.1780222,1.69E-06,13.20957824,-20.16931732,0,0,,,,
284.6639998,1111,-247.7335142,158.8870898,0,39.50585483,0,153.1627574,0,0,-75.54264204,136.2355309,-87.21483216,1.68E-06,-79.62618787,-40.31114875,0,0,,,,
284.6719998,1112,-252.9674882,-80.248366,0,-43.91925811,0,116.6623686,0,0,154.8382545,-7.721537338,51.90001872,1.67E-06,116.1145298,204.0065065,0,0,,,,
284.6799998,1112,-299.0799801,-54.70119306,0,92.1400846,0,230.8376698,0,0,-227.3234497,20.52718402,16.85409089,1.65E-06,-124.623484,-199.9836155,0,0,,,,
284.6879998,1112,-282.9307478,100.6243853,0,-9.398454525,0,136.6861928,0,0,89.29030093,122.4674463,-106.5466016,1.63E-06,-6.060973124,126.2565292,0,0,,,,
284.6959998,1112,-279.8132963,-163.4593629,0,19.44942261,0,215.5014882,0,0,-98.63672308,-68.32821531,96.05779941,1.62E-06,-13.77901198,-53.79856661,0,0,,,,
284.7039998,1112,-252.3378069,154.3577312,0,49.13389839,0,199.2913552,0,0,-82.94331641,140.4692308,-84.86465215,1.60E-06,-102.6159331,-65.76412221,0,0,,,,
284.7119998,1112,-197.2345066,-17.65156899,0,-43.63947333,0,130.5690516,0,0,196.6416595,-10.22052484,79.86621834,1.59E-06,140.1840433,226.7610557,0,0,,,,
284.7199998,1112,-189.9004449,54.90131291,0,92.88229842,0,210.743933,0,0,-127.8950449,20.65303818,98.52163705,1.57E-06,-31.39486258,-95.44751914,0,0,,,,
284.7279998,1112,-214.5818153,151.3152173,0,-17.52512862,0,103.0820544,0,0,167.6853824,116.3498374,-24.41776318,1.56E-06,86.79351109,213.5744642,0,0,,,,
284.7359998,1112,-250.1328498,-156.934273,0,2.899310222,0,172.275823,0,0,-62.41839838,-87.01034437,124.43665,1.55E-06,36.95898951,-13.78433788,0,0,,,,
284.7439998,1112,-257.9047074,118.2818011,0,37.36062324,0,167.9099376,0,0,-102.0067152,108.2833315,-109.8170343,1.53E-06,-97.45443005,-59.55575362,0,0,,,,
284.7519998,1112,-220.0361999,-58.14588292,0,-49.43405373,0,120.3552377,0,0,123.6650855,-51.06326039,10.82119795,1.52E-06,97.99086681,184.7715991,0,0,,,,
284.7599998,1112,-183.2058549,55.5424467,0,89.52022731,0,201.0655242,0,0,-153.4926562,-8.798192309,55.0644868,1.50E-06,-70.09585255,-108.0801685,0,0,,,,
284.7679998,1112,-196.9427945,143.1344501,0,-14.15481374,0,99.26201507,0,0,187.2990446,101.0667891,-20.12020432,1.49E-06,89.97469004,237.6557117,0,0,,,,
284.7759998,1112,-231.2631524,-159.824824,0,14.18576527,0,179.2436542,0,0,-68.92700335,-92.90934639,116.1594636,1.47E-06,44.97327916,-20.35065624,0,0,,,,
284.7839998,1112,-221.0396816,145.4163765,0,48.9622717,0,169.3438261,0,0,-89.44918512,117.4357471,-99.893138,1.46E-06,-97.20374859,-58.6547236,0,0,,,,
284.7919998,1112,-209.1111004,-75.10226855,0,-48.04376147,0,124.7418029,0,0,143.7071664,-29.3732725,46.70799482,1.45E-06,115.6232234,186.8340754,0,0,,,,
284.7999998,1112,-203.79396,7.193882504,0,74.02801922,0,216.6928649,0,0,-187.6149864,10.23813456,40.00018033,1.43E-06,-63.87426308,-165.4757551,0,0,,,,
284.8079998,1112,-183.9386945,149.2963319,0,-18.26514573,0,119.8915626,0,0,156.9066477,122.5184118,-41.29940217,1.42E-06,71.53245942,183.434245,0,0,,,,
284.8159998,1112,-178.6197423,-107.7835906,0,46.96592274,0,203.0246204,0,0,-25.48726934,-43.83717902,169.9583266,1.40E-06,77.24357523,4.743526067,0,0,,,,
284.8239998,1112,-194.3911736,168.2963205,0,93.0653045,0,199.4181095,0,0,-37.32404436,178.299161,-29.59610681,-5.17E-07,-19.96998852,-27.50454417,0,0,,,,
284.8319998,1112,-202.9463119,-69.71396328,0,-18.73674889,0,157.4473899,0,0,148.7789017,16.80003245,74.28457598,-2.33E-06,136.8055525,159.5834018,0,0,,,,
284.8399998,1112,-162.7193099,40.24391245,0,92.87446357,0,238.601,0,0,-160.7277801,53.02712773,73.08497813,-1.75E-06,-56.73997296,-165.486476,0,0,,,,
284.8479998,1112,-169.8974867,134.5102501,0,-6.039210265,0,140.2897424,0,0,184.8482804,154.2834911,-3.046124123,-1.78E-06,102.2347493,205.4047057,0,0,,,,
284.8559998,1112,-223.5413086,-166.3311002,0,44.2015482,0,231.3519241,0,0,-84.4557758,-46.38667173,130.246821,-1.88E-06,26.25076961,-58.03800097,0,0,,,,
284.8639998,1112,-204.2990121,158.1932047,0,82.7308592,0,216.9521932,0,0,-77.02107908,161.9638002,-83.26874992,-1.73E-06,-93.63035679,-63.68661817,0,0,,,,
284.8719998,1112,-215.2272773,-100.7352894,0,-25.54118448,0,178.9716444,0,0,142.6904293,3.054451331,54.84379391,-1.82E-06,112.0721997,171.3536544,0,0,,,,
284.8799998,1112,-231.2238541,-36.58544509,0,85.42412105,0,283.090049,0,0,-239.9025322,30.04156835,2.583560266,-1.73E-06,-116.9790871,-233.1957717,0,0,,,,
284.8879998,1112,-192.2095256,114.0472571,0,-14.95638357,0,175.0325623,0,0,129.304432,131.4445166,-73.99982092,-1.76E-06,42.29968781,155.4063516,0,0,,,,
284.8959998,1112,-189.6374007,-148.9008015,0,38.86653694,0,250.8833117,0,0,-71.24976018,-57.59042832,122.0879782,-1.72E-06,27.59777068,-50.36426631,0,0,,,,
284.9039998,1112,-171.609936,163.4892446,0,85.54810166,0,237.7563157,0,0,-43.20183164,160.4151474,-58.59647042,-1.72E-06,-64.8109404,-53.55665636,0,0,,,,
284.9119998,1112,-163.4870014,-66.45103804,0,-18.73508951,0,191.3915239,0,0,179.3087022,11.08091661,79.77154399,-1.69E-06,130.8091312,193.3689799,0,0,,,,
284.9199998,1112,-161.9022625,17.34703035,0,89.85005451,0,286.983037,0,0,-195.8337579,44.43470116,35.9295863,-1.68E-06,-78.63616651,-194.6531462,0,0,,,,
284.9279998,1113,-148.8555418,130.9372356,0,-14.37329483,0,182.0322583,0,0,198.6423291,146.9727017,-12.35707674,-1.67E-06,124.9580543,198.5962528,0,0,,,,
284.9359998,1113,-172.3877828,-146.2002925,0,21.46442981,0,261.8001572,0,0,-46.47312653,-47.14472391,147.3286339,-1.65E-06,57.25929371,-54.41249717,0,0,,,,
284.9439998,1113,-139.6200057,188.1807644,0,49.87325079,0,243.3080321,0,0,-61.44853532,161.5090129,-72.72419984,-1.63E-06,-79.93594203,-85.56438955,0,0,,,,
284.9519998,1113,-126.4842356,-53.92020831,0,-31.73864226,0,190.5620039,0,0,212.1528728,13.71411521,106.9017474,-1.62E-06,170.5374627,214.9109576,0,0,,,,
284.9599998,1113,-144.5293726,12.47941555,0,105.8122458,0,288.2497784,0,0,-173.8316184,49.07165097,49.24686257,-1.60E-06,-75.11084935,-183.0088053,0,0,,,,
284.9679998,1113,-118.8165192,157.6231988,0,0.408892393,0,186.3554077,0,0,169.66414,149.2212741,-47.53678213,-1.59E-06,64.55144643,165.1986082,0,0,,,,
284.9759998,1113,-145.3175182,-124.90446,0,37.12351828,0,266.6738776,0,0,-23.38376299,-27.83687601,157.124024,-1.57E-06,68.1833842,-12.00063671,0,0,,,,
284.9839998,1113,-142.161119,184.4627368,0,67.18698587,0,248.5864681,0,0,-39.90513711,186.3750808,-60.32550291,-1.56E-06,-55.10430855,-37.88260615,0,0,,,,
284.9919998,1113,-113.8007247,-19.71670733,0,-17.05580756,0,191.435791,0,0,207.7416824,32.6501606,95.98042343,-1.55E-06,154.1863364,210.7740239,0,0,,,,
284.9999998,1113,-153.5599854,17.35609497,0,117.6807973,0,289.1862165,0,0,-135.6715723,71.76986755,79.53381345,-1.53E-06,-61.57612979,-151.8205471,0,0,,,,
285.0079998,1113,-211.9505418,63.14666201,0,-0.165583907,0,205.0443156,0,0,121.153171,148.5009768,-71.92079065,-1.52E-06,20.84780658,118.8889879,0,0,,,,
285.0159998,1113,-238.9764904,-212.1061053,0,30.60943559,0,291.1551543,0,0,-135.8270157,-51.93872124,59.33385907,-1.50E-06,-42.79095545,-137.1142025,0,0,,,,
285.0239998,1113,-199.0526713,129.060674,0,61.15832538,0,268.3995446,0,0,-80.8658338,163.0640845,-118.163993,-1.49E-06,-126.6488622,-101.8292088,0,0,,,,
285.0319998,1113,-170.6016835,-81.78637336,0,-27.07279751,0,222.5005815,0,0,147.5034225,2.178596046,45.21662789,-1.47E-06,82.54495871,149.0725324,0,0,,,,
285.0399998,1113,-143.2009693,29.6807855,0,109.3543013,0,311.4171572,0,0,-179.1788482,43.88104835,39.77842314,-1.46E-06,-101.8889468,-195.154485,0,0,,,,
285.0479998,1113,-118.0163162,147.8677811,0,-3.653777322,0,196.2059964,0,0,189.3374383,136.3959681,-21.96420527,-1.45E-06,76.34804026,177.3861565,0,0,,,,
285.0559998,1113,-141.4297722,-136.972615,0,24.38158854,0,266.4032987,0,0,-50.18724798,-59.00942868,143.2069448,-1.43E-06,32.25543087,-57.30839757,0,0,,,,
285.0639998,1113,-154.8860028,148.6628323,0,48.05561455,0,248.8788448,0,0,-37.55006425,150.0117777,-65.46007071,-1.42E-06,-64.64071344,-61.3868574,0,0,,,,
285.0719998,1113,-212.6793328,-148.3939162,0,-56.25737296,0,219.9408509,0,0,123.314224,-25.76701032,35.28645876,-1.40E-06,91.45126096,126.4547001,0,0,,,,
285.0799998,1113,-255.3302919,-97.48825257,0,56.67280936,0,324.5404094,0,0,-281.7240519,0.005106392,-49.40466092,5.17E-07,-181.2263339,-288.264807,0,0,,,,
285.0879998,1113,-220.00961,47.58642745,0,-42.61973366,0,225.8971384,0,0,84.14812447,92.50506807,-125.9473175,2.33E-06,-11.02375368,90.52493977,0,0,,,,
285.0959998,1113,-170.0765267,-150.168183,0,30.16644566,0,306.731978,0,0,-99.25092362,-79.41765986,85.83090344,1.75E-06,-14.31594446,-90.57136417,0,0,,,,
285.1039998,1113,-116.354823,192.3368943,0,76.11763037,0,275.1305762,0,0,-10.28275649,153.7987487,-53.19274136,1.78E-06,-57.20267029,-31.40879813,0,0,,,,
285.1119998,1113,-174.6450527,-122.2105674,0,-29.78050013,0,234.3777757,0,0,184.9626693,-13.58023249,89.11903796,1.88E-06,149.032367,194.8600151,0,0,,,,
285.1199998,1113,-266.7888001,-119.4191517,0,75.36817438,0,351.5480269,0,0,-275.5504779,8.249713852,-31.69099904,1.73E-06,-161.7804073,-276.1204773,0,0,,,,
285.1279998,1113,-224.7628238,32.41421477,0,-26.98663867,0,260.5549123,0,0,63.13466886,95.12337355,-140.3233706,1.82E-06,-48.33078832,37.48745913,0,0,,,,
285.1359998,1113,-169.53303,-166.555927,0,45.50900024,0,345.9562619,0,0,-111.0476973,-75.58182998,77.70036325,1.73E-06,-38.59183657,-131.2493578,0,0,,,,
285.1439998,1113,-121.3208492,178.294192,0,89.8222241,0,316.8356619,0,0,-34.44583527,158.9628643,-66.00587197,1.76E-06,-83.5346899,-45.55614773,0,0,,,,
285.1519998,1113,-92.09673063,-41.31498613,0,-15.20284115,0,251.3839211,0,0,231.0607889,4.283742801,126.6095687,1.72E-06,169.2048689,238.1861203,0,0,,,,
285.1599998,1113,-145.3074913,-8.342000388,0,92.45966657,0,348.3229101,0,0,-165.8517964,39.71554912,68.16175299,1.72E-06,-56.69589506,-173.2681706,0,0,,,,
285.1679998,1113,-148.8807263,100.3706334,0,-10.66737059,0,249.4171336,0,0,137.4444773,118.6632404,-59.99535692,1.69E-06,42.35146015,134.0549271,0,0,,,,
285.1759998,1113,-108.4884489,-115.462675,0,49.32768391,0,314.3529076,0,0,-33.69671256,-62.53391173,144.8215297,1.68E-06,43.79697484,-46.41321959,0,0,,,,
285.1839998,1114,-110.777134,162.1782082,0,82.57487073,0,292.0842181,0,0,-7.959954157,150.2558049,-37.43221438,1.67E-06,-38.60899256,-37.82852072,0,0,,,,
285.1919998,1114,-125.0828736,-94.40631923,0,-17.84075394,0,252.3619904,0,0,162.9273634,-26.32404971,79.59161755,1.65E-06,112.1131263,161.7582803,0,0,,,,
285.1999998,1114,-129.6913779,-4.469433342,0,93.97443812,0,341.5535407,0,0,-183.2603951,15.70607665,39.45175507,1.63E-06,-99.90085009,-200.6001329,0,0,,,,
285.2079998,1114,-135.588337,90.46911835,0,-11.74703984,0,241.5881926,0,0,147.5734938,99.21264194,-54.36959148,1.62E-06,55.03857242,123.8893435,0,0,,,,
285.2159998,1114,-142.5118088,-163.4248066,0,49.85219489,0,327.7266962,0,0,-85.23702447,-86.10652299,110.5656407,1.60E-06,24.04230112,-102.2051762,0,0,,,,
285.2239998,1114,-112.6073828,161.8752134,0,84.13841762,0,304.5031816,0,0,-27.09709604,136.0699086,-69.60507394,1.59E-06,-64.90269549,-56.49182876,0,0,,,,
285.2319998,1114,-101.6160816,-68.15370289,0,-16.68060553,0,257.5687223,0,0,192.5668259,-27.23366613,85.9629789,1.57E-06,123.0346258,172.7498983,0,0,,,,
285.2399998,1114,-114.7219755,19.32637104,0,96.60688924,0,344.6537198,0,0,-161.1911123,20.80582084,48.21122001,1.56E-06,-85.2710279,-187.2319059,0,0,,,,
285.2479998,1114,-131.1138364,95.26492623,0,-15.54802233,0,240.3739828,0,0,175.3487358,106.5645992,-30.79295028,1.55E-06,63.02867477,167.962749,0,0,,,,
285.2559998,1114,-166.2853132,-182.0838828,0,27.67452254,0,327.3861357,0,0,-84.95697433,-85.44078655,116.0969876,1.53E-06,-7.672839699,-89.64413309,0,0,,,,
285.2639998,1114,-166.0745049,132.1167256,0,48.47081603,0,305.7209997,0,0,-65.91828868,124.2489034,-100.1744164,1.52E-06,-111.2279332,-79.36847552,0,0,,,,
285.2719998,1114,-183.2219494,-132.9707234,0,-38.20932857,0,266.5044752,0,0,132.5909193,-47.93732462,44.57261733,1.50E-06,99.10709561,132.1059905,0,0,,,,
285.2799998,1114,-158.5995229,-11.89814211,0,94.3909589,0,353.9154984,0,0,-212.6889145,-4.554203585,-2.495893939,1.49E-06,-120.9042855,-241.4281902,0,0,,,,
285.2879998,1114,-120.0957275,107.4101739,0,-19.03825789,0,242.0099866,0,0,180.0601234,85.80271118,-40.05799787,1.47E-06,60.10902951,165.8095876,0,0,,,,
285.2959998,1114,-163.2130591,-195.6184943,0,21.29605814,0,331.401328,0,0,-86.19785621,-103.3440407,121.3813495,1.46E-06,10.81604996,-99.41942628,0,0,,,,
285.3039998,1114,-143.9849504,137.3932428,0,46.09778991,0,310.1387858,0,0,-97.29815302,101.49526,-118.6693812,1.45E-06,-123.7872733,-132.5653793,0,0,,,,
285.3119998,1114,-130.7203851,-103.4413815,0,-32.24203205,0,271.7119522,0,0,145.4653613,-57.99208566,65.17198193,1.43E-06,104.4494429,140.0238993,0,0,,,,
285.3199998,1114,-142.4641896,-22.67495094,0,107.6297762,0,372.9195198,0,0,-198.0688708,-0.526094257,22.17185426,1.42E-06,-104.7874295,-221.4958272,0,0,,,,
285.3279998,1114,-108.7370169,111.0874755,0,-3.859924329,0,268.7002501,0,0,152.4008237,88.57954116,-63.73762973,1.40E-06,52.11721495,131.2751392,0,0,,,,
285.3359998,1114,-86.46609523,-112.9960376,0,39.89564442,0,339.0837108,0,0,-41.82336817,-81.27446685,140.6339605,-5.17E-07,61.16860812,-45.85210475,0,0,,,,
285.3439998,1114,-79.80355782,193.8317905,0,58.95903484,0,301.9610112,0,0,3.698828847,136.947069,-48.82353053,-2.33E-06,-23.830886,-26.78633714,0,0,,,,
285.3519998,1114,-106.1886969,-87.13451572,0,-27.45759058,0,263.168579,0,0,183.8027697,-40.5418827,91.41787535,-1.75E-06,138.676997,152.8891187,0,0,,,,
285.3599998,1114,-92.31245764,27.92383574,0,112.3328764,0,352.0410842,0,0,-151.1533407,13.2660755,52.36724565,-1.78E-06,-72.65424175,-194.4053836,0,0,,,,
285.3679998,1114,-100.6853887,105.8236114,0,-8.222870482,0,243.630595,0,0,206.5335388,97.86929746,-9.507820478,-1.88E-06,92.57314809,160.4213803,0,0,,,,
285.3759998,1114,-146.5920336,-182.9391311,0,25.50899424,0,330.508717,0,0,-86.35383649,-98.36843921,121.0551394,-1.73E-06,3.074613488,-138.6306841,0,0,,,,
285.3839998,1114,-103.546422,166.5670053,0,46.64910463,0,296.3820015,0,0,-42.19595625,111.0333472,-90.84213836,-1.82E-06,-77.14396724,-114.0156871,0,0,,,,
285.3919998,1114,-104.6467959,-95.62897152,0,-37.55138,0,252.8724315,0,0,182.2662155,-58.5049222,91.6598073,-1.73E-06,144.6196106,131.0002617,0,0,,,,
285.3999998,1114,-108.1534959,20.12673041,0,99.19262756,0,343.347103,0,0,-186.9357453,-7.99414446,30.33099453,-1.76E-06,-106.8099744,-233.3164322,0,0,,,,
285.4079998,1114,-71.30505618,150.5535372,0,-14.13832398,0,226.7479972,0,0,219.9114921,81.80055501,-10.65311618,-1.72E-06,81.29974493,183.3767847,0,0,,,,
285.4159998,1114,-119.4519657,-148.7578368,0,32.90830641,0,317.2438024,0,0,-32.67708273,-98.28506519,165.0681244,-1.72E-06,34.17550304,-58.81222209,0,0,,,,
285.4239998,1114,-133.0107167,156.609845,0,56.76999979,0,304.0424027,0,0,-70.17117816,110.3575372,-96.29537922,-1.69E-06,-115.037198,-99.51575015,0,0,,,,
285.4319998,1114,-100.3214301,-62.37263859,0,-29.76470404,0,258.0289629,0,0,179.1252772,-55.21996555,80.64081669,-1.68E-06,112.0109873,155.4154115,0,0,,,,
285.4399998,1115,-101.7527974,42.35539845,0,100.6469404,0,342.9624503,0,0,-140.6485473,1.601303136,57.31643128,-1.67E-06,-77.252221,-178.788935,0,0,,,,
285.4479998,1115,-104.4581775,128.7626409,0,-19.00406884,0,240.0272079,0,0,174.59626,77.63442941,-40.34958338,-1.65E-06,57.27047747,147.4095323,0,0,,,,
285.4559998,1115,-96.36258846,-114.0080504,0,26.77845469,0,324.9193882,0,0,-54.97215629,-96.48762322,129.5586861,-1.63E-06,17.55513593,-84.47942341,0,0,,,,
285.4639998,1115,-116.2302501,166.6399274,0,45.08629852,0,306.2447964,0,0,-20.27403491,124.1993614,-71.92972013,-1.62E-06,-69.98921215,-51.43685728,0,0,,,,
285.4719998,1115,-143.9958748,-106.8478032,0,-45.41064373,0,275.7338962,0,0,142.5514371,-55.56147021,53.25059874,-1.60E-06,85.80950971,137.1155024,0,0,,,,
285.4799998,1115,-75.09473985,76.8349495,0,93.43101355,0,353.4962684,0,0,-154.9913908,8.642334006,24.5243724,-1.59E-06,-107.8905245,-195.1305304,0,0,,,,
285.4879998,1115,-44.38064415,176.8663864,0,-17.92941325,0,238.0156361,0,0,238.7415732,102.6457244,5.665147221,-1.57E-06,104.3077403,209.9142901,0,0,,,,
285.4959998,1115,-70.71866094,-99.62069396,0,27.25667833,0,321.3323606,0,0,-35.80341493,-79.7878239,160.8003165,-1.56E-06,48.5948046,-31.88236736,0,0,,,,
285.5039998,1115,-29.22563266,243.4799952,0,48.92754436,0,282.0619903,0,0,31.79000953,139.9600767,-39.61781153,-1.55E-06,-27.54097685,13.20176575,0,0,,,,
285.5119998,1115,-72.3748717,-63.27073346,0,-49.70374478,0,243.6255146,0,0,217.36238,-32.17655023,121.4172484,-1.53E-06,168.2370396,209.352295,0,0,,,,
285.5199998,1115,-135.5660134,-13.09918602,0,61.36652762,0,348.6091872,0,0,-202.469483,12.49018828,14.99048965,-1.52E-06,-96.56327056,-219.5547978,0,0,,,,
285.5279998,1115,-100.4849768,111.1145699,0,-44.86691413,0,254.4849206,0,0,123.73111,86.96822555,-96.2881978,-1.50E-06,12.71745459,101.2401291,0,0,,,,
285.5359998,1115,-40.62704952,-64.11124716,0,35.83095159,0,335.8949118,0,0,-69.59769483,-76.49885275,108.4725596,-1.49E-06,-20.35793784,-89.44621088,0,0,,,,
285.5439998,1115,-13.5333158,246.0873063,0,69.46482671,0,299.9349326,0,0,70.08828988,162.6187156,-6.181394909,-1.47E-06,-6.615630911,34.19563588,0,0,,,,
285.5519998,1115,-89.15923798,-105.137896,0,-36.96033071,0,277.4812119,0,0,192.5198566,-22.81416738,110.3842927,-1.46E-06,150.7281603,176.3082033,0,0,,,,
285.5599998,1115,-108.4622119,12.47398107,0,69.54591757,0,372.8899162,0,0,-240.2081067,13.24092909,-26.40672819,-1.45E-06,-162.3810507,-263.040726,0,0,,,,
285.5679998,1115,-54.7928058,158.5698928,0,-40.3015462,0,250.8983725,0,0,195.8477668,101.0066921,-39.05577377,-1.43E-06,56.56031241,170.4783056,0,0,,,,
285.5759998,1115,-54.42643794,-88.0041218,0,29.71137226,0,331.707172,0,0,-17.79882812,-64.85351458,169.9341339,-1.42E-06,53.27106548,-35.00005593,0,0,,,,
285.5839998,1115,-44.22240887,215.2177281,0,58.89939061,0,306.0185191,0,0,20.3441225,152.2495819,-40.95839091,-1.40E-06,-31.7817241,-6.741522918,0,0,,,,
285.5919998,1115,-71.35595831,-75.52568094,0,-42.04684439,0,270.258905,0,0,183.1177296,-32.05173302,90.72064295,5.17E-07,132.8633028,168.9749684,0,0,,,,
285.5999998,1115,-58.49461156,67.90652041,0,65.37224254,0,344.6364314,0,0,-172.7346923,21.33158336,14.71469947,2.33E-06,-120.3818406,-195.8867478,0,0,,,,
