Time:125Hz,Epoch,FP1,FP2,C3,C4,P7,P8,O1,O2,F7,F8,F3,F4,T7,T8,P3,P4,,,,
557.3199996,2177,-225.8945562,-258.2550879,349.8510138,371.5209344,-133.3666347,18.59869869,-146.4614061,-123.5789554,53.95038356,-270.088338,-8.308502943,-805.0661238,-7.772995478,-60.5363683,238.465758,119.9219171,,,,
557.3279996,2177,-88.97902769,-144.1150468,280.6674555,363.6565201,-150.2965112,18.21824969,-256.1922666,-100.6501527,82.50021497,-25.95845737,132.7303422,49.49980937,-15.9865358,-23.17835144,99.97118898,74.84521779,,,,
557.3359996,2177,-361.0388692,-358.4149817,300.3889193,327.8576048,-89.86925829,9.485272583,50.72523453,-102.498213,45.29204429,-214.9516484,7.678311441,-311.3700994,6.493242142,-59.42523619,177.895186,108.6071256,,,,
557.3439996,2177,-66.99186349,-138.7745153,323.2913043,377.8446482,-162.8555363,10.83915339,-329.488566,-108.9873416,72.02274791,-161.911025,49.01180945,-542.3311975,-19.79392878,-48.48033227,194.862755,91.72732397,,,,
557.3519996,2177,-270.5789397,-276.2927674,269.3257228,329.0548944,-96.1898185,22.42684719,-8.120660605,-74.34167191,57.26237442,-71.30377902,87.72053536,193.9855125,1.57060625,-38.14095519,111.2558096,89.12210613,,,,
557.3599996,2177,-224.7555895,-254.9914901,344.832646,372.4934319,-127.6782811,21.95694309,-129.0209803,-98.15330251,49.48112264,-284.4132035,-14.28834978,-831.5084936,1.573034386,-63.42127794,243.1391954,123.020426,,,,
557.3679996,2177,-82.75809971,-129.069101,280.6858376,370.1266247,-139.8004822,33.61578586,-234.0024807,-70.987155,87.29701031,-28.06050461,129.1584924,-26.67232059,-3.596385416,-18.60344409,108.6905344,84.92577275,,,,
557.3759996,2177,-353.5540629,-344.6000738,308.1672424,337.545634,-85.20356541,26.58586909,75.32279807,-79.31828124,51.66593136,-198.9877032,8.696741353,-386.1799842,13.45675789,-47.11690721,187.2011963,125.8130002,,,,
557.3839996,2177,-60.1897924,-135.5486767,328.3898353,386.8094044,-166.5136897,14.19254132,-319.123351,-99.81221225,74.3589493,-152.4835044,49.94902174,-645.0174593,-17.03037816,-37.59537648,195.1655776,100.9100733,,,,
557.3919996,2177,-260.4475849,-272.103851,268.222054,328.6363299,-95.45596811,19.16271938,-4.535830606,-72.12491283,58.27554124,-59.76665298,89.67117976,99.83516882,5.386487539,-32.82020004,101.4889133,86.35355347,,,,
557.3999996,2177,-218.1887476,-255.3808404,341.4988154,356.6942779,-128.7294636,13.76361641,-127.1537969,-109.5593407,49.74092207,-271.7039243,-18.64277886,-917.6135046,-1.201965853,-63.70571589,232.9907063,120.3132326,,,,
557.4079996,2177,-71.81005966,-128.2784496,261.5006339,341.2030097,-144.9951125,19.60365194,-255.6142771,-90.64748553,76.93052491,-26.76828908,120.8076123,-106.584742,-15.59656895,-26.50413789,97.33324154,73.43509106,,,,
557.4159996,2177,-348.7384352,-339.4299848,271.1016597,308.9905941,-74.40342393,26.27675863,70.29407097,-82.88232681,36.09375757,-205.7767685,7.824574868,-451.9827278,13.49446657,-51.41924286,182.1503508,108.4566539,,,,
557.4239996,2177,-56.77614435,-122.9963853,296.5942208,363.2195749,-157.2287499,26.3531349,-309.7389612,-97.87106025,67.67040085,-157.2912587,55.0428458,-746.5946941,-7.865816958,-31.81268669,204.5758918,95.97964074,,,,
557.4319996,2177,-252.6509352,-255.863702,245.6232362,299.1157742,-100.3954064,27.29967753,-8.647516325,-80.19810117,46.79570962,-52.60700286,95.39500823,23.72673497,2.803997601,-30.93307484,112.7198496,84.68597031,,,,
557.4399996,2177,-218.8352672,-246.0747239,327.7072775,341.7504095,-121.9367394,24.97743954,-124.2512255,-105.2902067,25.87601504,-267.1548557,-24.60132049,-971.736415,-8.809324453,-69.91987523,254.2467557,111.8224273,,,,
557.4479996,2177,-65.34546428,-116.5413631,270.2923062,333.058718,-132.0312183,33.06656336,-249.7723219,-68.77248441,71.72144188,-19.46693967,110.8921731,-179.2254419,-13.78061783,-27.37916227,127.6330379,72.41297224,,,,
557.4559996,2177,-340.5579583,-329.2191349,302.9712821,270.2495282,-65.47498009,28.51643738,76.82785749,-69.68831956,42.86755461,-190.89689,0.74606141,-510.546826,14.27455233,-55.82464922,200.9981805,112.4115499,,,,
557.4639996,2177,-49.67996225,-111.9664132,337.086943,331.2401351,-137.1680571,25.648797,-306.7062089,-87.49286227,67.14497489,-149.8884382,42.18652493,-826.2540308,-9.937703662,-46.28887276,217.4358769,93.72749642,,,,
557.4719996,2177,-245.1413965,-246.3855519,295.9483274,282.6220587,-72.31093187,26.91418925,-3.055311851,-59.54489523,56.51384393,-48.96446284,81.26723907,-77.06834356,9.623082337,-38.20253636,120.9356317,83.4575372,,,,
557.4799996,2177,-222.8279388,-251.2303638,401.3019585,311.7211057,-103.3884213,15.05466728,-108.0162567,-94.23084991,39.65170633,-276.9734235,-38.8798885,-1107.778647,1.088526836,-65.98976811,255.9900491,113.616692,,,,
557.4879996,2177,-68.09713695,-122.8578912,359.2096858,319.240236,-131.4176483,10.80492574,-251.2329807,-78.94090256,68.78130341,-39.56550481,94.64745616,-341.6006396,-18.94039124,-28.82056757,118.8201362,61.38599901,,,,
557.4959996,2177,-345.8028056,-337.8532734,393.0246132,288.1223585,-72.41880404,1.894022968,69.65528092,-84.11576986,26.35427719,-212.6775242,-17.3183612,-656.3687958,-3.199154559,-66.26380728,179.7917217,90.73262895,,,,
557.5039996,2177,-56.69313965,-122.6819958,457.2015255,359.8990497,-149.2456509,5.723618611,-338.4252523,-101.7220626,49.03485809,-249.8503026,-18.49991224,-1385.477311,-27.37995773,-51.84022582,253.479893,99.55377569,,,,
557.5119996,2177,-362.8216124,-326.1223701,410.272373,284.214958,-59.43888822,13.83074849,90.57267964,-63.64684174,33.01853898,-187.0460928,-18.40647339,-750.1589956,-6.909507577,-40.23660921,186.802486,110.3382805,,,,
557.5199996,2177,-516.5266712,-454.8738407,468.4078382,277.8064322,-38.86940209,6.14464122,231.8592817,-83.55726125,0.177298583,-409.5904566,-147.7570183,-1440.65457,0.731078042,-81.61812506,300.1318221,142.6704175,,,,
557.5279996,2177,-215.4616225,-225.2125739,447.0880066,317.9486106,-100.649313,9.366304008,-109.2123985,-81.00022053,39.43017052,-220.1999858,-20.79514326,-1078.043036,-17.45303962,-45.08694976,221.1344955,104.2031492,,,,
557.5359996,2177,-285.4562205,-271.027624,437.1779783,290.6629974,-82.9805194,9.47075659,-8.817518075,-75.62014783,36.80648473,-193.0545683,-15.02702911,-892.3131655,-15.9826771,-42.81430766,197.7400066,103.9296227,,,,
557.5439996,2177,-66.69082845,-107.756642,432.8205808,325.48577,-135.6915627,8.90907745,-267.3819574,-86.17037691,62.48677404,-77.05389096,67.21770138,-732.7365354,-35.4580269,-26.97234903,148.1032155,75.30772477,,,,
557.5519996,2177,-253.9993281,-244.2587935,427.8714998,323.4867435,-81.83598038,13.00631429,-14.2655126,-75.12529768,40.76213396,-109.5338661,42.07202023,-561.6965427,-22.25912214,-39.81985088,127.6926372,80.58360517,,,,
557.5599996,2177,-204.1477567,-213.0261897,483.4284614,366.9606597,-102.6639469,15.61630412,-119.4163432,-87.53049443,27.24195006,-237.1608761,-18.95250473,-1191.149531,-32.10276831,-50.99975603,205.8091708,93.42503996,,,,
557.5679996,2178,-78.13151636,-102.8042328,432.8602841,348.5845189,-112.5037633,21.57674794,-219.9517831,-71.35997264,48.57242543,-20.10044113,104.1994601,-474.0935487,-38.59885872,-6.628152798,94.55101887,62.42846038,,,,
557.5759996,2178,-330.7976337,-294.0888967,468.7800149,330.0591317,-56.10906324,20.71338067,68.12125796,-74.56617648,18.86979501,-204.3834783,-17.91952828,-920.2665031,-14.09808977,-36.07550016,183.2504141,104.6767056,,,,
557.5839996,2178,-55.65221713,-89.68916177,468.9934901,393.2128077,-124.3108989,25.56007057,-280.5827306,-79.15076324,52.93884352,-110.5724462,53.53222889,-995.8338888,-34.4541689,-17.15981436,168.1380268,80.08298084,,,,
557.5919996,2178,-247.3047247,-224.9504096,421.3788044,340.221829,-64.21208453,27.13932799,-7.617325172,-64.16731958,34.42714448,-44.11459801,71.40876112,-406.1975672,-24.51256053,-24.069763,104.7238381,74.38255323,,,,
557.5999996,2178,-223.1266466,-217.2585616,513.6695727,376.304567,-85.80773525,25.04836156,-91.23101123,-87.10443819,15.83607393,-240.9014934,-33.77894004,-1260.69833,-28.31922459,-53.72132258,229.0801418,103.3455992,,,,
557.6079996,2178,-58.14991962,-76.26811488,487.6544246,378.409439,-103.8963703,35.88174125,-221.8765143,-60.22847051,51.66189719,-8.638957833,106.6244704,-531.9212283,-32.1305144,-2.160760446,109.8539356,69.08067814,,,,
557.6159996,2178,-337.9600683,-289.9250929,523.6062467,334.6908876,-43.5004121,27.03212127,94.68527308,-69.61373001,22.8419088,-166.1538507,3.914335246,-819.9158374,-11.32227008,-35.65360381,178.1632791,108.8438878,,,,
557.6239996,2178,-59.04388482,-88.31577818,559.3438515,390.326122,-124.8557139,22.50188702,-285.3119927,-91.0925998,42.54241649,-127.7642351,49.60309671,-1079.345782,-40.80123086,-35.79797505,189.0842231,86.46923699,,,,
557.6319996,2178,-229.2327485,-205.0403868,515.8584975,352.1319894,-66.0683059,29.63316666,-8.781124917,-61.90575121,25.4238967,-28.63912943,89.5216012,-333.741895,-28.28648301,-32.68198261,95.88979222,70.3025583,,,,
557.6399996,2178,-229.3932924,-220.3503504,589.4871638,395.3707098,-94.11445255,15.97098951,-84.16963513,-92.89284999,6.556489337,-242.6290793,-36.2140038,-1263.829349,-31.83714836,-69.81984301,226.9943962,100.9038333,,,,
557.6479996,2178,-58.25707655,-77.34729433,538.0599477,386.3019236,-122.2707327,18.33970925,-242.1529602,-74.28358761,38.1366012,-16.00582038,92.00560899,-553.4649628,-40.32446202,-29.81756186,102.3451963,56.52488771,,,,
557.6559996,2178,-337.2110514,-286.1602511,566.1836604,326.5841327,-45.96181301,20.11030809,102.3676938,-66.66215184,8.002624828,-170.4016142,-3.848337877,-778.5578434,-12.56264653,-59.26592921,164.6579805,92.62290872,,,,
557.6639996,2178,-59.96855159,-83.60086856,595.7665512,378.9177632,-121.126476,9.081251393,-276.4886241,-89.15202805,37.43208062,-145.6580302,32.85829187,-1129.818915,-34.0568392,-51.78535258,195.4425082,78.21643661,,,,
557.6719996,2178,-227.7861603,-198.0062806,534.6511125,330.5651295,-61.57872772,8.332488197,-4.671548035,-64.29543351,29.89942254,-23.83420532,78.24462371,-324.6488775,-18.01467061,-35.13868555,89.21660406,59.81239853,,,,
557.6799996,2178,-231.7996245,-209.1826127,608.3434008,365.5488597,-68.9082637,15.45679604,-62.64415166,-78.44538472,14.7894393,-247.2608389,-48.34985582,-1292.361423,-16.98999636,-64.08954421,229.132675,96.25455636,,,,
557.6879996,2178,-53.23597514,-54.36925771,555.781627,367.0673374,-90.96458336,29.74702868,-228.1987016,-59.05069834,55.1112257,-9.691628636,91.86409947,-598.7130638,-19.23192357,-11.27789935,115.5844107,59.65245141,,,,
557.6959996,2178,-338.3586645,-276.2330684,582.4344164,324.922866,-31.02182618,23.70258635,116.3584688,-61.94945759,18.15216507,-151.8132764,-6.196046874,-795.7933014,3.162639628,-37.51572808,169.9679016,93.43256438,,,,
557.7039996,2178,-54.87177577,-70.09050186,618.0749235,391.5887802,-105.7765794,24.93229164,-257.680841,-67.30971123,44.16896741,-137.9483202,20.7596551,-1170.917207,-20.08198827,-31.99610415,200.6826995,82.47005282,,,,
557.7119996,2178,-212.558871,-169.3850992,566.2354581,351.00874,-44.93741229,27.8226663,14.60632737,-40.63218804,47.62816874,-6.135870349,89.10194955,-338.1269785,6.631638569,-6.783073219,101.0785308,70.32746589,,,,
557.7199996,2178,-225.1088081,-192.4084873,649.2561489,418.4489662,-73.63233432,14.65733817,-45.21735581,-81.20359328,27.59222435,-229.5827103,-30.65381142,-1302.60535,0.286936985,-43.32560239,241.5409362,98.28957254,,,,
557.7279996,2178,-39.07241365,-44.21209365,589.0322822,467.5874873,-110.0689456,23.51645264,-225.2708877,-70.55783536,50.75253612,-1.772007329,93.76032,-589.9683039,-22.98438531,-9.880114317,109.6856598,49.53865574,,,,
557.7359996,2178,-325.8522261,-268.5739669,598.1349869,419.9575307,-44.48255118,12.34599621,119.5645667,-72.34775951,6.597904617,-153.1618586,-10.36706767,-756.7713194,-7.156269543,-46.62309846,154.7085083,76.81964062,,,,
557.7439996,2178,-53.85689374,-68.65880857,628.6778279,459.9290632,-120.9911319,3.730532323,-259.4277959,-88.16816357,28.33894075,-143.7255579,16.40152489,-1156.101936,-32.42898319,-46.4277434,185.2473772,58.92542651,,,,
557.7519996,2178,-210.566998,-175.7432753,574.4751406,412.0238522,-64.84523101,11.87752122,5.186405269,-61.86099231,22.30680222,-12.63326192,79.14511425,-314.223487,-15.08032647,-30.86489753,70.19233103,42.62583966,,,,
557.7599996,2178,-223.0845425,-205.0108604,660.9530677,429.1984382,-84.86724833,-4.523111309,-48.7988453,-89.40447574,3.578800619,-252.8529996,-46.86486096,-1290.197542,-23.67924642,-72.54708761,211.9859777,73.44347358,,,,
557.7679996,2178,-32.67027737,-46.22126834,604.7646953,426.0381993,-107.1422069,3.646328269,-231.8843857,-65.2792434,36.72985424,-22.09713485,89.41248629,-607.0327776,-35.75596755,-27.1556088,93.77264982,30.96780286,,,,
557.7759996,2178,-317.2436513,-262.9390436,615.1732902,398.9137184,-28.72529938,14.37502491,126.4806185,-57.75517579,8.018039246,-156.3635555,-1.183404197,-793.1146934,0.561431508,-42.70361945,149.8077718,74.42410863,,,,
557.7839996,2178,-39.47486368,-63.13437412,655.1653258,450.1803506,-108.6773322,7.549901869,-249.8425484,-79.14101921,40.97099767,-144.3507536,22.76354895,-1232.872268,-15.6470936,-34.8760097,197.3526142,66.6262958,,,,
557.7919996,2178,-197.7700151,-168.2026321,594.7597346,380.5476898,-54.43190414,7.422091493,7.270993492,-55.94048453,28.48575776,-2.577153039,79.2576993,-367.9857559,-1.804135996,-22.14047219,83.14265775,41.0310625,,,,
557.7999996,2178,-221.1157112,-195.7989576,672.9609359,405.8751237,-66.7883758,4.261667056,-37.69266442,-78.86897203,3.771790289,-239.4047702,-47.89606528,-1340.875669,-10.74633388,-62.48176581,221.6246656,68.68574037,,,,
557.8079996,2178,-18.3912557,-27.38471751,626.9581476,421.5871911,-94.65587939,17.14296584,-223.0850798,-57.03837041,48.51004542,-6.093436862,99.68118759,-680.7074841,-22.39897654,-19.46492478,110.9401753,31.38337747,,,,
557.8159996,2178,-304.8141618,-250.1450378,645.3717919,388.2294923,-23.84491343,19.5649752,140.9364048,-56.40122083,20.35415009,-134.07927,11.97054956,-830.9455183,7.007121883,-45.01190084,164.375064,73.3513437,,,,
557.8239996,2179,-33.71240584,-49.32960835,675.0900304,436.1771724,-103.0087647,18.1682472,-235.6904775,-70.58762944,37.4940796,-129.9511126,29.40480475,-1254.392495,-23.44551918,-43.71843541,199.4017836,63.14903233,,,,
557.8319996,2179,-175.1245243,-134.8887221,602.2224421,391.4177737,-43.41043342,29.51080542,22.47354244,-31.70830592,38.41234293,24.09556713,102.4468581,-359.8189525,-4.121497697,-12.40505488,85.85272826,54.41649824,,,,
557.8399996,2179,-193.3089814,-169.9145999,675.7006036,433.9762979,-57.65877816,20.96691787,-12.15822442,-64.55383498,24.52095545,-200.2877248,-16.35389069,-1302.1538,3.499102708,-38.79191679,236.6027989,97.31652794,,,,
557.8479996,2179,9.747147897,-10.82078101,598.2226143,428.6072194,-98.62424222,12.33201848,-219.9339807,-60.51095293,48.16482235,27.32469288,117.3795312,-603.5452887,-15.75159297,-8.533276932,116.3364179,42.15794127,,,,
557.8559996,2179,-286.6166045,-239.9017425,571.2219438,370.1709497,-32.29232193,3.815499399,136.4539142,-59.94481619,11.89750615,-110.7974588,17.85710072,-693.6367697,5.458645453,-36.09896731,153.1345034,66.14098643,,,,
557.8639996,2179,-26.09971163,-44.85511631,585.0162107,423.8943126,-107.3763412,10.88453187,-233.6924069,-77.57291698,34.19485845,-122.3904001,24.33434123,-1124.380283,-18.80273764,-36.72123432,193.696304,51.70171582,,,,
557.8719996,2179,-171.0387788,-126.8239861,514.1279174,377.9055101,-46.77913272,19.04119167,15.9005507,-47.2339917,28.21459622,30.51850629,89.62698043,-209.1832596,-7.596737446,-26.88907904,81.50197257,28.96500606,,,,
557.8799996,2179,-198.3565511,-161.003265,600.0028158,404.539591,-57.99865571,8.433680679,-14.75016296,-72.28125905,10.11966193,-197.7462969,-32.30090672,-1134.51448,-7.054387617,-59.83147107,232.4279222,70.15321137,,,,
557.8879996,2179,15.86437722,11.44468668,551.3663873,401.3438149,-91.64917593,18.60809118,-223.7938632,-57.21515779,42.37598643,31.2863947,104.2641495,-450.9045378,-18.81845473,-20.67953946,118.8389338,31.12208297,,,,
557.8959996,2179,-276.6901122,-211.198807,555.5153313,346.5290195,-18.46951659,13.88294352,136.0646886,-57.3564597,10.49648757,-93.16003154,5.734634085,-512.1086734,2.154112561,-43.97356065,158.8450571,63.26570606,,,,
557.9039996,2179,-22.24269201,-25.21064119,595.7648545,399.6283709,-101.6296492,7.531564908,-236.9749225,-79.48475123,26.94713241,-104.8037247,11.99123736,-939.3369682,-29.95527446,-34.80186341,199.6087367,48.90750978,,,,
557.9119996,2179,-163.4573728,-106.7335474,523.3180503,368.6729815,-48.26267267,22.53934199,6.689378705,-43.81928756,10.62624305,46.23178498,81.07087858,-5.965276532,-20.46637099,-20.19024276,70.73915274,23.98276681,,,,
557.9199996,2179,-197.0649618,-143.539331,597.7197735,408.9415474,-50.99706576,22.25333592,-2.572260086,-63.20322347,2.440301996,-188.4547514,-40.33119182,-942.0364843,-7.539292168,-48.62479728,217.7143537,75.9121367,,,,
557.9279996,2179,13.55445488,17.72479923,564.7316262,388.7128653,-93.13440411,19.93638719,-214.2924467,-55.92157324,40.86282147,37.77325267,96.20298453,-273.2155121,-23.82950155,-14.18172448,107.1047001,34.51634188,,,,
557.9359996,2179,-277.6319502,-203.7818982,586.5294915,328.2000999,-25.23398951,13.76731127,143.0889961,-53.14092402,-7.297287714,-87.62301133,-0.481793522,-299.8326886,-11.31801614,-52.97873946,135.9825246,51.94215389,,,,
557.9439996,2179,-10.99145157,0.277704394,652.8187326,399.3489532,-90.95326346,16.48555058,-218.8299465,-66.59214354,24.40961695,-105.8471084,16.72960279,-764.6286677,-20.75436376,-29.95068051,189.9654474,53.50745048,,,,
557.9519996,2179,-143.0769051,-77.45883698,619.1341404,355.0641088,-28.20770487,30.39785376,16.74796302,-33.80761802,26.34506263,54.48864682,99.99105948,161.6488752,-6.178039691,-6.367597194,73.66514639,37.69717825,,,,
557.9599996,2179,-183.0167128,-124.5549934,713.6241971,393.1045196,-26.71694083,27.129947,4.537244977,-59.9270741,10.93301449,-174.5339369,-21.42855896,-762.043013,-6.029759091,-45.58665318,214.4687662,79.93617649,,,,
557.9679996,2179,31.0948199,44.75695827,670.7112615,404.6002499,-66.09330314,22.29859425,-210.3615481,-55.92943794,47.98034752,49.30663575,113.5790481,-111.1669509,-19.38801447,-5.916384097,101.5367238,35.06262578,,,,
557.9759996,2179,-263.9601346,-178.2556169,664.7072523,354.2741636,1.635147984,19.96269124,155.664065,-46.39821477,-3.574209277,-77.25385202,16.25507151,-132.0080781,-3.183311067,-39.06210134,131.9603622,51.52779663,,,,
557.9839996,2179,3.54967938,13.12280592,700.7038087,422.1141574,-69.86839302,24.90703423,-202.4567011,-58.59913556,29.24799468,-97.22357338,27.90718022,-624.7594699,-15.76591481,-21.86484679,195.0760691,53.33370505,,,,
557.9919996,2179,-123.2999978,-68.36306964,626.0526855,362.66562,-29.44745621,26.71523399,21.6962168,-37.72764568,33.7865595,64.77898408,106.0427349,321.9884697,-9.779723902,-10.50999046,81.08570337,27.67514697,,,,
557.9999996,2179,-175.5791246,-122.5759111,676.3982974,386.2641599,-48.22134708,10.92782309,10.73422602,-67.02242203,5.565686245,-181.5362318,-30.40178619,-576.858585,-17.16767018,-63.09821468,213.0703373,54.22828674,,,,
558.0079996,2179,38.72276302,49.63850068,612.0990757,408.0640075,-91.57324708,6.342183171,-213.786062,-59.13452158,50.59086184,32.60457283,104.5297795,53.65306306,-30.49277567,-19.56024655,93.98456031,10.6183579,,,,
558.0159996,2179,-259.9086756,-170.642399,593.3643041,355.0427548,-18.31124122,13.60282201,149.0985289,-52.70727807,15.61934296,-81.60510356,17.53981731,43.3047349,-12.13240577,-48.21173472,121.4286576,36.14912742,,,,
558.0239996,2179,4.684176961,22.89244675,596.0877798,407.416681,-82.38530405,27.33004178,-203.8630386,-63.93694821,37.74106872,-101.6553652,21.50048398,-467.2967633,-20.71987153,-38.31499423,183.6172755,40.16199169,,,,
558.0319996,2179,-113.1631439,-52.49678691,494.7192081,348.3157077,-33.843099,28.06495994,23.80477831,-37.63609755,42.17187092,60.17423235,103.1135962,470.7110808,-8.877840877,-18.56282159,69.55268863,20.39898957,,,,
558.0399996,2179,-167.900064,-106.9395909,548.4945442,382.0129903,-38.16231661,17.61704115,24.38448973,-61.92089572,18.26437605,-182.0617333,-33.37277883,-441.6315884,-18.6649015,-52.83944342,206.9905783,56.1970894,,,,
558.0479996,2179,58.405265,78.5826424,484.7026549,407.4417653,-67.24829693,26.06292761,-197.2163392,-44.82763981,58.90972555,43.06231469,94.63603997,158.5458403,-27.29641391,3.846171824,97.1429581,23.45023842,,,,
558.0559996,2179,-233.8432557,-142.6355883,467.2391151,354.5259207,2.401745678,17.49308621,167.041506,-45.92504336,29.24380091,-65.79335868,16.20854377,150.1292754,-1.473276367,-29.2448833,128.417651,52.23083744,,,,
558.0639996,2179,23.48605418,37.34690332,499.2320934,424.7296137,-75.45981508,8.846532775,-202.8009042,-72.89890221,51.98471813,-97.9120173,21.73545458,-379.1173269,-15.50266412,-27.14117306,183.5544373,46.33385982,,,,
558.0719996,2179,-94.12702029,-35.26848466,422.0387795,371.5446869,-26.37472458,19.15359528,15.79100184,-42.78387645,57.02515873,69.58116918,101.2867746,575.6961847,0.30596836,1.765785969,60.58456144,26.69071466,,,,
558.0799996,2180,-159.0556965,-103.6466181,479.8946332,383.7624117,-40.17628998,5.340614166,20.96251632,-78.94553813,32.10652905,-173.9451395,-33.51708166,-328.5848065,-13.1517228,-50.32516044,202.6357725,64.08723921,,,,
558.0879996,2180,66.63239049,71.01134302,429.8189632,403.689078,-84.97865374,0.455305787,-217.1027013,-77.01303373,55.7769146,30.18364314,93.10972604,253.6600293,-33.69451505,-19.21432184,85.74787257,19.35697887,,,,
558.0959996,2180,-225.1048346,-141.7181208,423.8714392,344.6802617,-2.292818282,11.14612953,162.4142539,-57.78218684,10.85594228,-84.81138431,11.65422253,272.9542127,-8.58402235,-45.3587241,103.6423229,44.18769568,,,,
558.1039996,2180,30.82380927,43.0953697,454.4869829,409.3281689,-73.32762801,11.85140798,-196.6083432,-76.90528477,38.74180479,-108.4663611,19.3737768,-272.7583664,-28.35147554,-28.91603592,174.0088701,46.8916676,,,,
558.1119996,2180,-79.62839494,-25.40059966,383.9035996,374.9485181,-23.93285783,21.22875191,11.46862911,-47.01258633,43.93474385,70.47945202,104.5645847,666.3957328,-13.76539501,16.32728389,64.76420207,31.03984547,,,,
558.1199996,2180,-145.2221629,-86.17428371,447.2854231,383.7194693,-22.12661158,28.17764266,36.94759799,-57.08472995,12.49147212,-170.9862809,-28.54114382,-242.7470079,-14.09551141,-25.92060852,211.9246845,69.09845913,,,,
558.1279996,2180,83.38846456,94.50691116,375.7132094,388.1998321,-72.45401335,22.40374495,-205.2112845,-53.30129648,50.92708867,45.90383663,108.2325163,324.9715534,-28.56945546,11.88874417,106.5302514,27.33874529,,,,
558.1359996,2180,-219.979336,-131.2734643,339.5810876,334.1470827,-8.204618427,14.40571536,159.4957297,-54.33653142,11.91500784,-61.37502942,29.80031943,362.6104278,-12.956447,-9.163910963,123.1927041,50.37823761,,,,
558.1439996,2180,30.03190126,50.41654543,357.5505427,386.7164586,-77.77651557,19.43873862,-195.6592025,-67.46041652,29.91642605,-101.3217278,29.00676816,-194.1423459,-35.82970268,-16.12165315,180.0406897,47.08559272,,,,
558.1519996,2180,-72.5166024,-13.16957895,279.4606727,328.7263804,-25.40744945,22.50459463,11.42162613,-39.18618949,44.10594908,80.0131981,119.5677028,749.3542608,-15.95917197,10.09613419,56.94466787,29.14093019,,,,
558.1599996,2180,-152.3569222,-91.41204235,346.9938378,337.5950727,-28.78444659,13.02172822,41.0386686,-66.82798282,21.79549691,-161.9117147,-18.84400991,-162.1217018,-18.6659096,-29.26429781,200.0428357,67.21229549,,,,
558.1679996,2180,82.10121852,92.09353796,297.9361928,343.0765785,-77.11510509,21.75412453,-203.3432519,-53.1096342,52.4780752,46.2763499,97.41874645,388.430452,-37.69441762,-3.588806753,93.72522911,21.23137231,,,,
558.1759996,2180,-206.4222788,-126.9911243,293.0792235,278.0600934,-4.858283965,23.58221473,169.0654854,-43.39067736,16.9256661,-52.98927847,12.52888042,440.5925417,-11.97971215,-24.75691613,108.9971435,48.51415378,,,,
558.1839996,2180,41.49866495,47.86463442,339.3699154,331.2714279,-71.26730747,19.78554941,-180.2142079,-63.29897194,40.69905998,-90.79459019,15.1853784,-132.8514757,-29.12463806,-14.28848315,171.0314696,50.979103,,,,
558.1919996,2180,-59.18693425,-8.522273053,270.9181369,284.6702522,-15.26444171,28.10081518,20.21243285,-30.53744931,48.93175443,93.96189893,109.1144974,819.619374,-15.72974475,14.05974978,45.41686173,27.32609908,,,,
558.1999996,2180,-137.3907475,-85.48087358,351.8906091,300.046496,-20.33427253,14.84738868,46.35718508,-62.06909945,21.77142776,-143.7985681,-27.87210412,-84.86092272,-16.56196671,-17.76124487,186.7981199,62.14929256,,,,
558.2079996,2180,106.9135723,102.3291093,318.5068885,312.0459611,-72.24535869,13.25979966,-212.0727933,-54.64394265,47.4190849,64.94521115,99.06652332,461.7916512,-41.90079062,16.87040478,84.83267063,9.887356079,,,,
558.2159996,2180,-184.2462389,-113.9224776,322.880736,258.4543683,13.47768979,22.32858042,173.8741882,-32.81765765,14.81841121,-34.86254164,27.01154978,524.9723647,-14.71596107,-8.165600893,109.1038941,38.7742936,,,,
558.2239996,2180,56.28814238,52.97305056,383.2946592,307.3812141,-58.68303019,15.82041886,-169.5748903,-57.18681149,37.36309355,-81.7230574,20.55471757,-80.96426684,-31.33968156,-1.969793596,185.4248172,45.12934802,,,,
558.2319996,2180,-37.31575621,-4.510683811,306.1346451,249.8324558,-17.89371023,20.17945735,13.93049679,-31.65043033,31.93817708,100.6107416,101.7274217,898.2858647,-32.07957609,12.6227699,56.96198802,5.081859944,,,,
558.2399996,2180,-120.9397174,-88.93877052,367.0173318,268.0473782,-6.875300706,17.63395434,57.4189037,-52.21857491,8.352964637,-145.735117,-35.55342234,2.620061375,-18.59171414,-32.69837508,199.5310355,42.19750749,,,,
558.2479996,2180,118.4949079,94.51839098,313.3859041,273.5562309,-56.17107834,13.6700623,-198.7992958,-47.55521894,42.51879048,56.574705,92.47375104,509.4696339,-39.22950689,3.56589179,101.5983813,1.57855218,,,,
558.2559996,2180,-178.1566848,-121.8754191,272.3826088,212.2003929,15.724627,16.02529399,178.0361694,-34.44011286,0.218489131,-39.00810255,18.1609234,599.3517355,-30.74789054,-28.43035072,106.9840693,14.49831655,,,,
558.2639996,2180,61.56003143,45.7176423,303.1218819,274.1872633,-52.86994403,15.41064137,-159.0101221,-53.70388674,22.75697641,-88.93794621,16.714341,-28.67398573,-37.4770225,-20.70655407,178.1209903,18.42248168,,,,
558.2719996,2180,-23.31301792,-0.522188488,230.561546,231.7788595,-14.28278987,17.85558139,22.89236392,-29.63668763,33.87118401,102.2086764,106.5875651,923.8884449,-30.57303463,9.852190695,57.17353552,-7.009151044,,,,
558.2799996,2180,-110.5124974,-74.17276252,297.2609035,255.6209549,-12.30773685,13.273158,67.00946672,-51.79005088,17.85398019,-140.8453813,-34.58672866,27.34935691,-34.78823742,-44.06800063,189.7892228,27.59406687,,,,
558.2879996,2180,133.4092282,117.5887567,272.2731852,259.4912278,-58.42773225,13.86171719,-188.4658827,-40.22280908,56.14143442,64.85308118,97.87599479,511.2533449,-49.67705257,-9.707420791,82.58455358,-10.43381649,,,,
558.2959996,2180,-164.3637088,-100.9026356,278.62788,195.8821827,13.31502566,4.970446517,191.6691456,-34.17238332,15.84354252,-20.27142997,26.54457431,610.9571961,-30.89327553,-34.82695657,98.17924608,11.03390423,,,,
558.3039996,2180,65.977692,60.25649432,314.5235824,241.0015249,-69.42942068,-11.03933024,-154.6849635,-68.7622208,27.38912133,-80.50632533,11.94226892,-17.83955376,-57.89547541,-48.47054581,170.6217293,3.905944841,,,,
558.3119996,2180,-19.17067506,9.827403893,208.237986,165.5140874,-35.89796449,-10.00638976,17.67593839,-44.7055683,21.1077599,106.2935102,99.78130912,963.0858774,-61.94120189,-22.65784089,27.13062956,-37.51245419,,,,
558.3199996,2180,-111.2176519,-69.49780507,260.6125643,203.1108762,-19.66361598,-7.019457009,74.1661321,-54.943975,-4.996433755,-141.8205027,-43.28109738,77.54730115,-52.46024575,-53.45971585,163.2267647,1.695120336,,,,
558.3279996,2180,134.4138754,115.9773345,240.3571861,220.320513,-68.24266882,-5.12835205,-190.6733853,-49.90463979,37.76561007,55.88402926,87.89925332,527.7638684,-52.0741158,-17.73984499,75.97524827,-23.36401548,,,,
558.3359996,2181,-165.1252725,-113.7331683,233.8648112,122.1886586,-2.339414713,-8.917034903,181.3500145,-50.80440036,-8.940333708,-29.79908346,12.56326897,652.2576735,-42.73566904,-54.14755518,80.32683352,-7.122972989,,,,
558.3439996,2181,68.96080292,61.28297095,260.5413379,193.0442068,-56.5124521,0.053907236,-155.1010929,-59.15218255,4.407354171,-98.46178347,-13.66860949,14.93356791,-76.19862857,-51.66906859,143.897022,-9.972248356,,,,
558.3519996,2181,-9.00484113,27.64748066,173.1086252,147.0523583,-8.382750643,14.40045382,28.22489164,-21.73063459,31.34613816,93.62738392,91.42787573,959.477585,-48.38036611,-6.461180605,15.34309931,-21.60921295,,,,
558.3599996,2181,-116.5764174,-62.06612278,245.5609869,151.9661699,-10.22063659,10.59424426,93.03732112,-51.03182197,8.652549013,-147.7179942,-37.90628515,66.33067098,-37.12412885,-49.67927838,163.8253604,23.37487404,,,,
558.3679996,2181,129.0200308,133.1585014,224.8934768,185.9444802,-57.66067132,6.696539531,-185.2839448,-48.76522213,37.38571571,48.86570068,88.26448381,524.5301857,-64.02160354,-15.98781577,72.60881672,-19.13163144,,,,
558.3759996,2181,-343.7950938,-222.8786474,217.0894529,87.67347338,60.71224907,-4.321671545,418.15316,-39.37529764,-15.41803884,-76.0437965,-11.49943777,742.1533945,-21.33565065,-43.42344523,79.6998357,15.80053704,,,,
558.3839996,2181,-90.81287871,-50.36529815,289.8699346,165.2676266,-25.80231857,-6.594997818,24.68602892,-72.43504524,-3.826591313,-220.1071258,-68.94231011,-295.8514027,-36.26042552,-55.92106629,205.2220417,26.04424425,,,,
558.3919996,2181,198.2105972,185.2447551,189.8393304,179.2459935,-73.42344166,-3.659666174,-258.9809666,-46.04439671,45.28817734,142.9767239,142.9499282,825.6435286,-45.57688168,5.227989049,9.553908159,-48.82258995,,,,
558.3999996,2181,-216.2004546,-132.5311406,203.9833405,114.9690575,14.25794868,-17.93175884,223.3695772,-51.64506496,-16.40747625,-77.98094417,-14.17780826,553.4282438,-18.23530515,-53.57710103,84.49491089,-10.3999508,,,,
558.4079996,2181,35.18263815,55.25626467,241.9440515,184.1775885,-51.61165492,-14.85083092,-117.7087928,-64.32588463,2.639204709,-100.7842448,-11.13039456,56.76629187,-53.22491334,-49.70671736,134.8253163,-16.07594714,,,,
558.4159996,2181,53.16192493,80.93091728,189.2539844,177.8487225,-34.78366051,-10.92097803,-71.49987752,-41.9139525,15.52055969,87.33225624,93.43810201,834.5620035,-45.54979925,-12.40298465,17.35274368,-44.5609411,,,,
558.4239996,2181,-164.4978889,-99.40499585,238.220097,159.0105346,-3.615144324,-27.50419012,148.3721388,-67.72343629,-26.5024723,-118.8449933,-33.61934446,296.7352973,-28.71452408,-59.76657615,108.1542536,-14.27661186,,,,
558.4319996,2181,107.7138332,111.60307,233.969501,200.283094,-69.11860446,-22.18833542,-187.4146093,-69.44617059,5.412548814,-20.2615085,33.61806929,310.3651042,-55.92643885,-37.21522317,77.99652958,-43.04007394,,,,
558.4399996,2181,-65.95691775,-3.375583349,196.5386401,179.3866436,-5.467775409,-8.064818347,75.20314017,-39.48476736,-2.840027293,39.62190443,51.58420204,833.2743648,-37.12552797,-24.94329859,28.92095666,-36.35315041,,,,
558.4479996,2181,-60.62872547,-9.221782097,263.7085507,226.74415,-19.78477423,-16.52900325,18.39178044,-64.91772898,-2.659202167,-115.5886204,-21.75485314,125.2678706,-30.46400773,-42.91903356,139.476606,-7.905112284,,,,
558.4559996,2181,110.1207323,126.1035977,232.3580342,232.8526183,-57.92954904,-27.20215221,-153.9011539,-67.21164922,20.40707783,62.35321268,85.59896377,629.1905738,-44.86186932,-13.78946901,36.98845299,-53.34520915,,,,
558.4639996,2181,-148.9620314,-77.63912795,230.2314207,183.72805,2.107208552,-34.014146,165.1618017,-65.68814817,-27.85878708,-50.13790576,0.227259845,597.1104411,-38.72415677,-50.40002886,51.8362321,-38.13371474,,,,
558.4719996,2181,85.75272197,86.9949586,260.0599252,236.5558302,-61.55724753,-30.76007067,-145.1323078,-73.86757018,2.553557556,-76.54276793,4.605820295,134.2868297,-51.23226286,-41.7983198,103.3358602,-38.36965005,,,,
558.4799996,2181,-2.254287992,32.32557548,201.5790528,190.4836213,-25.16327293,-29.09598996,28.6197443,-47.49509113,7.692356793,75.4517442,71.57906895,943.8251013,-38.1367313,-22.39522428,5.081932796,-63.4733674,,,,
558.4879996,2181,-81.9837715,-36.19111995,267.1242864,215.2725885,-14.8953537,-32.09035887,70.95972672,-65.62798303,-22.3258285,-136.1636334,-47.16147661,178.7956348,-36.06607559,-59.40060818,127.467679,-34.83985268,,,,
558.4959996,2181,157.161848,153.9291864,248.0720489,255.4207429,-52.9116463,-18.20999104,-169.1740452,-50.22606967,18.9565239,44.97593828,79.19816355,567.950169,-41.95387885,-12.09481764,53.25768305,-57.08384713,,,,
558.5039996,2181,-294.8943196,-186.8340496,235.0801116,167.4672693,64.95363431,-18.590433,419.5753905,-32.03765021,-32.30479361,-59.82178937,-8.277868627,821.8200699,-5.416200137,-44.67822451,60.38554035,-20.37949049,,,,
558.5119996,2181,-238.00946,-155.8808617,303.5337532,206.0676689,34.15978826,-23.77166226,280.8635156,-57.44804932,-41.04434762,-244.4550234,-102.8053601,-68.13529992,-12.82479996,-71.71755464,179.7447441,1.470610941,,,,
558.5199996,2181,90.19719028,101.5511881,254.8907644,234.5205934,-38.33618621,-21.50808285,-77.98067292,-50.58376445,12.03832679,26.25241379,66.13346139,550.9713346,-36.42384653,-18.93897402,59.43184416,-50.60678908,,,,
558.5279996,2181,58.34195012,75.21764608,241.7818092,221.0539543,-31.93274516,-23.00683917,-41.78610063,-53.16776059,6.358378213,-0.419316017,47.89737081,470.3824064,-30.60228618,-27.4219438,78.33307778,-46.10881353,,,,
558.5359996,2181,5.199570918,42.50318119,215.974434,199.8954844,-3.074220939,-14.45544579,49.82633375,-40.34522288,6.445021125,3.841002951,49.71131232,562.7350112,-11.72327944,-22.13026465,76.69320889,-38.51640789,,,,
558.5439996,2181,19.78444342,47.74873677,232.0424009,201.5741939,-16.00473518,-19.98480495,15.92856451,-50.66384992,10.24842964,-27.48555822,39.44771668,390.7123844,-21.61553042,-26.22802819,105.6695926,-31.56586924,,,,
558.5519996,2181,113.5677691,113.5581931,230.5616634,205.9426884,-44.58573552,-27.62172341,-104.1472931,-56.9525615,16.7074094,24.67151843,71.38386472,497.9638731,-43.78941683,-14.84865836,75.77148748,-50.26147522,,,,
558.5599996,2181,-52.79180438,-12.51130405,221.9738611,164.8896983,6.909914456,-24.86121254,123.1355473,-45.39508254,-8.71224117,-5.224134584,37.71207674,661.6078084,-24.89639141,-18.12613752,61.15142522,-41.53530091,,,,
558.5679996,2181,98.1372666,93.01694608,252.2576615,207.3120719,-41.18945665,-20.65494589,-101.3155965,-58.0623332,-3.562640965,-56.75046101,20.8861102,193.527229,-39.80566539,-25.78542543,113.7204845,-41.6317931,,,,
558.5759996,2181,38.81473143,59.01281005,199.9945239,160.3871818,-20.26677445,-21.74523685,6.637054816,-43.77426312,-4.782644348,77.35208105,88.18912947,888.4947114,-41.28124278,-17.45818967,19.1904826,-65.99777088,,,,
558.5839996,2181,-58.51303639,-27.44321258,256.4085233,141.1712015,-18.17030673,-34.35325317,68.03538311,-70.27708858,-26.58976935,-101.7862935,-15.79474623,303.5565428,-37.08294201,-54.85851526,114.1849979,-38.56666384,,,,
558.5919996,2182,157.0320568,143.9569809,239.8451091,174.4271616,-60.40222005,-21.01827739,-166.1747342,-55.63472328,1.97028077,33.1343506,65.21144929,566.7742118,-49.38183788,-24.51264647,53.32130844,-68.71690844,,,,
558.5999996,2182,-86.47461695,-28.19767587,234.0772184,136.7389147,17.13411318,-16.31156892,176.0496759,-34.77867565,-15.5166269,-1.614661773,24.0590598,787.6549962,-13.2239638,-28.14901147,46.37742333,-46.31723014,,,,
558.6079996,2182,96.82538887,103.4711741,280.7798969,174.032876,-45.85757015,-26.40292943,-104.9214589,-61.08983551,4.979417999,-79.94105268,-5.512882431,114.0987231,-21.18182777,-35.87446765,129.4137697,-32.80693596,,,,
558.6159996,2182,53.20325645,90.01223064,197.7155309,134.8608308,-19.54286884,-16.92049408,9.810414011,-31.06719124,14.62108592,113.1806365,94.91301134,1005.349214,-16.21522235,-5.318390277,1.488102088,-64.01641785,,,,
558.6239996,2182,-77.00846223,-21.23488041,266.6655485,156.5215999,-4.713750918,-26.04102541,109.500936,-58.98614276,-6.823047082,-107.7550565,-23.94956244,254.5482599,-3.307977764,-36.11203471,122.2659354,-31.93097274,,,,
558.6319996,2182,169.9247017,168.6401616,254.2341659,181.445904,-66.93475676,-35.36699176,-181.0621547,-62.23009905,23.70338884,49.56176767,78.35480494,557.5412649,-26.08306803,-12.74220106,50.82811021,-74.07777541,,,,
558.6399996,2182,-111.000129,-35.42586728,233.3177176,117.4965137,8.7556511,-33.70364675,184.3361013,-41.65031602,-14.40848069,2.100638933,26.89485228,809.0675383,-12.61137348,-32.40440746,34.63410894,-61.70265783,,,,
558.6479996,2182,77.75884839,99.07587585,284.7871196,175.8369,-43.40627198,-29.47189209,-109.6905596,-57.77112115,-4.825431373,-92.43357663,-12.44308013,61.64301064,-26.3117982,-30.33692534,125.2938865,-48.99093785,,,,
558.6559996,2182,40.17499136,89.13832315,218.0494731,127.2618127,-10.51213529,-20.63750275,11.67751995,-20.4919059,7.461728336,115.3935379,96.17139424,1008.365776,-8.476660558,8.908931749,-4.138672277,-73.99522299,,,,
558.6639996,2182,-93.85697755,-25.14910134,284.5679677,140.7161192,3.723763179,-21.19825355,124.087983,-38.74129875,-18.23776612,-120.4509234,-33.48933515,212.3878598,-3.396396615,-34.32134304,127.6183356,-32.85155456,,,,
558.6719996,2182,175.3394404,179.073318,254.9013695,187.1315896,-58.13378047,-21.40128092,-180.927286,-42.20972371,14.26229031,57.24927026,78.53628142,527.1784374,-37.47899189,-0.561453319,56.48290096,-68.63515217,,,,
558.6799996,2182,-112.2318967,-38.46802885,241.7207538,120.8065446,17.16369343,-28.96419902,204.0954624,-33.52471259,-22.65912824,13.87413691,36.30844894,779.95965,-10.16715142,-10.14958455,41.42453226,-51.48805533,,,,
558.6879996,2182,84.63973217,96.28587868,302.3339674,192.7780715,-44.28466235,-32.77409785,-94.69363088,-57.33285331,-14.11565617,-90.42005656,1.49460522,10.8419532,-25.44851611,-24.38914595,129.4246853,-45.00112785,,,,
558.6959996,2182,54.60185396,89.52904188,220.5773407,169.9725098,-14.74875528,-28.47197645,11.94477787,-25.18035621,-4.085009599,123.2838941,106.4924614,993.6685248,-27.21269117,4.532199105,-7.343531021,-78.22406103,,,,
558.7039996,2182,-90.82944629,-29.38323621,279.0389924,180.1572036,10.12502951,-21.56464243,134.2197725,-36.03069307,-34.50225845,-122.6185365,-38.14883985,181.6735132,-9.359225475,-33.30308941,126.4796731,-32.76636538,,,,
558.7119996,2182,189.2038334,191.3177394,259.8840808,225.9001412,-41.31891807,-6.280494231,-168.4442175,-26.66190295,10.04663231,56.19613046,80.10022378,476.68882,-15.03432989,3.605141038,59.66886606,-59.22872114,,,,
558.7199996,2182,-96.65750718,-25.75452291,254.1763119,157.1034238,32.34172113,-10.60769505,219.1047074,-18.2750208,-16.86409706,19.65483965,41.40976683,745.8049472,8.370145654,-7.98375545,48.80625311,-41.1813199,,,,
558.7279996,2182,88.60297225,100.9813104,310.275877,212.0580927,-32.23070396,-16.51605092,-81.73517408,-47.52065238,-10.61341385,-94.53790821,-4.441040241,-39.02356258,-16.41130458,-20.47783014,139.1141401,-39.02977613,,,,
558.7359996,2182,60.18001112,104.554142,222.4658378,180.2292469,6.652805498,-10.87722642,24.87351962,-15.41180316,6.902997767,124.7276253,110.6879548,948.4879858,-5.25140897,10.26706028,-1.94903457,-72.08601782,,,,
558.7439996,2182,-90.45916139,-22.32963604,298.7751051,175.7026305,27.45751112,-13.60889733,153.2371055,-35.22433719,-18.09338389,-114.3623671,-18.99176099,147.5833283,5.914437871,-28.68759789,133.9444732,-24.32294174,,,,
558.7519996,2182,185.5366035,185.9071457,288.6183203,200.6973729,-42.4647394,-15.06531022,-171.62215,-40.93634472,19.18836275,52.76086152,92.59287627,439.6835029,-24.00064865,5.631945546,60.82416895,-62.08208562,,,,
558.7599996,2182,-99.93499231,-28.50884784,257.9105318,136.0057464,36.04141976,-24.09880329,208.0002663,-31.16096948,-17.3603124,11.59137792,40.7329162,726.6291762,0.44201752,-10.62855868,28.10033228,-54.95758546,,,,
558.7679996,2182,90.36473386,104.6139678,317.2385314,200.0618504,-20.66231883,-22.53110465,-79.67292159,-48.05066583,-10.81880284,-96.92059605,-5.74046006,-80.33137778,-12.88736733,-15.01204196,119.0188223,-39.76072032,,,,
558.7759996,2182,68.07064465,112.5289309,249.111134,166.1315929,11.50618674,-8.793933703,27.99459418,-9.003326944,15.64042611,128.7989079,111.5302889,902.9111334,-1.739265379,22.88949312,-13.92397157,-62.0493555,,,,
558.7839996,2182,-92.18560823,-22.13186575,310.4564052,166.625843,30.67564732,-18.49498616,164.3324419,-34.19699738,-9.574610083,-112.5910696,-31.23249403,109.2434051,5.309313866,-29.5550135,121.482594,-20.21550221,,,,
558.7919996,2182,186.2448435,192.131354,285.6505925,203.7104274,-36.63568998,-17.56040017,-156.7693424,-38.29177702,25.86212752,57.29989491,72.52378341,389.0870624,-15.55899633,1.548197987,56.11384724,-55.19811429,,,,
558.7999996,2182,-98.61767733,-13.79154286,264.1695193,127.8062352,43.10208093,-13.3571851,230.4326885,-19.66437866,0.112938645,24.83815918,22.46183753,697.8201285,23.26105241,-9.468575975,31.05451668,-40.39504031,,,,
558.8079996,2182,81.6298974,110.6573695,331.5636099,166.1418395,-18.22033802,-22.41885779,-56.98892278,-45.88956083,8.711110221,-86.79771634,-25.73747551,-116.8162485,7.797922523,-18.15070664,128.6451197,-28.10818668,,,,
558.8159996,2182,58.43003336,116.7569982,260.1492556,149.7917948,8.910085904,-15.5333399,32.99332702,-14.75102113,24.06563217,141.5241894,99.14427543,879.8884951,11.53412042,21.59118214,-8.443040798,-56.01968003,,,,
558.8239996,2182,-110.1428989,-21.80100911,324.2204524,165.2196391,22.20197342,-23.63766127,168.5158409,-42.58490375,-2.737352084,-103.0835406,-40.97533063,104.4606359,22.86910081,-28.15547179,117.041366,-17.18335908,,,,
558.8319996,2182,168.3687507,188.9272533,301.3879022,190.0473946,-48.39537884,-31.22716109,-158.5043925,-52.06589675,29.3616602,55.19525237,60.69397283,377.6252596,1.574420411,-0.474847717,51.03647162,-58.30632872,,,,
558.8399996,2182,-109.4060586,-13.1330326,269.6787081,138.0101456,48.82774141,-18.41331381,229.9004227,-22.6856454,-4.824979116,21.54336479,24.49387668,714.9737337,31.65592878,-9.04208627,25.92164071,-42.58981545,,,,
558.8479996,2183,81.47277726,117.2166033,339.7632826,189.417818,-9.472574433,-15.24934389,-46.49391291,-46.54915942,15.94350312,-89.23752646,-12.14969853,-122.9136462,19.68877585,-12.35606512,135.0294746,-19.36888511,,,,
558.8559996,2183,69.09602454,125.3800076,269.1689081,133.378219,-0.116185357,-19.27770487,33.79948364,-29.077744,37.52910742,145.3393242,110.3062482,871.6107889,20.27619837,22.35674285,6.476855555,-55.18301163,,,,
558.8639996,2183,-104.1800973,-14.96404846,324.4433929,115.6983517,18.08939065,-26.62047623,169.4739997,-51.7967856,-7.030140823,-98.603654,-34.19962999,116.5925852,16.9623993,-34.77513268,122.6945506,-23.83290164,,,,
558.8719996,2183,182.9467814,212.6651293,299.8581755,140.5603836,-45.92690113,-13.95547857,-151.5897916,-42.28830685,26.71984054,62.10137484,77.33177143,360.6976402,-4.504903903,-4.211836948,52.71277835,-51.17784093,,,,
558.8799996,2183,-97.5416962,9.60176091,252.0913152,104.5674886,44.67585817,-5.077643779,239.7114342,-13.35727914,4.3367148,38.72508507,47.99504722,697.0210467,32.29390331,-8.409192461,31.94436676,-29.32584279,,,,
558.8879996,2183,80.54653923,118.8492983,300.6924868,180.2100534,-16.66336346,-18.04546824,-45.72244952,-52.09241392,11.44323354,-79.60040384,-2.258927362,-144.7147054,17.20557322,-18.42349568,137.1637262,-11.02601867,,,,
558.8959996,2183,75.28857294,132.8266928,211.7005811,136.8546667,-4.559044078,-13.77837222,31.66256189,-26.20168367,25.17331702,145.4520821,115.7681637,861.936713,18.76735354,11.98105025,-5.252416268,-48.65902457,,,,
558.9039996,2183,-100.370905,-6.69040841,254.9191814,128.2533354,26.67006648,-14.05718671,191.7377355,-34.24677451,-8.774359596,-105.5551315,-29.38450677,91.66915663,20.84019548,-34.94566746,116.1459267,-15.15856566,,,,
558.9119996,2183,188.3064244,208.5158794,249.4583284,160.3455742,-41.05805303,-18.68259725,-143.4547827,-39.80524926,22.81184814,55.31514366,76.4143025,304.8155684,-10.68861506,2.947555451,58.57802347,-49.62389214,,,,
558.9199996,2183,-92.74373377,1.443060563,222.2072065,102.5944442,28.61703763,-16.15828983,233.4437112,-18.27687438,-7.855145639,36.93433554,50.0697802,664.1551746,21.75535492,-0.319659651,25.32480614,-39.93345992,,,,
558.9279996,2183,79.23178998,119.349384,265.523298,167.2209925,-26.29329513,-14.31900255,-36.41887607,-36.84267432,1.20257344,-90.72319567,-0.447567019,-219.9714904,10.18799092,-10.55540135,118.8214352,-23.14916075,,,,
558.9359996,2183,76.69253392,138.1974419,168.6943357,117.8210212,-6.532003663,-13.8141404,32.80378672,-12.33942393,21.29370077,143.7928356,120.3438727,765.1115168,4.985086024,19.824451,-20.21596541,-56.56976415,,,,
558.9439996,2183,-107.2118446,-11.49921475,208.3000499,98.42689253,13.10568754,-22.38310016,192.7173532,-34.33105692,-12.59388035,-97.16228143,-24.34790916,15.86237785,14.39969746,-28.11546323,110.4836842,-18.84449401,,,,
558.9519996,2183,182.9629714,211.3838157,186.0995591,151.9607784,-44.9472405,-14.50160926,-136.2701414,-32.51911054,13.90644143,54.17360942,74.22052534,209.2160776,-3.597566837,0.693559511,56.15212323,-49.46958217,,,,
558.9599996,2183,-96.65702227,11.86146963,140.6018794,102.0472339,43.26564502,-8.585153575,244.5150011,-10.19073319,-12.43923024,33.83505806,43.93361164,577.6896898,24.75607612,-8.583832,21.36698626,-37.74193092,,,,
558.9679996,2183,71.98897215,119.8309865,199.6325369,148.3669131,-23.02399128,-18.50153334,-27.56739782,-48.79885762,2.188425909,-94.88765925,-12.3631032,-307.5677093,9.370969268,-14.96285398,124.5858346,-24.04101757,,,,
558.9759996,2183,26.3550118,103.339663,94.98495676,70.23418926,15.54918273,-13.02266861,128.4509494,-15.33177183,10.30947191,190.202964,126.6592376,995.5500205,10.88781192,27.94212669,-52.62977357,-71.53333461,,,,
558.9839996,2183,-361.022934,-193.90884,124.3222966,14.2713793,111.4236864,-10.34533138,564.0337641,-9.392176648,-51.63995149,-114.4977513,-70.45695613,313.9448882,36.02787063,-28.03528221,79.90073038,-22.05856313,,,,
558.9919996,2183,-70.40327827,16.7912789,170.7064828,83.01971949,29.54983922,-14.33519046,176.7704099,-31.02442407,-22.3649777,-109.3347186,-45.80440269,-166.4115818,12.65201772,-16.70658249,117.9474316,-29.18130138,,,,
558.9999996,2183,-18.64393836,62.79776866,142.0947649,78.32248606,30.30347731,-11.24453853,155.9185193,-19.18423245,-6.022142231,34.83863287,35.21938454,362.5216231,15.62595318,6.940996203,32.76665721,-49.48342015,,,,
559.0079996,2183,134.7399169,168.8410553,188.3921022,141.4127641,-4.53122432,-8.477728104,-60.98189383,-26.79218758,7.680504329,-34.64639112,1.833696125,-243.5234469,13.36244625,0.725003075,94.02725215,-39.40159561,,,,
559.0159996,2183,35.58960903,102.9296566,151.5758309,107.0945325,24.5734631,-12.28502454,98.9879676,-10.46397218,5.331763708,84.68249627,51.01021688,399.1872097,17.43542551,3.4970816,7.017422194,-56.84916712,,,,
559.0239996,2183,-37.53197055,39.8732025,202.0234763,108.3065473,26.87868437,-19.01949558,142.6058732,-27.83515559,-16.72933086,-69.35006163,-34.28920744,-140.7149426,4.76371238,-21.02361849,92.26297272,-40.29994973,,,,
559.0319996,2183,200.9433616,221.7788888,206.3083042,162.8118455,-14.09911879,-11.92983699,-117.9518095,-21.83317495,14.95329382,54.54134329,58.95850051,-15.98229499,-6.714516971,12.02024169,53.30753317,-63.12573096,,,,
559.0399996,2183,-74.05853299,16.09486041,182.6597796,99.81719958,54.76932104,-16.2432501,236.7249747,-14.52090735,-13.42418686,29.32878502,28.32819267,293.9370041,24.53662799,-10.52958121,26.8189343,-55.38589823,,,,
559.0479996,2183,110.9867923,141.0979727,236.5419286,125.7265359,-15.59167677,-27.58269119,-54.47787918,-48.11162699,-7.987162826,-73.07684881,-29.58198051,-466.1011829,-0.288620544,-25.82378519,109.9056105,-58.2054597,,,,
559.0559996,2183,90.58947392,145.9352895,171.9960498,83.33941334,15.31405411,-18.06060446,45.24505386,-8.992748768,9.989305491,119.4285488,61.17350889,397.8363456,3.378046678,4.691135953,-10.2543968,-85.70147626,,,,
559.0639996,2183,-63.13975901,22.15061173,232.6589101,79.84954643,43.78168833,-19.4594947,189.6245803,-18.98566968,-6.134414312,-88.72317408,-52.62773874,-280.4192582,23.21413209,-31.85835867,101.9408913,-41.3788553,,,,
559.0719996,2183,211.9511269,226.3257714,245.5448743,120.9617283,-26.05336572,-26.64973134,-129.7605091,-30.23876682,26.57559302,45.92763492,44.58750016,-164.5595329,5.632128173,-9.121438372,62.55246872,-68.98005805,,,,
559.0799996,2183,-61.48624253,30.39861012,200.774507,57.31679194,44.43471215,-33.6901271,232.7710604,-14.63709143,-7.078804722,34.43756319,18.18057158,242.9643057,21.04842658,-18.15969136,20.07770538,-68.28727441,,,,
559.0879996,2183,100.1338642,142.6599154,246.7519299,110.5498378,-9.21215073,-30.90582044,-25.64103287,-36.97549471,-0.795287944,-101.1142683,-48.67151827,-632.7853094,1.269809024,-25.34663459,114.579116,-55.81582882,,,,
559.0959996,2183,113.1873981,167.3595064,169.2708314,87.79143017,12.30244088,-14.76195056,34.86810642,-0.816791896,21.62670162,128.6231937,68.71123204,292.7869135,8.503235186,8.169760005,-21.32436196,-84.87043599,,,,
559.1039996,2184,-67.84560647,24.13052689,209.2218221,73.13572487,48.79998448,-16.03305995,208.1591409,-8.705248633,-2.377023014,-88.650042,-53.75770919,-396.9423988,27.76588405,-26.22428041,97.1378848,-37.53103836,,,,
559.1119996,2184,224.876664,244.9518434,208.5029314,93.08810177,-13.57749761,-13.8509777,-123.0501105,-13.56570913,36.34681174,51.67631412,43.79205221,-297.2154172,0.547852163,11.71118438,65.98369498,-58.28878121,,,,
559.1199996,2184,-44.74705074,47.37919384,174.7831401,20.9683319,63.05153712,-11.37957123,247.9690302,5.036212591,3.628322286,51.4557381,22.24089076,145.7859395,18.50121782,6.658811773,18.56611618,-54.09546426,,,,
559.1279996,2184,109.3410646,150.5661808,244.9574289,73.8735478,15.92221599,-12.27968114,-1.011796397,-19.86691676,7.93586687,-97.01527548,-39.29630109,-768.8192145,14.12877944,-3.733174578,122.9679647,-35.62438008,,,,
559.1359996,2184,138.1264184,180.0841086,181.5174483,29.90146544,27.2113738,-14.37744241,28.07312777,-4.450961376,28.42470081,144.5602518,91.74780877,201.1207812,7.750724056,27.88852698,-11.64095719,-72.36154522,,,,
559.1439996,2184,-65.27448529,14.69058029,229.3656888,6.732509131,55.06379226,-30.56881886,210.4624295,-27.91104821,-16.28878218,-89.8649975,-52.17778023,-469.4069886,7.638241111,-27.81253508,91.23414427,-41.49308625,,,,
559.1519996,2184,230.7638004,242.4903556,224.9302632,52.82255339,-7.276436885,-30.29481653,-132.2128342,-26.25137767,20.71504975,41.94087374,37.84186697,-375.8370008,-12.69058765,-2.620026917,39.74506856,-68.59433675,,,,
559.1599996,2184,-40.24473271,44.69598093,194.1435692,-1.368436905,70.8277233,-23.79751821,239.6155844,-1.350733157,-4.437128666,46.58425383,22.87663176,95.2272637,5.770870225,-9.979906248,-7.359293983,-62.36567112,,,,
559.1679996,2184,100.6116897,140.1831217,279.9777179,73.7402688,14.97670324,-23.91578359,4.182761154,-26.86232201,-6.734043264,-111.4138505,-49.53469242,-826.9612972,-7.885615081,-19.65728531,107.4352781,-42.25994757,,,,
559.1759996,2184,133.3548483,183.630474,195.7444983,48.20342207,24.98977845,-19.34442372,25.51194193,-0.28045389,11.96764455,131.7812294,77.59972528,150.6315587,-8.886621597,30.85507908,-30.3091603,-76.61877579,,,,
559.1839996,2184,-79.24022041,16.89943249,218.8680646,9.918555994,63.11713853,-24.37293457,220.133094,-11.4626872,-30.1248799,-97.45962401,-62.97981016,-516.4829602,4.409324136,-8.190981327,77.33217451,-38.33224574,,,,
559.1919996,2184,217.2325428,247.0415984,229.2676775,48.88835021,-2.803843482,-25.68470398,-121.8265345,-14.54988194,9.994960776,40.53729645,27.12238589,-439.9197993,-4.524694709,20.11937987,34.10878934,-61.95279392,,,,
559.1999996,2184,-55.78197381,49.6222206,204.4852905,-9.31191187,73.976973,-29.51626762,245.9184908,1.936274434,-17.2789004,49.81546769,8.950954608,48.2303248,16.94157195,11.72558924,-18.97009463,-60.8747126,,,,
559.2079996,2184,77.96344768,134.3883669,290.2886208,26.89640099,20.06315887,-40.87359978,5.509689484,-29.10943008,-28.38898508,-114.7059983,-63.23440402,-877.049094,-5.191118823,-13.68368963,91.97569159,-47.84359567,,,,
559.2159996,2184,120.4911722,186.0040496,224.9392944,-26.08035944,29.35164429,-33.07873254,18.02983405,2.548246711,-0.939386406,130.1116724,74.22903165,113.7376634,-6.399015287,16.12770167,-51.5573806,-84.65034457,,,,
559.2239996,2184,-92.68958086,19.28196115,268.7296334,-44.14450669,65.34308867,-27.65432036,224.9352677,-7.480327217,-25.43500813,-101.0625041,-65.36117941,-545.8198044,10.68446245,-26.97729502,57.8574722,-39.32346297,,,,
559.2319996,2184,211.6735539,248.3908456,270.7252038,9.501676863,-10.81543889,-27.61142362,-127.9057637,-17.77120715,3.794627016,29.93130614,26.9791633,-480.4356653,-13.52035738,-1.497843744,23.51281772,-63.96576389,,,,
559.2399996,2184,-48.8390981,61.19411836,219.5948243,-52.61571551,71.46637332,-25.60499594,237.2932643,4.729858506,-27.4569248,47.78209975,25.67540237,33.82106126,15.86238804,-4.507282638,-34.14103823,-65.4659467,,,,
559.2479996,2184,86.83234581,143.3960844,298.1243583,0.659177726,26.15267564,-31.95842516,11.4120592,-26.24933513,-20.03965601,-111.8702057,-47.61842967,-912.8768882,13.62525665,-12.90290318,81.99247121,-43.68828404,,,,
559.2559996,2184,139.4533506,193.5594402,218.4104425,-36.64699635,23.74419493,-31.6920235,12.2259109,-3.308224402,0.470442561,137.0155061,83.69180266,78.76441018,-2.722013933,18.89243981,-56.2126862,-83.51391476,,,,
559.2639996,2184,-73.50327196,25.60286469,245.4700561,-54.85223715,59.5253604,-29.49433083,224.5199051,-10.35213717,-35.03970139,-91.7544016,-52.31313682,-559.5562338,14.10277028,-22.32313801,49.19677766,-45.23048385,,,,
559.2719996,2184,230.3790119,252.4318482,259.3948284,2.804219564,-9.058132654,-31.40670838,-126.3110072,-20.22848282,6.551200382,41.33157489,34.5861849,-509.4151594,-0.120110967,8.497948513,23.94359389,-70.61324942,,,,
559.2799996,2184,-37.96079903,58.18449556,207.0693692,-59.77881714,64.27536761,-42.32591921,223.1494301,-6.103741615,-23.42397615,66.38968625,20.62274569,36.1561185,6.057205766,-6.827230094,-32.66116968,-79.78087562,,,,
559.2879996,2184,83.6810403,136.2547022,260.2470029,-2.139562817,17.03850165,-46.85744588,-1.555838268,-31.21034123,-28.47002148,-105.2693656,-67.87105327,-924.9707335,-9.18315551,-28.99281872,75.54887317,-62.82811882,,,,
559.2959996,2184,142.9082523,195.0512711,179.2216465,-26.47401388,25.14827419,-39.26094506,8.949797669,-3.672702128,-5.030996525,142.7042706,65.20232847,45.32862818,-8.056842441,3.537587592,-52.8002665,-97.95652142,,,,
559.3039996,2184,-74.91376036,18.90255526,206.0833583,-51.85049892,61.85641345,-49.32417041,224.2800712,-24.01805883,-40.0178408,-84.5946912,-59.75775877,-566.5755221,4.371259871,-43.63894155,56.89715416,-64.04382809,,,,
559.3119996,2184,225.4971481,244.8427055,199.0249362,-8.635871593,-8.656923632,-49.24580967,-132.4528587,-28.51637742,-3.716101148,34.58106873,30.58706185,-531.4949244,-22.39051667,-14.02465239,17.91999839,-93.2424949,,,,
559.3199996,2184,-36.60106279,66.10259454,151.246694,-75.21671756,72.82728266,-39.46807415,234.043621,6.241733978,-26.62057725,66.51992993,24.3328977,5.101888873,1.574997191,-11.49983177,-32.15199346,-88.46326723,,,,
559.3279996,2184,81.51465458,151.3361763,226.8394945,-23.41464918,29.7258802,-39.19643473,21.4053171,-17.84963276,-22.80921194,-96.63412656,-54.9403161,-972.9588375,-1.539682673,-23.67430033,93.59953679,-58.84085192,,,,
559.3359996,2184,137.5871664,208.2163185,155.9073517,-76.15235108,30.94682335,-40.38738131,12.85346551,-1.852339583,3.434169194,153.9198238,79.82994349,-4.096452579,-5.861688184,12.13956255,-46.26751948,-92.7579763,,,,
559.3439996,2184,-88.49088513,23.12688101,195.3052751,-142.7889024,66.93192392,-47.75861173,229.1695658,-21.06824475,-36.94653391,-79.52544028,-59.62806974,-610.6480006,2.426859701,-35.33523206,51.39220011,-62.18164136,,,,
559.3519996,2184,219.6659389,258.0750862,201.1649265,-92.53757248,0.97416741,-36.3532454,-125.292072,-17.91572276,2.082852966,33.92706328,28.85420069,-598.0924463,-21.99941444,-7.590810267,18.08410624,-88.71827082,,,,
559.3599996,2185,-36.3078036,78.02418527,151.2009903,-126.6250582,77.36224094,-33.2298259,234.8921359,4.345334405,-15.57262494,72.07413954,39.30701824,-35.51586583,7.176480774,-2.358245163,-35.89754713,-76.83695009,,,,
559.3679996,2185,77.80376534,148.3860543,233.5132823,-65.21739797,26.37773006,-42.35815119,24.34182393,-27.71769368,-24.65297768,-102.9262054,-38.75340315,-1008.819984,-0.139120569,-19.19446053,83.52552173,-52.72316294,,,,
559.3759996,2185,142.9882191,212.7594048,171.9571867,-95.42009981,28.23004539,-37.11456564,13.41401205,5.397329622,-7.841509774,146.529739,102.4229764,-27.5555918,-12.22181084,8.065216207,-59.56164527,-94.49041943,,,,
559.3839996,2185,-91.24579669,30.79490029,199.0745574,-126.211231,70.19526489,-41.26539619,236.6248993,-8.840001032,-44.37420181,-77.01671869,-25.99620058,-622.5023074,5.861472507,-37.94555573,43.2653913,-55.86346156,,,,
559.3919996,2185,211.8062717,267.9906659,202.2776991,-76.86611731,5.70588068,-34.16722034,-118.7276688,-16.87448307,-0.589308639,32.04151179,58.18139199,-652.6181032,-6.21774574,-3.289062819,21.16704949,-80.81649577,,,,
559.3999996,2185,-44.64617678,83.40770124,164.8711841,-147.6787624,72.57416412,-39.57061356,233.4597455,-4.318492289,-18.70723587,70.48951937,57.44463587,-67.38440518,9.257389411,-6.471703792,-40.46308817,-85.14663321,,,,
559.4079996,2185,58.90974326,143.5789326,238.5687377,-100.9533647,5.603074344,-54.50864009,12.61458272,-49.84397323,-31.29186331,-111.3681338,-37.86082345,-1029.112053,-14.90129422,-34.96724301,68.52194961,-70.27283996,,,,
559.4159996,2185,126.4945397,218.0022045,157.7331452,-119.6319088,5.915644888,-43.60316054,-3.807350594,-16.55887161,-14.10207051,130.6088489,93.4733821,-56.75671173,-20.91426057,2.933492846,-74.56659599,-109.1088919,,,,
559.4239996,2185,-109.0604514,37.21630239,193.8248493,-128.4601245,58.66571799,-43.55305786,241.6486552,-16.42544284,-55.1711809,-89.09844348,-38.09194114,-635.878944,3.077002351,-37.99106198,34.91739443,-64.65920364,,,,
559.4319996,2185,198.1422383,270.0430651,210.2954137,-31.8077293,-7.830080155,-43.10259608,-119.2357361,-25.26400501,-15.48778404,29.74952942,45.04858298,-667.8683779,-16.23678135,-11.48783698,19.6408893,-85.30312698,,,,
559.4399996,2185,-54.44145677,84.99335148,160.9926448,-53.98919878,68.301765,-48.18421013,230.5622961,-7.137904907,-30.50623982,68.34756974,49.07900601,-61.03488396,-1.954239848,-17.30372606,-42.24952964,-88.88414845,,,,
559.4479996,2185,50.64120032,147.6828698,225.3563255,22.22262797,26.57528194,-48.30707534,38.73750984,-31.80113699,-35.41524819,-122.2875511,-40.02035065,-1047.508343,-13.35733067,-42.28531103,76.48566376,-65.29315603,,,,
559.4559996,2185,91.17795971,206.4553482,124.3845184,26.05655621,46.19037725,-32.48875372,83.44731145,10.18440475,-1.048248005,206.694525,134.9162976,258.4010029,-4.498078314,22.18004656,-105.7492389,-101.6888743,,,,
559.4639996,2185,-362.4712129,-141.6631304,147.9781313,-1.017341136,143.8281519,-44.52560773,576.8123569,4.82016183,-57.33685849,-28.24561177,-25.3776998,-56.61782238,31.46601367,-19.35666302,-21.4854332,-51.89576306,,,,
559.4719996,2185,-103.2637245,41.18103297,208.6596141,58.43561372,69.37595098,-46.07145605,222.719687,-19.84957517,-41.15862006,-91.25762612,-39.46449893,-743.6458958,9.138968412,-24.06362616,47.26108825,-52.89268752,,,,
559.4799996,2185,-8.062092555,119.7131086,182.9358128,66.10756178,54.47682262,-43.61924053,152.9254321,-6.465983007,-21.59497149,52.98766314,41.18425756,-264.2701697,0.994971072,-1.939509778,-30.4735246,-79.02583533,,,,
559.4879996,2185,93.20727661,176.224966,252.9208252,144.3075029,3.309323009,-59.7713151,-37.00632101,-34.19513057,-25.70247059,-66.89837443,-18.68861585,-946.1157176,-15.1060745,-26.85466711,42.14840504,-75.63342827,,,,
559.4959996,2185,38.08226113,143.1846956,188.9605818,100.6055693,22.1295879,-58.61393304,64.94183974,-14.401938,-25.52783943,67.14409262,53.7554229,-243.71036,-13.65407391,-23.53556076,-56.97531389,-104.8281467,,,,
559.5039996,2185,-75.76814886,55.36810995,204.1630157,98.93028491,49.19942001,-50.52232773,173.8809441,-18.14924892,-47.19110378,-78.4072257,-27.51621405,-701.6537631,-2.443921612,-52.45174011,18.23075222,-79.623011,,,,
559.5119996,2185,178.4079,248.4990711,213.9191102,164.1060229,6.034539989,-37.5845444,-94.4256902,-15.44753333,-8.196367521,18.8944542,43.04690234,-751.95678,-10.18996681,-19.55739465,9.412404016,-85.17477593,,,,
559.5199996,2185,-63.34347554,69.93677535,166.2138829,107.2430116,72.63453633,-39.97440127,245.1581785,1.769744979,-26.72577283,51.46713807,48.1364493,-228.3211812,10.53897355,-17.36134848,-43.3617736,-80.78358051,,,,
559.5279996,2185,66.47007552,149.1468072,235.6774865,174.2546676,13.09705992,-50.55689996,11.77827842,-33.5509328,-41.04763902,-106.8239941,-28.30529931,-1119.453498,-13.44151964,-40.1370762,54.40975981,-74.62586094,,,,
559.5359996,2185,106.1703638,196.1890191,172.3148925,154.8060782,21.05268928,-43.51483944,27.68203229,-5.457583929,-23.69168735,107.2784279,79.79788062,-259.559465,-17.91372895,-7.345255873,-68.11959219,-109.2888753,,,,
559.5439996,2185,-95.11499306,40.54243918,209.2448423,144.8364844,60.0935217,-44.03992783,236.3665574,-6.027288138,-49.42974622,-79.99873394,-30.6192068,-761.8609299,5.50261899,-36.83079586,24.02045694,-70.77100192,,,,
559.5519996,2185,195.4667258,259.7895035,238.6867977,214.6280334,-4.548063081,-35.37920827,-96.11103237,-5.773126541,-13.34081285,14.95529408,46.44477468,-854.7702198,-7.566519211,-0.737857807,13.77386133,-83.04558628,,,,
559.5599996,2185,-42.24161773,88.46448228,187.6536477,149.2193025,68.07114169,-34.47032133,239.0470693,12.7124453,-25.95840379,71.47289466,52.82682136,-241.4147575,12.12608681,-2.214478807,-55.67049718,-86.35209883,,,,
559.5679996,2185,57.79362965,144.3150834,249.645687,179.1776899,20.65546024,-47.29238966,45.45071699,-27.55835287,-29.92908647,-111.3499337,-40.86310087,-1209.443297,3.177850198,-36.61938275,54.06517887,-70.55749496,,,,
559.5759996,2185,136.2619138,218.3071089,171.107977,139.934527,16.26327837,-45.60449086,14.18920629,-6.743934351,-9.30069932,128.2948529,90.91247587,-307.9523025,-4.281226381,7.052455072,-85.1737597,-109.7185376,,,,
559.5839996,2185,-104.1802617,26.26424081,192.385949,112.1739979,56.14111507,-55.91512281,246.1156505,-23.98583944,-46.27574096,-74.89812294,-36.23059543,-799.80892,2.501716722,-35.03393747,-5.509036189,-85.12922968,,,,
559.5919996,2185,192.4354457,247.7853252,199.7158002,186.5345624,-14.02425711,-53.1276459,-108.3825702,-35.89160388,-7.389192206,7.473178254,29.73374369,-909.4104574,-16.83191119,-24.07284343,-23.14344248,-109.3429163,,,,
559.5999996,2185,-43.7517731,87.56990161,120.5183365,130.9483567,62.01060682,-45.93004738,228.2377983,-5.422995003,-20.8771615,70.63074237,41.4834193,-257.3205883,8.839262811,-15.69039661,-97.73791897,-105.6654349,,,,
559.6079996,2185,37.58983725,131.4595802,182.9238365,164.0006738,16.33188518,-56.45565916,50.17580634,-40.04753865,-31.25302096,-120.5284702,-56.91446493,-1262.372778,0.359708073,-35.59714391,33.11116391,-76.61835974,,,,
559.6159996,2186,135.6169005,219.1312412,105.4505513,130.8174153,10.3214751,-52.81629165,-4.739301783,-16.87805278,-2.913232663,126.7328443,87.08334767,-352.4797907,-5.409314343,0.883930135,-96.32382052,-111.7965846,,,,
559.6239996,2186,-114.9088334,22.99852877,107.5651073,79.56814926,61.7288213,-57.29587236,248.6577222,-21.39658879,-37.67806945,-82.71220825,-39.0276504,-845.0445992,11.10552474,-39.97443156,-19.87610685,-75.85996208,,,,
559.6319996,2186,188.0219611,249.0353613,120.4286633,131.1204347,-15.40799094,-51.99180471,-111.191329,-29.94847523,-5.494464947,3.934347194,26.71571229,-979.4850101,-8.840521837,-23.2366816,-33.55041117,-91.96541254,,,,
559.6399996,2186,-44.42802561,91.25553151,60.94399067,69.13382311,61.26726538,-41.6841473,224.9659465,2.393428545,-21.71485435,74.75911243,45.52428205,-316.2495632,19.57549018,-19.26771127,-101.3417205,-85.14377645,,,,
559.6479996,2186,31.78581997,128.6481323,131.1918314,88.59332596,21.59123729,-60.63062516,51.28108081,-38.18708748,-33.54734779,-125.0942702,-62.95396053,-1341.270845,8.565391942,-45.9446225,30.50339991,-62.42946127,,,,
559.6559996,2186,139.6324831,222.7818793,60.07049405,54.10251758,9.376239436,-59.96615247,-13.58538545,-19.61015827,-10.15569332,127.2299057,70.49503499,-425.2598517,-7.744203874,-15.55423884,-100.2531063,-111.5973008,,,,
559.6639996,2186,-112.8879355,27.16136279,68.50521176,35.25404431,69.97346407,-53.06543191,267.1086178,-13.0338658,-43.2219428,-79.19042702,-53.72962019,-907.0716381,23.18970262,-48.64073669,-10.53103551,-69.69415438,,,,
559.6719996,2186,195.7747753,247.887967,84.60426328,90.08884721,-14.27927055,-69.10580668,-105.2776715,-39.49183662,-12.08862615,2.9069227,9.64812614,-1052.989214,-1.016123228,-28.5257124,-18.69997237,-94.99826237,,,,
559.6799996,2186,-31.44192411,87.36934145,15.28603337,-1.118189962,49.21419794,-74.40724547,209.999931,-21.7345692,-38.63689606,72.64162971,21.51582879,-340.965049,4.486285719,-35.09329,-108.2162264,-117.5918558,,,,
559.6879996,2186,45.66835722,126.9393487,81.07672574,40.70934485,24.00133956,-64.31477643,63.49066425,-39.97573359,-40.76523857,-136.481597,-86.29590488,-1369.816535,9.184247309,-52.52899573,17.95814143,-88.48946716,,,,
559.6959996,2186,162.8331955,223.5025021,27.38147247,36.57989865,10.22291055,-57.5346091,-4.960133053,-21.02657336,-4.036891778,120.0068624,59.0989639,-465.7173007,2.479786112,-6.48776275,-104.3915029,-124.1675409,,,,
559.7039996,2186,-97.64407235,27.15644224,47.20113786,9.81301342,64.33263689,-54.40593513,263.5503769,-17.07608566,-44.35249307,-82.66281672,-56.83443538,-909.0011309,19.24175987,-42.61695918,-18.2031183,-87.00962339,,,,
559.7119996,2186,208.94477,254.6341443,69.20353743,71.30205744,-4.214903127,-45.16588036,-99.95577927,-24.02272214,-4.949193059,-5.20610411,15.52862488,-1087.108762,8.100616412,-17.13448668,-17.28819569,-95.19985673,,,,
559.7199996,2186,-14.39234873,93.1672415,10.09569245,16.89127833,60.65148546,-41.54655658,225.8753498,-1.515435403,-18.1037619,76.81192643,38.9216889,-378.4088953,23.85730715,-18.33820481,-88.92854028,-96.90688232,,,,
559.7279996,2186,56.23756665,131.5450517,75.811316,94.28730743,29.40214909,-33.98869892,87.80550709,-14.14736575,-27.41055264,-129.9128337,-65.41164233,-1392.017223,17.79673057,-40.55744155,41.28245049,-65.27999535,,,,
559.7359996,2186,178.4331667,237.9877449,19.38850674,97.98466824,21.12617446,-25.8248302,19.38535596,11.50802793,4.57016769,130.5466464,88.99147374,-497.1535378,16.00175659,11.3209094,-86.22500738,-96.24195066,,,,
559.7439996,2186,-85.2720893,33.58048712,45.52382691,55.95060127,76.15267429,-34.72243613,295.4460805,6.0912143,-37.10504482,-62.89044922,-31.1914811,-923.3694907,33.46640373,-24.14248873,-3.400576147,-61.21233895,,,,
559.7519996,2186,217.4930349,258.402065,78.73789157,115.3480202,7.171025637,-31.0684175,-74.27147458,-5.646056803,-3.603034115,9.672711274,21.85200165,-1100.896797,11.76930836,-0.311701874,-8.037788446,-78.42385053,,,,
559.7599996,2186,-6.029587895,102.6646496,39.09262768,57.25047383,72.09918748,-27.68905469,230.9736807,7.610244822,-26.11404659,92.87940353,45.06720394,-361.0488354,25.72774054,-5.819063096,-91.10832484,-89.59929173,,,,
559.7679996,2186,55.48667482,134.0627242,114.4609064,89.57970858,38.03401955,-27.95496418,81.10219927,-16.90402432,-40.55491776,-122.9403798,-55.13794233,-1361.697054,17.53916618,-43.83413583,35.55994735,-72.81379416,,,,
559.7759996,2186,180.3101264,240.3624473,45.96206151,57.45992533,27.92591202,-21.44940234,1.388051306,8.241505232,-3.907271661,128.3238463,93.79849725,-485.5193468,18.21315113,9.514315209,-90.0021836,-109.347734,,,,
559.7839996,2186,-83.16865612,30.78022866,63.74558173,25.94907299,73.91059625,-29.60853663,276.072114,-1.964048641,-47.73568761,-60.99004267,-30.2647321,-904.5531083,33.78174258,-26.26475891,-5.298028105,-77.33448474,,,,
559.7919996,2186,224.0887716,255.2890473,78.34625879,102.9790167,-4.647210294,-27.43794073,-92.82921494,-7.7983111,-17.93374228,8.066373297,28.90411592,-1094.800518,0.531142677,-11.58648708,-9.662260956,-104.912992,,,,
559.7999996,2186,5.979939302,104.5992224,11.35420787,63.24349382,64.32977662,-28.44382443,223.6162389,16.87978381,-33.86419695,93.93858424,57.47192693,-362.0406015,21.22710874,-0.505280842,-94.97902859,-112.0926186,,,,
559.8079996,2186,61.96754178,132.5547261,90.70664079,129.7745223,32.60783265,-34.81370889,81.48072088,-10.98288686,-49.63696845,-116.9218584,-58.75184314,-1383.912211,14.60270621,-33.78276021,34.95420049,-85.75940245,,,,
559.8159996,2186,194.8521588,250.7931718,37.03494701,101.8361509,28.53396844,-19.78007652,-0.511043755,22.49308524,-9.287277055,138.119655,85.7187081,-522.2472276,13.94114743,8.762472687,-93.50891196,-118.2230855,,,,
559.8239996,2186,-74.25277701,41.73545134,62.75704331,33.22575171,82.58760972,-26.13908324,283.1405629,10.03561896,-40.04954132,-50.80133144,-28.08435958,-933.2974035,46.34974454,-18.95953121,-13.49370121,-78.28364246,,,,
559.8319996,2186,225.0975407,260.4314587,87.94928652,105.4677952,-0.081266729,-30.3586791,-96.06174072,-8.689184696,-17.95724376,11.52009993,20.85335437,-1137.616261,10.74343473,-7.169045109,-18.97926047,-109.2839699,,,,
559.8399996,2186,16.6706469,123.868139,15.97881271,57.32296105,78.96534097,-13.26117229,230.7566868,35.49493244,-29.60973511,100.3885791,47.39735999,-390.8794499,32.15988442,3.567436378,-109.9254221,-115.4023058,,,,
559.8479996,2186,72.24278564,148.2407818,73.11273118,47.50039824,51.09478371,-17.84773089,106.8835915,9.705240757,-23.23582599,-111.0763468,-61.02771445,-1427.820212,40.49391808,-10.47289026,25.3868496,-75.38158762,,,,
559.8559996,2186,207.8957375,252.8285248,-2.171177367,-7.230684077,29.71994279,-24.47429431,1.814676267,20.1944765,5.66806337,142.3444613,73.18863725,-569.0852879,21.32745738,25.37604518,-103.4511532,-121.8550332,,,,
559.8639996,2186,-61.36001889,43.05834327,12.82139395,-29.59642032,87.2162913,-24.74672372,291.3765466,15.33101668,-41.3140777,-48.42779553,-50.94956801,-939.3297789,38.1065061,-22.08352922,-25.57924808,-94.21406451,,,,
559.8719996,2187,235.3393536,261.1068565,47.87774538,21.55983196,7.475877846,-24.44637866,-74.89734137,0.435929065,-7.137027993,6.953111913,2.893146328,-1168.840496,17.59163099,-1.957040017,-14.66927319,-106.7734031,,,,
559.8799996,2187,24.96995686,113.017548,-2.549085489,-84.88737647,67.51049349,-27.42674379,240.9764057,24.52236108,-21.71628342,98.32179099,32.97892652,-408.970851,31.2148897,11.37645595,-100.8472802,-114.2567339,,,,
559.8879996,2187,74.09143093,136.3909213,77.99078549,-75.54437228,38.36864005,-33.26223748,117.3160849,2.3507156,-36.12913365,-119.7115621,-80.16516927,-1420.109624,23.72250721,-26.12495359,32.02502427,-87.85819371,,,,
559.8959996,2187,216.2530817,261.0202039,33.39067815,-78.26209443,30.22454516,-26.20147705,14.4015632,30.25247989,-6.082855831,134.9988296,60.9267449,-578.9441262,18.57893512,12.57560586,-96.6274119,-120.659066,,,,
559.9039996,2187,-52.93470529,54.73211374,70.80471801,-106.9242822,91.38643,-27.3321859,313.1719729,23.97650309,-40.42329664,-35.94334682,-55.06194665,-946.7478142,49.21281118,-6.369594957,-17.94152907,-76.18995277,,,,
559.9119996,2187,240.9274294,267.972205,106.5439917,-74.23297313,3.732660782,-35.25397417,-69.2664208,-2.329273029,-3.583684207,27.35809422,-1.113155822,-1181.481506,18.1215796,14.78749142,-11.42488382,-98.83045268,,,,
559.9199996,2187,25.42573291,120.0342806,46.21660188,-143.8976371,55.62872067,-40.58852552,225.4862724,17.0557712,-26.63437785,116.23077,30.37303178,-391.0492246,17.91192465,12.37759494,-118.3505348,-118.7718959,,,,
559.9279996,2187,63.81336559,143.1453224,118.1309987,-77.79395668,32.77118039,-39.08300834,119.3109103,-0.020987724,-42.35972624,-108.1527011,-83.4322492,-1402.053686,24.2124236,-15.52635347,17.63471179,-83.31251727,,,,
559.9359996,2187,208.2529204,266.0361439,58.78983451,-86.59389581,20.05935631,-32.5774698,14.12035071,24.7540479,-3.048345482,147.7008025,65.14576392,-571.1467185,22.42176441,30.4511565,-97.50269601,-120.330373,,,,
559.9439996,2187,-64.80297504,46.8849093,73.06432493,-157.0967818,67.96134449,-43.5561049,302.9367812,11.08758883,-47.33973434,-32.74292549,-49.64598895,-899.8176329,35.13831881,-13.25023753,-30.07452021,-90.62270585,,,,
559.9519996,2187,237.9567472,269.6813582,101.1749658,-111.6577756,-9.646716803,-43.66418386,-71.05672529,-3.364237158,-18.47589242,16.09833591,-1.450890874,-1154.75362,21.73480647,1.944357493,-17.69328826,-103.60787,,,,
559.9599996,2187,-82.43153066,53.24966779,4.788789043,-218.966603,97.68444544,-35.4737211,406.4009047,46.942811,-38.224717,185.4291421,63.10142382,120.8145827,48.84138857,15.52270411,-163.7279404,-122.9849511,,,,
559.9679996,2187,-226.2818007,-68.18443281,61.44707944,-220.3701129,115.4142287,-40.67372719,516.194118,27.95333658,-73.24949521,-59.6202238,-77.36301155,-683.5870167,52.16052491,-29.32977749,-41.79299409,-86.22387304,,,,
559.9759996,2187,69.01804025,157.2919035,56.54189429,-171.3335048,49.20676203,-38.32727727,184.694366,25.54133967,-29.30108804,109.1251019,35.50688067,-433.4908175,34.86764484,9.450903966,-97.89618631,-114.8256447,,,,
559.9839996,2187,-51.95735922,61.91935427,85.41221842,-186.7360041,76.27376541,-37.85507388,309.785711,23.70844278,-49.3449954,-7.488978596,-34.79534466,-726.317812,42.36290171,-11.24246697,-46.70378468,-93.37263285,,,,
559.9919996,2187,249.4317509,276.5934726,160.5625137,-114.8744396,-1.208255309,-39.77043255,-86.09194689,0.601783268,-24.2204222,-28.94465335,-22.73333953,-1309.489576,17.17661702,-2.819901236,10.57367967,-91.75810917,,,,
559.9999996,2187,111.5286059,189.3865147,102.5388092,-163.6814577,54.57983288,-40.14477557,147.4844866,30.14451906,-26.74618586,148.698233,63.71092275,-325.5683639,27.17582295,18.50771466,-108.5694453,-111.5237723,,,,
560.0079996,2187,-4.962903112,93.40924969,141.4571066,-168.5044934,70.52878903,-43.10496927,227.9846831,18.82662906,-54.07988365,-75.61274343,-58.51959945,-1086.794954,39.19230938,-26.5679512,9.493681421,-78.90442411,,,,
560.0159996,2187,275.5371852,309.3357048,125.5945765,-184.0771561,8.325913059,-34.81120087,-87.70430992,24.06159429,-19.02016017,76.49047112,43.06879178,-867.4485367,19.74443264,-0.166199185,-39.54511885,-110.3853049,,,,
560.0239996,2187,-10.04258062,101.969217,94.47387274,-282.7795619,82.01203193,-32.33980329,282.779601,41.61166911,-48.72031156,76.0034545,12.40727212,-414.2061535,35.27283965,-8.099268159,-75.42187318,-102.1084399,,,,
560.0319996,2187,145.7375539,201.1595194,163.9261243,-213.0059293,26.65280589,-35.54730425,36.16844008,13.19809623,-39.94867705,-58.78238667,-54.40484787,-1262.47388,23.91125004,-23.84083974,21.86900066,-87.67040607,,,,
560.0399996,2187,194.0918055,250.97489,94.78115014,-239.307864,30.75277937,-28.73594066,43.03724632,42.00911616,-23.92148537,157.7320126,59.89587968,-391.6026441,21.83118084,2.471245835,-107.2282988,-125.2568777,,,,
560.0479996,2187,-24.81740301,79.67551302,113.1611994,-280.9003062,65.66963632,-42.55384026,261.4985077,25.03168967,-58.3763783,-25.71527374,-50.40029163,-814.4860085,34.87265585,-28.61940463,-27.8863987,-91.94060896,,,,
560.0559996,2187,256.9265545,290.6593735,117.4790782,-269.01314,-7.508023149,-52.86459818,-89.99315624,6.251677815,-26.84876432,47.81602336,19.12636361,-906.7361091,4.482881382,-12.03766904,-45.31261215,-123.4211224,,,,
560.0639996,2187,39.095572,147.8762172,46.75427583,-351.9710174,65.93379214,-41.27642458,227.6582386,42.8235834,-45.74371528,118.3269982,41.85647179,-205.4416834,24.47404641,-9.450131808,-122.871549,-130.5896063,,,,
560.0719996,2187,105.4119352,180.5806772,115.675648,-296.1632787,38.02152519,-43.70592913,89.88272776,12.91451971,-46.80295856,-70.03216873,-52.78381857,-1123.28298,29.16257967,-22.17201646,14.1190093,-89.2030412,,,,
560.0799996,2187,224.2338111,279.2093284,62.94799581,-299.6827062,26.69055439,-39.73707116,3.118809701,29.19851587,-13.01870224,157.9768799,77.44637121,-299.4880904,18.84944003,15.36075829,-104.4253121,-129.9949638,,,,
560.0879996,2187,-41.40518101,77.79475745,76.78498198,-322.4595144,74.26434173,-37.60628446,278.9404266,23.22083568,-50.04008369,-12.58591019,-38.89912544,-577.5913921,34.62925374,-22.66982497,-42.30307084,-102.4634653,,,,
560.0959996,2187,242.3709239,283.915401,96.76566874,-282.4378772,-6.310867021,-40.89769848,-83.77067549,0.053949597,-22.18399982,34.05031682,5.221664907,-775.0207983,1.395330077,-14.11787801,-33.34307408,-126.7823462,,,,
560.1039996,2187,52.1924777,154.4929237,29.99259468,-349.9246271,54.05405081,-37.91841727,204.5418298,27.58251581,-33.81416031,137.9789489,48.77321493,55.9352237,12.08749899,-5.200549223,-127.7328435,-146.4483487,,,,
560.1119996,2187,78.69977773,163.6160571,99.26203694,-271.0667608,28.81226109,-34.9912153,104.3103158,3.989323209,-50.46172177,-74.76063397,-62.12804396,-867.421399,13.94706073,-28.19015588,1.584212255,-108.1675716,,,,
560.1199996,2187,232.9524833,295.5188193,44.39161594,-272.447588,12.88897328,-21.52988418,-12.59999202,28.11587831,-13.76299583,164.7296961,77.42275788,-33.00483724,2.857673104,14.31953924,-114.5417817,-138.9999667,,,,
560.1279996,2188,-43.5821205,80.78455531,68.36224377,-326.6008389,65.72731172,-32.55162531,285.823306,14.97646273,-47.16509622,3.086859547,-29.84783782,-255.4760503,18.42362315,-19.7248413,-42.33518524,-102.7099694,,,,
560.1359996,2188,241.9177492,292.4831024,104.5638411,-249.2467356,-13.34162339,-33.79381848,-80.44255335,0.017297578,-25.57711329,40.51347321,7.742226383,-502.9677238,-10.33644612,-13.16178837,-24.92700393,-118.1411599,,,,
560.1439996,2188,60.62914214,174.652013,40.821499,-293.8561727,50.75428621,-16.17560344,211.6955775,40.4593461,-29.26594818,156.7810048,54.26392414,353.1803402,12.07522615,4.708653964,-123.8442445,-120.4320595,,,,
560.1519996,2188,73.03661953,166.7608098,119.7988797,-258.0474039,22.66949943,-29.65791968,115.9749047,0.946839744,-40.93809338,-66.6075895,-66.64913734,-586.9108054,13.11965597,-18.42304974,8.776860426,-79.21584386,,,,
560.1599996,2188,237.6089164,315.3207525,63.78486694,-268.0764591,9.728928658,-23.30496133,-24.55251185,28.20129859,-15.9619825,170.3672478,68.139459,245.2757338,-1.243688243,14.76436443,-119.6753313,-126.6577177,,,,
560.1679996,2188,-44.98522087,109.6234466,80.97534413,-320.9807949,86.81486658,-10.9966527,306.4332983,42.34754594,-46.21890788,12.90079824,-30.81983594,10.85805474,34.87059035,-9.969471592,-50.78295469,-83.85300058,,,,
560.1759996,2188,235.3095561,308.1140163,133.439191,-257.8187129,2.702473162,-20.66283186,-57.6477157,11.15236266,-10.13247492,52.67334196,17.80910753,-293.0442607,14.79103541,14.91436722,-20.93549022,-85.95487682,,,,
560.1839996,2188,50.27923131,182.2596528,66.29837449,-308.4579306,58.64675855,-22.16243185,210.1495785,36.64914568,-32.71853221,165.7366241,59.86427701,608.9317162,15.57432123,13.00488638,-133.1455509,-110.6799943,,,,
560.1919996,2188,58.20885489,173.3227361,131.5628575,-284.7493848,42.25841369,-27.72676134,129.0319327,10.98597873,-50.07895898,-70.16009346,-68.74755784,-327.471998,17.97118447,-25.22250993,1.220992675,-78.24690591,,,,
560.1999996,2188,229.7664671,314.4345606,75.52541517,-287.3903234,16.71265502,-30.19910271,-14.77268559,23.77165177,-7.02454175,174.2366258,70.03507764,489.0368439,6.623661992,19.42792232,-112.9327691,-117.9107208,,,,
560.2079996,2188,-58.19713827,99.83432089,74.1710846,-309.9400635,86.44781796,-30.74977501,307.5472827,34.00554461,-50.0471593,9.426215768,-48.04268738,282.1005696,18.30694419,-17.35627084,-54.95422324,-90.75003181,,,,
560.2159996,2188,230.5695917,306.2392291,108.997403,-229.4055602,9.320943379,-39.87542215,-64.20299583,13.14999117,-18.44104834,35.17605007,-15.1040647,-72.64206751,-6.277951572,-4.293699871,-28.50418565,-97.21805425,,,,
560.2239996,2188,56.61045084,179.5083302,41.63903039,-265.054388,56.69813755,-50.68094269,192.8052345,22.96280206,-25.75111748,164.9694558,35.84846435,772.3131402,1.609655943,1.57442803,-134.0725082,-116.8396125,,,,
560.2319996,2188,59.67130528,158.1256363,105.8888411,-235.5085247,29.59458388,-59.3663891,111.9327304,-7.694669999,-50.1013444,-64.04237314,-98.23019073,-231.9197176,-6.941011234,-40.97040879,-0.328077303,-92.80199366,,,,
560.2399996,2188,234.3267594,296.7141662,40.77235173,-263.3354981,3.269988884,-50.5606898,-33.25229749,17.66497779,-15.57894909,178.3863773,39.2221606,513.7240044,-21.81462185,-5.900145514,-116.5802606,-131.1548538,,,,
560.2479996,2188,-61.97896212,74.51306992,38.40375958,-306.3740085,71.8284148,-45.50808935,302.504417,26.01876029,-57.46382641,12.61515331,-72.75449694,267.3683361,1.223928387,-37.236299,-50.24912832,-92.76989335,,,,
560.2559996,2188,226.3101627,285.9250908,81.01019474,-233.4229747,-7.128438125,-46.39809042,-61.2665368,9.029365421,-28.51672246,31.55978099,-42.42165734,-129.7502305,-18.63192836,-15.48169929,-13.39288715,-97.59173715,,,,
560.2639996,2188,61.73982495,175.8018886,10.95249146,-276.8609594,55.58724343,-39.16639046,211.1298719,43.30852396,-31.18519381,162.0960615,17.43581665,712.7790456,-2.275758322,4.310874308,-121.6694677,-108.4546605,,,,
560.2719996,2188,63.03887124,159.109118,84.22573062,-235.1324505,41.55110617,-41.59226883,152.4450089,17.85240531,-51.96779794,-71.18200697,-106.4837333,-317.417724,-0.2297264,-19.50796256,15.38989488,-68.18705158,,,,
560.2799996,2188,245.8720325,305.9178177,39.98717781,-244.8318221,8.870054491,-37.78033318,-10.81207681,28.4400551,-21.26896074,174.0004549,40.16925957,413.5944687,-15.7511607,20.48439226,-104.9702891,-109.1303587,,,,
560.2879996,2188,-57.13628557,80.02194059,31.5145234,-287.0818514,78.1661264,-35.31687578,314.5297254,32.99039858,-67.04650891,12.90318806,-65.98696487,197.2899179,2.213198769,-23.78916408,-59.32681687,-81.7954084,,,,
560.2959996,2188,225.8946334,285.202033,55.91166842,-217.7606053,0.857853391,-39.56232118,-49.57429785,13.27679662,-34.78380709,28.6111534,-36.42825916,-215.6871632,-18.53016497,-10.61840069,-25.70135161,-90.10132491,,,,
560.3039996,2188,66.69663029,177.987874,-17.07983566,-261.0987905,56.63063241,-38.59999865,213.7329934,38.41345731,-30.46523095,168.5711391,25.35315019,644.495079,0.036359252,9.074210716,-134.6151778,-105.8578122,,,,
560.3119996,2188,56.82225832,155.0683314,50.59815662,-211.2943321,43.78525608,-44.4867963,153.5948552,12.85590455,-54.72454962,-70.73219612,-115.5151672,-358.2265058,-7.994261024,-30.78003977,-3.271580726,-75.37877802,,,,
560.3199996,2188,247.4681756,305.3752876,1.231055593,-212.3040793,9.525623655,-42.88264889,-11.3727153,26.5521163,-15.78228297,171.1068311,22.90201092,371.070111,-22.91549614,9.452985126,-113.7901858,-114.6915565,,,,
560.3279996,2188,-46.27226579,79.06337794,9.021292798,-279.0623515,68.68899378,-42.10995372,324.7554837,26.26591597,-52.81361941,21.58917282,-73.15992592,173.9745625,5.387883985,-14.56528349,-60.31375379,-80.16084475,,,,
560.3359996,2188,235.2530781,282.4689654,53.01239951,-233.5582029,-7.82686236,-39.15165085,-42.7871563,10.83531289,-35.26260807,28.30769816,-50.64958392,-231.5705969,-24.79383069,-5.015110902,-28.73388049,-91.67241921,,,,
560.3439996,2188,81.1071869,187.522957,-9.076566471,-262.0118406,60.03643277,-29.33698941,213.2162832,46.18910001,-35.84173465,170.6073951,17.05814769,651.800001,-3.258565582,16.20233883,-132.9869433,-105.0169906,,,,
560.3519996,2188,68.01515863,162.5718352,74.86456976,-199.7746231,45.7285539,-36.11838145,162.0289788,10.00021687,-51.29110295,-57.67959967,-101.913221,-350.0946731,0.356883892,-10.46584316,7.293145568,-67.91382065,,,,
560.3599996,2188,259.3102904,316.33275,38.68284101,-193.038686,7.445637735,-35.20173788,-10.92168059,22.77090873,-12.79277986,181.6065167,42.28740591,386.4672332,-29.82755032,16.69001549,-110.8361465,-113.8004302,,,,
560.3679996,2188,-37.11441428,100.9789264,55.68324794,-230.2253987,80.97619093,-33.91480113,330.8362582,40.89594364,-44.67388813,32.84747227,-53.45826333,218.6777526,-5.308713114,-7.833267795,-62.47369065,-78.79147161,,,,
560.3759996,2188,235.8027434,295.1242427,105.3073045,-163.0006066,-6.387210963,-47.7786114,-38.24924522,9.512288655,-19.18895029,43.93636652,-28.90419131,-204.758013,-26.81354663,18.6268298,-20.9807031,-86.96404001,,,,
560.3839996,2189,72.35135273,190.3709213,17.64057296,-206.1095084,40.1123393,-46.44434788,206.2686165,36.18412079,-26.02621508,185.3712648,28.98728797,714.2047043,-19.42494668,17.13761695,-131.6280061,-116.058474,,,,
560.3919996,2189,48.11617675,162.4802957,67.69123675,-156.6927633,37.06475927,-43.71076925,170.3082707,18.75833431,-35.67535186,-54.4251132,-101.5018546,-283.9080533,-9.635522383,-19.22587851,10.30889758,-79.18428295,,,,
560.3999996,2189,241.7155481,308.3588874,3.626469595,-156.0730447,0.810447947,-51.54634575,-11.08122734,17.38100003,5.390177085,184.1751917,40.49297403,419.7335275,-25.09934926,24.6667118,-98.57367779,-122.3538577,,,,
560.4079996,2189,-54.12838287,88.42475917,-17.04476951,-206.9106193,73.86464014,-48.88414629,327.9995983,30.28941743,-33.18970837,40.34531919,-58.41899932,287.2360985,-5.080012363,-15.23694546,-58.26090579,-99.21429992,,,,
560.4159996,2189,222.4619631,294.1927955,22.48195467,-134.8698913,1.634255829,-44.28306322,-27.61502252,15.35025721,4.78274375,50.56836401,-29.00676087,-150.8988982,-19.64777626,1.91351754,-18.82278767,-96.78659404,,,,
560.4239996,2189,63.02793221,193.6971273,-49.77421479,-180.5244329,47.15104221,-42.99431001,209.6989022,34.99940249,-4.081486438,198.0709833,35.27564358,762.125074,-13.22554817,10.50597276,-140.0784594,-114.161832,,,,
560.4319996,2189,-76.19987399,72.78034184,2.548591117,-151.1137058,62.62032137,-48.65994483,289.6645594,11.40174794,-51.7735965,-101.0179549,-142.5474926,-234.9759175,-9.662126918,-39.23221309,-3.83345114,-68.04842883,,,,
560.4399996,2189,161.3399079,246.3663604,-38.20267253,-101.249054,13.09584051,-60.53047827,43.1584608,6.069325313,-19.99738757,96.28427468,-21.77096596,302.2706478,-30.7919491,3.769057413,-93.9257031,-97.29807747,,,,
560.4479996,2189,78.10217802,195.3871396,-48.46921424,-97.15354858,35.34725715,-54.96102511,157.7287998,17.44505839,-25.03995394,99.44894572,-17.99492869,473.0226725,-23.23074391,-0.419839348,-103.915775,-92.58280677,,,,
560.4559996,2189,142.9330067,239.2126356,-24.62479809,-75.57429484,9.719448104,-55.58048778,49.62305096,2.949165648,-21.16538157,55.79920095,-30.5199204,186.7311936,-34.49670349,-7.436857846,-66.81436178,-93.33025856,,,,
560.4639996,2189,30.22839443,151.645701,-71.40777552,-100.065545,34.8788322,-61.65039355,194.5698859,4.162215522,-43.56727311,83.92962946,-29.38681461,543.0840792,-38.74327104,-14.97227874,-109.6747364,-106.3039566,,,,
560.4719996,2189,142.2194646,239.7876662,-59.8219345,-43.36567861,5.792003427,-49.09485084,44.30877568,3.581556326,-34.05846571,33.76724408,-44.88684426,156.7067184,-39.85700701,-13.29876952,-59.18316765,-97.81952167,,,,
560.4799996,2189,81.82971588,200.6352495,-118.6859199,-58.890253,30.32113805,-48.63761313,148.0685889,17.87321407,-29.99855027,134.1198564,9.4006032,706.8839748,-34.3578229,-1.565820653,-117.1988388,-108.5928444,,,,
560.4879996,2189,37.30593118,155.6807512,-87.30510512,-56.34940729,29.91829081,-49.16849345,163.2601078,5.166307934,-49.4527774,-9.067244474,-68.91404831,196.8029589,-31.21118276,-22.90817202,-37.46960946,-85.41991278,,,,
560.4959996,2189,204.1157467,291.3710798,-104.147234,-56.61028737,2.49244793,-37.78114298,0.176166314,13.85591987,-15.3601035,128.4602595,18.36979938,527.6199266,-38.97609787,11.27447885,-89.07671426,-105.0024874,,,,
560.5039996,2189,-26.96927826,120.395778,-123.9074162,-76.95912741,73.46399874,-30.99822312,287.0697564,27.8812923,-34.44009538,63.88639293,-33.71361047,621.7601782,-17.09243713,-0.72330973,-74.59194681,-83.76930084,,,,
560.5119996,2189,193.460111,277.0299763,-76.20222543,-4.289242777,20.67356802,-23.05546249,2.666336818,16.21624445,-8.324632687,38.67748748,-25.04854825,146.3753232,-21.99722092,14.40867443,-19.01053667,-72.32723762,,,,
560.5199996,2189,82.08279187,205.5655081,-132.2280067,-61.20809853,55.93787918,-23.91807027,183.4951405,34.75710494,-9.73149232,180.9008716,44.01134569,980.0927567,-16.36839335,26.05294434,-123.2202541,-94.32829358,,,,
560.5279996,2189,31.55726517,154.1629457,-71.52026667,-27.31476915,51.27542906,-27.28651477,186.1727124,13.1140128,-31.48413284,-39.62197252,-84.91481063,168.2295307,-14.5234744,-12.8964382,-9.946816356,-68.11878071,,,,
560.5359996,2189,236.572215,312.7446034,-106.4038549,-11.91222955,8.286846775,-23.69761915,-15.87777843,17.2887341,1.589426941,155.5380265,24.23706744,710.3232008,-30.86018675,25.23453494,-96.93459383,-102.0669748,,,,
560.5439996,2189,-53.30278417,98.85089395,-132.137918,-71.19120096,71.71101997,-30.02188082,302.9908583,17.3941539,-45.08742707,49.58110099,-58.97432962,737.4690551,-17.45161299,-2.769967313,-73.91913273,-87.49698564,,,,
560.5519996,2189,193.64391,284.2157662,-86.41701293,7.11700773,10.05910898,-25.50962914,-25.60207119,7.239174012,-22.43369139,22.14585017,-49.27446557,235.9406983,-33.94968689,5.42358181,-23.2497779,-88.78673417,,,,
560.5599996,2189,78.89527871,214.3682964,-131.9212306,-20.05549845,57.70554904,-15.3407365,184.3503802,38.91172215,-13.03787679,190.7160537,37.72096933,1158.803637,-17.38715434,32.04769542,-128.666436,-98.4678067,,,,
560.5679996,2189,27.41559231,159.3781357,-47.71694133,-2.331153486,48.11099944,-25.7583546,167.2348716,7.341604963,-37.81761676,-39.12464981,-90.90681905,249.8082623,-16.39293324,-7.982402034,7.472714399,-64.98805914,,,,
560.5759996,2189,242.3596634,329.749002,-78.85109785,8.710663911,11.30206593,-23.36142508,-39.92342648,25.57793219,-3.352270549,176.0987704,38.8187495,858.8749165,-37.30212158,26.81379604,-95.48180566,-104.82519,,,,
560.5839996,2189,-55.53649034,105.7644238,-79.36765821,-16.52571665,86.75744968,-20.11707867,309.5565633,37.56551482,-37.35968406,60.87634251,-41.90984852,840.8023617,-8.069762082,6.232101696,-59.33127242,-71.07622624,,,,
560.5919996,2189,197.1753653,281.5933558,-15.76520668,51.67739641,8.334403785,-29.63851619,-44.41716292,6.625898537,-19.67357762,33.59690011,-35.9110628,337.7233351,-32.77887715,1.079261148,-3.74661131,-79.51382532,,,,
560.5999996,2189,70.52369834,198.0313638,-72.53924747,10.15657156,46.4341631,-31.7780124,166.2943414,34.29279895,-26.05936702,190.3791583,40.88855929,1297.85685,-34.58984838,10.63200066,-124.3771398,-108.4876943,,,,
560.6079996,2189,10.98458604,140.2852369,-16.29573322,42.66121102,41.4011038,-35.42928885,161.1426263,14.32650162,-51.18557816,-58.42070533,-103.1808103,365.6695087,-30.43026351,-26.09397535,9.621129094,-76.48176821,,,,
560.6159996,2189,233.4097487,313.4246127,-65.73837035,54.1978558,5.498664514,-32.99954441,-53.33902413,24.6253053,-15.8162138,158.7956297,20.5252544,982.6702906,-41.57475526,9.404391536,-96.66483447,-120.0576029,,,,
560.6239996,2189,-59.79831838,88.75809428,-74.5275445,16.2818782,77.48806303,-35.00502499,299.9250472,30.83512279,-54.22668757,43.37455323,-62.35992886,962.7966461,-12.4464863,-9.857726568,-71.38474687,-88.64241558,,,,
560.6319996,2189,206.1550917,278.7984804,-37.03795735,82.24816494,2.203734602,-33.0897141,-50.97645154,10.83823024,-26.37830792,21.09160916,-56.54549885,448.153233,-32.5076834,-2.978286946,-22.98698756,-93.94567965,,,,
560.6399996,2190,94.22974686,205.9242954,-103.2184237,39.67651527,50.69339627,-27.44262368,158.5294448,36.59587215,-20.83411071,194.243832,27.12275188,1412.659163,-25.48483223,10.61586728,-139.3892546,-116.478612,,,,
560.6479996,2190,35.97054688,143.6440266,-25.46340443,52.91607111,48.75625705,-40.51860622,158.7058965,8.785249792,-46.63398275,-45.4063157,-105.8578158,486.8352075,-23.30143158,-20.80314118,1.131390836,-73.56805905,,,,
560.6559996,2190,266.1445071,322.8367981,-54.74539828,44.37336454,9.021810321,-38.51209923,-52.44323801,22.24488318,-3.409874659,173.1018362,29.75670111,1098.273168,-32.6333297,26.40605205,-101.7367761,-111.7555786,,,,
560.6639996,2190,-24.84398786,103.5565649,-54.86021489,4.484373348,81.84309756,-33.23635971,310.1876212,35.67299093,-35.21677894,59.02436913,-49.79207013,1087.341706,-1.920985263,-0.794667635,-68.82950205,-82.59834907,,,,
560.6719996,2190,231.1406531,289.625832,-20.66778495,56.54897383,9.455513748,-38.33305464,-37.40039702,16.94379712,-9.226893485,35.4996557,-41.60426095,566.1286008,-26.29395613,3.092730912,-7.657580185,-83.77611834,,,,
560.6799996,2190,112.5571561,212.3824492,-97.98938068,-24.48925461,44.46421962,-44.25991143,160.7250802,30.73463165,-5.475159532,210.8756725,51.60095508,1534.008532,-22.96979371,20.32449882,-132.3791557,-110.4081329,,,,
560.6879996,2190,41.31896212,138.5826111,-27.25866347,-9.520946173,30.79467962,-50.06550892,159.3062111,-0.58240802,-41.84084288,-41.81532285,-88.71635338,614.6264748,-24.7736899,-30.09871106,-7.732826751,-80.78304935,,,,
560.6959996,2190,401.5646261,425.0193708,-89.14081026,16.856231,-28.49159614,-36.37049961,-194.8159821,28.75894974,14.27064089,293.3849648,116.8265981,1558.644496,-51.40179862,31.22617066,-167.8463143,-144.0667294,,,,
560.7039996,2190,9.812553907,136.229065,-111.7421483,-57.47594138,71.76387797,-36.61008336,288.8723374,45.20432791,-28.34926811,199.6633419,41.01089706,1760.847044,-18.57721762,12.61825344,-159.870458,-113.7872717,,,,
560.7119996,2190,43.91412531,133.1641012,-0.155965802,-3.650363457,24.71561208,-47.76756379,117.5223256,-2.099183836,-54.44022338,-137.0687433,-137.2985103,237.991521,-27.76353842,-30.68165429,47.23365112,-64.54585543,,,,
560.7199996,2190,244.0776766,297.6543458,-94.9127697,-17.33990018,-9.550775982,-48.31141197,-51.56002806,17.40721118,-11.30420192,210.3670268,68.00553807,1486.750888,-52.36717019,28.43713976,-142.3310844,-124.3234155,,,,
560.7279996,2190,-29.70167216,94.11807843,-93.13237862,-41.37115595,50.41159173,-54.17663504,247.577788,17.10824052,-48.97210899,59.79927271,-29.57253854,1317.943297,-32.91180848,-5.967387898,-97.12849364,-97.31543686,,,,
560.7359996,2190,141.2546176,220.8363142,-39.97971065,21.02213241,16.84856613,-43.71001366,20.94672247,14.10305908,-34.88708867,-32.06714055,-59.06093361,691.4070061,-30.50711397,-14.07002206,-18.61932774,-84.49037281,,,,
560.7439996,2190,175.2786332,257.6034904,-93.0152788,-7.551221536,37.35526499,-35.45864051,67.80964808,41.59656867,-6.808118059,192.8013834,72.9690256,1629.752616,-20.3414365,25.35593564,-144.3702307,-109.2714199,,,,
560.7519996,2190,-12.24257508,105.2364201,-36.22301354,-15.01632063,68.10464047,-40.51886259,236.5232516,31.31080657,-36.29826579,-16.83302534,-54.53244207,1013.02908,-5.069184934,-5.296527527,-36.60929926,-68.36914284,,,,
560.7599996,2190,212.1108875,279.4911302,-34.59487869,12.78728417,15.16709965,-31.07306569,-21.58523997,37.52833115,-3.436146307,83.85407886,19.9102466,1091.424939,-17.62356593,17.11036397,-49.15804552,-79.49225947,,,,
560.7679996,2190,58.1282148,172.784046,-80.23249057,-34.20713207,56.66334022,-37.09192338,194.1647689,45.42873975,-10.57626595,157.3568071,55.4065946,1665.971147,-6.065174682,14.78276575,-108.1524035,-81.81428102,,,,
560.7759996,2190,53.5415684,163.8732394,-11.46867645,6.061926282,44.07519794,-50.75183615,128.7953286,18.82401213,-31.72696128,-33.92708808,-49.60604082,897.5762147,-14.12791366,-25.09034331,-4.661906291,-65.26567587,,,,
560.7839996,2190,215.3849843,301.6173272,-36.9637083,9.222158273,27.36017341,-44.470189,-8.613066502,38.37557706,-1.743233284,171.2557959,76.06030175,1569.392431,-22.39605245,11.58021572,-108.812975,-98.24183793,,,,
560.7919996,2190,-46.20449494,96.55666473,-24.63065578,-47.04246554,82.85025448,-53.3736965,275.296835,28.74138048,-36.59823684,36.37160678,-10.58339926,1417.479944,-5.54810466,-11.43364556,-69.31989301,-66.43331298,,,,
560.7999996,2190,184.5346515,265.1088196,2.774187258,-4.388164121,20.59766657,-53.24856729,-33.19028526,10.30165746,-21.95744228,32.11351038,1.562551773,1086.703059,-35.34199303,-11.5643036,-42.48219472,-83.09356164,,,,
560.8079996,2190,82.10695559,204.14867,-64.96749101,-34.25847442,68.96385843,-36.2534432,163.8544971,47.47763586,-13.57270915,173.5326315,74.53001058,1921.11231,-17.7227683,10.56828148,-136.4371716,-95.73953991,,,,
560.8159996,2190,24.8209515,137.7939049,-9.464414124,-18.07145653,56.51942519,-50.10969149,165.5939419,15.71964898,-33.56934898,-52.37379035,-55.71359122,1072.411277,-13.69009049,-28.50946017,-11.63512826,-57.54626084,,,,
560.8239996,2190,242.1227723,306.9538233,-45.2896405,-23.00210165,9.586441106,-55.65825602,-49.56684729,17.28891074,-7.286497837,150.1329815,58.34350592,1658.02708,-36.23104715,-5.916445856,-112.5126934,-108.6247218,,,,
560.8319996,2190,-37.16064784,101.0851357,-55.66937122,-71.23688304,83.74721464,-42.93524739,295.2599961,32.93870655,-39.29434078,45.35012234,-21.40561943,1665.442915,-6.3712514,-23.46796215,-86.80634367,-82.81097116,,,,
560.8399996,2190,201.9511504,267.3984021,-19.85728531,-19.91165161,17.3092222,-41.55203026,-27.66741277,12.44575413,-17.20308446,19.44048823,-27.31125863,1156.998453,-25.92982346,-20.17392595,-27.89485482,-76.98329842,,,,
560.8479996,2190,98.75369783,205.2052986,-99.17428043,-75.0890582,55.6867058,-39.95276358,152.4530583,39.98677297,-13.44994522,191.7518896,56.78641895,2106.286065,-14.9578481,1.12398466,-140.8232272,-101.6006853,,,,
560.8559996,2190,16.1261395,127.7106902,-38.34692165,-67.25969306,54.16797467,-45.35626814,180.7345797,13.09434076,-41.6254577,-55.61445087,-75.53929269,1224.022642,-7.524295808,-34.00007409,-19.40843959,-68.1059726,,,,
560.8639996,2190,249.7571328,309.7462356,-58.0609267,-45.6131565,12.74016805,-45.74279195,-49.98631319,20.85727232,-8.295077749,147.4462964,54.43536259,1776.304497,-27.02890692,-1.521919624,-119.4338003,-109.7370477,,,,
560.8719996,2190,-48.49558665,95.72679637,-63.71668201,-64.03483034,83.0442225,-42.06693727,301.6807284,40.09926347,-38.79758617,50.10859577,-18.00391408,1848.01127,-1.089570887,-21.08629736,-94.28702258,-85.34860855,,,,
560.8799996,2190,186.8572811,262.2685839,-18.38503154,-7.795106078,6.008887294,-44.20035641,-33.80545888,14.85786006,-13.17702659,6.938359155,-25.15943278,1275.390218,-20.32066172,-17.93883076,-34.95901762,-83.31775638,,,,
560.8879996,2190,88.46825311,202.9570914,-91.41586805,-74.55277387,41.81270209,-46.31474786,144.6002827,38.11164002,-11.42192128,188.8165732,70.07500878,2251.213552,-14.62670232,-0.226131889,-163.4465543,-109.8031643,,,,
560.8959996,2191,-3.009867774,125.7418878,-26.95044366,-44.45509247,41.20178023,-50.30825026,180.2867495,21.08610133,-48.59893384,-59.90561826,-71.07454557,1369.933524,-16.48175994,-39.56450968,-25.86640351,-72.01124418,,,,
560.9039996,2191,327.6519147,381.4486172,-23.62833647,9.13091692,-16.38120463,-36.08067418,-176.3557812,32.72531209,-2.167184919,134.5072122,57.3878057,1749.964244,-42.67266597,5.505177381,-80.71184077,-100.8524746,,,,
560.9119996,2191,-9.116802739,131.1725016,6.759644493,-34.753113,72.68331432,-31.07083597,208.5220041,41.62023545,-45.03560949,-33.79696552,-51.0717792,1612.019441,-17.64485213,-28.30696189,-3.320192213,-54.02292597,,,,
560.9199996,2191,64.02157015,171.3283696,74.01241751,7.488711158,32.78042034,-38.18909031,50.81708048,12.91605214,-53.33568333,-212.260953,-142.7203862,680.8759123,-26.25639971,-52.59152994,111.8596323,-31.24752685,,,,
560.9279996,2191,156.1415427,252.9421845,4.024170267,-16.47954009,31.33541663,-31.3508992,19.57378441,37.85086729,-23.4187439,43.86983095,2.104788122,1613.777789,-29.04415052,-10.39979606,-36.16966142,-74.25077951,,,,
560.9359996,2191,66.71027025,187.7010175,12.08666531,-32.63291093,52.77496738,-29.75249388,125.4853222,38.08758213,-35.25509986,10.8277684,-16.49833368,1632.191223,-17.95314115,-10.15584498,-17.18140864,-60.59699096,,,,
560.9439996,2191,156.5497832,260.6217432,-35.17506023,-57.56660684,35.68459471,-31.59526726,68.73712613,43.77660123,-16.96134483,187.9682566,84.62639247,2296.090873,-20.95611855,27.57881115,-114.4093771,-93.3867135,,,,
560.9519996,2191,3.260493094,133.5401491,-24.73947428,-80.34818005,57.63727881,-41.92043689,216.564564,32.00260398,-45.62796965,41.6567007,-15.64492372,1970.631996,-16.34646304,-5.873430147,-64.88119827,-79.38063553,,,,
560.9599996,2191,172.9191414,256.9932442,-8.547699421,-26.6070837,15.34345515,-36.16357417,-2.783867253,27.68159014,-23.87939467,39.64273265,-5.879376313,1717.893166,-22.28290268,-1.528114767,-45.06107,-83.17636263,,,,
560.9679996,2191,82.18897424,199.1649968,-67.77741351,-78.48101952,55.8892502,-21.64983486,176.988085,54.48143209,-19.43545727,190.6295359,74.10026915,2556.650063,-10.57979726,19.69760087,-141.2802821,-99.4769915,,,,
560.9759996,2191,48.42721438,146.06248,2.107837644,-63.95225607,38.44292209,-34.22872586,145.3961441,18.71118689,-42.66620184,-45.1744773,-58.84352619,1630.373953,-18.03634533,-22.71803179,-2.986293289,-64.89877716,,,,
560.9839996,2191,230.200701,287.5046418,-43.10137618,-47.53585314,9.690830868,-33.58256671,-14.12692792,29.78963975,-2.938869817,166.3298907,75.7719106,2293.564338,-25.71019707,13.92549362,-119.6153597,-101.7550804,,,,
560.9919996,2191,-15.15563701,107.7859565,-39.06850614,-90.76517144,72.98947327,-26.45788118,276.5545422,40.63283878,-31.78455339,55.64066512,7.997708343,2238.218182,-3.507640079,-8.806806611,-94.18642002,-77.78467567,,,,
560.9999996,2191,194.1217955,256.7246435,0.353657744,-32.44540623,14.12880779,-25.02649735,-11.37033497,25.89974181,-11.56837668,25.84004808,-2.127556627,1725.746202,-8.258453152,3.70559186,-31.12662996,-68.64208699,,,,
561.0079996,2191,102.5023175,200.171555,-78.4747212,-83.5467552,46.46206526,-28.48769576,149.5991721,45.76280944,-9.00840418,208.4368591,80.02242786,2657.50646,-0.496216842,27.83585362,-144.8058914,-90.077948,,,,
561.0159996,2191,8.940609657,111.849085,-20.50723455,-94.40704127,40.50576111,-46.27939078,165.4543278,11.72229134,-47.24199501,-52.21150913,-66.34334385,1751.829158,-14.87963787,-30.57561875,-15.38941396,-66.67790764,,,,
561.0239996,2191,238.8265894,289.588841,-57.42232183,-76.23772162,6.84636938,-37.44770927,-55.52688473,31.60399767,-9.037875604,145.4512389,62.34552197,2277.617337,-26.9834833,9.673178332,-113.5641159,-109.866854,,,,
561.0319996,2191,-42.17380932,78.01808183,-67.40823077,-133.4158069,85.16990247,-25.12275817,297.5097518,52.30675501,-38.47325425,59.30510041,-0.639572588,2324.041098,6.183384753,5.558794611,-94.94406701,-76.06377838,,,,
561.0399996,2191,162.5414323,214.8122774,-17.87376664,-86.2300097,13.17612948,-33.28887218,-14.04661812,23.00965747,-30.95709716,3.188519841,-19.143707,1710.373561,-18.8346237,1.326639731,-26.59527717,-68.57101765,,,,
561.0479996,2191,81.2074037,166.7783107,-90.35909255,-84.77580981,50.91822109,-31.3066919,139.2415424,54.59356529,-36.10898634,190.5370599,72.05932905,2675.592697,-21.91121906,13.65191971,-157.19392,-101.0956312,,,,
561.0559996,2191,-26.02573261,69.26897327,-22.93062744,-21.10755395,68.243204,-27.77025394,206.7298748,41.92933708,-64.57821429,-61.25072967,-66.40937296,1768.157784,-3.35784384,-25.11562961,-16.00665057,-53.20737874,,,,
561.0639996,2191,205.6481136,237.9606064,-50.96824246,-15.65775662,10.58508185,-32.74139488,-49.01647419,37.75040988,-24.98873263,136.329404,52.94602592,2231.493952,-19.1224152,9.013595363,-94.58853084,-86.26279828,,,,
561.0719996,2191,-108.5725481,-5.589095269,-85.01803633,-91.90919199,70.9909602,-42.84683046,301.3798999,40.14685,-77.39781419,44.21402423,-33.56587541,2344.475348,-13.83972318,-20.07960167,-95.16863037,-78.82856604,,,,
561.0799996,2191,96.07058493,131.9165333,-50.95745847,-27.53297887,5.340706608,-41.84496593,-13.65925174,20.49397457,-78.32624483,-36.04956923,-60.65874367,1671.026,-32.51034145,-22.39048684,-22.94883277,-77.23947837,,,,
561.0879996,2191,5.901519303,80.3246286,-130.8056483,-91.52849621,35.0237138,-42.25040633,123.570671,44.59741525,-78.03799479,151.544034,37.58756377,2644.845003,-34.18021057,-9.460928226,-155.6484148,-111.3191707,,,,
561.0959996,2191,-124.3364875,-26.33195457,-74.48681311,-85.04729613,40.5184097,-48.2142787,180.0187429,23.53623332,-113.110898,-103.6095726,-108.3100614,1746.420448,-32.00456215,-49.91553435,-30.00318294,-77.74453152,,,,
561.1039996,2191,120.0314862,169.9831286,-108.8723073,-61.9171467,0.079082972,-37.65222062,-77.29535614,36.2106908,-72.26673694,92.16033324,18.56323261,2169.617773,-37.52951679,9.202938166,-111.1684757,-108.444457,,,,
561.1119996,2191,-181.3494325,-51.29924332,-142.2057562,-148.1194872,74.36808412,-40.6637185,285.76857,40.91789137,-109.6671339,9.2436088,-51.73199725,2290.752727,-22.33931638,-14.18065041,-117.5670632,-97.25453908,,,,
561.1199996,2191,50.2120899,109.07755,-103.0668781,-91.97327018,5.109245337,-33.7538483,-28.10689782,18.57905617,-91.04231318,-61.25026987,-73.08571389,1593.822873,-45.77923453,-20.14826796,-45.95786633,-93.18567174,,,,
561.1279996,2191,-1.9494015,87.89226976,-175.5796404,-135.0488791,41.9492055,-18.68195479,124.2369651,53.29413392,-71.92585674,151.7515532,41.85755306,2575.866301,-33.74566152,15.58651629,-165.1931711,-112.0379547,,,,
561.1359996,2191,-109.6430759,-9.113630881,-103.4253961,-136.4704038,41.56509677,-37.25518535,190.6728682,21.19451022,-102.2113877,-95.33443916,-98.74256239,1681.025343,-28.99855193,-31.99071653,-30.82569337,-79.14010336,,,,
561.1439996,2191,158.1419004,200.4324792,-133.8288029,-97.7650408,-12.87815085,-39.72971846,-81.82776493,28.02410839,-60.81280084,97.91367336,23.39200961,2106.459775,-46.72859267,1.828470619,-120.0884229,-122.7185558,,,,
561.1519996,2192,-131.1304184,-2.608647727,-165.7444857,-139.0242628,64.02897419,-35.92089369,286.9963662,47.17107644,-84.06579083,27.44409355,-36.80318217,2257.036863,-21.14602243,-16.66642556,-126.1732976,-105.7548536,,,,
561.1599996,2192,102.5488679,163.2085057,-108.6639365,-74.69781302,-9.118585299,-38.32867221,-17.61467831,23.86225166,-49.18259117,-41.33016321,-56.9870028,1539.348758,-33.69456317,-22.06671998,-41.37037188,-95.53883149,,,,
561.1679996,2192,48.51172645,141.2666414,-188.0598124,-121.2137776,30.13716225,-29.49283284,133.8703774,60.93730227,-33.0572737,167.1526574,50.7308209,2532.871337,-25.22860116,3.925120987,-166.4537282,-123.1996503,,,,
561.1759996,2192,-66.25584336,44.22765991,-131.8395547,-125.5907187,47.87128303,-34.13312503,209.5555517,37.10208829,-63.36938363,-77.31221193,-88.68224247,1637.587102,-17.0139232,-41.29578305,-39.65101411,-87.81928604,,,,
561.1839996,2192,210.591269,254.5442311,-150.0918057,-106.0308541,-3.277495401,-32.96394272,-64.04997353,34.46351963,-8.296018396,125.9071606,41.69824972,2034.419131,-30.45595616,-10.04815636,-124.2971066,-122.6763457,,,,
561.1919996,2192,-81.8947943,35.97783955,-180.0931156,-166.5349148,76.05490515,-27.09445302,305.980402,48.48906551,-39.20322932,52.24042487,-15.4829804,2194.241867,-7.25206122,-30.80153141,-134.9236433,-106.9262191,,,,
561.1999996,2192,135.9708791,188.7206126,-139.1458289,-106.7729683,12.94158262,-21.91516239,-2.018949708,29.08159901,-21.07504215,-29.24429053,-42.39296802,1447.974881,-20.41923615,-24.77784996,-52.8217172,-94.63459772,,,,
561.2079996,2192,78.10684892,164.602996,-218.9773381,-145.2357241,47.11509505,-23.12095435,136.2131351,58.04212824,-0.11598097,182.7550483,63.46970415,2428.964264,-11.42983543,9.473908107,-178.1593007,-118.930291,,,,
561.2159996,2192,-47.1632644,57.18398317,-150.6754221,-136.8455366,53.29091716,-34.50041059,214.2277638,29.91676443,-33.52170256,-72.97714445,-79.00596819,1532.988449,-5.773969576,-30.97866851,-55.11609831,-81.96775844,,,,
561.2239996,2192,226.105691,274.2610092,-170.2298998,-93.51504741,1.130610752,-19.05545174,-63.2564374,42.10439131,6.250006976,121.9531223,54.64749741,1913.360342,-17.67073463,8.836133172,-132.3733527,-106.6068046,,,,
561.2319996,2192,-68.1919847,64.68399459,-200.2680003,-135.0327762,89.82143688,-17.90356843,308.1248639,58.76005101,-15.66116479,60.41988426,8.232342045,2069.837881,14.58739984,-8.98573558,-128.3022781,-78.19708057,,,,
561.2399996,2192,148.9159753,212.3070619,-134.7016328,-84.30130343,26.51116527,-33.68760141,-3.271092783,22.13703045,10.53118818,-24.44753084,-18.3431773,1295.967005,2.604627578,-8.718668666,-38.14353469,-67.45814414,,,,
561.2479996,2192,98.41965059,188.3114286,-199.7476153,-123.797536,51.55641755,-31.14014746,124.1502987,49.07704611,20.01426794,184.5245211,92.09923933,2282.55709,5.970661374,18.45411883,-165.3659847,-101.5638565,,,,
561.2559996,2192,-35.32846918,76.31906737,-137.4895578,-113.9891164,62.18448045,-37.72538929,210.2737328,26.26396361,-18.16545859,-75.77041768,-51.52798477,1388.34964,5.250283854,-33.00714641,-38.07636826,-71.73104351,,,,
561.2639996,2192,238.4526486,289.984643,-157.166457,-95.84442503,13.34369507,-30.75126447,-72.72862549,34.30062174,22.41082033,115.0408499,67.4181224,1753.246042,-14.33909788,7.124991234,-113.594563,-102.8601842,,,,
561.2719996,2192,-54.80534955,72.49057948,-182.699264,-134.5075759,93.27160464,-24.5521284,300.2467603,51.95459706,-6.813095369,57.27950863,13.57724043,1925.851061,14.87735166,9.291184928,-119.784709,-76.57247584,,,,
561.2799996,2192,152.6064246,214.487788,-118.5698147,-70.81752674,19.31389756,-34.58387525,-8.519250683,17.61598941,8.326861648,-35.00158375,-12.58155833,1144.693321,-7.768843895,9.085543818,-31.46808142,-70.01805938,,,,
561.2879996,2192,106.5968752,199.5266236,-198.2203321,-125.4178852,42.15147951,-33.1426565,111.4685185,48.44876846,19.65958031,178.7263565,105.4499491,2143.865139,-7.79070525,28.31830987,-155.9536114,-104.5415921,,,,
561.2959996,2192,-25.18855145,85.77430923,-148.6549733,-95.87353352,59.3351577,-31.16520494,214.8774092,34.34720089,-7.146494409,-73.20394828,-34.88368064,1244.01588,10.73568387,-5.939115144,-17.48293971,-57.77583274,,,,
561.3039996,2192,247.7149195,291.4419134,-162.6833702,-61.22158462,7.044820871,-25.23895196,-72.72586383,38.23700202,35.8683865,116.3454504,83.86877361,1588.05931,-6.77987497,34.2531869,-82.52629005,-87.53662879,,,,
561.3119996,2192,-51.33062423,62.05339473,-175.1397135,-130.4759742,78.00200016,-35.85010004,284.3049159,40.48756666,-1.36922025,56.14215909,26.54783268,1785.006323,9.604331204,8.469646999,-100.3254579,-82.39143285,,,,
561.3199996,2192,150.8221045,196.2861396,-113.2131331,-70.31597971,8.273721683,-49.58907001,-23.53539092,1.845199244,4.24572732,-45.85924833,-18.56284485,994.7610806,-17.9472541,-7.897222538,-24.12505831,-88.03107001,,,,
561.3279996,2192,98.02251073,183.2505133,-206.404407,-123.119403,44.67188768,-41.49564497,95.50160114,38.35758977,9.718122733,168.4286541,88.05258006,1989.572268,-18.96901802,9.283036726,-155.2291977,-125.1773248,,,,
561.3359996,2192,-49.90224805,61.97980367,-141.0188078,-125.6853194,60.77737703,-47.21562364,200.8498353,15.01340007,-22.89087066,-86.66498679,-54.17242301,1076.974267,-4.327539785,-31.71632845,-26.29757897,-82.86572988,,,,
561.3439996,2192,231.625821,278.4843202,-136.6720416,-89.3119214,4.574216411,-44.49628476,-86.48867836,20.15260851,18.92956021,98.65336787,70.1860525,1404.130835,-23.14762787,10.46657373,-94.84964034,-114.1677796,,,,
561.3519996,2192,-59.79725421,72.43687689,-161.0181146,-130.3676109,92.2899506,-32.58187225,291.9899202,53.1308093,-6.170666392,48.71781394,30.18940235,1606.706913,13.77829613,3.980576987,-103.4091362,-90.93232073,,,,
561.3599996,2192,141.8954168,208.409567,-90.45773958,-80.64827956,23.05855489,-37.91373611,-4.609342256,16.95972874,11.8991051,-46.95559132,-7.454996505,777.5619993,-1.860406812,2.936285916,-14.69909581,-75.16640106,,,,
561.3679996,2192,210.6820587,271.2634793,-185.8963134,-145.1274187,31.01002585,-32.91114645,-6.333090712,44.65162699,31.04213363,239.7316234,141.8870973,1901.411452,-21.51649158,37.54320609,-169.5985968,-121.8090581,,,,
561.3759996,2192,23.21448373,114.2354126,-174.8865904,-159.9581149,72.42370494,-24.28461503,177.3571722,43.01454842,-7.945683835,8.832823224,7.986365606,1196.917954,-6.487747275,0.726642955,-61.98178021,-85.59124576,,,,
561.3839996,2192,115.356047,180.3314335,-161.4429209,-127.7911643,42.00048725,-21.35837617,60.40031953,37.08077844,7.918649273,19.41802566,21.81847246,1069.720294,-13.83940543,10.86627086,-57.97801442,-93.03071676,,,,
561.3919996,2192,35.44215129,128.7345881,-175.3714281,-147.7862924,69.9184906,-17.48646484,175.367771,51.97022552,7.526215711,36.20071395,31.88242188,1263.314579,-1.247558982,9.243519962,-87.5724887,-90.63658682,,,,
561.3999996,2192,161.9810378,213.6785806,-157.3534351,-139.2059523,38.49142294,-18.52294928,19.65586227,39.6681065,20.29065986,18.58189147,43.42833928,953.6465571,-5.884828565,13.44498787,-69.90288192,-89.02222254,,,,
561.4079996,2193,18.79158603,110.6601568,-181.7013764,-176.4850381,71.4393852,-19.41821846,196.9257448,46.54841478,5.243155232,38.07770578,44.19447694,1224.310962,0.575795713,12.58112027,-106.1059425,-97.64632733,,,,
561.4159996,2193,104.6253983,168.9135926,-147.8475362,-140.3111025,34.83617313,-21.0405359,48.9565127,28.26676487,4.71279655,-33.51734915,3.906480558,697.5146963,-11.07755551,2.661215735,-46.54518922,-89.79478685,,,,
561.4239996,2193,107.2863775,178.3276688,-206.1542055,-172.6723811,42.83602932,-18.0861983,74.70569145,47.24623238,8.864257035,102.5037363,64.09446293,1245.513055,-20.72395928,18.28800396,-128.953573,-110.4240408,,,,
561.4319996,2193,-30.29929198,69.76658611,-181.0351195,-161.8127702,72.11728361,-15.10832354,200.146279,43.20106984,-11.75199592,-59.16500168,-25.37774043,734.6598436,-3.468958253,-4.309811986,-62.13619786,-81.47190732,,,,
561.4399996,2193,200.1093934,239.2591743,-169.6986783,-113.2493668,13.19298981,-21.30913607,-63.27887566,22.83458611,21.14691265,54.45735388,56.22905034,793.6206846,-18.69961775,17.18306687,-93.26561587,-99.82482233,,,,
561.4479996,2193,-49.12014742,59.92105786,-209.4631526,-184.8217642,80.26087897,-17.65728405,246.8627339,43.86690521,-20.00309851,34.29989076,12.20929258,1106.490597,-11.95043773,-6.475692483,-134.3312159,-104.3475506,,,,
561.4559996,2193,107.3489616,172.0933015,-150.7453948,-147.6140034,38.95062185,-4.958351443,22.44872572,34.86856209,-5.119558841,-69.31299487,-28.18784258,329.9218909,-14.63033675,-4.409373368,-46.7102824,-83.83611748,,,,
561.4639996,2193,96.77998415,179.4998535,-210.1424153,-188.6113036,53.4660301,-4.309264466,86.31036341,52.26995538,19.28325808,145.8307818,95.47586832,1194.177803,-11.06779011,34.27725629,-150.4622425,-100.8244774,,,,
561.4719996,2193,-60.275924,50.98344106,-169.2201266,-186.7407468,79.33698197,-5.545018988,216.7914378,38.55823854,-26.89282344,-84.25256804,-38.55305978,468.2406342,-12.96125202,-14.33318511,-49.25261205,-73.28554227,,,,
561.4799996,2193,219.7291011,263.9594054,-170.3880862,-150.2656963,22.00851817,4.292610238,-79.93561365,39.1995921,13.97593465,65.21864479,65.14366391,650.7119312,-28.23405424,19.25343424,-92.57034227,-96.77162342,,,,
561.4879996,2193,-64.7656635,63.00821634,-203.0152233,-221.1530688,96.4007755,4.972600681,268.3956666,56.44575251,-10.30380817,42.7085361,36.35918718,963.0167984,-0.847617918,10.89804758,-119.0069714,-83.55938494,,,,
561.4959996,2193,105.777618,182.5306473,-126.3964218,-148.5762849,41.91631656,-2.362258256,7.241135338,33.4860719,-5.753834402,-72.89444037,-12.49711018,108.8378629,-16.97159317,-0.338698713,-28.62426031,-64.80130248,,,,
561.5039996,2193,84.85511653,180.4143682,-197.8403916,-175.9520424,58.44821508,-11.67648299,79.44931083,56.03327375,4.460193129,158.4432207,105.9398884,1093.341449,-16.87765415,34.41309262,-153.7217993,-90.93189236,,,,
561.5119996,2193,-84.87796956,44.46910811,-160.5320157,-183.2581191,78.76598312,-18.11097982,207.6862945,34.99308744,-43.63595377,-90.56978593,-46.36079885,287.2620634,-15.38617663,-11.95315208,-41.87938757,-65.97927247,,,,
561.5199996,2193,380.2894659,403.997083,-171.0717297,-113.5076906,-15.30522852,-3.090691446,-280.1851813,42.55792314,25.64899203,185.101353,128.5044425,698.5117185,-49.35098785,44.94841305,-125.5058715,-109.9747074,,,,
561.5279996,2193,24.69878549,143.6607798,-233.1929861,-194.8249664,83.93748884,0.499150606,183.0822339,73.09062834,-4.479414015,207.774165,116.4307146,1351.207037,-14.51737105,42.40827243,-184.7854964,-97.13908842,,,,
561.5359996,2193,-98.77979343,19.74618845,-127.7198997,-162.1088978,81.71692392,-4.291180846,226.4321087,29.46431699,-52.01511426,-199.9485433,-107.323757,-244.8642035,-6.774215531,-20.42123347,19.20617207,-40.67316318,,,,
561.5439996,2193,240.4446529,284.5441338,-174.3643162,-139.4375766,20.05200253,4.048583623,-94.01683277,43.94212172,16.7337084,137.5981961,95.96654654,619.4269064,-27.45677661,41.68690998,-115.0314242,-85.63662083,,,,
561.5519996,2193,-60.45852497,68.92721464,-218.688616,-209.870474,97.67204027,1.541696382,246.6389904,63.55633021,-24.69609199,59.67704748,31.06292211,771.6002927,-10.03116892,16.25404225,-111.9024957,-71.26484874,,,,
561.5599996,2193,27.78690452,128.3562649,-168.8394733,-163.7303067,67.45622728,1.8038475,84.25774703,44.13014864,-33.94225768,-101.5359798,-43.27769844,-89.24021188,-16.77021184,1.008316234,-11.13700326,-49.81327509,,,,
561.5679996,2193,158.703738,233.6186508,-212.2305542,-163.1207829,45.87220265,-0.555971587,-3.520642637,54.88922315,8.540469368,144.9820227,105.1440793,734.1063426,-16.89234369,45.6747633,-124.0134871,-79.76842531,,,,
561.5759996,2193,-91.65251773,38.3068976,-200.6761403,-183.7867902,87.11592189,-12.4707429,247.4467444,47.61734621,-41.10356631,-46.20968939,-17.59985805,312.1547948,-8.364505424,-2.048212555,-59.00987651,-64.00914587,,,,
561.5839996,2193,138.698276,205.9866481,-170.0510095,-132.4068243,30.96565594,-4.806168369,-34.31767844,39.61729151,-21.66123335,-12.99855252,17.17800355,48.50481304,-27.63529821,14.08924177,-50.7849185,-74.9166948,,,,
561.5919996,2193,50.45839537,150.4192759,-218.8810442,-182.2370379,73.3569937,8.762668665,124.0009317,70.05831546,-10.67791342,121.7034352,85.27467794,745.6613747,-8.028635974,35.13263359,-128.8207365,-77.32732534,,,,
561.5999996,2193,-32.76487223,81.62478745,-176.186293,-163.7492479,91.3656821,12.07507632,176.3239547,59.7876456,-29.22930814,-86.19554979,-38.87430688,-55.95356266,8.860121247,4.522129378,-13.86529974,-39.93773212,,,,
561.6079996,2193,199.3611581,260.278312,-181.9695175,-121.5122688,43.89514225,13.82347245,-61.06002294,57.59996223,15.32333469,102.1480406,74.98426837,341.6992838,-2.972683042,44.9735169,-81.57252523,-69.96102505,,,,
561.6159996,2193,-74.92774854,52.07771215,-194.1252255,-162.2854926,91.62554513,4.920391195,245.945339,59.27580693,-24.71299538,28.79657119,18.64331886,456.0490653,10.52760559,18.08051688,-90.06886235,-64.51691807,,,,
561.6239996,2193,105.2301557,174.9796131,-140.880015,-112.6880844,28.7453019,-0.574071587,-14.16522822,33.08561445,-23.75733166,-51.91969944,-16.57789993,-212.9792581,-8.312427623,10.72690104,-25.92231517,-61.6445833,,,,
561.6319996,2193,72.02878401,175.2247428,-219.4335432,-156.5938201,63.20968815,12.46570353,78.2193774,72.51407771,-11.99624553,146.2532018,79.05620601,689.7930212,-5.063189874,35.53556203,-133.2765966,-88.35672304,,,,
561.6399996,2193,-81.76025668,57.50009078,-169.7217455,-145.5967269,93.46617604,19.10837052,208.6455968,70.33345009,-35.42765344,-83.62479898,-49.45056535,-100.5727804,19.99678417,3.899835107,-21.16672785,-47.54698593,,,,
561.6479996,2193,198.0980891,266.5003,-149.3053461,-114.5605718,30.66790708,20.04864178,-74.68161624,62.50201826,17.12019948,84.51616782,65.59281155,135.7067363,8.905515861,46.87865489,-71.50078238,-69.4104324,,,,
561.6559996,2193,-89.23419352,56.07761796,-193.3125007,-191.1878305,95.55559672,12.8532414,257.0496119,74.95661208,-25.78895559,43.70898704,15.80133147,445.8183053,11.45102553,15.14776944,-103.1162468,-74.72773918,,,,
561.6639996,2194,78.32180392,163.4247013,-131.3533332,-137.9039198,31.02030539,1.967409357,-6.807949704,42.86111953,-24.97061871,-82.24929705,-40.65784983,-397.1888821,-12.57904855,-2.085761753,-22.7608637,-73.90754738,,,,
561.6719996,2194,74.67810909,187.0391737,-206.6963594,-165.7391311,54.01497585,15.11069581,70.36632563,77.80203987,-2.250216297,144.2399969,86.70703714,574.7289295,-10.0368537,34.23339673,-146.5604887,-105.4276126,,,,
561.6799996,2194,-100.0743692,61.06629792,-165.9587001,-150.595719,93.46722948,23.83302891,224.6172164,73.61709925,-39.02487726,-91.89010185,-45.64448254,-210.8088911,11.28827058,-5.38444075,-29.79595064,-58.98975182,,,,
561.6879996,2194,194.7821163,278.6358731,-149.7182136,-114.8006701,34.57412505,23.66850121,-83.68034738,65.47158015,11.12511834,78.27784859,67.51702097,-9.482540038,0.152598146,32.14687042,-66.10383587,-78.29825106,,,,
