Time:125Hz,Epoch,FP1,FP2,C3,C4,P7,P8,O1,O2,F7,F8,F3,F4,T7,T8,P3,P4,,,,
285.4399998,1115,-8.952819514,-58.93600241,0,0,-93.34166522,0,116.89462,0,-50.40707092,28.6755077,-979.1128632,11.91809982,9.080573186,124.5243904,-336.123983,0,,,,
285.4479998,1115,2.839566484,24.20294472,0,0,27.58690994,0,124.2604825,0,-88.38917527,-118.9943584,-1135.029818,-57.36976503,-9.363430128,-263.2097888,78.77165779,0,,,,
285.4559998,1115,38.45489113,19.52686281,0,0,-288.6592407,0,-183.2014301,0,-56.65878904,128.3292684,-884.6671864,130.8366663,-27.73574257,301.6901878,-232.6256144,0,,,,
285.4639998,1115,-71.68588224,-96.86165138,0,0,139.9533787,0,329.7736599,0,-84.38653077,-132.9288622,-1162.893676,-99.68858411,-46.03618219,-192.1576493,-94.71190792,0,,,,
285.4719998,1115,41.11642205,65.83223454,0,0,-178.1994803,0,-176.7106671,0,-115.1046445,6.067731518,-962.5816741,43.42388252,-64.26456569,74.77914843,88.74092081,0,,,,
285.4799998,1115,-19.1348932,-68.48724461,0,0,-53.36156613,0,127.5494521,0,-52.14495262,31.80474216,-1050.008296,19.02782171,-82.42071514,132.994392,-295.4734974,0,,,,
285.4879998,1115,-14.00046937,13.34547169,0,0,59.89700498,0,131.2892016,0,-88.64154559,-123.549734,-1206.188826,-49.69896887,-100.5044565,-248.069733,116.8270547,0,,,,
285.4959998,1115,60.62143467,36.76961486,0,0,-265.8043172,0,-184.0058393,0,-50.64508547,120.021177,-950.7888503,125.2940235,-118.5156133,322.7144396,-192.6421122,0,,,,
285.5039998,1115,-22.18427455,-56.83800922,0,0,141.058422,0,318.6806855,0,-63.23485784,-124.4536325,-1253.870882,-95.46845233,-136.454014,-184.44338,-80.86054847,0,,,,
285.5119998,1115,90.18389332,111.0727053,0,0,-200.6086972,0,-188.8802369,0,-68.31963826,29.60515986,-1101.006907,81.013859,-154.3194934,73.44376395,60.32888658,0,,,,
285.5199998,1115,-1.562149038,-53.117496,0,0,-61.22203062,0,128.9806598,0,-7.198949279,44.76771474,-1200.30997,43.66265686,-172.1118834,142.2370375,-320.922109,0,,,,
285.5279998,1115,-11.40706621,13.76578468,0,0,66.21122941,0,136.753149,0,-82.2612463,-122.3688721,-1342.413786,-51.65630836,-189.8310187,-230.4278354,119.3081989,0,,,,
285.5359998,1115,76.62898064,51.09089407,0,0,-265.3238214,0,-187.5676023,0,-46.16480453,130.7947279,-1098.816084,137.2167196,-207.4767399,334.0073571,-193.2112415,0,,,,
285.5439998,1115,-26.81172522,-64.17477215,0,0,157.1410327,0,319.2039353,0,-45.91534266,-112.9704968,-1402.847444,-82.86093699,-225.0488885,-176.1235107,-78.36122543,0,,,,
285.5519998,1115,72.2195844,102.8228389,0,0,-181.6339488,0,-190.4181999,0,-81.31841876,28.1889122,-1218.078122,76.70053191,-242.5473073,92.49981608,91.78172872,0,,,,
285.5599998,1115,-33.53197832,-90.30114448,0,0,67.00194925,0,301.8919104,0,-14.69228711,-10.54796124,-1338.792134,-17.6233565,-259.9718423,54.89371894,-338.5422787,0,,,,
285.5679998,1115,-47.69123068,-27.57559467,0,0,238.6908158,0,317.374854,0,-84.44172702,-216.9959207,-1434.224168,-140.6432862,-277.3223417,-421.0439417,210.6544196,0,,,,
285.5759998,1115,110.8822011,111.6544642,0,0,-394.5547186,0,-421.5785916,0,-82.08311699,184.2268103,-981.3952963,191.6504727,-294.5986562,449.5526677,-60.94600434,0,,,,
285.5839998,1115,-44.26307091,-93.88884348,0,0,158.7097083,0,364.8706108,0,-32.06655007,-83.01941998,-1397.077806,-66.08666002,-311.8006409,-124.1614604,-200.7785725,0,,,,
285.5919998,1115,24.04582913,69.69392699,0,0,-38.27130371,0,-49.75953204,0,-69.19194845,-63.83121877,-1279.735895,11.88648917,-328.9281494,-136.7218883,200.6077707,0,,,,
285.5999998,1115,38.41125127,7.53391926,0,0,-223.1757934,0,-135.2355492,0,-54.20582108,125.9919726,-1076.261644,116.8313051,-345.9810401,371.4705739,-239.874673,0,,,,
285.6079998,1115,-47.03621423,-57.66568156,0,0,227.4882317,0,335.8358506,0,-95.08313636,-185.9363492,-1393.573756,-128.1987641,-362.9591744,-297.3661787,72.71354404,0,,,,
285.6159998,1115,81.11199642,101.5175934,0,0,-237.0005548,0,-282.3665042,0,-80.70187835,76.55399637,-1075.474424,120.0805044,-379.8624144,217.7050224,58.58946646,0,,,,
285.6239998,1115,-6.235346601,-52.25070178,0,0,37.76198088,0,185.2494701,0,-24.30667921,-9.694735853,-1251.828946,4.002077921,-396.6906263,62.78563097,-229.1181095,0,,,,
285.6319998,1115,19.81173598,40.17308043,0,0,58.50995247,0,50.01218218,0,-79.70538113,-106.8587847,-1279.293721,-33.2836092,-413.4436779,-188.7456003,178.9019198,0,,,,
285.6399998,1115,50.29073329,26.663271,0,0,-208.0492334,0,-183.9435129,0,-67.61694037,118.478214,-1009.94035,119.9826142,-430.1214377,348.7408425,-158.0191515,0,,,,
285.6479998,1115,-39.07775281,-46.79304493,0,0,200.4107867,0,288.6837522,0,-73.0139588,-145.7797561,-1275.097494,-102.6141576,-446.7237782,-208.0394395,22.9987186,0,,,,
285.6559998,1115,75.78660113,95.46654912,0,0,-161.8910485,0,-235.1815023,0,-72.91491939,38.21723754,-1033.61876,79.63141898,-463.2505759,137.5763406,120.453366,0,,,,
285.6639998,1115,-28.97802038,-85.21033391,0,0,40.5997538,0,141.8239598,0,-44.44093851,10.88289405,-1120.850451,12.94362822,-479.7017072,140.8840973,-205.4124423,0,,,,
285.6719998,1115,-16.26247939,12.24413195,0,0,127.5558844,0,105.1410537,0,-102.2980569,-134.9679342,-1198.759505,-64.39983324,-496.0770512,-191.5291263,225.8829975,0,,,,
285.6799998,1115,92.22960892,70.01818874,0,0,-215.3696138,0,-191.3761404,0,-42.06548555,123.6604507,-977.3874972,132.4740856,-512.3764898,344.82222,-109.7859227,0,,,,
285.6879998,1115,-35.21066904,-64.10073748,0,0,201.5394691,0,316.7014411,0,-47.58033933,-114.7539448,-1304.856798,-67.35838136,-528.5999074,-181.0537573,-16.24799669,0,,,,
285.6959998,1116,35.76222773,62.25656847,0,0,-95.96471995,0,-166.5966456,0,-112.18951,8.003950319,-1069.146764,49.47595047,-544.7471907,127.6769873,168.6740508,0,,,,
285.7039998,1116,20.05172314,-28.85540212,0,0,23.96840856,0,133.7818573,0,-42.38972262,15.64612027,-1148.505037,7.036882071,-560.8182281,169.8265695,-175.7622449,0,,,,
285.7119998,1116,-1.637700746,31.64604475,0,0,134.7279095,0,131.5871227,0,-65.68392263,-102.6991725,-1316.311442,-32.57506483,-576.8129111,-209.824959,200.2222886,0,,,,
285.7199998,1116,39.15037042,36.19037245,0,0,-169.8688613,0,-161.8926485,0,-76.85819116,131.3896612,-1036.046576,141.591848,-592.7311335,378.8572579,-86.1369558,0,,,,
285.7279998,1116,-24.28230204,-47.66876776,0,0,227.8398765,0,329.1130057,0,-70.03302578,-117.9247788,-1316.575943,-69.40843056,-608.5727906,-129.227759,28.26922558,0,,,,
285.7359998,1116,17.72834225,51.55612914,0,0,-41.3255028,0,-132.1772989,0,-91.68010556,23.23339265,-1098.915639,70.78112906,-624.3377804,165.0407106,199.5344493,0,,,,
285.7439998,1116,-109.8818088,-138.4216354,0,0,194.8084377,0,224.6776112,0,-98.80766351,-18.90995986,-1070.027905,-33.57491601,-640.0260036,260.2128332,-54.59700902,0,,,,
285.7519998,1116,-152.4714871,-126.12693,0,0,450.0084434,0,287.5947468,0,-193.2891295,-215.7850437,-1087.680078,-170.0231341,133.3705565,-105.5334917,496.1717458,0,,,,
285.7599998,1116,-198.5539974,-221.1039834,0,0,326.227525,0,62.87982391,0,-245.0532898,-22.14569616,-677.616671,-52.72718225,4394.254617,495.3497589,369.0322056,0,,,,
285.7679998,1116,-401.1471337,-413.0975782,0,0,984.6401927,0,638.4692641,0,-354.3125344,-362.1783337,-758.0760899,-365.5001016,12508.01247,-1.534424411,740.8871696,0,,,,
285.7759998,1116,-366.511795,-332.4658732,0,0,947.2862701,0,209.7306099,0,-456.0497541,-291.5016355,-311.203935,-300.0674187,21083.09668,288.2993569,1216.347524,0,,,,
285.7839998,1116,-504.3207156,-558.2332431,0,0,1373.866946,0,572.5034612,0,-465.5996174,-343.8268406,-142.9210822,-408.1970219,30536.2226,352.7464363,1162.415868,0,,,,
285.7919998,1116,-556.302449,-528.9597331,0,0,1802.663831,0,615.7208447,0,-574.2357222,-567.5295693,-32.21889952,-559.6387763,41068.6833,-47.32886419,1921.027655,0,,,,
285.7999998,1116,-552.6590009,-561.2207818,0,0,1801.345381,0,340.9362132,0,-594.6683288,-358.5884275,478.4296802,-420.0002911,51031.7988,532.2222577,1972.781424,0,,,,
285.8079998,1116,-875.4620282,-883.4665478,0,0,2683.77569,0,963.7445086,0,-707.8928935,-688.2041141,468.1633901,-729.0057711,64727.39972,12.05949968,2495.855263,0,,,,
285.8159998,1116,-1141.217409,-1098.916939,0,0,3143.7662,0,696.3007344,0,-1021.950363,-776.5122481,1241.934633,-866.8608627,86720.25587,356.4049229,3429.393484,0,,,,
285.8239998,1116,-1407.937783,-1455.848796,0,0,4083.992715,0,1146.239411,0,-1288.986107,-1047.296057,1920.590281,-1230.914719,115806.9531,483.8426837,4078.620525,0,,,,
285.8319998,1116,-1233.24155,-1214.570601,0,0,4630.884276,0,1065.87698,0,-1361.450103,-1267.777655,2265.427091,-1343.128331,139923.7007,8.140093769,5259.311915,0,,,,
285.8399998,1116,-880.902852,-905.8964485,0,0,4430.804818,0,561.4875757,0,-1116.449081,-863.4476963,2662.869659,-945.363007,150925.0309,459.4442086,5325.417099,0,,,,
285.8479998,1116,-769.6110817,-793.43678,0,0,4856.703451,0,887.3609689,0,-901.1126114,-923.9468612,2298.339262,-924.3747409,157262.3825,-172.238828,5560.839019,0,,,,
285.8559998,1116,-456.7693999,-429.1297181,0,0,4446.942019,0,229.5867382,0,-702.0068765,-589.3558058,2334.240195,-550.9215329,160677.7394,34.63213225,5734.229913,0,,,,
285.8639998,1116,-387.4935412,-444.0299846,0,0,4478.022466,0,427.6111915,0,-481.8815406,-428.065429,2054.906016,-425.0329566,160790.5048,80.25379104,5312.966033,0,,,,
285.8719998,1116,-296.6291533,-275.6513983,0,0,4506.866699,0,369.0233376,0,-434.1924414,-479.9567777,1707.052186,-394.2443081,161238.1096,-315.0525905,5666.257624,0,,,,
285.8799998,1116,-127.9547013,-145.5328481,0,0,4052.708916,0,-16.28631808,0,-318.0258534,-133.4257711,1760.906733,-119.3803203,160018.3692,289.8488396,5288.991218,0,,,,
285.8879998,1116,-168.8456779,-188.2263776,0,0,4341.393965,0,439.2024479,0,-252.5610553,-308.2739984,1197.013343,-263.7853798,158779.2931,-237.7247678,5263.287927,0,,,,
285.8959998,1116,-32.49178592,-0.294818133,0,0,3909.423315,0,-67.8060026,0,-209.4166649,-101.820835,1150.716862,-47.91768817,157387.2619,49.80146721,5315.501293,0,,,,
285.9039998,1116,-53.56040862,-95.13774392,0,0,3900.526974,0,207.8823306,0,-128.124266,-53.07047888,856.7782795,-51.13024493,155110.8185,137.7650869,4845.871368,0,,,,
285.9119998,1116,-4.56675385,26.85834161,0,0,3872.443498,0,190.3488258,0,-129.532098,-170.3215561,462.9901465,-87.17773024,153504.8681,-268.4615462,5108.644974,0,,,,
285.9199998,1116,103.8318781,71.05807189,0,0,3396.81314,0,-130.1871954,0,-34.90368642,121.5867878,505.1973192,140.2340285,151095.4671,328.4483576,4668.160526,0,,,,
285.9279998,1116,30.30083435,-0.959763253,0,0,3639.892048,0,351.573932,0,-28.38418335,-104.6010372,-9.907342643,-54.41262992,149088.3916,-204.2336407,4619.083039,0,,,,
285.9359998,1116,139.3627481,175.4815801,0,0,3183.280949,0,-138.8040379,0,-34.66786156,65.76206552,16.43477461,118.6642588,147110.3803,93.05473405,4649.658558,0,,,,
285.9439998,1116,94.33531734,43.21682057,0,0,3174.206081,0,168.7671596,0,34.12195723,91.40632204,-197.7720972,95.23677061,144799.0426,194.4033524,4170.747787,0,,,,
285.9519998,1117,89.47446984,123.6482096,0,0,3157.843206,0,175.0490645,0,-17.78324345,-53.93370337,-512.7939245,30.79617022,143068.7093,-211.4594997,4440.18828,0,,,,
285.9599998,1117,150.2884145,151.9475095,0,0,2710.101376,0,-141.1240292,0,30.69889955,204.6828717,-392.2460543,212.2637849,140691.9491,389.7033429,4032.283176,0,,,,
285.9679998,1117,81.64384344,66.02219718,0,0,2955.235156,0,328.7278,0,45.08306733,-35.96030971,-859.8213822,12.74346703,138666.4438,-156.6396942,3995.642852,0,,,,
285.9759998,1117,195.3767356,217.9300397,0,0,2491.142716,0,-173.9471635,0,13.91864692,118.9293083,-800.1438038,184.5110944,136595.6454,103.4265768,4011.316823,0,,,,
285.9839998,1117,131.7059158,74.62428531,0,0,2496.371998,0,126.7371568,0,66.9324199,120.1244014,-965.5387945,127.5297688,134332.7554,174.9852308,3534.628676,0,,,,
285.9919998,1117,114.6291311,146.6471341,0,0,2505.4135,0,138.3873696,0,18.7585186,-33.39363612,-1223.300976,48.56119047,132533.2104,-233.6979884,3825.931284,0,,,,
285.9999998,1117,189.4747485,176.1748073,0,0,2073.897898,0,-173.0389324,0,34.98991786,222.3639798,-1039.977729,225.8387135,130224.1845,364.3012344,3440.286823,0,,,,
286.0079998,1117,103.1257313,74.16847299,0,0,2362.444352,0,313.7765741,0,36.08304333,-29.8416707,-1442.095845,5.134178705,128348.8703,-181.0388945,3433.830761,0,,,,
286.0159998,1117,195.5302265,214.0023401,0,0,1943.900389,0,-175.9741953,0,17.64504072,124.5493836,-1325.643204,172.4942164,126493.4748,99.2949861,3499.59404,0,,,,
286.0239998,1117,152.4512903,100.9507839,0,0,1937.544738,0,97.42354785,0,88.16505451,139.6072284,-1478.323348,141.1675478,124505.2855,161.4002452,3033.816514,0,,,,
286.0319998,1117,130.1050999,175.8812028,0,0,1953.477829,0,98.42567277,0,48.49196898,-11.34112142,-1731.040484,68.91759824,122730.661,-260.5772848,3310.492144,0,,,,
286.0399998,1117,198.5681211,189.7288886,0,0,1548.208723,0,-206.4405815,0,44.61801253,242.7090875,-1506.89596,238.7873797,120410.3612,357.3998339,2940.155094,0,,,,
286.0479998,1117,126.6360193,101.4404789,0,0,1822.15617,0,265.6933559,0,48.95312286,3.398838918,-1900.761274,37.57055758,118566.936,-186.597743,2922.334849,0,,,,
286.0559998,1117,199.8439157,235.8262482,0,0,1425.51216,0,-207.7041077,0,21.03665874,154.5444914,-1798.198627,198.1113663,116568.8067,89.31549093,2978.664621,0,,,,
286.0639998,1117,170.9294368,118.9695736,0,0,1452.423415,0,89.75147273,0,58.24601443,164.3272438,-1977.602017,145.0159671,114410.9326,167.1742408,2543.451038,0,,,,
286.0719998,1117,180.0942756,204.4541569,0,0,1446.19149,0,81.58307721,0,63.46988923,30.96443983,-2340.521878,95.11479822,112667.859,-258.5709083,2809.601989,0,,,,
286.0799998,1117,200.5447571,191.1421262,0,0,1057.829236,0,-209.2284579,0,85.02354144,268.4430144,-2206.737677,258.7191854,110472.9859,349.7786635,2428.554734,0,,,,
286.0879998,1117,114.7572091,99.36495835,0,0,1363.074203,0,270.4071143,0,48.20140022,-3.395783723,-2607.273919,20.32702584,108704.3628,-188.4365834,2447.742469,0,,,,
286.0959998,1117,229.2765765,264.1376993,0,0,939.0004024,0,-233.2776966,0,45.96122761,160.4008218,-2543.46796,199.2024983,106827.4687,81.09858829,2491.437732,0,,,,
286.1039998,1117,178.6141668,124.7563792,0,0,978.0860671,0,63.00265805,0,103.9931247,175.0587212,-2720.69431,161.1902638,104813.6121,157.6093231,2032.71921,0,,,,
286.1119998,1117,164.3354421,185.0843884,0,0,1023.683694,0,62.1554053,0,53.90555854,12.70962062,-2960.806173,78.52064412,103162.5003,-249.4500723,2346.646339,0,,,,
286.1199998,1117,215.8116705,204.1078789,0,0,628.0143223,0,-251.0282662,0,61.54980923,254.9097954,-2742.305373,244.8377538,101040.7094,356.7271125,1978.676888,0,,,,
286.1279998,1117,122.0435588,112.9230376,0,0,931.5914601,0,232.5189146,0,49.83107975,9.529497499,-3089.727859,30.1388547,99299.82571,-194.1080385,1966.47003,0,,,,
286.1359998,1117,196.1777771,246.2382416,0,0,546.0150869,0,-248.7192223,0,33.85494277,159.8220854,-2890.017147,186.1438795,97404.86468,84.46250947,2036.681424,0,,,,
286.1439998,1117,142.9257663,107.6584345,0,0,599.789478,0,53.86420938,0,62.39355345,158.9251314,-2970.551976,130.9359308,95381.18783,160.5192075,1601.47849,0,,,,
286.1519998,1117,133.5949461,158.278544,0,0,659.5316152,0,67.91202994,0,11.68690254,5.226683706,-3201.873321,58.44543807,93775.14411,-259.7009273,1905.829749,0,,,,
286.1599998,1117,195.4914074,169.1620035,0,0,282.1508769,0,-239.8099258,0,43.60387894,244.2035289,-2994.612143,217.9256219,91745.98304,349.2517171,1567.120881,0,,,,
286.1679998,1117,131.2474683,108.1693025,0,0,580.6316833,0,223.9385463,0,52.98284587,-3.8365594,-3449.469035,9.816165711,90105.49809,-203.1759575,1570.780872,0,,,,
286.1759998,1117,217.6917668,256.6250706,0,0,191.2784004,0,-268.6749452,0,42.34414659,160.3616421,-3428.324325,190.7613771,88335.68754,68.56348015,1620.039664,0,,,,
286.1839998,1117,152.2709921,108.4918469,0,0,247.6456612,0,31.43994646,0,71.1491561,171.1701826,-3648.756705,144.9759271,86419.08849,149.593196,1184.611404,0,,,,
286.1919998,1117,131.9609912,166.6673488,0,0,303.7375418,0,37.65968868,0,29.41156463,14.89492073,-3965.176312,72.58505985,84877.65221,-266.5219215,1492.874769,0,,,,
286.1999998,1117,190.2280913,180.4867889,0,0,-67.39891745,0,-267.8712938,0,59.37496166,246.0872255,-3760.43363,222.9451953,82921.72218,343.1946401,1150.526384,0,,,,
286.2079998,1118,114.6414493,93.09090844,0,0,260.7191288,0,213.9102534,0,52.51782785,-4.320181656,-4182.177286,0.443392101,81325.54366,-210.383975,1168.917931,0,,,,
286.2159998,1118,183.4297601,221.8148486,0,0,-93.94767138,0,-261.2018757,0,25.09889479,146.3114308,-4131.456732,166.1250988,79598.78886,66.92855577,1258.40299,0,,,,
286.2239998,1118,121.5126652,85.21674283,0,0,-20.86745849,0,44.01942157,0,50.64035348,141.495392,-4300.595895,113.0222616,77737.52301,152.0764076,852.5672616,0,,,,
286.2319998,1118,115.3712019,151.3612478,0,0,49.5611042,0,54.19504015,0,15.44323658,-10.56298578,-4624.675215,43.82230378,76249.70449,-270.1882419,1172.484184,0,,,,
286.2399998,1118,187.225695,172.2756394,0,0,-318.2915695,0,-250.7757188,0,57.39336438,230.7566614,-4496.832795,206.0896724,74379.2351,336.1402839,840.1248515,0,,,,
286.2479998,1118,113.1686429,91.46891821,0,0,6.94247475,0,228.6059799,0,54.9600702,-5.503229083,-4938.936032,6.553276203,72855.99908,-212.3397299,850.9896866,0,,,,
286.2559998,1118,175.3013031,211.6519379,0,0,-327.5659232,0,-246.3973935,0,2.699363637,147.0286703,-4831.172231,165.7671202,71212.36456,78.05301959,952.5055831,0,,,,
286.2639998,1118,144.2568147,98.3777154,0,0,-267.6703176,0,36.70123882,0,57.81686177,135.8715084,-4958.006801,100.9938957,69448.39096,157.0135162,555.9306698,0,,,,
286.2719998,1118,145.7895192,174.415691,0,0,-227.3815951,0,27.25112344,0,71.65576273,6.176150856,-5264.33124,62.64174178,68048.38253,-280.1947988,830.6235939,0,,,,
286.2799998,1118,172.4059158,161.4692012,0,0,-566.1540504,0,-264.6474448,0,62.68002937,248.6490805,-5087.438302,222.5533439,66264.12518,337.6364725,491.6032446,0,,,,
286.2879998,1118,92.50692969,76.41084813,0,0,-215.9291,0,222.6993365,0,25.18191449,-21.59712282,-5501.729699,-13.56126217,64792.79942,-201.8142728,543.2645637,0,,,,
286.2959998,1118,173.9963035,198.1840546,0,0,-564.2376016,0,-258.2157153,0,24.74240824,132.4598513,-5461.564689,154.9245164,63196.38712,71.36438326,632.4935475,0,,,,
286.3039998,1118,116.6239372,69.62305482,0,0,-483.5192736,0,36.7417105,0,57.02416864,123.1280288,-5656.591713,86.96128719,61482.77782,137.5410127,234.0042423,0,,,,
286.3119998,1118,107.5552241,160.7813781,0,0,-414.3022526,0,39.8110201,0,-1.94015549,-21.60425706,-5956.467966,31.33232073,60124.28684,-296.9627957,552.3535657,0,,,,
286.3199998,1118,170.3277667,165.753338,0,0,-766.2812554,0,-261.9419787,0,34.82120979,242.4202215,-5796.012553,222.3908394,58395.8208,318.0895942,206.4021329,0,,,,
286.3279998,1118,108.0182301,83.53559961,0,0,-431.9296333,0,212.2699796,0,54.30034136,-11.06563931,-6247.698582,-0.807105712,56992.32344,-231.9666898,232.8568832,0,,,,
286.3359998,1118,177.8336005,213.608594,0,0,-777.8450967,0,-270.2940184,0,27.12917601,138.5764249,-6191.138074,159.9721831,55484.09574,38.28270602,323.1464005,0,,,,
286.3439998,1118,117.4346154,75.04726099,0,0,-684.4888068,0,32.08481384,0,55.68946074,131.6851484,-6371.203388,101.5028519,53860.38086,120.6007429,-75.24368133,0,,,,
286.3519998,1118,124.3057629,150.0184606,0,0,-602.1590737,0,37.37253783,0,24.78433419,-18.80452667,-6663.379839,36.43889009,52572.43947,-295.8735048,256.4401191,0,,,,
286.3599998,1118,168.2401256,159.1846134,0,0,-943.9553177,0,-268.8103746,0,57.46944425,233.3117942,-6433.110084,203.4391266,50910.72516,319.8382314,-67.86994991,0,,,,
286.3679998,1118,73.7546414,80.22247473,0,0,-599.1936745,0,204.8663605,0,50.51699568,-20.29078202,-6782.698134,-17.4700944,49559.71335,-231.0646018,-36.42446245,0,,,,
286.3759998,1118,141.904342,196.6191884,0,0,-927.7951533,0,-276.6614588,0,6.154482706,135.6007126,-6638.009717,157.9161266,48099.78814,54.71097468,61.84227221,0,,,,
286.3839998,1118,83.74872611,49.80270258,0,0,-812.2590903,0,21.82804126,0,32.81736799,120.6779982,-6724.105743,76.92381899,46529.16319,146.0123067,-311.5792647,0,,,,
286.3919998,1118,111.727082,140.34421,0,0,-725.154847,0,17.11927914,0,0.548834883,-34.58986129,-6926.11019,-5.016654414,45284.0527,-278.4588139,32.976345,0,,,,
286.3999998,1118,171.2056031,153.7921299,0,0,-1072.239093,0,-292.1174091,0,23.96852114,229.7906603,-6658.181113,191.9088282,43677.37936,333.7888013,-298.6109803,0,,,,
286.4079998,1118,56.86661847,54.06158209,0,0,-708.0463999,0,194.1494394,0,20.26536711,-27.96527397,-6998.41139,-24.27246,42395.26707,-225.258842,-268.446429,0,,,,
286.4159998,1118,136.997802,184.9015694,0,0,-1025.092471,0,-284.5572553,0,-5.767027463,115.444279,-6807.163021,124.7190046,40998.0105,47.00727095,-150.8931437,0,,,,
286.4239998,1118,105.1746715,71.05718585,0,0,-934.5395408,0,3.394128537,0,38.31753765,119.6473066,-6845.085794,64.40965237,39495.26942,130.4018182,-527.670831,0,,,,
286.4319998,1118,109.1717133,154.9177661,0,0,-857.2929641,0,0.466508766,0,10.55312294,-14.10717393,-7029.055502,16.00389891,38331.41152,-306.269794,-215.30777,0,,,,
286.4399998,1118,151.257201,149.4826379,0,0,-1189.362478,0,-301.8803887,0,26.9905104,236.6664546,-6736.900922,193.5618326,36792.08468,306.2500484,-539.4195656,0,,,,
286.4479998,1118,54.81112139,42.41035681,0,0,-812.5372539,0,186.3931191,0,17.43211693,-36.07306009,-7053.565865,-48.22843363,35556.96211,-235.425874,-477.0523968,0,,,,
286.4559998,1118,153.9921385,182.4184145,0,0,-1134.059763,0,-297.119238,0,-13.51973244,110.4124582,-6852.578975,104.9645911,34212.56369,37.82609056,-354.1834797,0,,,,
286.4639998,1119,96.53276724,58.68406258,0,0,-1041.335475,0,-10.74766212,0,36.31257042,112.3667016,-6890.443106,48.56763468,32755.87584,116.5999107,-738.7916877,0,,,,
286.4719998,1119,62.19619102,113.311059,0,0,-940.5058197,0,-6.316261179,0,4.182921101,-36.57660245,-7058.620892,-17.60654692,31625.3249,-309.243185,-411.6539474,0,,,,
286.4799998,1119,124.3622099,115.2063397,0,0,-1261.496954,0,-309.9958982,0,-19.75372828,198.523273,-6707.490829,137.0912304,30140.15237,306.6667239,-708.1892028,0,,,,
286.4879998,1119,43.13945895,30.36133851,0,0,-897.4316022,0,162.5508703,0,-28.08623297,-66.41398067,-6968.497795,-90.4515287,28975.25412,-245.6290299,-651.3622592,0,,,,
286.4959998,1119,137.2710466,180.9170106,0,0,-1250.45125,0,-343.0259723,0,-11.98266867,110.9674231,-6751.861299,105.8467027,27701.37868,22.55911816,-558.3594172,0,,,,
286.5039998,1119,84.68201643,45.48039363,0,0,-1151.056032,0,-49.70298482,0,12.33339164,119.417481,-6767.956752,54.73076708,26329.00362,104.1106249,-951.2154742,0,,,,
286.5119998,1119,68.14519586,102.4916212,0,0,-1016.069908,0,-29.60994961,0,-46.03552698,-48.21255745,-6875.388011,-34.0559477,25271.00217,-318.6478901,-590.8392241,0,,,,
286.5199998,1119,155.1490672,145.4254194,0,0,-1362.853501,0,-355.5388163,0,-4.072618311,202.5966874,-6499.653419,147.5963622,23820.94134,293.7751507,-881.2165315,0,,,,
286.5279998,1119,-4.208530102,-2.440176883,0,0,-773.1944213,0,413.8873231,0,17.99856112,-188.9317482,-7002.209921,-172.4039704,22762.02059,-599.7962739,-818.99659,0,,,,
286.5359998,1119,29.54073131,108.2972845,0,0,-874.4108184,0,127.606967,0,-19.0191887,-185.444751,-6978.878486,-111.9337857,21650.99785,-687.1304898,-519.6511658,0,,,,
286.5439998,1119,108.6703776,107.6010462,0,0,-1266.086146,0,-232.1800694,0,4.68858059,137.0224322,-6529.189173,93.35352949,20154.77818,147.5237336,-948.3201174,0,,,,
286.5519998,1119,71.10176117,86.44439426,0,0,-1196.988209,0,-176.5187507,0,-7.765827392,69.12724352,-6519.380585,35.72010404,18984.49908,15.7170467,-900.7270006,0,,,,
286.5599998,1119,65.83886854,65.22149973,0,0,-1132.150812,0,-82.13509022,0,-10.79025673,19.94224087,-6511.806124,-17.40031855,17798.67139,-79.83382331,-916.8472282,0,,,,
286.5679998,1119,88.5670815,94.1383966,0,0,-1175.215153,0,-139.1696981,0,-7.843313684,45.5576843,-6464.140209,21.84906012,16640.28238,-80.23967164,-902.004762,0,,,,
286.5759998,1119,111.4640797,103.8522389,0,0,-1305.823762,0,-271.4997198,0,-9.22151901,141.699296,-6298.332564,99.61870962,15420.38956,137.3197244,-1011.758631,0,,,,
286.5839998,1119,58.27549734,56.63348276,0,0,-1101.833383,0,3.004596956,0,-29.38122358,-9.513923009,-6415.705919,-35.37158813,14324.94944,-169.2406272,-1015.64154,0,,,,
286.5919998,1119,100.6257538,145.5730948,0,0,-1310.775074,0,-324.0938334,0,-32.93454516,101.3608623,-6213.378845,82.24087796,13188.17224,31.78715358,-951.557513,0,,,,
286.5999998,1119,79.86620579,55.30391478,0,0,-1219.67831,0,-104.8654517,0,-6.360749875,78.61586618,-6186.201674,22.53730547,11982.1625,56.27097124,-1193.377755,0,,,,
286.6079998,1119,85.98427763,96.63744221,0,0,-1166.991672,0,-119.3507174,0,-28.5125667,-20.52908812,-6265.314367,-8.596715861,10983.49913,-250.5807744,-974.1866638,0,,,,
286.6159998,1119,127.8234133,106.3871112,0,0,-1430.749,0,-368.5353726,0,2.638545822,189.3147193,-5963.081142,144.3260655,9727.533254,240.2753971,-1212.588715,0,,,,
286.6239998,1119,44.38351813,40.69969876,0,0,-1115.873182,0,53.46911019,0,-2.718478918,-37.01854366,-6155.704738,-65.15288073,8721.000406,-217.520615,-1177.225621,0,,,,
286.6319998,1119,99.79762351,144.7774941,0,0,-1387.795319,0,-369.6227223,0,-23.04206707,93.18039844,-5903.553954,75.37902891,7621.299346,20.18964267,-1061.008047,0,,,,
286.6399998,1119,47.89247332,7.428979663,0,0,-1269.247153,0,-94.66660248,0,-15.32092264,82.30527072,-5848.170139,11.15371849,6412.201188,101.0122236,-1377.732617,0,,,,
286.6479998,1119,47.2462591,87.76681781,0,0,-1164.584776,0,-97.53109262,0,-64.46650557,-59.56364945,-5932.791043,-60.64095109,5513.774142,-293.4063739,-1050.443317,0,,,,
286.6559998,1119,115.7709822,114.2875482,0,0,-1481.573994,0,-407.0725967,0,-14.80738496,200.3915854,-5590.194894,127.7664228,4276.60749,276.7524755,-1325.419314,0,,,,
286.6639998,1119,36.78775289,9.225496071,0,0,-1118.052112,0,55.56398876,0,-16.02483814,-44.14357176,-5834.676443,-82.1114943,3314.226618,-228.8304752,-1285.864744,0,,,,
286.6719998,1119,114.5142719,129.7318252,0,0,-1398.195159,0,-406.3023356,0,-34.52675012,88.83322893,-5562.30234,69.29651829,2280.295735,44.11937252,-1134.604443,0,,,,
286.6799998,1119,53.6385274,-7.762699357,0,0,-1274.978888,0,-118.2266176,0,3.724696293,94.84464321,-5516.621736,10.74370164,1120.268747,134.6233991,-1475.167775,0,,,,
286.6879998,1119,46.91295015,72.91134581,0,0,-1142.872368,0,-113.7561589,0,-56.74129237,-65.44128153,-5596.091341,-72.55616505,269.0261523,-276.9431375,-1104.523113,0,,,,
286.6959998,1119,131.233323,142.0667732,0,0,-1490.411395,0,-448.8080586,0,-16.88405735,200.7065136,-5219.280673,137.2879978,-918.9937322,328.7305107,-1382.009554,0,,,,
286.7039998,1119,25.59125193,38.72283331,0,0,-1131.224168,0,20.54226558,0,-35.92584123,-32.26688207,-5500.4954,-61.19872046,-1811.40618,-217.5542849,-1374.220263,0,,,,
286.7119998,1119,83.6995485,116.9298593,0,0,-1388.054504,0,-438.9874428,0,-92.47726687,87.020414,-5201.367223,61.23135016,-2810.950592,58.61667105,-1204.839584,0,,,,
286.7199998,1120,53.46595571,-7.610995798,0,0,-1277.907529,0,-153.2289253,0,-22.18945869,84.86668741,-5136.625269,4.853675806,-3943.665283,147.1426986,-1532.19346,0,,,,
286.7279998,1120,54.24169613,79.20730496,0,0,-1148.386825,0,-145.5244071,0,-65.61970293,-58.68413353,-5242.387601,-57.30632636,-4747.41906,-281.6644093,-1181.07905,0,,,,
286.7359998,1120,134.337773,112.2224405,0,0,-1463.53474,0,-470.3232914,0,-35.19680926,194.9249594,-4833.262836,115.6779141,-5904.76039,333.781474,-1433.42539,0,,,,
286.7439998,1120,51.42163916,34.67325909,0,0,-1121.305344,0,-11.6650451,0,0.695628872,-41.04926121,-5104.599181,-84.64005631,-6764.459327,-234.5567644,-1406.468521,0,,,,
286.7519998,1120,100.8018299,146.3230531,0,0,-1397.387359,0,-474.5158036,0,-43.7835822,113.9128641,-4832.389519,84.14086685,-7698.752704,33.71308044,-1271.839489,0,,,,
286.7599998,1120,52.88403251,12.5579499,0,0,-1277.939539,0,-178.2122759,0,-13.8302112,111.8319916,-4761.79657,19.72360935,-8761.068037,127.7217576,-1601.95713,0,,,,
286.7679998,1120,42.1307967,78.16782096,0,0,-1153.119024,0,-170.3084401,0,-65.54066626,-60.37461015,-4859.154808,-66.8475192,-9511.744376,-312.984396,-1242.772263,0,,,,
286.7759998,1120,105.2953283,87.81002046,0,0,-1460.139046,0,-483.9884626,0,-62.46001862,179.765297,-4454.269765,102.5600504,-10618.70151,289.1110233,-1499.877819,0,,,,
286.7839998,1120,48.41956089,27.43101711,0,0,-1111.093673,0,-17.45453726,0,-34.26897624,-52.09968433,-4726.097005,-97.5645184,-11434.9333,-276.8600476,-1464.544378,0,,,,
286.7919998,1120,110.1705208,144.9772323,0,0,-1386.450798,0,-475.4791333,0,-44.710916,102.3817945,-4453.005172,68.57729144,-12332.36763,11.50987419,-1318.225447,0,,,,
286.7999998,1120,41.46965121,-15.05532816,0,0,-1257.870853,0,-171.4733564,0,-25.2355038,90.56077367,-4392.366461,-3.26498346,-13362.48929,105.119133,-1642.657939,0,,,,
286.8079998,1120,33.23823039,69.38819856,0,0,-1133.260941,0,-166.3779918,0,-70.81877501,-69.04122657,-4494.75667,-85.77196014,-14079.02584,-340.473895,-1283.282155,0,,,,
286.8159998,1120,98.61986749,98.36443126,0,0,-1437.604139,0,-472.8304249,0,-39.95631606,184.5693744,-4071.81503,93.17397279,-15140.91065,282.2822425,-1535.195669,0,,,,
286.8239998,1120,39.21825023,22.60744374,0,0,-1080.170526,0,6.344411745,0,-33.42718185,-57.2408506,-4327.085013,-107.9860661,-15916.44799,-280.0455602,-1495.845918,0,,,,
286.8319998,1120,106.5083386,151.3204563,0,0,-1372.203433,0,-458.2057688,0,-46.40214189,101.9541791,-4052.804738,64.10092576,-16776.86435,-6.694548621,-1361.958193,0,,,,
286.8399998,1120,43.74464916,6.763956463,0,0,-1266.324189,0,-157.5811926,0,-11.95766373,101.0624619,-4000.13701,4.380264952,-17767.78562,92.48512582,-1703.371596,0,,,,
286.8479998,1120,48.50763808,80.45094107,0,0,-1143.923155,0,-144.1763403,0,-61.44816745,-63.01984311,-4113.58792,-75.98934283,-18429.06403,-344.1375319,-1350.417068,0,,,,
286.8559998,1120,101.4613236,93.24958011,0,0,-1447.706149,0,-449.9461318,0,-26.06277637,187.9539202,-3710.721627,102.4145218,-19424.45762,275.3729452,-1607.451981,0,,,,
286.8639998,1120,6.578318805,-5.696041431,0,0,-1072.382263,0,26.44306864,0,-49.69584127,-68.98700857,-3978.756033,-119.7367392,-20153.69192,-283.9107176,-1547.591533,0,,,,
286.8719998,1120,100.4517978,140.7024499,0,0,-1356.232147,0,-458.1042991,0,-81.15860923,83.66446098,-3712.205459,38.0727318,-20971.59069,-7.69525821,-1379.005179,0,,,,
286.8799998,1120,61.04928725,20.9454501,0,0,-1255.166808,0,-172.9002481,0,1.759988211,97.49522055,-3701.819889,-5.510616401,-21917.01649,93.05772289,-1724.679639,0,,,,
286.8879998,1120,37.98167946,72.64447503,0,0,-1118.251555,0,-156.6167547,0,-44.33645401,-66.96250631,-3863.595031,-81.8739557,-22549.21651,-334.6965743,-1368.588097,0,,,,
286.8959998,1120,102.914564,92.56063113,0,0,-1439.874603,0,-482.9414249,0,-40.63743899,189.5800274,-3507.998237,101.1735724,-23514.27453,287.5110404,-1616.280314,0,,,,
286.9039998,1120,15.25986106,2.490075363,0,0,-1073.401807,0,-8.410054969,0,-35.89272805,-59.42359262,-3829.996447,-114.2021025,-24200.91625,-269.3431342,-1577.693129,0,,,,
286.9119998,1120,95.14155705,128.2136207,0,0,-1332.258357,0,-473.0693565,0,-57.0637735,85.38072222,-3593.74695,41.18719396,-24971.28068,11.20511327,-1404.526531,0,,,,
286.9199998,1120,61.48813574,13.70962745,0,0,-1235.827452,0,-194.9736668,0,-14.92536392,101.0656789,-3618.57591,1.456244525,-25868.79389,105.212356,-1733.672459,0,,,,
286.9279998,1120,37.21282542,83.33576437,0,0,-1097.669288,0,-179.2397094,0,-62.32266449,-59.67574318,-3813.406658,-80.71052946,-26453.57891,-325.3258027,-1378.717124,0,,,,
286.9359998,1120,122.9681988,114.5521786,0,0,-1417.09295,0,-504.2825535,0,-26.0515109,197.7817342,-3473.096975,100.000792,-27367.98391,296.1106353,-1623.864366,0,,,,
286.9439998,1120,38.68543419,14.31365578,0,0,-1068.231294,0,-32.71360888,0,-16.4786319,-44.24836235,-3841.953639,-101.7282223,-28003.35898,-268.1542853,-1597.509591,0,,,,
286.9519998,1120,68.00295792,111.7803302,0,0,-1311.302363,0,-475.4930345,0,-69.38065752,92.28178125,-3643.116624,42.11189015,-28723.94483,18.63592425,-1423.622348,0,,,,
286.9599998,1120,45.35511201,4.620587343,0,0,-1204.245532,0,-191.5116534,0,-37.85359514,97.05126251,-3671.354451,-9.292237137,-29571.81673,118.1210324,-1736.726339,0,,,,
286.9679998,1120,40.36045071,71.60265375,0,0,-1070.343744,0,-181.1231077,0,-69.07243839,-60.81443113,-3885.418709,-78.55590282,-30099.05265,-318.0738702,-1388.533266,0,,,,
286.9759998,1121,80.35006166,70.12232507,0,0,-1357.68572,0,-491.6838231,0,-54.49166129,180.7567136,-3549.459129,81.36428314,-30963.32002,313.2176074,-1609.599792,0,,,,
286.9839998,1121,22.34411079,5.817681119,0,0,-1015.521299,0,-40.55242818,0,-50.84360123,-64.31915954,-3922.727199,-128.1939926,-31561.56309,-252.2531159,-1560.587079,0,,,,
286.9919998,1121,103.3073656,140.198704,0,0,-1304.442018,0,-522.2068315,0,-54.16208654,100.1965186,-3762.385568,50.91699176,-32229.80304,7.69520997,-1427.377543,0,,,,
286.9999998,1121,52.29547649,12.20949604,0,0,-1201.09673,0,-242.9298746,0,-2.410651354,100.9851771,-3815.425583,-9.42783855,-33028.30036,93.11630939,-1767.90585,0,,,,
287.0079998,1121,29.87424234,77.00200445,0,0,-1069.961038,0,-234.0320406,0,-61.5481205,-71.06206319,-4034.525693,-100.9396774,-33515.69517,-355.0693934,-1423.129775,0,,,,
287.0159998,1121,65.39093194,52.04454798,0,0,-1363.359515,0,-545.7781667,0,-81.06492523,172.297186,-3688.957517,65.30418793,-34331.88892,263.0275158,-1661.365256,0,,,,
287.0239998,1121,-78.08273605,-104.8014349,0,0,-776.5643943,0,216.5253865,0,-86.27249969,-237.2051147,-4241.019608,-278.7242347,-34834.23313,-630.0778626,-1585.646507,0,,,,
287.0319998,1121,-40.18761642,26.68944088,0,0,-866.217186,0,-60.22858021,0,-112.1958918,-237.5991621,-4241.155004,-218.9102118,-35362.4908,-725.2914,-1285.493655,0,,,,
287.0399998,1121,-16.30534112,-36.97115319,0,0,-1029.990531,0,-127.7593874,0,-83.91142825,-48.61196525,-3996.875072,-119.5112087,-36183.47545,-217.0542341,-1647.205509,0,,,,
287.0479998,1121,-6.107107645,20.79362426,0,0,-1006.628254,0,-190.5736958,0,-95.5712378,-107.8846338,-4068.920439,-135.4543408,-36727.80779,-388.7281643,-1466.750114,0,,,,
287.0559998,1121,85.91155869,86.51764374,0,0,-1395.017002,0,-638.6409249,0,-63.62414796,183.9482166,-3699.104255,89.29696455,-37505.32579,286.0778064,-1669.37016,0,,,,
287.0639998,1121,9.042828886,-25.05533257,0,0,-1050.291611,0,-115.0116047,0,-48.89381167,-36.6765399,-4061.31962,-109.3056459,-38070.05965,-208.2785943,-1759.464673,0,,,,
287.0719998,1121,55.82658869,95.0231567,0,0,-1171.126302,0,-394.6670427,0,-79.43183369,-5.238778032,-4039.845931,-31.7368824,-38577.30031,-232.3363751,-1513.229505,0,,,,
287.0799998,1121,81.04789605,38.81775192,0,0,-1333.527762,0,-460.7043769,0,-42.44374396,166.1006523,-3799.686291,46.78139362,-39344.25357,260.1166626,-1834.499002,0,,,,
287.0879998,1121,7.415280759,9.966867922,0,0,-1005.113535,0,-92.4229739,0,-55.73312781,-109.4172583,-4182.668815,-156.7483457,-39777.97338,-391.1732577,-1635.002474,0,,,,
287.0959998,1121,72.0769409,103.3085645,0,0,-1347.560143,0,-562.0410642,0,-75.19167821,124.8188724,-3891.652905,55.0229039,-40424.90293,89.11633891,-1651.090568,0,,,,
287.1039998,1121,18.28366299,-19.91935923,0,0,-1157.215877,0,-186.8990343,0,-69.94493261,39.7237728,-4027.113608,-57.01397304,-41058.42382,-22.46504143,-1877.464027,0,,,,
287.1119998,1121,56.28648013,83.12009876,0,0,-1140.567609,0,-281.6212186,0,-79.132461,-51.29828103,-4178.253169,-66.32186323,-41488.61556,-310.5937314,-1589.465284,0,,,,
287.1199998,1121,85.5263074,47.70189246,0,0,-1387.347678,0,-486.9632228,0,-23.01014641,175.5856474,-3908.121972,78.14178185,-42204.41335,258.2837981,-1865.969684,0,,,,
287.1279998,1121,-23.57911012,-46.75820768,0,0,-1015.876093,0,-37.82257174,0,-58.50365119,-98.85909589,-4260.327038,-161.1041065,-42640.31686,-300.6333048,-1734.477757,0,,,,
287.1359998,1121,52.93420706,91.14880096,0,0,-1319.541804,0,-511.2805738,0,-94.2396478,71.73742429,-4043.012146,19.80193686,-43205.2963,44.63682388,-1619.810964,0,,,,
287.1439998,1121,4.649788623,-31.14838392,0,0,-1191.934627,0,-197.6616296,0,-59.06117501,56.01908509,-4127.393303,-43.21487194,-43850.0231,66.36148814,-1919.685485,0,,,,
287.1519998,1121,14.37782871,43.43477639,0,0,-1090.595168,0,-209.7491001,0,-110.4560117,-83.96401069,-4331.940183,-117.0332447,-44228.46815,-330.974481,-1588.023899,0,,,,
287.1599998,1121,70.03618902,50.07786996,0,0,-1397.802701,0,-495.3788035,0,-86.31268014,170.2287514,-4036.362361,65.53174547,-44901.95056,256.849769,-1836.265005,0,,,,
287.1679998,1121,-26.02387836,-47.3225684,0,0,-1046.898469,0,-22.31332855,0,-74.3580332,-75.78402743,-4410.822777,-138.7438331,-45317.29486,-288.6034303,-1790.167343,0,,,,
287.1759998,1121,51.63080581,75.07003957,0,0,-1303.511639,0,-468.7276167,0,-91.05647235,67.30508735,-4215.892575,3.752707256,-45828.62874,4.671263853,-1639.537442,0,,,,
287.1839998,1121,1.117635244,-58.36804379,0,0,-1175.669533,0,-169.2779897,0,-63.09311235,52.21922641,-4236.767632,-71.55604353,-46434.32711,79.93684503,-1925.760615,0,,,,
287.1919998,1121,-6.548501081,24.18408011,0,0,-1075.004859,0,-178.7228216,0,-99.15066251,-102.4911186,-4458.263074,-131.1582264,-46759.49924,-358.8382272,-1586.876712,0,,,,
287.1999998,1121,54.5395681,36.80386409,0,0,-1382.184835,0,-479.8327078,0,-68.25583207,157.1524222,-4161.188217,51.65727041,-47407.57181,238.167526,-1846.12051,0,,,,
287.2079998,1121,-32.14401019,-69.35928958,0,0,-998.0900692,0,12.76192959,0,-80.66076525,-96.14159424,-4509.383704,-178.9857595,-47779.86804,-303.1170603,-1781.91471,0,,,,
287.2159998,1121,46.87426933,67.43633974,0,0,-1269.457621,0,-450.8287282,0,-109.0752379,49.15676942,-4303.558758,-15.59526193,-48245.30485,-24.46379317,-1614.157543,0,,,,
287.2239998,1121,11.99182291,-51.07245302,0,0,-1173.264489,0,-162.7342173,0,-62.78123933,57.60193563,-4335.495977,-58.07856528,-48835.90388,64.02171194,-1945.398235,0,,,,
287.2319998,1122,7.444821934,30.33568766,0,0,-1058.303254,0,-150.6158187,0,-81.01969852,-94.65905063,-4558.888877,-120.0330321,-49116.49009,-376.6626417,-1613.330301,0,,,,
287.2399998,1122,68.67953209,61.99477809,0,0,-1377.666269,0,-462.7635663,0,-53.9003917,165.1301105,-4229.117672,66.8742404,-49715.91042,241.9019817,-1864.908702,0,,,,
287.2479998,1122,-10.96545075,-36.12120876,0,0,-1012.712076,0,24.0894919,0,-67.86506436,-80.03997033,-4586.682922,-145.3608445,-50046.61826,-299.7161741,-1826.001035,0,,,,
287.2559998,1122,44.84262543,66.81055287,0,0,-1259.061327,0,-418.8796077,0,-89.51808304,58.03539982,-4371.54592,4.005281169,-50466.81393,-22.28488351,-1655.208808,0,,,,
287.2639998,1122,-6.188712636,-59.9748347,0,0,-1138.589236,0,-122.1127075,0,-65.66397407,51.12575488,-4349.443577,-70.04187506,-51022.23346,86.63447157,-1954.172245,0,,,,
287.2719998,1122,-6.971449785,30.25674059,0,0,-1017.855394,0,-114.5245303,0,-105.027625,-102.1354694,-4544.980315,-139.3975119,-51259.65369,-352.432501,-1604.541516,0,,,,
287.2799998,1122,52.77293964,46.61308158,0,0,-1334.249523,0,-427.0050332,0,-71.84207649,156.1464828,-4191.268822,45.39101273,-51840.29617,259.0079925,-1851.153788,0,,,,
287.2879998,1122,-34.74748165,-70.87773079,0,0,-955.8512407,0,66.07818645,0,-81.50542535,-91.43649973,-4520.32346,-165.1061575,-52165.65534,-287.9995764,-1802.722718,0,,,,
287.2959998,1122,29.50737219,48.90932389,0,0,-1208.235755,0,-391.6259481,0,-104.5581493,48.43218352,-4290.469018,-7.871856845,-52546.81529,-16.22783446,-1618.924722,0,,,,
287.3039998,1122,6.317266365,-46.45387909,0,0,-1124.547255,0,-123.6191754,0,-67.36539823,51.32722591,-4292.85929,-64.27242888,-53069.78858,72.74225616,-1938.71792,0,,,,
287.3119998,1122,-15.69194358,15.60649813,0,0,-986.6345866,0,-101.7167641,0,-109.7819846,-90.95870919,-4513.007783,-120.7483086,-53278.26566,-362.8523795,-1607.129846,0,,,,
287.3199998,1122,26.62611381,16.50745896,0,0,-1270.383937,0,-397.9658331,0,-91.44215763,153.8649519,-4136.556338,46.08728725,-53811.40913,270.097327,-1821.830919,0,,,,
287.3279998,1122,-33.49731782,-64.0998745,0,0,-909.8899059,0,77.99324567,0,-91.90998365,-98.34329177,-4470.543968,-173.2825678,-54096.15429,-292.6706161,-1765.160597,0,,,,
287.3359998,1122,21.75049924,47.07019713,0,0,-1163.189544,0,-378.3390003,0,-121.1057526,49.85235861,-4264.20888,-9.624277194,-54446.22584,-24.2250529,-1593.955364,0,,,,
287.3439998,1122,-16.99933165,-75.24886647,0,0,-1063.55237,0,-99.35263391,0,-75.91834272,39.52084417,-4258.964347,-72.25703098,-54945.31069,75.60072206,-1907.044779,0,,,,
287.3519998,1122,-26.82298434,-6.914153426,0,0,-927.5620395,0,-79.48868701,0,-104.9478974,-113.122481,-4479.032512,-138.0089596,-55131.6997,-380.5433195,-1576.463526,0,,,,
287.3599998,1122,31.02024797,8.697041148,0,0,-1223.357174,0,-384.7608336,0,-88.97744932,130.9061352,-4102.128328,20.97010619,-55637.98557,237.2940868,-1790.828607,0,,,,
287.3679998,1122,-5.861604474,-52.18492293,0,0,-885.3018783,0,82.95661991,0,-51.24742697,-112.3474704,-4438.950178,-181.4027822,-55903.41946,-329.1088735,-1751.072398,0,,,,
287.3759998,1122,46.84542967,59.46821384,0,0,-1151.488803,0,-366.8732123,0,-68.69720224,59.3042837,-4244.067812,12.09911726,-56221.37129,-60.27237481,-1616.172519,0,,,,
287.3839998,1122,-21.37476023,-68.42139208,0,0,-1050.20126,0,-80.51681781,0,-80.74428127,46.65705058,-4209.223124,-65.10490974,-56665.1823,55.94522375,-1922.311761,0,,,,
287.3919998,1122,-29.51913492,5.178551024,0,0,-916.1323913,0,-60.55596985,0,-115.4199284,-111.8032843,-4390.932679,-133.1776589,-56809.06976,-387.2385859,-1575.301677,0,,,,
287.3999998,1122,11.71043735,-16.33300647,0,0,-1188.79147,0,-351.5132122,0,-76.86136786,139.6606495,-3993.739131,50.36225039,-57278.50372,249.9770283,-1796.54279,0,,,,
287.4079998,1122,-48.87060264,-93.07820284,0,0,-813.2356432,0,125.7443923,0,-83.68871873,-131.0821463,-4270.243948,-189.9692832,-57501.73118,-294.4176746,-1717.781435,0,,,,
287.4159998,1122,41.28165492,62.70489775,0,0,-1084.791923,0,-344.1127767,0,-100.949312,32.10888344,-4025.902955,-16.24869115,-57796.13767,-40.19216352,-1552.311913,0,,,,
287.4239998,1122,-24.05377843,-77.58169123,0,0,-983.9658349,0,-63.08644614,0,-61.61778689,50.19572499,-3993.129161,-52.60171074,-58217.36559,57.22949916,-1886.56844,0,,,,
287.4319998,1122,-52.53471115,-29.28100583,0,0,-826.1674857,0,-31.76218248,0,-107.5072185,-110.4222782,-4151.195994,-127.0269971,-58324.24819,-381.2716516,-1533.081219,0,,,,
287.4399998,1122,15.91577631,-5.877386806,0,0,-1108.160612,0,-334.4338918,0,-102.5703373,134.4423826,-3720.331342,36.45520416,-58767.98305,249.5547455,-1735.208365,0,,,,
287.4479998,1122,-46.12322689,-83.46922016,0,0,-733.9298415,0,141.2256861,0,-105.7952496,-118.9168889,-3987.168746,-187.5152034,-58967.17026,-300.6037158,-1669.933482,0,,,,
287.4559998,1122,34.79921735,45.1640139,0,0,-993.5135246,0,-319.4185632,0,-110.1709679,44.20320744,-3715.601706,-13.70351221,-59224.07628,-29.73323218,-1495.63722,0,,,,
287.4639998,1122,-11.38822274,-58.67430313,0,0,-918.4946743,0,-50.93772378,0,-56.88768535,52.6204606,-3658.564321,-53.09543645,-59616.08055,72.74480284,-1826.242445,0,,,,
287.4719998,1122,-41.54121337,2.977759774,0,0,-787.386156,0,-30.12823614,0,-81.69880216,-102.7148009,-3819.166032,-110.8559177,-59705.42769,-373.456853,-1503.163372,0,,,,
287.4799998,1122,21.06338883,15.31604324,0,0,-1088.909769,0,-335.7138663,0,-69.93167536,155.2848177,-3386.361039,59.63250564,-60117.90825,257.4104106,-1730.270512,0,,,,
287.4879998,1123,-44.4702288,-64.75389175,0,0,-736.4653524,0,143.4044288,0,-85.99087714,-97.18617465,-3650.269704,-165.3922157,-60269.70967,-297.5216401,-1684.35224,0,,,,
287.4959998,1123,22.69865118,36.53588249,0,0,-977.8083028,0,-294.068832,0,-111.0389016,49.69805465,-3366.381581,-1.25090073,-60494.45302,-19.11413666,-1509.346876,0,,,,
287.5039998,1123,-62.50484156,-143.0857098,0,0,-753.4710936,0,175.5857037,0,-81.71028358,-20.6559756,-3282.457681,-144.7704849,-60872.28803,2.420712468,-1842.404966,0,,,,
287.5119998,1123,-134.7748066,-115.1678577,0,0,-354.9045647,0,496.5978584,0,-151.0284961,-388.0990238,-3598.946856,-391.644524,-60836.08655,-886.5664652,-1348.467645,0,,,,
287.5199998,1123,-40.08445353,-19.78080772,0,0,-724.1017814,0,-13.72886061,0,-149.4447495,-122.7239013,-3252.163858,-160.7701318,-61153.85249,-313.4591762,-1389.57169,0,,,,
287.5279998,1123,-44.39898577,-69.68560406,0,0,-730.1387244,0,75.32018792,0,-109.5478562,-70.39018515,-3198.505098,-145.2928758,-61479.26494,-160.1113146,-1614.07634,0,,,,
287.5359998,1123,18.87917813,24.524361,0,0,-946.4451881,0,-279.9097848,0,-99.08307027,76.93331547,-2917.00974,9.407262498,-61711.82325,100.6386189,-1525.940868,0,,,,
287.5439998,1123,-42.40459732,-72.14574105,0,0,-751.303472,0,33.17232629,0,-65.68874399,0.192905596,-2995.120933,-90.59889473,-61952.68274,-42.14106268,-1672.283823,0,,,,
287.5519998,1123,-29.63720521,-12.90247998,0,0,-714.3355669,0,-33.70652534,0,-103.3351765,-71.76107461,-3001.402465,-118.2984025,-62061.23507,-242.3367051,-1440.144499,0,,,,
287.5599998,1123,37.05068507,-3.12956536,0,0,-959.2320971,0,-284.2489293,0,-74.29682829,124.7961548,-2655.411879,31.2340067,-62392.32994,244.6533576,-1619.135552,0,,,,
287.5679998,1123,-55.00101466,-90.60622139,0,0,-617.9264847,0,151.9211166,0,-67.16376693,-121.2760016,-2955.850856,-168.6338271,-62496.74415,-312.8506724,-1564.012559,0,,,,
287.5759998,1123,12.83958263,27.9934825,0,0,-899.579679,0,-304.7331324,0,-92.73861363,40.26425716,-2653.062363,-11.49338836,-62699.24622,12.91323799,-1444.526555,0,,,,
287.5839998,1123,-31.91736202,-82.18257924,0,0,-764.947518,0,-6.661400812,0,-66.35374081,19.52175307,-2655.812871,-79.28818651,-62955.99098,21.21048176,-1700.809437,0,,,,
287.5919998,1123,-30.61165839,-11.38778942,0,0,-661.8484191,0,-6.610679788,0,-112.1638595,-95.07183429,-2782.039953,-119.447048,-62975.42397,-356.576534,-1406.412168,0,,,,
287.5999998,1123,35.14956255,7.727763423,0,0,-947.6673101,0,-295.7276629,0,-74.34762217,142.3808264,-2407.920043,54.46902888,-63301.02285,229.0517512,-1618.581219,0,,,,
287.6079998,1123,-45.51015004,-86.20251872,0,0,-589.0078834,0,172.0938284,0,-68.6144281,-114.0627958,-2696.856982,-161.0091907,-63379.72468,-303.144163,-1566.934638,0,,,,
287.6159998,1123,44.89425941,48.96279197,0,0,-860.918463,0,-284.213141,0,-104.9992709,40.32578882,-2434.455345,2.713427883,-63541.57049,-20.35007973,-1411.103098,0,,,,
287.6239998,1123,-30.33166768,-88.59971977,0,0,-737.892014,0,3.951485051,0,-67.22588133,42.76564667,-2409.871919,-56.93045578,-63829.57191,60.96412801,-1712.807079,0,,,,
287.6319998,1123,-61.72239468,-29.63360575,0,0,-592.3295005,0,21.81817144,0,-112.7027065,-126.042951,-2551.143397,-149.3301129,-63845.20957,-372.09741,-1361.462071,0,,,,
287.6399998,1123,38.136782,17.24120566,0,0,-911.9952386,0,-300.6311483,0,-72.12839635,135.0265841,-2169.642035,43.18573221,-64159.7251,224.971981,-1572.553178,0,,,,
287.6479998,1123,-52.27393632,-81.16126547,0,0,-557.3630836,0,171.9735542,0,-66.38337202,-91.04562305,-2485.110142,-138.634295,-64202.79714,-311.7318727,-1551.119425,0,,,,
287.6559998,1123,35.39215376,54.14758834,0,0,-812.8337829,0,-279.2845839,0,-99.94961865,38.21738214,-2233.916175,10.87751553,-64328.36605,-36.06351537,-1374.071055,0,,,,
287.6639998,1123,19.46540227,-48.70318615,0,0,-729.7582914,0,-0.905136016,0,-34.76510971,54.42794941,-2193.745287,-33.99669303,-64578.79717,71.44168003,-1700.248054,0,,,,
287.6719998,1123,-29.91193187,6.49347071,0,0,-587.0970109,0,36.10547635,0,-92.49689605,-97.76069032,-2355.955993,-100.6368653,-64513.30868,-373.5587915,-1372.788375,0,,,,
287.6799998,1123,12.7988712,11.19432337,0,0,-871.3220123,0,-266.327181,0,-86.81471238,144.6520547,-1938.797904,65.7796742,-64799.42495,261.2378658,-1580.208474,0,,,,
287.6879998,1123,-71.48355449,-95.36157893,0,0,-487.9249941,0,216.7335522,0,-79.61490966,-114.403455,-2207.517822,-168.8042478,-64848.72917,-282.5757138,-1518.440337,0,,,,
287.6959998,1123,5.921499282,34.12144745,0,0,-735.6748344,0,-249.2368363,0,-110.948414,15.37106109,-1947.309677,-20.64305296,-64964.20623,-30.35152802,-1317.899517,0,,,,
287.7039998,1123,-26.23738915,-85.57957759,0,0,-642.5720758,0,15.68612893,0,-40.47895304,37.11022805,-1916.007515,-49.80470166,-65222.61863,85.04746279,-1642.048824,0,,,,
287.7119998,1123,-38.13551622,-21.74669723,0,0,-487.9304716,0,51.16472135,0,-75.29550708,-124.8934153,-2088.659612,-133.050866,-65169.32715,-356.7703275,-1280.996255,0,,,,
287.7199998,1123,35.22337051,7.534019664,0,0,-794.9667083,0,-269.3149003,0,-81.50672471,124.3273287,-1688.692982,34.41767088,-65437.79193,281.9864019,-1467.039034,0,,,,
287.7279998,1123,-64.42568245,-101.0752034,0,0,-438.8420924,0,215.0880565,0,-65.30388971,-112.7568707,-2021.351205,-158.664104,-65443.42181,-274.1600027,-1435.822989,0,,,,
287.7359998,1123,-26.75991977,2.71331139,0,0,-666.4272629,0,-218.1758066,0,-87.21563951,18.53934499,-1789.98176,-14.51307087,-65518.5581,-9.629002931,-1239.223836,0,,,,
287.7439998,1124,-64.44383401,-118.4411914,0,0,-549.1050157,0,61.90403159,0,-77.23960524,15.02374557,-1723.839358,-90.75306641,-65757.8225,118.5852699,-1509.055337,0,,,,
287.7519998,1124,-60.2458877,-48.88497754,0,0,-400.5528292,0,94.99308826,0,-106.6245659,-138.0076618,-1916.780502,-142.6119627,-65686.09015,-351.0237379,-1146.677739,0,,,,
287.7599998,1124,21.79533784,-7.267858173,0,0,-703.7783874,0,-232.7594569,0,-77.0973698,130.8584485,-1539.388068,55.89703989,-65930.11707,289.7807059,-1349.79904,0,,,,
287.7679998,1124,-72.10739307,-96.74377425,0,0,-326.0969917,0,247.0613602,0,-88.3084481,-111.9471777,-1851.028636,-163.4472076,-65925.07955,-254.4658253,-1289.877996,0,,,,
287.7759998,1124,-5.419334341,27.8059096,0,0,-568.1525169,0,-203.6232987,0,-91.59281738,29.60798829,-1631.601917,2.947336558,-65981.53578,-5.764032715,-1091.7588,0,,,,
287.7839998,1124,-7.966350829,-76.44055724,0,0,-492.9570578,0,43.86493306,0,-31.44651288,42.45293872,-1610.725406,-39.76914253,-66176.36596,113.5235282,-1401.993766,0,,,,
287.7919998,1124,-50.28234858,-38.20400083,0,0,-332.7408919,0,84.8813196,0,-76.43886306,-121.2988291,-1830.073692,-119.8460617,-66066.74619,-361.3667367,-1061.965247,0,,,,
287.7999998,1124,-6.335569068,-16.20796486,0,0,-622.2625502,0,-233.1615848,0,-70.04816944,123.4155855,-1436.642315,44.38875226,-66283.35404,276.1309359,-1254.371778,0,,,,
287.8079998,1124,-57.09814783,-77.88673767,0,0,-280.4259116,0,222.2436293,0,-70.33389932,-122.3139742,-1749.287123,-165.5354149,-66244.71161,-276.8747181,-1210.304284,0,,,,
287.8159998,1124,17.35864957,41.81125988,0,0,-535.3495012,0,-233.8948686,0,-80.52848412,31.45431397,-1551.737367,16.35412984,-66276.59762,-45.98039091,-1051.389924,0,,,,
287.8239998,1124,-30.58926451,-92.68858869,0,0,-445.7762685,0,28.84872419,0,-38.80222094,41.70845556,-1517.928876,-32.56757742,-66452.56413,70.9635628,-1376.06084,0,,,,
287.8319998,1124,-60.23386548,-39.53630622,0,0,-290.4467145,0,67.05504944,0,-98.13215219,-139.3438909,-1704.613555,-129.5937841,-66318.19554,-402.0875319,-1023.744063,0,,,,
287.8399998,1124,17.21697289,-2.552056626,0,0,-592.9024635,0,-259.9153911,0,-74.70297462,110.227041,-1307.973777,45.79872529,-66523.94762,225.5837829,-1227.968854,0,,,,
287.8479998,1124,-64.84023727,-97.28248862,0,0,-238.9644184,0,211.5359785,0,-61.11782762,-126.2708591,-1623.864194,-156.8278178,-66471.24621,-322.6801851,-1204.83527,0,,,,
287.8559998,1124,-3.409826573,20.28511169,0,0,-491.9436115,0,-244.7901382,0,-110.9532343,12.22125488,-1392.785141,-10.46802915,-66470.73644,-65.71000737,-1018.237309,0,,,,
287.8639998,1124,-24.31415597,-73.81622432,0,0,-434.9239706,0,-2.223506956,0,-54.234038,34.53266811,-1359.511462,-46.38153482,-66621.69366,55.57041654,-1349.738366,0,,,,
287.8719998,1124,-50.90227176,-26.94215183,0,0,-302.0407594,0,41.77437013,0,-68.54890589,-120.8483937,-1589.311314,-109.1709216,-66458.64305,-425.017602,-1048.340413,0,,,,
287.8799998,1124,10.51441824,-15.2163488,0,0,-605.3785216,0,-271.6227984,0,-77.09346106,122.3534149,-1192.076672,42.03142833,-66628.57972,215.0045045,-1256.069263,0,,,,
287.8879998,1124,-70.08040224,-92.21301538,0,0,-253.7460332,0,203.8153274,0,-73.37162322,-124.6857273,-1495.320626,-169.7827372,-66552.07345,-338.2726565,-1222.965216,0,,,,
287.8959998,1124,-18.90811129,8.105219842,0,0,-494.8690821,0,-238.1869375,0,-103.0601824,10.41113668,-1276.061484,-7.902430394,-66536.34985,-91.06522575,-1047.131771,0,,,,
287.9039998,1124,-69.19203611,-121.2754942,0,0,-395.2829638,0,25.80420124,0,-95.56461662,8.289415902,-1208.90512,-80.74625812,-66674.73364,45.24181426,-1343.47031,0,,,,
287.9119998,1124,-71.33094716,-41.28903274,0,0,-252.4196502,0,58.32353287,0,-127.8847263,-162.2864868,-1399.613905,-162.8001782,-66498.71363,-432.7894194,-994.9548062,0,,,,
287.9199998,1124,27.9845941,-12.6192517,0,0,-585.9317312,0,-282.7561804,0,-85.73825606,106.5329999,-1034.440209,38.66962132,-66650.36251,199.0786417,-1232.523415,0,,,,
287.9279998,1124,-62.90656795,-106.8663131,0,0,-237.9094007,0,194.7850447,0,-78.40538672,-132.1574311,-1359.407781,-167.8875326,-66541.66583,-356.3326509,-1222.210251,0,,,,
287.9359998,1124,-13.39946739,21.24314204,0,0,-495.2792313,0,-249.3873555,0,-102.214441,0.668089406,-1144.362839,-15.60216766,-66499.50265,-114.0442282,-1045.032437,0,,,,
287.9439998,1124,-38.68218636,-81.88187543,0,0,-445.8606918,0,-3.832976418,0,-48.86756175,26.57862919,-1132.598194,-46.16289309,-66629.95634,12.47502376,-1398.455872,0,,,,
287.9519998,1124,-62.24721639,-27.99397996,0,0,-304.1324257,0,40.29548496,0,-95.75540855,-137.5916493,-1362.035539,-128.7227037,-66427.55459,-464.8388272,-1079.694703,0,,,,
287.9599998,1124,0.002457055,-18.55027737,0,0,-603.9849651,0,-278.4828518,0,-93.78293985,102.4965982,-979.0880246,36.07683699,-66550.37042,193.8615783,-1281.871298,0,,,,
287.9679998,1124,-60.18495807,-101.2068031,0,0,-258.9278247,0,192.4573918,0,-66.77537056,-139.7971272,-1312.805102,-166.0218765,-66442.67311,-348.7894881,-1263.093477,0,,,,
287.9759998,1124,-5.252698969,8.632519303,0,0,-505.1995229,0,-248.7159206,0,-82.5159905,3.169359242,-1120.387004,-11.087329,-66387.98518,-112.3821674,-1086.098839,0,,,,
287.9839998,1124,-78.50554651,-121.0460093,0,0,-404.2421754,0,22.99575847,0,-63.35436876,2.59784702,-1081.755596,-72.21355366,-66496.03486,25.26661873,-1398.053464,0,,,,
287.9919998,1124,-85.20747098,-44.17749768,0,0,-258.2784005,0,60.46186982,0,-116.7715415,-174.8129529,-1293.180132,-156.1495418,-66292.30884,-454.9300586,-1047.376811,0,,,,
287.9999998,1125,17.19449334,-10.23617759,0,0,-597.3603575,0,-284.3127136,0,-97.0128891,94.49964497,-934.9256353,39.91184761,-66399.59115,185.2566287,-1268.746868,0,,,,
288.0079998,1125,-54.78322433,-90.63912653,0,0,-268.7861753,0,184.8801093,0,-50.73745468,-132.958263,-1294.752665,-144.9105119,-66260.49446,-362.3664042,-1280.999308,0,,,,
288.0159998,1125,-13.3745126,14.42860852,0,0,-510.6506676,0,-252.506569,0,-77.26936952,3.358361391,-1104.838808,3.181338816,-66182.98102,-114.339551,-1105.722375,0,,,,
288.0239998,1125,-67.43402859,-121.1953878,0,0,-407.5904469,0,18.61312166,0,-89.01030617,6.571753708,-1059.111842,-70.5826431,-66266.79336,41.92832823,-1410.853028,0,,,,
288.0319998,1125,-64.993296,-38.32423866,0,0,-271.6221505,0,56.55957554,0,-111.8657717,-159.1782499,-1282.886245,-143.1212994,-66039.15241,-443.131074,-1070.94191,0,,,,
288.0399998,1125,-0.162402788,-15.4015494,0,0,-597.9657701,0,-277.2375055,0,-82.76532861,103.816481,-921.7771311,49.15911117,-66140.3039,190.341006,-1288.367236,0,,,,
288.0479998,1125,-88.80080629,-108.2721243,0,0,-236.4450698,0,212.0397879,0,-92.38086312,-139.4793155,-1251.622256,-167.037611,-65999.14819,-353.8357975,-1269.809332,0,,,,
288.0559998,1125,-2.00605634,33.75456721,0,0,-506.666207,0,-241.7031293,0,-105.2958544,0.001568972,-1053.470994,-9.905235644,-65906.5013,-120.9978739,-1088.672961,0,,,,
288.0639998,1125,-33.88064973,-80.15074602,0,0,-452.2100838,0,5.367935123,0,-69.58437629,19.64043221,-1032.23087,-46.162092,-65972.07026,22.39506046,-1435.460274,0,,,,
288.0719998,1125,-66.18931909,-34.51860165,0,0,-289.9155546,0,63.41263143,0,-96.41504859,-149.0236134,-1261.375998,-126.5467506,-65723.04119,-459.2769929,-1118.540505,0,,,,
288.0799998,1125,4.102878724,-8.943177033,0,0,-611.8543659,0,-274.9829885,0,-66.3298423,101.6493096,-870.7222521,41.75803423,-65803.45308,180.2046562,-1326.090619,0,,,,
288.0879998,1125,-67.01217664,-84.55658728,0,0,-283.5358217,0,195.3523924,0,-62.76237463,-133.0757772,-1201.2995,-152.7809095,-65630.9556,-361.2738664,-1328.173298,0,,,,
288.0959998,1125,-11.98179368,24.99851366,0,0,-524.9521187,0,-235.2237788,0,-87.88023343,6.737839552,-999.9430146,10.33923722,-65501.07754,-119.0820203,-1153.239755,0,,,,
288.1039998,1125,-29.79719851,-90.82401147,0,0,-453.3451823,0,23.34537915,0,-59.95342798,15.40216142,-941.2668577,-50.39716536,-65552.19498,33.32349813,-1469.641778,0,,,,
288.1119998,1125,-52.79652484,-28.41003672,0,0,-307.8398187,0,80.31611237,0,-95.625206,-146.0449724,-1167.975183,-124.0761079,-65288.32512,-452.459782,-1150.294936,0,,,,
288.1199998,1125,-12.16308063,-9.120477288,0,0,-617.1863567,0,-243.6822581,0,-88.82620545,111.5445835,-777.1096011,54.75459916,-65349.28101,196.8597848,-1358.137204,0,,,,
288.1279998,1125,-65.36760644,-80.09324784,0,0,-276.186778,0,233.1923949,0,-77.58697455,-137.1236053,-1083.330671,-155.4840268,-65166.4005,-336.6823057,-1337.428806,0,,,,
288.1359998,1125,-13.7111634,27.97700162,0,0,-524.9946019,0,-205.5543569,0,-81.93058155,0.749304466,-888.4177282,10.92298125,-65021.58016,-107.3385886,-1166.769201,0,,,,
288.1439998,1125,-59.22419989,-102.5615865,0,0,-448.5111197,0,46.81088572,0,-59.515578,15.64799237,-837.5597154,-40.96800236,-65061.68969,45.83571921,-1495.082253,0,,,,
288.1519998,1125,-65.1635711,-40.82100336,0,0,-281.0443602,0,103.9055674,0,-96.29376503,-160.304498,-1045.100165,-128.2483009,-64791.0698,-438.4140613,-1157.334536,0,,,,
288.1599998,1125,-14.64922187,-24.06799224,0,0,-574.9783539,0,-222.0915402,0,-80.29105388,91.59492557,-635.4283853,44.97479322,-64839.02286,212.0821088,-1345.041235,0,,,,
288.1679998,1125,-72.79120655,-87.0844633,0,0,-236.3487134,0,243.3435215,0,-80.81687103,-151.8358223,-936.2200875,-169.1208606,-64646.85658,-323.071266,-1314.012882,0,,,,
288.1759998,1125,-8.622500941,34.7963696,0,0,-496.1669337,0,-208.6556994,0,-80.49520289,-0.550803161,-752.4927869,7.44623541,-64484.535,-114.1124996,-1152.70002,0,,,,
288.1839998,1125,-55.71755733,-103.9086644,0,0,-414.2800004,0,48.12430731,0,-49.60427215,16.99026357,-692.248509,-37.71770061,-64498.11067,43.36094998,-1478.465036,0,,,,
288.1919998,1125,-58.20773365,-26.6644214,0,0,-263.4970238,0,98.49763727,0,-100.3207171,-168.262604,-892.8244237,-125.1512006,-64202.32891,-442.872508,-1130.409795,0,,,,
288.1999998,1125,-3.114209119,-16.27938267,0,0,-584.0905463,0,-234.0299346,0,-74.63633964,103.9705792,-513.9535376,73.35948106,-64214.15379,190.0922256,-1356.667954,0,,,,
288.2079998,1125,-106.4249691,-140.2603782,0,0,-202.5711439,0,262.3403448,0,-87.09261166,-150.5775629,-805.849094,-162.1247415,-64001.76238,-331.1310246,-1326.423473,0,,,,
288.2159998,1125,-38.75473165,5.597242725,0,0,-441.3530358,0,-191.0962846,0,-126.952657,-38.49397226,-571.7695587,-26.58562789,-63845.53663,-116.7354138,-1106.080109,0,,,,
288.2239998,1125,-63.51912453,-94.00530783,0,0,-378.4735791,0,51.80838445,0,-79.78341869,0.740215799,-523.2701574,-45.82769892,-63844.99203,32.3560846,-1443.049738,0,,,,
288.2319998,1125,-96.52312943,-57.26740552,0,0,-197.1176124,0,118.8762524,0,-105.6772582,-171.150624,-744.5008162,-132.4968244,-63525.8307,-451.224401,-1111.638361,0,,,,
288.2399998,1125,-16.35632387,-27.04550264,0,0,-514.0040843,0,-226.1477782,0,-84.32321151,79.24930964,-338.6654271,39.22994298,-63541.89705,183.8646865,-1302.542673,0,,,,
288.2479998,1125,-94.27433174,-117.2699662,0,0,-165.3982661,0,256.8358353,0,-78.89378588,-154.8819665,-648.1921975,-166.8172229,-63322.66425,-336.8912686,-1287.772553,0,,,,
288.2559998,1126,-39.49242579,5.663046105,0,0,-412.9206239,0,-199.8968156,0,-119.3013097,-24.99869723,-442.3652138,-16.63189519,-63141.23271,-115.0823249,-1093.800202,0,,,,
288.2639998,1126,-38.7369106,-91.01632098,0,0,-364.6850542,0,29.39645846,0,-74.02140834,7.259283606,-400.9514939,-39.2162758,-63137.32527,42.73812068,-1437.899625,0,,,,
288.2719998,1126,-63.61522186,-38.7322015,0,0,-202.423011,0,98.40418837,0,-83.23211766,-156.856453,-644.830788,-109.2427104,-62809.55823,-441.0772445,-1124.754657,0,,,,
288.2799998,1126,-22.68483964,-26.07612686,0,0,-514.6518974,0,-235.7506531,0,-95.60184224,92.61375204,-240.5194005,60.3255839,-62803.60853,197.1134165,-1318.915757,0,,,,
288.2879998,1126,-87.11221748,-112.86258,0,0,-160.734327,0,254.9586082,0,-106.007483,-151.0978565,-548.1288676,-151.1752092,-62577.1047,-329.8454226,-1298.649821,0,,,,
288.2959998,1126,-13.93872774,21.58353525,0,0,-407.2223762,0,-188.1206786,0,-103.7071816,-14.6813068,-351.4356724,3.457419237,-62383.5008,-122.9368701,-1104.845513,0,,,,
288.3039998,1126,-44.24004774,-94.85145127,0,0,-352.3245183,0,53.36916255,0,-58.19584312,15.29263692,-295.6703511,-34.16633611,-62363.18992,42.79315646,-1436.939308,0,,,,
288.3119998,1126,-51.07638234,-30.56877796,0,0,-195.6797003,0,112.8898448,0,-75.71048551,-154.789747,-532.0589992,-113.6384609,-62030.78797,-446.149094,-1112.358741,0,,,,
288.3199998,1126,-9.259773203,-20.71503787,0,0,-506.3556603,0,-229.0171586,0,-53.51265169,102.8759264,-138.4010732,65.45164828,-62020.35298,183.1693377,-1316.896551,0,,,,
288.3279998,1126,-118.437709,-143.8408838,0,0,-134.6052464,0,265.1588797,0,-86.73995753,-156.9935902,-436.4969751,-163.230803,-61786.8564,-322.88761,-1285.327242,0,,,,
288.3359998,1126,-43.26658555,-8.413230983,0,0,-366.2669324,0,-181.8811258,0,-131.2706977,-40.83262721,-217.5884393,-29.02099912,-61589.31153,-111.7772374,-1061.02313,0,,,,
288.3439998,1126,-58.06172736,-110.9937265,0,0,-303.4297581,0,56.80253249,0,-81.57996006,-5.163740605,-161.0615074,-63.10851417,-61567.48643,47.31897376,-1388.458068,0,,,,
288.3519998,1126,-62.26626211,-41.31034247,0,0,-149.9096797,0,110.3436929,0,-101.1318058,-172.1963009,-415.6651528,-135.5944098,-61221.73563,-443.4904147,-1069.441966,0,,,,
288.3599998,1126,10.26302048,-6.759774934,0,0,-476.5501737,0,-242.7202276,0,-75.44101866,95.47065631,-30.07292856,49.97733999,-61192.35256,181.7488349,-1276.407699,0,,,,
288.3679998,1126,-55.3805038,-101.1575121,0,0,-132.6478097,0,245.3952482,0,-69.55718538,-138.1798454,-357.9928428,-155.7776117,-60938.03611,-326.2353818,-1272.225979,0,,,,
288.3759998,1126,16.7125452,36.7356819,0,0,-398.4122339,0,-209.6370519,0,-78.69175143,-4.94740215,-190.4916518,16.11164184,-60702.90854,-120.9105461,-1095.5656,0,,,,
288.3839998,1126,-36.96139374,-78.21984538,0,0,-346.4541768,0,34.60095847,0,-29.17280548,33.45902022,-148.9120532,-15.32904555,-60651.79471,46.31724861,-1442.444346,0,,,,
288.3919998,1126,-48.43221817,-23.47294689,0,0,-184.369151,0,100.3821083,0,-78.02079269,-138.8385778,-406.1138914,-105.823121,-60296.49209,-434.6210652,-1113.440828,0,,,,
288.3999998,1126,19.72318178,0.504351609,0,0,-509.0061025,0,-252.3505328,0,-74.11354456,120.8214821,-34.483668,82.01090461,-60264.09137,194.8873528,-1317.19214,0,,,,
288.4079998,1126,-81.49227913,-107.5799789,0,0,-143.5320393,0,246.6459874,0,-66.06235465,-121.1707997,-369.6477607,-136.2897353,-60013.67763,-306.4115457,-1308.284789,0,,,,
288.4159998,1126,39.30130092,97.52942748,0,0,-536.3008432,0,-479.980185,0,-95.92481136,79.7117861,-90.7995854,101.3920649,-59751.31821,21.09507516,-986.5330046,0,,,,
288.4239998,1126,22.57150987,25.64682784,0,0,-562.8628206,0,-408.9151342,0,-80.47035233,149.6136111,26.93539176,107.7842826,-59681.26932,262.6087128,-1230.621597,0,,,,
288.4319998,1126,-91.92076314,-66.47839931,0,0,-103.9263672,0,163.2160188,0,-102.4169251,-180.4460742,-416.935151,-166.1751326,-59366.64122,-462.2009996,-1106.644901,0,,,,
288.4399998,1126,-7.572582536,-35.3083221,0,0,-408.6305743,0,-141.4654321,0,-69.85987215,73.55712428,-58.94050433,17.34488725,-59313.90154,131.7729269,-1339.593273,0,,,,
288.4479998,1126,-58.07104038,-62.42844709,0,0,-187.5157318,0,111.3344851,0,-71.78930498,-84.67105464,-290.5455765,-98.87338187,-59022.81791,-253.4850376,-1229.701142,0,,,,
288.4559998,1126,-56.27774614,-22.93153321,0,0,-290.4492843,0,-116.7176446,0,-101.0050113,-28.39410346,-166.4596778,-32.71975519,-58810.63797,-151.5876716,-1113.213145,0,,,,
288.4639998,1126,-32.18742088,-91.05142451,0,0,-404.1308982,0,-102.3028389,0,-65.80982324,113.0192585,157.5612297,20.30874849,-58806.24229,298.8309462,-1443.433611,0,,,,
288.4719998,1126,-7.188101472,44.19460811,0,0,-336.8677843,0,-215.1921004,0,-78.3387751,-20.90899348,51.72686209,-4.803289377,-58418.74937,-116.2812404,-998.9714244,0,,,,
288.4799998,1126,47.18078191,108.9701183,0,0,-611.0808983,0,-601.7012175,0,-75.93878079,178.1166477,304.4798645,169.9028657,-58267.36499,297.0194805,-1033.61821,0,,,,
288.4879998,1126,-11.95906287,-9.031965359,0,0,-373.1331481,0,-192.3260122,0,-69.056628,56.67615606,121.7254614,24.08612607,-58088.97813,106.7426852,-1199.232172,0,,,,
288.4959998,1126,-38.51592037,-18.37345888,0,0,-275.8221077,0,-107.4233938,0,-88.00680586,-13.38047357,69.98709978,-24.1028158,-57833.6794,-56.76283556,-1107.235064,0,,,,
288.5039998,1126,-96.05896997,-122.9295873,0,0,-92.7604889,0,202.6087906,0,-118.1015668,-88.68645944,15.45839866,-129.7578852,-57662.4084,-149.7122893,-1235.672661,0,,,,
288.5119998,1127,-47.30173162,-20.99573752,0,0,-137.3169472,0,22.63536962,0,-130.1919063,-94.14185862,48.65851612,-90.28836279,-57364.01265,-245.2855166,-1004.836671,0,,,,
288.5199998,1127,-8.183303125,-32.37815982,0,0,-299.8109955,0,-120.3783107,0,-72.97146066,62.73013159,299.7811049,19.15275855,-57232.62242,113.997387,-1177.664509,0,,,,
288.5279998,1127,-88.41811742,-113.3907819,0,0,16.47767172,0,286.1126444,0,-89.64747171,-151.5170842,57.41865488,-169.9453418,-56931.55811,-309.8896425,-1107.06719,0,,,,
288.5359998,1127,-20.30058592,28.69065366,0,0,-250.1643326,0,-178.0176663,0,-99.36216035,10.84231554,342.5168895,9.674118357,-56701.37848,-15.64251535,-948.191547,0,,,,
288.5439998,1127,-53.50981401,-85.98022885,0,0,-117.1090045,0,135.9980286,0,-62.95479252,1.320942679,339.4642857,-50.34603108,-56575.128,7.412849132,-1209.619546,0,,,,
288.5519998,1127,-69.96234918,-38.27898555,0,0,-1.44457789,0,131.9027525,0,-106.8404142,-125.6113255,212.9910342,-117.4351359,-56217.19378,-329.2057766,-898.1377825,0,,,,
288.5599998,1127,-36.03909268,-29.74726814,0,0,-258.9239674,0,-157.5398511,0,-89.67702113,81.33403969,602.1072748,33.02662444,-56126.41273,197.1031866,-1052.129739,0,,,,
288.5679998,1127,-99.40111084,-108.8030466,0,0,78.46724614,0,306.1699257,0,-92.40400903,-139.4694147,326.5644931,-164.5281323,-55855.63707,-265.3549638,-1019.098946,0,,,,
288.5759998,1127,-27.61178713,26.90740087,0,0,-155.65685,0,-148.0955034,0,-110.4797488,-5.31653925,552.1039112,-12.19868147,-55610.61549,-56.59479722,-813.2403085,0,,,,
288.5839998,1127,-58.6487294,-105.1373364,0,0,-74.87484665,0,102.1478135,0,-68.15943433,11.99429947,624.9925727,-51.85833656,-55534.60492,70.5295204,-1102.4622,0,,,,
288.5919998,1127,-68.59340145,-51.29578244,0,0,81.70849961,0,146.0231154,0,-108.3698499,-147.0818985,426.0173377,-128.2576907,-55169.21715,-355.3119438,-774.3520543,0,,,,
288.5999998,1127,-9.722091067,0.1836363,0,0,-219.8914019,0,-196.2105238,0,-95.54919104,99.91282743,835.0245776,62.93595085,-55070.61482,216.9875449,-946.3584701,0,,,,
288.6079998,1127,-81.91248964,-85.66852958,0,0,119.275016,0,290.6637,0,-67.09144965,-121.3116623,541.796088,-137.9188953,-54785.60505,-250.799878,-939.3813378,0,,,,
288.6159998,1127,-14.45792948,27.09676147,0,0,-102.266616,0,-151.983306,0,-77.28866096,-6.265443604,738.216053,-4.615275614,-54506.52973,-71.59413267,-726.4833876,0,,,,
288.6239998,1127,-43.7374647,-91.53210989,0,0,-47.97153486,0,79.71918855,0,-57.84509893,21.09021954,826.4763929,-41.68387814,-54413.61837,88.02724046,-1042.258651,0,,,,
288.6319998,1127,-65.94139002,-27.43370537,0,0,122.0683724,0,149.7663617,0,-83.17572702,-153.4480611,575.6360796,-132.867799,-54012.00492,-392.6948049,-715.6963035,0,,,,
288.6399998,1127,-11.55212788,0.846907869,0,0,-195.126471,0,-211.5429547,0,-73.42071674,109.1007218,979.597052,71.26411973,-53897.44422,195.9978724,-901.6225796,0,,,,
288.6479998,1127,-99.90817466,-109.3370905,0,0,168.5169808,0,295.8392258,0,-88.85168695,-120.2515888,680.4794362,-135.8144369,-53608.07689,-263.2831862,-892.5499318,0,,,,
288.6559998,1127,-17.09083127,31.58065279,0,0,-42.20855203,0,-152.0463902,0,-96.50456614,-14.92788147,892.6028358,-16.60555569,-53318.12826,-81.69901579,-646.1288045,0,,,,
288.6639998,1127,-30.89210012,-71.58005383,0,0,-15.63577014,0,59.31022096,0,-51.24400777,35.6653739,977.3282249,-27.9152788,-53219.13283,88.09107351,-980.8810448,0,,,,
288.6719998,1127,-62.11623099,-25.37341329,0,0,160.9580892,0,136.741277,0,-85.47683185,-140.5473624,693.9490841,-111.5818517,-52799.02537,-398.5568806,-671.3190074,0,,,,
288.6799998,1127,-0.934821673,-1.146051383,0,0,-144.9060388,0,-238.6924218,0,-71.98517474,101.6062187,1123.061307,59.40579588,-52668.81795,210.2917004,-830.768174,0,,,,
288.6879998,1127,-92.47105753,-113.2449411,0,0,209.7610287,0,262.4337838,0,-67.32552883,-131.3307095,808.205474,-152.8225822,-52377.30577,-261.5339562,-826.3456317,0,,,,
288.6959998,1127,-47.68279098,12.77485204,0,0,-7.44090395,0,-187.7919419,0,-94.98576461,-16.91403661,980.8505074,-11.79496696,-52064.62663,-91.32367381,-599.8327448,0,,,,
288.7039998,1127,-81.75941716,-107.8101527,0,0,47.670782,0,34.84336179,0,-84.2422607,25.14087517,1072.468521,-37.01486634,-51942.1813,104.4106732,-914.0413753,0,,,,
288.7119998,1127,-64.39894043,-30.03144439,0,0,224.9784725,0,118.3636483,0,-110.2592022,-158.0210254,783.4461819,-133.0969494,-51522.89165,-383.7235649,-579.5299559,0,,,,
288.7199998,1127,29.43993253,24.26186132,0,0,-126.5008467,0,-272.0315509,0,-58.84297644,119.4703446,1172.97516,78.35520212,-51381.54939,212.9831855,-768.8336177,0,,,,
288.7279998,1127,-83.29164071,-113.7489665,0,0,242.292039,0,250.476553,0,-61.02441192,-108.9943314,835.998395,-132.3175883,-51070.18001,-254.5783083,-783.1093005,0,,,,
288.7359998,1127,-35.01675659,20.01207294,0,0,50.65563596,0,-185.0124437,0,-111.0655074,-23.42372914,1024.637132,-25.75181451,-50751.77646,-81.2432965,-524.4068637,0,,,,
288.7439998,1127,-69.99963204,-80.33061226,0,0,83.83633667,0,29.0274976,0,-76.95727737,29.66835982,1111.566466,-40.18326486,-50626.24601,112.4882669,-841.0416303,0,,,,
288.7519998,1127,-100.1032998,-48.26478856,0,0,281.9022207,0,134.1960438,0,-97.70210114,-154.3593395,810.4326445,-133.1493931,-50201.78724,-385.8622402,-515.7742022,0,,,,
288.7599998,1127,-15.36293757,-11.40637845,0,0,-40.58875919,0,-248.9208132,0,-73.65489422,103.279666,1225.312211,58.47666947,-50060.40979,214.8943292,-672.4185252,0,,,,
288.7679998,1128,-104.9081791,-128.4266859,0,0,321.7219036,0,265.9143599,0,-70.43248317,-118.2913894,889.308705,-145.7370619,-49747.74834,-244.7684804,-675.1921535,0,,,,
288.7759998,1128,-44.34349587,5.112792907,0,0,125.5398644,0,-168.4080385,0,-95.3303083,-22.58857117,1055.511646,-21.15338757,-49422.27,-83.30712756,-425.0507469,0,,,,
288.7839998,1128,-54.71480307,-74.3526566,0,0,140.0878576,0,32.37155826,0,-76.6956179,36.41895928,1119.635866,-36.38867183,-49288.39686,108.440678,-743.9564484,0,,,,
288.7919998,1128,-78.21748303,-25.12652423,0,0,323.8409754,0,131.30095,0,-109.3687112,-135.7114595,753.7870237,-119.815341,-48848.06034,-380.9489804,-435.9738727,0,,,,
288.7999998,1128,6.175054942,19.85811688,0,0,-1.73518312,0,-254.1376208,0,-65.79646284,122.840999,1120.613279,78.80193773,-48695.73116,230.5281178,-597.1757103,0,,,,
288.8079998,1128,-84.24722929,-90.46987104,0,0,353.1218336,0,255.1034883,0,-69.23826442,-103.0958238,759.107827,-138.1721033,-48380.60259,-230.0905625,-591.2753091,0,,,,
288.8159998,1128,-40.23091684,24.43019246,0,0,151.4663783,0,-183.5250168,0,-99.22120474,-1.22469927,872.4946794,-3.346036623,-48048.3043,-77.59901231,-355.2229568,0,,,,
288.8239998,1128,-44.09244866,-63.50936234,0,0,171.7988561,0,18.31282401,0,-52.77651061,50.08116974,917.9148223,-21.2500043,-47914.16794,119.5706212,-676.3690865,0,,,,
288.8319998,1128,-73.88078631,-25.31665188,0,0,377.9619176,0,124.8118436,0,-84.95219224,-137.6311487,565.8753643,-128.1492722,-47473.23933,-381.4610665,-345.7761843,0,,,,
288.8399998,1128,-19.3244273,1.92261442,0,0,54.64199146,0,-273.5100339,0,-69.80273076,115.7221223,932.2684984,68.77670267,-47315.78376,211.8883668,-505.4563884,0,,,,
288.8479998,1128,-81.07473078,-82.90137759,0,0,393.6226934,0,227.4861717,0,-63.89510173,-114.7539359,560.3270083,-146.2745008,-46999.08266,-246.8328211,-514.2150813,0,,,,
288.8559998,1128,-10.76285897,50.74355352,0,0,184.7461691,0,-206.7828341,0,-83.18753842,-2.289277127,660.8443858,-5.285986124,-46666.7565,-89.72431863,-285.0655312,0,,,,
288.8639998,1128,-39.8900584,-57.45635975,0,0,189.6268122,0,-12.32356737,0,-62.2263612,59.83960489,691.9447492,-11.53107884,-46530.90562,112.3955144,-626.0765918,0,,,,
288.8719998,1128,-74.21430689,-21.60110788,0,0,387.9413427,0,103.6047488,0,-99.08569172,-139.1200804,326.2371357,-126.1265694,-46085.54894,-388.8057974,-309.3046968,0,,,,
288.8799998,1128,-14.02244101,16.87407945,0,0,64.03009631,0,-277.0407717,0,-74.90461256,115.7097185,675.5961611,68.61986967,-45934.78174,201.1646377,-469.5028508,0,,,,
288.8879998,1128,-69.17321138,-62.01195882,0,0,384.8142474,0,221.3644488,0,-80.92756191,-93.72833279,255.7606107,-122.7861642,-45615.82644,-260.941426,-499.9228554,0,,,,
288.8959998,1128,3.310300449,67.31728068,0,0,167.4675936,0,-221.5214698,0,-91.41719741,16.15192849,315.2474054,14.0859135,-45260.86976,-109.2098853,-283.4860387,0,,,,
288.9039998,1128,-31.99743113,-40.88493917,0,0,164.1747,0,-34.76767227,0,-43.90170738,66.96546422,324.0330677,-6.288888968,-45120.22027,78.65681411,-640.1781137,0,,,,
288.9119998,1128,-50.65261574,7.901778177,0,0,340.6468974,0,75.88579939,0,-88.75206701,-118.0327836,-73.37509052,-105.726293,-44669.51047,-432.8237123,-352.6481268,0,,,,
288.9199998,1128,5.307335947,28.82293945,0,0,8.84169964,0,-308.6617819,0,-60.91557734,146.9360772,290.0035409,89.59019567,-44488.37093,173.5564776,-522.2753939,0,,,,
288.9279998,1128,-78.05455238,-73.8143697,0,0,339.7956474,0,190.8465769,0,-47.26086181,-83.18724474,-69.62057405,-118.7857406,-44147.63522,-281.4290459,-550.7257032,0,,,,
288.9359998,1128,-0.8487014,64.2069787,0,0,133.1979619,0,-246.9786943,0,-76.63478399,9.747142616,54.50955801,14.3151513,-43779.20784,-126.1689741,-316.2639969,0,,,,
288.9439998,1128,-16.44026799,-34.96414995,0,0,15.16548435,0,-208.3987184,0,-26.75019474,164.8221923,285.4877747,71.65039648,-43673.38325,309.9844987,-706.4117351,0,,,,
288.9519998,1128,-34.74751588,49.46302302,0,0,134.0396875,0,-261.5665489,0,-63.86278318,7.879285233,15.04336571,15.59096096,-43206.56455,-137.4285379,-300.3672705,0,,,,
288.9599998,1128,47.11449985,148.1634126,0,0,-162.5270346,0,-726.7320885,0,-71.15752264,205.6710508,333.478997,201.4127177,-42942.74641,281.7429611,-251.8049588,0,,,,
288.9679998,1128,-24.88029232,9.757642668,0,0,76.03881293,0,-243.4801317,0,-44.46817395,88.57739636,160.4851008,49.62271712,-42712.93562,92.74741583,-501.9875519,0,,,,
288.9759998,1128,-27.2429112,26.3270266,0,0,118.5056958,0,-236.4171291,0,-68.13126942,27.66137554,80.45601501,19.60698052,-42387.22628,-54.05987575,-398.0406832,0,,,,
288.9839998,1128,-58.18221266,-65.18911308,0,0,243.9443359,0,60.24393651,0,-64.7087246,-41.70129456,-3.456735697,-75.14183672,-42171.62734,-155.6401627,-596.5775198,0,,,,
288.9919998,1128,-37.86556557,14.36849526,0,0,219.8255352,0,-89.02997044,0,-72.36357539,-53.78040651,-53.30321242,-45.6190456,-41784.91173,-278.9294802,-405.6322787,0,,,,
288.9999998,1128,-8.040721776,13.33497112,0,0,39.30948461,0,-281.0684387,0,-44.49076141,103.0036899,232.4875271,54.15760504,-41573.55346,105.5125182,-541.9281869,0,,,,
289.0079998,1128,-78.30831551,-83.38711689,0,0,335.4216088,0,151.0051171,0,-56.06681965,-114.3157095,-36.26650772,-140.050905,-41247.8574,-325.7420716,-542.6646332,0,,,,
289.0159998,1128,-17.28685417,33.73434309,0,0,83.65438193,0,-323.8878829,0,-90.71063847,27.16261896,203.2150682,29.82422936,-40914.54356,-68.66088916,-366.9630253,0,,,,
289.0239998,1129,-76.81166608,-92.11606761,0,0,190.0129923,0,-25.79624412,0,-74.14303734,8.735590849,229.2384746,-46.22120466,-40731.52958,-17.67039417,-651.0600041,0,,,,
289.0319998,1129,-79.52164293,-26.42789429,0,0,318.4367241,0,-1.981000791,0,-88.1420903,-127.9674769,43.87805453,-114.8113174,-40314.04452,-391.1404768,-368.6641032,0,,,,
289.0399998,1129,-13.17594359,16.97175296,0,0,29.37269424,0,-331.4127777,0,-63.92554401,107.2588129,435.6823082,71.07019716,-40115.87339,138.5500193,-510.1567789,0,,,,
289.0479998,1129,-85.95389581,-82.03353915,0,0,339.9657606,0,150.3484307,0,-82.96971413,-112.4281605,152.1137165,-130.2125564,-39785.54351,-296.3295115,-535.9486321,0,,,,
289.0559998,1129,-12.32224362,46.41438518,0,0,120.9189372,0,-289.3332045,0,-85.18557469,3.46408431,339.2060894,14.6998625,-39430.32252,-120.6559072,-326.3564766,0,,,,
289.0639998,1129,-65.96513994,-85.82389157,0,0,166.0033768,0,-67.08900514,0,-37.15357751,51.01017132,440.1952673,-4.089394325,-39257.1204,52.57153684,-651.3208262,0,,,,
289.0719998,1129,-78.22041708,-24.88504891,0,0,347.9092723,0,11.24750349,0,-90.32635819,-139.9682322,207.503089,-118.992933,-38817.23114,-404.2919046,-339.2146221,0,,,,
289.0799998,1129,21.24448059,40.7166427,0,0,10.90253782,0,-381.260963,0,-55.55096761,121.4600213,620.0326228,88.88545093,-38630.75918,159.5748289,-502.9652009,0,,,,
289.0879998,1129,-80.7601945,-91.33454481,0,0,339.5939007,0,122.5680057,0,-55.31017644,-86.44476955,326.9144146,-102.3131136,-38297.63508,-270.2780884,-559.766424,0,,,,
289.0959998,1129,-38.33814283,27.83484479,0,0,170.9648495,0,-289.0459312,0,-108.9805076,-16.22001815,538.5713668,-6.071824064,-37929.20682,-117.6780401,-284.7997098,0,,,,
289.1039998,1129,-55.67016001,-71.60225464,0,0,186.0344358,0,-100.6116196,0,-64.06592756,40.64769814,687.7874102,-23.44204014,-37770.84887,90.18208923,-600.5022049,0,,,,
289.1119998,1129,-80.01393807,-21.40496828,0,0,386.948164,0,18.67831152,0,-88.87391633,-151.3992601,407.1020943,-127.3264728,-37311.75924,-412.0645652,-303.9194854,0,,,,
289.1199998,1129,-8.910316846,27.23480906,0,0,52.8432589,0,-381.7745293,0,-73.61111145,107.5592834,846.7250701,78.49126868,-37112.63951,174.1095437,-449.5700319,0,,,,
289.1279998,1129,-88.53299076,-90.13802087,0,0,371.8065523,0,117.4432026,0,-71.68888994,-100.6674933,549.9759392,-119.8117959,-36784.99812,-270.1682427,-507.1240764,0,,,,
289.1359998,1129,-28.83282556,32.62064203,0,0,193.8411041,0,-297.2482706,0,-89.81442496,-13.31973012,730.6369679,-0.131253701,-36414.21765,-131.2778489,-253.4711122,0,,,,
289.1439998,1129,-44.34089956,-72.5016487,0,0,198.905509,0,-122.6305572,0,-49.94538043,51.33832616,890.4664644,-8.350289875,-36254.53082,101.7843526,-569.4127989,0,,,,
289.1519998,1129,-59.48564182,-10.35003605,0,0,384.4847285,0,-4.988167755,0,-82.02424438,-139.7724862,584.7595523,-116.4998534,-35797.73854,-416.6713157,-281.4838432,0,,,,
289.1599998,1129,6.94428354,41.58315006,0,0,45.24364182,0,-408.5331101,0,-43.73297269,125.9225936,1012.315605,93.45309844,-35609.07389,175.1031174,-441.6688601,0,,,,
289.1679998,1129,-83.97442147,-87.10036733,0,0,391.4343353,0,103.9130775,0,-48.6405198,-98.17374368,730.1691296,-122.826089,-35288.20157,-260.7391053,-480.7947694,0,,,,
289.1759998,1129,0.777955388,56.90316217,0,0,192.030988,0,-334.2646005,0,-82.94743663,-11.95276538,903.3681082,-1.967543325,-34917.37028,-127.6499365,-221.6975002,0,,,,
289.1839998,1129,-18.89005976,-42.93340496,0,0,170.0097285,0,-178.5999933,0,-26.10328731,72.3795491,1030.257419,19.32166573,-34766.069,101.9548384,-581.1281641,0,,,,
289.1919998,1129,-87.69435646,-36.65252819,0,0,402.7804729,0,-23.45241394,0,-70.48183065,-135.2116231,727.1196802,-109.0486311,-34308.12734,-415.3732845,-290.7168208,0,,,,
289.1999998,1129,-11.74520187,7.931565284,0,0,76.13165792,0,-426.6530992,0,-64.02762434,106.1684391,1203.778819,72.50483086,-34107.47306,198.6764719,-397.1835614,0,,,,
289.2079998,1129,-68.76592338,-80.16464698,0,0,389.452575,0,73.86571227,0,-46.85390433,-102.6934959,915.4029253,-109.4596553,-33777.54187,-242.7749295,-450.6827546,0,,,,
289.2159998,1129,-4.265761546,53.44510542,0,0,191.9179914,0,-342.9718704,0,-55.16760757,0.173115283,1067.695169,24.32665656,-33391.59247,-124.1767481,-219.7294638,0,,,,
289.2239998,1129,-33.84468065,-59.38830189,0,0,171.1095619,0,-181.9502693,0,-17.79833071,73.91415185,1223.680218,20.87690158,-33223.7059,119.5238887,-561.9933934,0,,,,
289.2319998,1129,-83.53084697,-34.22827014,0,0,400.382076,0,-27.07538399,0,-82.77746338,-143.706974,924.3739797,-100.3809616,-32753.55343,-401.087016,-272.9363119,0,,,,
289.2399998,1129,5.316013056,16.91988377,0,0,78.50910523,0,-434.1765838,0,-68.13793297,108.7653136,1387.116887,89.18178621,-32551.61234,213.3018305,-394.8942722,0,,,,
289.2479998,1129,-58.92461801,-76.13640474,0,0,387.0054289,0,56.91203071,0,-44.10399837,-96.15721379,1097.298732,-107.5259736,-32228.51426,-227.310352,-452.960338,0,,,,
289.2559998,1129,-14.0214841,62.05556386,0,0,194.9708977,0,-360.5410585,0,-82.10243372,-6.544842276,1247.008137,20.46551513,-31838.88633,-122.1311784,-213.201135,0,,,,
289.2639998,1129,-15.20396364,-34.68521977,0,0,173.3349157,0,-203.1047199,0,-38.29743607,67.83815864,1396.273726,23.69190625,-31672.13842,118.1339097,-555.4258887,0,,,,
289.2719998,1129,-49.44507674,-21.5856316,0,0,383.0734779,0,-51.62456085,0,-37.72353271,-136.0357194,1071.205038,-88.32485868,-31214.71674,-417.1941419,-280.873768,0,,,,
289.2799998,1130,-12.03928502,2.229517958,0,0,53.6213781,0,-459.030302,0,-31.57113407,116.9715469,1519.124933,99.38255851,-31013.23002,191.8788457,-404.5555069,0,,,,
289.2879998,1130,-71.04283837,-88.18807333,0,0,372.0655382,0,44.99038928,0,-57.36440533,-95.91536509,1229.318871,-105.607325,-30686.71168,-236.0954515,-463.3204247,0,,,,
289.2959998,1130,3.594023379,48.7374897,0,0,188.1360925,0,-359.2355031,0,-68.72322188,-3.903267753,1375.176459,27.39404113,-30308.74094,-116.058844,-220.5924169,0,,,,
289.3039998,1130,-36.83481454,-59.73156212,0,0,182.7438778,0,-194.868224,0,-30.75325052,60.34399867,1543.135818,19.08928745,-30150.07086,137.151741,-544.1220399,0,,,,
289.3119998,1130,-68.14651468,-14.89868731,0,0,398.863591,0,-43.10019935,0,-82.98317576,-151.6365112,1232.03053,-106.3776609,-29683.86147,-408.377792,-256.8231321,0,,,,
289.3199998,1130,1.686994308,30.23174085,0,0,49.24782261,0,-465.8248557,0,-38.68618809,126.1106358,1664.127094,108.4544797,-29481.89155,198.2860381,-399.3204641,0,,,,
289.3279998,1130,-89.69694723,-94.30707082,0,0,385.1221727,0,44.10539159,0,-43.35902413,-95.18477975,1383.535365,-104.0083287,-29156.77644,-225.392084,-451.6739272,0,,,,
289.3359998,1130,-22.93632994,41.07690323,0,0,212.6003594,0,-361.1958799,0,-93.1990012,-20.42575024,1540.427022,7.680840574,-28767.64257,-121.0083509,-179.7400573,0,,,,
289.3439998,1130,-39.12772885,-63.47566822,0,0,190.031488,0,-206.3659427,0,-33.3162247,64.3822587,1685.85986,19.84779173,-28607.97893,136.162857,-519.5176192,0,,,,
289.3519998,1130,-63.50586103,-35.91409917,0,0,422.8180017,0,-33.25325604,0,-66.36969801,-153.2024492,1365.624652,-104.3465532,-28139.27108,-400.786518,-232.6357953,0,,,,
289.3599998,1130,21.77121456,33.47744237,0,0,73.41185274,0,-452.8608313,0,-34.04593935,114.8936531,1804.090234,106.1436126,-27926.22851,199.2252721,-355.5417172,0,,,,
289.3679998,1130,-64.39638021,-68.56874143,0,0,385.6825739,0,53.70799537,0,-8.4059269,-90.73518598,1500.040145,-90.75272524,-27597.73724,-230.0107114,-435.0131135,0,,,,
289.3759998,1130,-7.098454586,58.66255618,0,0,212.2580637,0,-334.7330381,0,-44.52115129,-14.52703456,1627.747589,28.02928411,-27208.39907,-127.596717,-190.25945,0,,,,
289.3839998,1130,-35.89686414,-59.7567732,0,0,204.9060069,0,-166.4543282,0,-21.21281782,57.35889245,1792.153079,24.95216255,-27059.92466,146.4377958,-515.9981574,0,,,,
289.3919998,1130,-78.96198029,-45.99213749,0,0,456.4380791,0,17.07948814,0,-85.19904774,-174.3964709,1494.534048,-125.3262167,-26606.4714,-381.8117882,-205.4931069,0,,,,
289.3999998,1130,-1.348586318,16.669983,0,0,115.1100554,0,-402.2566044,0,-84.17233467,94.05666995,1933.420889,85.02325551,-26403.71499,218.8369587,-319.3734693,0,,,,
289.4079998,1130,-86.37451713,-85.64330089,0,0,429.6319815,0,101.5043913,0,-58.04260189,-101.3013189,1631.241066,-93.08238451,-26088.73309,-201.9904255,-396.7647863,0,,,,
289.4159998,1130,-29.56817338,43.96686044,0,0,267.2064169,0,-293.3483654,0,-65.73777703,-31.36327929,1767.20243,12.90490964,-25705.79014,-92.77396497,-132.6820503,0,,,,
289.4239998,1130,-53.47878738,-65.26232614,0,0,251.5452398,0,-144.8623948,0,-26.37228526,54.11371448,1925.513824,11.29367099,-25565.89935,181.3785938,-459.2413285,0,,,,
289.4319998,1130,-66.45615145,14.3668935,0,0,485.3043697,0,-34.35130379,0,-77.03534182,-180.5187464,1576.770853,-107.0733215,-25092.71417,-467.1077706,-34.14603327,0,,,,
289.4399998,1130,91.16624614,192.7924629,0,0,-52.6398686,0,-807.4051228,0,-70.61078963,192.5954241,2201.856355,217.6529642,-24898.00976,324.6045785,-5.301715277,0,,,,
289.4479998,1130,21.26471311,48.81018875,0,0,128.0343884,0,-389.7631031,0,-37.31811156,123.4691254,2072.709292,100.206113,-24675.16812,250.897229,-292.2212469,0,,,,
289.4559998,1130,21.8654149,116.7574578,0,0,200.6828009,0,-447.4076716,0,-72.68951815,18.53997727,1876.017128,70.98916404,-24220.7604,-49.34600647,-8.151497694,0,,,,
289.4639998,1130,25.3003378,38.09291823,0,0,123.4503944,0,-355.8168469,0,-31.15953889,137.5651134,2068.759849,108.7692859,-24092.1986,280.9343359,-348.4158216,0,,,,
289.4719998,1130,-77.4303139,-76.30352523,0,0,491.7720911,0,193.9334402,0,-40.34568765,-111.7593591,1665.119972,-109.5271273,-23767.90007,-273.9332238,-375.0816002,0,,,,
289.4799998,1130,-20.42975304,47.2831356,0,0,270.8996132,0,-278.800673,0,-80.47516598,0.900114551,1877.9346,31.15703461,-23424.02711,-64.20251719,-113.2900319,0,,,,
289.4879998,1130,-30.89380776,-46.56810921,0,0,257.9791835,0,-162.418164,0,-43.17454157,61.0620165,2044.98112,26.5778948,-23258.71655,187.236678,-360.4088441,0,,,,
289.4959998,1130,-62.1319897,-53.7571589,0,0,498.0508516,0,85.69632355,0,-62.8405329,-132.7577591,1782.225639,-116.3262461,-22855.99996,-254.7701874,-184.3195559,0,,,,
289.5039998,1130,9.373934676,44.4857397,0,0,238.1147463,0,-328.4018502,0,-55.7263644,55.8593868,2068.878219,54.22481914,-22564.3772,110.1093458,-108.2312973,0,,,,
289.5119998,1130,-45.38981161,-62.26715131,0,0,369.2827974,0,-17.25198759,0,-15.64466496,15.83881696,1998.03535,-22.99674966,-22327.35542,58.84775465,-328.5266503,0,,,,
289.5199998,1130,-60.72162255,7.700668661,0,0,445.6344086,0,-64.73589952,0,-58.50098753,-84.79167086,1860.75858,-62.62163602,-21892.18873,-220.7343494,-63.90198179,0,,,,
289.5279998,1130,-14.0073925,13.8812323,0,0,219.9575931,0,-302.3754046,0,-36.97806719,106.7453133,2175.791825,71.10783082,-21696.1866,238.4345953,-217.4300101,0,,,,
289.5359998,1131,-49.18974965,-60.44703828,0,0,494.4459679,0,95.36204214,0,-35.88521217,-85.73129833,1906.917624,-106.5882408,-21362.1127,-159.1251555,-209.2621621,0,,,,
289.5439998,1131,16.92494981,62.03781389,0,0,308.5261274,0,-280.1846898,0,-47.83302932,17.70832702,2059.74476,24.64253394,-20989.40008,-5.090830034,-13.28948401,0,,,,
289.5519998,1131,-16.11377139,-35.60966726,0,0,314.5748595,0,-101.6662966,0,-22.21825353,71.29390128,2134.395872,20.82845398,-20810.55124,156.0753166,-312.1988447,0,,,,
289.5599998,1131,-54.13192929,-8.072548435,0,0,504.1077315,0,9.841749769,0,-63.88256036,-115.5812369,1865.010153,-95.12361582,-20380.43094,-301.6609631,-37.88483312,0,,,,
289.5679998,1131,-1.909892692,26.99728022,0,0,212.8177873,0,-355.0756946,0,-25.68440963,119.7070844,2234.869265,85.31026718,-20174.15872,246.4407667,-153.1986277,0,,,,
289.5759998,1131,-64.37044005,-69.68116534,0,0,506.9269598,0,93.4762916,0,-38.8124672,-73.03478235,1959.733486,-103.8802149,-19858.33105,-149.2654659,-206.0850015,0,,,,
289.5839998,1131,-10.36434117,49.4065746,0,0,350.9720151,0,-287.2606993,0,-63.07800571,-6.286400962,2079.361043,5.942793371,-19468.0227,-62.79858605,49.14637134,0,,,,
289.5919998,1131,-14.86820728,-35.13192155,0,0,304.9350004,0,-167.4742689,0,-3.828922448,77.11205666,2208.2572,17.57452094,-19311.41163,185.8622461,-274.5945868,0,,,,
289.5999998,1131,-40.11370241,3.583176532,0,0,499.6499103,0,-16.2617987,0,-35.06293716,-116.5391923,1858.767076,-99.03032609,-18874.71221,-357.4791534,-29.67236796,0,,,,
289.6079998,1131,1.140609167,41.59744031,0,0,180.2737893,0,-418.2254821,0,-39.58128095,137.6063338,2246.582192,108.2438988,-18658.90481,226.4097463,-147.8999132,0,,,,
289.6159998,1131,-51.46721169,-57.13442792,0,0,482.6092177,0,66.12548206,0,-35.45151438,-60.64541499,1969.184699,-88.57811737,-18334.73461,-162.9197218,-215.2079235,0,,,,
289.6239998,1131,17.12314515,71.34143898,0,0,312.1322953,0,-309.5524643,0,-15.16913191,16.91531204,2051.291027,31.56836084,-17935.66158,-99.87018864,36.12331633,0,,,,
289.6319998,1131,-10.57213257,-24.48971249,0,0,264.8133139,0,-182.315485,0,-7.104973671,97.0395122,2198.831932,39.73469654,-17779.11935,192.4918251,-291.5241676,0,,,,
289.6399998,1131,-36.42059991,2.444190236,0,0,499.8391331,0,12.74334672,0,-57.19389168,-125.9236915,1849.652062,-104.6289248,-17317.13541,-361.2959526,-27.00905648,0,,,,
289.6479998,1131,24.38185743,31.54074718,0,0,176.003198,0,-397.3838842,0,-9.467981013,128.236525,2256.508513,90.65816756,-17099.95743,236.7483123,-126.5020027,0,,,,
289.6559998,1131,-54.13972948,-70.33721862,0,0,468.4143538,0,91.2674399,0,-7.874644328,-71.46084738,1972.943283,-103.9751556,-16794.6113,-149.6325756,-203.6685333,0,,,,
289.6639998,1131,-17.09356689,47.94182777,0,0,315.4068946,0,-271.3924434,0,-30.96719803,13.38938498,2040.114485,27.72047188,-16383.7156,-94.94157707,38.79846001,0,,,,
289.6719998,1131,-35.67438225,-71.0600265,0,0,301.5393743,0,-134.3676693,0,-22.8657476,84.84654064,2228.935034,15.18699465,-16218.81612,220.2554444,-253.2009646,0,,,,
289.6799998,1131,-49.41913265,-17.80682153,0,0,540.6411966,0,57.88353113,0,-65.99933818,-152.2536864,1897.72863,-139.2184365,-15779.28055,-336.0940282,49.16086125,0,,,,
289.6879998,1131,9.33345721,35.87813071,0,0,196.6732663,0,-368.0919133,0,-37.45167731,130.8126042,2279.088102,95.21893922,-15577.84892,258.268676,-70.92350209,0,,,,
289.6959998,1131,-57.67813501,-79.84010226,0,0,502.3237691,0,127.8875635,0,-47.47923586,-72.43105651,2000.990142,-107.8721673,-15271.39511,-120.4594927,-143.7818251,0,,,,
289.7039998,1131,14.20888957,81.11604253,0,0,329.5204679,0,-257.0738496,0,-52.84168446,-4.351247852,2074.119,3.030609278,-14878.94353,-71.96270368,123.3281585,0,,,,
289.7119998,1131,-11.57283749,-19.68049061,0,0,275.7332441,0,-143.0629985,0,-2.436412893,104.0773861,2217.963396,38.05549034,-14729.33025,236.5490178,-222.4681778,0,,,,
289.7199998,1131,-53.53972977,-19.02210713,0,0,530.2334871,0,70.1532666,0,-44.74125874,-131.1845501,1869.932359,-106.8216889,-14286.58324,-322.5909211,57.03044869,0,,,,
289.7279998,1131,15.41715855,31.62570085,0,0,200.6002549,0,-355.6931216,0,-39.64774969,127.1581245,2278.955959,98.94151274,-14090.23199,271.9079217,-26.29479515,0,,,,
289.7359998,1131,-70.193432,-90.87777248,0,0,524.0491941,0,148.2363844,0,-40.55257426,-74.03961457,2010.197331,-100.6311894,-13777.4733,-109.582533,-93.33844743,0,,,,
289.7439998,1131,-17.57044565,40.07036491,0,0,380.1720495,0,-221.9797229,0,-56.45137387,-22.84133541,2102.310143,0.434276024,-13374.64462,-57.02833686,199.9103823,0,,,,
289.7519998,1131,-28.66710547,-51.20001789,0,0,344.7681327,0,-115.0824656,0,-32.57681906,73.89114271,2280.824858,12.45609179,-13227.35665,262.2016912,-107.5323711,0,,,,
289.7599998,1131,-64.02885872,-28.24806774,0,0,613.3988899,0,99.44590403,0,-70.12633351,-148.9481861,1941.520117,-131.6630793,-12778.42775,-305.9765338,187.9769224,0,,,,
289.7679998,1131,13.83340675,35.72886889,0,0,266.0669791,0,-338.7170712,0,-38.540047,122.090293,2345.926116,97.91223932,-12569.77412,289.8670301,103.052169,0,,,,
289.7759998,1131,-65.57614153,-91.56103743,0,0,582.847809,0,162.5924317,0,-25.06783252,-76.58487349,2071.467821,-95.01109173,-12253.94367,-85.36072148,16.64043748,0,,,,
289.7839998,1131,10.95799878,54.63746193,0,0,434.3491532,0,-207.504768,0,-38.76784082,-20.53668013,2149.819204,4.488853926,-11862.3177,-44.8040485,302.560787,0,,,,
289.7919998,1132,9.091180778,-26.98504329,0,0,363.4127188,0,-117.9731116,0,-4.008074617,100.6368182,2303.254417,49.15993571,-11723.50333,272.4588574,-38.19913833,0,,,,
289.7999998,1132,-65.65071658,-21.27528328,0,0,634.1506732,0,106.286226,0,-59.49913054,-131.6200508,1951.762481,-100.9961193,-11272.2513,-292.6323323,235.5737435,0,,,,
289.8079998,1132,6.159344522,54.25889242,0,0,296.7576207,0,-326.0162572,0,-35.91884314,118.0358041,2364.774768,91.91606373,-11087.5894,306.8107456,169.7973392,0,,,,
289.8159998,1132,-63.42279523,-81.38746421,0,0,604.9125327,0,177.4715222,0,-8.431851761,-68.17133218,2080.469098,-90.1253106,-10805.11888,-79.40607357,71.84203145,0,,,,
289.8239998,1132,0.724324831,42.11626395,0,0,466.6698724,0,-182.1179551,0,-32.8053224,-15.28838221,2152.101459,12.5279214,-10406.63523,-51.96985994,358.8463262,0,,,,
289.8319998,1132,12.23647702,-25.94581117,0,0,397.1778257,0,-98.28185873,0,24.43115294,92.998912,2317.513555,33.39261315,-10270.03242,268.2952914,33.12314379,0,,,,
289.8399998,1132,-46.60335446,-24.171715,0,0,653.4321515,0,118.1525113,0,-14.42553488,-130.2943045,1945.595428,-109.9554684,-9835.090137,-314.1517901,287.9049274,0,,,,
289.8479998,1132,13.55974735,39.57769993,0,0,309.3382747,0,-331.2959748,0,-34.20436073,126.1366367,2339.725773,103.8824714,-9637.360593,279.2467234,206.1871104,0,,,,
289.8559998,1132,-64.08077264,-76.24231384,0,0,627.0765827,0,166.8593185,0,-20.08062816,-70.01823575,2070.115731,-83.66991511,-9347.109185,-92.97263005,113.4213494,0,,,,
289.8639998,1132,-6.145746601,57.35073469,0,0,495.7021008,0,-187.888853,0,-38.48963179,-16.12102893,2146.36531,15.71874979,-8953.501329,-53.45936063,412.1717806,0,,,,
289.8719998,1132,2.675391825,-23.05191845,0,0,423.3221415,0,-107.7872583,0,-3.232903111,103.6146701,2318.273152,48.08457249,-8818.843642,292.8751214,88.95781939,0,,,,
289.8799998,1132,-37.12952063,-26.61457099,0,0,699.4100285,0,129.1645268,0,-23.32858619,-121.83342,1969.219573,-100.2098198,-8382.76226,-276.0141311,363.5302257,0,,,,
289.8879998,1132,37.56677304,52.04731738,0,0,358.6887052,0,-317.4783244,0,3.808113463,138.2510394,2374.411247,106.4583401,-8180.803186,315.0796942,304.7871676,0,,,,
289.8959998,1132,-54.62407351,-66.1758068,0,0,660.8097324,0,172.9977824,0,4.062245997,-54.95131559,2090.472223,-76.02300582,-7892.877353,-74.78437232,192.3029941,0,,,,
289.9039998,1132,-8.307256466,42.72367886,0,0,541.5694393,0,-169.4725517,0,-48.10101568,-19.20854176,2162.469317,18.78934029,-7513.829027,-59.1716663,486.8544584,0,,,,
289.9119998,1132,10.71936357,-15.96968308,0,0,440.5566885,0,-113.291688,0,7.652165035,98.23209484,2321.971851,54.21740028,-7393.31221,261.840435,145.220415,0,,,,
289.9199998,1132,-40.48736384,-1.457557401,0,0,676.7373882,0,109.8389302,0,-4.209110644,-117.2893666,1917.160133,-78.24254883,-6949.615198,-340.7619022,357.662433,0,,,,
289.9279998,1132,78.55760113,121.2408246,0,0,175.4950851,0,-616.2699396,0,-12.09585666,241.2246061,2490.891748,226.8404344,-6733.783365,485.503785,379.8490195,0,,,,
289.9359998,1132,7.719080106,-27.76812115,0,0,445.1069584,0,-108.4406818,0,13.12639112,89.00924443,2304.648456,37.47941603,-6505.274421,245.901072,166.1102246,0,,,,
289.9439998,1132,-55.5659323,-36.60520486,0,0,719.4418561,0,171.6722524,0,-6.039294852,-140.7753125,1892.047507,-114.6724817,-6070.169804,-374.7828439,376.3647417,0,,,,
289.9519998,1132,11.76109753,54.34314352,0,0,548.5203361,0,-94.62978452,0,-3.147536301,-48.58718163,2000.834905,-17.46380639,-5775.967898,-208.6524719,455.8285651,0,,,,
289.9599998,1132,-9.232005421,65.73807785,0,0,700.6645097,0,47.10254362,0,-19.14393954,-190.4900248,1775.970374,-109.6639037,-5406.303913,-555.4070943,599.313485,0,,,,
289.9679998,1132,-10.6566795,34.49482171,0,0,608.4338077,0,-11.23116706,0,-8.651184243,-90.31074906,1900.355898,-47.89322563,-5196.71683,-297.708989,454.8939496,0,,,,
289.9759998,1132,26.93980957,45.257973,0,0,455.7327973,0,-137.7353974,0,8.658359665,31.7227426,2062.16531,36.17693468,-4996.673101,0.45423349,315.5997217,0,,,,
289.9839998,1132,4.288156386,-1.795053688,0,0,430.8333648,0,-84.62572741,0,16.74757641,77.07723715,2103.169741,56.88949158,-4779.185424,128.1195882,157.872313,0,,,,
289.9919998,1132,-40.92858762,-30.90652535,0,0,581.5701073,0,81.73963659,0,-4.655686681,-39.59760143,1943.457901,-28.85848952,-4443.412721,-117.4615312,239.084189,0,,,,
289.9999998,1132,10.46008083,41.93220633,0,0,465.5622798,0,-157.1740648,0,-28.47503915,18.75248741,2062.3813,37.43572317,-4148.140316,15.92940562,376.7974856,0,,,,
290.0079998,1132,-4.127939886,-47.09997814,0,0,478.2561075,0,-12.34319682,0,5.800316658,58.24938588,2115.272963,18.17109384,-3993.925085,165.6394342,134.9754882,0,,,,
290.0159998,1132,-29.3272132,-5.785779052,0,0,610.2976747,0,44.93860442,0,-1.728479628,-86.0543662,1879.439058,-48.92029677,-3583.704648,-239.7708559,385.9939509,0,,,,
290.0239998,1132,18.3026392,23.87600555,0,0,354.0038683,0,-229.8363013,0,14.3725633,116.5507446,2169.921275,113.9520171,-3391.254593,240.4303726,253.5831132,0,,,,
290.0319998,1132,-24.51209622,-53.07696104,0,0,586.1167958,0,149.4640346,0,12.25211557,-40.07817268,1926.672251,-35.95191207,-3087.008249,-76.92185285,184.7111547,0,,,,
290.0399998,1132,13.06306681,56.56550621,0,0,467.1900746,0,-133.5245518,0,-2.124110456,3.207500565,1982.204757,47.11400969,-2713.810691,-44.86078242,412.3270502,0,,,,
290.0479998,1133,-19.91890269,-39.18974092,0,0,411.627465,0,-47.38849076,0,34.8828513,95.3760112,2134.40596,68.62506833,-2589.650176,265.4709786,110.1928062,0,,,,
290.0559998,1133,-57.77083217,-32.43897671,0,0,646.9130668,0,148.454384,0,-18.31923153,-129.5634626,1817.746342,-82.41050622,-2180.315585,-272.616009,366.836342,0,,,,
290.0639998,1133,9.571605638,17.72433658,0,0,341.2900239,0,-228.3414854,0,-9.660491996,109.6409532,2172.991825,111.8579374,-1992.956611,272.6780538,284.745508,0,,,,
290.0719998,1133,-65.64399094,-99.20294725,0,0,623.165696,0,225.549611,0,5.398324349,-66.64059578,1939.250584,-66.04800144,-1729.703938,-56.81869505,197.3369968,0,,,,
290.0799998,1133,-4.312473523,30.69423656,0,0,499.8788913,0,-86.36040419,0,-28.55133367,-36.37814288,1990.769354,11.50133289,-1367.784984,-64.53490388,485.5813427,0,,,,
290.0879998,1133,-4.523225051,-36.95162344,0,0,396.6565018,0,-38.57245238,0,19.87595427,96.23976906,2143.217736,78.9090012,-1253.299237,282.0788453,144.0820708,0,,,,
290.0959998,1133,-65.0679946,-37.99999821,0,0,680.0158632,0,207.3182154,0,-21.87692253,-141.5720672,1791.133997,-83.14292003,-827.8565679,-286.624814,386.0990003,0,,,,
290.1039998,1133,32.50022084,38.0559235,0,0,343.9110194,0,-236.0242757,0,-22.99109308,112.2372105,2176.982211,113.5058078,-636.4347801,292.0666031,335.8840057,0,,,,
290.1119998,1133,-34.59047086,-76.89114615,0,0,596.967213,0,215.5195448,0,2.648281321,-52.18280417,1901.188296,-50.51813197,-386.4841903,-58.35346715,190.6195951,0,,,,
290.1199998,1133,-32.76586868,22.22362503,0,0,495.1990148,0,-89.38403902,0,-43.69358211,-28.62125492,1934.91313,26.16648418,-14.4342913,-71.89889526,471.4414244,0,,,,
290.1279998,1133,-16.07118654,-44.46219524,0,0,401.0473618,0,-47.13707091,0,-24.958771,98.0224402,2134.577988,74.86883837,97.3456127,310.9619263,158.7947069,0,,,,
290.1359998,1133,-20.24744533,-9.644692023,0,0,655.8058852,0,193.2407369,0,-34.7198534,-130.0346997,1758.968333,-65.00514477,507.7788137,-289.2369539,385.5666183,0,,,,
290.1439998,1133,33.55525833,41.12677341,0,0,321.8630201,0,-244.7536843,0,0.261078235,135.62246,2129.92789,156.2939689,691.8720056,297.4915743,311.3284987,0,,,,
290.1519998,1133,-65.08894151,-108.7812125,0,0,620.8839014,0,239.3039915,0,-3.728618678,-58.3406885,1899.764264,-49.69130679,933.1316477,-25.41750828,197.3999545,0,,,,
290.1599998,1133,-2.666542309,35.2279211,0,0,504.0767579,0,-82.39481493,0,-42.85296187,-46.29690928,1944.435852,17.52810125,1290.597171,-60.41072639,501.5032761,0,,,,
290.1679998,1133,0.310813647,-34.02296926,0,0,389.9088786,0,-44.46486946,0,19.45436986,106.1993424,2116.218028,93.96820152,1394.790862,314.2447003,150.1507602,0,,,,
290.1759998,1133,-66.68734282,-51.35178828,0,0,676.1136746,0,230.4024939,0,-28.65708112,-133.2861787,1754.990925,-73.31340821,1808.846626,-275.8513913,390.6568231,0,,,,
290.1839998,1133,41.08951695,45.13323226,0,0,327.073668,0,-218.866562,0,-37.56803405,125.0886147,2151.410763,135.0413172,1992.579607,311.1469362,354.8692768,0,,,,
290.1919998,1133,-26.84710708,-74.69175585,0,0,603.6425081,0,264.5388638,0,-2.401075645,-31.71028238,1893.59731,-26.50393373,2245.39637,-21.67334597,209.1794654,0,,,,
290.1999998,1133,-8.145012185,28.42992065,0,0,507.0532928,0,-32.8472287,0,-38.86016084,-17.47513777,1935.082686,45.59482517,2622.313575,-46.30516364,515.4099946,0,,,,
290.2079998,1133,3.073219576,-38.30601306,0,0,399.4720223,0,1.478466358,0,-9.390856884,118.1785657,2135.843795,98.37077887,2716.75295,347.747886,194.847057,0,,,,
290.2159998,1133,-68.63998252,-48.02010059,0,0,696.6099785,0,277.2202803,0,-25.5797599,-124.6753742,1766.125412,-73.93796463,3111.00636,-262.3515908,434.1497995,0,,,,
290.2239998,1133,22.46861989,44.81574665,0,0,345.8583135,0,-182.687164,0,-10.74863508,119.7133436,2162.676794,133.8932104,3279.172822,322.1051269,405.3847156,0,,,,
290.2319998,1133,-30.37161564,-74.35482451,0,0,612.5764351,0,295.7770605,0,1.299419914,-32.22870284,1895.319702,-11.00351431,3520.110946,-3.688367055,237.9083057,0,,,,
290.2399998,1133,-3.551280088,30.8261014,0,0,533.9405581,0,12.4195393,0,-38.4289373,-10.53707003,1917.473126,59.94003295,3891.943014,-43.86593129,532.1535209,0,,,,
290.2479998,1133,17.23196893,-27.55047022,0,0,422.2880674,0,36.89771834,0,9.145285347,115.03313,2138.757665,98.10682126,3975.311776,361.9307207,232.61072,0,,,,
290.2559998,1133,-52.31222272,-48.05473629,0,0,711.5473139,0,312.7033339,0,-14.15928122,-125.3702892,1766.53744,-63.30878193,4367.556764,-246.5523477,461.6960333,0,,,,
290.2639998,1133,13.98066803,31.11397587,0,0,384.95221,0,-139.5307216,0,-14.20095666,122.189303,2162.625549,133.972572,4536.107334,334.5237828,433.3759693,0,,,,
290.2719998,1133,-33.31376077,-63.96248445,0,0,641.0070628,0,320.6823118,0,15.43394365,-37.96702314,1914.650839,-25.72826295,4763.278299,17.60228304,283.2303399,0,,,,
290.2799998,1133,12.53402999,51.08387084,0,0,527.6617433,0,23.21324322,0,-3.052023525,-4.350273811,1910.362954,74.51523747,5127.469241,-31.53338712,555.9024491,0,,,,
290.2879998,1133,16.4415788,-33.91117347,0,0,424.6827407,0,55.81663015,0,35.83974695,127.0035717,2128.0369,115.1953079,5208.026321,379.5030188,240.1278583,0,,,,
290.2959998,1133,-34.02106088,-35.85873705,0,0,714.3213045,0,335.1445501,0,0.203978757,-129.9321538,1772.005839,-64.25682946,5598.443609,-229.0985022,488.1009946,0,,,,
290.3039998,1134,38.96121034,43.50121231,0,0,379.7530682,0,-111.2119313,0,-10.72906046,126.034557,2152.172344,151.922222,5761.555768,345.6803079,457.0829927,0,,,,
290.3119998,1134,-48.84409795,-84.81684123,0,0,665.8102733,0,371.2979994,0,-3.307476376,-45.7270866,1925.582596,-30.27130923,5971.049338,28.08374345,320.7314092,0,,,,
290.3199998,1134,-10.61845042,46.04828587,0,0,561.8574296,0,69.05562984,0,-27.04198249,-32.72359197,1947.990718,42.40113597,6315.241197,-38.706075,631.8696971,0,,,,
290.3279998,1134,3.443028441,-27.03503724,0,0,443.2611621,0,83.80549744,0,22.85965486,116.3118233,2158.852395,110.6028044,6364.76925,372.4888915,307.0524005,0,,,,
290.3359998,1134,-53.2303637,-42.69026628,0,0,744.859598,0,369.76204,0,-3.101816581,-143.4929791,1801.886898,-67.23841093,6723.458016,-228.8542162,546.7725651,0,,,,
290.3439998,1134,23.50849823,37.06599482,0,0,404.2636815,0,-95.92399354,0,-5.230861621,109.2335157,2183.261674,142.9329244,6859.513768,348.8146965,521.2454582,0,,,,
290.3519998,1134,-30.34632431,-81.98277524,0,0,667.0646514,0,368.3294876,0,10.31270399,-44.89214107,1943.336363,-22.4579164,7039.958835,34.2665409,359.8336163,0,,,,
290.3599998,1134,13.30198238,43.89225993,0,0,581.6619073,0,86.53942865,0,-4.010074936,-35.00713694,1960.070232,47.48276406,7385.700341,-26.62581403,668.7641743,0,,,,
290.3679998,1134,11.53399889,-29.20340155,0,0,460.2282717,0,92.20391154,0,33.58016086,113.86322,2178.245411,108.0975609,7449.668682,393.0565532,355.6062647,0,,,,
290.3759998,1134,-43.22822756,-38.95265467,0,0,740.7232584,0,368.6073347,0,-28.96131433,-132.7555377,1798.417137,-57.0798489,7830.816497,-232.3546758,576.5646295,0,,,,
290.3839998,1134,29.02257873,42.33595594,0,0,409.130772,0,-84.56284068,0,-26.62805651,119.0268438,2177.618378,159.3860938,8016.769045,349.5808509,552.7210241,0,,,,
290.3919998,1134,-20.05386856,-60.23029024,0,0,659.7777068,0,373.7463607,0,24.250081,-32.86928037,1946.059877,-1.041090422,8221.986207,50.11618345,388.9786645,0,,,,
290.3999998,1134,16.3509899,57.51818172,0,0,562.5155533,0,90.96576619,0,-5.30762836,-15.47046897,1935.994177,81.99231538,8575.071257,-29.43150451,672.5577467,0,,,,
290.4079998,1134,20.38898899,-7.358866846,0,0,338.6071049,0,-75.23710125,0,14.77371508,214.8049668,2327.946573,206.714508,8647.642056,615.1743822,376.9058189,0,,,,
290.4159998,1134,-1.716204737,48.85900224,0,0,596.8525186,0,84.94008795,0,-20.25865647,-36.49320937,1984.780082,54.89272526,9091.503295,-48.84412434,744.0193504,0,,,,
290.4239998,1134,67.26806484,168.6209344,0,0,352.0260653,0,-331.4860072,0,-29.2444406,111.7147889,2149.301061,223.4978066,9353.040617,205.5511132,881.8795911,0,,,,
290.4319998,1134,11.86661654,25.20629519,0,0,460.2323258,0,1.533068896,0,-0.689658293,87.74756451,2106.43724,132.8965037,9449.772474,275.6758569,552.2636069,0,,,,
290.4399998,1134,10.3971584,32.62148171,0,0,539.8418758,0,66.03476524,0,-7.35064806,15.69489989,1997.667942,83.07127052,9734.435016,92.62096617,635.136631,0,,,,
290.4479998,1134,-17.79763336,-63.80945098,0,0,592.1837146,0,266.0239313,0,24.60095871,21.34130726,2006.443273,33.56052744,9872.436272,191.5109427,403.5235798,0,,,,
290.4559998,1134,-17.43008071,-7.456975198,0,0,658.1238303,0,252.2881933,0,6.314950672,-74.87194113,1865.512102,-7.468687317,10204.60404,-86.61335479,624.3038477,0,,,,
290.4639998,1134,27.13134522,14.66476464,0,0,459.5052077,0,6.710931212,0,-1.077075683,89.60739344,2109.374,124.7537784,10368.18271,299.3340409,567.8483924,0,,,,
290.4719998,1134,-52.52100958,-110.2219034,0,0,724.9670578,0,437.0219063,0,-6.525341044,-69.93868464,1896.95138,-43.80850633,10585.07674,19.7355982,461.1384471,0,,,,
290.4799998,1134,1.831678019,40.71695836,0,0,560.7455329,0,72.34544897,0,-7.035417812,-12.27643029,1970.746197,66.82914128,10919.45666,56.53855377,746.3662628,0,,,,
290.4879998,1134,-2.250241407,-40.45291657,0,0,514.1407948,0,190.1744915,0,27.47452418,74.73711412,2089.053097,78.97612569,11000.76412,342.0603424,441.5287557,0,,,,
290.4959998,1134,-29.70392811,-24.88328656,0,0,727.4938106,0,381.9700526,0,-19.85694684,-116.3461327,1796.971376,-42.8589997,11348.79289,-152.4492741,663.3934169,0,,,,
290.5039998,1134,47.2719985,45.07905241,0,0,422.0395609,0,-13.78239833,0,4.347408791,109.5764972,2111.994478,151.7471667,11501.7013,343.3185895,632.7750036,0,,,,
290.5119998,1134,-17.78379616,-73.95320433,0,0,669.383599,0,436.6818798,0,31.49912142,-35.15982527,1889.83431,-14.58102979,11687.36901,74.3838973,473.6142637,0,,,,
290.5199998,1134,11.54951872,43.45306784,0,0,579.809027,0,158.765509,0,-4.737744124,-16.12979232,1905.560064,64.94283514,12031.22684,23.0792694,773.0151982,0,,,,
290.5279998,1134,-5.306102411,-51.7991376,0,0,490.1048934,0,192.938621,0,26.00157214,102.46323,2117.81761,110.946714,12099.29744,421.6685318,479.9587836,0,,,,
290.5359998,1134,-34.6962947,-38.9371415,0,0,756.4557918,0,456.3357615,0,2.884748181,-134.793351,1778.881584,-58.70437419,12441.44925,-151.161196,709.1161029,0,,,,
290.5439998,1134,46.19266694,40.871432,0,0,448.300518,0,26.6585784,0,2.954603615,109.0746315,2119.764069,146.8978601,12587.45243,383.612225,699.8587828,0,,,,
290.5519998,1134,-49.03121483,-105.0689754,0,0,717.2404233,0,480.2398057,0,-2.7673451,-46.98226822,1920.35866,-28.01304882,12757.92827,121.0462149,546.4058403,0,,,,
290.5599998,1135,3.883053808,36.10112407,0,0,631.4440503,0,214.4612889,0,-24.05450043,-37.36227755,1903.528436,40.37187349,13091.02201,10.52468133,861.6009856,0,,,,
290.5679998,1135,31.22115999,-12.59162958,0,0,477.1430304,0,191.1969183,0,32.96209163,130.7170412,2120.190841,125.4309739,13153.77685,451.0593228,550.6005594,0,,,,
290.5759998,1135,-26.9431221,-28.18259644,0,0,749.5423514,0,479.4504346,0,16.42190767,-125.3770694,1730.684493,-51.8090759,13504.38848,-165.5511274,743.566069,0,,,,
290.5839998,1135,36.30366095,35.97816406,0,0,432.0390474,0,36.82465866,0,22.04528724,122.0293238,2065.63078,160.7137214,13646.42754,370.7984667,723.5961409,0,,,,
290.5919998,1135,-58.77682796,-101.3236957,0,0,706.9745532,0,494.2627649,0,5.635982504,-33.69034507,1887.125429,-21.93800707,13813.20711,124.4787594,587.0713849,0,,,,
290.5999998,1135,-6.955450372,30.5240373,0,0,629.9368134,0,224.7155377,0,-26.29441516,-42.08354565,1871.599249,31.99574987,14141.66806,5.374207838,921.2005893,0,,,,
290.6079998,1135,23.74644249,-30.37577645,0,0,472.9354817,0,184.9542444,0,29.38442876,137.8207599,2083.669924,128.9612822,14180.19186,453.2710535,596.7940275,0,,,,
290.6159998,1135,-54.231622,-46.62697326,0,0,789.1270765,0,501.23739,0,-15.78389092,-130.0989163,1709.689477,-66.82578327,14521.59467,-169.7720128,815.8323056,0,,,,
290.6239998,1135,27.58543029,39.15677891,0,0,472.9070348,0,40.33497533,0,-3.502312627,106.6093485,2072.130295,140.0300087,14668.64508,378.405165,835.5316092,0,,,,
290.6319998,1135,-27.38514843,-89.4220106,0,0,718.5668102,0,481.205889,0,38.30583779,-29.77544516,1855.375275,-8.559515837,14823.55411,120.941048,653.3967534,0,,,,
290.6399998,1135,4.431189083,33.79146275,0,0,649.7969728,0,219.7778494,0,-8.307584308,-43.87656231,1823.351328,37.78727591,15132.99952,-9.258959533,974.4064999,0,,,,
290.6479998,1135,20.2254862,-26.51737452,0,0,478.7937026,0,157.0805455,0,29.40584839,132.818015,2053.270084,129.9594377,15167.86299,454.7387477,659.2715108,0,,,,
290.6559998,1135,-29.96374461,-36.28106167,0,0,763.0836215,0,463.6971873,0,38.27790899,-116.2659769,1644.452283,-39.75726553,15520.71586,-190.3746017,832.8146838,0,,,,
290.6639998,1135,60.56409325,59.47394526,0,0,421.5238137,0,0.369630612,0,38.59726424,127.5960848,1990.853836,162.1743648,15665.5536,350.1596645,830.3574739,0,,,,
290.6719998,1135,-21.85011434,-82.3812467,0,0,659.274567,0,451.3299248,0,38.2818276,-10.33281025,1775.041576,7.824298213,15819.82369,101.4125102,630.1730514,0,,,,
290.6799998,1135,7.883755682,36.44516197,0,0,607.8477753,0,212.5876123,0,17.27203614,-40.55842938,1745.489227,43.28276991,16147.95164,-39.07798739,949.3915929,0,,,,
290.6879998,1135,33.63672341,-13.15011696,0,0,444.763229,0,161.472926,0,55.48528097,126.5692113,1998.651653,114.5912035,16171.89956,434.9085945,653.2746654,0,,,,
290.6959998,1135,-47.3489915,-55.58123539,0,0,748.8802383,0,494.4629709,0,5.247482831,-127.8342161,1593.067369,-53.76448377,16500.24477,-209.8027904,834.16027,0,,,,
290.7039998,1135,34.42072908,32.97707429,0,0,424.1737274,0,33.01259177,0,9.41265571,108.4911201,1953.269102,152.4980452,16639.76717,328.697449,855.038805,0,,,,
290.7119998,1135,-35.41985884,-85.97003793,0,0,654.4088049,0,476.4372511,0,50.26015584,-21.41641484,1748.273725,-3.026663344,16785.34166,87.46652692,658.4712377,0,,,,
290.7199998,1135,-17.97219982,12.58049183,0,0,608.0822403,0,249.5532494,0,-7.36313765,-53.14169965,1703.243667,36.60719672,17102.11402,-56.7883642,970.9454799,0,,,,
290.7279998,1135,22.44293138,-35.11803516,0,0,450.199549,0,188.248187,0,19.53375553,106.3508504,1976.3389,102.4526683,17117.77781,428.8581466,692.4797353,0,,,,
290.7359998,1135,-26.28137894,-43.45140919,0,0,742.3062372,0,507.4078507,0,35.41756658,-143.4851655,1570.189209,-67.4676322,17445.15877,-226.1578079,869.1858941,0,,,,
290.7439998,1135,39.98149906,36.51150468,0,0,405.8997081,0,34.84196586,0,48.25741582,99.94515432,1898.153848,154.9108104,17580.12666,298.1100086,861.344835,0,,,,
290.7519998,1135,-50.82954646,-103.6445884,0,0,652.2320101,0,475.7259874,0,46.67755459,-42.17662979,1711.273686,-18.12887731,17712.1544,68.84486836,671.2727597,0,,,,
290.7599998,1135,-17.61075774,15.34015008,0,0,605.3319764,0,246.595371,0,0.782505587,-71.2355124,1670.310057,25.42601414,18026.06083,-85.40030313,996.2634056,0,,,,
290.7679998,1135,13.92258106,-31.23933789,0,0,423.887553,0,179.7250943,0,36.61499539,113.1990065,1922.090857,125.6317573,18040.96776,407.9181047,690.6422251,0,,,,
290.7759998,1135,-48.99308498,-66.59904629,0,0,737.841472,0,517.9344589,0,9.923280994,-161.653729,1533.416943,-82.47210796,18359.33447,-234.9571539,876.9671603,0,,,,
290.7839998,1135,56.66337349,35.69465655,0,0,405.7830831,0,41.99808538,0,17.66297142,67.31318623,1879.764137,127.1365646,18486.86013,287.0527705,898.9266597,0,,,,
290.7919998,1135,-21.78585046,-84.86274728,0,0,624.1935423,0,468.8739945,0,61.81881325,-42.38744991,1673.226697,-8.046843041,18609.23159,58.19600506,681.5959102,0,,,,
290.7999998,1135,-19.33811131,13.13523927,0,0,586.7866522,0,242.840774,0,27.77829497,-72.67716133,1623.75882,15.74457025,18914.1476,-105.6789257,999.592355,0,,,,
290.8079998,1135,10.36159271,-36.37500198,0,0,407.6563312,0,163.0362568,0,44.34580247,109.5579981,1888.29935,113.9792729,18922.75672,400.8242993,704.4938913,0,,,,
290.8159998,1136,-65.77145741,-71.11080671,0,0,712.4404704,0,498.8101297,0,14.07280614,-147.5912293,1475.282902,-66.03436212,19229.97774,-242.667798,865.3911302,0,,,,
290.8239998,1136,28.67280267,23.67305018,0,0,387.5889752,0,22.10929787,0,1.027347854,74.66015126,1822.224543,123.7838742,19346.38035,279.245653,893.0057761,0,,,,
290.8319998,1136,-23.34911626,-89.88214687,0,0,603.5017423,0,447.8696263,0,33.71120556,-40.87619432,1632.395549,-13.1129162,19467.33582,65.19320967,682.183938,0,,,,
290.8399998,1136,-11.3563395,12.75312407,0,0,559.9735669,0,227.0955772,0,20.72047184,-67.9416394,1562.813866,32.12659853,19783.62492,-113.2540403,988.7553666,0,,,,
290.8479998,1136,25.39552454,-27.03002651,0,0,375.046226,0,132.8218666,0,40.19098368,104.7179319,1843.140332,112.3178319,19787.45784,393.1796917,706.3818382,0,,,,
290.8559998,1136,-47.81154938,-47.29261804,0,0,678.4920824,0,471.2995357,0,26.00864925,-146.1935851,1438.239978,-65.24266532,20090.29323,-245.8723479,864.0408881,0,,,,
290.8639998,1136,40.03186061,50.29572927,0,0,349.8606016,0,-5.259705269,0,47.07530549,98.77992338,1771.860913,151.8122705,20209.65485,288.6684291,876.6746565,0,,,,
290.8719998,1136,-8.467837552,-65.38768419,0,0,563.5417474,0,417.9056468,0,65.22940804,-20.8919201,1587.813234,4.236608829,20307.75742,86.30570814,659.4060351,0,,,,
290.8799998,1136,-16.06131711,24.23399399,0,0,532.5247386,0,215.3115119,0,5.605386618,-57.02909895,1511.74802,40.79980784,20619.75123,-103.2700692,965.4869223,0,,,,
290.8879998,1136,39.76706896,2.796463218,0,0,228.6810391,0,-47.61846583,0,32.90035308,207.6085269,1930.757417,205.1120109,20610.47496,597.7359802,703.2737925,0,,,,
290.8959998,1136,-7.923880169,12.80387271,0,0,529.0219358,0,237.5309716,0,28.88846339,-72.72369876,1508.730078,24.31780416,20944.71042,-142.201826,984.9864591,0,,,,
290.9039998,1136,43.07585587,123.6128254,0,0,336.4907176,0,-139.4309193,0,0.907235514,31.32131876,1627.649488,158.1906083,21164.93346,22.21710756,1167.827173,0,,,,
290.9119998,1136,19.75284756,11.17396856,0,0,369.5176147,0,93.50645744,0,32.18699801,64.02352834,1667.61954,114.7326029,21177.23106,215.7191779,820.902468,0,,,,
290.9199998,1136,10.70946314,18.74555562,0,0,441.746517,0,181.5018913,0,27.90910236,-10.90513017,1535.340391,67.40482812,21375.74244,16.01531668,864.8245047,0,,,,
290.9279998,1136,20.44001926,-29.51728877,0,0,403.8926997,0,290.6193665,0,46.91644316,42.43080216,1586.252614,68.05721934,21432.86226,195.5867205,601.3072893,0,,,,
290.9359998,1136,8.081754927,7.645761379,0,0,484.2017439,0,326.3394526,0,44.19148081,-64.36443691,1382.169622,18.36006293,21706.58394,-144.9999153,767.3938803,0,,,,
290.9439998,1136,46.2376236,29.83263661,0,0,275.3539756,0,54.32052419,0,40.12369579,91.82348261,1596.559113,146.3317496,21816.98032,217.5712908,716.0300587,0,,,,
290.9519998,1136,-23.29170563,-99.12052219,0,0,501.7967184,0,452.2741218,0,42.10144532,-40.42603981,1426.916532,-3.461305246,21931.41029,5.14968975,546.1735726,0,,,,
290.9599998,1136,-5.296110181,7.36582517,0,0,429.6158267,0,177.6327835,0,-1.182069768,-50.23737307,1446.096666,42.04060168,22196.72525,-74.00164036,865.3602264,0,,,,
290.9679998,1136,19.71849409,-39.56469489,0,0,318.3232104,0,189.7611205,0,22.78198678,68.16157102,1631.504122,79.55740788,22180.1575,310.2106474,574.1377514,0,,,,
290.9759998,1136,-12.08115299,-44.57497343,0,0,551.2075627,0,429.6329777,0,28.87188721,-133.025453,1289.028784,-53.42738439,22433.70664,-233.917847,725.2415858,0,,,,
290.9839998,1136,38.74375967,24.58017837,0,0,264.893247,0,21.76405353,0,34.76013596,66.40999232,1575.908999,116.4530249,22532.93325,217.4965002,731.9172999,0,,,,
290.9919998,1136,-34.94844017,-90.71547285,0,0,469.8012279,0,427.1334935,0,40.4421001,-43.41411198,1411.832089,-17.93314401,22630.16083,39.8006966,516.1566462,0,,,,
290.9999998,1136,-13.1677505,1.469667509,0,0,441.7736851,0,221.2280402,0,-22.47857148,-71.55630238,1349.240499,27.19884293,22905.98131,-141.691761,824.1759042,0,,,,
291.0079998,1136,20.41399021,-45.24735583,0,0,261.6688395,0,142.9366692,0,10.36798168,88.41688344,1612.465902,103.0145663,22874.09697,338.5288325,542.4936127,0,,,,
291.0159998,1136,-30.70172964,-55.02140848,0,0,534.8345887,0,460.1389026,0,18.5841955,-153.0656898,1237.806269,-66.27965901,23143.08183,-271.3671015,683.6320643,0,,,,
291.0239998,1136,63.90170053,49.94616017,0,0,209.1950618,0,13.4684152,0,21.18778181,76.91138394,1521.442528,143.3076189,23251.71234,196.1027818,685.747062,0,,,,
291.0319998,1136,17.53802442,-61.87232491,0,0,391.210113,0,418.0604518,0,81.05271945,-14.90065326,1354.035827,18.87033207,23327.27811,41.12373151,437.1727438,0,,,,
291.0399998,1136,18.08545792,30.99670775,0,0,366.2112773,0,233.2255745,0,51.52722621,-62.89565602,1266.367017,42.29572908,23616.78377,-168.2318206,739.5656408,0,,,,
291.0479998,1136,30.6538986,-20.3459715,0,0,164.3616038,0,124.9074171,0,44.18649526,118.2559152,1548.454266,134.5989334,23594.23812,360.4034395,443.1725009,0,,,,
291.0559998,1136,-30.81744063,-53.43621731,0,0,489.716525,0,493.1376827,0,21.82666135,-151.3917573,1175.636333,-69.52148989,23849.33688,-264.7595494,601.4729043,0,,,,
291.0639998,1136,47.80923783,37.66599874,0,0,176.9283971,0,24.99647095,0,27.25938365,69.4405421,1498.116071,131.6461406,23949.75928,221.5773835,653.7657574,0,,,,
291.0719998,1137,-24.92238129,-101.4708143,0,0,371.621526,0,424.404398,0,44.07826182,-32.10712013,1343.309842,3.030580225,24017.1618,72.00031636,413.468449,0,,,,
291.0799998,1137,11.67125081,21.12152395,0,0,346.7911337,0,241.3108767,0,14.47725969,-89.16475788,1244.403402,28.67308155,24300.32302,-157.9084322,726.1483735,0,,,,
291.0879998,1137,38.40869304,-18.83565237,0,0,133.1212665,0,116.301313,0,79.37002805,124.1063416,1523.366992,154.8064583,24279.90217,385.889064,417.8364488,0,,,,
291.0959998,1137,-53.98757367,-85.98585424,0,0,479.4358406,0,501.1074852,0,19.4474785,-158.8536885,1146.199832,-67.42613761,24540.89146,-246.8467365,574.9961143,0,,,,
291.1039998,1137,41.36289322,38.16363646,0,0,152.4203084,0,17.65899626,0,-24.79748852,49.97443624,1466.39287,119.850555,24639.85568,232.5546485,635.2788789,0,,,,
291.1119998,1137,-4.120105877,-72.29418146,0,0,328.5670131,0,412.7580008,0,55.07174337,-19.86484987,1293.328293,16.28948541,24702.77162,82.17918825,360.7861642,0,,,,
291.1199998,1137,10.10005643,8.341442264,0,0,330.1463774,0,250.1695234,0,27.83818163,-83.65983309,1198.5958,25.87181342,24983.91143,-152.9155912,680.5707324,0,,,,
291.1279998,1137,15.05783836,-44.22017287,0,0,133.5483088,0,123.5360099,0,44.8382077,104.767971,1509.579477,123.1207116,24948.4885,405.4611088,403.5648581,0,,,,
291.1359998,1137,-52.31208686,-70.93906023,0,0,461.9399919,0,502.401834,0,27.04504818,-164.7614454,1118.232708,-81.94180273,25194.27501,-241.5169196,547.1013334,0,,,,
291.1439998,1137,50.44775471,48.32460415,0,0,124.8153473,0,13.09129025,0,14.77288392,60.70429936,1420.112096,126.0582635,25280.19332,229.9950389,596.118445,0,,,,
291.1519998,1137,-15.06492432,-91.11174783,0,0,323.5017037,0,418.5645269,0,61.27399785,-19.61738858,1265.941423,11.84256086,25322.02546,94.50814723,334.9320777,0,,,,
