Time:125Hz,Epoch,FP1,FP2,C3,C4,P7,P8,O1,O2,F7,F8,F3,F4,T7,T8,P3,P4,,,,
424.5679997,1658,52.56419683,189.3204144,54.32584506,49.96096274,445.4046664,50.8357707,-62.07408577,3.985251333,-53.01458105,-47.01161715,-0.392450955,-57.62770477,-44.3904004,-63.10794308,0.380576176,886.4113346,,,,
424.5759997,1658,-42.38529487,140.7748356,-30.90220084,-50.66761236,637.1872181,-22.2707973,64.55010998,3.99415403,51.82316514,69.68896696,-0.399912229,59.82773992,52.80049329,75.45703659,0.372638693,420.9789731,,,,
424.5839997,1658,-104.3270203,338.159814,-100.8242554,-111.8481489,829.9789947,-111.6264924,66.91437247,4.002920338,-141.5181293,-129.5366406,-0.407334797,-126.8924064,-145.5212736,-124.2456622,0.364722252,1069.614772,,,,
424.5919997,1658,39.79735858,111.1159626,43.13979001,41.43744346,675.5081648,53.19197482,-56.52383057,4.011552151,9.795781569,17.71642847,-0.41471862,1.74621958,8.654227707,-2.928492429,0.35682697,570.0026791,,,,
424.5999997,1658,-96.62949901,283.9750632,-92.5643592,-104.1625811,789.0758085,-87.86450732,135.5252379,4.020049845,-48.46550007,-32.56982642,-0.422063661,-20.21785775,-47.1769189,-26.39070748,0.348952967,815.3152816,,,,
424.6079997,1658,41.89311644,211.8790375,38.12258172,43.43924722,339.0523663,36.21913253,-65.63478357,4.02841297,-63.4635267,-50.64778132,-0.429369883,-55.85490604,-60.66950004,-65.80611942,0.341100359,985.9223831,,,,
424.6159997,1658,-17.76972942,139.7420887,-13.0979298,-24.53768381,566.4521507,-0.829669285,53.00734061,4.036644301,59.04089159,72.73627089,-0.436637249,72.22248649,64.8155935,69.03798134,0.333269263,510.5453882,,,,
424.6239997,1658,-52.02758876,324.2217004,-59.08592784,-52.6625729,700.0457847,-50.08133197,55.9833466,4.044741556,-98.23731558,-79.27494798,-0.443865727,-72.63446563,-103.0697163,-84.31368333,0.325459793,1149.056323,,,,
424.6319997,1658,90.33529403,89.43039717,83.64100404,97.86799516,875.9109459,118.4491581,-54.80688098,4.052703939,61.22435938,78.83435292,-0.451055283,63.67936401,43.786713,64.2893492,0.317672064,649.6504543,,,,
424.6399997,1658,-71.60095956,266.4224382,-77.00625572,-81.02331668,1274.885692,-60.3149528,155.3022985,4.060533485,-13.52154744,-2.551858182,-0.458205885,11.28698167,-20.56761027,20.46919313,0.309906188,888.6584315,,,,
424.6479997,1658,34.84920677,210.0479583,20.16810947,37.6217429,811.5421698,30.61025674,-45.37766562,4.068232641,-53.19791733,-36.38584188,-0.465317501,-48.1538726,-56.53488479,-45.73289361,0.302162278,1082.850981,,,,
424.6559997,1658,-23.99084633,135.3488942,-27.40668448,-27.29859138,993.6207702,-2.374801279,71.21543297,4.075797785,58.39894536,79.4794104,-0.472390102,73.99874852,53.89442743,80.70859606,0.294440445,619.4991289,,,,
424.6639997,1658,-47.96595205,309.8509208,-61.7888791,-52.11017593,837.3468211,-57.24194243,70.41767927,4.083232495,-105.4685558,-96.49854146,-0.479423659,-85.59292858,-117.4633457,-90.38030363,0.2867408,1267.160044,,,,
424.6719997,1658,88.15077265,73.27325904,78.7231397,91.57946226,567.2580793,101.6716804,-54.69533985,4.090536513,66.43552256,78.03491159,-0.486418145,59.28579009,42.88773527,51.40887272,0.27906345,763.3816208,,,,
424.6799997,1658,-75.61784799,251.1380694,-77.27024465,-83.32654051,717.0866028,-62.48197419,152.4936312,4.097706687,-6.461225095,4.605614194,-0.493373532,9.551060799,-12.53982262,14.71279776,0.271408505,995.0870248,,,,
424.6879997,1658,65.68532435,182.2101369,55.13230042,74.00113873,164.1308794,71.48752135,-53.5091133,4.104747875,-48.26567747,-33.23601997,-0.500289795,-55.09727265,-54.31333632,-50.19728384,0.263776071,1199.791775,,,,
424.6959997,1658,13.11391218,95.99208074,10.96529867,10.56537255,308.434116,41.52908982,59.90119153,4.111658348,98.57016195,124.7790173,-0.507166911,102.3207166,81.68223499,112.8647448,0.256166255,698.5862352,,,,
424.7039997,1659,-64.60700363,285.8213801,-78.1594017,-73.95160688,407.1942502,-76.466247,67.96812084,4.118437079,-88.8347445,-75.90124991,-0.514004854,-79.19969423,-86.2043244,-60.88700433,0.248579162,1337.791489,,,,
424.7119997,1659,56.8792174,53.51930843,48.9549986,62.16342093,532.1124715,67.4080594,-60.92116878,4.125087135,31.45733363,44.45156021,-0.520803604,21.43887856,33.2923189,42.58544961,0.241014897,855.4335501,,,,
424.7199997,1659,-85.916909,218.6242188,-90.18521697,-84.30435871,746.9199346,-63.88030078,137.5043324,4.131607081,-27.78670815,-7.402906447,-0.527563138,-0.058520813,-32.59542896,7.048825614,0.233473562,1061.934084,,,,
424.7279997,1659,40.46483203,151.6654702,25.03065413,55.53946179,190.9475682,49.57612313,-69.38529738,4.137998983,-54.42010616,-37.69132658,-0.534283438,-47.52669335,-42.29367449,-47.90163701,0.225955261,1249.313969,,,,
424.7359997,1659,-19.6522359,65.41941676,-20.6954859,-12.83922924,418.9982972,7.580057226,60.59900613,4.144262562,67.8041984,90.55052369,-0.540964483,85.34502851,71.14366009,115.5748874,0.218460093,741.3143888,,,,
424.7439997,1659,-55.68211569,243.1647579,-65.28885447,-49.45224996,316.3774483,-49.92656062,90.32246674,4.150394186,-105.1868959,-86.21216796,-0.547606255,-76.25115855,-114.0047351,-71.49687714,0.21098816,1370.80882,,,,
424.7519997,1659,79.38894246,-0.675610095,73.47540324,91.63442728,126.3921145,101.2429484,-35.20775366,4.156399239,57.19301332,60.93760606,-0.554208738,52.30792494,68.5415114,49.85097052,0.203539562,870.8836181,,,,
424.7599997,1659,-93.31925882,157.2352113,-98.19800048,-94.12766783,326.0321669,-79.88366391,180.1548919,4.162277503,-15.80551219,-14.33156833,-0.560771917,1.56283479,-0.908452474,39.85115861,0.196114395,1068.732892,,,,
424.7679997,1659,41.2178264,70.74821935,22.93394433,57.63511271,-9.522419886,51.34413376,-19.48706291,4.168026209,-58.32240862,-48.00995763,-0.567295775,-60.29028646,-61.80513412,-49.66616711,0.188712759,1267.783994,,,,
424.7759997,1659,8.853922125,-49.36074455,2.085596044,15.03757861,426.7826481,34.86218563,78.69260781,4.173648845,80.69535498,93.24508219,-0.573780299,81.65637345,78.02490918,99.04932551,0.18133475,739.3222737,,,,
424.7839997,1659,-46.85301795,130.4624597,-65.18716932,-47.48673027,328.2123859,-61.82913781,87.92782352,4.179145008,-93.01712967,-91.09432789,-0.580225477,-89.8530523,-86.64556483,-63.3260009,0.173980462,1346.998043,,,,
424.7919997,1659,60.84628435,-88.18765347,48.96853228,69.27349405,21.27500633,72.59149955,-51.67411073,4.184513646,40.96320904,37.62759006,-0.586631297,19.766182,45.92617269,33.21597228,0.166649991,855.737665,,,,
424.7999997,1659,-106.0592035,57.21462591,-113.7486562,-110.5336549,223.7472649,-91.80866222,134.986851,4.189757455,-40.19177531,-39.41877659,-0.592997747,-36.55553569,-32.2410765,-16.64066088,0.15934343,1048.93363,,,,
424.8079997,1659,35.98850479,-33.5332616,15.79239365,43.75601117,-142.5506882,32.81961855,-76.59369276,4.194875392,-71.22259086,-73.61837925,-0.599324819,-97.08146364,-64.79653059,-81.8899383,0.152060872,1208.928969,,,,
424.8159997,1659,17.9087286,-127.5553717,14.36646452,20.01528987,110.6634314,39.86407956,31.79768392,4.199867307,73.03743322,70.47663351,-0.605612504,55.36704695,72.39111425,96.61287916,0.144802408,635.5267909,,,,
424.8239997,1659,-31.0129895,47.75024638,-43.70550563,-25.55188604,65.8934029,-23.70059909,51.85140189,4.204734187,-80.8880757,-80.07682446,-0.611860795,-86.89612049,-78.46431427,-56.53746296,0.13756813,1222.751848,,,,
424.8319997,1659,74.39493791,-177.2575504,63.29476221,89.47794071,21.50228018,103.0912781,-75.17469453,4.209475567,67.83949757,62.87853825,-0.618069683,30.10384014,73.55455437,74.24211742,0.130358126,688.1992828,,,,
424.8399997,1659,-66.6769632,13.25645347,-76.28740056,-71.62335179,290.1460357,-53.19987342,129.9424647,4.214093121,-16.56715306,-16.94705937,-0.624239166,-26.46653662,-2.477852205,35.92678991,0.123172486,853.2731185,,,,
424.8479997,1659,72.82467526,-25.24763965,51.65888407,79.57775571,-44.00418067,72.7687396,-69.43971548,4.218586706,-43.58213964,-33.23865513,-0.630369237,-66.65223207,-25.97827316,-53.23941202,0.116011298,1056.543448,,,,
424.8559997,1659,4.5703813,-86.07819941,0.141126793,8.749043556,306.8828389,30.45640007,56.25296792,4.222957444,90.89061161,97.17750376,-0.636459893,76.29904794,102.2172798,118.1538745,0.108874649,517.0766748,,,,
424.8639997,1659,-36.67812906,127.9313824,-50.81390551,-31.25868232,226.7007446,-39.32715526,94.80503813,4.227203757,-88.32525536,-89.48062572,-0.642511131,-93.85208542,-82.88828842,-39.65239618,0.101762624,1147.857434,,,,
424.8719997,1659,112.4268126,-77.36400534,98.26655042,126.1998442,116.879043,131.9939896,-41.81059488,4.23132653,80.72479866,79.49995059,-0.648522951,52.41392936,76.725984,82.03552003,0.094675308,659.0462499,,,,
424.8799997,1659,-72.29117846,114.7233894,-83.68220433,-74.62406904,382.1080701,-57.85533233,155.5629194,4.23532774,1.584433256,3.62730199,-0.654495352,1.706928424,7.435242792,41.65885584,0.087612786,830.6479284,,,,
424.8879997,1659,38.21368171,75.53120451,14.80982272,54.76459425,-0.49579707,46.54582249,-41.19428076,4.239206523,-66.22623508,-66.48558921,-0.660428334,-90.06531771,-50.22423189,-70.02250354,0.08057514,1063.312935,,,,
424.8959997,1659,10.04524796,-3.536981878,-4.405014843,19.65366365,374.5218822,45.23898136,72.24872087,4.242963708,86.14532848,81.19785627,-0.666321898,67.96909911,89.26167876,100.8290176,0.073562454,534.2535374,,,,
424.9039997,1659,-28.73211249,196.4243979,-53.79346092,-29.63716342,368.9469493,-33.76776417,100.1050061,4.246599192,-74.00783795,-77.13993831,-0.672176048,-83.74231726,-68.80275316,-28.81459254,0.066574807,1163.778625,,,,
424.9119997,1659,105.964761,-20.46468606,85.76926337,116.0270878,250.3460674,120.2020854,-32.01503317,4.250113351,74.30170276,71.50919792,-0.677990786,35.84036609,90.89560928,85.19357385,0.05961228,694.2702774,,,,
424.9199997,1659,-82.94797581,162.2539783,-103.1083846,-91.86608687,509.6000897,-78.46344192,177.7757971,4.253507292,-7.249632421,-18.26397492,-0.683766117,-22.61385084,-6.102107131,30.91708357,0.052674953,879.0608129,,,,
424.9279997,1659,45.14931331,123.5450021,12.09445566,43.8069401,-48.0433682,28.07605412,-22.16989303,4.256782161,-67.86274619,-76.92010306,-0.689502047,-111.4714817,-82.45580357,-57.91080931,0.045762904,1137.555155,,,,
424.9359997,1659,26.68365151,39.2714366,6.219984878,23.37602786,132.7248735,45.97688106,82.80464873,4.259935016,100.5602832,97.29991657,-0.695198582,63.17882576,102.2170804,112.7076575,0.03887621,606.8462776,,,,
424.9439997,1659,-48.56312183,247.7010784,-82.69396882,-60.01168515,94.1138867,-60.88045996,105.3784143,4.262967207,-74.1367564,-87.65284274,-0.700855729,-97.985807,-69.97673442,-74.35377027,0.032014948,1239.726735,,,,
424.9519997,1659,90.30730589,36.98816819,59.75533793,85.73473464,-101.1648981,85.61440465,-47.34981918,4.265881585,52.70942789,45.38381413,-0.706473497,11.25311886,43.13432131,35.35959976,0.025179193,792.4794836,,,,
424.9599997,1660,-53.86945539,212.2004235,-80.70401675,-66.02197695,229.2748614,-53.97657492,148.8009341,4.268677181,5.760790951,4.944842303,-0.712051895,1.680088992,1.876110387,38.1746284,0.018369021,967.4040345,,,,
424.9679997,1660,63.59167199,188.003546,28.40661456,68.95642008,-169.7666247,59.8194023,-33.5557506,4.271355616,-41.70445873,-52.39487688,-0.717590933,-66.70428863,-49.16511235,-27.6477677,0.011584504,1232.917262,,,,
424.9759997,1660,23.57751742,122.0644586,11.62580192,30.81785377,-25.30320034,58.30111704,115.552047,4.273915013,102.2451511,108.7463658,-0.723090622,89.05418361,89.35579298,161.8243847,0.004825715,730.500074,,,,
424.9839997,1660,-33.22220002,333.2221137,-57.82894281,-23.51130296,-112.7280077,-11.75339083,155.5300338,4.276356404,-68.6645189,-47.3742628,-0.728550975,-58.06246807,-78.71891521,-19.04804117,-0.001907273,1392.56523,,,,
424.9919997,1660,94.98350596,127.226882,67.42340224,108.7246359,-253.7405989,124.280797,-6.796806098,4.278681681,62.82428528,73.1140543,-0.733972004,51.30671122,62.26535794,48.61074123,-0.008614389,958.9540295,,,,
424.9999997,1660,-81.36489933,315.8933193,-98.94478188,-87.34584501,91.6566705,-70.38156404,215.092324,4.280890006,-3.363387402,-1.872643668,-0.739353725,7.752677964,4.950543213,45.86859103,-0.015295565,1145.098212,,,,
425.0079997,1660,32.05696033,291.6522823,4.353493171,43.559136,-305.8234893,40.29384553,24.91202751,4.282982186,-67.88807025,-63.21682182,-0.744696151,-75.17142244,-76.27003078,-36.32735861,-0.02195073,1443.62428,,,,
425.0159997,1660,-7.789394202,205.3493366,-19.17767858,1.473361278,-82.29990342,35.5756345,114.2989382,4.284956207,69.47811379,75.84354531,-0.749999298,68.52948244,64.09156243,76.61913707,-0.028579816,940.8424831,,,,
425.0239997,1660,-59.79111434,406.3370392,-74.87380617,-52.70833675,-139.0707935,-47.92188859,141.6984036,4.286814451,-90.81547488,-96.46809506,-0.755263184,-89.7905068,-86.24874618,-73.49137795,-0.035182757,1592.769731,,,,
425.0319997,1660,80.25320272,189.2483009,66.2328639,106.8621551,-340.6510004,116.845923,-15.82415239,4.2885603,59.22942049,58.53272713,-0.760487826,38.3229851,57.0521814,74.637665,-0.041759486,1149.663474,,,,
425.0399997,1660,-95.97387185,360.7189416,-102.2942611,-77.12372726,28.58929169,-54.65740182,191.6249561,4.290189978,-10.63009609,-6.4950979,-0.765673244,-0.233375069,5.48202856,27.30625659,-0.048309937,1309.400087,,,,
425.0479997,1660,38.16694185,335.6756631,19.29491258,65.80744145,-258.4169206,58.13787372,-6.772466931,4.291704052,-70.3002513,-71.63488063,-0.770819455,-90.50273346,-60.78657148,-59.81560887,-0.054834047,1598.899253,,,,
425.0559997,1660,6.405833214,258.8053098,-6.271125214,24.68502736,-50.70961366,49.39527706,78.42866279,4.293105455,86.65533541,96.16466339,-0.775926482,66.18028277,68.81243352,127.8384151,-0.06133175,1073.849094,,,,
425.0639997,1660,-87.77342136,472.9971674,-108.2000779,-78.26038762,-238.1222502,-74.06221274,104.7900222,4.294392388,-102.4076651,-104.0823941,-0.780994345,-115.1373031,-103.0209134,-77.70480063,-0.067802986,1719.530576,,,,
425.0719997,1660,60.70835277,254.1553948,43.01397352,76.23989766,-521.7685176,80.34686216,-64.64750009,4.295566348,21.66783482,10.47622131,-0.786023068,-18.12859943,31.83202398,16.60190299,-0.074247692,1288.050343,,,,
425.0799997,1660,-76.18233257,412.4168767,-87.61258553,-72.27111372,-161.8374868,-53.26042903,144.2776883,4.296626781,-12.63552241,-11.60477782,-0.791012672,-18.50252289,-15.60533039,26.58046457,-0.080665807,1433.941853,,,,
425.0879997,1660,51.29580596,373.4407654,33.10055471,66.0278846,-453.7721269,67.73036612,-36.73026559,4.297575263,-53.60042614,-55.60486925,-0.795963182,-74.55041642,-51.24280313,-77.79445378,-0.087057271,1726.574806,,,,
425.0959997,1660,13.57377441,276.529451,6.734869577,16.04828049,-216.1824737,41.98971183,50.49908257,4.298411739,90.474687,86.40599315,-0.800874624,76.75373447,91.2573484,100.8530291,-0.093422026,1200.196984,,,,
425.1039997,1660,-93.63272038,490.1057349,-108.6773549,-97.55994369,-234.7877731,-93.76915318,92.24093099,4.299134365,-99.45918531,-99.50676404,-0.805747023,-99.82274459,-114.773717,-49.22857147,-0.099760013,1849.657199,,,,
425.1119997,1660,29.0531183,279.7758979,25.5772172,40.35616103,-444.3170988,61.23327849,-66.66838457,4.299748442,7.206302708,15.51375338,-0.810580406,-14.37183643,-4.069204815,-7.280657073,-0.106071174,1452.191801,,,,
425.1199997,1660,-117.4555402,437.6763336,-111.7764124,-121.7097549,-195.0856511,-92.56944964,130.4814899,4.300251336,-53.94113194,-43.27524247,-0.815374801,-45.66781335,-53.46597379,-45.184391,-0.112355454,1621.139293,,,,
425.1279997,1660,-7.464000228,403.5650724,-15.24018585,-12.3859826,-488.6450418,-12.16730747,-61.12388849,4.300644689,-99.53711102,-94.56880612,-0.820130236,-119.1748028,-99.94210108,-112.7799188,-0.118612798,1921.944665,,,,
425.1359997,1660,-42.14187672,303.609052,-29.83189766,-52.89466214,-224.1801639,-12.94896438,21.73659351,4.300928015,43.21416591,55.88099752,-0.82484674,25.52433498,35.71144183,39.72532901,-0.124843149,1387.454489,,,,
425.1439997,1660,-100.4169032,503.4012424,-85.21928785,-110.8621871,-275.9237508,-92.43185313,79.05817181,4.301098932,-136.3015615,-116.5877518,-0.829524345,-135.7953041,-148.3567985,-124.7147441,-0.131046456,2027.394309,,,,
425.1519997,1660,41.65897555,280.4690802,63.97860049,36.84331169,-443.7369299,60.60954569,-67.45626427,4.301162472,10.6085305,33.78292538,-0.834163081,-13.55507581,-1.105370177,-2.43992508,-0.137222664,1593.64845,,,,
425.1599997,1660,-101.1395296,419.4283251,-73.30519741,-124.079463,-200.2345171,-88.37767209,130.1437236,4.301116445,-21.84381481,3.411714065,-0.838762981,-20.71933883,-36.50472146,-9.507275226,-0.143371723,1706.840768,,,,
425.1679997,1660,36.4920771,373.4895865,52.90487504,25.78159954,-577.2214844,32.63101216,-37.13688153,4.300963064,-66.76463727,-44.1825544,-0.843324076,-83.80135367,-85.5792425,-91.69682255,-0.149493581,1984.579697,,,,
425.1759997,1660,3.697497494,280.9400524,32.55640553,-6.995040019,-295.2356626,38.10132444,68.01368702,4.300703012,86.09457603,111.0611165,-0.847846401,75.52423169,69.99191135,75.5486227,-0.155588188,1422.884519,,,,
425.1839997,1660,-65.03869333,489.2696366,-47.49460397,-84.59554128,-326.6846703,-64.88253084,112.1065121,4.300333444,-87.9706253,-64.04263274,-0.852329991,-89.81460503,-105.7367749,-98.72323766,-0.161655495,2052.218017,,,,
425.1919997,1660,71.72676491,268.1916205,90.48269194,58.49653963,-528.162826,78.14431698,-46.50514746,4.299857591,36.75310338,65.85625428,-0.856774881,8.183184696,9.664834821,13.72013405,-0.167695453,1627.912619,,,,
425.1999997,1660,-83.63544652,416.7325793,-55.86192956,-101.7824437,-182.1997444,-65.28788031,158.0246227,4.299273364,-12.52281639,23.31686618,-0.861181107,-12.45604997,-31.31566326,13.92767354,-0.173708015,1738.508246,,,,
425.2079997,1660,60.08813807,376.847756,76.54498472,51.88883029,-459.8560638,56.59368801,-16.51951206,4.298581497,-53.528516,-23.15287738,-0.865548706,-73.93511689,-57.02034925,-79.13604991,-0.179693134,2034.306767,,,,
425.2159997,1661,24.97842127,266.8002168,47.08240869,5.906525966,-217.7551541,40.45997652,72.34625293,4.297787075,101.8283736,134.9229089,-0.869877717,89.35493667,89.16081414,90.43260558,-0.185650765,1480.487337,,,,
425.2239997,1661,-86.8669225,470.5876735,-74.18179666,-107.8754632,-293.1883784,-92.25442895,110.334883,4.296887839,-96.04936769,-68.87133537,-0.874168178,-92.3970906,-117.7434236,-94.28921316,-0.191580863,2114.637019,,,,
425.2319997,1661,51.93066722,253.6725843,68.45630533,43.4676458,-491.4987351,59.68592682,-52.22910143,4.295884099,13.32909859,35.64851162,-0.878420128,-6.248945898,-0.2551332,-21.4428216,-0.197483383,1706.388121,,,,
425.2399997,1661,-75.90743513,400.1754784,-52.61680076,-96.21826377,-98.54373425,-69.95238431,158.5577495,4.29477375,-16.77483835,9.675237065,-0.882633609,-6.14890336,-30.07887675,-4.200809672,-0.203358283,1816.253592,,,,
425.2479997,1661,46.13919311,372.9798798,66.21429169,37.74580011,-371.3260456,39.95507255,-23.95357771,4.293559346,-56.43439272,-42.8570926,-0.886808661,-66.52531027,-68.6004797,-87.74008329,-0.20920552,2123.591261,,,,
425.2559997,1661,8.942101694,274.2984481,37.14105306,-6.818694838,-149.3343744,25.88667538,42.0324329,4.292243091,87.10951959,96.20110275,-0.890945326,78.41512476,90.61270001,45.64023986,-0.215025053,1574.52798,,,,
425.2639997,1661,-64.19657518,486.4071782,-60.13369566,-84.21784256,-208.7652677,-76.47406298,50.16227369,4.290820423,-98.75178981,-80.3816363,-0.895043648,-88.75979168,-103.2211943,-98.74194736,-0.22081684,2209.372031,,,,
425.2719997,1661,103.2863953,269.6001511,109.1481169,99.15141091,-411.8530646,118.7287631,-155.3799205,4.289296853,47.49895526,75.64280678,-0.899103669,40.70187186,29.14464767,32.11291045,-0.226580844,1793.198049,,,,
425.2799997,1661,-58.11605704,419.0425391,-33.73507917,-76.1372658,-55.88950036,-44.08668362,63.10629728,4.287673148,18.38313683,39.11445917,-0.903125435,35.07916776,15.0763821,35.33733557,-0.232317024,1887.355547,,,,
425.2879997,1661,15.71973796,407.3960564,30.86280131,6.083506584,-381.7984646,6.237879952,-100.4820404,4.285945349,-79.45485497,-73.36614663,-0.907108991,-85.90784105,-87.40023231,-77.03460796,-0.238025342,2225.82446,,,,
425.2959997,1661,-5.942328843,301.5744156,16.8605839,-12.83789325,-83.57687054,27.31170747,-53.29184974,4.284114916,54.6678364,65.08058616,-0.911054382,52.33584747,45.29658295,37.39120608,-0.243705763,1691.80169,,,,
425.3039997,1661,-64.04341436,492.2575692,-50.15551706,-76.10791252,-21.37094795,-67.0622215,-39.39032949,4.282183828,-99.02174731,-90.87090485,-0.914961656,-94.57578015,-93.39812793,-126.0440419,-0.249358248,2320.755415,,,,
425.3119997,1661,81.56812719,262.5926435,94.31579158,74.88323162,-306.8187131,78.47438453,-240.5360525,4.280151901,35.18408451,35.4272421,-0.91883086,4.578032939,28.41579289,0.753373497,-0.254982763,1918.358362,,,,
425.3199997,1661,-74.30665194,406.309998,-60.19026618,-93.24552463,-45.44369297,-66.06181178,-67.78717787,4.278021049,-3.980858715,-7.444351476,-0.922662042,-17.16433046,-18.21314169,4.760710376,-0.260579273,2017.757168,,,,
425.3279997,1661,28.78581397,386.2514199,24.24993289,13.13686935,-348.5137623,11.37874422,-282.0297029,4.275790659,-74.77649142,-75.53496673,-0.926455252,-110.8300459,-96.40654802,-100.659482,-0.266147744,2351.191361,,,,
425.3359997,1661,5.097833681,275.2142653,14.49020536,-18.78384945,-52.38383343,6.810289903,-217.5855485,4.273459276,70.73164389,70.08566119,-0.93021054,36.35834093,57.27592511,54.5260941,-0.271688143,1795.453682,,,,
425.3439997,1661,-56.78948545,480.5019399,-49.15176395,-83.86746458,-45.92521098,-75.48685165,-149.6494448,4.271029956,-89.03494888,-101.1002881,-0.933927956,-109.0745981,-77.29378197,-97.43897047,-0.277200439,2416.948049,,,,
425.3519997,1661,93.34310806,259.2295355,97.60175785,75.58434946,-444.4124438,92.27692764,-338.726581,4.268502226,47.83006768,37.4027046,-0.937607552,10.09445075,40.71924374,-4.031279694,-0.282684599,2005.62359,,,,
425.3599997,1661,-69.43970762,403.5392763,-63.48377377,-100.175122,-273.8538549,-68.6981438,-141.3410718,4.265877006,4.722677132,-0.378771597,-0.94124938,-2.360515152,-17.51507908,-5.392964111,-0.288140595,2070.904968,,,,
425.3679997,1661,50.98788364,383.5660339,44.44526004,28.97893997,-603.9687921,31.18311687,-295.9272252,4.263154794,-68.56155751,-69.5071077,-0.944853492,-93.81437173,-82.0239842,-96.41966382,-0.293568394,2389.974124,,,,
425.3759997,1661,36.68034087,258.7988015,37.56290459,6.113041734,-397.6387814,38.41196146,-215.2284796,4.260334205,92.51695026,99.4268282,-0.948419944,72.20302208,81.03014239,78.27711559,-0.29896797,1798.537928,,,,
425.3839997,1661,-53.42461242,462.4769003,-62.6572068,-92.65593781,-264.4519068,-81.14279161,-148.3523187,4.257416915,-73.51765781,-70.23853221,-0.951948789,-79.76401472,-82.92098457,-73.68762998,-0.304339294,2369.772623,,,,
425.3919997,1661,86.61060122,238.0794673,84.88584306,61.56472435,-140.05035,78.11972128,-308.321434,4.254404814,38.38594339,36.69013682,-0.955440082,4.667701314,32.90755417,-0.032167592,-0.309682339,1936.070698,,,,
425.3999997,1661,-75.76957854,355.3989949,-71.16472328,-112.6565134,343.803477,-83.93235756,-94.10431054,4.251296732,1.132584068,-1.101605188,-0.958893879,-3.093363285,-6.135360918,-3.147294748,-0.314997078,1967.603486,,,,
425.4079997,1661,43.56486771,301.4481311,31.32459635,14.14857312,-22.78829964,15.50741115,-262.9781293,4.24809082,-67.75336273,-73.91041376,-0.962310237,-90.20849003,-84.44307564,-97.52371201,-0.320283486,2240.674963,,,,
425.4159997,1661,63.21503493,127.2785053,62.18933403,31.78229231,226.6897067,66.11299313,-194.4328311,4.244789734,106.9725191,100.8705075,-0.965689214,84.83672044,93.83531167,77.01129386,-0.325541538,1583.722788,,,,
425.4239997,1661,7.051665455,278.1586682,-4.637869706,-33.20395485,162.8052429,-24.15610509,-130.7913277,4.241397337,-19.14605595,-24.5854335,-0.969030867,-24.67038979,-37.30988401,-46.83892651,-0.330771211,2082.122086,,,,
425.4319997,1661,146.4961079,16.19385314,135.9526713,112.2312743,-224.0946656,117.8837952,-298.1088237,4.237910075,107.832186,101.5559968,-0.972335255,72.45743053,92.76582237,53.19774849,-0.335972481,1577.963385,,,,
425.4399997,1661,-24.6056275,112.8417499,-26.7760041,-67.08260353,94.25247392,-50.24698899,-80.26410289,4.234327032,68.24498827,58.91070587,-0.975602438,60.3744488,64.2897347,48.91262515,-0.341145326,1544.997322,,,,
425.4479997,1661,76.43564817,69.47517273,64.37898265,50.16825246,-303.7370717,40.02434041,-237.0023444,4.230653437,-24.09691614,-38.45315904,-0.978832477,-47.44371549,-44.46429605,-50.39843858,-0.346289725,1808.397712,,,,
425.4559997,1661,63.89962579,-79.93891269,69.43967858,38.04062062,-220.300323,64.42083045,-164.8954641,4.226886323,116.0291174,108.0605579,-0.982025431,86.61052499,110.9934751,100.8638651,-0.351405656,1166.947892,,,,
425.4639997,1661,-6.107374397,100.4243188,-10.00478164,-31.39035608,-257.0850901,-20.12625018,-91.88083257,4.223025661,-18.90250734,-18.45190134,-0.985181364,-33.10000479,-21.0834034,-58.02694594,-0.3564931,1696.294057,,,,
425.4719997,1662,150.4878341,-126.2696321,143.2809711,139.6336082,-532.9688616,154.1444213,-249.990405,4.219076512,106.046796,115.676705,-0.988300336,76.63754404,78.96049143,51.79428796,-0.361552038,1242.957602,,,,
425.4799997,1662,-7.430458238,-11.25426719,-3.182270661,-35.16342685,-128.8275187,-7.863796319,-37.53799566,4.215035794,75.22079708,82.87346966,-0.991382412,73.40417436,55.08220634,72.60453377,-0.366582452,1238.345174,,,,
425.4879997,1662,89.75473669,-37.47147184,85.69189305,69.57545026,-382.0394799,69.35692858,-202.5339007,4.21090076,2.347689938,1.607557501,-0.994427654,-21.92819331,-14.48285911,-33.27091108,-0.371584323,1516.763059,,,,
425.4959997,1662,67.62639611,-165.1997694,75.10625417,44.81882774,-109.789005,75.60177951,-129.7301873,4.206676489,128.042061,134.5854658,-0.997436128,111.3869546,127.8552808,133.5124123,-0.376557636,891.3260334,,,,
425.5039997,1662,-19.8553281,14.66674266,-22.56561199,-48.20580303,-47.82615109,-35.30909343,-60.18104504,4.202364524,-35.10770064,-27.45378878,-1.000407899,-30.87768863,-42.69083843,-8.462576123,-0.381502374,1427.04888,,,,
425.5119997,1662,151.1606551,-222.0739804,145.8583588,143.4619432,-400.6985426,168.1460861,-232.4765589,4.197962025,94.85359811,115.3480494,-1.003343031,76.54957702,62.49434068,48.11738093,-0.386418522,955.8850951,,,,
425.5199997,1662,13.10233115,-98.38764049,20.63338224,-6.771267162,-68.31852469,24.38009579,-4.444016321,4.19347084,78.86456979,108.8580951,-1.006241593,95.40530704,58.41716058,57.22312785,-0.391306066,939.6088381,,,,
425.5279997,1662,89.40573925,-114.2481418,89.44393375,67.89795392,-414.409233,64.35693747,-143.5406102,4.188890166,7.799019297,17.01504871,-1.00910365,6.256588971,-10.71467079,-31.42032423,-0.396164992,1232.008688,,,,
425.5359997,1662,73.50072432,-251.6646238,78.34210001,49.08137698,-327.3631044,86.11291607,-82.4057726,4.184220592,137.1923757,145.3686209,-1.011929272,132.3370232,128.1524802,94.59460586,-0.400995288,603.7814412,,,,
425.5439997,1662,5.343079586,-59.90385889,1.806067331,-24.19223809,-295.0055694,-15.68178128,-13.84967486,4.179465852,-15.94486137,2.204329551,-1.014718525,-0.749152659,-36.52940313,-33.49020134,-0.405796941,1145.329964,,,,
425.5519997,1662,153.611773,-262.5128077,149.3027237,132.1998475,-545.3632924,139.2787062,-163.4296965,4.17462308,114.3481174,128.2269874,-1.017471479,110.0234579,78.90095607,77.84655396,-0.410569939,708.6666846,,,,
425.5599997,1662,1.995678004,-133.4059988,-3.088600427,-32.32070861,-213.7089088,-1.119376294,56.31162513,4.169691572,77.26958543,87.62680107,-1.020188205,99.27491771,55.86562433,83.22403067,-0.415314273,722.9838578,,,,
425.5679997,1662,95.51036558,-159.0552963,82.4669476,76.60080499,-559.5088616,83.33553231,-97.18578446,4.164675108,-1.51457742,17.70983082,-1.022868772,4.490131942,-25.44840313,-21.26352847,-0.420029933,1031.521854,,,,
425.5759997,1662,88.89075533,-291.6429029,90.3908255,70.97566132,-366.9359545,103.6634019,-25.4204794,4.159572117,148.5206278,175.9110506,-1.025513251,161.5296369,137.0891702,117.1997486,-0.42471691,393.081014,,,,
425.5839997,1662,9.697267893,-81.38681695,1.861161677,-17.16209165,-260.6893541,-9.693590459,39.93222073,4.154383385,-8.639159308,3.848525574,-1.028121715,17.28458243,-23.4032164,-24.4541085,-0.429375195,948.4937266,,,,
425.5919997,1662,139.1806125,-280.8738147,129.1680067,118.1907304,-478.3192771,129.0685628,-137.5836996,4.149112629,104.9867067,111.2521292,-1.030694235,99.86282262,85.1676202,50.8105835,-0.434004781,536.0309882,,,,
425.5999997,1662,-17.78300291,-152.3345161,-31.6233693,-58.63690609,-87.05999195,-37.19261661,61.73380175,4.143755951,68.58325918,73.19596098,-1.033230885,89.17529023,56.14640958,60.66222748,-0.438605661,542.3155535,,,,
425.6079997,1662,74.4495193,-147.5933083,46.85486246,46.59856594,-412.338214,44.6002087,-104.3516857,4.138313705,-20.28091935,-18.63909236,-1.035731737,-17.33573973,-45.47423585,-36.1824891,-0.44317783,876.5621162,,,,
425.6159997,1662,44.16375996,-254.1914414,34.51190203,18.5508078,-288.1236573,50.39708378,-37.38407841,4.132787887,111.2512543,129.0240642,-1.038196867,119.8726121,105.8381842,77.19742786,-0.447721281,279.179376,,,,
425.6239997,1662,-37.73184134,-47.54062705,-52.585107,-66.97300354,-284.8395602,-61.72983513,31.97026741,4.127179417,-53.65835636,-37.45746949,-1.040626349,-26.67780143,-57.23770602,-62.91740078,-0.452236011,859.2004762,,,,
425.6319997,1662,131.6239241,-269.6018597,115.2740176,117.9534378,-596.6165822,127.2008754,-156.8248484,4.121490785,75.59418855,91.95589314,-1.043020258,78.13908701,55.44949596,38.76739192,-0.456722016,447.2242689,,,,
425.6399997,1662,9.232165348,-165.8725139,-2.700422538,-19.96053781,-272.6988823,2.841237718,58.77889177,4.115718355,75.86720409,100.1963493,-1.045378671,112.403184,62.33874758,55.55654209,-0.461179292,423.2306035,,,,
425.6479997,1662,125.5928964,-188.0578474,106.1084472,103.9628222,-594.4896943,94.68632651,-83.18312437,4.109863501,22.64719786,33.62772285,-1.047701664,43.00780798,5.019070851,-0.568229765,-0.465607838,730.9481793,,,,
425.6559997,1662,100.1720917,-316.9815897,94.61306875,78.09074352,-390.5793692,98.3199362,-25.82503533,4.103929904,167.7043864,179.3075652,-1.049989314,187.2144396,159.823572,163.6558019,-0.470007652,97.25387263,,,,
425.6639997,1662,-18.97087056,-102.1025798,-30.38704524,-42.89232687,-299.2860204,-37.88195217,73.25366756,4.097912545,-12.15864179,9.876766201,-1.052241699,28.83141747,-26.03302691,-20.13915765,-0.474378734,666.1801012,,,,
425.6719997,1662,118.1486191,-312.1606024,111.0254612,107.0817112,-578.2215384,118.1707379,-76.2911005,4.091814849,86.82152051,107.3457226,-1.054458898,102.9006553,68.12843183,34.37113199,-0.478721082,276.8412474,,,,
425.6799997,1662,-16.08235487,-199.3270942,-21.77656112,-44.10983331,-253.0602394,-27.48078395,119.1979512,4.085639702,56.57924212,71.24456664,-1.05664099,98.0689678,42.42951069,54.3992264,-0.483034698,269.2377698,,,,
425.6879997,1662,85.11690244,-202.6100365,65.64006243,69.94838934,-604.3582161,56.24148319,-50.13736689,4.079384201,-13.31221552,0.27792103,-1.058788054,14.15370157,-46.45116222,-29.48226574,-0.487319583,608.6158136,,,,
425.6959997,1662,105.617333,-338.1239504,105.0132092,97.99170356,-447.4629932,122.625066,11.62785924,4.073049753,157.310013,174.281845,-1.060900171,186.1268669,148.4445968,135.4992682,-0.491575739,-16.73065543,,,,
425.7039997,1662,30.5845106,-124.6952728,22.60918796,18.72382962,-358.8957448,26.56058822,108.5243282,4.066635928,16.47543007,39.2986673,-1.06297742,69.15367284,20.2877251,0.007776956,-0.495803169,539.7439603,,,,
425.7119997,1662,116.4160976,-295.7993574,102.8839751,114.1964552,-633.56936,123.7048361,-58.98550291,4.060144857,103.9201667,132.3812882,-1.065019884,135.8769112,87.65254166,73.97918265,-0.500001876,161.8628351,,,,
425.7199997,1662,-46.5989778,-153.17637,-52.09793054,-58.21888831,-286.7333127,-37.08918812,150.8245843,4.053575562,40.72827915,62.0000821,-1.067027644,94.82310035,26.61696389,70.32865408,-0.504171866,175.0780874,,,,
425.7279997,1663,63.56676612,-141.0857108,50.32005551,63.5340291,-582.7457123,55.82792341,1.528597422,4.046929559,-47.12415955,-25.51813238,-1.069000783,-7.996876347,-68.31579508,-48.73051931,-0.508313142,545.0520666,,,,
425.7359997,1663,74.62524957,-264.5784609,71.09914285,68.51466276,-416.3044813,94.09176167,45.39233959,4.040208571,129.2333836,156.9023725,-1.070939384,166.6471228,120.5857335,124.0959457,-0.51242571,-73.48577878,,,,
425.7439997,1663,-14.03768366,-51.79957745,-25.21417897,-32.20947602,-376.2586479,-25.60010802,123.6585702,4.03340953,-14.13676298,3.263924972,-1.07284353,37.95460258,-8.23397719,-13.11664239,-0.516509577,487.2069914,,,,
425.7519997,1663,92.89518018,-244.2033895,84.33672885,88.86392215,-679.2284857,96.50370945,-54.83859897,4.026534339,63.73089608,80.40287539,-1.074713306,90.59044795,52.55617581,28.10022825,-0.520564749,126.3571143,,,,
425.7599997,1663,-17.68374069,-140.4434853,-20.42764903,-29.96835583,-310.9888505,-3.474238382,138.6608106,4.019584935,53.41929267,75.5333055,-1.076548796,102.7410401,45.91612403,60.81569183,-0.524591235,111.6502398,,,,
425.7679997,1663,83.33441124,-137.1003788,62.32637864,73.23105458,-614.4728246,72.99963494,-21.27102098,4.012560772,-15.02767767,-0.200623587,-1.078350085,20.7893785,-19.24586087,-18.152493,-0.528589043,460.0073023,,,,
425.7759997,1663,49.56127135,-252.8329294,40.4084794,38.45289398,-441.3175353,68.3510509,32.40237827,4.005462927,113.8612046,127.9261726,-1.080117259,147.6445799,100.2000935,117.5357102,-0.532558182,-151.1104798,,,,
425.7839997,1663,-38.9802259,-56.33069782,-47.12478013,-46.64690541,-329.4792419,-27.69864318,127.3353032,3.998291506,-34.47607346,-21.60113922,-1.081850404,11.39097729,-32.71721768,-39.84356624,-0.536498661,410.4067447,,,,
425.7919997,1663,98.3943375,-265.5069709,86.70962564,98.68827902,-608.7920542,113.5216205,-44.79518902,3.991046193,59.86207692,74.90099857,-1.083549608,85.02472907,65.83561865,21.006098,-0.540410492,30.40989614,,,,
425.7999997,1663,-12.9551953,-162.8945149,-23.32059939,-32.01194904,-248.8066701,-12.27337476,169.2208769,3.983726452,54.80281226,75.07118892,-1.085214957,108.6795067,43.99881146,54.5360606,-0.544293686,-11.56887135,,,,
425.8079997,1663,81.80657817,-161.7079027,64.39749566,77.96633592,-546.9089852,70.98278759,26.08546037,3.976334974,-8.826093853,1.746490862,-1.086846539,30.18030624,-15.94345943,-25.25100289,-0.548148253,334.0319904,,,,
425.8159997,1663,67.90747802,-284.1476405,66.32042026,76.78727197,-353.7556279,99.59361354,69.03475678,3.968873026,125.090602,141.5846545,-1.088444442,166.6755908,130.3827779,139.4492803,-0.551974208,-295.2436047,,,,
425.8239997,1663,-23.57797328,-81.71859322,-34.09192358,-15.08357506,-155.0888077,-6.772786791,150.876317,3.96133666,-25.50067065,-1.061074862,-1.090008756,34.6023175,-31.36153235,-10.73609979,-0.555771562,257.094574,,,,
425.8319997,1663,132.6399915,-288.1786298,121.7127621,147.4269404,-330.5559082,153.8774653,-32.64246497,3.953729742,78.63539353,97.56474587,-1.09153957,110.9807387,63.92919003,42.60466479,-0.559540331,-124.727501,,,,
425.8399997,1663,20.52806483,-175.7734915,19.35769853,19.51314046,104.0675248,34.3315592,178.9454334,3.946054264,96.53176988,110.8597307,-1.093036973,149.0507118,88.25119867,97.52661232,-0.563280528,-194.3415405,,,,
425.8479997,1663,70.91819499,-143.08873,54.59579695,84.98957929,-253.4838223,74.23344306,38.3566105,3.938309923,6.633772589,20.660103,-1.094501056,48.37701094,-8.944647254,-17.93480829,-0.566992169,180.3902935,,,,
425.8559997,1663,74.5311662,-252.6343769,68.18959464,92.64714379,-266.6799703,112.969131,77.91146686,3.930494582,116.7874138,140.908805,-1.09593191,163.7274878,93.20692562,104.8272137,-0.570675269,-403.536212,,,,
425.8639997,1663,-12.71664844,-38.81126008,-20.58321842,-2.217924219,-190.4957936,1.185005422,172.6536925,3.922607772,-11.55808072,2.534061739,-1.097329626,47.24291289,-30.3773006,-6.508214726,-0.574329846,177.0037792,,,,
425.8719997,1663,92.77950448,-222.7726848,89.41669705,115.6118034,-467.4055198,117.1532484,-4.427877002,3.914654527,70.24252277,79.49472884,-1.098694296,102.195414,71.29502121,50.53187882,-0.577955916,-145.4005404,,,,
425.8799997,1663,-25.34276892,-114.4253571,-21.33666417,-16.23862184,-181.0487611,0.653210801,192.8903041,3.90663168,43.98179807,62.85868134,-1.100026013,102.4313844,45.14516681,70.07751186,-0.581553497,-147.2129211,,,,
425.8879997,1663,45.30937251,-108.4517939,35.1226417,63.64911501,-486.2721758,57.2141306,39.40882563,3.898542062,-33.7438616,-19.50617596,-1.101324868,10.90503357,-47.18138092,-50.44934521,-0.585122608,280.2521832,,,,
425.8959997,1663,52.29895787,-255.4603653,50.22120851,65.94967606,-337.7959975,85.05537897,60.25155591,3.890385594,104.977558,119.4466792,-1.102590956,141.9309628,96.38930195,96.9643545,-0.588663267,-289.6903047,,,,
425.9039997,1663,-10.34670727,-81.02132545,-25.10536694,-8.152496472,-220.9071888,-5.578329845,140.4758532,3.882160597,-19.51001809,-16.3971069,-1.10382437,20.58497834,-33.74807626,16.77645606,-0.592175496,303.8857012,,,,
425.9119997,1663,95.81310433,-281.8662434,87.88546395,120.2056771,-438.4182274,131.4464176,-11.12784567,3.873869847,65.80626767,67.58324569,-1.105025205,84.02624243,66.19294157,46.52074649,-0.595659313,-6.544183403,,,,
425.9199997,1663,-58.93151175,-174.6067308,-50.71724368,-50.89020795,-38.87448542,-29.8890296,228.059592,3.865512876,38.31890427,45.7906858,-1.106193554,82.46778695,49.45133007,18.84790216,-0.59911474,-10.47534639,,,,
425.9279997,1663,23.24863635,-167.9802177,9.424639485,27.39424953,-319.2905009,9.160820419,71.71705473,3.857091283,-58.00989151,-67.08148339,-1.107329513,-43.62512775,-61.568197,-81.21555404,-0.6025418,438.5635607,,,,
425.9359997,1663,26.95929444,-288.3410237,22.81562896,35.51226887,-188.508123,48.74133918,101.7545396,3.848604493,79.9953301,67.01625055,-1.108433178,82.76705697,83.95562395,83.30095951,-0.605940513,-138.1942129,,,,
425.9439997,1663,-78.53240349,-66.03270618,-87.96261001,-76.5707116,-69.41778337,-79.7845239,212.49893,3.840053591,-55.05863843,-66.90181555,-1.109504645,-36.84401867,-55.85467634,-44.64510904,-0.609310904,459.6455963,,,,
425.9519997,1663,56.28998532,-241.5947582,34.62068171,65.40015712,-322.3527523,53.74327429,13.59911831,3.831437608,6.553833247,6.487534551,-1.11054401,2.537720531,2.439021097,-10.30893722,-0.612652995,178.6464212,,,,
425.9599997,1663,-48.77513645,-120.3659804,-62.56444965,-49.45981802,-14.74768809,-42.22578447,210.4907682,3.822760102,19.75414847,20.70282223,-1.111551369,38.87837342,21.96992723,45.93161016,-0.615966812,143.1387284,,,,
425.9679997,1663,16.57289442,-84.66697887,-2.076377251,27.44236371,-340.9714257,10.61951705,75.2873726,3.814019518,-39.66663012,-56.03969997,-1.112526821,-37.77730685,-42.5642958,-34.08906482,-0.619252378,567.9550122,,,,
425.9759997,1663,13.77762223,-191.75643,7.446242442,28.19044932,-156.5371203,36.78391607,100.2667693,3.805212583,60.98374625,57.54114041,-1.113470463,65.59840478,71.86075321,67.99885161,-0.622509719,4.646044403,,,,
425.9839997,1664,-76.51980679,36.40953534,-89.16780313,-66.76597348,6.01010214,-73.81663991,205.3139206,3.796344144,-71.67186114,-70.52367145,-1.114382394,-40.10587608,-68.80911292,-63.93118925,-0.625738862,600.8087081,,,,
425.9919997,1664,45.48907308,-123.2567962,29.42167451,66.28002063,-273.8036531,54.85636813,22.87286079,3.787414859,15.81188126,14.61533163,-1.115262711,27.8129591,2.046492043,7.868717109,-0.628939832,324.2658754,,,,
425.9999997,1664,-55.19674152,-8.310060144,-63.94629601,-47.28997048,57.32682384,-39.65039272,220.0857203,3.778425426,3.529924504,7.133816868,-1.116111514,36.36161788,12.41926965,28.06010629,-0.632112658,319.0973277,,,,
426.0079997,1664,7.530300461,31.3058988,-15.7844294,23.16747491,-245.4605498,12.11764174,71.66361215,3.769374855,-51.4362454,-52.78571287,-1.116928903,-32.79265351,-48.21292193,-69.68719943,-0.635257367,771.4947634,,,,
426.0159997,1664,-20.83242016,-49.41311,-32.4559867,-0.935506417,-175.2528613,11.34324354,92.24651104,3.76026201,50.62640204,56.49305377,-1.117714977,71.4029685,34.57960904,61.2485688,-0.638373988,227.0569648,,,,
426.0239997,1664,-97.41271186,179.7997988,-108.1450105,-87.63615069,-124.1821026,-98.43630823,206.0224973,3.75108929,-106.9864626,-103.5013107,-1.118469836,-68.66671742,-119.762234,-84.53297873,-0.64146255,865.4569675,,,,
426.0319997,1664,44.94753562,12.36092797,26.08889903,58.04419255,-436.9799976,50.72523773,2.557017333,3.741858289,8.848551629,9.812044288,-1.119193582,19.93171552,-1.19156517,-18.34204561,-0.644523082,602.99389,,,,
426.0399997,1664,-82.71911377,139.1016074,-97.16221912,-79.4786416,-121.9110795,-62.6613337,183.2339587,3.732569416,-1.589121013,8.449292713,-1.119886315,37.23712029,-7.922625793,14.32179725,-0.647555614,594.2628699,,,,
426.0479997,1664,-29.39624786,170.8819553,-46.40644894,-18.09453341,-450.1920988,-29.15848258,48.11046746,3.723222629,-98.0239406,-93.49297828,-1.120548137,-70.69351081,-107.7881121,-98.61058067,-0.650560179,1088.202129,,,,
426.0559997,1664,-15.11595825,50.42471983,-23.10631311,-6.648423831,-336.5863036,12.95496126,55.84329441,3.713815842,45.46754242,45.95341119,-1.121179149,65.42467333,36.56843555,43.13405447,-0.653536806,532.6737635,,,,
426.0639997,1664,-99.73574933,269.4407031,-115.3968705,-99.90977541,-151.5811338,-96.59103454,167.4751545,3.704351175,-85.60604874,-89.30236728,-1.121779454,-47.41805112,-104.0848754,-83.00768631,-0.656485529,1148.31085,,,,
426.0719997,1664,6.94429409,109.4035691,-2.376634913,19.39604487,-410.5304401,15.78184648,-7.243268525,3.694828856,-16.85402821,-22.72740574,-1.122349154,-4.428619365,-40.54655687,-26.41118803,-0.659406379,920.3389392,,,,
426.0799997,1664,-104.418517,229.8588394,-102.2516594,-103.497113,-76.69578188,-86.06189713,184.7716106,3.685248886,-16.16816671,-17.15581304,-1.122888353,17.57450366,-21.6835237,-1.350863445,-0.66229939,914.0412658,,,,
426.0879997,1664,-27.90792314,262.5663908,-37.23701914,-27.96290793,-344.7565586,-44.22190662,46.28547515,3.675615872,-91.31535942,-94.2619604,-1.123397154,-68.14376669,-104.8632316,-124.559699,-0.665164596,1406.031589,,,,
426.0959997,1664,-10.04244064,145.7264266,-3.296240033,-11.76756077,-234.5397755,-2.029441257,60.0081452,3.665926762,45.70434775,38.75223461,-1.123875661,65.16692349,24.81537004,28.87543107,-0.668002031,850.6881697,,,,
426.1039997,1664,-98.52332276,372.3757623,-91.39050064,-102.4934935,-85.21539509,-102.0432164,185.7519286,3.656180384,-75.87334861,-83.36415667,-1.124323977,-37.09557017,-85.77785139,-96.28091828,-0.670811731,1463.272798,,,,
426.1119997,1664,1.771699176,209.8928882,5.338362981,6.669137231,-366.763492,-2.030828558,-1.74226654,3.646379708,-15.97123391,-15.65650669,-1.124742207,-1.440173085,-35.60750711,-69.43262288,-0.673593729,1248.279333,,,,
426.1199997,1664,-124.0607488,312.0099338,-112.857162,-130.9790393,-90.38623185,-117.1983602,154.6197041,3.636524711,-42.26827825,-41.17420483,-1.125130456,-8.468960482,-62.32249277,-38.77216579,-0.676348064,1234.662718,,,,
426.1279997,1664,-48.87415283,335.6856689,-45.01300372,-46.36436069,-396.600172,-54.69683256,16.00768348,3.626616304,-122.0534097,-122.5621877,-1.12548883,-98.68152455,-127.3771778,-151.187378,-0.67907477,1722.887299,,,,
426.1359997,1664,-12.81934346,209.3049549,3.48588437,-13.37443911,-330.8039498,-0.040287566,58.99661109,3.61665434,26.66382149,38.67220714,-1.125817433,48.85752266,15.29508802,5.868196474,-0.681773886,1161.967278,,,,
426.1439997,1664,-96.775874,417.9115915,-84.634944,-106.5999894,-249.7129923,-104.8567203,177.9308575,3.606638545,-87.62219705,-75.81857874,-1.126116372,-48.90989298,-102.8107834,-89.75024749,-0.684445449,1754.158766,,,,
426.1519997,1664,2.486247005,243.8189313,14.12818492,6.099025463,-504.2377773,10.14674457,-26.36603095,3.596571002,-18.11073989,-12.04431082,-1.126385753,-9.0868638,-28.61156391,-59.4763319,-0.687089497,1510.919437,,,,
426.1599997,1664,-92.8518463,342.472462,-71.9506703,-100.898018,-192.6605208,-82.38752274,160.0333439,3.586452304,-27.7167068,-15.10364754,-1.126625683,-1.111223018,-38.04350805,-40.8668867,-0.689706069,1465.079701,,,,
426.1679997,1664,-8.515061647,365.791686,-1.33945749,-14.53916741,-468.8142611,-28.12795423,29.22319515,3.576281026,-85.92548398,-72.15938134,-1.126836267,-69.92980071,-90.44247433,-129.5374085,-0.692295205,1939.245092,,,,
426.1759997,1664,-27.30432618,248.1237414,-8.357788544,-31.67951793,-327.7853212,-14.20265864,42.43613993,3.566058301,34.07662474,48.62216206,-1.127017614,45.61987754,32.27089192,17.26368274,-0.694856944,1371.53637,,,,
426.1839997,1664,-119.4912721,469.5080344,-102.9229842,-127.4089548,-244.6009752,-119.7346349,174.2956354,3.555785091,-122.1968831,-101.5225393,-1.127169832,-90.65211663,-127.9273459,-116.4965468,-0.697391327,1978.104573,,,,
426.1919997,1664,21.93279982,291.4550486,30.11355373,20.10599109,-534.2748982,23.76930532,-3.243183342,3.545460814,-25.98288315,-3.157429792,-1.127293027,-14.00219832,-37.633385,-86.36750196,-0.699898395,1745.619924,,,,
426.1999997,1664,-83.78078282,387.3002444,-73.27042333,-104.6398343,-210.4191707,-84.83042262,179.0595002,3.535087507,-20.10899508,-5.409367902,-1.127387309,9.114903721,-37.45140799,-44.23000177,-0.70237819,1687.184139,,,,
426.2079997,1664,-8.166165764,417.7115149,-7.325436926,-21.89780418,-513.6307093,-30.04654974,44.15285239,3.524662999,-88.93557284,-79.86698754,-1.127452785,-75.01928873,-107.5960122,-120.3191287,-0.704830752,2173.426024,,,,
426.2159997,1664,-9.271107137,292.9039395,5.527771787,-19.03168544,-413.8206282,-1.382620499,61.873884,3.514190665,45.53274457,65.32884065,-1.127489565,59.10798678,30.24194159,12.26963548,-0.707256126,1607.230316,,,,
426.2239997,1664,-105.1432905,507.3992751,-96.98726327,-124.1433051,-284.2319822,-120.8022918,188.325086,3.503673117,-104.9610384,-87.32534612,-1.127497758,-73.56413116,-119.0031391,-109.2850068,-0.709654354,2206.507867,,,,
426.2319997,1664,46.36530434,321.1667349,53.32014655,41.80315367,-540.1095565,46.55981544,-1.285156931,3.493104447,-4.126906544,9.420222006,-1.127477473,4.129917224,-13.53171231,-46.14813932,-0.712025479,1977.089217,,,,
426.2399997,1665,-76.08527809,412.1513347,-56.40627999,-91.44207717,-199.7757574,-65.73075836,187.2934325,3.482486014,5.261987775,24.36272165,-1.127428819,42.69307916,1.600329361,-24.10941689,-0.714369546,1913.655117,,,,
426.2479997,1665,-39.49392383,447.7475678,-32.81146425,-52.30349199,-465.9113891,-56.20333475,50.97510339,3.471821755,-106.6700985,-101.901048,-1.127351908,-81.30856115,-124.0870267,-133.0609043,-0.7166866,2428.725299,,,,
426.2559997,1665,-24.23705968,310.6077048,-4.392813903,-30.99643945,-352.2563728,-6.998030563,48.37070628,3.461112634,14.29576506,22.05559207,-1.127246849,33.60574979,3.648538565,10.10142795,-0.718976685,1872.659966,,,,
426.2639997,1665,-112.5302346,518.4522528,-94.97864743,-124.6616711,-188.6194615,-109.0358605,168.6546963,3.450356195,-110.7479093,-84.33527676,-1.127113752,-71.36230144,-104.9909953,-128.3216181,-0.721239847,2458.460456,,,,
426.2719997,1665,32.17516359,336.7638258,39.47919817,24.62885413,-382.7318416,34.24332128,-27.73971423,3.439554451,-15.23401191,4.985618742,-1.126952729,-6.467380619,-27.66061964,-60.22921795,-0.723476133,2237.203796,,,,
426.2799997,1665,-71.46203546,432.2400071,-55.74746229,-92.072702,16.48456108,-67.46778425,172.7765097,3.428707658,5.226777835,20.10094028,-1.126763892,37.32932272,-3.069451864,26.66715886,-0.725685589,2155.600398,,,,
426.2879997,1665,-35.01945758,478.2011864,-26.36081299,-41.58696807,-216.0337573,-38.13664834,55.87827769,3.417814669,-102.0235262,-85.40162088,-1.12654735,-71.91442935,-95.86316563,-125.2839725,-0.727868262,2660.278986,,,,
426.2959997,1665,-13.41135411,336.9565205,0.799535922,-20.63841914,-121.7116258,6.156385668,37.08377877,3.40687824,15.01260093,34.13358655,-1.126303217,37.76971448,14.66157989,-37.04707325,-0.7300242,2098.952294,,,,
426.3039997,1665,-78.5026408,539.8641064,-70.48759805,-102.6795491,-66.34775055,-98.23539461,150.643722,3.395897442,-81.98032286,-60.06364395,-1.126031603,-45.52992376,-83.75855147,-102.6026325,-0.73215345,2655.02667,,,,
426.3119997,1665,28.58257818,367.2935587,34.8506198,16.7479728,-400.1457822,21.51499644,-34.54587227,3.38487213,1.009895553,16.79533642,-1.125732622,14.00810347,1.383620333,-23.09510749,-0.734256063,2417.829848,,,,
426.3199997,1665,-102.8810135,464.0802936,-89.96218992,-123.5370193,-80.01717775,-97.96396612,156.8014501,3.373804342,-27.3263213,-12.04292403,-1.125406386,7.613642657,-24.84004626,-26.25062124,-0.736332086,2346.715202,,,,
426.3279997,1665,-12.58618828,495.4435286,-14.18055065,-28.48934642,-346.1666885,-34.13063561,33.54963067,3.362695492,-109.4659544,-89.69657963,-1.125053007,-86.03064538,-114.7621313,-152.9601096,-0.738381569,2855.051221,,,,
426.3359997,1665,4.16760142,352.8600554,10.10997245,-14.8798166,-213.1614843,7.347878249,30.40161601,3.351542203,50.42498679,66.5846093,-1.124672598,66.31376404,44.22349679,22.26616104,-0.740404563,2264.160208,,,,
426.3439997,1665,-119.2260137,580.0647757,-113.7303961,-144.5441089,-102.7659652,-131.5304276,155.7411764,3.340346316,-94.74988734,-77.78489538,-1.124265274,-60.81004333,-106.6108729,-110.0528911,-0.742401118,2835.714247,,,,
426.3519997,1665,12.04589209,413.5849669,12.27048982,4.770643815,-465.3766975,17.90141149,-25.64276898,3.329111361,-30.7283321,-7.126457251,-1.123831147,-15.95550176,-51.66034424,-90.71312789,-0.744371285,2633.324521,,,,
426.3599997,1665,-89.54162062,502.9228279,-89.37598573,-111.4947673,-147.0825779,-83.36315528,162.8408815,3.317835607,-15.8343213,7.825747851,-1.123370331,24.24586488,-22.39841668,-18.82767075,-0.746315115,2540.310517,,,,
426.3679997,1665,-27.19946478,542.1839965,-35.09843517,-43.85586453,-409.567369,-46.81956041,35.89674649,3.306520407,-106.1512185,-78.48511647,-1.12288294,-74.27059459,-114.9749302,-105.084655,-0.748232661,3045.999636,,,,
426.3759997,1665,-29.42897285,405.0283225,-22.88504813,-41.76667842,-363.0121332,-6.768382237,41.87094468,3.295162576,22.4427943,48.89045996,-1.122369088,47.04725879,16.74297563,33.80572468,-0.750123975,2471.657302,,,,
426.3839997,1665,-155.9359349,626.4572579,-152.7529485,-178.2101446,-288.8889563,-155.1695921,168.4036762,3.283764702,-133.9054115,-120.6001259,-1.12182889,-97.29341212,-135.0330597,-132.3358292,-0.751989109,3054.365403,,,,
426.3919997,1665,-13.31270792,439.3033275,-9.649929391,-22.89889545,-591.4093796,-13.22473733,-32.67251389,3.272329441,-60.93774735,-35.84104958,-1.12126246,-48.07356663,-77.37252505,-106.3028953,-0.753828118,2857.182774,,,,
426.3999997,1665,-98.28404127,512.0795768,-85.14828247,-116.8652673,-216.3243831,-87.14040059,152.4339313,3.260853815,-32.07400158,1.317295441,-1.120669914,6.736030487,-37.9253055,-18.10997468,-0.755641054,2746.98885,,,,
426.4079997,1665,-35.69778505,547.4273642,-36.37997293,-49.01273966,-423.125322,-43.39952325,41.3504335,3.249340728,-105.2330305,-86.53927293,-1.120051366,-78.71479252,-116.1731999,-110.1585857,-0.757427973,3239.480241,,,,
426.4159997,1665,-30.22714163,403.5908398,-27.83085382,-46.66713036,-305.1022479,-8.581088959,44.35873093,3.237791445,35.76586759,65.88591548,-1.119406932,55.55681342,17.80846978,8.826147891,-0.759188929,2647.072635,,,,
426.4239997,1665,-123.9929694,624.5004551,-126.3829863,-152.2122298,-198.6645047,-131.3378128,166.7847933,3.226204317,-126.5745821,-95.98020258,-1.118736727,-90.17292342,-129.2830846,-131.7644594,-0.760923977,3219.942905,,,,
426.4319997,1665,33.61834401,435.3394845,34.6826136,19.63654139,-506.1221384,33.36058877,-19.31789122,3.214579324,-18.63875493,-7.53004541,-1.118040868,-15.4116041,-27.5479163,-40.90989941,-0.762633172,3002.277673,,,,
426.4399997,1665,-84.2249631,514.066804,-76.42665297,-106.9103298,-164.3540077,-67.31069621,171.7111714,3.202919431,17.07347878,38.19065427,-1.117319469,45.03809036,14.87430923,13.67186564,-0.764316571,2869.355377,,,,
426.4479997,1665,-20.84728706,558.7685907,-26.82798478,-39.48013897,-442.7184705,-33.24288187,50.84937952,3.191222065,-106.8598691,-74.71413931,-1.116572647,-83.06500927,-113.1626938,-124.0861721,-0.76597423,3389.84664,,,,
426.4559997,1665,4.797428416,405.2493266,11.81940261,-11.08821938,-345.8829396,25.74939737,65.09973006,3.179487662,53.2013091,82.23469888,-1.115800519,68.63358623,25.5178906,45.27514822,-0.767606207,2795.049555,,,,
426.4639997,1665,-123.8856931,622.6907543,-123.6450261,-145.9571558,-210.4893589,-121.9991062,189.9602405,3.167720881,-91.64095141,-67.80185046,-1.115003201,-56.00786766,-102.8822532,-103.7946217,-0.769212557,3351.776011,,,,
426.4719997,1665,17.49947973,427.0440597,14.7330605,3.9542115,-496.6465812,9.748857504,-16.5377388,3.155918168,-33.01594785,-7.91587983,-1.11418081,-22.47870503,-23.68379295,-57.09399116,-0.77079334,3151.924694,,,,
426.4799997,1665,-86.14032797,490.7513063,-71.64363591,-111.0400089,-110.5318727,-85.31983325,198.5781155,3.144079497,-1.49264307,24.67322075,-1.113333462,31.24031951,0.904558603,19.47256952,-0.772348613,3007.442139,,,,
426.4879997,1665,-16.70048022,524.4688724,-19.82804229,-36.18321903,-385.9442887,-35.66436266,79.3504786,3.132208368,-93.04918006,-76.4856757,-1.112461275,-70.70584949,-102.5012458,-122.6508175,-0.773878435,3517.617504,,,,
426.4959997,1666,7.794694311,359.7620121,6.493044874,-12.56921824,-329.0452033,16.2162173,52.01142766,3.120304477,56.66230851,74.7163205,-1.111564366,74.22711052,53.88637487,25.01842101,-0.775382865,2919.229263,,,,
426.5039997,1666,-121.1137901,580.1747,-123.6474757,-147.5736412,-203.5133211,-135.3217589,188.3631194,3.108366619,-104.7762911,-85.95978276,-1.110642853,-61.87588222,-106.3787028,-117.2169598,-0.776861962,3465.3587,,,,
426.5119997,1666,31.58451341,391.055041,18.10512736,16.96453471,-531.0095098,23.30971666,-18.346603,3.096395664,-26.89226818,-6.381010651,-1.109696853,-10.61662412,-42.59647022,-63.92922467,-0.778315786,3264.448947,,,,
426.5199997,1666,-77.27714636,461.2577519,-84.71994185,-104.1739447,-204.2028582,-70.46763051,158.1929221,3.084392488,9.681798316,37.55463889,-1.108726483,46.83471301,-6.850061536,19.65461028,-0.779744398,3112.971427,,,,
426.5279997,1666,-8.090620136,504.4882701,-21.14899334,-24.45557787,-484.2172391,-21.06091384,49.77097172,3.072357336,-94.15300642,-72.79297269,-1.107731863,-67.92535021,-99.68539622,-115.9160303,-0.781147858,3618.717138,,,,
426.5359997,1666,17.00998565,341.2002803,15.19961902,7.766025846,-399.7685507,38.49132354,51.0051227,3.060292055,67.12841931,89.63196177,-1.106713109,90.32508682,70.75767113,69.74241694,-0.782526227,3001.169847,,,,
426.5439997,1666,-115.145885,560.3838784,-117.6678037,-125.5973733,-254.5817636,-107.2349971,184.7212928,3.048196026,-92.482245,-66.93831896,-1.105670341,-42.52082811,-88.61884826,-49.19936337,-0.783879566,3535.243091,,,,
426.5519997,1666,47.10911964,367.6705137,43.04514514,54.12346413,-571.2986466,64.70946925,-11.62972107,3.036067869,-15.75895921,15.79275839,-1.104603676,7.95778393,-17.46191458,-36.34560038,-0.785207938,3330.239762,,,,
426.5599997,1666,-78.1136709,441.2766146,-74.07269941,-86.80273647,-211.442136,-53.87614208,191.3609232,3.023910607,25.2334263,60.71980774,-1.103513233,72.61418252,11.37992003,33.65296237,-0.786511405,3158.669663,,,,
426.5679997,1666,-25.50072247,491.4020312,-39.14454887,-36.53748339,-451.574747,-36.16067707,80.92923679,3.011724769,-106.0258475,-87.47222255,-1.102399131,-71.4481556,-123.7329418,-91.70646283,-0.787790029,3677.437965,,,,
426.5759997,1666,15.25511726,322.161279,10.75376013,5.309758236,-371.494391,33.7879385,64.41857848,2.999508353,48.00517673,65.75654215,-1.101261489,71.80809584,51.95743307,67.50344876,-0.789043874,3068.609699,,,,
426.5839997,1666,-98.26931209,540.9045469,-97.78183951,-107.4301764,-221.1317759,-88.70672761,197.0203626,2.987261801,-75.39398012,-51.846915,-1.100100426,-28.85430755,-61.24994115,-71.95458844,-0.790273002,3588.487976,,,,
426.5919997,1666,61.51739697,346.6956888,53.62360263,64.46328886,-504.5543683,70.75516674,-10.04118268,2.974986617,9.81908658,30.20177221,-1.09891606,27.87908474,7.829296158,-41.1932812,-0.791477478,3381.15235,,,,
426.5999997,1666,-73.57944541,411.0007581,-78.72722984,-88.09846502,-172.2414255,-62.95891476,166.0331207,2.962686274,26.33886904,42.55396917,-1.097708512,68.52090453,6.313287029,48.31066688,-0.792657365,3200.034976,,,,
426.6079997,1666,-11.79176535,460.755408,-25.08255945,-20.18355803,-455.5468942,-20.67429799,52.67405082,2.950358009,-99.95708262,-89.38023092,-1.0964779,-65.4691752,-117.8545134,-82.67748109,-0.793812729,3713.940827,,,,
426.6159997,1666,35.92721455,279.5954979,32.83746461,26.28103745,-367.6955873,55.50909203,45.72828587,2.938001183,78.58326988,90.27604815,-1.095224344,96.93548946,84.34912727,74.69901266,-0.794943633,3093.032943,,,,
426.6239997,1666,-105.5443977,493.9076418,-111.387065,-121.8421916,-221.3179477,-108.732533,188.1045154,2.925618615,-70.8270357,-62.02740764,-1.093947964,-31.32283357,-60.64080534,-60.10886343,-0.796050145,3602.923918,,,,
426.6319997,1666,34.17195555,312.8047537,23.36500236,32.42796843,-536.8406002,36.33397699,-8.337691718,2.91321077,-21.42169836,-10.74236762,-1.092648879,-0.305182156,-12.3436993,-39.81001937,-0.797132328,3406.593353,,,,
426.6399997,1666,-73.64994034,369.6607766,-76.5902369,-87.70273356,-197.8876453,-56.54273431,177.3303633,2.90077476,21.06254809,29.06113055,-1.091327209,64.5568892,25.19179199,39.06443983,-0.798190249,3218.344409,,,,
426.6479997,1666,12.96588109,412.8676767,-0.715502463,8.797796481,-444.3460232,8.890469004,77.9308299,2.888311923,-76.7522433,-76.23836758,-1.089983074,-43.81903753,-96.53361064,-83.97639213,-0.799223975,3725.373976,,,,
426.6559997,1666,45.80704208,251.9196843,39.04988134,41.41592509,-357.705314,67.76159872,77.10132119,2.875827806,89.7067591,99.6409122,-1.088616594,119.0675464,78.57731021,92.37524866,-0.800233572,3106.984866,,,,
426.6639997,1666,-94.69661601,481.2269849,-105.6188822,-108.2148821,-237.7445256,-95.15358794,209.1313485,2.863317472,-65.10957626,-54.15372135,-1.08722789,-10.14711856,-71.04354419,-29.63541627,-0.801219107,3625.309052,,,,
426.6719997,1666,73.19047046,292.379195,60.01126243,78.97229457,-544.7832408,83.11968568,2.078041932,2.850781899,4.68363327,22.09313064,-1.085817082,35.22319382,-7.356368349,-4.978533602,-0.802180648,3434.05822,,,,
426.6799997,1666,-64.11678398,361.5914952,-64.14528663,-68.10797159,-171.935241,-32.05611644,198.4073731,2.838223762,41.2268049,64.51796845,-1.084384289,99.63658949,46.60447554,58.87595645,-0.803118262,3237.702924,,,,
426.6879997,1666,-25.00177951,426.5945077,-34.46673527,-25.77945362,-398.1935719,-25.72317424,86.59536873,2.825643143,-105.3350647,-95.30787642,-1.082929634,-57.57008188,-105.1901764,-104.8836678,-0.804032017,3764.660742,,,,
426.6959997,1666,35.49810565,248.489481,33.50260798,33.98541664,-253.5519887,52.68162449,50.35088605,2.813038497,64.60160571,78.13996927,-1.081453235,96.6230012,54.42715704,67.07211905,-0.804921983,3136.929632,,,,
426.7039997,1666,-63.83786318,464.912928,-70.12669011,-76.33802617,-39.78555301,-64.26229538,191.9414185,2.800409803,-36.64382088,-24.64328104,-1.079955214,16.02417765,-50.61192305,-11.53431585,-0.805788227,3608.10353,,,,
426.7119997,1666,81.31673362,293.7195078,75.36164221,83.84241531,-299.2715082,89.04410758,25.34772317,2.787759756,24.85369139,30.10986167,-1.078435691,52.63036745,6.61748116,18.87624679,-0.806630819,3397.306037,,,,
426.7199997,1666,-68.73818358,367.5415398,-57.30559583,-70.24654187,58.63792426,-37.37708381,235.8105966,2.775087736,41.0184722,56.21211723,-1.076894788,91.59133426,42.20153469,75.16138522,-0.807449829,3177.69547,,,,
426.7279997,1666,8.592155415,416.1430267,2.27112447,15.36028139,-255.4572194,21.41026148,107.0967216,2.762395774,-69.79524587,-49.86452389,-1.075332624,-29.53404409,-67.22049385,-64.17469304,-0.808245326,3669.562355,,,,
426.7359997,1666,47.67365554,237.2724269,47.42348854,54.51629625,-203.156192,85.44012337,78.27161379,2.749681222,91.42328214,112.8220493,-1.073749322,126.4282325,80.66037573,94.33228338,-0.809017379,3010.719649,,,,
426.7439997,1666,-79.687471,467.4484134,-72.34108818,-79.65428437,-33.28685696,-62.23288332,239.035863,2.736946513,-56.47628891,-41.01342791,-1.072145002,-1.542337364,-59.31531436,-21.71995056,-0.809766061,3485.482763,,,,
426.7519997,1667,103.9700603,283.9327114,105.7133381,120.4262507,-336.043478,132.3123536,38.68158997,2.724192048,43.98269111,51.78843635,-1.070519785,64.07697211,42.21759407,41.24250583,-0.810491441,3276.812385,,,,
426.7599997,1667,-63.50555439,351.6777543,-54.63340418,-55.47875338,43.74401591,-15.81360897,220.0181425,2.711415973,74.4709179,88.89300482,-1.068873792,122.1349749,74.88283672,106.7913857,-0.81119359,3035.649095,,,,
426.7679997,1667,-15.13735679,417.48957,-15.70864703,-5.231826561,-212.0023671,-3.249182961,117.5094319,2.698622266,-90.48547213,-73.68421557,-1.067207145,-50.36457298,-86.44197696,-77.39201547,-0.81187258,3553.436797,,,,
426.7759997,1667,50.24962302,227.8429039,54.96575808,52.43892331,-169.356423,78.2268147,95.19880237,2.685809444,96.52222031,103.944207,-1.065519965,118.4825125,92.6952429,113.4690775,-0.812528483,2903.357241,,,,
426.7839997,1667,-109.91068,453.3955539,-111.9646581,-116.9226202,-13.56278508,-96.27875744,225.0570718,2.672978094,-53.80333507,-51.85961155,-1.063812373,-8.726620672,-59.7104175,-8.846706217,-0.81316137,3368.884427,,,,
426.7919997,1667,52.08259714,271.3062884,43.47283254,63.91018202,-361.3794263,74.58176981,7.078682739,2.660127294,-11.51231068,-3.54088341,-1.06208449,10.25623912,-12.51899197,-20.51207888,-0.813771315,3186.330634,,,,
426.7999997,1667,-52.14942277,306.0877988,-54.64554747,-53.02531362,-64.95709451,-23.37262602,190.0771264,2.647258053,59.63101845,72.30855239,-1.060336438,106.0293655,56.25019207,76.91604527,-0.814358388,2935.730692,,,,
426.8079997,1667,2.092513783,355.7037888,-14.91866458,2.723373144,-325.1843309,-1.045955227,91.99646761,2.634374572,-66.05058998,-55.9032521,-1.058568338,-24.01949878,-81.26913852,-56.38002198,-0.814922664,3430.098549,,,,
426.8159997,1667,57.63006569,162.7139309,52.81427005,60.08161921,-276.1592287,83.04680945,77.39505332,2.621471369,96.82289768,103.3112078,-1.056780313,125.708028,97.70079539,112.4893499,-0.815464215,2776.323099,,,,
426.8239997,1667,-71.86623778,379.1336748,-76.96467368,-76.54862775,-133.2270446,-63.08498941,230.5691788,2.60855217,-36.43893897,-41.52958604,-1.054972483,10.38035838,-26.61785325,3.178601341,-0.815983116,3239.136566,,,,
426.8319997,1667,63.47351056,208.7727463,53.16986167,74.85241449,-442.2154683,77.58805445,19.99554966,2.595618695,16.15281251,9.773558295,-1.053144969,38.02013766,7.856239976,17.69404918,-0.81647944,3057.165683,,,,
426.8399997,1667,-59.29112428,257.232976,-60.74440358,-58.34255604,-129.7963321,-34.04972498,185.8707462,2.582666284,51.59555122,53.7079487,-1.051297894,100.8636671,47.45919642,94.52288803,-0.81695326,2805.831897,,,,
426.8479997,1667,16.34960037,314.1169028,3.210064101,21.163278,-389.9783135,12.99224963,97.1002938,2.569699479,-69.80785943,-72.56815157,-1.04943138,-27.13030575,-80.35259681,-57.9057115,-0.817404651,3302.737659,,,,
426.8559997,1667,58.49294794,132.5134187,58.14061724,67.55610713,-311.1234655,88.16988694,91.8431189,2.556716974,105.2724658,108.2102958,-1.047545547,133.9399876,95.57438461,106.387648,-0.817833689,2643.547634,,,,
426.8639997,1667,-71.01397465,352.2639652,-73.12994049,-68.979494,-142.7766279,-50.20018789,220.6981383,2.543719898,-39.71776518,-35.30985915,-1.045640518,11.89210698,-30.70486935,1.456854232,-0.818240447,3095.311555,,,,
426.8719997,1667,80.92948388,177.2812106,74.37858913,94.53612564,-390.7318504,112.0376788,13.23814871,2.53071141,31.51366298,27.4259147,-1.043716414,55.15893116,30.3052328,27.77107155,-0.818625001,2897.639023,,,,
426.8799997,1667,-71.61843477,236.4400419,-66.75963732,-68.10448723,-9.43559665,-25.60109051,207.6970744,2.517687017,61.98013695,68.32176516,-1.041773357,107.6773212,56.64214906,98.10104015,-0.818987427,2637.242848,,,,
426.8879997,1667,-7.119622809,298.5646481,-12.7938524,0.741291347,-277.4335493,5.050173555,101.9938394,2.50464679,-93.06916358,-88.46181267,-1.039811468,-51.41545054,-92.77719973,-75.36793036,-0.8193278,3150.979517,,,,
426.8959997,1667,60.95617272,101.3678229,68.2717684,70.94505717,-216.1575337,98.68050298,80.06508557,2.491595947,97.85394684,93.24241572,-1.03783087,124.4005896,96.29018498,91.0659403,-0.819646195,2478.151693,,,,
426.9039997,1667,-74.05618787,326.8474792,-71.20487029,-69.1725637,-60.32895016,-48.53180028,237.6797351,2.478531974,-32.99412633,-31.39410226,-1.035831684,15.57878768,-37.25598355,-5.711838222,-0.819942691,2910.456885,,,,
426.9119997,1667,84.70777685,155.6860959,79.06129782,99.14326001,-385.3945938,109.2427295,29.7619056,2.465454139,28.86580837,29.22226304,-1.033814031,53.38152809,20.30221133,32.47699831,-0.820217362,2719.289998,,,,
426.9199997,1667,-56.62312938,209.092811,-50.05683973,-58.03441699,-52.69752304,-22.86779038,208.7858139,2.452366917,70.61435616,66.57782863,-1.031778035,116.4829321,67.0561495,116.3120426,-0.820470286,2442.581572,,,,
426.9279997,1667,-5.245587776,289.5259561,-8.063773881,-0.179531668,-302.4593341,0.552846654,115.0750539,2.439266867,-85.99194519,-87.0527846,-1.029723815,-48.13431626,-82.22020037,-59.21764466,-0.82070154,2962.03955,,,,
426.9359997,1667,69.2005335,99.04884455,74.75147272,83.61925806,-209.5525639,108.914592,86.89763413,2.42615443,99.22972914,98.90330988,-1.027651494,123.2788464,107.7451913,130.5395065,-0.8209112,2302.398019,,,,
426.9439997,1667,-79.64275131,327.3294097,-79.21703555,-68.51915609,-20.84968188,-48.0478801,227.734133,2.413033109,-26.44500571,-21.39264464,-1.025561194,25.16334149,-22.94475609,21.58178212,-0.821099346,2730.604035,,,,
426.9519997,1667,74.33057275,164.6917333,68.63202426,92.96774738,-360.2847287,100.6431189,14.69255311,2.399898209,19.52373935,30.40204851,-1.023453037,43.62248519,17.72478261,-2.053773629,-0.821266053,2558.780272,,,,
426.9599997,1667,-50.46937547,212.2032343,-50.78078479,-49.6351466,-55.08371995,-18.28337697,194.5416318,2.386754634,61.65745429,62.56333006,-1.021327143,99.64157788,66.27439734,87.83632501,-0.821411401,2290.549972,,,,
426.9679997,1667,-22.08624957,290.0451537,-39.00269315,-16.49272285,-323.1991777,-17.46920656,93.58264462,2.373603462,-86.504677,-91.23088956,-1.019183635,-52.39431131,-86.56273627,-65.96752193,-0.821535468,2818.175596,,,,
426.9759997,1667,53.23648234,92.0619821,47.29515801,63.30021997,-275.0813018,88.10249663,61.27576569,2.360439267,82.96344709,86.16366095,-1.017022634,107.0128075,75.80847519,98.23843821,-0.821638331,2177.076302,,,,
426.9839997,1667,-77.79845523,314.4249158,-79.32412327,-74.17779537,-102.7611086,-56.00165549,237.0651406,2.347266502,-37.39865366,-34.00542585,-1.014844263,6.626656398,-38.68322975,3.158789941,-0.82172007,2618.429698,,,,
426.9919997,1667,66.23563377,155.0407432,66.50418213,87.68748215,-415.7945702,91.6355536,44.67207054,2.334085973,20.81065362,20.91383548,-1.012648642,37.51087689,23.10094254,22.54971191,-0.821780764,2462.928747,,,,
426.9999997,1667,-40.77332921,200.7037283,-35.45188874,-31.30756484,-61.97563695,1.518341992,211.9203245,2.320897442,68.98177298,72.87876755,-1.010435893,110.9027617,56.62945537,117.0591482,-0.821820492,2197.061835,,,,
427.0079997,1668,10.08872272,287.8242749,1.71179926,16.1904866,-284.2472292,11.32515267,120.8654235,2.307702825,-60.08836662,-59.79186134,-1.008206137,-25.66464118,-76.7054197,-36.62670324,-0.821839333,2726.613786,,,,
427.0159997,1668,61.78401897,109.9643025,67.5033283,72.12335044,-247.4407601,82.62830502,86.21240715,2.294498259,108.8313071,99.80527477,-1.005959497,125.2957988,117.0371227,129.7306592,-0.821837368,2087.762523,,,,
427.0239997,1668,-68.57819494,349.2236195,-69.21377888,-58.64006212,-86.95292623,-46.55399154,233.4246246,2.281285317,-27.18539646,-34.41051309,-1.003696093,19.87726295,-20.1969913,14.39652428,-0.821814675,2537.819691,,,,
427.0319997,1668,97.82252499,210.0014211,92.97470526,120.8649275,-355.415497,117.0166106,40.98871217,2.268068278,37.92786453,42.06342467,-1.001416047,63.71518739,26.46406552,31.50576043,-0.821771335,2402.044908,,,,
427.0399997,1668,-37.74815802,283.5066664,-32.48802957,-28.86856248,62.91974687,-15.34168121,222.2733882,2.254844075,89.48134224,94.63129324,-0.99911948,131.659979,81.79329027,136.5971172,-0.821707428,2148.862725,,,,
427.0479997,1668,-13.91662609,399.3602471,-23.09700009,0.811130808,-91.84132432,-13.36493726,125.6973841,2.241611752,-70.68870042,-77.40946337,-0.996806514,-33.54113773,-79.14575018,-44.17090439,-0.821623035,2718.789315,,,,
427.0559997,1668,40.72308569,249.1492105,44.41440989,56.29742795,44.43900033,65.26576854,84.44858233,2.228374155,75.14679615,78.24171666,-0.99447727,103.3939281,66.14400528,82.90478077,-0.821518236,2130.278956,,,,
427.0639997,1668,-89.07645538,519.4171624,-86.27783085,-88.00045881,303.2754273,-82.74911012,234.7684291,2.215132375,-44.79301256,-33.35942859,-0.992131869,5.086206448,-53.59794851,-19.77186109,-0.821393112,2622.120787,,,,
427.0719997,1668,70.95782075,408.0406071,73.06988034,85.31415299,-33.05586161,79.15005917,38.36316856,2.201884368,19.95865053,22.3243192,-0.989770431,40.27650407,9.346482636,9.498124049,-0.821247745,2540.925857,,,,
427.0799997,1668,-56.38940118,492.2128614,-42.55696329,-47.00106946,230.0019949,-24.76892774,216.497758,2.188631895,55.50411374,68.64928524,-0.98739308,99.56935299,47.90473238,85.18299396,-0.821082215,2326.170469,,,,
427.0879997,1668,-12.88403649,595.3239259,-8.012069302,-0.471600706,16.55275114,-5.193342408,126.718086,2.175376519,-72.27604868,-58.21415717,-0.984999934,-33.6026738,-86.69083883,-76.89508989,-0.820896605,2918.198173,,,,
427.0959997,1668,47.36087847,409.2548454,72.98117875,54.94048146,15.0026985,64.46478066,96.06358009,2.162115998,90.55158534,93.24883173,-0.982591116,109.4628811,90.53442745,94.84998299,-0.820690996,2340.980123,,,,
427.1039997,1668,-83.53633639,626.3269018,-55.72520247,-87.54046346,91.82877616,-85.768752,253.081451,2.148851183,-47.1722439,-43.89257522,-0.980166745,-11.4339029,-39.94521978,-17.54510731,-0.820465469,2819.32378,,,,
427.1119997,1668,73.98181511,445.8158527,97.83593881,82.58543109,-231.2838126,79.16772774,43.04938526,2.135583681,33.53902146,39.19799812,-0.977726944,37.52945462,16.41194391,-12.53526772,-0.820220107,2692.776537,,,,
427.1199997,1668,-41.66857771,462.4104461,-5.201456988,-44.15871837,60.48267888,-22.70421561,213.5360879,2.12231242,73.02517928,81.255133,-0.975271832,96.35753455,54.32875928,80.76545757,-0.819954992,2422.702595,,,,
427.1279997,1668,12.44809348,522.8022554,38.71280925,12.64901401,-206.7465621,1.883946607,129.5751493,2.109037952,-59.80709454,-55.62694456,-0.972801531,-44.84399325,-69.94938303,-50.02748844,-0.819670207,2969.529653,,,,
427.1359997,1668,55.98641811,307.3145392,92.55952142,59.61045289,-164.6808795,73.80538282,87.5418174,2.095761828,125.7287792,136.7751162,-0.97031616,125.0924549,120.5643304,101.1676809,-0.819365834,2326.665541,,,,
427.1439997,1668,-80.0816139,510.5199491,-46.28375436,-89.67733548,-19.71738637,-90.18703372,232.0187191,2.082485961,-32.6941624,-18.10835487,-0.967815841,-7.086721126,-45.36300898,-43.05387037,-0.819041956,2771.907786,,,,
427.1519997,1668,96.9555533,329.3825325,128.5921972,98.86887495,-336.6198254,85.26257733,22.04891157,2.069207741,31.72808951,34.32053687,-0.965300694,25.32611614,19.53297506,-5.895523043,-0.818698656,2642.005516,,,,
427.1599997,1668,-27.32166558,346.9779099,12.90257486,-23.54911057,-15.39811246,2.355495789,189.4920701,2.055926331,101.2893096,109.2299659,-0.962770839,114.7804916,109.605029,90.81737404,-0.818336018,2338.879353,,,,
427.1679997,1668,-4.658830776,421.8576423,20.22340622,2.544330155,-253.1895059,-7.786069286,101.4446025,2.04264517,-63.80463788,-52.72500682,-0.960226396,-46.63290352,-67.84963655,-102.1775436,-0.817954123,2893.654869,,,,
427.1759997,1668,55.47708809,218.1043253,92.34133784,59.6580069,-181.0734019,65.6610472,68.15249544,2.029361723,99.81883023,106.8905371,-0.957667486,102.8061122,88.18806941,69.5184238,-0.817553057,2274.230883,,,,
427.1839997,1668,-56.79003525,424.1418658,-24.6046832,-64.2103913,-4.401286208,-64.73280174,214.6422961,2.016078441,-19.95768403,-10.86957202,-0.955094228,5.212907222,-21.18038784,-17.95228972,-0.817132902,2713.433307,,,,
427.1919997,1668,86.10988883,257.3425118,115.9685548,91.11629705,-334.6967097,75.90120208,5.16906709,2.002798125,28.40824741,39.45754973,-0.952506743,29.33000332,32.27988085,-0.672546689,-0.816693743,2592.486885,,,,
427.1999997,1668,-46.47472131,288.9593262,-2.734399954,-43.67535788,-13.44992351,-24.83753081,189.2967478,1.989515971,74.87801711,86.60747498,-0.94990515,96.71663342,80.28131138,82.66367187,-0.816235662,2304.556798,,,,
427.2079997,1668,9.666472384,363.1927482,35.41892564,13.94229935,-259.3574102,0.431362673,98.92927345,1.976235048,-68.61444813,-61.30405422,-0.947289569,-48.47949559,-76.5514066,-106.1375455,-0.815758746,2863.710379,,,,
427.2159997,1668,57.98876588,158.9013932,90.41541779,60.03581853,-232.630241,62.93751935,46.43750345,1.962956253,96.55877904,108.8034438,-0.94466012,105.3209202,99.5273845,63.7676057,-0.815263077,2228.759247,,,,
427.2239997,1668,-58.09531948,370.2764654,-35.88742225,-66.08498706,-53.14600848,-69.1113756,186.4813503,1.949677544,-32.81952145,-16.25508772,-0.942016923,-3.123832402,-26.64657235,-26.435466,-0.81474874,2658.465219,,,,
427.2319997,1668,122.8083456,197.8746788,137.7947693,130.151601,-306.7977332,114.2230778,-11.78871711,1.936399646,40.51777662,53.97286179,-0.939360096,44.77731897,37.40660212,-15.46853065,-0.814215821,2529.53895,,,,
427.2399997,1668,-20.09904962,230.4338069,10.70039004,-21.41746598,111.8182957,-13.60451348,186.7081994,1.923124128,104.9313485,121.0939399,-0.936689759,134.8330039,113.0374207,109.8961559,-0.813664402,2210.29176,,,,
427.2479997,1668,15.83844988,319.8609756,31.0189585,12.69954983,-94.30253222,-16.53415073,93.02529143,1.909852748,-60.37376492,-48.92292232,-0.934006031,-37.36890344,-67.06280085,-50.27533742,-0.81309457,2769.556945,,,,
427.2559997,1668,71.86261957,115.9862757,94.60174716,71.83163272,-70.01274818,68.8679248,45.16384242,1.896583921,93.2463198,97.31821029,-0.931309031,97.27912708,90.44638344,69.06931338,-0.81250641,2145.512741,,,,
427.2639997,1669,-78.82665661,330.0821026,-60.84645591,-90.12937065,119.3592066,-91.90312747,198.9561503,1.883318548,-35.77225018,-31.02191582,-0.928598879,-10.31923022,-19.58662595,-51.08963374,-0.811900005,2564.725236,,,,
427.2719997,1669,87.06080663,157.223235,100.7489252,89.79768232,-153.6626311,74.14255438,-17.96377264,1.870054008,18.13845402,24.75044106,-0.925875693,14.29762527,26.4056747,-28.82418422,-0.811275443,2442.309859,,,,
427.2799997,1669,-23.30655294,179.2470729,2.477679222,-23.55712527,226.4246016,-11.89739506,172.221625,1.85679447,70.94626275,76.16756938,-0.923139591,89.95683804,83.43857232,70.35164104,-0.810632808,2126.989047,,,,
427.2879997,1669,31.81494035,267.4862674,40.74863898,33.88798642,26.76759363,16.8178522,94.54886185,1.843539923,-57.87678005,-53.42310185,-0.920390693,-37.57072741,-49.24573837,-77.23892253,-0.809972185,2674.575818,,,,
427.2959997,1669,107.5417633,52.19768189,124.1181372,105.3494129,37.54748249,106.9312818,35.44226257,1.830286972,134.0168943,143.2835933,-0.917629116,139.1416817,133.4170717,116.2873619,-0.809293661,2030.753518,,,,
427.3039997,1669,-43.31373747,269.1535961,-32.41271335,-62.58496361,159.7970641,-67.1498818,185.2949501,1.817039882,-3.209620576,5.565768933,-0.91485498,24.49247909,-0.403739953,11.66257961,-0.808597321,2437.761857,,,,
427.3119997,1669,105.9257968,116.7800555,111.0497721,102.4831893,-140.2376562,88.51263158,-24.99937108,1.803797796,35.41926064,44.85957846,-0.912068401,41.71892962,36.37093532,9.037281817,-0.807883251,2327.732225,,,,
427.3199997,1669,-13.59031666,144.1714863,5.738479799,-16.86104988,229.3678093,-5.225625277,152.4712022,1.790561981,81.56157208,93.6326972,-0.909269499,110.8961096,88.25418039,108.1459374,-0.807151536,2021.680576,,,,
427.3279997,1669,13.03339153,240.5640763,17.64170678,15.7431084,-21.74880328,-3.618857984,65.29838941,1.777332976,-64.66655414,-57.41985346,-0.906458391,-40.50573573,-54.34768424,-63.44712465,-0.806402265,2579.470614,,,,
427.3359997,1669,77.13582391,30.37471608,85.43018924,77.66307405,-8.521618477,77.59872149,6.696478453,1.764107624,102.8717766,114.1362856,-0.903635195,114.0364614,100.1231979,79.10260045,-0.805635521,1946.367857,,,,
427.3439997,1669,-45.6573771,244.8581238,-40.63182231,-54.65503703,152.502981,-58.55069572,170.6560955,1.75088783,-26.80052896,-15.05172069,-0.900800028,11.43777415,-30.5527646,-9.313851831,-0.804851392,2350.799753,,,,
427.3519997,1669,110.8247582,91.05744957,115.6052596,117.176924,-200.2217874,103.9471962,-33.41781304,1.737675117,35.43866818,48.0712979,-0.897953008,52.30532175,46.83032124,5.77056392,-0.804049965,2236.009559,,,,
427.3599997,1669,-10.28254551,107.3268699,9.983494105,-16.00856406,133.2663945,-8.809368103,138.7095366,1.724469885,87.04988258,101.2468257,-0.895094252,124.2713478,95.36388864,88.53280855,-0.803231325,1912.365966,,,,
427.3679997,1669,33.17935766,197.6829878,42.10520265,30.18638674,-78.08718465,10.18375332,71.33504014,1.711272845,-46.33477499,-52.0018319,-0.892223877,-23.56474975,-47.88974643,-53.46578041,-0.802395559,2456.134722,,,,
427.3759997,1669,82.79269594,-5.444184288,102.8620095,82.36894556,-46.7653305,87.90616875,31.36956525,1.698081839,125.5528807,121.5444477,-0.889342001,130.5044126,134.7303987,106.9859682,-0.801542755,1822.026893,,,,
427.3839997,1669,-63.19173959,217.4452424,-41.62378823,-67.62110421,136.8756998,-73.11104406,192.5648508,1.684898588,-31.47283001,-17.96007157,-0.886448739,3.999663304,-19.72834824,-12.06906254,-0.800672999,2241.979886,,,,
427.3919997,1669,93.85490717,64.65783892,110.4299854,106.1013771,-191.3323375,88.65504336,-12.03259928,1.671724462,14.84316623,27.73305544,-0.88354421,26.21445207,20.48203293,-17.77952976,-0.799786378,2144.112873,,,,
427.3999997,1669,-17.85553659,74.33735037,7.884759881,-22.28119095,140.3401156,-12.96297261,155.1577579,1.658557166,85.0480767,94.99491646,-0.880628528,114.2642879,93.77667411,82.07480631,-0.798882979,1798.461732,,,,
427.4079997,1669,40.7414356,167.3821455,51.92895977,36.12091257,-62.30098143,14.64991004,78.84878414,1.645399304,-41.99132656,-40.995127,-0.877701812,-20.67756716,-36.48382516,-51.27263299,-0.79796289,2328.437813,,,,
427.4159997,1669,90.58415798,-33.70209366,110.6308689,91.63678438,25.32387795,93.81455108,37.74006639,1.632252287,125.5685524,125.7998238,-0.874764175,134.3235451,128.4208951,98.36783095,-0.797026196,1683.327427,,,,
427.4239997,1669,-49.0867576,180.1258415,-29.65984256,-52.85847316,293.7363539,-58.09192726,190.1461427,1.619112526,-17.65838895,-10.31841285,-0.871815736,20.11558979,-12.73442993,-15.7394833,-0.796072987,2066.328089,,,,
427.4319997,1669,118.507527,26.76821818,130.8604959,128.6249939,3.245452863,112.3635128,-27.46603793,1.605982035,40.92985006,48.78236401,-0.868856609,50.75521989,43.62142866,5.223716078,-0.795103349,1939.210058,,,,
427.4399997,1669,-22.07883554,55.3327185,0.276805007,-22.41410864,306.9915272,-6.909810194,140.5252283,1.592861311,94.72178996,109.3730829,-0.865886911,125.0271289,94.74478376,103.5491653,-0.794117369,1579.257521,,,,
427.4479997,1669,30.8435152,162.9279562,37.93505466,34.06372409,12.06424318,17.58730968,52.02380622,1.579750766,-66.50355699,-51.42320867,-0.862906756,-37.19238346,-62.74891512,-72.01489046,-0.793115136,2118.967206,,,,
427.4559997,1669,122.1955668,-44.20396784,134.9237202,129.0775391,-9.543325941,136.1354954,3.111718808,1.566650382,130.6857789,144.7520253,-0.85991626,144.3313862,132.4283238,106.8178419,-0.792096736,1461.665885,,,,
427.4639997,1669,-31.64565878,184.6269293,-20.17688793,-33.15499148,187.3741236,-24.06580416,189.4038337,1.553560612,18.92374614,36.22668799,-0.856915538,58.64559201,12.88495423,44.17238111,-0.791062258,1841.073873,,,,
427.4719997,1669,125.6942088,44.18563522,127.8810029,130.6787388,-168.2013693,124.2531307,-12.69102321,1.540484398,40.3020335,54.18988852,-0.853904705,51.68613461,44.90219153,26.33198822,-0.790011789,1764.283627,,,,
427.4799997,1669,5.718903036,62.70832137,19.56124641,-1.474062552,153.6316201,17.41166261,160.7472932,1.527417132,111.3777152,121.2693822,-0.850883876,135.8621603,116.6843643,103.6813942,-0.788945417,1410.065425,,,,
427.4879997,1669,22.63909942,178.9790501,30.69520164,27.25715184,-41.8179395,17.68684073,98.41719792,1.514361394,-34.60901416,-27.03081894,-0.847853165,-11.6893508,-44.05172784,-46.24584609,-0.787863231,1957.110268,,,,
427.4959997,1669,109.402355,-34.06125934,126.0894673,119.4282446,-18.13846049,128.9303302,43.97794351,1.501318292,118.556766,137.1062947,-0.844812687,132.9407161,111.4589458,113.207001,-0.786765317,1341.284791,,,,
427.5039997,1669,-35.85815475,188.7675659,-22.45469708,-39.16916881,198.4488396,-35.19176857,215.5388002,1.488286421,4.71712535,23.68697188,-0.841762556,46.93248417,6.803864248,13.29473303,-0.785651764,1723.857437,,,,
427.5119997,1669,112.8110894,59.55958881,117.3169054,121.7722901,-141.0279573,110.3688913,3.278585517,1.475268392,43.79920446,55.18834685,-0.838702885,54.21443198,53.34831844,5.429107181,-0.784522661,1652.393024,,,,
427.5199997,1670,26.0020146,71.78473054,37.87998834,24.52921616,163.4088914,39.97117554,163.0939594,1.462262383,120.1006524,140.4571002,-0.835633789,146.8983921,126.3351069,115.6774577,-0.783378094,1315.025031,,,,
427.5279997,1670,40.9946374,196.3176064,39.54491786,41.19364798,-70.43707164,24.77971397,100.1597641,1.44926907,-23.5001422,-9.492037832,-0.832555382,5.533555485,-21.15522946,-31.40962118,-0.782218153,1875.891645,,,,
427.5359997,1670,95.24204169,0.154351613,97.44410387,97.02749447,-93.232044,100.426998,33.45590769,1.436289734,120.5284267,129.3624649,-0.829467775,131.51492,123.2330863,115.5292322,-0.781042926,1272.219476,,,,
427.5439997,1670,-37.08143608,221.0850578,-40.58787489,-46.71186749,106.9451349,-41.28369338,198.7517638,1.423324268,-4.648125344,6.768320775,-0.826371084,29.3802627,-11.81792332,6.59304676,-0.7798525,1667.881542,,,,
427.5519997,1670,134.3278475,78.18337829,126.7209089,142.1123544,-199.8841174,132.791487,0.145386031,1.41037192,47.61629464,62.15451653,-0.82326542,58.84531065,39.8385528,5.354172486,-0.778646965,1592.403339,,,,
427.5599997,1670,28.95097339,76.22995381,33.78816647,31.17144416,147.2127777,46.8575395,155.4686998,1.397433028,126.6976134,151.1738829,-0.820150897,158.3189759,125.3648185,128.6240019,-0.777426408,1213.970159,,,,
427.5679997,1670,29.55834773,192.6666279,21.21847165,33.34926835,-65.28444923,23.6101195,80.99902261,1.384507937,-37.46134032,-18.67354895,-0.817027626,-7.274545906,-39.14833789,-36.83116301,-0.776190918,1745.287741,,,,
427.5759997,1670,101.912386,-21.82500853,104.2145531,109.9424297,-55.10266644,122.0289439,18.16552979,1.371599516,112.6076729,127.6465174,-0.813895721,121.6855051,116.2193318,104.5511026,-0.774940583,1113.495762,,,,
427.5839997,1670,-28.93586364,181.5169041,-23.48432413,-29.686699,171.9576166,-17.66270101,176.3053325,1.358705094,6.983249419,19.92719691,-0.810755294,37.4633357,9.571774967,27.22655763,-0.773675493,1469.463432,,,,
427.5919997,1670,130.2522732,28.77038394,132.1399509,140.0895194,-160.1415559,139.888166,-35.6693513,1.345826103,64.89768236,77.45192523,-0.807606456,69.55390024,59.03287484,20.07568685,-0.772395735,1370.244761,,,,
427.5999997,1670,30.97209125,17.68409081,41.87148916,26.68656395,162.2144581,46.32630169,121.6863232,1.332964177,133.810574,148.1874566,-0.804449319,152.3988797,134.1858574,111.0440818,-0.771101398,973.0391329,,,,
427.6079997,1670,46.38179976,136.5324361,43.95237,45.17789865,-42.28559744,34.75348422,56.23920982,1.320115688,-22.23375106,-19.34525138,-0.801283995,-4.449359904,-32.22846176,-35.59027335,-0.76979257,1494.355663,,,,
427.6159997,1670,121.59898,-69.69285646,128.6871242,127.9863863,4.385068853,143.5260491,11.92039359,1.307282475,150.1839715,158.1214333,-0.798110594,155.7346711,125.6604537,122.9125761,-0.768469341,847.9693734,,,,
427.6239997,1670,-25.30225728,152.6741838,-19.9157575,-26.10532468,315.4121493,-18.86845457,189.8975642,1.294465078,22.93271945,35.81515766,-0.794929229,53.96666729,19.57385051,27.87736265,-0.767131798,1206.977421,,,,
427.6319997,1670,115.4639662,22.70924439,120.7431913,137.57475,148.0971014,127.5090143,-0.824024288,1.281666629,47.40119321,55.79213532,-0.791740009,54.8959658,60.90719426,36.21964038,-0.765780031,1148.281519,,,,
427.6399997,1670,9.908243323,19.31509019,28.51895437,25.85606547,701.8339413,48.41880942,170.400672,1.268885027,115.7486022,124.6788885,-0.788543046,133.9641959,122.3026214,141.7953561,-0.764414127,778.1581148,,,,
427.6479997,1670,22.5199173,138.7629317,23.91089574,29.84890236,562.1908898,20.79152369,84.63530135,1.256118106,-42.99798765,-45.38470995,-0.785338449,-48.51571858,-45.12706955,-27.4510178,-0.763034177,1330.714087,,,,
427.6559997,1670,107.0453365,-80.465447,118.2514173,115.2261262,374.4221572,126.4144404,16.09650179,1.243370114,125.538589,123.3591414,-0.782126329,85.48599519,123.9002714,124.0310649,-0.761640268,705.5888943,,,,
427.6639997,1670,-2.094526654,122.5516618,5.274116767,-4.288807734,454.7327173,9.778389907,176.7175504,1.230639538,23.51111342,29.96908764,-0.778906796,10.15779295,20.24886736,33.5900208,-0.760232489,1043.468909,,,,
427.6719997,1670,162.7558162,-16.81550227,161.4410848,164.9341694,146.5834456,162.795403,-37.52612571,1.217925168,81.06132996,86.72447244,-0.775679959,48.42131757,78.96546487,42.19485301,-0.758810929,959.0097082,,,,
427.6799997,1670,37.03442834,-17.10382843,49.7414803,28.43418962,439.4204618,50.20205421,141.9464015,1.205230056,151.7914903,153.8497833,-0.772445927,136.1222791,158.9712858,145.8890005,-0.757375676,570.7420459,,,,
427.6879997,1670,26.54904198,114.4887991,24.74581811,26.27567755,151.1991166,16.67814416,65.31968929,1.19255459,-36.03040067,-40.11397961,-0.769204811,-44.2651998,-26.43655285,-40.5147627,-0.75592682,1125.061929,,,,
427.6959997,1670,99.326613,-102.0316521,108.2579888,104.9470537,63.40797205,115.4811668,-20.41990074,1.179896844,108.4572734,109.6979209,-0.765956719,93.11100732,112.1641822,110.2926769,-0.754464448,507.037986,,,,
427.7039997,1670,-19.29634583,104.6075446,-4.670905964,-19.0706579,262.4055028,-2.184631144,160.874288,1.167257156,11.32961542,14.83780571,-0.762701759,21.50054322,2.980198376,41.66908365,-0.752988651,850.0438815,,,,
427.7119997,1670,143.1155915,-31.12209028,150.6939829,160.0992853,26.66201209,164.7771183,-40.81075928,1.154638003,72.61738435,73.05060408,-0.75944004,56.69406627,75.94202914,47.20890665,-0.751499516,783.4946735,,,,
427.7199997,1670,23.11876439,-38.16766641,36.7750662,22.94766964,322.5398535,44.60363352,121.3575307,1.142037023,132.4481547,132.8080167,-0.756171671,130.8186244,150.9108803,142.3799374,-0.749997132,405.6553372,,,,
427.7279997,1670,31.04499626,90.20063658,31.55537616,29.89333822,109.6395647,20.81369268,64.17408094,1.12945438,-28.67105118,-37.15913382,-0.752896759,-28.49298123,-33.54551253,-22.04367135,-0.748481588,966.6319861,,,,
427.7359997,1670,97.34700968,-129.5274933,108.9584267,101.9865198,167.9741027,115.0080423,-6.000817983,1.116891897,132.9800682,126.9214479,-0.749615412,122.8608192,123.8846327,125.3077425,-0.746952972,357.9620555,,,,
427.7439997,1670,-54.42531625,77.97433427,-44.54235282,-58.50398829,337.9729033,-46.5447132,162.2740777,1.104350805,-11.26383401,-16.56966925,-0.746327737,5.734750475,-12.77893286,10.80696922,-0.745411374,729.0366464,,,,
427.7519997,1670,102.1645829,-57.22905002,106.8478017,117.796894,64.47354534,115.8397215,-47.91814073,1.091829573,32.49397409,24.19514834,-0.743033842,24.79999729,21.17158547,4.17369226,-0.743856882,703.2091237,,,,
427.7599997,1670,-23.42529086,-62.72122459,1.299804457,-13.26911838,412.9887238,3.761463634,117.2586209,1.079327829,99.92651823,105.5824292,-0.739733834,114.3111012,102.2763433,107.835565,-0.742289585,352.3322775,,,,
427.7679997,1670,0.661300949,60.2874822,15.89234269,18.81152779,128.1529824,6.971068198,62.21643178,1.066847678,-69.79610007,-67.8476872,-0.736427819,-49.91501384,-65.05966405,-57.25449798,-0.740709571,951.8220055,,,,
427.7759997,1671,108.5888474,-182.0991641,130.6081598,134.2877324,154.6193502,149.3376861,-14.39897694,1.054387319,132.1038773,128.3973356,-0.733115903,134.7149303,131.3457611,123.6146159,-0.739116929,346.93005,,,,
427.7839997,1671,-74.20112123,37.36874176,-47.57928333,-58.32181111,369.100864,-47.32974021,157.3453675,1.041950214,0.403807027,2.772891425,-0.729798194,32.48830939,3.431581608,24.22050001,-0.737511747,690.1011894,,,,
427.7919997,1671,68.02831598,-83.21186052,85.6028201,99.62583751,-19.04228691,90.38841981,-46.34487436,1.029533539,-1.761545143,-0.200415303,-0.726474796,8.905573009,-1.293696416,-7.212261993,-0.735894115,664.4642375,,,,
427.7999997,1671,-7.860108745,-107.9783546,13.2337837,10.06038308,305.0546405,27.97465739,109.574311,1.017136635,95.31354989,96.46167,-0.723145816,117.5379404,103.9889061,115.8640588,-0.73426412,282.2176378,,,,
427.8079997,1671,12.10484109,26.73223597,21.54928114,34.76722232,71.11026791,27.00909617,57.06465219,1.00476513,-41.17769851,-45.48757408,-0.719811359,-20.46126744,-47.87206428,-37.8469884,-0.732621852,849.6331656,,,,
427.8159997,1671,105.2034728,-196.1437199,122.8649214,133.9163855,28.27762562,144.132894,-6.979872277,0.992413572,126.6224067,131.3373069,-0.71647153,134.7571542,112.0663219,106.9738119,-0.730967399,260.1810923,,,,
427.8239997,1671,-55.76223484,15.96337856,-34.73682586,-42.94549872,242.4303866,-32.42261751,155.5571345,0.980084347,6.572908465,13.86605147,-0.713126434,41.06447974,14.13551986,28.80571701,-0.729300849,614.2888721,,,,
427.8319997,1671,96.25260349,-108.3473436,114.8085858,125.2031428,-119.84719,125.0047179,-50.74732014,0.967779688,35.81260541,32.1856252,-0.709776176,38.25448659,44.29513291,36.75808692,-0.72762229,594.9981846,,,,
427.8399997,1671,9.23120696,-129.0873736,32.94622531,29.4437882,204.949426,55.77237588,117.5793708,0.955495827,123.2436494,127.3692713,-0.706420859,142.6751792,119.229205,142.144506,-0.725931812,216.4209309,,,,
427.8479997,1671,4.155865725,10.88124504,12.04653045,23.62142216,-13.63453757,19.19427572,53.17383485,0.943233425,-36.98817578,-36.40145862,-0.703060589,-10.18492494,-44.81819245,-38.16835139,-0.724229502,784.3464555,,,,
427.8559997,1671,92.04768286,-216.6902799,106.9203155,113.0384496,-49.92476845,124.5694549,-26.02148675,0.930994115,119.6465415,114.7355851,-0.699695468,121.4901671,123.2623866,100.9700845,-0.722515448,186.5290777,,,,
427.8639997,1671,-53.97666431,-8.124009289,-40.54007538,-45.78479516,226.4943439,-29.03491546,143.7679111,0.918781958,14.07735782,11.81809097,-0.6963256,37.00148444,6.104809945,28.71908859,-0.72078974,520.2916701,,,,
427.8719997,1671,99.52967735,-129.1162442,108.0007706,122.6028216,-59.10109675,132.2447168,-69.97276326,0.906592406,40.15195371,36.50261782,-0.692951089,43.98864271,22.76390239,24.31430167,-0.719052466,493.4724473,,,,
427.8799997,1671,13.40517903,-148.0640791,33.93277527,25.09554374,301.5768566,59.22093353,90.74474044,0.894426348,132.5159464,133.6499689,-0.689572037,150.3850676,139.2651754,141.6137575,-0.717303713,105.7701062,,,,
427.8879997,1671,6.742809693,7.975387951,10.5075749,16.01974959,109.1160446,18.08130607,29.06436238,0.882284406,-22.78584397,-24.02991496,-0.686188547,-5.324556291,-25.46780422,-17.79756718,-0.715543569,681.3553687,,,,
427.8959997,1671,99.88513622,-209.1584265,106.0114982,107.8044762,85.84683208,123.3350635,-58.05769327,0.870164917,114.9143699,114.3761089,-0.682800721,116.1743151,98.34656681,109.4432471,-0.713772123,94.75586914,,,,
427.9039997,1671,-38.31958941,4.826917508,-28.41662598,-45.93085921,313.737857,-33.04330294,135.3249136,0.858072512,28.01061499,29.30515325,-0.679408663,53.54661784,16.67058598,45.58176144,-0.711989463,414.8705897,,,,
427.9119997,1671,86.2092019,-102.860183,89.93604187,97.46591004,-89.55893086,101.3121529,-58.32031051,0.84600492,49.88360451,48.6905425,-0.676012472,51.90556887,34.56900697,20.4504938,-0.710195677,390.2335788,,,,
427.9199997,1671,-0.421431831,-136.1631279,12.61592307,9.617051978,232.5408481,40.93897108,99.53397714,0.833961403,100.322459,112.3379724,-0.672612251,125.0378181,92.69503296,94.64134081,-0.708390853,-1.247026816,,,,
427.9279997,1671,19.40612458,-5.882033054,24.54135341,38.28181259,96.9095832,43.34376612,68.82967751,0.821942628,-30.5547955,-14.93399782,-0.669208102,2.998912201,-37.46756276,-18.84776125,-0.706575078,538.05055,,,,
427.9359997,1671,79.97325343,-226.3392896,89.04677194,106.7694404,55.70483826,135.9649877,-7.407890952,0.80994925,128.3421444,141.3848996,-0.665800124,143.2032155,118.6398405,142.7080477,-0.70474844,-73.53035082,,,,
427.9439997,1671,-69.83635334,-14.39486713,-68.59802017,-61.33925267,261.2320463,-39.99328356,142.5673342,0.797980553,-16.85543595,-0.102140235,-0.662388419,18.35259324,-21.19197026,14.97202434,-0.702911028,266.1562438,,,,
427.9519997,1671,90.56269912,-135.9093637,85.48430248,114.0662095,-75.65019912,120.3887444,-74.47467985,0.786038213,16.00017526,31.58784838,-0.658973088,26.98254609,3.929837928,14.81718065,-0.701062928,239.0544874,,,,
427.9599997,1671,7.389636344,-169.1953032,17.93940528,26.78421017,251.6136594,62.52490391,80.22522988,0.774123702,120.3306504,134.1379816,-0.655554229,148.501726,109.781348,159.053878,-0.699204229,-182.9274121,,,,
427.9679997,1671,28.30058408,-28.29002374,27.29331776,46.80998604,82.16663687,44.59680052,24.1997653,0.762233199,-22.85797664,-18.39735091,-0.652131944,2.088697822,-27.33353856,3.873135964,-0.697335018,372.0794728,,,,
427.9759997,1671,101.9217685,-255.5273898,107.0697893,131.469781,46.15020548,151.2246311,-47.74395639,0.750369457,143.0518435,156.694178,-0.648706331,149.3670164,137.4699549,146.0772758,-0.695455382,-236.763039,,,,
427.9839997,1671,-56.11838311,-44.49656545,-57.49772226,-38.83699346,217.6130428,-18.84549278,123.5805402,0.738532776,1.862120038,25.15792676,-0.64527749,36.05585421,3.482562145,21.07801172,-0.69356541,82.71647936,,,,
427.9919997,1671,87.15144938,-152.5995792,76.09008969,109.2995276,-139.229905,105.6204377,-89.90145112,0.726721198,21.48949703,30.32545625,-0.641845519,24.1971933,14.61430834,-3.372901344,-0.691665187,63.74840698,,,,
427.9999997,1671,-32.7273585,-172.0526096,-22.41382198,-15.39664771,193.5940894,9.542869692,95.73147434,0.714939678,111.5741648,119.7077855,-0.638410517,126.803828,99.98949175,133.8791762,-0.689754802,-343.1813239,,,,
428.0079997,1671,-37.07783399,-17.76182299,-37.94844381,-14.35551259,-1.715776262,-15.88145339,51.1863759,0.703185613,-83.02060283,-76.06528788,-0.634972583,-59.90796173,-83.65906336,-59.35874293,-0.687834341,237.4282307,,,,
428.0159997,1671,74.64523713,-251.7022543,79.6020122,99.28600665,0.510173326,114.1862252,-47.96157215,0.691456531,89.75558072,93.13171743,-0.631531814,90.19398782,75.05837505,87.48039766,-0.685903893,-364.0940869,,,,
428.0239997,1671,-47.90704006,-48.22160892,-33.17976666,-34.33894437,329.5920253,-22.67727302,133.5968782,0.679753999,14.54460297,15.76560817,-0.628088308,30.86615896,-2.140429183,39.17687941,-0.683963542,-62.69227257,,,,
428.0319997,1672,90.96730509,-155.4574599,104.3344965,117.3239338,94.17283984,113.5487259,-70.5032317,0.668081051,46.02316662,35.32288171,-0.624642163,40.34690112,43.93767637,30.7484149,-0.682013378,-75.84327134,,,,
428.0399997,1672,-34.03776984,-178.3025296,-6.800112053,-21.65630284,385.7144058,2.399969463,76.55149325,0.656436044,109.0865651,101.5922292,-0.621193475,121.1783576,102.564388,119.4936412,-0.680053486,-470.9805309,,,,
428.0479997,1672,-33.51503687,-14.2401106,-11.58768114,-18.01622805,142.3197203,-22.56327256,21.56806622,0.644817966,-85.19544817,-88.40369207,-0.617742342,-74.16946498,-85.44483327,-92.83201327,-0.678083954,117.1701836,,,,
428.0559997,1672,77.29554172,-243.034229,112.7965268,101.4336667,115.6999571,117.5008543,-51.91568158,0.633230356,106.5124162,100.7267349,-0.614288859,98.04161056,104.0635345,83.47591971,-0.676104867,-474.203341,,,,
428.0639997,1672,-57.71300067,-38.49465703,-22.16039735,-46.5681523,321.0184341,-31.79372943,126.3252235,0.621668919,11.48232483,13.56982733,-0.610833123,31.04410065,-10.70559391,27.55435252,-0.674116313,-151.9823271,,,,
428.0719997,1672,93.20539452,-144.8458676,120.637296,113.7286724,31.60165513,108.1739435,-92.47259496,0.610135274,21.32562298,20.4801059,-0.60737523,17.50019175,2.12376165,-19.76700925,-0.672118377,-137.74604,,,,
428.0799997,1672,-2.487739036,-186.5454846,37.70991655,0.206808535,352.7546988,17.92448666,55.52676766,0.598632898,127.4235656,118.1126558,-0.603915275,131.8502908,118.1979562,99.93586975,-0.670111148,-554.1776762,,,,
428.0879997,1672,-0.176772524,-36.05024509,29.57767245,3.263920707,105.5642482,-4.162198686,-6.304256262,0.58716058,-35.11311267,-39.67477555,-0.600453354,-30.8433775,-35.93383919,-68.89511731,-0.668094709,7.221768081,,,,
428.0959997,1672,96.39372284,-268.4424382,140.0304089,111.9074282,43.74844655,124.6941113,-79.3748913,0.575715722,118.1889234,115.5815176,-0.59698956,105.66092,120.9146235,77.80805509,-0.666069149,-575.6939234,,,,
428.1039997,1672,-65.79030108,-62.95472381,-19.44861809,-62.24964307,197.0830407,-52.68814216,121.7939773,0.564299544,6.242033156,3.683011863,-0.59352399,21.09387103,0.261197455,12.92934398,-0.664034553,-266.5921624,,,,
428.1119997,1672,71.55929757,-170.038404,106.1888719,90.16222952,-73.67899066,91.66978715,-94.37776062,0.552914458,18.1626087,23.52904574,-0.590056737,13.64887256,16.13852297,-13.73247588,-0.661991006,-262.4970471,,,,
428.1199997,1672,-17.37141493,-210.1227931,27.58024692,-7.345995235,275.3227544,25.26456209,56.34851253,0.541557609,85.94440373,99.3359116,-0.586587895,95.77142531,90.61117252,75.95085061,-0.659938595,-661.1475434,,,,
428.1279997,1672,-17.83250063,-43.27307268,14.4342879,-8.873029871,30.63447526,-8.475050636,12.35157053,0.530230352,-76.04958909,-61.33868398,-0.583117558,-65.04772167,-83.09020027,-83.15621194,-0.657877406,-86.39004242,,,,
428.1359997,1672,93.01889906,-279.0575458,132.3630851,111.6128407,6.742441467,131.8578973,-74.60796868,0.518935011,111.3283272,126.1549981,-0.579645818,104.0391664,103.7749336,86.76545511,-0.655807525,-672.4449523,,,,
428.1439997,1672,-52.87663293,-73.34605189,-10.79869123,-44.25038965,172.8936881,-27.33732324,125.2272898,0.507668761,-3.363840155,16.30438119,-0.57617277,19.09205984,-0.597748794,-9.460930404,-0.653729035,-358.4788062,,,,
428.1519997,1672,104.4166729,-170.5088507,139.8958879,123.8919406,-139.6767233,117.4227208,-76.04671276,0.496431973,23.96321845,45.39487002,-0.572698505,22.08422877,21.93984135,-2.909869772,-0.651642025,-338.3426061,,,,
428.1599997,1672,27.11076534,-217.390111,71.86123026,36.51804079,189.5557866,56.70984106,66.47394637,0.485227024,136.7874099,150.4939718,-0.569223116,141.9626222,135.6136618,149.3161505,-0.649546578,-758.7825915,,,,
428.1679997,1672,-16.09270538,-38.57059015,18.23905578,-1.953768732,-15.76321803,-4.513005963,33.29980332,0.474053225,-43.72804121,-36.38747158,-0.565746695,-32.67661733,-46.11357166,-49.49599932,-0.64744278,-194.0224453,,,,
428.1759997,1672,81.88372511,-269.266977,125.5381504,103.3301035,10.44419423,119.787923,-47.11644555,0.46291058,99.73485942,110.7670729,-0.562269333,90.73511388,95.71445547,61.91495127,-0.645330715,-751.5680675,,,,
428.1839997,1672,-33.96881514,-76.36994152,3.669759359,-29.76815815,209.661014,-16.35981256,124.6898063,0.451798316,9.337497881,21.24681652,-0.558791122,22.06679141,12.00563927,-9.275544577,-0.64321047,-444.4481984,,,,
428.1919997,1672,80.16352662,-167.9671234,107.1133892,93.61753564,-133.3082977,90.83185073,-88.48730413,0.440716278,32.61390897,40.56027692,-0.555312154,23.53587362,26.39713891,-0.421224291,-0.641082128,-435.4539633,,,,
428.1999997,1672,-33.05842745,-218.7601216,4.847871774,-30.38505962,180.6763869,-1.103607441,59.18405558,0.429667714,86.55803073,94.90872043,-0.551832518,87.89216868,80.06479694,101.4107754,-0.638945775,-833.9500204,,,,
428.2079997,1672,-18.74871275,-65.87867928,1.294949696,-15.98767451,0.558584958,-11.10383016,12.80721574,0.418650189,-81.07780943,-72.04912555,-0.548352304,-76.37242917,-83.79276734,-82.37577235,-0.636801495,-261.7981755,,,,
428.2159997,1672,77.1582475,-312.8340785,102.6529321,82.49807382,41.10127858,101.6203442,-79.20607454,0.407663345,99.33811067,112.9014253,-0.544871604,86.02769857,101.3936896,61.53283966,-0.634649373,-843.7654355,,,,
428.2239997,1672,-74.41322608,-123.1032866,-49.98716238,-88.4636708,249.5749826,-72.14396838,93.09375276,0.396708251,-17.03817073,-5.861332299,-0.541390507,-8.488984268,-9.357230485,-42.39906744,-0.632489493,-542.2437385,,,,
428.2319997,1672,93.09345134,-226.5594861,108.8361016,90.29594846,-132.7277407,89.17710957,-112.9615661,0.385784818,6.780642503,11.0827456,-0.537909101,-10.44355757,-2.284042232,-34.82591909,-0.630321939,-527.1325895,,,,
428.2399997,1672,11.46603939,-284.2622523,42.43876352,0.499837299,219.1529877,27.30852008,53.60488697,0.374895646,111.8158793,123.2909653,-0.534427477,109.2838176,105.3366116,105.7277245,-0.628146796,-950.7509942,,,,
428.2479997,1672,3.930252031,-118.9097297,18.98300727,-12.49899158,46.9072036,-19.69150892,10.92744402,0.364037019,-47.16842946,-44.04728852,-0.530945722,-47.12065353,-47.73264483,-68.97245535,-0.625964147,-382.2135368,,,,
428.2559997,1672,96.06015446,-362.0059001,114.9905354,84.78176104,-41.303154,91.09051739,-88.07639295,0.353211048,119.3929943,114.4998297,-0.527463925,95.68646716,113.9203825,105.4017357,-0.623774076,-960.2670933,,,,
428.2639997,1672,-61.2762365,-172.1238934,-35.72210101,-75.16905098,173.7804973,-56.07652994,96.92158234,0.34241943,-2.437848014,7.825925532,-0.523982174,2.790494709,4.415596492,-5.394367201,-0.621576668,-667.5553159,,,,
428.2719997,1672,90.73814413,-268.3524196,109.0287491,92.14529411,-155.48968,94.55072693,-99.44529847,0.331657778,4.572830499,12.03382775,-0.520500557,-9.211435555,13.66412141,-59.23420869,-0.619372005,-640.3071866,,,,
428.2799997,1672,3.022825044,-325.6416843,30.2357497,-7.563515309,115.8595704,15.95342773,56.11488208,0.320930123,117.8976339,117.2266603,-0.517019161,114.545288,124.4073974,114.2009182,-0.61716017,-1076.847399,,,,
428.2879997,1673,-12.94619855,-150.6899138,0.251289211,-21.54570443,-59.2347475,-25.01751648,11.90381936,0.310236335,-50.32492414,-49.18852593,-0.513538073,-48.91335862,-50.38559639,-47.75455047,-0.614941249,-513.6389444,,,,
428.2959997,1673,78.50658547,-380.9575809,91.65087822,78.20128976,-57.59930556,91.48928035,-70.07977758,0.29957336,83.93331186,85.91127493,-0.51005738,69.3072621,74.64243548,70.54565224,-0.612715322,-1075.065808,,,,
428.3039997,1673,-67.59589144,-181.0669853,-55.16320943,-80.88403693,147.1939453,-60.49071994,122.2821056,0.288946269,-16.99830057,-12.65778556,-0.506577168,-6.059482873,-27.84430441,3.232927388,-0.610482475,-794.0755637,,,,
428.3119997,1673,71.44290092,-259.3869443,79.8672028,68.79347753,-195.7549727,72.42396872,-86.3481459,0.278352465,-2.170097256,-0.92075909,-0.503097522,-15.22642853,-5.431455692,-36.97741348,-0.608242788,-764.4896062,,,,
428.3199997,1673,-35.72042024,-308.6127349,-15.61319124,-43.57639556,120.4097863,-10.92790922,55.53763432,0.267789241,74.52202457,74.29401476,-0.499618529,72.94788245,91.95726075,67.80915952,-0.605996346,-1185.48734,,,,
428.3279997,1673,-42.11315731,-134.1822701,-34.38276733,-42.48399126,-56.25542889,-34.38095583,-0.039459436,0.257262984,-97.89941648,-100.3070588,-0.496140274,-94.47856656,-87.44016092,-90.06778512,-0.60374323,-617.7557484,,,,
428.3359997,1673,76.83340445,-375.6315342,89.82929474,84.01129973,-74.82926081,100.1777902,-90.45440388,0.246770558,77.22974161,74.21088011,-0.492662842,62.92679205,78.63522092,64.88693178,-0.601483524,-1187.847593,,,,
428.3439997,1673,-49.8298906,-191.9226524,-40.46799809,-62.73152283,145.3952381,-48.19747992,97.10920515,0.236309411,2.61274573,-0.701148435,-0.489186317,11.88923255,7.98728758,19.11203342,-0.599217309,-923.0408596,,,,
428.3519997,1673,96.23305645,-278.7493773,98.13297627,91.25886137,-185.9356897,87.91872548,-110.4298302,0.225884953,13.18552093,8.115398412,-0.485710784,-2.828833545,15.37298403,3.592446328,-0.596944668,-900.2272052,,,,
428.3599997,1673,-1.339921219,-337.8738915,19.1289776,-7.156441682,106.2402885,19.090033,52.49087724,0.215495967,109.2672866,112.7924573,-0.482236326,103.9862633,124.168031,112.2797205,-0.594665682,-1345.322928,,,,
428.3679997,1673,-19.15759419,-158.1452408,-11.61545941,-22.45576361,-101.0892215,-20.138527,6.829714971,0.205140067,-59.89287659,-61.00168666,-0.478763027,-60.57996506,-50.05454558,-68.88120791,-0.592380433,-787.1062773,,,,
428.3759997,1673,66.2330137,-388.1683643,75.44328585,63.73289551,-158.8261752,79.56255921,-101.3141783,0.194818067,73.09513788,67.93646734,-0.47529097,56.32326556,80.13329128,44.73715574,-0.590089004,-1337.72662,,,,
428.3839997,1673,-73.37198274,-198.6206191,-60.85070693,-89.29883974,47.5285001,-73.65236382,87.32035351,0.184530654,-17.30094054,-18.80944171,-0.471820238,-7.43629586,-10.35617735,-25.4375898,-0.587791475,-1067.496737,,,,
428.3919997,1673,82.31885581,-277.9784987,86.66907734,79.79834251,-236.6200359,74.60917501,-99.02646219,0.174278645,-2.495648629,-11.33426567,-0.468350914,-16.81703444,-15.86304146,-30.18442043,-0.585487929,-1031.674599,,,,
428.3999997,1673,-8.83611051,-334.5081457,4.202113567,-17.3691054,77.93000012,5.986470851,65.30435968,0.164061786,85.82808339,81.31086521,-0.464883079,86.40885393,86.24757161,95.2197774,-0.583178445,-1458.923558,,,,
428.4079997,1673,-1.664861317,-155.9634879,-1.471282129,-8.939231039,-101.3379666,-11.25147105,19.48841201,0.153878989,-64.42973487,-67.27743849,-0.461416816,-55.51010451,-57.7603987,-55.4518643,-0.580863105,-898.1603092,,,,
428.4159997,1673,115.7113715,-393.166608,119.8335559,113.1499278,-75.84957815,127.9251092,-69.98050724,0.14373132,114.506784,111.640347,-0.457952206,104.3159577,107.0655282,107.7433114,-0.578541991,-1463.502263,,,,
428.4239997,1673,-58.31919641,-190.3782934,-51.43045154,-73.86337426,136.827833,-52.24834988,116.4835797,0.133619741,6.434636089,10.11394461,-0.454489329,23.87708854,1.606731,17.28416419,-0.576215182,-1191.552037,,,,
428.4319997,1673,85.18388779,-258.7831289,88.23680138,80.15692988,-199.7839038,79.71483307,-107.8216816,0.123543713,-9.35291773,-8.511726357,-0.451028267,-17.83027238,-10.536279,-44.42957986,-0.57388276,-1130.131127,,,,
428.4399997,1673,20.1178174,-323.1466452,35.7380867,6.790600964,115.1242077,31.89552012,43.61541774,0.113503339,116.7276469,117.1650952,-0.4475691,117.5235585,121.525241,108.7303298,-0.571544804,-1566.620728,,,,
428.4479997,1673,-88.90825218,10.25043941,-90.71363374,-102.9584681,10.40598797,-109.3744777,61.69757127,0.103497537,-157.849364,-162.6259955,-0.444111908,-133.9407392,-159.2734815,-132.6383593,-0.569201396,-665.1627404,,,,
428.4559997,1673,46.28375055,-250.3777519,40.09276406,45.21344721,-3.291869005,48.76242193,-133.2860648,0.09352724,-46.18941187,-52.34454185,-0.440656771,-51.35828625,-55.98078821,-52.58288195,-0.566852614,-1156.739904,,,,
428.4639997,1673,-23.73325909,-340.2637833,-17.97732303,-32.96565116,344.7200834,-1.896624735,-0.436785679,0.083593528,80.5714213,84.52379304,-0.437203767,81.67502156,84.366863,73.81424942,-0.564498539,-1651.739822,,,,
428.4719997,1673,-55.23233282,-168.3166856,-56.95992801,-66.63835351,220.3408267,-63.0286099,-26.13611139,0.073694805,-76.28168838,-76.8468037,-0.433752977,-69.16396285,-66.64325195,-50.79305104,-0.56213925,-1152.290768,,,,
428.4799997,1673,10.81575556,-274.895537,5.865802762,8.210096206,185.7898662,19.25256032,-77.55908654,0.063832234,-18.28795691,-20.23705774,-0.430304477,-19.87645518,-23.6497859,4.126655733,-0.559774828,-1367.774059,,,,
428.4879997,1673,26.48670013,-331.4834402,26.33808368,23.46561686,192.5416111,38.31201749,-44.47006455,0.054007739,51.97821258,59.77962604,-0.426858348,55.70932597,45.68833871,42.90658073,-0.557405351,-1563.498704,,,,
428.4959997,1673,-18.61286991,-226.9559723,-20.86996132,-33.06116073,194.3941107,-32.56741101,-4.092914567,0.044219697,-29.22846182,-30.92131658,-0.423414666,-19.6666752,-27.02441532,1.754941959,-0.555030898,-1310.453714,,,,
428.5039997,1673,49.03484823,-329.9010704,47.71517232,50.01703823,63.28911182,67.35055178,-88.51069694,0.034467108,34.25279926,31.26163393,-0.419973509,27.94350647,31.90334032,54.58467594,-0.552651549,-1515.075037,,,,
428.5119997,1673,-15.79974385,-320.3845881,-6.661728243,-11.23268963,184.2311295,17.45074463,-2.915626062,0.024751291,45.55164017,58.36714365,-0.416534954,54.48384817,45.57905577,42.4888759,-0.550267382,-1651.495358,,,,
428.5199997,1673,-30.75037353,-215.0730531,-25.52890903,-32.55435845,78.85156255,-36.09601621,-14.5404149,0.015070952,-68.83673187,-63.58126206,-0.413099078,-55.57023478,-70.63405996,-30.0523971,-0.547878477,-1361.00186,,,,
428.5279997,1673,65.86445084,-395.2536253,75.39453186,69.79209757,68.55688837,80.06666451,-78.04743855,0.005428755,66.48077339,63.87332183,-0.409665957,60.46720846,57.57092824,107.6406986,-0.54548491,-1793.317445,,,,
428.5359997,1673,-55.81377443,-231.766238,-48.23257433,-60.1426732,276.8001485,-39.42191427,67.43628187,-0.004175073,-3.390474898,-2.257396678,-0.406235668,11.23227253,0.06914906,0.69744282,-0.543086762,-1586.599923,,,,
428.5439997,1674,24.87165727,-278.1899651,21.89345347,21.99611644,-60.02840587,22.15208166,-87.95318311,-0.013745625,-19.72283894,-25.70091719,-0.402808286,-25.67298034,-11.56494256,-48.89513354,-0.540684109,-1589.833412,,,,
428.5519997,1674,-22.71486064,-339.6406129,-21.11866412,-37.61223689,152.7135564,-22.42262598,8.122665258,-0.023277851,55.16327965,43.26293042,-0.399383886,50.65849896,54.61617855,64.23467533,-0.538277029,-1936.119417,,,,
428.5599997,1674,-34.38929404,-169.9838047,-46.37968688,-47.94811752,35.95240779,-48.71758026,-24.51781764,-0.032770984,-78.61569479,-89.16025746,-0.395962543,-73.39142612,-79.79152632,-75.14141096,-0.535865601,-1467.722416,,,,
428.5679997,1674,54.78030369,-379.1724028,47.19611,46.41578969,-38.22141003,52.68125811,-115.5994924,-0.042228536,52.26396829,41.28947863,-0.392544333,37.73214442,49.68244994,53.1491012,-0.533449902,-1942.846812,,,,
428.5759997,1674,-84.28376358,-214.6845891,-83.98396186,-102.0179783,243.7257504,-94.50049201,65.07239217,-0.051650169,-32.54995815,-47.16445966,-0.389129328,-28.26412787,-37.7326873,-2.39957131,-0.531030009,-1715.019568,,,,
428.5839997,1674,41.49846507,-270.4718167,35.04994396,40.53530905,-25.65022732,42.18431047,-127.3405537,-0.061032563,-26.42523358,-36.56224331,-0.385717604,-40.31352025,-25.83141077,-56.22519145,-0.528606,-1655.222501,,,,
428.5919997,1674,-27.04052072,-340.4611381,-28.47392214,-37.83266937,299.9177016,-11.47757886,-5.298401577,-0.070376688,68.87980798,62.0082498,-0.382309233,62.39245951,72.0024117,69.21559387,-0.52617795,-2041.690925,,,,
428.5999997,1674,-54.2755262,-144.7821404,-61.54762051,-62.86443517,150.3519051,-66.53231407,-29.08470985,-0.079685651,-102.2000355,-109.5537619,-0.378904288,-98.43057244,-101.1047227,-86.46928841,-0.523745938,-1476.561891,,,,
428.6079997,1674,48.2808161,-376.8612612,48.82110802,49.03498432,61.90362869,61.75832703,-130.8403289,-0.088955209,55.15056928,58.94235728,-0.375502843,41.16894574,63.44968554,49.79539674,-0.52131004,-1973.095289,,,,
428.6159997,1674,-92.41169156,-200.5243869,-97.67876035,-109.4195566,317.3273333,-93.98842386,54.22913685,-0.098188194,-32.82273883,-32.64351142,-0.37210497,-25.28707142,-28.76242248,11.2907422,-0.518870331,-1718.848878,,,,
428.6239997,1674,39.30602763,-248.742643,26.42716836,37.71510688,-27.19256599,32.61489239,-138.4901319,-0.107383163,-52.02538,-59.47339959,-0.368710741,-63.19630755,-53.761608,-29.65633809,-0.516426888,-1617.442763,,,,
428.6319997,1674,-42.59523696,-328.8364214,-41.55742219,-45.42362251,309.8209899,-16.23667932,-7.58304583,-0.116537247,64.92775666,64.97594993,-0.365320227,63.04258587,72.84434845,93.13676851,-0.513979788,-2038.773887,,,,
428.6399997,1674,-64.92431383,-130.8230034,-76.03059978,-72.22750913,160.0405144,-72.08831418,-41.75391192,-0.125654182,-107.8065616,-109.5705623,-0.3619335,-101.5896985,-110.8018821,-102.1948198,-0.511529105,-1467.494792,,,,
428.6479997,1674,52.69999766,-374.0268495,46.90475266,49.49870622,75.90828578,57.0279484,-143.288503,-0.134735021,40.76436809,38.05973313,-0.358550631,26.8928565,35.91738586,33.17583147,-0.509074916,-1970.492306,,,,
428.6559997,1674,-109.7928147,-191.5604112,-112.7463581,-119.9511268,349.5327998,-100.5274106,47.67734161,-0.14377687,-40.92324545,-42.55828998,-0.35517169,-30.2622555,-24.52571024,3.337760116,-0.506617295,-1725.029266,,,,
428.6639997,1674,24.7130365,-235.19373,13.67599646,26.94770076,-32.24884783,21.36716621,-151.9191752,-0.152778912,-63.60272497,-63.05958182,-0.351796748,-69.52061442,-54.2685411,-56.86256775,-0.504156319,-1618.069298,,,,
428.6719997,1674,-31.770537,-326.1195676,-38.51077513,-42.20609753,270.8292754,-28.68033246,-21.07032943,-0.161746031,54.48202426,53.78300867,-0.348425873,56.84806438,54.60442444,85.70615109,-0.501692061,-2045.621649,,,,
428.6799997,1674,-58.99712437,-121.6622924,-75.65078658,-64.7601247,124.7309308,-74.13763878,-34.36186859,-0.17067459,-110.1760626,-123.4150155,-0.345059137,-99.46577002,-104.9803762,-77.4959398,-0.499224597,-1484.192847,,,,
428.6879997,1674,56.13362876,-362.2779485,49.90931552,62.15582309,31.34463008,67.23486464,-114.5495167,-0.179561509,44.2607156,38.81937142,-0.341696607,39.29641808,45.42431175,53.0203961,-0.496754002,-1997.198352,,,,
428.6959997,1674,-104.3163681,-180.4268945,-114.6341085,-113.2911705,280.7029837,-98.89980081,66.06571918,-0.188410464,-39.95897602,-37.86583978,-0.338338353,-22.02781989,-31.14460614,-2.877253361,-0.494280348,-1754.096201,,,,
428.7039997,1674,26.03240702,-223.1897152,7.201256574,27.74467825,-114.2614841,18.63313514,-143.2527637,-0.197220758,-71.96852171,-79.09146257,-0.334984442,-76.62485045,-60.55866173,-83.65925237,-0.491803712,-1644.535112,,,,
428.7119997,1674,-18.8346745,-330.3868394,-25.58894268,-26.80975955,185.5599365,-10.85581988,-6.055978825,-0.205992352,58.85951125,52.43981375,-0.331634943,62.71767021,55.54162965,77.16303999,-0.489324166,-2082.49774,,,,
428.7199997,1674,-55.41993447,-126.4782719,-71.35822346,-63.82107832,51.42704742,-72.03439226,-37.02818883,-0.214726764,-92.13322754,-94.8852109,-0.328289924,-79.71134113,-84.8535361,-76.50602181,-0.486841785,-1530.675615,,,,
428.7279997,1674,56.30491078,-359.7808849,50.56954786,57.88690904,3.045875612,55.13397139,-144.5125193,-0.223419861,42.42975844,39.32812879,-0.324949451,35.00707053,60.9321213,36.27855729,-0.484356641,-2042.753223,,,,
428.7359997,1674,-81.90304071,-187.0298743,-89.41949945,-86.97347626,352.8146624,-73.70529395,43.63090086,-0.232073951,-27.45335881,-37.31392145,-0.321613591,-14.16314289,-27.23304367,28.6551453,-0.481868809,-1811.13621,,,,
428.7439997,1674,15.17843032,-221.3447024,-0.40517837,24.3573865,44.92920608,22.5920272,-144.3602363,-0.240692003,-48.19849738,-58.71464426,-0.318282412,-54.99767964,-55.848033,-37.70402933,-0.479378361,-1708.237879,,,,
428.7519997,1674,-64.22983153,-308.5348097,-65.15839663,-64.30417836,343.4294928,-49.6741132,3.288947261,-0.249267676,29.7606263,22.48684698,-0.314955978,32.62424134,33.00736385,49.61284557,-0.476885369,-2129.306272,,,,
428.7599997,1674,-75.66527914,-101.027511,-89.42175675,-71.67913196,157.6065939,-77.44402423,-31.75592799,-0.257805168,-126.0106802,-135.6173366,-0.311634357,-116.4367559,-127.0720831,-115.8685328,-0.474389908,-1562.289018,,,,
428.7679997,1674,56.56351679,-346.25197,45.20197137,63.10289079,56.68836519,63.88354248,-141.5190859,-0.266306129,48.32217991,41.48862726,-0.308317612,37.04734963,41.10524537,18.06803347,-0.471892049,-2087.536833,,,,
428.7759997,1674,-83.06846996,-176.2613445,-93.51929623,-91.23539377,351.9279798,-91.01947078,44.93253305,-0.274765047,-26.26895498,-40.15282158,-0.305005809,-13.66125482,-21.54772329,18.88652172,-0.469391864,-1875.338492,,,,
428.7839997,1674,28.83625934,-209.4723225,15.93002247,47.48679527,-6.17722446,40.63537449,-154.8623473,-0.283184694,-44.26584527,-55.37650998,-0.301699013,-48.52299224,-46.86968695,-25.97858205,-0.466889426,-1777.496012,,,,
428.7919997,1674,-37.85876487,-310.9398641,-36.23051951,-25.08720594,295.8264443,-5.471626345,12.53190849,-0.291564169,61.824273,63.37860864,-0.298397287,66.24675731,51.83948349,70.7066856,-0.464384805,-2221.343544,,,,
428.7999997,1675,-66.32313564,-104.6543615,-78.6759043,-59.05368303,136.0919955,-73.57898685,-3.396036298,-0.29990492,-111.0996018,-118.3013775,-0.295100697,-100.221629,-107.508348,-79.4515477,-0.461878075,-1663.626321,,,,
428.8079997,1675,47.94789769,-351.3053811,42.64153232,64.7660009,44.24296544,60.45777146,-111.081925,-0.308207964,41.4763497,30.11759352,-0.291809304,32.18790038,48.08571855,52.0349302,-0.459369305,-2176.115941,,,,
428.8159997,1675,-84.17892529,-197.2229692,-86.97401241,-80.24282889,345.5257648,-75.42156725,90.21009761,-0.316469289,-22.24992519,-36.42614481,-0.288523173,-11.12395377,-16.98725038,8.825153788,-0.456858568,-1963.298816,,,,
428.8239997,1675,46.76510212,-237.0982471,30.9993499,62.93016636,-24.80893905,50.98237359,-131.0286552,-0.324692212,-34.38468726,-50.83854819,-0.285242366,-44.89097765,-28.45078355,-27.08526793,-0.454345934,-1858.660774,,,,
428.8319997,1675,-18.68758325,-342.4970978,-27.32241722,-10.53973097,286.528721,5.207567141,2.135373414,-0.332874819,76.84083613,66.22286005,-0.281966945,79.02725428,85.35260254,111.1826207,-0.451831473,-2308.577809,,,,
428.8399997,1675,-44.73672734,-133.9348566,-64.66696723,-38.24486186,157.6367733,-44.78477188,-11.90254997,-0.341016602,-93.47840621,-110.4125941,-0.278696972,-80.14998094,-99.64203331,-66.98500889,-0.449315257,-1755.728149,,,,
428.8479997,1675,59.82876067,-369.0351819,47.44596443,71.78418341,32.83029599,75.00116706,-125.7507874,-0.349120004,58.03817259,42.65087149,-0.27543251,48.16750181,46.04549637,49.26156782,-0.446797355,-2252.390196,,,,
428.8559997,1675,-101.8460767,-199.8844099,-111.5454919,-99.49245378,272.2182093,-90.04957304,63.61174426,-0.357182043,-26.37006497,-36.72358128,-0.272173618,-11.88757934,-13.98164487,10.2534242,-0.444277838,-2024.681089,,,,
428.8639997,1675,16.58860086,-225.7866237,0.425999929,32.57445873,-121.3357824,22.88211482,-138.8073809,-0.36520551,-64.38981798,-82.36886721,-0.268920359,-71.05469102,-49.95649572,-60.34780753,-0.441756774,-1896.489998,,,,
428.8719997,1675,-52.65288033,-330.8389392,-60.38661229,-50.70667987,160.8644414,-38.74571814,1.435511927,-0.373188749,41.71085974,20.62646533,-0.265672792,37.28138175,55.35391096,70.73448511,-0.439234235,-2324.632668,,,,
428.8799997,1675,-44.33954238,-134.631675,-66.32212727,-37.18990335,22.5266249,-52.94165079,-32.89017742,-0.381131149,-119.4246776,-137.1739401,-0.262430978,-110.755393,-108.2238038,-71.74047593,-0.436710288,-1763.949773,,,,
428.8879997,1675,96.49400426,-379.7659668,86.7507302,117.2605692,-39.66826605,112.1106714,-134.6606553,-0.389036149,77.47532114,65.87051246,-0.259194976,69.07348078,76.04406588,100.6438168,-0.434185004,-2280.659723,,,,
428.8959997,1675,-82.3455788,-201.2021456,-87.99056034,-74.39533394,264.8645555,-68.37874861,85.62522557,-0.39689785,7.554519945,-5.22504225,-0.255964846,20.66381151,11.10291227,55.34758528,-0.43165845,-2066.693274,,,,
428.9039997,1675,43.58155172,-226.910835,28.8711093,65.32077102,-56.7977282,53.06467397,-126.7160592,-0.404718963,-47.97965607,-64.26522701,-0.252740647,-55.52151422,-37.85924694,-47.05018499,-0.429130696,-1927.875014,,,,
428.9119997,1675,-30.62154265,-330.3420409,-31.74464578,-17.74462288,323.2485517,-4.282675334,3.724956307,-0.412501687,75.14887277,64.31129671,-0.249522436,73.77766622,95.9463708,100.6807241,-0.42660181,-2369.470688,,,,
428.9199997,1675,-92.17404608,-96.49185492,-108.5633399,-78.33367141,227.2761997,-88.43720051,-22.0675606,-0.420242368,-112.1530304,-127.0309494,-0.246310274,-105.528115,-96.86728956,-87.21355304,-0.424071859,-1787.298444,,,,
428.9279997,1675,26.10337376,-333.6450051,15.30093087,48.21145039,170.333279,46.27348577,-149.5821267,-0.427944598,16.53300494,-3.085966552,-0.243104216,1.7838287,19.7439376,15.9678351,-0.421540913,-2247.372746,,,,
428.9359997,1675,-143.6467151,-165.2799594,-149.1221615,-133.6570042,481.8075232,-129.9432282,54.85790496,-0.435608013,-63.14309982,-79.58245368,-0.239904322,-50.2021016,-50.76303462,-5.595258047,-0.419009039,-2017.597436,,,,
