Time:125Hz,Epoch,FP1,FP2,C3,C4,P7,P8,O1,O2,F7,F8,F3,F4,T7,T8,P3,P4,,,,
208.4479999,814,138.2972265,-52.97742847,117.5847632,112.3127831,-8452.371247,112.8280761,135.6418734,424.8997124,197.7813205,190.9218761,-1.68E-08,198.6911613,193.2172809,200.7284563,1.90E-09,-460.7553716,,,,
208.4559999,814,-26.03931366,224.8883466,-52.96797281,-56.26873818,-8707.331831,-68.24408676,202.0183081,569.3296154,-24.72865822,-29.4291687,-1.63E-08,-7.277672174,-24.81330656,2.9429267,2.20E-09,28.16987251,,,,
208.4639999,814,162.4767159,25.10111,136.2333143,140.4060858,-8577.487984,129.3573962,-20.70199884,341.6971914,82.13816138,71.8591922,-1.59E-08,78.59016788,76.52283818,92.18050127,2.40E-09,-237.6926907,,,,
208.4719999,814,-3.260248518,55.08720971,-23.98304763,-33.72588949,-8750.656309,-30.23193946,203.0423244,552.115454,92.96527281,85.12988446,-1.54E-08,107.2593313,91.23445147,119.9548618,2.60E-09,-316.6459894,,,,
208.4799999,814,129.2369738,159.7192978,100.5455514,104.6523254,-8734.023334,84.68121178,21.78943453,400.1143093,-29.69507398,-41.0055284,-1.49E-08,-21.39929394,-36.19208602,-13.08581311,2.80E-09,64.50258096,,,,
208.4879999,814,175.9640464,-93.72833001,149.9476943,134.3711424,-8669.780924,137.1031788,98.90352391,385.6432729,223.0762743,213.2909595,-1.44E-08,223.0559022,211.5390684,231.1044115,3.00E-09,-500.1300203,,,,
208.4959999,814,18.30229876,179.5063617,-7.945291525,-24.23301173,-8905.651752,-35.30877139,182.7343418,522.3472097,30.40793211,18.30109026,-1.39E-08,41.59355216,20.57710887,39.06672067,3.20E-09,-17.54710366,,,,
208.5039999,814,210.6198114,-18.77328535,191.1777793,190.6129494,-8761.864379,178.8747879,-9.847005999,301.4235297,116.222089,105.2509953,-1.34E-08,113.8643259,103.8490576,110.8177754,3.40E-09,-279.4589693,,,,
208.5119999,814,56.14705074,8.861073486,37.43772214,22.60367418,-8915.900147,23.7420517,225.5093642,511.5262194,155.3190909,153.0943379,-1.29E-08,175.5274597,148.2407358,174.6050966,3.60E-09,-369.4522899,,,,
208.5199999,814,159.0841342,114.9578574,139.1341917,134.967427,-8927.223861,111.0434236,27.92918534,365.1526958,32.75344728,22.69476094,-1.24E-08,39.66763515,20.20285241,35.18017498,3.80E-09,7.202305943,,,,
208.5279999,814,187.020238,-130.1129789,181.0742832,159.989156,-8883.576136,158.496682,113.5660224,362.199686,239.6948848,233.2922041,-1.19E-08,242.4654369,227.3598429,234.8830606,4.00E-09,-540.0882183,,,,
208.5359999,814,3.298493845,162.2863977,-3.436699636,-28.09060986,-9149.056562,-42.53463105,211.5908831,514.8741961,28.32412525,26.73922802,-1.15E-08,53.17315165,25.11378632,36.61056665,4.20E-09,-37.38296478,,,,
208.5439999,814,173.7708209,-19.38632826,175.9371041,157.3139877,-9034.358664,140.4479798,-11.02313656,306.1864793,90.38125571,87.37565618,-1.10E-08,93.0091709,82.68047898,87.30251807,4.40E-09,-274.3331612,,,,
208.5519999,814,19.95067194,22.64139733,29.92462617,-8.634805931,-9186.398148,-9.962644,220.977278,520.8013668,118.1437222,121.2394055,-1.05E-08,134.9066884,111.4998318,131.8587617,4.60E-09,-349.177968,,,,
208.5599999,814,98.53199684,151.971681,103.96488,76.84350634,-9216.935935,55.13164343,43.00299451,382.6494006,-15.58620005,-17.74082744,-1.00E-08,-5.580695394,-23.54976909,-16.54943851,4.70E-09,37.67403815,,,,
208.5679999,814,136.5354277,-87.42455066,153.5205378,109.6787684,-9159.137829,106.7642382,102.7694342,372.7266981,169.5321923,170.5256882,-9.50E-09,172.8643389,160.3071706,165.4132766,4.90E-09,-497.3903557,,,,
208.5759999,814,-14.2660376,195.3809608,1.809546366,-47.13264822,-9389.116057,-65.65438977,181.5972492,511.2307285,-12.15205336,-1.937964735,-9.10E-09,7.859031737,-17.79873265,-19.80557459,5.10E-09,-13.72425877,,,,
208.5839999,814,160.6110308,12.12252817,173.0945447,134.2934246,-9278.985541,110.9778498,-36.2248146,304.0316618,72.95487247,78.56987723,-8.60E-09,74.79296225,65.39203977,43.65867113,5.30E-09,-270.9618161,,,,
208.5919999,814,4.108511298,50.43285603,15.26884383,-37.95245479,-9432.342921,-48.97371791,182.2315955,519.0337488,91.29117549,93.98037955,-8.10E-09,107.7105567,86.28816805,87.19048474,5.50E-09,-348.2580622,,,,
208.5999999,814,80.3822964,170.3015636,84.94736956,45.01633053,-9458.40218,15.82913721,-13.77696653,378.1601647,-40.56442001,-37.08122453,-7.70E-09,-31.97015211,-44.89928779,-61.28083453,5.70E-09,27.8195358,,,,
208.6079999,814,121.6759017,-74.44685299,132.2166895,82.17244722,-9400.712896,72.21393712,40.42203639,377.1013123,138.4167971,141.3351567,-7.20E-09,141.8006427,138.6861338,113.66036,5.90E-09,-506.5773161,,,,
208.6159999,814,1.089493449,199.2676093,12.59850865,-35.96439818,-9582.425378,-56.8120757,134.5815615,512.0170592,-26.25530361,-20.29717857,-6.70E-09,-5.687730081,-20.94091925,-39.44504462,6.10E-09,-9.877584446,,,,
208.6239999,814,200.8803118,3.142407346,214.609473,175.3299752,-9430.501979,158.5379968,-47.43217877,282.6959054,106.7728048,116.2100226,-6.30E-09,108.2778953,109.086187,79.14512281,6.30E-09,-268.9606113,,,,
208.6319999,814,34.61114339,36.33752699,47.03647723,-6.862674688,-9594.646983,-12.99191257,187.9238516,490.4112594,125.4669629,132.2687112,-5.80E-09,139.3360266,129.6929582,121.1825684,6.50E-09,-352.4891847,,,,
208.6399999,815,114.5425745,155.1088879,121.9794277,81.93922155,-9613.578142,54.25373884,-2.370212745,350.5119441,-13.79169137,-5.992388039,-5.30E-09,-7.609109259,-9.127827305,-27.68998291,6.60E-09,21.83710673,,,,
208.6479999,815,173.1037195,-92.80663078,184.0758087,134.050574,-9549.523532,127.8938931,76.23329664,346.475212,192.2237122,206.0139343,-4.90E-09,194.4606989,198.8123814,175.7779332,6.80E-09,-519.4405807,,,,
208.6559999,815,20.72028288,183.0013617,25.32746594,-22.4322049,-9770.567591,-41.85563549,178.006867,498.8907322,9.161250821,22.08002928,-4.40E-09,28.46451508,15.99561531,13.02860275,7.00E-09,-32.29007244,,,,
208.6639999,815,167.5270809,-4.325287217,173.5197377,133.0227797,-9674.634859,113.7932313,-24.16848812,300.5004311,87.11197593,96.84464029,-4.00E-09,86.89075903,92.70517709,90.39450561,7.20E-09,-290.120556,,,,
208.6719999,815,10.55185058,31.01282903,15.23796613,-37.58741518,-9844.564296,-42.60704192,196.735833,522.9018013,87.33357894,96.08432687,-3.50E-09,100.1548125,97.44917326,92.60598686,7.40E-09,-358.9120323,,,,
208.6799999,815,82.66122735,157.8104765,81.73120955,46.79586758,-9867.965743,23.11209053,-6.129127019,398.7066744,-49.88009192,-42.04103076,-3.10E-09,-41.39017977,-44.02538984,-66.7135651,7.60E-09,24.5155343,,,,
208.6879999,815,105.9662696,-81.18389288,113.4898064,63.61323282,-9828.424194,58.12775604,47.68826996,403.8626765,139.9342154,146.5767144,-2.60E-09,142.0843268,144.7504126,135.9935775,7.70E-09,-512.6749721,,,,
208.6959999,815,-11.13699277,183.2421134,-5.191909705,-55.78296858,-10006.95832,-76.82510529,137.0031864,532.1125903,-39.61404731,-33.60251228,-2.20E-09,-25.81370621,-31.84976064,-34.84367462,7.90E-09,-24.64553981,,,,
208.7039999,815,150.7487762,-5.343995462,161.707073,120.4175597,-9880.641511,102.4085439,-56.29552694,313.9143851,65.95213801,74.57465327,-1.70E-09,63.2852742,71.82490992,50.45400072,8.10E-09,-292.9809923,,,,
208.7119999,815,-5.912957049,33.69477127,4.14540087,-52.01318035,-10036.9857,-55.91508998,177.7017468,524.715992,81.66439126,84.81241416,-1.30E-09,93.00279897,91.5382348,78.16285785,8.30E-09,-361.3093907,,,,
208.7199999,815,114.5520711,141.4910824,112.4272134,75.48316982,-10012.0338,50.23399088,-11.80741551,373.9980058,-33.19168555,-34.92719232,-8.00E-10,-32.99557441,-25.78658015,-51.19168087,8.50E-09,28.22237901,,,,
208.7279999,815,119.9054124,-97.6146524,123.1747457,74.52122516,-9995.914613,70.33304493,53.66329208,370.4448159,165.1283536,169.9184032,-4.00E-10,158.1457292,172.8693194,150.7151386,8.60E-09,-515.4396505,,,,
208.7359999,815,-37.87996153,187.1549266,-36.88377656,-90.5835072,-10218.48283,-110.1302976,136.1595157,505.9970553,-42.9392751,-42.7821072,1.00E-10,-35.15021868,-27.449372,-51.7423053,8.80E-09,-18.54917596,,,,
208.7439999,815,154.2680471,-2.233306376,156.0108268,111.277695,-10066.25966,92.3786488,-67.6576702,284.8178427,59.01326617,56.55875266,5.00E-10,45.78288671,70.13114528,34.07225265,9.00E-09,-274.5693354,,,,
208.7519999,815,-6.514751006,42.41872219,-7.106131011,-62.38251208,-10224.33268,-65.25877399,178.7127606,504.8862645,79.40496842,81.52761781,9.00E-10,78.52118159,88.06081672,74.73184824,9.20E-09,-348.8834432,,,,
208.7599999,815,84.03252013,168.9664115,73.11180286,37.71443183,-10226.96363,14.36218843,-2.748121932,375.0737747,-56.43137339,-59.50384814,1.40E-09,-61.93315404,-49.82817106,-69.97709736,9.30E-09,41.27734701,,,,
208.7679999,815,100.9898771,-66.87525092,95.54956451,50.79452902,-10199.22514,46.78383142,56.16386725,388.0151616,138.0675044,137.6358672,1.80E-09,128.6631496,144.1099947,130.479086,9.50E-09,-494.6077812,,,,
208.7759999,815,-35.09782129,211.7403984,-42.99098533,-86.05470224,-10389.13045,-105.0602463,137.3003257,534.6645001,-63.3505525,-59.30855555,2.20E-09,-56.38797895,-53.20504945,-66.36628252,9.70E-09,14.07668382,,,,
208.7839999,815,167.9785708,12.58227735,160.1131853,131.3618959,-10218.13017,112.0901017,-66.35697507,309.6219697,58.08203858,61.10238831,2.70E-09,51.64532325,61.98311737,29.43987301,9.80E-09,-236.7277328,,,,
208.7919999,815,10.00723624,43.06774773,-1.868251128,-42.62724416,-10381.39501,-51.82145471,168.7522033,517.0215162,91.11881376,94.60521253,3.10E-09,103.1184355,93.76246744,82.51376472,1.00E-08,-319.5028274,,,,
208.7999999,815,127.639051,149.6521886,112.1827486,84.35481658,-10350.99531,54.31440806,-12.78916323,369.0920852,-42.01451988,-42.60019614,3.50E-09,-34.95088633,-36.76073107,-53.11049593,1.02E-08,65.6464683,,,,
208.8079999,815,137.0514169,-97.20362506,134.1627513,94.98522554,-10307.72832,90.79658794,63.64844487,364.4633141,178.2082749,175.9336495,4.00E-09,181.1366127,186.7935564,170.2826212,1.03E-08,-479.753002,,,,
208.8159999,815,-49.67168745,184.0422067,-57.71160532,-91.37134969,-10554.79753,-110.035535,135.42891,499.7148538,-42.58848519,-43.80037641,4.40E-09,-28.02199826,-29.21862496,-45.50227203,1.05E-08,21.29086808,,,,
208.8239999,815,151.2590137,-18.22399525,145.8039027,123.6159678,-10398.68823,102.7394513,-76.09659343,264.1840668,32.26744906,36.74760479,4.80E-09,27.15478044,46.31393768,17.16267652,1.07E-08,-224.7083159,,,,
208.8319999,815,-22.61247909,11.79297313,-24.74355563,-63.03113398,-10562.19411,-65.61432756,173.9427651,471.3673497,71.36731107,76.94433911,5.20E-09,82.26432896,89.20339462,80.22316668,1.08E-08,-302.6919564,,,,
208.8399999,815,48.82721392,125.8220031,40.72597872,19.63707438,-10580.2579,1.053408955,-33.81573389,330.1209098,-80.40243729,-81.87791576,5.60E-09,-81.11916255,-68.36997217,-81.61473132,1.10E-08,94.54001289,,,,
208.8479999,815,102.4260181,-129.0150959,100.7711606,68.23252738,-10514.7959,70.29703684,25.64161185,321.6171729,121.0215064,124.7846763,6.10E-09,110.4817472,128.3162624,123.9810945,1.12E-08,-440.6351851,,,,
208.8559999,815,-10.40405657,135.2801455,-19.49904972,-57.41141385,-10690.12841,-66.70583173,141.5282194,452.3850352,-26.45186342,-24.73907598,6.50E-09,-26.7838102,-18.8689292,-24.660289,1.13E-08,48.44642126,,,,
208.8639999,815,180.5643471,-63.46443952,172.9584352,141.6249805,-10544.13957,134.360418,-61.47487933,231.6682788,84.97375064,80.58155434,6.90E-09,61.00398529,85.91703144,61.55447529,1.15E-08,-213.5760374,,,,
208.8719999,815,-10.0433414,-18.00934085,-15.19068563,-55.98998414,-10727.76951,-50.43582114,170.4391161,463.2245888,94.68963175,95.52392209,7.30E-09,90.82798472,94.53039504,98.49376459,1.17E-08,-300.0113303,,,,
208.8799999,815,65.91722949,105.876806,57.87052339,34.47417658,-10726.36007,19.9819356,-17.87618802,338.9301114,-54.35538199,-49.30137128,7.70E-09,-56.58227211,-54.19158294,-55.0363615,1.18E-08,90.88098722,,,,
208.8879999,815,88.27143848,-135.7832157,97.27015299,57.20956301,-10675.42968,62.5938223,46.27115246,344.8806644,131.589566,141.3144173,8.10E-09,124.6135115,135.1227585,133.1542535,1.20E-08,-448.101253,,,,
208.8959999,816,-51.36652984,146.2021717,-44.24725717,-84.93274127,-10872.87705,-95.53171819,136.7354471,488.6154484,-62.86253201,-59.23225754,8.50E-09,-56.51334194,-58.31614652,-55.4204172,1.21E-08,45.11723931,,,,
208.9039999,816,150.5181028,-43.43500962,154.844153,124.5675287,-10716.28635,112.4460343,-71.57232523,267.8868348,49.90171241,49.94890861,8.90E-09,38.44799875,51.53657278,37.79181925,1.23E-08,-208.6507916,,,,
208.9119999,816,-26.49128998,7.124002782,-18.72716741,-63.78683345,-10882.26242,-63.73525373,178.2694679,491.4366776,82.22012337,85.41633595,9.30E-09,85.96763101,88.0203068,90.20587422,1.24E-08,-284.1574224,,,,
208.9199999,816,64.3701167,138.377109,63.44378356,37.19349015,-10877.72627,15.68780386,-19.28840418,351.8222023,-68.02967048,-73.18066015,9.70E-09,-72.74441234,-65.19951871,-72.70716533,1.26E-08,120.6915117,,,,
208.9279999,816,104.7433376,-97.33340864,104.8616042,67.5728919,-10828.12728,68.83392052,22.47887693,336.0129828,134.9667445,124.7510405,1.01E-08,120.5733537,136.6265033,129.3229072,1.27E-08,-421.6316145,,,,
208.9359999,816,-20.24132936,188.2341277,-23.0323668,-61.63348864,-10989.9976,-74.32467336,135.2682483,464.6932204,-37.41587956,-46.44863958,1.05E-08,-40.97970728,-32.96527339,-31.31126434,1.29E-08,63.85948768,,,,
208.9439999,816,173.1204868,4.91963558,170.8737238,143.2880807,-10826.35255,129.5794634,-58.80080199,233.8538264,76.28723828,68.82720301,1.09E-08,56.94221884,82.29977024,71.60717411,1.30E-08,-194.095544,,,,
208.9519999,816,-32.65864639,63.72691656,-32.36145833,-76.29842417,-11025.51389,-75.01686089,168.7942963,448.3260815,88.24593385,75.75526906,1.13E-08,87.15724425,102.5106306,100.447938,1.32E-08,-275.4548909,,,,
208.9599999,816,65.41160382,194.3974786,61.25838321,32.69581386,-10995.53158,9.055559991,-17.53263913,306.5894448,-75.56711504,-99.34073303,1.17E-08,-88.7071682,-63.6410631,-84.03842836,1.34E-08,131.4349826,,,,
208.9679999,816,124.2037266,-46.76026972,120.8765298,86.37201947,-10917.71268,80.86520861,43.50298383,294.6928722,149.5215245,123.870654,1.21E-08,130.2237214,161.2881957,144.2443233,1.35E-08,-411.2171417,,,,
208.9759999,816,-14.5077721,231.5414224,-24.13706466,-54.82439934,-11096.93594,-72.01463253,135.9739761,425.3620856,-18.37878923,-39.59899097,1.25E-08,-16.90733394,-3.442112251,-12.7553931,1.36E-08,77.02380291,,,,
208.9839999,816,174.4273734,34.62424065,166.0594942,147.202318,-10933.11975,130.4226728,-76.45715025,196.4878968,77.47490827,60.35156164,1.29E-08,61.92716166,86.80409716,62.55988259,1.38E-08,-173.9376463,,,,
208.9919999,816,-4.322605784,74.41796073,-9.321522845,-39.75505522,-11101.46938,-44.36361148,158.3061751,410.4230125,95.58386705,76.96966346,1.33E-08,97.44492199,111.5201989,102.4355944,1.39E-08,-253.1637902,,,,
208.9999999,816,82.83267936,194.7875409,75.62002053,65.45317646,-11073.32879,38.03279989,-6.569972274,270.7010683,-51.55981086,-74.3072444,1.37E-08,-55.07917286,-35.12473487,-50.21633512,1.41E-08,155.3117594,,,,
209.0079999,816,99.20651405,-43.42085084,95.14161382,75.57883958,-11032.97944,71.88072014,65.1518475,270.7524184,150.2805088,130.3224108,1.40E-08,140.9173064,162.6975772,164.0108766,1.42E-08,-372.8762951,,,,
209.0159999,816,-38.90744238,233.3267862,-53.15608156,-75.67107928,-11227.25743,-94.55410203,140.2954336,404.584017,-44.63639958,-66.67750506,1.44E-08,-38.89167676,-27.34455484,-25.84185435,1.44E-08,138.2885426,,,,
209.0239999,816,170.6572125,27.58706679,157.986489,143.9942648,-11042.9773,120.8246191,-66.30589025,170.2105969,66.42727798,43.36354086,1.48E-08,52.22998473,82.34866781,61.4964222,1.45E-08,-104.6094075,,,,
209.0319999,816,10.02085185,57.17063265,1.468865801,-22.87567422,-11192.27906,-25.71037166,188.0721069,385.4061102,109.9296576,87.39854795,1.52E-08,110.6812063,127.6613111,134.5282292,1.47E-08,-193.7067603,,,,
209.0399999,816,101.8725765,170.8672974,85.54101865,81.70564553,-11178.16485,61.05897179,-0.165773947,247.2769038,-23.74790836,-51.58887231,1.55E-08,-31.29753315,-10.30906855,-15.74774671,1.48E-08,199.0065773,,,,
209.0479999,816,100.0570706,-68.30661997,91.68879988,76.31720165,-11154.88939,74.38174589,57.47684541,251.4912602,163.0494456,143.7317511,1.59E-08,152.7368161,175.0288484,165.2480445,1.49E-08,-341.2279895,,,,
209.0559999,816,-46.31168706,207.757235,-56.66988663,-72.55087832,-11353.56218,-86.50436107,139.9714469,399.3873788,-43.34106505,-61.89337713,1.63E-08,-35.74634329,-23.66321164,-24.44978255,1.51E-08,152.0346373,,,,
209.0639999,816,153.4238052,11.27572981,145.5106438,138.5038829,-11176.65556,124.9195094,-72.2549079,183.8473783,62.44225949,34.78563325,1.67E-08,45.85754893,77.34017134,67.80802878,1.52E-08,-103.65148,,,,
209.0719999,816,-34.93761455,56.3265628,-40.19486347,-61.64321044,-11344.10403,-62.49039687,176.9709439,417.924892,82.03173984,60.56245822,1.70E-08,80.15741379,96.73414772,104.3567433,1.54E-08,-181.4467672,,,,
209.0799999,816,70.88723136,165.3353108,58.98294936,55.28224511,-11306.13415,31.02248675,-8.946471695,285.1440865,-50.99633226,-71.29522972,1.74E-08,-58.13736993,-37.56917396,-44.27027184,1.55E-08,219.8490247,,,,
209.0879999,816,100.366373,-80.30911793,101.3927877,85.93082003,-11237.33035,84.11153686,57.9928878,291.877956,146.6965449,125.757899,1.78E-08,133.9771652,158.2615895,159.8472724,1.56E-08,-324.8731292,,,,
209.0959999,816,-59.06828051,206.8083108,-59.75629384,-72.03052891,-11453.27517,-81.051806,157.7365228,450.9619185,-54.30306718,-73.51338337,1.81E-08,-49.63159526,-37.17202521,-24.13187196,1.58E-08,169.0583756,,,,
209.1039999,816,151.6967975,8.534164648,150.3171053,146.8722764,-11273.22544,140.4825151,-42.7520766,227.5986763,78.05156228,55.09793326,1.85E-08,59.33668768,93.82157336,84.95845207,1.59E-08,-90.07742651,,,,
209.1119999,816,-24.63623104,50.17997842,-21.96676533,-41.95124495,-11431.3384,-36.86352112,197.9999263,451.197072,95.08884128,69.5952263,1.88E-08,87.58131039,113.0509586,117.1918399,1.60E-08,-176.7684863,,,,
209.1199999,816,66.96897989,169.2508363,62.15557565,64.01035792,-11425.32588,49.251903,2.741536244,319.9960653,-61.41009909,-87.54407625,1.92E-08,-73.82480547,-46.29917724,-47.69298228,1.62E-08,222.0658385,,,,
209.1279999,816,116.3597543,-73.22679226,118.6769621,107.208533,-11337.67939,116.9837811,73.63154664,313.3465691,167.1611669,148.2140237,1.95E-08,150.2122221,178.4759434,178.9864227,1.63E-08,-325.4786868,,,,
209.1359999,816,-41.5537987,215.9901115,-42.78053789,-57.53687331,-11534.89242,-67.65210885,176.2144985,457.7103351,-20.7218017,-43.73462226,1.99E-08,-23.65004469,-8.446119168,-2.259849522,1.64E-08,177.6489603,,,,
209.1439999,816,151.2641281,18.12142451,147.3390978,144.3425985,-11380.88989,128.3379172,-37.65154793,226.5139006,77.27233126,47.74656862,2.02E-08,55.25341429,86.49319498,76.81873909,1.65E-08,-62.6170794,,,,
209.1519999,817,-35.1501811,60.4439689,-38.68078839,-56.74745967,-11553.93039,-58.04425793,193.8306979,441.4901538,86.81073612,67.25551562,2.06E-08,85.03236215,99.8349351,98.09899567,1.67E-08,-139.1534064,,,,
209.1599999,817,45.61284161,179.0828857,34.67268905,33.76282127,-11546.32675,12.11459024,-8.076413303,302.1622255,-73.08997202,-97.70902373,2.09E-08,-82.73649682,-63.93439424,-76.02001293,1.68E-08,273.2801402,,,,
209.1679999,817,101.6613371,-74.57357545,95.7549139,82.10897721,-11460.48752,86.59153572,28.98723709,277.4692671,154.3569325,125.5328853,2.13E-08,133.6657147,160.2643246,154.3709895,1.69E-08,-266.7623434,,,,
209.1759999,817,-74.85736135,211.2639121,-83.51504182,-100.4322787,-11678.34264,-105.2327218,112.523709,410.6901094,-39.72288948,-67.32301203,2.16E-08,-45.83242924,-30.78908725,-32.69081293,1.71E-08,231.8143654,,,,
209.1839999,817,104.8788872,18.68130946,104.8909076,96.49031841,-11514.84347,90.95781176,-81.27650911,187.6527065,30.51656266,1.215142727,2.20E-08,3.745146113,38.51902624,24.61621964,1.72E-08,-4.451959688,,,,
209.1919999,817,-42.25195829,59.91432545,-31.78174933,-56.94849194,-11626.19877,-50.63359729,188.5765144,404.9913167,66.54007203,43.66489747,2.23E-08,54.597925,80.37254551,89.72662911,1.73E-08,-71.81683061,,,,
209.1999999,817,45.84416035,172.3224031,48.78873566,38.68985551,-11607.64182,25.76549788,24.69001448,263.0540389,-55.55697056,-85.38429256,2.26E-08,-72.84854363,-43.79169703,-43.24426991,1.74E-08,343.0509269,,,,
209.2079999,817,82.07223179,-83.52161712,87.05555079,67.49742877,-11554.84957,82.26528372,66.78244896,245.5775704,141.9897323,111.1329629,2.30E-08,120.0505766,150.6196938,148.6284253,1.75E-08,-197.5638878,,,,
209.2159999,817,-73.88613234,201.8566209,-76.54276889,-89.96372018,-11754.92735,-89.0540839,136.544694,382.6606872,-55.73191999,-81.31770083,2.33E-08,-63.03963957,-50.21839272,-48.36340429,1.77E-08,297.9741921,,,,
209.2239999,817,119.2788687,1.700318099,110.3888889,113.6969313,-11588.41849,110.1859068,-76.2760501,157.2205082,46.98006394,24.86617078,2.36E-08,24.04493323,48.17617821,40.49309661,1.78E-08,48.06282929,,,,
209.2319999,817,-51.09233249,40.72320548,-57.96557038,-66.85555345,-11738.98524,-57.60014225,151.2225829,376.8001651,64.09036732,51.04117362,2.40E-08,64.07137563,71.59047369,86.25999888,1.79E-08,-35.33017281,,,,
209.2399999,817,15.26211341,158.330108,8.367455092,12.70044287,-11731.92311,0.965784892,-43.08714541,240.4562223,-87.14639921,-107.5309765,2.43E-08,-95.54370207,-83.92931093,-78.07217563,1.80E-08,368.8946336,,,,
209.2479999,817,53.18342358,-96.42927921,51.1410379,41.42430586,-11667.15113,52.71212263,5.968849903,232.6002754,115.6938623,96.21910015,2.46E-08,98.5927058,119.6309677,127.2311331,1.81E-08,-180.730285,,,,
209.2559999,817,-76.21433497,185.2085933,-82.21901751,-90.64936513,-11828.35235,-93.51915104,102.842772,377.4549523,-67.92778348,-85.84590237,2.49E-08,-69.81694273,-61.46312142,-55.28619325,1.83E-08,306.1934596,,,,
209.2639999,817,122.8802244,-13.48178528,120.2658477,122.4485773,-11642.05808,121.1994427,-79.42297216,153.0933747,48.51316267,24.31929355,2.53E-08,27.3536435,47.25210855,35.15190208,1.84E-08,45.56298462,,,,
209.2719999,817,-50.3623357,34.6965484,-51.12606163,-60.44836881,-11802.36897,-43.81320163,150.2137783,376.8496516,67.72388103,53.44317141,2.56E-08,67.39246987,70.18365485,91.26272803,1.85E-08,-37.90996275,,,,
209.2799999,817,51.11274091,156.8859966,51.2534011,60.14938641,-11749.75822,56.54254883,-32.07188827,248.226726,-68.4874069,-81.75383765,2.59E-08,-72.29184981,-64.26731945,-46.90323102,1.86E-08,364.5170933,,,,
209.2879999,817,80.75378009,-88.82680168,87.08561028,79.87945039,-11681.39572,101.2126117,59.72910133,250.3883705,164.7304616,149.386746,2.62E-08,155.244677,171.7599987,184.454759,1.87E-08,-198.57477,,,,
209.2959999,817,-101.6194737,207.0965043,-109.9124951,-115.3796686,-11920.65301,-112.8418718,136.143752,406.8325391,-62.29938536,-78.11648484,2.65E-08,-58.46297657,-58.12348505,-35.12729197,1.88E-08,300.0293364,,,,
209.3039999,817,89.1542839,9.152570108,81.10375512,91.6773358,-11748.75621,90.43582054,-86.6860477,188.3088574,13.82956117,-3.778028792,2.69E-08,-4.924215717,10.86309737,12.5702266,1.89E-08,50.26804024,,,,
209.3119999,817,-70.57143344,46.74110135,-74.28244564,-81.37273006,-11886.49544,-61.76120151,158.8616447,404.8523027,62.8805608,48.15660221,2.72E-08,60.97284895,64.85929627,70.8589145,1.90E-08,-47.69358921,,,,
209.3199999,817,22.76507526,158.2826056,12.77083857,17.94738207,-11855.69236,11.61290334,-33.48391797,263.9344994,-91.76528139,-111.7935549,2.75E-08,-102.5002264,-93.59979701,-95.09873999,1.92E-08,351.9154747,,,,
209.3279999,817,50.83395824,-95.77645034,46.56257275,40.23286504,-11781.70493,53.67784276,35.94872649,256.3648072,119.7656188,99.40193949,2.78E-08,98.78716096,122.1119352,119.1129457,1.93E-08,-203.5501186,,,,
209.3359999,817,-94.114347,180.8066684,-107.2050617,-112.8493856,-11968.47208,-109.5781271,131.7024455,390.7602635,-57.40911154,-74.58443983,2.81E-08,-62.96094356,-51.87208718,-57.08705813,1.94E-08,291.1124991,,,,
209.3439999,817,115.8843003,-33.26283302,105.9707264,109.1551407,-11777.18844,106.0202232,-77.33313815,156.9090756,42.25399625,21.00122863,2.84E-08,17.91466284,37.6741885,29.15819769,1.95E-08,36.71402131,,,,
209.3519999,817,-69.67475556,16.07035787,-70.20302305,-84.58761021,-11929.11149,-73.90372772,181.4343496,383.1414936,65.10784352,41.82198872,2.87E-08,58.86056638,66.98075051,78.23957211,1.96E-08,-40.8933675,,,,
209.3599999,817,21.44140174,133.573802,11.24787752,17.74632545,-11895.31006,14.32438955,-7.719324076,238.6558417,-80.95545425,-97.92975729,2.90E-08,-90.79054069,-77.55981189,-96.07471207,1.97E-08,380.5986092,,,,
209.3679999,817,74.36233702,-127.9557041,67.66509046,67.44115319,-11800.93754,87.8039514,32.85308869,214.725189,136.3542041,124.9359046,2.93E-08,121.556613,135.0566385,132.5091626,1.98E-08,-173.9533558,,,,
209.3759999,817,-74.80996964,157.8050542,-80.27868023,-79.74130522,-11988.36224,-72.46274484,124.1972605,354.1302391,-57.74695146,-73.38772301,2.96E-08,-55.70791278,-60.23261424,-30.86657845,1.99E-08,320.0454823,,,,
209.3839999,817,122.5221384,-48.06662515,117.6359858,129.1522148,-11804.23607,141.1555059,-74.82993801,123.6027252,58.84741422,45.09473074,2.99E-08,41.43948999,53.57095146,53.42405693,2.00E-08,64.42179464,,,,
209.3919999,817,-87.22661934,4.591106217,-89.81854921,-97.02429703,-11982.24121,-68.41890594,169.7068311,345.8634665,68.90013219,54.84892467,3.02E-08,65.27532435,69.16951765,71.29531402,2.01E-08,-18.32977777,,,,
209.3999999,817,-34.90608575,133.185944,-39.21777006,-33.52838017,-11989.26981,-30.00379435,-23.68264535,215.9051819,-126.6535288,-154.0184304,3.05E-08,-141.9403588,-131.1414363,-129.7965669,2.02E-08,406.0240905,,,,
209.4079999,818,51.93276365,-125.7137373,53.52944827,46.9140446,-11859.25056,70.11422489,28.8035012,196.2761042,102.4187552,78.62972861,3.08E-08,77.26019984,96.8430953,106.5189751,2.03E-08,-141.7434345,,,,
209.4159999,818,-70.86215959,161.1265036,-72.70101045,-77.50388333,-12021.83329,-63.4639331,126.823722,329.3631089,-48.48449988,-61.74906078,3.10E-08,-54.21611303,-49.47030222,-39.640301,2.04E-08,352.1627663,,,,
209.4239999,818,98.85144631,-44.93943146,99.93601424,108.0075157,-11857.12173,123.0684415,-69.11430581,104.5588191,56.97222761,40.66350555,3.13E-08,33.34658168,48.5195313,45.21076022,2.05E-08,98.40910489,,,,
209.4319999,818,-71.99036734,-7.408042635,-72.62051443,-79.86013067,-12001.70766,-54.83545064,169.5123751,318.4651983,70.02335401,53.81903129,3.16E-08,59.89767617,67.10945537,87.07451386,2.06E-08,5.044858377,,,,
209.4399999,818,-5.446049097,114.4113471,-16.57760066,-6.74554917,-12010.65525,-2.179322681,-31.89353521,179.3936695,-93.15240687,-112.3120567,3.19E-08,-112.3324744,-94.41183017,-88.26586498,2.07E-08,404.9613338,,,,
209.4479999,818,19.79182723,-136.4107725,15.84647259,13.86057476,-11935.86967,40.34951636,18.21191771,170.554771,100.4162075,82.23723061,3.22E-08,75.15007194,96.75693235,99.53288328,2.08E-08,-145.7589996,,,,
209.4559999,818,-112.1463452,148.2695234,-119.280494,-120.2282396,-12116.41837,-110.7251828,106.179082,306.1728926,-93.97946103,-99.48131313,3.24E-08,-95.27504963,-93.05413216,-85.46091585,2.09E-08,350.4267739,,,,
209.4639999,818,74.75150972,-65.84197624,68.1096994,80.04254893,-11934.36519,91.01730402,-96.54339413,77.98765745,26.47342817,25.93462871,3.27E-08,9.888578512,21.87564758,18.52728894,2.10E-08,82.06635789,,,,
209.4719999,818,-82.98262993,-33.52556898,-84.96638055,-90.94377222,-12046.37516,-64.46087268,152.6022424,299.5478291,55.73260597,50.04163928,3.30E-08,52.95606867,50.07620321,63.13425981,2.11E-08,-16.32971621,,,,
209.4799999,818,15.24238531,80.12378704,9.834406354,19.75972204,-12023.60066,23.3541139,-31.10988549,173.3385812,-94.78114212,-113.8281533,3.33E-08,-104.5320481,-104.4049209,-90.79585537,2.11E-08,382.8790806,,,,
209.4879999,818,35.53832562,-169.6362014,35.6125807,38.8759351,-11931.90613,66.78210727,30.80022589,182.974549,123.8259368,106.9206944,3.35E-08,109.2618274,112.6712708,141.937847,2.12E-08,-181.503468,,,,
209.4959999,818,-108.008821,127.5924113,-112.1071332,-104.2845508,-12103.56743,-88.7167852,128.2313284,334.3072544,-75.56791527,-75.71339215,3.38E-08,-67.45627609,-79.42147312,-65.89209537,2.13E-08,317.4658046,,,,
209.5039999,818,97.51741839,-75.41310956,96.47610719,115.3611106,-11919.93964,127.0196765,-68.781445,106.6655161,29.23099097,22.32977263,3.41E-08,20.23754426,22.60982429,15.74752147,2.14E-08,61.68686516,,,,
209.5119999,818,-63.50488028,-31.63694352,-61.05875577,-63.56140507,-12040.31806,-41.61949592,172.5162298,320.3245607,74.85723812,56.90254339,3.43E-08,78.18785038,70.60730074,93.2795515,2.15E-08,-45.76296945,,,,
209.5199999,818,38.54517624,90.54254877,36.83637038,50.93512014,-12019.39311,50.38350586,-14.5326535,177.0195326,-65.10492244,-82.96394049,3.46E-08,-66.74895489,-69.76559709,-66.4524025,2.16E-08,346.6222586,,,,
209.5279999,818,68.5817242,-159.7719679,73.35188754,83.61660667,-11940.35461,108.1865777,45.1739194,163.7023119,145.872199,133.4262689,3.49E-08,140.0809375,139.4384627,146.3031803,2.17E-08,-214.6031716,,,,
209.5359999,818,-105.4705403,133.1861419,-103.7558392,-94.20488618,-12135.17026,-82.3544104,121.8952567,300.9864877,-59.17746231,-60.21036009,3.51E-08,-46.79641057,-58.94563348,-38.78926995,2.18E-08,277.1359618,,,,
209.5439999,818,79.59763549,-72.50775417,87.39042317,104.4783708,-11961.43048,114.6411252,-91.19933616,67.04483267,25.68164945,22.66371903,3.54E-08,20.70713349,22.0214806,36.02918722,2.18E-08,24.03241818,,,,
209.5519999,818,-96.4597916,-26.0022979,-82.89003073,-85.73219059,-12089.51488,-61.29908884,153.2950187,281.866922,44.18501343,39.72957933,3.56E-08,55.62647543,41.72735956,73.96821871,2.19E-08,-61.67268367,,,,
209.5599999,818,-5.490558149,95.95549466,4.600538204,10.51064226,-12066.70793,12.60560211,-36.56303001,137.0923414,-107.7394245,-109.0668536,3.59E-08,-102.5475328,-107.5759514,-99.95082976,2.20E-08,346.4973043,,,,
209.5679999,818,56.44252917,-157.1455189,77.52394896,69.34516103,-11970.05849,93.57708656,23.16841728,112.634722,114.4005693,111.9882178,3.61E-08,108.8315019,110.6270266,119.2954796,2.21E-08,-208.2738081,,,,
209.5759999,818,-105.371988,145.0744818,-82.85133562,-98.8622642,-12151.81036,-90.74632106,110.7370901,250.6631277,-65.13327955,-65.8568396,3.64E-08,-59.72989479,-66.2955507,-53.49047829,2.22E-08,293.04106,,,,
209.5839999,818,75.5811481,-54.24415725,103.5312274,86.90305083,-11985.28353,93.068694,-102.9005798,22.70925676,26.14247206,17.94058752,3.66E-08,6.77806095,25.49422064,14.04419368,2.22E-08,49.77355303,,,,
209.5919999,818,-78.10199634,-14.12905413,-44.71426854,-84.59262835,-12099.86052,-61.70316275,149.0747601,233.1416387,49.42318767,37.53471757,3.69E-08,41.67691454,46.92294635,46.42917855,2.23E-08,-39.83978403,,,,
209.5999999,818,-3.952904942,112.530626,25.52500194,-7.113844253,-12069.79078,-3.487532776,-40.53435861,96.1245424,-97.98564146,-99.44234659,3.71E-08,-110.9243999,-105.2462349,-122.4050121,2.24E-08,359.746112,,,,
209.6079999,818,38.48954726,-136.7730627,81.08051187,28.57312664,-11988.12877,54.50362601,6.822944037,88.96335374,108.5664168,106.7747249,3.74E-08,83.90464621,101.9178476,81.84848744,2.25E-08,-195.6868677,,,,
209.6159999,818,-96.66666348,151.9594547,-50.67857813,-109.6828064,-12137.1259,-102.9956953,111.653042,231.7866953,-64.79158371,-77.37646563,3.76E-08,-81.16167574,-64.52465339,-87.94179121,2.26E-08,292.649501,,,,
209.6239999,818,64.5863709,-46.06854911,110.6418301,62.43265694,-11978.48543,69.05272765,-94.33440222,16.14175972,26.56321824,19.38363813,3.78E-08,-7.734911668,27.80026959,-9.577411749,2.26E-08,29.9589528,,,,
209.6319999,818,-118.9777438,2.01740442,-73.85615519,-132.1957478,-12139.30209,-107.5035301,127.8511896,246.116803,21.49937537,22.12524498,3.81E-08,6.660097785,22.75328926,12.95363758,2.27E-08,-57.97830199,,,,
209.6399999,818,-11.71652141,112.6220756,25.27373907,-13.77298088,-12076.73138,-13.95612359,-66.81078466,108.4481686,-119.8796139,-121.8431542,3.83E-08,-137.756352,-120.6596204,-142.3921348,2.28E-08,342.4819955,,,,
209.6479999,818,30.95692075,-149.2118968,75.14388806,23.705176,-11990.65606,45.91238801,-1.923553658,99.1572606,99.98423457,102.2136982,3.85E-08,77.80641576,100.9260625,82.0262657,2.29E-08,-227.580635,,,,
209.6559999,818,-133.1652029,141.9383291,-91.37257062,-142.6357962,-12189.88612,-131.5096068,84.35453019,246.7256547,-95.83508536,-92.24468827,3.88E-08,-103.5043885,-94.17017964,-104.3817218,2.29E-08,258.1487551,,,,
209.6639999,819,56.73085831,-62.64980043,98.78126362,61.59395965,-12015.57331,71.66146805,-142.1259908,23.28876782,-1.50762728,0.255159454,3.90E-08,-30.75201925,-4.152760089,-26.01838421,2.30E-08,-3.356520291,,,,
209.6719999,819,-92.70558161,-23.26894952,-46.77177646,-100.5356337,-12125.29096,-76.64545669,94.02800942,242.6024083,32.01336034,41.28761549,3.92E-08,20.37981923,30.9800003,27.02311535,2.31E-08,-100.0331096,,,,
209.6799999,819,14.4873722,92.18604369,57.38668599,18.02124616,-12047.87315,21.91598792,-74.36333242,104.3931664,-93.43775926,-78.875812,3.94E-08,-107.8834367,-96.61029403,-123.2399364,2.31E-08,298.8467048,,,,
209.6879999,819,41.00878781,-161.0826627,90.48196653,41.0553937,-11979.30432,66.64113695,4.968701405,100.223164,124.0246274,137.8479294,3.97E-08,103.3530809,123.6174162,101.4526034,2.32E-08,-274.7854137,,,,
209.6959999,819,-116.6663884,126.1049088,-76.00198511,-122.4548964,-12153.73433,-110.4082907,85.71646491,244.9312949,-74.36310594,-60.36147816,3.99E-08,-78.55187091,-70.35947706,-84.76285938,2.33E-08,204.0551017,,,,
209.7039999,819,86.21078992,-82.03437323,128.0876432,97.45085782,-11951.90721,112.1817122,-132.5226558,17.09817693,15.17396303,32.16960672,4.01E-08,-7.095791197,15.25416736,-14.0533168,2.33E-08,-59.25742492,,,,
209.7119999,819,-103.81177,-32.83540643,-50.24048865,-97.57470277,-12105.71747,-73.43828642,129.3916903,246.153443,33.57175757,51.70526901,4.03E-08,28.71903022,36.82555385,43.59294938,2.34E-08,-160.4284825,,,,
209.7199999,819,0.584236756,80.88602722,47.08088949,12.20570228,-12031.40021,10.63477988,-45.30982125,106.2212196,-100.648208,-83.70625582,4.05E-08,-110.5084665,-96.95812798,-106.2495586,2.35E-08,232.5214153,,,,
209.7279999,819,64.09624139,-179.6692669,107.6922956,64.23049275,-11934.94913,87.47081642,9.368782397,87.48506323,130.7179152,151.9538658,4.08E-08,112.2324901,133.6625449,117.2815754,2.35E-08,-343.6054193,,,,
209.7359999,819,-116.477299,112.0877026,-77.52736988,-120.0445244,-12132.81137,-111.4753602,96.71271971,233.4810142,-71.5867507,-55.21154444,4.10E-08,-79.49088872,-69.74795254,-75.493061,2.36E-08,141.2725191,,,,
209.7439999,819,84.47526963,-103.1472171,123.1296058,88.32382122,-11934.36713,97.72285616,-119.9728204,-0.010426367,24.34290759,36.15508238,4.12E-08,-7.375820476,22.15757909,-7.76259327,2.37E-08,-117.8419313,,,,
209.7519999,819,-92.00431572,-57.8738724,-57.09678099,-108.144239,-12087.47737,-82.98021495,113.5915821,215.3323652,55.72265999,69.70222406,4.14E-08,40.05220178,54.94047764,43.14089888,2.37E-08,-216.421583,,,,
209.7599999,819,-13.92424173,67.85224955,15.32565728,-17.01999621,-12035.37549,-16.39353761,-72.24201078,76.11846137,-115.613353,-103.7279107,4.16E-08,-133.337173,-118.8717099,-136.3728454,2.38E-08,193.5668636,,,,
209.7679999,819,66.6647412,-189.9208838,103.8317897,63.76887901,-11911.24987,88.06513112,7.664173861,54.66578722,111.3490699,131.4609432,4.18E-08,92.37503678,109.4485146,99.38821248,2.38E-08,-363.2040848,,,,
209.7759999,819,-98.82152046,107.9171494,-69.57631559,-109.9719165,-12092.82637,-98.34595621,120.5527858,200.6439811,-62.60828006,-47.66467803,4.20E-08,-68.27632444,-67.09272913,-60.01567613,2.39E-08,138.8475958,,,,
209.7839999,819,85.2799157,-97.6762283,114.6179735,82.63685142,-11901.30073,93.49399478,-97.45515518,-26.93923794,18.39526946,26.55295585,4.22E-08,-12.20332797,9.799088489,-1.801161295,2.40E-08,-100.4760475,,,,
209.7919999,819,-66.32141267,-64.61949072,-34.23991567,-81.95356515,-12014.02549,-54.25780189,128.4783364,179.3520764,63.11605265,73.5559009,4.24E-08,46.23246479,61.79378458,59.89008321,2.40E-08,-200.4886118,,,,
209.7999999,819,-0.452885886,53.40024652,24.41216332,-8.770926705,-11976.52576,-4.555799457,-63.22212222,42.32822585,-88.08252673,-88.26504328,4.26E-08,-113.3442471,-91.48038872,-109.2644466,2.41E-08,195.0943305,,,,
209.8079999,819,30.74061164,-199.7753817,61.4898759,15.01640057,-11907.9272,39.92717892,-3.879097369,37.16366213,98.08762583,98.62934521,4.28E-08,66.31736146,97.1419759,79.01714634,2.41E-08,-360.683886,,,,
209.8159999,819,-122.5352445,84.8512679,-97.09573491,-141.1964896,-12069.93947,-127.8301149,87.31992099,178.6515251,-88.27548305,-85.37285558,4.30E-08,-105.5861247,-85.45110082,-101.2592993,2.42E-08,132.7343408,,,,
209.8239999,819,70.06312502,-122.0573335,97.63437417,70.26620206,-11866.11371,84.26470712,-130.8219287,-49.34790841,4.103969257,8.666365685,4.32E-08,-30.84223662,2.177425986,-33.36579449,2.42E-08,-124.2166642,,,,
209.8319999,819,-99.30203683,-68.30825106,-71.62553874,-110.521726,-12010.86515,-83.33363094,101.2013748,173.4793312,34.9424351,41.27939024,4.34E-08,21.0645357,37.89979372,34.50265501,2.43E-08,-223.0520989,,,,
209.8399999,819,-27.18507528,56.82986588,-10.4635911,-31.149768,-11969.0468,-29.6562815,-86.72006709,44.03596782,-118.1438919,-111.9255887,4.35E-08,-131.5915603,-115.5701938,-115.4925228,2.44E-08,179.8765873,,,,
209.8479999,819,29.3744603,-198.4980962,52.88923368,23.53735738,-11857.59556,46.18697039,-18.01209932,35.31116852,75.31500936,94.48485812,4.37E-08,58.95873738,76.21734997,81.35897676,2.44E-08,-374.9033225,,,,
209.8559999,819,-103.353794,88.64441555,-85.64105265,-113.8709743,-12001.77372,-100.6834105,87.20511311,172.4106319,-89.4285034,-76.16641463,4.39E-08,-97.07841317,-85.216272,-77.52970346,2.45E-08,106.1138684,,,,
209.8639999,819,85.23675121,-111.8291059,102.6550883,86.3146064,-11807.4138,97.86424807,-122.1598097,-53.32218592,17.36097773,27.6804834,4.41E-08,-5.563412297,21.95308544,3.104370361,2.45E-08,-158.5311137,,,,
209.8719999,819,-80.3833965,-56.93925263,-55.09064145,-88.98491448,-11939.36622,-68.95419875,116.2501203,168.0524409,37.34093216,60.43865289,4.43E-08,39.83373154,45.49740202,44.52280935,2.46E-08,-251.9380499,,,,
209.8799999,819,7.731160939,65.27763016,26.97561656,8.231137923,-11880.46832,7.05617411,-60.52682755,31.44251469,-97.14957127,-85.12098735,4.45E-08,-105.4348348,-87.67849097,-100.9831742,2.46E-08,137.9618381,,,,
209.8879999,819,43.71468555,-177.8743848,61.54011663,36.24432203,-11794.54735,58.38724191,-5.718431305,32.38336875,106.9755706,115.3871589,4.46E-08,88.2300974,118.2173782,106.50774,2.46E-08,-424.6173942,,,,
209.8959999,819,-124.186897,131.087102,-110.3914755,-136.8401443,-11975.20309,-127.3011067,81.72007595,192.1569984,-99.66821715,-93.41246747,4.48E-08,-105.8704903,-89.26730338,-91.13708825,2.47E-08,81.80879857,,,,
209.9039999,819,76.16738648,-67.91757988,93.07485399,75.01980483,-11759.55291,84.6398467,-120.7381315,-32.56650788,-1.406977262,-3.963890891,4.50E-08,-32.3649626,3.925017656,-25.95644843,2.47E-08,-167.4888029,,,,
209.9119999,819,-65.82523395,-24.01582543,-49.73130305,-83.20136734,-11861.69954,-63.4562495,119.5711401,177.3659656,46.99945342,48.44549786,4.52E-08,28.03889379,53.35504435,40.37849454,2.48E-08,-273.4417278,,,,
209.9199999,820,6.008994789,97.92390811,14.05041794,-4.178248167,-11824.25391,-5.974045301,-57.81732445,43.49468394,-92.79621084,-106.8799855,4.53E-08,-122.3095969,-86.78563242,-102.1630844,2.48E-08,115.7695834,,,,
209.9279999,820,36.34174982,-153.6318432,44.52249495,19.9813315,-11744.38105,41.87025658,-2.948716607,36.07830661,102.4270138,84.56806218,4.55E-08,66.32906705,111.3798443,93.95841524,2.49E-08,-435.0194082,,,,
209.9359999,820,-98.89782958,131.0191752,-96.45849895,-117.4459897,-11895.26439,-106.8406411,84.36160252,171.3106839,-78.25033319,-81.17853777,4.57E-08,-95.75998982,-69.61159997,-87.89455794,2.49E-08,60.52585981,,,,
209.9439999,820,91.00809344,-74.96755872,94.76879807,81.85026312,-11700.79663,94.1232354,-106.7619261,-58.84324597,26.85243309,18.52698842,4.58E-08,-7.772948063,30.50844576,-4.30916793,2.50E-08,-197.1295933,,,,
209.9519999,820,-92.29220417,-22.26965292,-89.92332094,-119.2014451,-11846.88464,-96.45795853,129.8499155,156.9224962,27.93085186,17.54955509,4.60E-08,11.90910037,37.25926246,22.57825865,2.50E-08,-277.8286547,,,,
209.9599999,820,-9.403411308,93.74128312,-7.708123338,-21.35656207,-11795.35667,-21.44468747,-70.3011757,16.00769836,-121.1342428,-132.9310575,4.61E-08,-144.3311571,-115.5787673,-145.856191,2.50E-08,129.5548296,,,,
209.9679999,820,32.1896556,-163.6218169,41.94834904,16.16126478,-11701.96997,38.88824347,-17.881768,7.250365494,96.29463299,80.57272336,4.63E-08,63.16665018,97.71532896,73.77448554,2.51E-08,-421.0268192,,,,
209.9759999,820,-109.5173839,120.6307133,-105.3835406,-129.7509179,-11845.94481,-117.6933998,79.17230026,150.9984846,-98.5342553,-106.8995287,4.65E-08,-112.9147729,-92.28653026,-99.36622103,2.51E-08,82.35569279,,,,
209.9839999,820,77.1924503,-91.75451595,83.27524703,70.78088581,-11636.3406,84.81019667,-111.2083315,-71.12716344,12.37489596,10.94673255,4.66E-08,-15.43665342,16.97614776,-0.166278296,2.52E-08,-174.0499317,,,,
209.9919999,820,-109.8422794,-46.60715574,-104.2702009,-132.649791,-11781.69314,-107.8372802,122.0675448,151.9278663,30.0266934,28.31527114,4.68E-08,16.41579782,34.19829957,38.69491266,2.52E-08,-263.5871194,,,,
209.9999999,820,6.546037314,55.95272256,7.256268517,-7.517998059,-11698.97631,-3.665518293,-75.57572488,5.057068801,-109.5016886,-116.1686802,4.69E-08,-134.0762813,-105.5219077,-116.0294947,2.52E-08,125.7755968,,,,
210.0079999,820,55.95694298,-200.6817835,62.20835935,38.92559617,-11590.44892,70.71005231,-8.285365837,-7.464572907,128.2374479,126.3565339,4.71E-08,97.62752158,135.0585875,122.8568671,2.53E-08,-451.6154786,,,,
210.0159999,820,-118.2624285,104.8380698,-118.2964151,-139.7240039,-11771.60709,-118.7904361,81.50117779,141.6792969,-78.77238854,-74.71405001,4.72E-08,-93.13324625,-72.81299059,-86.07146107,2.53E-08,37.40731634,,,,
210.0239999,820,90.20838826,-93.87865392,92.1417151,75.58566582,-11556.7628,92.24746934,-126.7432658,-82.74231136,24.21039393,25.4622394,4.74E-08,-11.80576226,24.57483012,-10.63409463,2.53E-08,-231.0136931,,,,
210.0319999,820,-96.26730478,-30.18314727,-95.35795669,-123.6428883,-11708.42298,-96.78315174,121.7094098,150.8850555,52.10992834,52.63840753,4.75E-08,33.01151773,52.57995336,42.23360674,2.54E-08,-329.7905199,,,,
210.0399999,820,-33.18445772,98.62371061,-41.92652296,-50.36552674,-11679.67947,-45.42308758,-68.66932811,24.7214622,-126.4608423,-126.0320719,4.77E-08,-149.7939389,-129.49818,-148.1852297,2.54E-08,74.29617132,,,,
210.0479999,820,25.0527632,-156.9547701,21.57274599,-0.480541371,-11554.37682,28.52589625,-16.00145648,14.94494463,88.03543205,91.42869261,4.78E-08,55.34722413,85.50743283,65.41004111,2.54E-08,-484.7351175,,,,
210.0559999,820,-124.2331614,135.7441828,-133.4284714,-152.6481298,-11716.43263,-136.7620548,71.10633153,161.484563,-100.6692351,-100.5158442,4.79E-08,-119.1521157,-102.2647124,-111.5357117,2.55E-08,18.36788726,,,,
210.0639999,820,83.37609788,-71.5916906,72.45056957,64.63741158,-11504.61699,76.78895971,-140.9982413,-70.08258737,10.7147823,7.876607567,4.81E-08,-25.9154629,5.435020916,-15.59648004,2.55E-08,-238.4480713,,,,
210.0719999,820,-74.97822673,-25.38830438,-84.46839989,-107.1332034,-11618.09741,-83.19293459,94.49526594,145.2591596,60.45348028,59.22200565,4.82E-08,38.3251481,56.96182499,53.89903245,2.55E-08,-341.3469291,,,,
210.0799999,820,-6.179074328,93.65572689,-20.77374841,-23.05917792,-11588.65434,-20.62294463,-96.00464848,14.65878782,-104.8181379,-108.2760515,4.84E-08,-131.6484709,-110.6668806,-122.0668019,2.56E-08,57.93749536,,,,
210.0879999,820,22.41291417,-153.8655917,14.01926888,4.335727674,-11490.41505,30.90449377,-32.98507079,10.39477537,90.51401372,94.67847627,4.85E-08,59.13006896,84.35392289,67.80174436,2.56E-08,-493.1945211,,,,
210.0959999,820,-140.3740488,137.8405018,-151.507402,-160.8910296,-11661.8151,-148.73806,60.92434121,152.7873349,-106.0979747,-105.5498256,4.86E-08,-125.9322679,-107.8143281,-122.4293458,2.56E-08,11.31353395,,,,
210.1039999,820,62.12919739,-75.64332894,53.77406222,56.17251097,-11452.7201,66.92088967,-143.4298208,-81.71187472,-2.89586227,-7.016408297,4.87E-08,-41.32410018,-3.17524396,-21.89293682,2.56E-08,-246.4603091,,,,
210.1119999,820,-98.12849628,-28.46544494,-103.5660163,-112.7743359,-11561.49016,-90.57238873,100.3822558,131.7404721,31.69520457,40.25519607,4.89E-08,15.45752628,33.43394192,40.1165759,2.57E-08,-333.288934,,,,
210.1199999,820,-30.24531149,90.22754982,-40.1238623,-32.2455543,-11527.9304,-34.42635164,-90.09104755,-7.189564399,-120.3341729,-114.2298205,4.90E-08,-140.8262842,-121.3365059,-130.4642217,2.57E-08,77.49971202,,,,
210.1279999,820,8.982381186,-159.3010663,4.135967036,6.430179332,-11417.66642,30.31075897,-39.78581516,-19.79387679,84.97491477,88.11387831,4.91E-08,58.72582064,83.37417238,80.08707811,2.57E-08,-470.2662902,,,,
210.1359999,820,-132.006476,131.0189913,-143.3999174,-137.5303731,-11572.8304,-129.5076957,40.61535368,114.8092944,-110.3213684,-104.7951293,4.92E-08,-119.9051262,-112.5647585,-98.19190426,2.57E-08,39.47126342,,,,
210.1439999,820,65.51285242,-74.89920841,59.64057252,68.87708132,-11363.87721,71.05342598,-161.2596896,-122.4294875,-1.571169898,1.156934716,4.94E-08,-33.08878748,-7.348251559,-23.17185164,2.58E-08,-217.964049,,,,
210.1519999,820,-106.9171083,-14.45870225,-105.3333887,-111.0874139,-11473.29743,-93.5913629,97.57404055,97.67648025,36.8219724,38.15780414,4.95E-08,20.30101571,34.56695932,29.24266013,2.58E-08,-297.8698957,,,,
210.1599999,820,-41.95169996,112.9033878,-47.56571675,-26.03675955,-11439.88029,-24.55165306,-78.05606763,-31.80702119,-130.5473102,-128.9098693,4.96E-08,-143.833151,-132.221519,-133.0138236,2.58E-08,130.8405355,,,,
210.1679999,820,-11.17948656,-132.0698096,-11.50163843,2.668243376,-11338.73925,26.25094251,-19.54582495,-40.23238247,59.94120348,78.36020248,4.97E-08,48.4377171,59.48927501,64.2169483,2.58E-08,-412.6343064,,,,
210.1759999,821,-154.7129456,158.1288652,-159.3054744,-149.5505833,-11495.28775,-144.6365484,62.70825841,101.4952541,-127.01349,-107.5920658,4.98E-08,-126.7271596,-128.2834982,-117.8641062,2.59E-08,90.21366696,,,,
210.1839999,821,48.93704622,-51.34768149,41.82695117,59.92710358,-11285.47625,67.76749916,-146.4636739,-123.5436663,-19.52929244,-20.61015,4.99E-08,-45.82724793,-26.12378263,-34.05498026,2.59E-08,-168.0471468,,,,
210.1919999,821,-111.222587,-1.665089512,-116.2495356,-111.994738,-11391.28245,-90.18804802,96.37336191,93.18772588,28.13136233,29.74867912,5.01E-08,15.85411098,24.25362574,37.43906203,2.59E-08,-264.7904136,,,,
210.1999999,821,-32.2313872,113.8002655,-41.50446805,-15.56344306,-11341.87982,-19.85818892,-93.21973011,-45.34423186,-126.5967339,-117.9178563,5.02E-08,-138.4744987,-130.7058722,-123.5786227,2.59E-08,135.3948246,,,,
210.2079999,821,5.100810777,-132.6203283,1.299581891,17.91762493,-11229.30217,38.35181327,-32.50594474,-49.0403275,76.01097455,81.8704841,5.03E-08,59.64531163,71.35538813,72.90135613,2.59E-08,-427.6901476,,,,
210.2159999,821,-146.2282295,165.7814815,-151.7841514,-141.0833663,-11394.95998,-135.0144798,62.48829704,103.271924,-100.82413,-97.90912788,5.04E-08,-108.0242946,-105.0487283,-97.19870094,2.59E-08,62.31236711,,,,
210.2239999,821,37.857664,-34.85032667,33.59611357,54.3083587,-11197.02641,57.29964692,-146.2051449,-112.7829272,-10.3877311,-9.401368338,5.05E-08,-39.19051168,-15.77387782,-23.62281332,2.60E-08,-199.5042441,,,,
210.2319999,821,-121.7988458,18.11700019,-126.783177,-116.2521079,-11302.54598,-98.38832422,79.2244725,106.6366168,14.74992747,13.50515504,5.06E-08,2.834477029,12.62470956,17.49370332,2.60E-08,-287.3888993,,,,
210.2399999,821,-9.754205892,132.0895471,-22.85155174,6.780688555,-11245.67814,1.266867924,-130.3772692,-36.57103183,-123.3031941,-122.918879,5.07E-08,-139.4120385,-128.537626,-137.0104837,2.60E-08,118.7620568,,,,
210.2479999,821,28.15112135,-112.7214197,25.05205759,42.57141769,-11125.58825,59.23275706,-58.89421065,-33.29303637,105.1516298,114.2353268,5.08E-08,86.34020638,100.8097596,103.8156682,2.60E-08,-449.920958,,,,
210.2559999,821,-149.1150481,189.554751,-147.1071567,-134.6095891,-11274.91278,-131.0411218,77.91188874,129.9606246,-98.54272753,-94.88920599,5.09E-08,-99.60904319,-97.4099291,-67.21251585,2.60E-08,49.16394746,,,,
210.2639999,821,32.6315859,-10.00699838,34.72972085,56.62948553,-11070.82349,60.1883587,-113.0574928,-93.83755867,-22.37847478,-22.07217103,5.10E-08,-45.31895495,-22.40034958,-22.68532906,2.60E-08,-197.9391154,,,,
210.2719999,821,-151.6027389,50.11050571,-147.8200879,-137.9884732,-11204.99928,-122.8866316,116.2239501,130.3867509,-7.040325688,-1.369391865,5.11E-08,-13.1993044,-3.213807345,-1.124229101,2.60E-08,-281.0357489,,,,
210.2799999,821,-60.76866018,167.9997372,-60.38707548,-32.13243225,-11152.06446,-46.68157776,-77.21312545,-2.613011543,-174.1394309,-180.3464814,5.12E-08,-185.0808105,-169.2164942,-161.0839586,2.60E-08,137.8398769,,,,
210.2879999,821,-4.520386826,-85.08928035,-2.698403236,17.73357092,-11024.40191,29.52787931,-28.80754554,-25.06328531,69.02706479,55.43419206,5.12E-08,45.38594644,73.61796175,67.72214824,2.61E-08,-422.5254935,,,,
210.2959999,821,-159.8017928,203.0414203,-158.8168355,-136.2783284,-11182.40784,-132.065805,70.68136833,107.0468436,-111.3334857,-120.4198038,5.13E-08,-119.6556224,-103.0897007,-120.6973242,2.61E-08,73.2754894,,,,
210.3039999,821,49.9826655,-12.97515996,55.08682361,88.63792315,-10956.98254,88.83435017,-127.5514976,-128.7671813,-22.67407808,-26.96749398,5.14E-08,-48.19268465,-13.84242714,-28.77517192,2.61E-08,-175.4703266,,,,
210.3119999,821,-94.73477176,29.86840213,-88.70503012,-70.46088595,-11051.56634,-58.61209068,99.37070166,76.8990291,37.51931446,35.82805125,5.15E-08,28.47561702,51.8790937,57.09812433,2.61E-08,-268.8173019,,,,
210.3199999,821,6.143419271,137.6645771,8.41756435,41.18337581,-10990.17825,29.24158743,-72.6960729,-68.09422468,-95.28641033,-100.6798072,5.16E-08,-105.0066414,-79.02998575,-90.1641797,2.61E-08,132.5823072,,,,
210.3279999,821,50.10708477,-111.3142642,55.05901691,76.60165389,-10876.9585,89.62309907,6.456942312,-77.63727462,120.1478449,112.8750667,5.17E-08,104.4276981,133.8826096,133.4237286,2.61E-08,-425.2934649,,,,
210.3359999,821,-103.7773234,183.2898433,-103.8104501,-83.11345881,-11044.49842,-82.75486962,99.89478278,63.61391475,-63.07600976,-74.32572935,5.18E-08,-70.46729778,-54.8357397,-50.36105662,2.61E-08,81.99118426,,,,
210.3439999,821,62.61567439,-17.89036831,65.36134717,92.90715572,-10873.96457,86.77821295,-107.1948823,-157.0827902,22.95222017,17.44300316,5.18E-08,-5.932215669,27.3195814,13.46759691,2.61E-08,-158.6428609,,,,
210.3519999,821,-143.5941078,45.52013723,-142.7729468,-129.7820695,-11016.63185,-118.7790147,109.2528693,73.59396248,13.18342754,16.34601787,5.19E-08,7.243868097,26.58729586,35.09754422,2.61E-08,-235.4488118,,,,
210.3599999,821,-52.14361999,159.3963277,-62.00265042,-29.30630933,-10952.37628,-33.97630812,-102.1977523,-64.93472785,-157.9640219,-159.6517032,5.20E-08,-169.740491,-149.3985741,-150.0065683,2.61E-08,181.0528219,,,,
210.3679999,821,-2.016319301,-95.23377201,-6.221256837,16.51006804,-10845.38086,35.23196368,-43.90767019,-68.00967983,65.735915,69.55349533,5.21E-08,43.33330971,69.77309116,69.49003,2.61E-08,-375.0516553,,,,
210.3759999,821,-152.968795,189.9886446,-158.4608583,-135.8748086,-10987.27784,-126.5512668,47.40220066,88.49404828,-110.4317,-113.0315361,5.21E-08,-118.3117877,-103.3080783,-90.90114181,2.61E-08,119.4324751,,,,
210.3839999,821,33.05309372,-18.47180455,29.71434275,62.4628544,-10771.81974,73.17309611,-164.4149508,-129.1384415,-22.39222697,-29.24311286,5.22E-08,-50.18616447,-22.76082157,-18.37142927,2.61E-08,-134.3859816,,,,
210.3919999,821,-162.1914372,40.87953222,-160.2018665,-141.4464947,-10913.15051,-119.1639383,85.31629648,109.8033273,-12.1404301,-0.736991132,5.23E-08,-20.03874597,-7.61534318,11.47357618,2.61E-08,-215.1811856,,,,
210.3999999,821,-83.23765819,153.8157141,-86.41855606,-51.17020999,-10853.78904,-50.63510582,-88.72109036,-10.62281332,-163.6455698,-160.4742913,5.23E-08,-180.8427131,-160.006301,-147.8216103,2.61E-08,203.5221344,,,,
210.4079999,821,-28.85973298,-99.468219,-30.16723161,-6.346796676,-10742.55927,19.24041825,-41.2288824,-16.62708528,47.44511305,45.55960506,5.24E-08,18.88291772,44.37319757,57.21668731,2.61E-08,-352.4872973,,,,
210.4159999,821,-168.3412069,183.3729669,-172.8236089,-147.5496462,-10891.17512,-136.7353696,41.3466122,129.7908472,-134.2420976,-128.917124,5.25E-08,-143.7766196,-134.7791763,-111.80824,2.61E-08,136.9116394,,,,
210.4239999,821,48.34715318,-40.43622275,45.27756913,84.02079614,-10641.43617,93.81388457,-151.0461827,-101.9290793,-16.29817106,-11.91751585,5.25E-08,-42.39293048,-18.52647624,-7.33175097,2.61E-08,-124.5716508,,,,
210.4319999,822,-121.3447904,4.763894073,-124.1446075,-98.43587617,-10754.38639,-72.05501642,101.7715955,111.8755259,28.96462112,44.9402366,5.26E-08,24.56308276,29.79088358,54.38188329,2.61E-08,-225.8496829,,,,
210.4399999,822,-62.10910899,121.4663606,-70.31591744,-30.03528136,-10720.49684,-28.73082385,-84.10110899,-17.200377,-139.9534385,-119.1675143,5.27E-08,-147.7381612,-140.8502966,-113.3839642,2.61E-08,179.9753777,,,,
210.4479999,822,-15.2795571,-127.2851271,-16.82172071,10.79164259,-10600.06417,35.77016715,-29.10031324,-26.85278532,51.00984773,71.47763522,5.27E-08,33.22093048,50.76062553,73.37760086,2.61E-08,-365.8020738,,,,
210.4559999,822,-173.7553609,161.4529786,-175.4026241,-150.7578002,-10767.55575,-137.2973058,59.17972564,109.5222992,-119.9100562,-102.6721196,5.28E-08,-124.1743806,-116.5800156,-95.58643626,2.61E-08,130.1586215,,,,
210.4639999,822,-4.273505109,-41.23095625,-1.148036766,29.65872341,-10582.21374,38.99137863,-155.7009281,-115.2353419,-43.22351292,-32.9143962,5.28E-08,-67.39341479,-45.04195264,-34.18510737,2.61E-08,-118.9318932,,,,
210.4719999,822,-167.3394196,13.9838956,-161.9455665,-153.0919836,-10683.76685,-130.1098985,75.52332019,103.1008828,-35.15572,-22.65284384,5.29E-08,-44.45335061,-33.62002593,-15.35162525,2.61E-08,-195.0046722,,,,
210.4799999,822,-72.09857122,122.7984378,-66.53624653,-53.50829661,-10608.70007,-56.35016049,-103.5019864,-41.55994302,-162.6987361,-150.2947639,5.29E-08,-181.6849975,-163.4681348,-156.7729709,2.61E-08,212.8669215,,,,
210.4879999,822,-25.39052184,-123.6121456,-6.394773065,-10.63194411,-10487.3546,7.794078935,-36.42745272,-54.41133896,51.8254408,69.28514871,5.30E-08,26.53511123,48.30019347,57.40095512,2.61E-08,-337.1225737,,,,
210.4959999,822,-157.1773133,165.2831058,-141.7133145,-150.8596689,-10634.0803,-142.9492568,49.15264032,81.11475845,-124.8970425,-103.4854783,5.30E-08,-133.616104,-124.1057274,-116.8106768,2.61E-08,173.9169127,,,,
210.5039999,822,32.58879732,-38.88179224,52.12720595,46.14112645,-10429.5926,53.3915833,-170.8817476,-148.9013686,-20.31645645,-5.71810914,5.31E-08,-50.98819327,-22.26423319,-32.9860102,2.61E-08,-73.22206193,,,,
210.5119999,822,-166.7064452,24.78403748,-136.6896581,-162.0607016,-10556.83965,-135.5564302,63.58550059,76.96129205,-7.075485502,6.946981234,5.31E-08,-21.39446244,-7.097068442,5.119215485,2.61E-08,-156.0516964,,,,
210.5199999,822,-64.81818083,129.3103312,-35.75199978,-51.09098674,-10485.54294,-41.98196219,-113.8516159,-66.41285196,-164.0336482,-142.7744096,5.32E-08,-184.4105101,-165.3050294,-173.4722111,2.61E-08,260.1684917,,,,
210.5279999,822,4.392434143,-124.4591489,40.1829474,10.53104989,-10349.77649,38.15104956,-53.34577134,-77.44565351,53.79994661,79.77034938,5.32E-08,24.7231331,50.33414297,30.04147865,2.60E-08,-293.8429589,,,,
210.5359999,822,-126.585521,158.5744572,-90.11461445,-124.0697868,-10471.52936,-113.487733,59.78836669,62.42288645,-96.06343735,-74.11360516,5.33E-08,-111.9101707,-96.88316351,-99.03927814,2.60E-08,192.2318864,,,,
210.5439999,822,75.11254639,-60.38836837,114.7043486,84.69499044,-10245.20138,97.16477033,-118.2163869,-170.3979836,18.55083099,37.54455844,5.33E-08,-17.49285433,17.18535721,2.12788119,2.60E-08,-71.25090344,,,,
210.5519999,822,-139.9634752,1.501887154,-102.9454498,-147.7072448,-10402.78187,-120.3035706,104.5857525,64.00866555,10.03843683,36.72112086,5.33E-08,-5.111232605,13.51511824,14.11242688,2.60E-08,-156.6175745,,,,
210.5599999,822,-58.07150708,115.3425028,-27.84602013,-54.67072424,-10346.95679,-51.98654191,-99.02834843,-70.7540791,-163.8035244,-130.1880317,5.34E-08,-183.3015024,-159.6553579,-167.3409876,2.60E-08,255.0900075,,,,
210.5679999,822,20.58142281,-136.1576032,54.9493749,17.93091952,-10192.54401,43.05363346,-41.94944202,-87.6149813,68.49647797,100.4967511,5.34E-08,34.74358006,68.94118443,54.11496531,2.60E-08,-302.6587746,,,,
210.5759999,822,-128.685497,155.7925478,-101.9671512,-140.1764942,-10348.31132,-128.6192779,50.27636934,55.77795056,-95.15053197,-70.00265155,5.34E-08,-118.0988089,-96.52713418,-97.95259599,2.60E-08,191.1129931,,,,
210.5839999,822,51.16527307,-51.05211336,79.33560504,49.8379179,-10157.08149,61.48396807,-154.2228415,-174.139937,-3.768898031,18.08072513,5.35E-08,-44.87530154,-5.256579926,-23.10797855,2.60E-08,-66.08655544,,,,
210.5919999,822,-133.6358596,7.856581335,-104.8503836,-146.2821223,-10277.93245,-118.2650518,73.06205528,45.35918817,4.17828655,28.65779933,5.35E-08,-20.28571339,6.558642802,-6.484432185,2.59E-08,-157.7630098,,,,
210.5999999,822,-45.20753775,123.667455,-25.98642341,-46.7688541,-10224.00972,-41.89232888,-121.0506485,-90.8379666,-158.9724612,-128.7341854,5.35E-08,-186.0393876,-157.5649777,-175.2065082,2.59E-08,246.8688751,,,,
210.6079999,822,3.287198374,-122.0219558,27.71336175,-0.974444294,-10108.34365,28.63604883,-59.6347323,-98.80977606,67.19556477,105.3015967,5.36E-08,37.80032769,71.53032519,61.26666339,2.59E-08,-312.7909857,,,,
210.6159999,822,-141.5114902,159.5257889,-123.7753766,-150.1698769,-10239.24027,-130.05101,32.75903593,43.92506045,-110.5953457,-76.50200258,5.36E-08,-127.5660085,-106.3374946,-105.4012854,2.59E-08,173.9709638,,,,
210.6239999,822,56.56230418,-55.42009936,69.89869873,54.34563125,-10031.01862,70.47607462,-169.3402283,-182.3401902,-22.67108778,6.261986558,5.36E-08,-61.29757558,-22.86845549,-35.51623004,2.59E-08,-91.72882326,,,,
210.6319999,822,-111.2071191,-5.264245023,-94.80609038,-127.6134392,-10138.32622,-99.92937019,71.9216661,36.39996123,13.36635907,46.87798772,5.36E-08,-6.039175677,16.63416628,19.47533333,2.59E-08,-183.7127431,,,,
210.6399999,822,-13.11589637,98.29748627,0.301270261,-18.41722256,-10051.18947,-11.37943666,-115.6833098,-109.1320604,-126.5505807,-96.17950384,5.37E-08,-150.7749227,-127.0480657,-131.8181212,2.58E-08,213.7143456,,,,
210.6479999,822,-1.14956262,-136.3482431,18.95138225,-10.51188848,-9972.15929,18.1327177,-56.13010107,-114.1904769,76.7017937,105.340336,5.37E-08,46.15054209,74.8305717,72.46867481,2.58E-08,-347.3181421,,,,
210.6559999,822,-168.5261424,158.0526583,-149.2017745,-181.923597,-10117.30363,-173.7504275,28.30415922,28.00335471,-133.4783679,-99.41843662,5.37E-08,-150.0251829,-133.0637953,-125.7539861,2.58E-08,157.4593478,,,,
210.6639999,822,53.28782135,-61.85206493,71.17457424,42.65162404,-9873.826014,47.55578761,-182.3733627,-215.769472,-30.70430575,1.860608461,5.37E-08,-71.7134544,-31.59565185,-51.19739705,2.58E-08,-102.5231004,,,,
210.6719999,822,-118.6823178,-12.06821334,-105.4996172,-144.393591,-10007.21226,-114.5910542,26.30628966,1.79257836,16.46360356,44.0967448,5.37E-08,-12.10296793,13.25882634,-3.99556375,2.58E-08,-194.3950811,,,,
210.6799999,822,-26.93111697,93.82554575,-14.64925984,-33.10088755,-9910.382522,-21.91745088,-174.7753809,-126.1888192,-127.4838734,-103.939157,5.38E-08,-162.1656587,-139.5360463,-147.1636947,2.58E-08,212.6884262,,,,
210.6879999,823,7.808626124,-148.5536659,33.74742445,-3.767411897,-9776.937424,26.59148222,-34.58824524,-124.3544366,77.50591236,100.8010498,5.38E-08,36.96357548,70.2021612,69.50982904,2.57E-08,-339.8592685,,,,
210.6959999,823,-153.7668577,138.6032792,-139.1939228,-173.5302739,-9939.975035,-153.0801625,85.22023493,24.61149965,-133.1384181,-106.0836728,5.38E-08,-160.1431602,-138.9069052,-156.4387976,2.57E-08,171.5794566,,,,
210.7039999,823,62.55060199,-82.65471273,72.82773703,53.5841353,-9696.585389,72.84093412,-153.6302406,-203.0477698,-17.1570867,5.414963333,5.38E-08,-63.67420879,-30.65242256,-55.91185131,2.57E-08,-86.46460606,,,,
210.7119999,823,-118.181977,-35.17366031,-100.16733,-140.1558428,-9816.587628,-108.237331,116.7245922,22.060343,16.01988174,32.31700999,5.38E-08,-13.04469902,9.784411632,14.23805089,2.57E-08,-178.0605251,,,,
210.7199999,823,-36.14476901,69.0142064,-24.13751631,-41.90177065,-9757.125324,-30.14804156,-60.94967053,-109.0700015,-155.5534496,-142.8091422,5.38E-08,-194.4733716,-164.1724727,-174.001947,2.56E-08,233.0252983,,,,
210.7279999,823,24.44069351,-180.5625299,40.6818482,19.46310522,-9594.41816,52.66095475,-10.82355755,-116.3708713,76.65377493,89.05381746,5.38E-08,34.01721037,69.12737737,63.67626295,2.56E-08,-325.2926623,,,,
210.7359999,823,-113.4428773,104.244666,-102.9435627,-124.1259267,-9734.270243,-107.1133516,85.1412683,24.04609351,-96.09366381,-82.30791289,5.38E-08,-115.7625353,-95.57522071,-102.2948119,2.56E-08,164.3494635,,,,
210.7439999,823,70.15579421,-93.37541112,75.49711527,65.55042914,-9546.000059,78.26912632,-138.5712715,-198.7745963,-3.03354287,6.374039435,5.38E-08,-40.75204135,-4.70186686,-17.2527332,2.56E-08,-99.60818086,,,,
210.7519999,823,-112.3808432,-25.09539958,-107.7760681,-130.5078288,-9658.485447,-107.2046554,91.18751294,27.89256002,11.84253696,21.98312472,5.38E-08,-8.993149485,14.7224623,28.12729913,2.55E-08,-178.9015695,,,,
210.7599999,823,9.439584938,87.2592585,9.934271439,4.597320923,-9555.097841,4.972962533,-91.20730166,-118.2886436,-123.5570098,-110.2489769,5.38E-08,-152.3009596,-121.5301585,-151.336507,2.55E-08,230.4336343,,,,
210.7679999,823,35.79910321,-140.906258,44.32661319,26.37583463,-9421.048044,47.52385014,-23.59597847,-129.7992402,105.5565932,121.3902345,5.38E-08,71.40658487,112.0292094,83.3527107,2.55E-08,-332.0760291,,,,
210.7759999,823,-166.0377826,167.0094525,-163.6638871,-180.7867549,-9606.726126,-180.6930744,56.11038932,19.64693437,-126.4249228,-115.3031064,5.38E-08,-144.4314047,-109.468679,-123.2060757,2.55E-08,174.6558909,,,,
210.7839999,823,33.77495837,-27.93168342,35.47128252,28.34265458,-9392.793012,23.51597731,-169.8360665,-211.4315544,-48.44047242,-46.40623791,5.38E-08,-91.79700936,-33.83788227,-75.83005526,2.54E-08,-71.33570229,,,,
210.7919999,823,-126.2389338,30.77177428,-121.7435078,-142.9883824,-9493.459951,-132.4871866,68.41432182,-1.024285615,-9.186508186,-5.957648592,5.38E-08,-36.12282038,8.207619954,-10.90219328,2.54E-08,-162.1566268,,,,
210.7999999,823,-35.3698063,135.6625919,-40.47516923,-41.64457873,-9448.937696,-53.50808699,-117.5571808,-147.3582323,-154.5206837,-150.9495736,5.38E-08,-186.9110749,-136.9769834,-157.6595266,2.54E-08,231.4635543,,,,
210.8079999,823,8.477222293,-109.8449874,6.004223368,-6.003868103,-9330.636412,5.628678622,-62.58739699,-159.2625195,71.36192543,80.69252209,5.38E-08,33.93255986,83.45678121,80.54966427,2.53E-08,-330.408475,,,,
210.8159999,823,-145.8479179,175.7037659,-153.5341999,-163.8731424,-9481.590701,-166.3604329,21.54355089,-18.69043484,-124.9520268,-112.6949307,5.38E-08,-140.3242238,-117.0766484,-123.3607705,2.53E-08,162.817324,,,,
210.8239999,823,47.62283646,-26.0211445,42.82303901,42.73328697,-9251.793618,42.51180264,-174.0208621,-246.5098044,-29.77936199,-26.98876567,5.38E-08,-67.87665749,-25.66512714,-60.73319084,2.53E-08,-96.79586523,,,,
210.8319999,823,-127.4400419,31.56966824,-122.7405529,-139.8740015,-9345.231331,-123.0898113,88.46902065,-23.12224766,1.061762899,3.826005514,5.38E-08,-25.79671734,10.04884388,14.30300944,2.52E-08,-179.845372,,,,
210.8399999,823,-31.75782068,132.0605884,-33.50404901,-32.26171993,-9278.611977,-40.67616016,-88.41646312,-168.5806466,-144.538109,-135.3024198,5.38E-08,-174.0860456,-131.7630973,-139.6710005,2.52E-08,216.165909,,,,
210.8479999,823,8.149022221,-111.4291642,5.605310593,-1.440931802,-9147.9732,14.09576073,-35.52031427,-182.0796213,75.31463678,86.87076163,5.38E-08,40.50209623,89.49049802,78.41673487,2.52E-08,-339.7521824,,,,
210.8559999,823,-139.0249658,174.7046123,-147.7371901,-152.4533822,-9305.53368,-154.4385737,51.21311291,-35.36244803,-120.8071671,-112.9875962,5.37E-08,-141.6169314,-112.8797604,-97.95233141,2.51E-08,171.3324369,,,,
210.8639999,823,63.88647009,-33.85636713,53.8083376,62.31409331,-9084.603217,58.8051279,-143.333138,-264.6317896,-10.66519548,0.056738338,5.37E-08,-49.3218872,-8.865251014,7.041207741,2.51E-08,-80.38895864,,,,
210.8719999,823,-144.9724984,25.4804336,-156.6989496,-161.5310074,-9224.837532,-142.9308254,90.48916695,-44.71975642,0.072801847,14.8481176,5.37E-08,-21.08536539,6.288348053,28.49333382,2.51E-08,-159.7726744,,,,
210.8799999,823,-49.68474237,130.2581289,-67.2450911,-56.85686917,-9172.614516,-62.85162743,-106.923243,-189.0856302,-168.1658313,-162.2858774,5.37E-08,-199.3184873,-167.1331894,-183.3413954,2.50E-08,245.7587471,,,,
210.8879999,823,31.20391745,-117.2810304,22.33039146,22.72606827,-8986.621954,36.16942072,-35.28829104,-206.6519442,77.07098493,81.7197766,5.37E-08,38.484538,78.53452526,69.54605137,2.50E-08,-307.3795959,,,,
210.8959999,823,-150.2301721,171.0106702,-163.9200561,-161.4351845,-9167.074228,-161.8897914,51.37760677,-58.9986709,-109.4283764,-105.6777076,5.37E-08,-128.1269098,-106.4007779,-98.57891417,2.50E-08,190.2793699,,,,
210.9039999,823,28.44710883,-32.8125304,16.67220722,29.80204137,-8967.30943,28.21025857,-165.3819538,-277.6634008,-36.52409946,-32.75589351,5.36E-08,-75.0052695,-41.17841207,-51.05312157,2.49E-08,-65.90680786,,,,
210.9119999,823,-134.4515315,23.82937352,-139.9886026,-139.3600066,-9038.621359,-124.326837,89.48771259,-47.42673614,-17.18355991,-3.003921139,5.36E-08,-37.31555674,-15.83551125,-2.617432728,2.49E-08,-139.6233675,,,,
210.9199999,823,-44.05107323,135.400944,-55.43168089,-37.7325486,-8988.026516,-45.79236815,-80.33086691,-174.9812885,-153.0516306,-136.9905099,5.36E-08,-171.0401732,-149.1921721,-152.9754161,2.49E-08,265.7362614,,,,
210.9279999,823,13.89812121,-93.22328829,6.45504488,11.84255625,-8845.38066,26.24301211,-18.49704177,-176.0495445,70.11215689,83.62187323,5.36E-08,45.91630432,70.66685471,71.1844307,2.48E-08,-285.1662322,,,,
210.9359999,823,-153.5098102,226.3224412,-165.2909178,-159.1735007,-9007.97537,-156.4904225,62.40467069,-26.00418204,-122.5044512,-114.1961335,5.35E-08,-136.0278607,-120.9775488,-106.5748992,2.48E-08,204.3495563,,,,
210.9439999,824,35.75886533,79.43755517,24.03822085,41.59360662,-8799.140444,41.53129207,-159.687709,-249.3192958,-28.15186617,-22.57603804,5.35E-08,-62.676421,-27.93603272,-35.91066477,2.48E-08,-63.37754471,,,,
210.9519999,824,-138.6047803,205.9271826,-149.2614426,-148.8483013,-8898.421395,-140.652505,73.9124121,-22.04022593,-10.54712506,-2.381250424,5.35E-08,-27.55659327,-8.478833494,-6.008269391,2.47E-08,-144.3426145,,,,
210.9599999,824,-79.44107244,370.0233333,-94.63869417,-79.79389016,-8870.668564,-99.7910756,-109.6836206,-147.6396436,-174.8649369,-164.5433666,5.34E-08,-195.118701,-174.2053053,-193.3842776,2.47E-08,252.849207,,,,
210.9679999,824,-15.42255319,157.3714318,-31.40850457,-20.82775725,-8728.999355,-21.22618624,-60.16273915,-151.486293,25.20655737,38.86985336,5.34E-08,-1.992033746,24.34831803,9.360577524,2.46E-08,-290.4155316,,,,
210.9759999,824,-135.6002365,465.7612613,-167.0383986,-149.5652837,-8849.836051,-163.8213926,18.47215342,-15.0901395,-129.6742549,-121.6725871,5.34E-08,-144.8071871,-133.5551026,-131.2083475,2.46E-08,204.2256094,,,,
210.9839999,824,54.40274895,295.6653036,22.09534798,51.97912937,-8603.372952,39.53261407,-169.1560743,-239.9708198,-5.016862761,4.78216033,5.33E-08,-37.38916198,-14.25004634,-24.55550495,2.46E-08,-64.34844176,,,,
210.9919999,824,-126.1762418,370.4978715,-158.9152285,-140.4920344,-8711.79579,-136.1462302,83.94427559,-9.998685325,-7.961791114,11.97882775,5.33E-08,-18.55144253,-16.67842466,-4.036399918,2.45E-08,-135.8565699,,,,
210.9999999,824,-41.86480721,478.9408237,-86.061267,-51.53105873,-8690.269326,-66.54563836,-126.3273147,-149.2361727,-149.3356528,-126.682205,5.33E-08,-167.3491615,-164.4044566,-163.2251455,2.45E-08,251.6424879,,,,
211.0079999,824,-7.392219421,254.0617883,-41.56076148,-18.67393193,-8548.3941,-9.968725758,-73.27825097,-151.919202,61.77443196,89.9103702,5.32E-08,37.62070028,48.34168642,48.44465509,2.44E-08,-303.3045661,,,,
211.0159999,824,-158.9656087,545.5802844,-191.282106,-167.0782018,-8700.971017,-175.706017,34.3582286,-2.759851217,-151.464568,-116.2397326,5.32E-08,-153.436587,-161.3678294,-145.2928449,2.44E-08,201.99783,,,,
211.0239999,824,36.5074183,326.2386171,5.918787107,35.80584944,-8500.822806,27.92707652,-176.1052554,-233.6304637,-31.71327562,12.30973364,5.31E-08,-50.91109827,-49.55501012,-44.19870699,2.43E-08,-73.42398709,,,,
211.0319999,824,-145.5755301,359.7851306,-172.6790932,-161.0930987,-8594.719016,-153.3584844,40.9167342,-17.06543439,-6.619097584,29.52406607,5.31E-08,-13.97274508,-22.67506068,-11.78599645,2.43E-08,-157.0642324,,,,
211.0399999,824,-50.49597551,435.3935411,-83.58049956,-52.79550005,-8539.048566,-70.34933246,-157.7001741,-159.3306883,-166.9648545,-142.8593069,5.31E-08,-183.7540277,-187.3464264,-187.8818119,2.43E-08,238.34475,,,,
211.0479999,824,0.494533191,165.7603327,-21.86985573,1.456478268,-8384.71666,11.39233196,-66.94563201,-165.7864562,67.54027602,102.8034535,5.30E-08,45.11440665,44.39377379,64.12101969,2.42E-08,-313.8005651,,,,
211.0559999,824,-148.6911822,401.1526439,-166.7288767,-140.8185611,-8505.620623,-139.7320879,66.11706091,-24.37279259,-112.9595253,-79.53574314,5.30E-08,-120.6989572,-129.4381924,-93.91161924,2.42E-08,191.2728852,,,,
211.0639999,824,27.83273718,146.099874,8.488102523,45.8511112,-8327.462084,46.87852106,-147.9103217,-249.8184103,-31.89034687,-4.187754465,5.29E-08,-57.83648974,-51.51495872,-37.20122467,2.41E-08,-68.34589816,,,,
211.0719999,824,-157.516788,155.8868153,-175.4898483,-156.2977349,-8440.114587,-140.9943836,76.19929585,-30.03650236,-17.08346236,18.37875966,5.29E-08,-25.1081029,-37.51771168,-14.96647049,2.41E-08,-125.9579203,,,,
211.0799999,824,-56.92563504,199.5090746,-77.09021121,-43.38247802,-8356.805515,-50.1641117,-95.26470219,-173.9479723,-162.9287308,-131.7044085,5.28E-08,-179.0702193,-182.7305006,-168.8857995,2.40E-08,288.186098,,,,
211.0879999,824,-29.67971279,-88.82878893,-45.41973656,-14.59632963,-8246.609078,3.566339952,-42.6718436,-178.5363318,43.21813929,71.41549958,5.28E-08,23.4091687,27.22581046,57.2248569,2.40E-08,-253.7974956,,,,
211.0959999,824,-182.2117884,138.4116793,-199.5736882,-165.0398055,-8388.08697,-161.1901231,27.01344193,-45.86792371,-148.3927369,-111.6534808,5.27E-08,-149.1622954,-162.0997438,-125.3403958,2.39E-08,253.0552069,,,,
211.1039999,824,32.75203371,-115.9453871,17.86510878,56.5535941,-8140.863675,60.05189315,-174.0512825,-278.1361374,-41.51350269,-1.600577615,5.27E-08,-62.773273,-59.37598093,-52.04881354,2.39E-08,-17.95975954,,,,
211.1119999,824,-127.6181395,-98.19828309,-140.9693332,-120.8578711,-8218.49266,-104.1224761,69.41386991,-53.52904703,5.041754377,36.95343555,5.26E-08,-2.858854712,-10.34841648,8.830032667,2.38E-08,-97.2713992,,,,
211.1199999,824,-65.06296901,-35.04830246,-82.37255437,-47.68892699,-8173.10898,-54.3975162,-123.1475977,-183.5749913,-137.7822035,-107.815481,5.26E-08,-150.295727,-157.4058539,-149.0537525,2.38E-08,291.2396217,,,,
211.1279999,824,-62.60930611,-284.0978966,-76.22879146,-51.05760051,-8083.281542,-34.77855958,-62.40766478,-164.6269273,25.50155992,60.65232571,5.25E-08,10.16152188,3.3333157,14.36645135,2.37E-08,-247.5760676,,,,
211.1359999,824,-175.9624662,-36.33515355,-192.9043423,-170.560923,-8191.809345,-174.9563485,28.8564454,-20.21729651,-158.3320162,-130.9826811,5.25E-08,-162.4071609,-177.2487191,-156.2165823,2.37E-08,271.2738541,,,,
211.1439999,824,28.6647814,-275.4418064,14.62874142,40.74353234,-7955.383842,36.57800064,-179.7852226,-248.062515,-20.90670322,-2.528942683,5.24E-08,-47.18828211,-41.13861316,-42.68400196,2.36E-08,-10.78881484,,,,
211.1519999,824,-158.2326404,-220.935341,-170.9155333,-152.1591571,-8068.896894,-134.1732642,59.31416415,-14.70815028,-9.424246149,8.839808001,5.23E-08,-20.22026847,-28.9753713,-25.22326741,2.36E-08,-88.69356458,,,,
211.1599999,824,-53.67421741,-137.9902218,-71.61513226,-29.70036142,-7996.478572,-32.65035016,-128.6280183,-152.8493187,-146.7727509,-123.8462534,5.23E-08,-162.9832442,-169.1070125,-165.471841,2.35E-08,292.4172693,,,,
211.1679999,824,-34.30768505,-369.0994367,-49.62078579,-18.74440996,-7886.834783,3.297670497,-74.2946274,-147.2995402,50.17601201,78.13207592,5.22E-08,33.62402123,31.22378143,42.44381126,2.35E-08,-272.5953579,,,,
211.1759999,824,-175.3407294,-88.02396477,-196.3132047,-164.3938256,-8030.722766,-154.357544,17.31579696,-2.716678332,-149.1193759,-126.983692,5.22E-08,-152.1789578,-165.7714039,-160.3184782,2.34E-08,232.6116255,,,,
211.1839999,824,14.90448726,-303.409659,-4.973270678,34.05761931,-7813.503971,43.55374005,-183.3731092,-228.526752,-25.45248341,-5.815653192,5.21E-08,-50.57009924,-46.74430434,-49.39339351,2.34E-08,-54.81341432,,,,
211.1919999,824,-196.4052779,-228.9630981,-211.9341383,-188.9012179,-7934.006477,-165.195432,39.54312232,8.518888008,-35.45273801,-11.01907284,5.20E-08,-41.16368564,-55.38180975,-36.08026046,2.33E-08,-119.5538501,,,,
211.1999999,825,-117.6078751,-132.8779158,-128.0056788,-88.43424687,-7871.693052,-87.67749969,-155.7776263,-120.5866771,-204.644828,-182.9910813,5.20E-08,-214.9294723,-225.7251071,-220.5245236,2.33E-08,282.4826272,,,,
211.2079999,825,-68.3049344,-371.5337819,-73.4318285,-43.2118159,-7732.506166,-18.68262653,-99.11452604,-121.3534087,13.49405865,36.261815,5.19E-08,-2.547476305,-5.181700804,17.93227532,2.32E-08,-273.1924351,,,,
211.2159999,825,-189.3998915,-95.72769081,-203.8564361,-172.7374549,-7863.065897,-156.6355507,-27.56424757,9.315859489,-159.8524661,-131.9490303,5.18E-08,-162.1318239,-179.9115468,-147.5280378,2.32E-08,234.1551942,,,,
211.2239999,825,-5.816934241,-301.0311374,-9.763223722,26.62841228,-7653.490825,46.81767398,-216.1146477,-220.5934107,-48.82056569,-27.0760334,5.18E-08,-71.79614404,-72.45197257,-72.44315227,2.31E-08,-57.11811431,,,,
211.2319999,825,-147.0912627,-222.7262653,-150.6672823,-128.3785835,-7718.846565,-98.47475083,44.51057373,-4.724154786,-9.843186612,8.551108026,5.17E-08,-19.13262836,-28.32367569,-15.21456686,2.31E-08,-130.5912573,,,,
211.2399999,825,-21.33433669,-118.0188798,-36.2715038,2.325326813,-7635.652895,9.026484858,-141.4357465,-155.7470275,-112.458853,-89.87338433,5.16E-08,-126.6474644,-134.9791834,-131.8064403,2.30E-08,256.7945906,,,,
211.2479999,825,-42.84237306,-321.4569215,-42.74471438,-20.8058689,-7559.531553,10.93739579,-74.93383408,-149.6518197,67.65217682,88.41742678,5.15E-08,54.2195284,49.23608267,57.88490082,2.30E-08,-300.5214441,,,,
211.2559999,825,-209.5558339,-14.76094401,-212.6584069,-189.7184278,-7704.190008,-173.0322378,13.76127103,-7.736191654,-166.0355448,-142.7099077,5.15E-08,-162.8147592,-177.5100237,-153.1993422,2.29E-08,225.7589399,,,,
211.2639999,825,-20.54818362,-212.2624697,-28.49199877,7.764602431,-7500.758924,26.41131011,-191.3546589,-231.3414468,-63.3311983,-31.47051153,5.14E-08,-78.42837525,-82.53520599,-78.80195091,2.29E-08,-46.33620748,,,,
211.2719999,825,-195.2861462,-132.6396651,-202.472573,-178.4604767,-7608.1122,-149.4023882,33.14701769,-8.520559634,-50.32575852,-20.91315772,5.13E-08,-48.97676257,-69.95158068,-63.90470853,2.28E-08,-101.4062704,,,,
211.2799999,825,-63.96339815,-43.01530239,-76.26831124,-35.28744123,-7498.440479,-32.74469975,-176.0393126,-166.7565866,-170.4725012,-147.4809737,5.13E-08,-177.2837781,-190.8194425,-198.5452952,2.27E-08,290.7434665,,,,
211.2879999,825,-39.22005727,-267.4830252,-44.62536904,-17.25801641,-7394.816556,10.21630213,-117.4062674,-168.6428255,56.05525646,80.60023348,5.12E-08,45.80691632,36.55723364,38.73502457,2.27E-08,-281.8752802,,,,
211.2959999,825,-195.1436127,28.43921997,-202.3363866,-176.1093842,-7533.483097,-165.8188965,-19.10496977,-21.22318334,-153.3471101,-132.9454061,5.11E-08,-149.5457383,-169.7917318,-158.2339364,2.26E-08,242.835522,,,,
211.3039999,825,36.56943755,-191.8715204,32.7502858,66.51835735,-7265.502476,75.40804562,-199.5839267,-256.9084563,-25.85211512,-11.97548323,5.10E-08,-44.13154492,-43.85183931,-53.36889572,2.26E-08,-32.26350572,,,,
211.3119999,825,-135.4553057,-122.0248606,-138.9546451,-119.3154812,-7378.087977,-96.28617687,52.02459451,-40.88928726,20.34839577,36.78668386,5.09E-08,20.15416137,6.914724569,15.29742312,2.25E-08,-112.7215237,,,,
211.3199999,825,-54.71768295,-21.09413278,-61.67505199,-25.3755449,-7316.967732,-27.17030044,-148.7868029,-180.6606941,-139.3888674,-122.1945075,5.09E-08,-146.1329221,-155.9313135,-151.7556949,2.25E-08,272.6735041,,,,
211.3279999,825,-7.387083015,-248.7321071,-7.260528676,15.7142017,-7178.359406,39.0787368,-100.0099889,-182.4862998,73.53163547,88.93866972,5.08E-08,60.46730129,56.33820085,51.61797207,2.24E-08,-295.8066566,,,,
211.3359999,825,-168.0947698,41.7808102,-172.9556895,-149.1338895,-7328.126837,-137.1238178,-7.925405847,-39.56966017,-102.8479674,-89.28524534,5.07E-08,-100.823659,-116.9596068,-123.4131823,2.23E-08,206.6462726,,,,
211.3439999,825,-1.53517936,-169.3789878,-0.385629193,32.3455886,-7128.266564,45.47689167,-200.4448212,-252.462482,-29.15429747,-14.28700991,5.06E-08,-46.1464805,-48.16421756,-60.69907864,2.23E-08,-72.36183671,,,,
211.3519999,825,-175.3132922,-99.94365111,-172.8629568,-154.0286479,-7231.911913,-129.2855696,37.83832258,-22.72031099,-28.74383134,-11.80859489,5.05E-08,-27.06431361,-45.41341549,-38.29555831,2.22E-08,-132.8080804,,,,
211.3599999,825,-75.06014873,-15.54708144,-80.50508709,-42.681037,-7148.835863,-41.57869502,-152.4435462,-167.7355194,-149.8707481,-135.4068949,5.04E-08,-156.4535362,-167.938145,-170.7420421,2.22E-08,247.6638364,,,,
211.3679999,825,-28.28777408,-249.4281445,-24.98791313,3.793969966,-7017.763899,29.54953349,-91.06013589,-163.5239077,52.24481942,71.36923901,5.04E-08,41.38205783,33.74360207,37.69320871,2.21E-08,-315.0578489,,,,
211.3759999,825,-149.9596705,31.79354052,-151.2574758,-121.5094758,-7123.567037,-107.3930802,0.400896654,-20.27366461,-114.6593853,-90.91811331,5.03E-08,-106.4275573,-130.6672626,-112.5731534,2.20E-08,199.3713523,,,,
211.3839999,825,29.63342034,-189.5754252,30.24745437,65.8517978,-6906.132208,85.94719139,-195.8804771,-238.3211428,6.584339401,29.1647321,5.02E-08,-7.6491586,-13.55248741,-5.65970661,2.20E-08,-92.64854272,,,,
211.3919999,825,-166.0552945,-112.6059132,-159.3974451,-143.5044851,-7035.328611,-114.6827347,35.3487574,-5.147905925,-14.11441904,4.111687558,5.01E-08,-13.79454467,-33.50019875,-12.97633421,2.19E-08,-153.8661759,,,,
211.3999999,825,-54.27431623,-20.90448012,-51.51097157,-23.07786314,-6946.973357,-22.90051462,-152.6330927,-148.8869506,-141.1471192,-128.8570277,5.00E-08,-146.5670495,-161.9449211,-159.7190007,2.19E-08,231.3428604,,,,
211.4079999,825,-12.70363194,-249.5951481,-0.789643753,12.73567904,-6830.298888,40.2113809,-89.50344645,-145.3556005,82.41480713,98.14099688,4.99E-08,70.01776334,60.77077039,61.26991197,2.18E-08,-336.1280107,,,,
211.4159999,825,-173.8888857,44.25816771,-161.5922091,-152.7123957,-6975.973016,-138.9321762,-10.80439966,-6.058285576,-116.1823122,-99.89284503,4.98E-08,-116.7120475,-138.2062844,-127.8935896,2.17E-08,178.3021562,,,,
211.4239999,825,13.649067,-164.6567746,33.21521764,48.5520009,-6748.979293,64.20134118,-209.5095125,-235.9556614,-19.8223377,6.357844365,4.97E-08,-35.85995612,-41.32152605,-48.42683507,2.17E-08,-110.4336988,,,,
211.4319999,825,-131.0925933,-86.57550534,-100.4774971,-104.8332861,-6828.174419,-74.51984657,30.86521359,-20.92924339,2.785907914,44.45659919,4.96E-08,12.40369158,-12.33218665,-8.483489354,2.16E-08,-172.7052035,,,,
211.4399999,825,-41.08942056,8.862038756,-13.69354586,-12.40688595,-6755.393175,-5.658567075,-157.8251828,-172.6003209,-112.0426406,-79.7388511,4.95E-08,-112.7051998,-130.4344513,-142.3668096,2.16E-08,204.4126885,,,,
211.4479999,825,-21.1080263,-218.3680924,4.00650712,-12.37218358,-6665.027948,18.58852716,-124.7886716,-179.4696135,80.11468744,108.1351794,4.94E-08,64.3588057,60.02996746,39.25973357,2.15E-08,-363.9459122,,,,
211.4559999,826,-149.7102112,63.15789357,-127.2455097,-147.9509311,-6777.784511,-130.3641289,-44.65022023,-54.10265484,-109.5830496,-82.71458715,4.93E-08,-115.6355321,-129.4703254,-151.6982906,2.14E-08,149.9820366,,,,
211.4639999,826,5.757711439,-143.1925197,45.004223,30.02805104,-6560.443526,53.2643077,-165.4295177,-261.1873063,-12.2903751,10.09521686,4.92E-08,-38.2549464,-31.50177261,-65.99701099,2.14E-08,-140.4107206,,,,
211.4719999,826,-158.0045293,-62.58935697,-117.8926129,-140.2731288,-6672.942725,-101.7985361,87.07028664,-16.38006486,-22.20441396,11.10399644,4.91E-08,-23.95261742,-34.93829412,-39.25292925,2.13E-08,-179.982436,,,,
211.4799999,826,-26.82371198,17.76316824,3.962008384,0.136651483,-6570.833262,16.08891869,-130.971036,-163.9957015,-125.0277835,-89.8013439,4.90E-08,-131.9802598,-143.3964761,-155.4093271,2.12E-08,212.0072173,,,,
211.4879999,826,-29.70004872,-204.5139558,12.75934221,-7.382235983,-6471.319122,34.43250969,-54.18380738,-153.3743135,79.81831159,114.4726613,4.89E-08,61.65848485,61.96740957,42.67396391,2.12E-08,-358.2579784,,,,
211.4959999,826,-167.4039975,82.95471341,-132.2598218,-151.6431149,-6611.177371,-128.5226288,2.372472105,-10.95061132,-145.1817725,-107.1496125,4.88E-08,-149.5802802,-159.4946023,-171.3095794,2.11E-08,170.6022251,,,,
211.5039999,826,49.76260992,-147.2264556,86.77060624,74.20856762,-6365.787208,97.27368391,-204.3787701,-242.3814802,-10.25856188,27.36832336,4.87E-08,-32.23719735,-26.21275866,-48.51331725,2.10E-08,-128.252526,,,,
211.5119999,826,-141.038268,-72.81258005,-104.4016985,-131.7333853,-6482.500918,-90.10545687,42.99466828,-16.75473491,12.59059903,50.99137942,4.86E-08,10.11324046,2.940171656,0.291381908,2.10E-08,-196.9134805,,,,
211.5199999,826,-55.97431249,17.2075499,-31.64637587,-38.78333108,-6420.948428,-21.91860173,-162.2456966,-160.3108707,-151.6858878,-120.9707773,4.85E-08,-161.4079726,-167.1731851,-185.7930788,2.09E-08,197.110268,,,,
211.5279999,826,-10.83566488,-217.8110899,19.53519801,2.194062591,-6291.970697,38.76948872,-90.90265873,-163.8082072,66.10832796,98.00153077,4.84E-08,50.01453556,47.66269561,26.78553864,2.08E-08,-368.7869539,,,,
211.5359999,826,-137.5958752,61.3675969,-109.5057118,-128.3659876,-6408.526438,-106.8361432,-7.83069039,-37.29936784,-113.145985,-77.48003892,4.83E-08,-113.9779347,-126.7527706,-136.7472578,2.08E-08,151.1132251,,,,
211.5439999,826,37.43626043,-158.2441808,70.08083659,58.69927722,-6198.812152,81.61497889,-204.9957803,-263.9865589,-7.688000039,19.97111591,4.82E-08,-28.2154303,-22.60309991,-52.44489456,2.07E-08,-146.9168732,,,,
211.5519999,826,-138.5427915,-82.68861125,-103.1548945,-125.9882236,-6307.558566,-91.83050405,37.65223896,-37.11240291,3.993705522,34.9950641,4.81E-08,1.800212035,-7.8026843,-20.01815245,2.07E-08,-206.6652742,,,,
211.5599999,826,-5.55568865,-9.789503872,25.61098078,18.59374832,-6184.145361,28.5474126,-149.0139205,-191.8850465,-122.5417875,-82.83269893,4.80E-08,-131.1612787,-134.9987415,-155.3336372,2.06E-08,188.7242807,,,,
211.5679999,826,8.543965845,-246.9395618,43.91526344,24.23302807,-6077.825249,63.8550119,-72.57041913,-188.7729895,100.9089419,144.4085065,4.79E-08,87.46280161,89.35024192,65.38799003,2.05E-08,-387.9938709,,,,
211.5759999,826,-159.0616479,40.6867504,-130.1282599,-150.5055754,-6245.917312,-127.1236807,-4.302865897,-45.9359456,-113.8337749,-71.39201358,4.78E-08,-115.0758707,-127.1526658,-142.7669972,2.04E-08,128.2200755,,,,
211.5839999,826,31.70799604,-184.3122597,66.34160703,50.26312694,-6021.12772,69.69288378,-213.5419774,-269.1683724,-21.82008905,16.82019852,4.77E-08,-46.28908855,-41.46342907,-68.61003797,2.04E-08,-167.421821,,,,
211.5919999,826,-162.9528347,-105.1163869,-126.0583909,-156.5435123,-6138.355672,-122.2421577,41.60669765,-29.87927032,-4.867237835,27.57661708,4.76E-08,-13.47047069,-23.01709431,-31.47301683,2.03E-08,-231.2072107,,,,
211.5999999,826,-41.06607723,-23.05372582,-13.73499143,-24.66783963,-6033.052457,-13.35143374,-133.2963072,-171.8109352,-141.860969,-118.6117414,4.75E-08,-160.3216468,-165.3521194,-174.5852931,2.02E-08,164.7332166,,,,
211.6079999,826,-11.51380945,-253.8454092,17.08504213,0.71918881,-5925.526398,38.86544431,-71.733583,-165.6645698,64.62628126,94.30457424,4.73E-08,46.85209218,38.10298078,41.46815064,2.02E-08,-402.7912867,,,,
211.6159999,826,-188.009209,46.64689993,-164.6308836,-177.0789128,-6096.130364,-155.754873,2.48478095,-14.09797064,-145.6219004,-106.6572272,4.72E-08,-142.4927536,-170.1460922,-168.9984075,2.01E-08,126.6194542,,,,
211.6239999,826,23.71466384,-174.6318999,50.23220052,44.49970368,-5839.613674,62.96777382,-176.5949863,-237.7128007,-37.26459526,1.50375509,4.71E-08,-55.58049027,-61.31779683,-82.62733006,2.00E-08,-157.6378259,,,,
211.6319999,826,-151.0560259,-94.79151644,-123.0496514,-141.1973241,-5946.883191,-105.3775324,70.92663573,-11.11827882,-13.40857895,28.24632505,4.70E-08,-10.84284645,-32.59114737,-28.98363977,2.00E-08,-215.7688499,,,,
211.6399999,826,-53.16744778,-11.15445937,-29.06549309,-29.13148965,-5876.153057,-15.93702912,-134.0920008,-159.6646523,-158.1865669,-119.4327986,4.69E-08,-162.1734075,-180.4203113,-185.6435226,1.99E-08,190.1342747,,,,
211.6479999,826,1.088824389,-260.4085178,29.17233383,17.40075814,-5734.921235,56.44069647,-67.21334406,-166.9415019,65.11544756,97.37199654,4.68E-08,52.63783287,41.64107463,42.15372607,1.98E-08,-377.1263407,,,,
211.6559999,826,-141.9427348,22.85085023,-121.8681091,-130.7762334,-5865.922735,-103.3113476,18.60955157,-28.56588014,-101.4245427,-72.04963352,4.67E-08,-98.54233703,-125.8957798,-115.687167,1.98E-08,136.0492782,,,,
211.6639999,826,46.77695636,-200.8811368,65.00619649,67.66448866,-5645.448584,93.79135389,-184.3385516,-248.867865,-6.599713055,29.77818351,4.65E-08,-22.2500756,-36.8280554,-46.69246982,1.97E-08,-149.8080623,,,,
211.6719999,826,-126.6750176,-127.4498563,-112.7055467,-121.8415881,-5753.726269,-82.34990707,37.79943434,-25.51146196,-4.332718442,35.2117125,4.64E-08,-0.420536639,-30.38807966,-26.15862857,1.96E-08,-214.6258279,,,,
211.6799999,826,-30.85887942,-36.74824209,-20.45481103,-12.05596156,-5672.533216,6.149871489,-160.1520577,-170.8236719,-127.2818278,-97.22001763,4.63E-08,-129.6161147,-154.4936752,-159.6254064,1.96E-08,168.3881158,,,,
211.6879999,826,5.096365579,-261.8256823,25.57239769,21.21228445,-5556.605352,61.29656732,-89.64554795,-163.2726225,76.18353721,109.2523854,4.62E-08,69.75739767,47.9476008,52.76599998,1.95E-08,-394.3032808,,,,
211.6959999,826,-144.7353649,41.47297247,-124.0379774,-130.3612319,-5693.63459,-104.8687291,-15.50391413,-25.4493047,-119.8838431,-90.60796516,4.61E-08,-112.5148412,-144.5109985,-132.5637605,1.94E-08,129.2621612,,,,
211.7039999,826,15.03783056,-166.6593756,44.4596593,46.80848204,-5475.255707,77.50117816,-200.566925,-248.9060828,-19.57509822,1.176416971,4.59E-08,-33.91257818,-42.64374271,-48.18381347,1.93E-08,-160.8260337,,,,
211.7119999,827,-156.6415764,-81.71726289,-129.6866473,-139.8193446,-5589.866364,-99.67716458,47.75483047,-28.78737278,-29.87175418,-11.48103426,4.58E-08,-27.14689037,-46.88100977,-35.21030749,1.93E-08,-212.7211732,,,,
211.7199999,827,-35.82085211,9.444180146,-15.79380603,-11.92844395,-5486.99205,0.490622562,-151.9263927,-187.5286255,-147.156252,-131.1142064,4.57E-08,-153.2488803,-165.927616,-170.2378833,1.92E-08,179.5856147,,,,
211.7279999,827,-21.35691475,-217.2510216,12.87734405,3.25800474,-5340.800531,43.00385454,-72.95295406,-183.1285269,72.11642822,100.9221901,4.56E-08,66.30455932,58.55989871,58.15319553,1.91E-08,-385.312931,,,,
211.7359999,827,-178.0825941,84.76546106,-145.9377226,-149.3926612,-5492.841085,-125.976199,17.43819768,-39.30654875,-158.6390452,-132.7383417,4.54E-08,-144.8513743,-161.2731547,-160.1605344,1.91E-08,160.8532581,,,,
211.7439999,827,13.60457714,-136.1695623,47.80947947,57.88875222,-5279.729223,81.61065036,-186.9043815,-266.2000188,-47.40086768,-25.32468664,4.53E-08,-56.57220834,-49.98025171,-65.44344138,1.90E-08,-114.6522414,,,,
211.7519999,827,-150.898097,-55.83835678,-115.1852474,-120.7966247,-5370.996801,-83.00026666,41.37120689,-43.62401345,-14.30402908,11.96597778,4.52E-08,-8.761732163,-15.20160186,-5.771886838,1.89E-08,-183.3387119,,,,
211.7599999,827,-23.51624326,35.68704507,2.727804374,12.36155998,-5277.003242,19.7525433,-149.9736302,-194.3225689,-152.5320255,-136.273422,4.51E-08,-153.4034221,-153.8782744,-163.4672637,1.88E-08,202.6732736,,,,
211.7679999,827,7.737032091,-200.5353912,34.33571674,35.40766324,-5152.804941,62.88508072,-72.66673904,-191.7441795,80.26322229,101.8461213,4.49E-08,77.88838384,79.00834285,73.56944301,1.88E-08,-376.5819186,,,,
211.7759999,827,-138.7911085,104.2740479,-121.5494518,-115.7208047,-5305.240818,-101.4581501,6.171670039,-47.01255686,-113.9797782,-91.54792169,4.48E-08,-99.95611778,-117.8596933,-110.287528,1.87E-08,140.556686,,,,
211.7839999,827,66.54407257,-110.2788942,84.77231708,100.2327084,-5077.196821,121.0683691,-193.1356585,-269.9473871,-14.81252405,9.263009476,4.47E-08,-20.41982921,-20.85984324,-37.47360982,1.86E-08,-142.7203056,,,,
211.7919999,827,-127.3072621,-25.07358028,-107.3462628,-107.0049089,-5192.444289,-70.81323911,43.85981147,-39.33210514,16.86369248,45.78419141,4.46E-08,28.21905133,15.53551853,16.37952227,1.85E-08,-213.312579,,,,
211.7999999,827,-40.79612789,85.18214851,-26.54224911,-11.6363816,-5135.184321,-6.009684344,-153.4206955,-173.6355634,-149.2338927,-138.4632182,4.44E-08,-147.86977,-154.9460236,-157.3380826,1.85E-08,186.1918103,,,,
211.8079999,827,5.547740221,-143.422198,26.85864266,29.15665611,-4992.5431,59.03948306,-81.14946584,-170.7355907,56.34189789,67.34903666,4.43E-08,50.42856384,50.83989226,49.08504034,1.84E-08,-372.2323593,,,,
211.8159999,827,-129.2367735,152.0328067,-115.0699504,-108.5480161,-5122.27843,-89.81374336,5.625608352,-36.96526363,-105.9764298,-83.86717723,4.42E-08,-94.62658704,-109.6384832,-105.9250399,1.83E-08,138.9532577,,,,
211.8239999,827,73.11556448,-69.08056145,85.85625171,102.8649598,-4891.032942,122.2438531,-188.0073046,-263.4002084,-5.334049976,10.19049178,4.40E-08,-14.34790374,-12.15568663,-20.73305861,1.82E-08,-144.9794267,,,,
211.8319999,827,-113.6775714,10.5218262,-95.80031603,-94.73573152,-4997.395637,-60.32923631,50.81895731,-39.89793615,18.48346506,31.2337813,4.39E-08,24.28200118,18.20893975,28.14115029,1.82E-08,-207.7298275,,,,
211.8399999,827,-39.94326631,115.8492163,-25.93942984,-6.653215128,-4948.678225,1.221085388,-148.3811984,-182.2755562,-131.6643514,-117.0130012,4.38E-08,-129.1926025,-133.3267046,-135.7089883,1.81E-08,194.1651585,,,,
211.8479999,827,-9.78373312,-116.1953853,9.550202974,19.11330905,-4820.946121,45.76236836,-77.03324077,-176.7661237,53.48217688,65.33565874,4.36E-08,51.1956587,50.68094037,48.23509498,1.80E-08,-355.0216087,,,,
211.8559999,827,-160.3444665,178.001118,-142.2842776,-134.2855022,-4956.665452,-124.3356089,23.32806163,-33.42771256,-122.8554562,-113.1165731,4.35E-08,-112.0961104,-121.7472412,-109.9093514,1.79E-08,158.8196815,,,,
211.8639999,827,30.20628636,-45.37637696,51.15126616,67.57138536,-4731.413839,78.61050523,-154.4943701,-252.7239492,-22.09192634,-14.47338988,4.34E-08,-31.81838713,-22.28751991,-30.55131486,1.79E-08,-122.5878452,,,,
211.8719999,827,-123.5627171,21.26960203,-102.8559247,-95.73299949,-4808.193536,-68.87526605,82.58657893,-31.93312662,-9.053377375,0.931749209,4.32E-08,-0.310213803,-3.368197845,-9.874354611,1.78E-08,-183.1544919,,,,
211.8799999,827,-22.82495911,113.6343304,-9.618942524,16.32470219,-4727.372488,18.99674851,-119.954249,-178.348895,-126.2219134,-110.0158964,4.31E-08,-121.1391595,-123.7052531,-129.5657982,1.77E-08,200.446669,,,,
211.8879999,827,-7.601303481,-119.5623292,10.26767641,24.00047472,-4613.972626,49.13805226,-41.87429448,-171.5993446,72.52648401,84.3471181,4.30E-08,71.09417468,71.97403427,80.55385995,1.76E-08,-355.7456888,,,,
211.8959999,827,-159.0392138,180.5182196,-149.7496278,-130.813719,-4764.98885,-119.5630627,40.39627092,-34.06555318,-135.6652303,-128.8196213,4.28E-08,-122.9141117,-131.0301541,-123.6193367,1.76E-08,168.7298779,,,,
211.9039999,827,14.19306527,-29.41736207,25.05057398,55.67243704,-4570.6333,70.94393671,-168.6768379,-253.7154519,-38.29821598,-26.25092445,4.27E-08,-43.32985433,-33.91187176,-44.10376567,1.75E-08,-109.5287505,,,,
211.9119999,827,-164.9608034,47.13823715,-149.670513,-134.1725347,-4669.720328,-104.5328339,67.04028217,-28.74677187,-31.48705976,-19.39800616,4.26E-08,-20.7858,-23.56712184,-15.19826108,1.74E-08,-161.3623286,,,,
211.9199999,827,-45.93216917,138.3308634,-41.5436267,-6.461889336,-4572.747578,-3.30319325,-135.7824322,-186.3842858,-152.2032341,-144.062982,4.24E-08,-150.6065263,-146.7327127,-158.5371961,1.73E-08,223.7530438,,,,
211.9279999,827,-31.0155252,-90.09489546,-19.5641975,6.276828847,-4473.811842,36.13217612,-76.19331475,-180.7924797,49.44446805,64.75874886,4.23E-08,51.77444197,55.59704623,52.75383079,1.73E-08,-343.0346673,,,,
211.9359999,827,-165.2305406,206.9110031,-155.216309,-129.4415302,-4600.807196,-114.9485047,11.53295143,-38.57671602,-151.3519878,-136.3364742,4.22E-08,-130.9646064,-142.1318008,-122.6783603,1.72E-08,175.7197642,,,,
211.9439999,827,72.80668599,-24.2091326,82.08124148,116.6558652,-4339.373009,129.7725186,-170.2577169,-270.9774278,2.935157529,10.05985092,4.20E-08,-1.277973622,7.076318228,-0.684870486,1.71E-08,-122.8071684,,,,
211.9519999,827,-105.0577798,48.1102411,-94.34448589,-73.20707907,-4451.284466,-44.21899469,79.87143304,-44.26906217,28.27760663,39.91829084,4.19E-08,42.95283243,36.05910979,40.88012303,1.70E-08,-192.1947756,,,,
211.9599999,827,-11.01337035,147.3077934,-9.455570293,29.95871587,-4378.154013,31.37841921,-116.737964,-188.0972497,-121.0141871,-110.5635872,4.17E-08,-113.7275976,-114.8771699,-115.9229938,1.70E-08,199.7179061,,,,
211.9679999,828,16.45998864,-88.5776977,29.45495474,55.69671458,-4257.996356,77.88650981,-43.64532885,-186.2218937,96.77715367,102.2197788,4.16E-08,93.80210865,99.89648094,95.12334291,1.69E-08,-366.4436588,,,,
211.9759999,828,-143.4263458,208.0116375,-125.8534381,-102.0419119,-4398.164803,-96.86228894,53.62547753,-42.49778167,-107.2198959,-97.27114887,4.15E-08,-92.77989424,-99.9848858,-92.37342371,1.68E-08,149.8170561,,,,
211.9839999,828,44.69876218,-8.17331035,63.43783735,98.33466157,-4179.617804,103.02616,-151.264573,-263.15513,-2.239554314,11.35637181,4.13E-08,-2.846868765,5.558182663,-2.997382433,1.67E-08,-136.6142868,,,,
211.9919999,828,-160.6068321,69.06099491,-135.2492585,-112.7485801,-4315.239726,-92.15615125,78.76274597,-31.17999917,-9.729911923,-0.105650606,4.12E-08,6.799514711,0.363760497,3.111480337,1.67E-08,-196.0837858,,,,
211.9999999,828,-75.46557913,163.5368529,-50.70487684,-12.46524599,-4239.081719,-15.35514396,-106.2649382,-167.8126083,-172.9279974,-166.0351328,4.10E-08,-163.1019634,-164.9219671,-160.8884568,1.66E-08,202.8445287,,,,
212.0079999,828,-21.76929978,-80.3660249,4.597759935,31.12718486,-4100.274504,52.65041226,-35.6489514,-160.7376125,52.85383947,62.22341693,4.09E-08,59.39071522,60.85997167,71.50280232,1.65E-08,-355.0176924,,,,
212.0159999,828,-165.8396649,207.407158,-149.7164369,-121.2292592,-4242.001599,-119.0926698,52.91534229,-18.72195132,-136.6352168,-131.687157,4.07E-08,-120.3426518,-128.6849666,-117.9881242,1.64E-08,163.4733926,,,,
212.0239999,828,19.25327365,-16.27047372,35.80520919,75.23905846,-4028.933113,75.94364937,-148.9999167,-243.4967332,-31.29839584,-25.23226634,4.06E-08,-36.7830991,-25.62821806,-21.22592893,1.63E-08,-122.0937143,,,,
212.0319999,828,-156.4725362,51.30042415,-137.5938781,-112.8389063,-4135.925034,-94.2081028,74.66852862,-19.81375122,-20.84493176,-10.43295236,4.04E-08,-5.066267788,-10.0402517,17.18474036,1.63E-08,-185.0139528,,,,
212.0399999,828,-68.44690947,148.8437885,-58.60550578,-17.56049837,-4063.583796,-21.66063139,-118.1843317,-160.1217135,-177.3063685,-169.7911141,4.03E-08,-170.7315599,-171.5718497,-165.5660945,1.62E-08,211.0563425,,,,
212.0479999,828,-41.38877896,-82.49003701,-27.54917157,3.740930331,-3953.65366,25.43589315,-55.91768692,-156.9462664,38.8953504,51.75955292,4.02E-08,40.61679111,40.61355412,48.1893779,1.61E-08,-343.5934693,,,,
212.0559999,828,-174.4426816,209.0705978,-162.9062705,-129.8598563,-4077.015614,-125.4771418,15.55974712,-24.76069963,-150.6650871,-138.6761186,4.00E-08,-132.1593347,-147.4142992,-125.7662478,1.60E-08,183.4227953,,,,
212.0639999,828,25.11689361,-12.27758496,38.06240796,80.09596738,-3848.079525,84.83037379,-181.4771473,-252.3039927,-43.80271321,-31.00611389,3.99E-08,-46.71894355,-44.6572792,-34.15109993,1.60E-08,-89.09304686,,,,
212.0719999,828,-140.4240151,53.16027231,-126.7378577,-98.80632645,-3945.580281,-72.5427188,67.09390814,-33.20207149,-3.820295639,20.03676793,3.97E-08,12.23296703,-3.180435039,21.55033066,1.59E-08,-158.0583301,,,,
212.0799999,828,-38.51312783,143.3060056,-30.05402254,15.12326399,-3856.195994,19.85889332,-116.0920218,-179.7888705,-144.7867943,-125.6786205,3.96E-08,-134.2790954,-145.6482478,-130.259018,1.58E-08,227.897453,,,,
212.0879999,828,-26.35962838,-92.73663471,-12.02472529,19.3185031,-3768.024661,49.66898437,-46.12044758,-173.6370073,51.7540735,67.57817779,3.94E-08,54.18221762,50.71010819,76.19987998,1.57E-08,-322.6788266,,,,
212.0959999,828,-168.3148933,191.2416251,-158.5724083,-132.7929388,-3901.043688,-118.5978882,37.21733246,-41.76624482,-136.6393823,-123.9443784,3.93E-08,-125.2325127,-138.0609087,-111.9550011,1.56E-08,193.7671881,,,,
212.1039999,828,50.84993555,-37.47448797,63.1224793,96.59816215,-3644.415834,105.9475631,-160.7148645,-270.0094234,-21.47310106,-12.87267451,3.91E-08,-30.47575127,-26.34438928,-24.71972876,1.56E-08,-91.47659703,,,,
212.1119999,828,-123.7835108,25.12673295,-109.8959635,-87.33731129,-3755.385349,-60.51625807,67.22126437,-43.89545559,16.28622084,33.20856584,3.90E-08,30.39109495,15.13084662,37.62157081,1.55E-08,-159.979489,,,,
212.1199999,828,-41.39368032,112.5914261,-35.41177736,2.951865962,-3688.696904,9.903637166,-132.7959968,-184.4006805,-127.1681263,-109.7692834,3.88E-08,-121.7282236,-133.910012,-116.9166531,1.54E-08,221.2852601,,,,
212.1279999,828,-31.04123555,-119.0245291,-17.34244386,8.646196828,-3590.001119,40.86481392,-44.44261324,-161.46149,53.23625831,71.43773413,3.87E-08,50.04666954,45.63186857,68.26940684,1.53E-08,-326.071053,,,,
212.1359999,828,-191.6216248,175.0247077,-178.8952867,-151.2814942,-3731.957399,-136.1251074,64.71563718,-8.576924084,-155.6922578,-141.5308024,3.85E-08,-142.810122,-158.3298946,-123.7185672,1.52E-08,210.2209302,,,,
212.1439999,828,11.80211549,-55.04382101,26.55743773,65.72333106,-3491.955803,73.92669908,-127.9831119,-234.4352875,-50.44802786,-41.50020203,3.84E-08,-56.66143338,-56.56778055,-40.57476095,1.52E-08,-62.83753523,,,,
212.1519999,828,-144.8926186,-5.578191352,-130.4342624,-98.82639692,-3591.474099,-75.29696914,99.15024428,-13.48097938,-16.05167184,-0.037400349,3.82E-08,-0.292687845,-17.85109309,17.5856777,1.51E-08,-134.5638602,,,,
212.1599999,828,-47.31990402,75.50143109,-38.07055368,10.689598,-3517.541799,9.564446623,-99.94574333,-159.8318539,-147.3467288,-128.6623754,3.81E-08,-133.1628933,-148.818608,-115.5920231,1.50E-08,241.3555259,,,,
212.1679999,828,-24.78976347,-161.1122704,-2.130257912,30.81296043,-3406.322019,46.14769795,-30.07164064,-153.9734519,51.19448713,72.35240159,3.79E-08,61.34663351,52.67671334,81.82608158,1.49E-08,-309.582892,,,,
212.1759999,828,-139.8808796,111.7792273,-122.2360426,-86.30831692,-3503.757532,-85.12221434,53.71112342,-27.03134495,-124.4473743,-107.4538288,3.78E-08,-100.4740669,-114.6409251,-88.7666284,1.48E-08,202.5384432,,,,
212.1839999,828,60.64751936,-122.9318703,73.25317799,120.504393,-3272.777985,123.6088028,-136.5228154,-260.7734133,7.709327072,23.80771601,3.76E-08,11.70337236,16.1353275,25.11488609,1.48E-08,-97.52111768,,,,
212.1919999,828,-140.2204853,-58.40851942,-127.5129597,-94.69287255,-3405.885978,-77.14202842,93.07253899,-33.65175817,9.991713389,26.87767343,3.75E-08,30.16436868,20.96503124,53.42134,1.47E-08,-156.6520983,,,,
212.1999999,828,-32.5774561,22.53143092,-29.98455207,18.17962002,-3316.626689,14.47291146,-114.6471152,-187.3752896,-140.0923754,-132.3843136,3.73E-08,-129.6312172,-129.3497181,-109.8026125,1.46E-08,231.0211117,,,,
212.2079999,828,-6.264461026,-215.4313561,-1.334650133,32.19225848,-3222.868321,50.2351453,-40.26405459,-188.1298277,72.40392701,84.92120194,3.72E-08,74.63888565,80.6579928,94.85050862,1.45E-08,-326.3703672,,,,
212.2159999,828,-181.8977867,73.7334796,-182.8846371,-146.2530559,-3388.67503,-143.9704746,30.56366177,-44.91215846,-135.8723773,-123.6719951,3.70E-08,-122.3971067,-131.0421159,-104.9342451,1.44E-08,194.9856481,,,,
212.2239999,829,3.645197203,-144.4079176,6.684503382,55.54171535,-3165.543754,62.04537996,-178.0709704,-260.9969209,-51.28743454,-47.34617116,3.68E-08,-58.65941278,-50.37905142,-32.51423215,1.44E-08,-86.83765515,,,,
212.2319999,829,-136.315607,-75.76935627,-126.108446,-92.59755063,-3237.255595,-71.46897839,87.3350894,-31.50544545,-23.65690787,-13.1002632,3.67E-08,-13.03109398,-14.55246829,20.20499205,1.43E-08,-138.2307454,,,,
212.2399999,829,-23.3479688,13.45430237,-19.66768704,31.02823989,-3133.516795,26.44481354,-95.07618813,-179.1336675,-124.8134101,-110.2172253,3.65E-08,-118.8281144,-115.0851927,-99.05032205,1.42E-08,244.5297744,,,,
212.2479999,829,-20.04636658,-213.421924,-5.944635778,33.45491081,-3040.357751,52.81059589,-26.44354748,-171.1640745,71.21646279,80.84502767,3.64E-08,72.02399428,78.8151129,95.86987154,1.41E-08,-315.8403484,,,,
212.2559999,829,-172.6965033,73.79535365,-158.9971031,-116.3245884,-3176.221264,-108.7551237,69.50429826,-25.59737705,-144.2169175,-133.4842528,3.62E-08,-126.4727723,-132.4322145,-98.65520513,1.40E-08,205.1588164,,,,
212.2639999,829,19.24589997,-147.6241049,31.16013079,85.95759214,-2959.277963,92.63934645,-142.4883722,-246.9938421,-31.56061186,-11.77288985,3.61E-08,-29.00475938,-19.60349128,1.506134264,1.40E-08,-78.67271551,,,,
212.2719999,829,-150.7811983,-75.86231263,-132.8639526,-98.59017871,-3063.782619,-84.29365189,85.05439855,-28.51262215,-21.71969235,-7.538666544,3.59E-08,-7.514805406,-7.652547398,27.50525605,1.39E-08,-131.4611258,,,,
212.2799999,829,-31.52585872,6.567370596,-17.76832511,30.03314667,-2954.536978,21.44661003,-99.30791765,-189.9846131,-141.5465905,-135.3869103,3.58E-08,-137.6757654,-128.4766677,-114.2022495,1.38E-08,243.6554235,,,,
212.2879999,829,-12.39777544,-229.6150971,4.521082063,46.08860989,-2857.87876,64.78031631,-31.29756221,-197.805854,82.33406582,99.30987248,3.56E-08,85.30240057,97.45283709,107.9699273,1.37E-08,-329.3882519,,,,
212.2959999,829,-168.864877,58.28425259,-151.0631815,-108.4458375,-3001.128066,-106.3198255,48.5665128,-66.52065103,-128.6825541,-110.0472595,3.54E-08,-110.9197838,-113.4612615,-83.11514804,1.36E-08,185.254371,,,,
212.3039999,829,47.53804093,-169.7968153,72.61200961,120.0682475,-2753.958522,124.3645169,-146.5613273,-299.753181,-8.638590427,7.065421404,3.53E-08,-12.46219618,1.82431481,23.0578709,1.36E-08,-109.8910344,,,,
212.3119999,829,-143.7464587,-98.34703496,-116.7226182,-88.22791739,-2888.160724,-67.05579769,93.95450853,-72.28161966,19.99118084,36.26289729,3.51E-08,30.98386921,31.5105598,68.18126755,1.35E-08,-179.2902005,,,,
212.3199999,829,-80.89032511,7.037255058,-60.14436213,-17.69655016,-2842.655842,-22.11963865,-113.4777117,-199.055989,-155.6924097,-139.8915396,3.50E-08,-152.3630182,-152.2018901,-123.0205034,1.34E-08,210.3328744,,,,
212.3279999,829,-31.89480971,-218.5803644,-1.193291947,28.59335847,-2711.470424,46.07010696,-52.25067275,-182.3627679,37.65786874,59.11552833,3.48E-08,37.1359644,39.69268989,67.93678307,1.33E-08,-334.3732217,,,,
212.3359999,829,-155.0276465,67.28842923,-120.8104142,-95.99832042,-2819.747477,-93.04008092,53.54618979,-42.03862938,-122.9377919,-102.4172636,3.46E-08,-110.5465445,-114.6862179,-79.87440853,1.32E-08,182.0203976,,,,
212.3439999,829,24.37803169,-143.4284425,62.50079525,89.87644414,-2610.04421,93.29236786,-140.2269726,-259.1508567,-10.50814715,15.10558172,3.45E-08,-15.80141256,-5.692818397,22.90484806,1.32E-08,-107.3580453,,,,
212.3519999,829,-131.5388129,-67.810884,-95.08893238,-89.02783852,-2713.697079,-74.69738048,72.71265257,-37.29399156,-6.697403182,19.80355776,3.43E-08,6.056737835,-0.50261796,38.97517099,1.31E-08,-165.1888613,,,,
212.3599999,829,19.68594805,18.15994733,54.11999241,65.89758886,-2580.900176,57.68046189,-106.1628823,-199.9380814,-105.2614057,-89.10340956,3.42E-08,-105.3915037,-100.2466085,-91.77390136,1.30E-08,202.2282511,,,,
212.3679999,829,37.18955607,-206.1672148,84.0278592,78.22773474,-2479.181455,98.14352242,-7.162642329,-199.4277158,131.7261728,157.3503727,3.40E-08,128.3942758,137.5177786,141.561355,1.29E-08,-367.9625449,,,,
212.3759999,829,-166.8834143,95.5104832,-122.8638918,-127.9277836,-2674.539986,-123.3485108,67.00359443,-50.4984302,-112.2943889,-81.92586555,3.39E-08,-97.67434774,-103.0816462,-85.22654171,1.28E-08,153.1950614,,,,
212.3839999,829,19.27063699,-114.4562425,66.3991732,70.32812703,-2459.971126,76.18113319,-138.5564049,-266.8819724,-43.58314353,-17.65695693,3.37E-08,-54.89136447,-39.03670689,-27.86037363,1.28E-08,-123.8113073,,,,
212.3919999,829,-129.1167857,-47.48742578,-78.85010059,-93.00199927,-2547.891902,-72.42591912,103.9886313,-48.08790812,-3.660130189,24.14968127,3.35E-08,-2.125735942,4.547817594,33.16417158,1.27E-08,-178.8986082,,,,
212.3999999,829,-34.64704727,39.19523723,10.98484167,7.544434455,-2462.256922,3.91424661,-92.21760534,-200.4460237,-123.7883534,-102.2800193,3.34E-08,-132.8989274,-114.666,-102.4054041,1.26E-08,195.0963374,,,,
212.4079999,829,-28.49137914,-180.5518404,23.46006254,11.0071345,-2370.33985,31.88261978,-43.5951992,-191.673132,62.5815513,84.20061404,3.32E-08,43.41418123,70.08667178,80.15233288,1.25E-08,-359.1367533,,,,
212.4159999,829,-166.3905357,112.0689414,-121.2390135,-127.0776307,-2503.105327,-122.9560099,24.73057589,-54.76718294,-144.6648415,-119.3961425,3.30E-08,-146.7072078,-133.4970297,-124.6841281,1.24E-08,159.4309974,,,,
212.4239999,829,43.03248434,-104.7522237,86.60390741,88.68046568,-2258.741915,95.42525929,-149.2210067,-280.0943877,-14.58776899,11.84134317,3.29E-08,-34.43210833,-2.537372091,-14.76225951,1.24E-08,-137.9640084,,,,
212.4319999,829,-122.7170628,-32.08047074,-76.76188279,-90.67546957,-2355.114576,-69.44333563,98.83427184,-55.38460723,15.02391622,43.08434679,3.27E-08,7.136126589,30.50618332,27.63675341,1.23E-08,-188.8624396,,,,
212.4399999,829,-0.284281228,49.84952347,42.73338505,46.15201044,-2240.609798,37.42860869,-97.09122044,-211.4962389,-109.0299227,-90.58586902,3.26E-08,-127.2657798,-95.52657254,-115.3523377,1.22E-08,198.1094411,,,,
212.4479999,829,10.41662222,-181.300829,57.60869839,53.12193978,-2142.938579,67.72908567,-16.90213062,-209.6992289,102.1769925,122.1324742,3.24E-08,82.84696858,119.1007691,108.5148661,1.21E-08,-363.3633526,,,,
212.4559999,829,-164.4550302,106.5229605,-122.0212407,-123.5779263,-2311.224989,-121.9234218,56.83794039,-69.17986407,-120.4982036,-93.3953476,3.22E-08,-120.1333293,-98.26236545,-95.25326629,1.20E-08,158.5781196,,,,
212.4639999,829,25.94191287,-116.8047464,74.40706331,80.21706948,-2093.70105,83.78742649,-147.793282,-291.6016656,-22.76161633,-0.369976641,3.21E-08,-41.25169871,-2.075349979,-11.2180284,1.20E-08,-119.5768171,,,,
212.4719999,829,-145.705633,-55.01063419,-92.95576844,-99.95996468,-2210.466626,-84.8743091,86.51592738,-71.07940537,-18.2138485,6.863216484,3.19E-08,-18.28208893,7.858952641,14.41247977,1.19E-08,-167.1958693,,,,
212.4799999,830,-35.4239668,25.94652499,9.960883329,18.80115324,-2121.345453,5.719637505,-105.9422448,-223.9362912,-145.6438789,-115.4511947,3.17E-08,-148.935286,-121.3544761,-126.2787908,1.18E-08,207.6612539,,,,
212.4879999,830,-18.48320343,-200.9346171,26.01776646,20.32676743,-2029.577219,32.98302331,-28.91534941,-214.4542408,76.39594289,104.5874534,3.16E-08,67.85308426,99.56640334,95.82875271,1.17E-08,-350.2687709,,,,
212.4959998,830,-163.8187587,85.82943364,-127.2758597,-133.8440215,-2177.58685,-139.351919,29.35330408,-78.62540883,-149.7771954,-130.3035593,3.14E-08,-147.5491635,-127.7676564,-130.9202918,1.16E-08,178.7855118,,,,
212.5039999,830,48.27658964,-138.1262592,86.77632826,86.84554792,-1943.082245,77.99222832,-179.5762634,-313.1148754,-26.07014769,-9.943719009,3.13E-08,-43.48448144,-11.26849296,-26.3769389,1.15E-08,-117.1622908,,,,
212.5119998,830,-129.3596722,-73.01350515,-89.38673322,-101.5459698,-2055.604456,-92.5090036,65.93710996,-91.77288965,15.46457794,38.99174516,3.11E-08,17.05183473,31.76442124,36.52973846,1.15E-08,-185.4647904,,,,
212.5199998,830,-47.05764264,17.63897783,-6.091626447,-0.310606314,-1985.305567,-11.41102864,-128.843182,-218.1343943,-149.5022962,-123.7398661,3.09E-08,-153.7783425,-133.6976841,-135.1522929,1.14E-08,195.4972658,,,,
212.5279999,830,-15.89015722,-211.2978381,30.69679397,19.93967244,-1887.735398,33.44778268,-42.71128189,-194.3229801,53.16443909,77.97300003,3.08E-08,44.87686148,72.52503989,81.89177579,1.13E-08,-353.5930846,,,,
212.5359998,830,-123.7122471,63.62032781,-91.54212436,-100.5487675,-1994.024031,-101.9364249,46.20343655,-63.50868099,-117.9368879,-97.79055822,3.06E-08,-114.6616748,-99.99366137,-91.0549781,1.12E-08,162.2726457,,,,
212.5439998,830,91.20783836,-157.0142515,127.3008836,130.1118411,-1743.711576,130.4208381,-136.8614856,-284.9332147,16.72341023,35.08895679,3.04E-08,-4.592268452,26.14454504,12.55914341,1.11E-08,-136.5740275,,,,
212.5519999,830,-97.68592074,-84.50039636,-57.14709798,-72.43746325,-1866.706666,-59.97228454,124.9772945,-55.6949684,50.69481316,68.10117886,3.03E-08,45.51450801,63.59184417,71.09601023,1.11E-08,-200.9489912,,,,
212.5599998,830,-7.53475577,6.300200116,22.94807064,25.63529279,-1787.949067,12.68781693,-78.46330022,-201.7882256,-102.1094019,-90.04419952,3.01E-08,-114.2880121,-93.56206125,-95.23177582,1.10E-08,175.8631958,,,,
212.5679999,830,10.16545382,-213.3710837,44.19126864,38.76582982,-1696.910891,50.31804255,-18.9452875,-190.1380288,77.89395626,96.74675214,2.99E-08,60.92326276,83.86532673,81.5636845,1.09E-08,-371.3881296,,,,
212.5759998,830,-139.2802254,71.98000385,-112.6882941,-113.0289873,-1845.605071,-116.0736602,49.80006568,-59.60732215,-114.7987816,-93.86729025,2.98E-08,-114.4747596,-107.648755,-98.85818636,1.08E-08,142.5002258,,,,
212.5839998,830,60.73059747,-145.0724312,91.07076672,106.2289166,-1623.366934,106.5528353,-159.3900417,-282.9351038,-0.959326553,21.13502189,2.96E-08,-16.13250342,0.676828459,2.003558898,1.07E-08,-151.8608011,,,,
212.5919999,830,-137.8585746,-62.43650734,-104.1357709,-102.9480562,-1756.430902,-86.1503776,75.57351296,-43.87025999,-5.904849942,17.27699343,2.95E-08,-1.210220381,-0.933119016,19.30775349,1.07E-08,-198.7943739,,,,
212.5999998,830,-29.52009371,25.40421825,-1.522691141,14.24767171,-1643.198637,7.829942355,-112.1086127,-192.2821388,-133.0438362,-112.0653945,2.93E-08,-136.3724928,-125.7080638,-118.8955567,1.06E-08,176.6891182,,,,
212.6079998,830,20.27684484,-205.7802334,55.83769095,59.71083816,-1518.482905,76.24551351,-29.52383961,-194.035394,91.79202003,126.8051669,2.91E-08,84.80742383,103.9435101,106.1756729,1.05E-08,-380.4454141,,,,
212.6159999,830,-131.3639789,84.56040391,-102.803206,-97.56362821,-1671.448487,-97.80751394,41.83539989,-61.67949006,-112.7264466,-82.23580672,2.90E-08,-102.8188194,-100.6325413,-85.66846082,1.04E-08,137.5705279,,,,
212.6239998,830,86.51137595,-133.0732907,119.6941708,133.7579862,-1421.506695,133.1784534,-148.0497547,-290.2993902,15.41918939,41.22081384,2.88E-08,6.700473978,24.10317069,34.76284286,1.03E-08,-160.8892107,,,,
212.6319998,830,-112.6557849,-54.12753736,-77.94186384,-77.43627823,-1576.880084,-64.30285887,86.12794949,-56.34112053,25.71354067,63.70543972,2.86E-08,38.49367571,42.30577526,64.66360833,1.03E-08,-213.7100428,,,,
212.6399999,830,-35.35955054,45.38069081,-11.58671742,4.604281073,-1522.445006,-7.330007186,-125.6454578,-195.0547705,-139.5224012,-110.0426673,2.85E-08,-133.6512677,-129.9335946,-116.036069,1.02E-08,176.932269,,,,
212.6479998,830,29.41483122,-179.5386536,63.3257133,63.76453761,-1368.385222,75.28406568,-19.57714919,-190.2262783,84.63621299,114.783932,2.83E-08,83.75334733,90.94219218,109.5044941,1.01E-08,-365.8735219,,,,
212.6559999,830,-112.8435209,105.7097172,-87.47613831,-85.50223187,-1514.178183,-87.21090314,78.40096509,-51.85591027,-94.8006604,-58.47373938,2.81E-08,-79.97390046,-83.0405443,-70.73071108,1.00E-08,155.9992704,,,,
212.6639998,830,102.5271733,-114.7484811,123.0459125,135.6793407,-1276.832566,129.1830792,-123.4872817,-275.6341703,19.75768893,49.41812542,2.80E-08,14.01621233,24.93372748,30.78916937,9.90E-09,-134.5783421,,,,
212.6719998,830,-54.88457661,-43.75821844,-31.66092258,-35.29268443,-1373.448871,-30.45449138,124.7042346,-54.68059036,53.90247672,85.44176201,2.78E-08,66.48750988,59.48782859,94.36422126,9.90E-09,-195.0119203,,,,
212.6799999,830,21.20649161,50.44608334,32.86305366,46.64329924,-1326.479528,38.29694653,-82.86673732,-202.3741114,-87.99616473,-56.86118952,2.76E-08,-83.43780844,-83.68577187,-73.39132776,9.80E-09,179.8157121,,,,
212.6879998,830,42.86810166,-171.5097922,59.63416105,64.27108946,-1222.015688,82.79121001,-16.73089945,-192.5384213,103.0181538,128.5791218,2.75E-08,97.35027459,107.3405452,114.9669292,9.70E-09,-364.8500792,,,,
212.6959998,830,-90.41751506,109.678104,-78.17048985,-70.00664206,-1343.605179,-67.81982393,73.84626019,-62.85292301,-74.32806582,-48.80684298,2.73E-08,-66.48723713,-67.63875117,-44.403112,9.60E-09,146.3017227,,,,
212.7039999,830,91.16311206,-101.4308613,102.6071823,122.0182197,-1142.432798,127.3084893,-115.2984212,-284.581103,24.34945182,56.02935802,2.71E-08,15.25892694,27.96553882,40.67314001,9.50E-09,-144.4835706,,,,
212.7119998,830,-114.7450137,-18.75336364,-99.89263782,-94.06708645,-1287.031485,-77.75863762,114.3905508,-50.67477353,12.07843251,43.20508336,2.70E-08,20.86340208,21.58689182,47.20211502,9.50E-09,-183.8379996,,,,
212.7199999,830,8.672094705,60.5477449,18.65651871,40.17910802,-1179.95408,30.05061401,-102.6053054,-211.8037679,-116.8530668,-91.39958658,2.68E-08,-117.7526524,-106.7824274,-90.98613049,9.40E-09,193.4249974,,,,
212.7279998,830,27.17990512,-164.5112353,48.27878739,51.60727432,-1079.54232,64.80075981,-24.16797186,-208.4510037,91.04920372,116.5999439,2.66E-08,82.4539513,102.1144986,125.2106763,9.30E-09,-355.5143681,,,,
212.7359998,831,-156.4242299,130.6197899,-140.310657,-138.267736,-1250.315214,-138.721176,58.94120501,-63.63948322,-121.2814446,-101.1348733,2.65E-08,-115.5819941,-106.6186828,-83.99377251,9.20E-09,177.550552,,,,
212.7439998,831,76.93803486,-91.25429766,96.1535941,110.3425941,-993.6712981,109.1806204,-139.976525,-288.9921204,-20.10493923,2.907499513,2.63E-08,-30.96446877,-10.14416488,-2.685292763,9.10E-09,-96.17726238,,,,
212.7519998,831,-107.0365089,-18.85307903,-81.65425565,-83.65562888,-1116.19493,-74.66778132,106.0430233,-55.39953674,18.4852755,43.55549389,2.61E-08,24.09627515,30.09456104,56.48095564,9.10E-09,-149.8545419,,,,
212.7599998,831,-33.66542044,74.00316616,-20.29544833,-5.19402559,-1056.396398,-19.57723192,-101.345793,-192.9545196,-131.573942,-115.1389785,2.60E-08,-137.5425875,-118.6631102,-113.6488924,9.00E-09,227.5153174,,,,
212.7679998,831,38.37710444,-162.359169,55.90423425,62.26016618,-912.3032326,70.31088543,-26.21003151,-194.4766385,73.57766049,93.06646124,2.58E-08,63.06361302,88.7519313,90.49142007,8.90E-09,-317.2341922,,,,
212.7759998,831,-110.0925483,114.2649043,-96.82756626,-89.50086297,-1051.224578,-97.22436463,65.11741238,-64.64478779,-78.58582532,-61.68052989,2.56E-08,-71.16985666,-61.41593205,-49.70295958,8.80E-09,183.7458657,,,,
212.7839998,831,52.9122813,-93.03998427,63.73678186,83.42476453,-860.8504623,75.27529439,-144.2826738,-281.2812374,-8.746452375,7.913882746,2.55E-08,-19.00681198,6.44956727,7.309111666,8.80E-09,-102.3147825,,,,
212.7919998,831,-103.7057229,-27.19046653,-94.81067949,-83.10703407,-969.8144918,-80.85646688,78.43440047,-64.85494612,-4.827005234,14.14620197,2.53E-08,0.574377989,10.52371486,32.59331087,8.70E-09,-143.3480633,,,,
212.7999998,831,0.705066784,51.00525111,5.744129691,33.32768972,-880.254517,13.9831213,-115.6946087,-223.7706906,-93.42112886,-81.97121162,2.51E-08,-96.13688522,-84.31266586,-71.46970841,8.60E-09,217.2541734,,,,
212.8079998,831,-11.63766661,-158.6765031,2.745633591,14.84733548,-812.823577,18.99437816,-39.52356766,-208.5551561,78.3673966,95.64552502,2.50E-08,74.15756606,90.06939287,103.187108,8.50E-09,-321.4619928,,,,
212.8159998,831,-139.9396716,121.088051,-136.8519618,-120.8494086,-944.4971506,-135.5114214,21.54781317,-78.64306261,-142.6616492,-123.2389343,2.48E-08,-131.9998818,-126.4722597,-105.0855103,8.40E-09,211.7107564,,,,
212.8239998,831,101.6872641,-110.3462861,104.6221995,130.8055392,-675.0591458,121.7300158,-163.3163011,-310.4727308,11.77954562,27.5765818,2.46E-08,0.507594526,22.32858484,26.03129053,8.40E-09,-92.73427245,,,,
212.8319998,831,-87.94269971,-32.38796816,-80.08867222,-70.06572771,-801.0162814,-63.24167772,111.1057756,-77.81711945,44.02440905,58.87255448,2.45E-08,51.2656837,58.17034104,70.41612247,8.30E-09,-144.2378149,,,,
212.8399998,831,12.77345943,56.5255852,10.00964338,41.21170679,-729.1741661,18.91153824,-84.97217396,-224.0342858,-105.2473535,-91.99856499,2.43E-08,-102.0881164,-90.51987531,-85.67892664,8.20E-09,245.7516389,,,,
212.8479998,831,46.77470414,-167.3913972,52.18950555,73.0353009,-623.9304097,74.39109146,-5.542517592,-218.203975,108.0696424,126.8048931,2.41E-08,110.2988684,119.2453333,139.6754629,8.10E-09,-300.6054853,,,,
212.8559998,831,-111.6812053,116.8515764,-109.679675,-88.10464615,-770.9155554,-101.405944,81.67059737,-83.55705109,-89.79821674,-73.95097204,2.40E-08,-72.07307414,-78.81146791,-44.84422449,8.00E-09,214.1714252,,,,
212.8639998,831,85.93233991,-96.49505217,81.30698691,118.6369135,-560.1005213,103.2736813,-128.9062121,-303.6559166,1.120378928,19.02927409,2.38E-08,-0.198971447,9.56453733,24.34598083,8.00E-09,-70.51050869,,,,
212.8719998,831,-83.48464587,-24.90592996,-84.80227046,-61.90438734,-667.8666322,-63.51257895,114.0834918,-82.15241344,30.79040165,53.51208583,2.36E-08,49.91567453,39.85020954,67.29240093,7.90E-09,-117.8785411,,,,
212.8799998,831,22.77279779,49.52897285,19.46428192,54.6439064,-565.975913,31.39785331,-74.34315295,-238.4773727,-91.48252487,-77.55426399,2.35E-08,-82.38836722,-85.04306059,-68.8811762,7.80E-09,250.7207308,,,,
212.8879998,831,50.79711822,-181.5870981,53.46591837,75.719573,-474.1635057,74.89180533,-5.178008785,-230.7208998,105.3121812,121.2532428,2.33E-08,106.7211983,113.5496383,127.3382085,7.70E-09,-298.8535002,,,,
212.8959998,831,-90.92469529,92.01234756,-91.71186464,-67.77732084,-608.0513692,-89.36967377,74.84493261,-97.39746916,-79.97886667,-60.17492724,2.31E-08,-59.33460963,-65.96114547,-44.33159248,7.70E-09,209.8130565,,,,
212.9039998,831,95.60481598,-126.9309241,94.89476947,132.5091946,-398.5899635,110.1013361,-121.804798,-312.993179,28.47154887,47.9513513,2.30E-08,30.59521602,39.273225,51.66839702,7.60E-09,-85.32346245,,,,
212.9119998,831,-64.71276248,-65.91065441,-64.81264411,-41.03773658,-510.9890326,-44.26942039,105.7111664,-90.55368769,49.15210745,67.16326687,2.28E-08,62.25784077,57.34045801,83.66939925,7.50E-09,-133.4820342,,,,
212.9199998,831,44.62400706,5.932322868,40.70408965,78.74865876,-409.3037604,56.88396705,-86.90308046,-239.4986612,-67.17880901,-54.94867264,2.27E-08,-64.54542154,-60.63724211,-40.71712756,7.40E-09,221.3432642,,,,
212.9279998,831,25.57935693,-206.6096945,35.35443064,62.15234762,-349.4944594,65.02804189,12.44484927,-208.457567,117.2765237,132.6623586,2.25E-08,116.6348163,128.1938889,158.164138,7.30E-09,-330.7546921,,,,
212.9359998,831,-132.5804803,74.54463763,-123.1306217,-94.90602724,-496.8919559,-108.9747916,92.06905583,-65.38509168,-102.628096,-87.74631531,2.23E-08,-85.18486142,-87.99618709,-53.39692999,7.30E-09,191.7916648,,,,
212.9439998,831,87.3873416,-148.1507061,91.76951654,129.3418777,-258.2261303,113.4425807,-115.3694241,-284.9063705,-0.525529867,19.88209002,2.22E-08,0.287452215,11.20408886,31.76597829,7.20E-09,-104.6126336,,,,
