Time:125Hz,Epoch,FP1,FP2,C3,C4,P7,P8,O1,O2,F7,F8,F3,F4,T7,T8,P3,P4,,,,
505.3839996,1974,-33.71148313,-602.9825426,-50.84625345,-40.10934367,53.911144,-49.74664632,-288.191745,-498.6275665,-75.14700242,-71.98184228,2.00E-10,-45.12834082,-70.42632925,95.37914588,-2.50E-09,-2106.573548,,,,
505.3919996,1974,63.11828048,-560.4497218,55.68099167,65.58007142,161.6520313,65.01888472,-515.4427635,-492.9323071,63.35922809,72.47414959,2.00E-10,73.19271561,60.94281473,199.9104332,-2.40E-09,-2098.147726,,,,
505.3999996,1974,-70.30935845,-626.2233223,-65.19977071,-80.41989881,54.45800734,-72.99213876,-220.8684583,-487.2464885,-28.30503566,-14.02620497,3.00E-10,8.066332014,-34.5428841,174.3121852,-2.40E-09,-2089.7013,,,,
505.4079996,1974,79.3622993,-566.1514076,77.32698806,79.34001761,128.659221,62.76565597,-480.169685,-481.5702151,-23.87702293,-12.43887468,3.00E-10,-15.16920048,-33.30569849,128.8748442,-2.40E-09,-2081.23456,,,,
505.4159996,1974,24.83380082,-556.3391494,45.13052091,10.2504374,141.1560409,26.83182326,-374.7651189,-475.9035972,108.1321583,120.3278475,3.00E-10,120.6255636,79.75195411,265.6294403,-2.40E-09,-2072.747794,,,,
505.4239996,1974,-20.51984735,-609.1013148,-6.740054204,-38.84329721,29.02971071,-46.5977161,-295.4763697,-470.2467389,-62.14186304,-47.42117348,4.00E-10,-36.98463653,-80.55809259,92.21929255,-2.30E-09,-2064.241299,,,,
505.4319996,1974,79.47049729,-561.4189277,104.4136302,73.42138645,152.533711,75.42415046,-515.435358,-464.5997462,73.88499373,90.40682841,4.00E-10,76.10598859,80.36114267,198.9954553,-2.30E-09,-2055.715364,,,,
505.4399996,1974,-85.93578117,-646.0588309,-58.82842295,-108.1737972,22.5654653,-94.27143869,-209.0924996,-458.9627221,-15.5432651,-3.664332468,4.00E-10,5.73345079,-26.50182928,147.8970161,-2.30E-09,-2047.170279,,,,
505.4479996,1974,10.40633516,-637.4547486,24.97091836,3.874778628,56.81328444,-4.624415749,-447.7929668,-453.3357722,-72.04793385,-56.96960293,4.00E-10,-70.63273927,-96.51511927,44.68884957,-2.20E-09,-2038.606335,,,,
505.4559996,1974,-23.22117549,-621.6910345,12.73875086,-35.81066099,87.68687627,-15.20359469,-340.2587674,-447.7190001,40.97739076,66.01527686,5.00E-10,47.52468076,25.50626349,198.7420177,-2.20E-09,-2030.023821,,,,
505.4639996,1974,-14.09902796,-627.1423859,6.114312818,-32.62652567,33.04132653,-38.65324774,-268.3726859,-442.1125089,-76.73419767,-55.07528512,5.00E-10,-64.85229293,-97.18629836,96.92039043,-2.20E-09,-2021.423024,,,,
505.4719996,1974,94.17850933,-560.7349383,117.4497288,84.35706922,164.9261065,92.04411751,-490.4289909,-436.5164,83.27909822,111.6845605,5.00E-10,80.30390703,67.05548972,209.5857581,-2.10E-09,-2012.804229,,,,
505.4799996,1974,-51.31759395,-613.4189933,-26.42657867,-83.4725313,40.48384035,-67.65117524,-194.4952828,-430.930772,6.920824517,36.35354864,6.00E-10,29.02118346,-2.924323077,159.3636429,-2.10E-09,-2004.167726,,,,
505.4879996,1974,71.74813869,-574.9628419,83.59389752,50.1473988,111.2900019,38.55780403,-433.158386,-425.355728,-26.32040555,-8.009870848,6.00E-10,-28.88916865,-40.43187242,92.0628055,-2.10E-09,-1995.513803,,,,
505.4959996,1974,15.16688439,-573.3452375,43.02810954,-7.624118203,148.2438673,17.47432995,-321.171588,-419.7913691,85.36379826,109.7129371,6.00E-10,93.12180217,67.75478576,226.2477776,-2.10E-09,-1986.842744,,,,
505.5039996,1974,-23.84633508,-610.5838064,-12.77274208,-49.89074874,77.62500806,-52.74669421,-246.1103169,-414.2377933,-69.11555165,-34.62678673,6.00E-10,-45.06195278,-85.40827208,70.73732367,-2.00E-09,-1978.154834,,,,
505.5119996,1974,74.60787126,-561.8482455,91.97879339,58.36720251,235.9033239,61.75545638,-461.9263788,-408.6950988,51.87327322,89.32474667,7.00E-10,57.02250941,47.24894998,176.0169116,-2.00E-09,-1969.450356,,,,
505.5199996,1974,-38.31163823,-599.7715652,-19.53556825,-67.1300457,169.5861787,-50.7777346,-177.0574659,-403.1633884,-7.775342817,26.51275693,7.00E-10,17.11957863,-12.07788837,146.5969062,-2.00E-09,-1960.729597,,,,
505.5279996,1974,91.34091953,-548.3439235,89.42835699,70.52409092,212.3481285,61.47812492,-431.9032874,-397.6427553,-9.623735478,22.59168889,7.00E-10,-4.245410959,-20.504013,98.28405357,-1.90E-09,-1951.992839,,,,
505.5359996,1974,18.59933005,-553.7225642,25.16637283,-15.05272677,168.6445682,7.590767228,-324.6764714,-392.1332949,92.87557443,126.4715196,8.00E-10,105.0373857,85.50244586,239.6318321,-1.90E-09,-1943.24036,,,,
505.5439996,1974,-27.80323175,-602.3651452,-34.75925617,-62.14466348,59.57459346,-68.77633535,-241.8771575,-386.6351068,-83.79610151,-50.06481539,8.00E-10,-61.93615849,-93.02492747,54.10852894,-1.90E-09,-1934.472444,,,,
505.5519996,1974,67.19961557,-563.5469985,69.08350091,44.77360485,169.6506507,43.18174389,-448.0649853,-381.1482839,33.96892377,65.941905,8.00E-10,36.08331907,20.00268559,147.4066405,-1.90E-09,-1925.689375,,,,
505.5599996,1974,-46.37638443,-599.326543,-38.14557497,-79.07087803,79.66785436,-68.44165762,-161.1742451,-375.6729232,-13.50910811,12.23593213,8.00E-10,4.639478364,-18.5041316,152.1148217,-1.80E-09,-1916.891431,,,,
505.5679996,1974,70.42761222,-551.097058,72.80631352,53.78727644,145.489066,44.19174416,-410.7550197,-370.2091174,-18.50758055,5.015950135,9.00E-10,-21.2935282,-20.71144528,93.31924557,-1.80E-09,-1908.078891,,,,
505.5759996,1974,-13.13689469,-575.357458,4.742654175,-41.10769649,110.8407555,-20.01098372,-293.2439616,-364.7569598,62.82872846,81.35449393,9.00E-10,65.24246389,50.74951631,200.8742172,-1.80E-09,-1899.252035,,,,
505.5839996,1974,-34.13072374,-612.6396256,-33.71647487,-59.46327996,43.79777783,-68.18861157,-220.7824368,-359.3165474,-96.81189233,-79.33183532,9.00E-10,-86.71532931,-111.1233027,52.19514667,-1.70E-09,-1890.41114,,,,
505.5919996,1974,77.70424154,-550.0797696,84.38619087,63.1717187,206.6774843,70.73235526,-444.5000883,-353.8879686,57.83097778,95.26530995,1.00E-09,56.19497702,45.96668435,184.3257156,-1.70E-09,-1881.556482,,,,
505.5999996,1975,-68.9640401,-616.4793112,-65.40498857,-111.3022476,74.977883,-92.30190745,-150.9329727,-348.471313,-21.33939475,13.21778289,1.00E-09,-3.62645657,-28.27512782,158.695485,-1.70E-09,-1872.688342,,,,
505.6079996,1975,46.32188845,-576.7984352,32.30924004,14.85629445,100.4830779,5.942693392,-399.2561518,-343.0666765,-55.02080009,-35.46689611,1.00E-09,-62.47084912,-66.09143514,83.06311718,-1.70E-09,-1863.806992,,,,
505.6159996,1975,-1.269341546,-560.0775017,2.504335022,-31.81284091,102.2754497,-0.310966248,-293.3104877,-337.6741473,58.04960139,88.53000712,1.00E-09,62.41398712,45.29907845,200.4444513,-1.60E-09,-1854.912708,,,,
505.6239996,1975,-35.16530518,-599.3896671,-43.44842411,-65.17212853,21.27490168,-60.9735475,-213.3144227,-332.2938133,-94.41932535,-59.94045007,1.10E-09,-75.67971486,-103.3163401,31.69317211,-1.60E-09,-1846.005768,,,,
505.6319996,1975,70.94481905,-535.8447772,70.66503973,49.71792252,143.6986314,51.90925607,-425.6565285,-326.9257652,46.06510207,83.65477354,1.10E-09,47.48266919,20.76223508,153.6173164,-1.60E-09,-1837.086441,,,,
505.6399996,1975,-29.6141164,-562.2545232,-30.27940401,-63.78941355,55.82513398,-50.44245811,-147.5319428,-321.570092,-8.587236046,29.47024358,1.10E-09,9.492415019,-27.06000629,161.6977003,-1.50E-09,-1828.155,,,,
505.6479996,1975,100.964823,-517.0611352,91.08491359,79.99682168,150.4859182,75.21325078,-389.5109484,-316.22688,-6.682419795,18.99266866,1.20E-09,-9.205699473,1.518562128,123.4258483,-1.50E-09,-1819.21172,,,,
505.6559996,1975,14.09061714,-533.4218912,24.19508763,-17.54630188,141.0206513,8.856360643,-244.5730508,-310.8962161,91.55064517,120.7746003,1.20E-09,100.9015454,91.39057378,244.4698017,-1.50E-09,-1810.256873,,,,
505.6639996,1975,-31.09563208,-581.3928895,-43.73390242,-63.5140252,26.89255095,-62.47543945,-171.6875366,-305.5781887,-86.93911642,-53.61378234,1.20E-09,-72.37361116,-95.88224633,71.28968395,-1.50E-09,-1801.290726,,,,
505.6719996,1975,86.45969746,-510.1378412,81.33914922,70.27344201,173.3964377,82.91345597,-404.1315286,-300.27288,55.00688161,83.43357861,1.20E-09,50.52989441,53.25847891,185.5535465,-1.40E-09,-1792.313551,,,,
505.6799996,1975,-62.17434337,-567.9637666,-58.80533941,-86.90945717,74.91227847,-67.56867551,-97.01434262,-294.9803774,-26.22998315,11.80994809,1.30E-09,4.591124803,-33.90718039,143.9259895,-1.40E-09,-1783.325619,,,,
505.6879996,1975,34.77961045,-549.4844653,25.65648567,18.9314737,125.9153603,7.355947956,-324.6241527,-289.7007668,-62.51216219,-18.29850186,1.30E-09,-47.83066126,-70.07807553,63.9691918,-1.40E-09,-1774.327195,,,,
505.6959996,1975,-19.93901513,-549.1672112,-16.51542758,-52.15607823,110.2085294,-32.45983036,-205.0550183,-284.4341268,47.74141142,79.85199972,1.30E-09,59.63655635,51.13766135,192.7668594,-1.40E-09,-1765.318548,,,,
505.7039996,1975,-54.31662331,-592.290713,-72.48047363,-86.87437481,-6.349619765,-87.70109231,-140.6745809,-279.1805463,-111.5413798,-86.02745652,1.30E-09,-97.44888122,-111.5219388,14.89530799,-1.30E-09,-1756.299949,,,,
505.7119996,1975,51.25092325,-537.8342306,41.43161348,28.00329819,121.2396547,32.05469904,-365.4261662,-273.940106,19.30454208,46.79363943,1.40E-09,15.80626051,18.21500168,117.5363766,-1.30E-09,-1747.271657,,,,
505.7199996,1975,-70.24393917,-584.0984188,-74.2159592,-113.6493445,24.72283687,-102.8018935,-71.82405305,-268.7128855,-43.78936792,-12.95924971,1.40E-09,-18.11223371,-46.99705341,110.5302951,-1.30E-09,-1738.233939,,,,
505.7279996,1975,55.0222087,-542.248542,38.68124913,22.16767417,102.2886679,12.70426263,-323.2562916,-263.4989693,-48.31274756,-17.55877049,1.40E-09,-44.60556217,-60.45435571,54.74021592,-1.20E-09,-1729.187065,,,,
505.7359996,1975,-9.875059619,-538.7872938,-3.387273586,-46.03653511,115.7669406,-21.05807591,-203.0386741,-258.2984347,53.94339679,79.50481263,1.40E-09,62.31695177,54.38153723,179.9437465,-1.20E-09,-1720.131295,,,,
505.7439996,1975,-47.60810086,-581.1851207,-51.49655532,-70.40634888,26.70866712,-61.36405855,-117.3100449,-253.1113633,-109.4182561,-82.23188731,1.50E-09,-88.07696729,-112.7057434,27.71334145,-1.20E-09,-1711.066891,,,,
505.7519996,1975,45.23131025,-545.3164907,48.27937881,34.0124783,149.9574062,51.44956605,-322.5902193,-247.9378356,16.74369924,53.39906712,1.50E-09,20.34584661,7.862912749,141.2816198,-1.20E-09,-1701.994116,,,,
505.7599996,1975,-90.22146672,-597.6994065,-83.46637857,-119.5662925,54.22120492,-95.454096,-21.55588541,-242.7779277,-56.43282597,-16.22719574,1.50E-09,-28.52636403,-47.92507641,117.9854788,-1.10E-09,-1692.91323,,,,
505.7679996,1975,40.38840863,-541.5928629,35.37454041,29.98074093,154.6903311,37.90939575,-271.6761268,-237.6317182,-55.18804302,-22.07479094,1.50E-09,-51.95784766,-65.789442,51.68791527,-1.10E-09,-1683.824498,,,,
505.7759996,1975,-22.58362588,-551.6478201,-7.552416649,-45.08340679,174.5071698,-12.15774338,-153.291844,-232.4992873,38.95597435,68.05286076,1.60E-09,41.62427944,26.14668286,155.9750881,-1.10E-09,-1674.728176,,,,
505.7839996,1975,-39.82055122,-582.2740699,-39.80574917,-66.08467006,84.91410105,-64.11134127,-82.52909629,-227.3807075,-106.5996848,-74.46139074,1.60E-09,-95.66968268,-100.3119329,17.54679037,-1.10E-09,-1665.624524,,,,
505.7919996,1975,47.95942131,-527.9227349,53.77827327,34.29609738,179.0122833,49.20108176,-300.4623428,-222.2760537,47.70414469,84.11805538,1.60E-09,44.73633537,38.03585021,151.6638661,-1.00E-09,-1656.5138,,,,
505.7999996,1975,-101.2584413,-597.459051,-91.38431544,-126.9077381,47.32330882,-103.9843175,1.547104223,-217.1854057,-57.81419011,-18.18627781,1.60E-09,-35.93087916,-63.84168945,89.06706589,-1.00E-09,-1647.396261,,,,
505.8079996,1975,60.82095273,-532.4376836,47.1143061,46.12283083,144.1547824,45.49102738,-248.9109068,-212.1088378,-61.72135984,-21.77404271,1.70E-09,-62.40964897,-64.93473962,28.84157985,-1.00E-09,-1638.272164,,,,
505.8159996,1975,4.361393627,-518.9211942,-1.429440343,-28.1331604,159.3207597,5.577525813,-136.6201207,-207.0464213,75.9466863,107.4895449,1.70E-09,81.85640825,67.20414021,191.3466323,-9.00E-10,-1629.141765,,,,
505.8239996,1975,-37.12311976,-562.9040162,-55.09504089,-67.72578413,65.56015546,-58.53392112,-62.02609332,-201.9982308,-89.4737336,-64.43705604,1.70E-09,-74.92447697,-86.13000335,32.7444667,-9.00E-10,-1620.005319,,,,
505.8319996,1975,61.83556266,-518.3006289,48.04645878,42.83225244,173.2450847,56.23598815,-277.4889704,-196.9643407,34.704287,70.26725367,1.70E-09,32.33807664,29.43362496,124.913607,-9.00E-10,-1610.863078,,,,
505.8399996,1975,-77.30926219,-582.7874255,-94.94467452,-117.5362552,46.91353306,-99.0525911,9.381674077,-191.9448213,-44.17226409,-11.31768473,1.80E-09,-24.90674113,-55.05441068,95.04353048,-9.00E-10,-1601.715298,,,,
505.8479996,1975,58.4641012,-534.5318149,25.99969338,33.12543831,132.8362203,32.3260893,-248.3934461,-186.9397439,-47.46439062,-30.23795604,1.80E-09,-52.18879147,-55.51201444,61.88416911,-8.00E-10,-1592.56223,,,,
505.8559996,1976,-6.480461635,-534.8859312,-15.46547003,-32.18880752,146.2859752,0.572856328,-127.5102503,-181.9491793,62.43831938,76.85196561,1.80E-09,65.1466287,61.84854388,188.8580034,-8.00E-10,-1583.404125,,,,
505.8639996,1976,-51.61770789,-582.0449207,-68.80392584,-73.31472637,51.55593843,-71.18672811,-44.55864048,-176.9732001,-101.9253607,-80.8537094,1.80E-09,-87.32013617,-94.11925514,12.63322044,-8.00E-10,-1574.241234,,,,
505.8719996,1976,43.88677565,-532.4298861,32.38339537,28.57902542,147.1967511,36.67218396,-263.1263252,-172.0118747,29.45351104,58.51564284,1.80E-09,27.90836385,29.46085349,123.2098212,-8.00E-10,-1565.073807,,,,
505.8799996,1976,-74.92750148,-577.8037805,-82.28919666,-102.1993952,33.99429832,-84.71604914,17.40211888,-167.065271,-47.16620241,-28.16487514,1.90E-09,-29.3913052,-40.46655787,78.1053133,-7.00E-10,-1555.902095,,,,
505.8879996,1976,45.17966503,-529.4947436,25.12476056,32.69592426,118.622266,27.6144245,-237.2953115,-162.1334573,-47.94253747,-35.62084222,1.90E-09,-49.21281403,-49.81097574,28.38883169,-7.00E-10,-1546.726343,,,,
505.8959996,1976,-48.01835401,-547.8638524,-57.68965993,-74.45764065,92.26695815,-49.24756635,-124.2568548,-157.2165013,35.49272746,54.4882157,1.90E-09,47.15777968,24.88939295,156.0037292,-7.00E-10,-1537.546801,,,,
505.9039996,1976,-50.75951121,-576.0590864,-73.63751959,-74.79595448,35.52506283,-78.47994605,-66.85217597,-152.3144735,-131.104399,-112.4438446,1.90E-09,-113.2365433,-123.7502823,-12.23865011,-7.00E-10,-1528.363713,,,,
505.9119996,1976,72.1980311,-499.295165,60.5159631,60.48226132,185.269332,70.16826551,-287.0554758,-147.4274374,43.14145275,69.01858716,2.00E-09,43.09060783,44.52051134,141.6783885,-6.00E-10,-1519.177325,,,,
505.9199996,1976,-81.68976288,-563.1666303,-96.24099139,-104.1697251,28.4339674,-74.64146569,10.63726933,-142.5554569,-33.0176996,-4.369622067,2.00E-09,-5.2397709,-34.90925453,100.9344195,-6.00E-10,-1509.987884,,,,
505.9279996,1976,46.6491179,-532.6446908,13.41778349,37.34459251,96.75914016,43.81820747,-244.8108251,-137.6985981,-57.04057893,-32.6535119,2.00E-09,-50.71987568,-56.71396963,9.605560677,-6.00E-10,-1500.79563,,,,
505.9359996,1976,-12.20102676,-535.3721385,-26.57386346,-35.80073709,113.8982713,-3.767747983,-125.5598677,-132.8569289,48.26357415,75.30656992,2.00E-09,61.377038,41.89810647,165.7350113,-6.00E-10,-1491.60081,,,,
505.9439996,1976,-29.49703531,-555.5574083,-51.58302771,-47.20967737,43.12713393,-33.30867521,-48.94951618,-128.0305116,-90.35559971,-70.60170751,2.10E-09,-69.67374316,-87.72203876,40.69307739,-5.00E-10,-1482.403665,,,,
505.9519996,1976,67.18753898,-509.4137325,49.04657489,60.46323688,139.4952256,86.5109796,-267.3199022,-123.2194057,53.74942851,77.69199584,2.10E-09,53.7484433,57.78365557,134.4210001,-5.00E-10,-1473.204434,,,,
505.9599996,1976,-74.30068991,-572.8722177,-97.85825462,-102.1563657,-5.827496667,-75.02808965,19.94956006,-118.4236788,-43.80656617,-12.67378244,2.10E-09,-20.14802059,-48.16766519,67.94279916,-5.00E-10,-1464.003359,,,,
505.9679996,1976,58.89072816,-511.7583185,22.30763378,41.16019656,84.99435805,46.62135843,-233.3701589,-113.6433923,-39.03115067,-18.23230746,2.10E-09,-38.49799435,-54.15109172,33.24296229,-5.00E-10,-1454.800679,,,,
505.9759996,1976,-31.73824534,-540.5520152,-54.83610962,-60.77821882,59.32117773,-27.24089265,-105.7586957,-108.8786047,49.58594189,68.02494939,2.10E-09,52.99091786,37.40177701,167.0648818,-4.00E-10,-1445.596633,,,,
505.9839996,1976,-65.02953491,-592.0159022,-105.2568438,-87.29404112,-36.92907928,-80.9092376,-31.67870351,-104.1293761,-129.0372341,-112.1001398,2.20E-09,-115.9733443,-120.7491004,-9.000640012,-4.00E-10,-1436.39146,,,,
505.9919996,1976,33.23507262,-543.4737127,1.482413994,23.90202273,82.11269734,45.75018304,-252.1730008,-99.3957704,22.30011848,50.62438591,2.20E-09,23.16084117,20.83163481,87.92700334,-4.00E-10,-1427.185394,,,,
505.9999996,1976,-117.1621733,-618.9047574,-140.1214157,-144.8280996,-51.08719668,-119.5707934,42.99163934,-94.67784759,-79.18364234,-53.69940546,2.20E-09,-55.16302734,-89.03801348,23.062624,-4.00E-10,-1417.978675,,,,
506.0079996,1976,28.53651502,-554.618961,2.991271513,25.20940693,62.27916524,29.37375643,-205.2481574,-89.97566257,-85.10226676,-71.77652178,2.20E-09,-81.74681356,-87.96034522,-14.42759568,-3.00E-10,-1408.771534,,,,
506.0159996,1976,-32.85535437,-546.0922228,-45.95607304,-41.15932893,65.98346337,-0.664115387,-90.31455434,-85.28927556,39.84421158,72.38391428,2.20E-09,58.48351876,31.60955704,149.0854482,-3.00E-10,-1399.564205,,,,
506.0239996,1976,-80.42564236,-588.6338643,-111.9159912,-93.35754804,-48.78874112,-79.84905633,-23.71064763,-80.61874432,-129.847709,-105.693445,2.30E-09,-102.2832956,-130.8556531,-14.09257917,-3.00E-10,-1390.356927,,,,
506.0319996,1976,21.87195158,-530.950285,5.552022685,25.45625286,87.65862953,47.84167243,-237.3543604,-75.96412446,1.583277419,20.72180362,2.30E-09,8.612106622,4.943995665,74.18435387,-3.00E-10,-1381.149926,,,,
506.0399996,1976,-81.73749345,-567.8280806,-96.01758977,-92.14087879,-2.314564319,-65.54770923,47.30073381,-71.32547527,-55.79872718,-23.56929603,2.30E-09,-24.46611473,-52.69217847,68.02323872,-2.00E-10,-1371.943435,,,,
506.0479996,1976,53.93944129,-508.6862712,22.6922388,56.37940128,79.94851955,62.73666678,-208.7612539,-66.70284869,-42.35826394,-17.52332386,2.30E-09,-32.27999743,-43.84618928,53.95032931,-2.00E-10,-1362.737687,,,,
506.0559996,1976,-23.99016126,-521.1146923,-38.53899706,-30.04261173,88.27455006,7.268393225,-84.72935098,-62.09630211,47.26957324,77.75123335,2.30E-09,66.49892032,35.53616602,154.7358203,-2.00E-10,-1353.532908,,,,
506.0639996,1976,-38.48842669,-550.2408866,-67.38166533,-49.49190222,42.2191524,-41.02783167,-20.14747084,-57.50589104,-103.3854214,-78.44732264,2.40E-09,-77.47038407,-106.3279722,-5.42573519,-2.00E-10,-1344.329331,,,,
506.0719996,1976,59.71560127,-496.1948501,44.8215373,60.61868449,186.3978667,78.1018987,-228.3938653,-52.93166727,43.60360974,65.06120916,2.40E-09,49.74084007,46.10030747,110.7611403,-1.00E-10,-1335.127181,,,,
506.0799996,1976,-78.56694881,-553.9347883,-84.55723703,-87.46456071,57.81212331,-64.77920452,72.5686236,-48.37368587,-41.38919251,-10.07861772,2.40E-09,-9.402797803,-42.58617629,63.32680204,-1.00E-10,-1325.926684,,,,
506.0879996,1976,58.93405038,-497.7532994,33.49884326,63.75675016,123.3452346,68.55889713,-188.6508177,-43.83199747,-36.5878473,-11.76345864,2.40E-09,-23.24755827,-42.3041214,18.2920252,-1.00E-10,-1316.728069,,,,
506.0959996,1976,-9.725286202,-508.4858829,-18.85440298,-13.91314639,123.344157,22.73145921,-65.721419,-39.30665616,55.27725684,82.53520029,2.40E-09,76.72043566,48.8041785,138.5718478,-1.00E-10,-1307.531559,,,,
506.1039996,1976,-27.80601439,-534.7653217,-44.87429818,-28.92341737,50.96530932,-20.21115325,14.86599247,-34.79771257,-91.66655221,-71.99738327,2.50E-09,-67.37515405,-87.18061678,0.277544636,-1.00E-10,-1298.337378,,,,
506.1119996,1977,60.53097676,-485.6859078,42.96799666,63.80946127,153.474054,81.17390028,-199.0393547,-30.30521593,56.2505776,74.25539889,2.50E-09,61.6259803,64.37663058,134.684915,0,-1289.145751,,,,
506.1199996,1977,-90.64683816,-560.1417141,-110.842288,-108.2950532,6.729621388,-85.21360047,91.32406506,-25.82921875,-51.55411707,-19.56493083,2.50E-09,-19.53978304,-51.97827361,81.38142366,0,-1279.956896,,,,
506.1279996,1977,52.32636747,-498.6575102,23.82965077,57.26558317,101.7256844,66.45318618,-159.6833658,-21.36977132,-50.9050682,-32.04759332,2.50E-09,-42.29333644,-55.06397813,10.64051743,0,-1270.77104,,,,
506.1359996,1977,-16.75557815,-502.1205213,-27.99422847,-15.65024514,113.2252776,24.38105183,-28.29662137,-16.92692033,52.76922132,65.688081,2.50E-09,71.98667894,52.79167851,126.9135834,0,-1261.588403,,,,
506.1439996,1977,-35.07253567,-534.2416946,-67.15753669,-40.42933327,17.85011573,-34.63038774,37.20314272,-12.5007139,-99.77944918,-82.12824014,2.60E-09,-69.92953485,-97.46182918,-27.19979547,1.00E-10,-1252.409202,,,,
506.1519996,1977,83.01545366,-463.6191966,51.86407162,76.91259417,142.7054932,89.65589797,-198.5166754,-8.091202471,65.60397578,78.20323872,2.60E-09,71.56091217,71.13820415,85.9852727,1.00E-10,-1243.233655,,,,
506.1599996,1977,-67.01355567,-527.4989311,-94.74553547,-90.02180351,12.49977352,-72.89532133,99.59217188,-3.698432539,-35.706906,-16.99993518,2.60E-09,-2.383699236,-35.832265,44.2957275,1.00E-10,-1234.06198,,,,
506.1679996,1977,58.00424394,-482.9349603,18.081538,54.75281126,73.28137193,51.72448672,-147.780254,0.677551821,-45.38594138,-21.97750359,2.60E-09,-27.78112443,-54.07007806,7.998425626,1.00E-10,-1224.894398,,,,
506.1759996,1977,9.512284722,-475.5643362,-12.73033071,-2.761507873,101.8901279,24.94721104,-39.42919009,5.036703851,77.36588745,90.3596029,2.60E-09,97.06062185,80.35287571,147.7213635,2.00E-10,-1215.73112,,,,
506.1839996,1977,-8.461908379,-499.8157443,-45.91946743,-19.34473417,41.49666022,-14.42930924,29.62456201,9.378976095,-76.48949862,-67.18757294,2.60E-09,-47.46481104,-73.00249723,0.590795937,2.00E-10,-1206.57236,,,,
506.1919996,1977,78.66882511,-447.4972335,42.55638343,78.1885207,143.6545581,97.94284927,-189.0125469,13.70432464,69.89162993,84.94170436,2.70E-09,80.30302008,66.73984032,116.1388599,2.00E-10,-1197.418337,,,,
506.1999996,1977,-71.88701043,-515.482467,-105.2225485,-85.73320419,15.18639881,-63.98899223,100.3860754,18.01270692,-25.18206524,-20.37451496,2.70E-09,1.634333378,-23.58184582,51.40185566,2.00E-10,-1188.26926,,,,
506.2079996,1977,58.08930479,-469.2662654,18.23091631,65.78097676,102.0065914,67.05687277,-143.8191914,22.304077,-38.45561074,-31.7255974,2.70E-09,-27.2224358,-39.96420417,-3.150720122,2.00E-10,-1179.125342,,,,
506.2159996,1977,-11.15700197,-476.5816012,-33.78439538,-12.81424512,92.39420442,23.02000669,-17.52067783,26.57839213,60.51124159,85.18645865,2.70E-09,85.36447314,66.47080258,129.6350021,3.00E-10,-1169.986796,,,,
506.2239996,1977,-35.30876191,-506.6977999,-70.15979755,-35.50468016,6.875013687,-29.45416377,49.85009803,30.83561014,-99.70029794,-90.32587847,2.70E-09,-74.31347488,-83.36549924,-42.09548385,3.00E-10,-1160.853829,,,,
506.2319996,1977,68.61886138,-443.6349476,49.86663754,85.97275853,141.516074,97.72595612,-173.0966195,35.0756902,54.71435532,74.22156317,2.70E-09,66.63712442,66.63270918,71.09921318,3.00E-10,-1151.726652,,,,
506.2399996,1977,-61.8270738,-494.0706521,-80.94342734,-62.97651862,22.47925787,-46.50419117,108.6972281,39.2985918,-25.26632536,8.651029008,2.80E-09,22.19446502,-14.00253515,41.82254252,3.00E-10,-1142.605473,,,,
506.2479996,1977,68.8891446,-439.0599685,34.51636863,79.77271912,101.5549171,78.56574185,-147.7429612,43.50427182,-27.05623285,-26.37709808,2.80E-09,-7.162109504,-19.98940773,6.378043862,4.00E-10,-1133.4905,,,,
506.2559996,1977,-14.97587974,-458.0426116,-25.42327471,-5.396859555,99.9386168,29.38930667,-20.73539804,47.69269264,63.71384139,80.19185256,2.80E-09,92.86123693,65.52471415,129.1801672,4.00E-10,-1124.381936,,,,
506.2639996,1977,-23.88743942,-483.1279456,-45.94870019,-11.60203708,33.5530261,-3.048892688,42.14445296,51.86381545,-91.71158035,-51.50554128,2.80E-09,-49.13113906,-81.37252038,-32.09025931,4.00E-10,-1115.279989,,,,
506.2719996,1977,84.30513753,-417.3185671,67.31358582,99.82092108,161.7356926,120.6289437,-184.1529371,56.01759719,72.53303757,90.39062406,2.80E-09,85.27658049,90.4731486,96.65241103,4.00E-10,-1106.184865,,,,
506.2799996,1977,-72.87192724,-498.7219972,-97.57970326,-81.07267219,9.244810437,-54.69546104,100.8018822,60.1540015,-32.76828756,-30.21156848,2.80E-09,-4.024954883,-20.82378511,38.4970089,4.00E-10,-1097.096765,,,,
506.2879996,1977,60.41478212,-448.3018262,24.03456422,69.26270549,96.09791099,65.21672079,-161.6939907,64.27299486,-41.1890844,-33.74757124,2.90E-09,-29.03162451,-43.97646502,-26.19784061,5.00E-10,-1088.015894,,,,
506.2959996,1977,-11.04583185,-445.8869648,-18.26437721,-3.227709551,139.208878,24.2511696,-32.0610313,68.3745339,73.98680522,97.44652188,2.90E-09,102.3604988,72.84672149,105.5902347,5.00E-10,-1078.94245,,,,
506.3039996,1977,-49.76961887,-495.3923803,-75.18674987,-38.70400405,69.7339069,-33.46006283,40.733097,72.45858467,-109.1522267,-97.97341038,2.90E-09,-72.79794817,-97.40435319,-78.28064871,5.00E-10,-1069.876634,,,,
506.3119996,1977,49.99433857,-438.780028,31.50111603,71.45151362,211.6845996,81.34971951,-182.2345185,76.5251148,33.45942602,36.89331995,2.90E-09,47.92850167,48.94908603,23.51800106,5.00E-10,-1060.81865,,,,
506.3199996,1977,-62.17995288,-468.2697728,-73.49329525,-57.59305249,146.3735074,-43.66712636,112.5619892,80.57408355,-29.10164945,-20.8974027,2.90E-09,10.59893186,-6.885179737,6.305780342,5.00E-10,-1051.768692,,,,
506.3279996,1977,79.90751717,-405.5609543,48.82246209,101.390064,237.0933956,96.8605579,-148.8977921,84.60545743,-21.61002347,-22.54438699,2.90E-09,-4.552672848,0.060827269,-37.31591898,6.00E-10,-1042.726958,,,,
506.3359996,1977,-11.50206382,-424.147949,-28.47487177,2.968345193,199.1193532,27.87006586,-34.79254936,88.61920444,74.73982521,90.27948656,3.00E-09,104.0318432,95.82399398,83.09318886,6.00E-10,-1033.69365,,,,
506.3439996,1977,-36.55095589,-465.2406791,-69.78078572,-25.23890397,86.58957568,-29.2550055,31.05016985,92.61528969,-107.7070289,-95.08749944,3.00E-09,-67.28885593,-88.96012779,-86.14301972,6.00E-10,-1024.668956,,,,
506.3519996,1977,82.36759601,-404.103466,56.03272357,102.7138404,204.7009136,108.3890109,-203.9114505,96.59367979,51.02306209,49.24364501,3.00E-09,58.68768696,51.21277336,25.1926882,6.00E-10,-1015.653074,,,,
506.3599996,1977,-50.38090596,-455.4170094,-68.6164779,-44.4696764,103.1295199,-32.4846016,79.90206644,100.5543424,-9.46834826,-8.018539483,3.00E-09,15.70009538,0.055651857,3.862464982,6.00E-10,-1006.646201,,,,
506.3679996,1978,64.81142438,-407.6866407,38.3423444,90.24755642,170.5694151,84.08472234,-167.0795557,104.4972454,-28.39188776,-33.71202707,3.00E-09,-15.70363562,-6.07869619,-54.93000851,7.00E-10,-997.6485253,,,,
506.3759996,1978,-15.99408943,-419.400604,-18.86483338,8.643164892,139.1816861,33.09165448,-48.26581079,108.4223579,57.38127009,62.2980235,3.00E-09,81.03374841,69.17652846,50.57212064,7.00E-10,-988.6602401,,,,
506.3839996,1978,-28.71475131,-452.9118228,-46.82466682,-2.663575485,48.47287162,-5.558674123,8.831978204,112.3296484,-96.89359116,-77.76846931,3.00E-09,-60.75214724,-81.75427291,-104.543723,7.00E-10,-979.6815372,,,,
506.3919996,1978,69.2193571,-397.388705,59.13576454,100.5039525,168.814978,112.49275,-212.3993561,116.2190894,57.57858465,80.25723845,3.10E-09,80.57782357,75.57739727,10.83798742,7.00E-10,-970.7126068,,,,
506.3999996,1978,-84.39822998,-461.513453,-83.85211212,-71.20510479,43.7794853,-52.76066775,92.00411314,120.090649,-39.27079873,-48.20502466,3.10E-09,-5.491704991,-24.25982248,-42.27045314,7.00E-10,-961.7536373,,,,
506.4079996,1978,56.5158149,-401.4976388,47.38798186,87.62124032,144.9839095,85.03626092,-156.0888453,123.9442978,-44.39903408,-67.06194454,3.10E-09,-39.56076695,-29.66704605,-106.9517786,8.00E-10,-952.8048147,,,,
506.4159996,1978,3.671161166,-386.3907248,15.45183998,25.30447098,202.7522167,57.0384613,-46.2511925,127.7800076,76.38892689,98.38347108,3.10E-09,100.7901004,103.3267374,31.13878482,8.00E-10,-943.8663284,,,,
506.4239996,1978,-26.05066668,-424.9668117,-33.7210749,-12.86632063,126.4907585,-10.33829303,20.79010814,131.5977499,-89.15831311,-77.5888802,3.10E-09,-56.92897652,-61.18729984,-118.4632352,8.00E-10,-934.938362,,,,
506.4319996,1978,76.47559277,-368.4296759,70.94177604,95.17756399,209.5784028,103.9516979,-200.1705531,135.3974998,52.17476596,47.39657491,3.10E-09,61.11689013,62.57011483,-12.81404758,8.00E-10,-926.0211034,,,,
506.4399996,1978,-47.61662913,-411.8352204,-42.8655149,-43.2570562,91.20645886,-27.90881842,77.18637625,139.1792294,-16.13480829,-15.25376679,3.10E-09,17.55791,-5.102063145,-40.98150343,8.00E-10,-917.1147368,,,,
506.4479996,1978,75.9814301,-373.0793125,66.6840298,92.35718969,174.9903312,86.62169514,-170.8888605,142.9429127,-20.62474823,-28.48964674,3.20E-09,-6.770744701,-14.00696299,-99.68151373,9.00E-10,-908.2194423,,,,
506.4559996,1978,-3.836291085,-392.516434,-1.983031859,-3.659955388,204.2497393,17.4684246,-49.08700255,146.6885212,63.23140751,81.34010347,3.20E-09,90.10982755,85.83149364,-5.962408562,9.00E-10,-899.3354038,,,,
506.4639996,1978,-28.73757152,-425.6470119,-39.12754626,-30.21853456,200.1812601,-37.21070909,7.118729845,150.416032,-90.60464188,-96.64875165,3.20E-09,-66.99354304,-60.85367142,-156.9089154,9.00E-10,-890.4627998,,,,
506.4719996,1978,67.12202256,-367.6901674,70.02167676,80.72540753,337.4698402,90.38049354,-197.1779579,154.1254227,60.4034537,36.39152183,3.20E-09,54.74361606,63.96213305,-32.86022413,9.00E-10,-881.6018154,,,,
506.4799996,1978,-57.86075692,-414.4512781,-53.43027757,-64.21839724,194.9708987,-46.35210428,94.41253926,157.8166655,-36.33273961,-14.84533502,3.20E-09,-5.935436281,-18.96640181,-88.54191567,9.00E-10,-872.7526266,,,,
506.4879996,1978,100.84262,-342.9743036,85.54860166,96.55183493,262.5069174,89.41777037,-188.2671585,161.4897387,-12.12696873,-0.31638775,3.20E-09,-5.131165351,-1.926470277,-121.8707715,1.00E-09,-863.9154085,,,,
506.4959996,1978,31.0425077,-344.7106924,36.26681841,14.80289669,229.2612859,38.29476494,-79.64772072,165.1446202,102.1095939,104.5465649,3.20E-09,103.3181162,91.45153571,18.42518852,1.00E-09,-855.090345,,,,
506.5039996,1978,4.823964569,-380.4215487,-0.377860885,-12.9453528,133.7023758,-15.68361177,-17.31401887,168.7812844,-69.39688472,-61.62026745,3.20E-09,-63.00939886,-67.49293799,-149.5508977,1.00E-09,-846.2776073,,,,
506.5119996,1978,124.5043608,-307.5388876,129.5007263,113.5008296,231.888114,120.9545264,-245.7212804,172.3997121,101.3709649,101.7362499,3.30E-09,81.40763026,88.0492908,-26.92070662,1.00E-09,-837.4773718,,,,
506.5199996,1978,-20.13456488,-365.806484,-5.709754899,-46.96948453,91.06625532,-37.37294688,43.30579845,175.9998835,15.1155634,19.72545648,3.30E-09,13.36992472,-8.312866645,-62.48137174,1.00E-09,-828.6898126,,,,
506.5279996,1978,92.24207393,-327.5740316,96.29918392,78.43290892,179.1620397,67.63067353,-207.0794128,179.5817745,-3.049628531,-0.862442432,3.30E-09,-22.50497115,-3.946204644,-100.469399,1.10E-09,-819.915103,,,,
506.5359996,1978,7.343099405,-341.9980302,33.02701618,-12.01184038,153.7595873,20.28919792,-81.67072551,183.1453664,91.69523072,108.7973071,3.30E-09,80.3278905,101.2285179,14.4054098,1.10E-09,-811.1534179,,,,
506.5439996,1978,-33.11516734,-392.3610586,-18.42729689,-51.54311365,59.59570297,-47.7888835,-11.20970263,186.6906393,-94.81209572,-80.53517362,3.30E-09,-106.0472096,-100.1915902,-193.4255254,1.10E-09,-802.4049233,,,,
506.5519996,1978,77.84778389,-325.2261566,98.76897306,71.00521866,183.924394,78.30245315,-223.3258529,190.2175726,52.29536719,48.9131859,3.30E-09,16.18322075,39.48835491,-71.67304634,1.10E-09,-793.6697908,,,,
506.5599996,1978,-39.96090777,-355.7188347,-19.50853232,-59.90997244,68.86794627,-42.04988288,71.42844488,193.7261513,-11.76831885,-7.358607392,3.30E-09,-18.2298113,-15.87695759,-74.07648868,1.10E-09,-784.9481919,,,,
506.5679996,1978,88.23303548,-305.6593007,93.94183151,74.9005485,150.1891997,69.45122152,-176.6128432,197.2163553,-12.90062989,-4.641849992,3.30E-09,-39.43119005,-17.57465845,-119.3018142,1.10E-09,-776.2402937,,,,
506.5759996,1978,0.981635297,-321.9416878,26.62274477,-20.50996668,104.9147597,1.488292311,-44.71350942,200.6881647,76.86014145,92.02033843,3.40E-09,56.1779889,72.6262068,-4.887529858,1.20E-09,-767.5462627,,,,
506.5839996,1978,-16.40111712,-343.6397809,-4.628517705,-35.1033161,21.9163336,-40.55902717,11.59778749,204.1415663,-82.74498927,-65.9340762,3.40E-09,-85.54364506,-90.24011032,-153.0410393,1.20E-09,-758.8662657,,,,
506.5919996,1978,98.94874148,-266.0623836,117.9437511,83.94096176,163.8705637,93.42294707,-219.0641453,207.5765423,69.14690304,82.37839977,3.40E-09,52.10125277,68.37151183,-23.07364461,1.20E-09,-750.2004687,,,,
506.5999996,1978,-29.31229341,-306.8744306,-10.68118933,-58.0411289,41.68482418,-33.50426508,69.81444391,210.9930773,-18.22756934,-6.616630852,3.40E-09,-15.09646088,-13.19629054,-90.10529271,1.20E-09,-741.5490352,,,,
506.6079996,1978,104.7541018,-246.810825,110.2316583,94.85307203,128.879345,97.59812239,-188.6218931,214.391156,-1.388167831,2.802278443,3.40E-09,-21.51561564,-19.82758986,-131.2430747,1.20E-09,-732.9121278,,,,
506.6159996,1978,10.72618772,-263.3426787,37.13951764,-11.77716997,100.6429754,16.7600265,-65.30575344,217.7707609,95.54900481,113.314193,3.40E-09,85.11753454,88.61741823,14.89762018,1.30E-09,-724.2899102,,,,
506.6239996,1979,-12.42615737,-296.1996475,-6.145447877,-35.04496971,10.11924197,-38.71902657,-12.43541209,221.1318793,-95.0678339,-63.3062396,3.40E-09,-88.61223063,-89.28240059,-169.1919275,1.30E-09,-715.6825439,,,,
506.6319996,1979,86.00378268,-232.9055291,98.6552481,74.86672845,135.765182,79.19951002,-233.3274691,224.4744993,56.1897537,80.21698509,3.40E-09,46.51964899,40.85896589,-47.27722949,1.30E-09,-707.0901869,,,,
506.6399996,1979,-74.29136353,-294.6997623,-52.90571026,-103.7369539,7.0653983,-88.49375496,79.05791671,227.7986033,-34.07456035,-16.69968916,3.40E-09,-25.66202765,-39.03247186,-68.15172164,1.30E-09,-698.512998,,,,
506.6479996,1979,81.96014158,-223.4569864,86.50472586,68.73890825,100.3493285,70.09424588,-188.0583898,231.1041818,-42.40748459,-22.79767105,3.40E-09,-59.38939042,-41.96403209,-131.1511687,1.30E-09,-689.9511378,,,,
506.6559996,1979,33.82873617,-210.3051139,49.08840756,8.179580385,96.23621803,39.30431336,-84.85255045,234.3912248,85.04926521,111.7928142,3.50E-09,73.72560795,78.15416705,-33.27613386,1.30E-09,-681.4047641,,,,
506.6639996,1979,5.537542129,-237.2251982,3.745729216,-26.25069897,31.53132843,-25.60788936,-19.54289644,237.659713,-66.70950853,-46.73491356,3.50E-09,-69.21375314,-65.38108889,-168.7487742,1.40E-09,-672.8740328,,,,
506.6719996,1979,104.0752665,-169.5170907,107.3899891,80.59657879,178.7363269,97.93435526,-239.4344022,240.9096422,76.85869058,84.645193,3.50E-09,53.4862085,71.82374049,-13.75017017,1.40E-09,-664.3590964,,,,
506.6799996,1979,-39.43098132,-228.1043191,-32.05323782,-78.07304724,37.31893705,-53.90569858,58.40177018,244.1410004,-11.77790898,1.350799439,3.50E-09,-16.13776128,-31.35101469,-81.34735402,1.40E-09,-655.8601109,,,,
506.6879996,1979,101.9729933,-158.9423011,97.09873129,82.18851209,108.1891401,77.91476012,-205.2031881,247.3537729,-12.55167041,14.91896311,3.50E-09,-31.71691565,-30.76794539,-133.4069326,1.40E-09,-647.3772331,,,,
506.6959996,1979,21.72120103,-157.9769753,34.27625334,-8.928162312,99.23355411,16.54030039,-85.58837205,250.5479535,89.49261297,113.1090733,3.50E-09,84.418822,85.37545254,6.193545841,1.40E-09,-638.9106099,,,,
506.7039996,1979,-20.88871214,-206.7628691,-19.30600583,-49.39540986,7.791052151,-44.03500335,-4.910271747,253.723532,-91.07985754,-85.79095131,3.50E-09,-96.02340625,-95.75963853,-175.9559874,1.40E-09,-630.4603939,,,,
506.7119996,1979,104.5637445,-122.2356748,114.7527325,93.33888011,186.0032761,110.4942478,-235.114903,256.8805021,65.37944426,89.35322691,3.50E-09,42.61316266,56.91020153,-60.67522737,1.50E-09,-622.0267371,,,,
506.7199996,1979,-32.35836859,-165.7565976,-15.55449362,-58.35101307,99.03576213,-39.34318276,48.53838386,260.0188551,-2.670010137,35.04661023,3.50E-09,6.518070406,-6.895332085,-86.83666529,1.50E-09,-613.6097853,,,,
506.7279996,1979,69.66368403,-123.5143244,72.80287657,59.25240114,138.7190933,61.30153873,-191.3955751,263.1385809,-17.47803527,-2.330953779,3.50E-09,-32.48892558,-23.87636639,-127.2839416,1.50E-09,-605.2096915,,,,
506.7359996,1979,-13.31236345,-127.2419052,-0.180476336,-32.50661518,123.6427373,0.822639283,-64.24078983,266.239671,61.39084737,80.28004151,3.60E-09,54.38893541,53.47750219,-16.84700705,1.50E-09,-596.8266036,,,,
506.7439996,1979,-33.75246905,-161.7023776,-32.72598259,-51.52746535,50.14648188,-45.54277042,-8.581603509,269.3221218,-111.4549122,-78.89025349,3.60E-09,-105.6348681,-121.9736301,-187.5192298,1.50E-09,-588.4606607,,,,
506.7519996,1979,72.18251972,-97.20163629,79.83904607,62.9103047,156.1433483,85.75664802,-227.6406123,272.3859272,53.94299034,83.38096312,3.60E-09,37.55375365,54.30845016,-51.31071599,1.50E-09,-580.1120143,,,,
506.7599996,1979,-84.65593398,-164.2897371,-77.83218236,-113.8740249,12.26821096,-85.13377464,73.34272863,275.4310815,-42.35452581,-22.46647165,3.60E-09,-38.01484102,-31.9016855,-101.5223437,1.50E-09,-571.7808099,,,,
506.7679996,1979,39.51626756,-115.3828509,39.36992921,28.06959403,85.01204473,32.22648266,-181.181326,278.4575788,-68.42409769,-49.30500514,3.60E-09,-81.18203922,-70.50854211,-161.7641246,1.60E-09,-563.4671837,,,,
506.7759996,1979,-6.502696203,-89.42389843,14.58261636,-23.09157975,103.492855,8.785668851,-60.42385946,281.4654116,56.74791854,84.90354375,3.60E-09,49.08718459,47.26202359,-14.88932631,1.60E-09,-555.1712841,,,,
506.7839996,1979,-21.967383,-108.5925542,-16.55482949,-37.20416062,31.14045474,-29.28241078,1.808832211,284.4545791,-83.21960513,-58.85904672,3.60E-09,-86.0299074,-89.85608467,-165.4716834,1.60E-09,-546.8932511,,,,
506.7919996,1979,82.47352359,-43.74318604,89.16692719,75.49692304,152.8477581,96.04377575,-225.2090806,287.4250781,66.40106058,93.91691748,3.60E-09,52.5902326,59.6125635,-59.14723818,1.60E-09,-538.6332238,,,,
506.7999996,1979,-43.97135789,-82.6385634,-39.49299067,-72.93008697,64.17757298,-50.86322755,63.89189218,290.3769033,-19.01174985,11.71902029,3.60E-09,-6.98420681,-33.85189028,-104.316261,1.60E-09,-530.3913445,,,,
506.8079996,1979,75.86212709,-28.7287898,68.66317935,55.40222507,161.943095,60.91829412,-179.5538282,293.3100505,-22.26753829,-10.68902461,3.60E-09,-38.61093732,-35.62565464,-140.9202386,1.60E-09,-522.1677472,,,,
506.8159996,1979,6.379554241,-27.7990581,16.93468108,-21.41413051,155.5314187,16.71025077,-50.49799637,296.2245201,76.54517019,86.37353582,3.60E-09,64.90606475,79.08386506,-9.323105141,1.70E-09,-513.9625706,,,,
506.8239996,1979,-4.353662727,-47.82462817,-5.407407056,-24.28721887,75.22173364,-14.1502556,10.83100073,299.1203096,-84.72167165,-53.99706007,3.60E-09,-80.79248422,-85.30970901,-162.0158181,1.70E-09,-505.7759536,,,,
506.8319996,1979,99.6144422,26.78459889,105.5210533,87.14762226,187.9865724,109.6474847,-204.1157458,301.9974172,82.57574378,114.9587817,3.60E-09,70.37331534,71.59946608,-23.37825649,1.70E-09,-497.6080304,,,,
506.8399996,1979,-33.75974142,-10.8437631,-30.0984819,-64.93800969,48.78675357,-39.79940495,95.37589625,304.8558442,1.806171736,24.04306651,3.70E-09,6.705832248,-14.74872995,-66.87015124,1.70E-09,-489.4589349,,,,
506.8479996,1979,82.09460436,39.48619144,73.02038566,68.53782762,99.93180345,75.82933554,-143.406375,307.6955878,-17.04253649,10.14883409,3.70E-09,-31.10739145,-36.9849713,-137.5995471,1.70E-09,-481.3288016,,,,
506.8559996,1979,1.233355935,32.74455804,8.619434765,-21.4966281,79.68285709,20.52766853,-2.706548035,310.5166469,76.89299421,106.3832714,3.70E-09,72.59144623,77.61795453,-16.86849359,1.70E-09,-473.2177594,,,,
506.8639996,1979,-14.57805414,8.664877486,-23.21269636,-35.33523683,5.048503652,-22.46084412,67.80327747,313.3190238,-84.81954328,-63.58074394,3.70E-09,-85.13607476,-84.12591725,-171.4937793,1.70E-09,-465.1259419,,,,
506.8719996,1979,93.61309015,83.58624887,90.59082845,81.94453412,135.9058979,102.7398238,-143.7570553,316.1027206,75.79159786,102.1474745,3.70E-09,58.069341,60.51740012,-44.01369974,1.80E-09,-457.0534822,,,,
506.8799996,1980,-60.43698954,25.85111199,-60.63226393,-84.49652891,4.500992612,-59.24731764,165.4081225,318.8677377,-13.89742057,18.06643938,3.70E-09,-3.593853414,-23.62425727,-78.53424644,1.80E-09,-449.0005045,,,,
506.8879996,1980,37.62388488,52.9117965,27.07639203,30.87104851,63.57357703,38.82496998,-70.91753472,321.6140777,-48.54090017,-23.21318825,3.70E-09,-57.80194171,-63.19082153,-146.1496356,1.80E-09,-440.9671404,,,,
506.8959996,1980,-34.45674621,48.20250902,-30.35073334,-51.46603941,55.98343803,-12.96538442,58.25505691,324.3417404,30.97392825,57.54405492,3.70E-09,29.69565485,18.65413929,-46.82721044,1.80E-09,-432.9535193,,,,
506.9039996,1980,-37.67393901,38.70719669,-45.8663979,-43.60686827,-8.67163202,-35.73456309,113.7535132,327.0507309,-116.2443968,-82.30509805,3.70E-09,-107.6936076,-123.5410809,-205.2714843,1.80E-09,-424.9597638,,,,
506.9119996,1980,78.49795869,118.4760397,80.13603249,84.29330462,131.1328639,106.9295919,-108.2583851,329.7410525,66.36372897,100.8321609,3.70E-09,56.26115564,60.38158393,-46.20018985,1.80E-09,-416.9860023,,,,
506.9199996,1980,-60.03245242,66.95451655,-62.60010188,-78.60340701,-3.173459192,-48.08686837,185.3412477,332.412708,-20.62725791,3.339066075,3.70E-09,-9.683437789,-25.1952517,-73.14548683,1.80E-09,-409.032358,,,,
506.9279996,1980,74.68056176,121.303626,56.81046569,66.3891514,77.14968177,71.93872687,-72.71552286,335.0657052,-34.66437568,-8.178121768,3.70E-09,-43.75548161,-50.27840796,-141.4953715,1.90E-09,-401.098953,,,,
506.9359996,1980,8.910695765,125.0856724,6.786010029,-15.73921313,85.77699884,20.64110841,54.22974501,337.7000429,82.78722624,113.3966545,3.70E-09,80.29554309,75.30432708,4.769049463,1.90E-09,-393.185912,,,,
506.9439996,1980,-33.78373764,84.56413435,-57.76599357,-60.72108334,-19.85198055,-51.89755568,117.8068625,340.3157289,-86.88500601,-73.31024602,3.70E-09,-86.98961957,-97.12785195,-169.3708055,1.90E-09,-385.2933545,,,,
506.9519996,1980,63.86433926,147.1355514,48.74396398,52.56940419,108.8484412,69.58301359,-98.11121702,342.9127719,43.07445657,64.45042275,3.70E-09,28.58573544,28.58883388,-83.06858042,1.90E-09,-377.4214027,,,,
506.9599996,1980,-57.29721874,112.1800155,-68.99266182,-81.46633914,12.36017565,-57.11029998,193.4819206,345.4911734,-31.41719789,1.512422062,3.70E-09,-16.83354931,-30.01814718,-100.3382933,1.90E-09,-369.5701775,,,,
506.9679996,1980,84.25767405,176.7494908,50.3605708,65.91531141,92.60622111,67.81717868,-75.09832269,348.0509429,-19.87743179,-3.817667571,3.80E-09,-31.24584973,-30.02072163,-136.0089807,1.90E-09,-361.7397926,,,,
506.9759996,1980,13.27896713,179.2163859,-1.304283115,-19.52595229,89.36325345,10.82580838,53.2468577,350.5920857,81.436096,89.37027087,3.80E-09,72.27000344,80.61345843,-6.602824355,1.90E-09,-353.9303706,,,,
506.9839996,1980,-30.47027138,138.6849353,-50.11731473,-50.54276653,2.337170409,-43.03009515,120.4355031,353.1146082,-91.2368359,-78.27726762,3.80E-09,-90.56312521,-80.3171685,-179.5284969,1.90E-09,-346.142028,,,,
506.9919996,1980,59.86195774,190.0702858,51.41149801,57.49334423,127.8216948,76.05361748,-92.46283938,355.6185225,52.96581179,66.68938333,3.80E-09,37.24690228,44.77488012,-80.25916181,2.00E-09,-338.3748744,,,,
506.9999996,1980,-64.85890345,140.6476598,-70.81235488,-82.22236705,0.763295952,-58.70894394,208.297761,358.1038326,-29.6815963,-20.59335729,3.80E-09,-26.27561398,-32.40093338,-105.2153161,2.00E-09,-330.6290306,,,,
507.0079996,1980,56.64627652,189.9916403,35.72791813,61.90373731,82.99459644,71.60237701,-55.99785724,360.5705473,-34.17293501,-15.59817824,3.80E-09,-43.0343823,-42.94285952,-141.7835426,2.00E-09,-322.9046087,,,,
507.0159996,1980,-37.9263774,171.4952363,-42.22461047,-39.50265974,113.2498606,1.959458522,73.02724736,363.0186785,44.94716545,76.62919072,3.80E-09,56.13828309,39.46326219,-34.62750609,2.00E-09,-315.2017217,,,,
507.0239996,1980,-34.64183553,151.9138458,-54.68551904,-39.08335312,62.56237171,-31.22010288,127.6915624,365.4482352,-118.9017828,-99.57350256,3.80E-09,-111.5686401,-122.3217428,-205.2876608,2.00E-09,-307.5204807,,,,
507.0319996,1980,92.45195672,238.1605948,82.30593087,101.4120292,193.0794581,121.9951828,-105.3924745,367.8592257,78.43468901,88.40214069,3.80E-09,57.36322011,51.68062378,-53.14837282,2.00E-09,-299.8609938,,,,
507.0399996,1980,-77.62320115,161.7997313,-85.0901599,-83.91212827,24.66439336,-52.55258685,197.0459809,370.2516617,-15.67341547,5.102810175,3.80E-09,-4.787393094,-13.1243175,-98.34717102,2.00E-09,-292.2233766,,,,
507.0479996,1980,54.69180779,210.1301955,27.42104036,57.23178017,90.8945568,65.19071954,-66.89999724,372.6255533,-48.6965873,-27.17962172,3.80E-09,-60.01803659,-46.09148188,-170.2154236,2.00E-09,-284.6077343,,,,
507.0559996,1980,6.528845202,235.2128269,-3.790554502,-0.352692835,112.8249903,39.22069195,44.56553104,374.9809123,81.22901383,103.0581864,3.80E-09,75.13626659,60.83879489,-10.56355177,2.10E-09,-277.0141732,,,,
507.0639996,1980,-41.89456518,182.1814707,-63.139043,-45.58284824,1.973275335,-26.62148068,110.3832516,377.3177519,-91.25943837,-65.0557468,3.80E-09,-79.45279742,-86.75536009,-176.9482304,2.10E-09,-269.4428044,,,,
507.0719996,1980,47.32940371,223.2698445,32.10142709,51.57385755,112.3226353,82.93464606,-100.142533,379.6360802,35.56675465,55.0886313,3.80E-09,23.86814822,34.4125704,-71.06813837,2.10E-09,-261.8937311,,,,
507.0799996,1980,-78.78629818,177.7591027,-95.31219227,-91.89148402,-4.063791109,-56.210114,188.4154197,381.935915,-35.21062427,-13.93535993,3.80E-09,-31.44980517,-53.16523968,-88.66662885,2.10E-09,-254.3670569,,,,
507.0879996,1980,71.2967503,248.8630903,41.10622277,76.75974599,87.19136996,91.10501886,-80.72233223,384.2172654,-31.26824418,-2.784446825,3.80E-09,-41.62171622,-35.30277624,-149.8837925,2.10E-09,-246.8628903,,,,
507.0959996,1980,6.362852412,261.9372973,-5.041202393,5.782958603,100.9944521,52.2441795,49.62747085,386.4801427,85.74358086,117.829084,3.80E-09,90.27141653,93.43593496,-20.0263875,2.10E-09,-239.381331,,,,
507.1039996,1980,-43.63092564,209.9490668,-67.07566107,-42.17666309,3.802971827,-22.0250327,109.941458,388.7245688,-84.60748427,-58.16060162,3.80E-09,-73.01592436,-90.66695045,-174.2161187,2.10E-09,-231.922478,,,,
507.1119996,1980,58.62795951,266.9251506,44.28380446,69.65846203,146.7590234,96.96673867,-113.3104068,390.9505509,48.95786314,67.74358335,3.80E-09,33.71965115,38.77045908,-65.97975358,2.10E-09,-224.4864369,,,,
507.1199996,1980,-74.51902385,219.2241448,-88.36383843,-82.55973544,46.45623246,-50.49708166,190.3059047,393.1581036,-20.56335803,0.938597214,3.80E-09,-12.22876652,-27.22080695,-89.03718055,2.10E-09,-217.0733098,,,,
507.1279996,1980,36.71872931,250.8527055,10.86101036,46.05807066,120.4261182,60.11443058,-66.85669943,395.3472482,-37.33565958,-17.97583165,3.80E-09,-49.50977225,-49.34704945,-148.3979561,2.20E-09,-209.683193,,,,
507.1359996,1981,-31.0057643,242.9830228,-37.69756595,-25.5612402,127.2508599,18.4510907,59.87250294,397.5179957,54.18725286,71.87997045,3.80E-09,42.91802721,51.08333546,-36.05050032,2.20E-09,-202.3161815,,,,
507.1439996,1981,-43.78759779,216.195728,-71.51827257,-38.30388247,43.49610186,-22.38309959,120.8471986,399.6703592,-97.68654016,-78.77885755,3.80E-09,-95.66221623,-109.6899875,-178.1170791,2.20E-09,-194.9723758,,,,
507.1519996,1981,54.80045348,277.5211979,34.06788245,69.67191856,177.3294158,95.20926634,-107.7108864,401.804359,48.22739708,68.65677273,3.80E-09,33.97782276,33.78998507,-57.22157915,2.20E-09,-187.6518732,,,,
507.1599996,1981,-76.82020031,233.22542,-83.77466558,-71.73902484,91.05466023,-42.85505355,187.5956708,403.9200128,-26.68080948,-4.532791289,3.80E-09,-18.71521604,-29.5386883,-95.49686315,2.20E-09,-180.3547674,,,,
507.1679996,1981,55.31973894,284.7621556,38.26068955,75.78296827,188.6320466,85.61893266,-61.7725807,406.0173348,-33.64133012,-8.328457098,3.90E-09,-37.51038482,-47.4000502,-145.2365389,2.20E-09,-173.0811523,,,,
507.1759996,1981,-35.6807612,264.4638873,-37.95022977,-32.4127686,168.206672,6.691501436,76.23139146,408.0963433,47.90703226,71.84454879,3.90E-09,46.72917558,40.52678881,-31.17943745,2.20E-09,-165.8311202,,,,
507.1839996,1981,-50.30191867,237.7061939,-69.97197967,-50.19010318,95.05764003,-41.8195052,142.5795003,410.1570571,-102.1146249,-87.15427542,3.90E-09,-105.7302607,-102.5269314,-186.5839675,2.20E-09,-158.6047665,,,,
507.1919996,1981,53.00323891,298.0399639,34.69472208,60.70282115,231.2900173,82.55753088,-72.89393151,412.1994939,53.7016403,72.5798161,3.90E-09,34.06843602,41.79918147,-71.99364511,2.20E-09,-151.4021831,,,,
507.1999996,1981,-107.2364935,224.158284,-121.2163812,-112.3024107,58.91947299,-85.85198248,226.6892018,414.2236692,-55.29608291,-34.86307496,3.90E-09,-47.64619689,-59.6790592,-133.3897944,2.30E-09,-144.2234564,,,,
507.2079996,1981,33.83937644,278.2750638,10.49221772,50.63781914,130.3339366,58.41083414,-37.2304101,416.2296058,-57.05951195,-40.38704168,3.90E-09,-69.29958945,-67.07493369,-180.2606763,2.30E-09,-137.0686793,,,,
507.2159996,1981,-23.63204791,275.8499428,-35.8900972,-20.86224592,144.9332574,22.52348909,88.3921442,418.2173239,63.72004752,80.08765317,3.90E-09,54.65182235,37.11101669,-41.56532688,2.30E-09,-129.9379408,,,,
507.2239996,1981,-19.07225888,252.6644918,-53.06878709,-20.97417582,73.57408745,-8.439026367,142.548817,420.1868392,-89.01091909,-74.91065118,3.90E-09,-90.97725202,-105.7343054,-188.8731059,2.30E-09,-122.8313248,,,,
507.2319996,1981,87.86774332,319.6787899,64.33788469,99.05748378,262.9595584,126.8983412,-78.29149641,422.1381763,78.80408869,93.08941396,3.90E-09,63.60551067,67.48955091,-44.8089066,2.30E-09,-115.7489205,,,,
507.2399996,1981,-105.0193759,225.3063706,-117.5852703,-107.0799095,127.330406,-71.47438328,235.8630657,424.0713526,-28.00328091,-15.09122713,3.90E-09,-17.96665786,-33.78394233,-115.7114643,2.30E-09,-108.6908154,,,,
507.2479996,1981,15.31294531,256.5535354,-6.131522797,31.24126933,164.6416479,39.4582087,-15.19162228,425.9863901,-72.58593534,-51.01210685,3.90E-09,-81.14822279,-74.70935478,-218.619156,2.30E-09,-101.6570909,,,,
507.2559996,1981,-12.18063485,283.9664795,-13.53331871,-2.148963985,189.8095682,38.59964318,112.0205048,427.8833114,56.82541197,75.22970071,3.90E-09,52.05851688,42.99002341,-49.22669839,2.30E-09,-94.647832,,,,
507.2639996,1981,-29.57514824,256.6627704,-44.80043233,-21.01689604,79.59270614,-7.190540946,172.7350506,429.7621341,-74.10044076,-69.81923645,3.90E-09,-74.93549957,-84.84158163,-161.9031311,2.30E-09,-87.66312337,,,,
507.2719996,1981,42.96142534,290.9079483,31.71179388,59.56452321,216.6824858,80.33328209,-42.19298236,431.6228852,55.88442709,70.051393,3.90E-09,41.81089052,54.79841283,-76.74239838,2.30E-09,-80.7030447,,,,
507.2799996,1981,-93.06914877,223.5316108,-103.8120045,-87.96730729,124.3408857,-60.04006415,263.2739921,433.4655859,-45.2672918,-29.96747695,3.90E-09,-33.26218403,-44.2463854,-132.3151306,2.40E-09,-73.76767867,,,,
507.2879996,1981,42.48448589,258.8349578,20.14316429,63.17815714,150.9384251,78.14411879,5.054268532,435.2902574,-44.85489636,-31.78574218,3.90E-09,-53.59678908,-54.81945641,-165.9614227,2.40E-09,-66.85710502,,,,
507.2959996,1981,-15.11286333,259.7538669,-20.53369552,-6.109381546,145.0803896,41.70765087,129.3166569,437.0969223,61.83507825,84.13656593,3.90E-09,56.60723212,42.07649957,-43.30218006,2.40E-09,-59.97140243,,,,
507.3039996,1981,9.261095718,265.0115783,-13.60819186,21.73715345,65.88998035,42.22157129,176.8202027,438.8856051,-65.29916913,-50.31005822,3.90E-09,-67.01582203,-71.97749894,-170.5748935,2.40E-09,-53.11065122,,,,
507.3119996,1981,87.53725443,311.7631387,75.90193283,109.4910213,153.7161554,147.7176852,-43.00460899,440.6563323,105.3354315,116.8235227,3.90E-09,83.51931253,105.0056734,-31.91008688,2.40E-09,-46.27492618,,,,
507.3199996,1981,-95.79698477,208.2322567,-105.2356371,-94.84710881,-7.60405807,-55.09460825,265.046489,442.4091264,-31.45730272,-15.70637595,3.90E-09,-35.53183709,-33.84183861,-121.6233647,2.40E-09,-39.46430424,,,,
507.3279996,1981,54.08394991,253.85204,23.64461043,67.45145408,64.0814219,80.52802963,0.505678859,444.144011,-48.50240143,-33.18097717,3.90E-09,-74.20424177,-48.00223285,-177.6114198,2.40E-09,-32.67886145,,,,
507.3359996,1981,-6.746013411,257.294052,-24.1909352,-3.410896059,88.49860468,45.62142068,123.4973172,445.8610105,81.42752741,100.20054,3.90E-09,64.58487545,70.46173638,-32.55881749,2.40E-09,-25.91867194,,,,
507.3439996,1981,-42.40345391,210.8326828,-75.93757185,-36.10196909,-12.51886745,-11.58623863,181.8204916,447.5601516,-85.94213966,-73.21335399,3.90E-09,-96.530018,-107.5830817,-193.5445705,2.40E-09,-19.18381092,,,,
507.3519996,1981,54.37135577,259.1278265,33.2447866,75.06130992,106.6890596,109.1810422,-34.98988452,449.2414605,62.58109693,71.46882778,3.90E-09,31.82302902,54.2982181,-70.84460182,2.40E-09,-12.47434995,,,,
507.3599996,1981,-75.18414724,202.7848944,-93.53657726,-68.76405739,-8.58906023,-30.93565255,265.2160418,450.9049619,-20.5551166,-8.49854765,3.90E-09,-31.08458049,-19.51818634,-115.8423978,2.40E-09,-5.79036095,,,,
507.3679996,1981,30.15866255,230.5796075,-4.061521579,52.46392378,34.81801651,70.48318108,11.76284811,452.5506828,-40.77249103,-30.9706905,3.90E-09,-66.49311537,-44.68146008,-165.2018523,2.40E-09,0.868087478,,,,
507.3759996,1981,-61.30940342,214.4336342,-74.09860004,-46.62556595,46.28617465,3.647573864,149.8319207,454.1786496,44.343067,59.71645223,3.90E-09,32.34004434,39.49886644,-45.22014154,2.50E-09,7.500922568,,,,
507.3839996,1981,-51.38757254,198.1140341,-80.83865234,-37.31606182,2.959439104,-14.84705367,203.1801018,455.7888902,-108.6393755,-95.32528433,3.90E-09,-118.1461999,-118.411186,-205.879779,2.50E-09,14.10807512,,,,
507.3919996,1982,42.78522663,244.5154565,21.99966914,65.93633511,141.936709,100.99054,-16.41646138,457.3814334,54.86125142,63.32833239,3.90E-09,23.45078332,43.33443416,-74.09442839,2.50E-09,20.68948029,,,,
507.3999996,1982,-105.6184878,184.6175846,-116.4039989,-93.07096208,36.99940753,-51.82224499,275.8459289,458.9563032,-37.06000723,-25.12502729,3.90E-09,-45.65661149,-45.21683843,-123.7947045,2.50E-09,27.24506678,,,,
507.4079996,1982,43.7912022,240.7101947,22.2044818,73.92854025,134.0016322,94.04602536,-3.243332824,460.5135278,-40.36170753,-28.01683931,3.90E-09,-68.72945359,-44.58917186,-169.247577,2.50E-09,33.77476987,,,,
507.4159996,1982,-29.70332767,227.5859246,-35.47977893,-9.874514719,151.4821966,44.58274241,127.1270265,462.0531398,76.29372248,93.45782822,3.90E-09,58.6913112,76.90918186,-15.31955552,2.50E-09,40.27852476,,,,
507.4239996,1982,-39.93987317,208.1133337,-64.80981009,-14.13398929,91.59180982,11.95398151,186.6699676,463.5751662,-79.92792742,-66.13130753,3.90E-09,-91.16884256,-88.53209063,-174.4727366,2.50E-09,46.75626587,,,,
507.4319996,1982,72.41453016,278.292028,56.3822555,111.8068491,246.2443384,143.8740305,-44.06789436,465.0796342,74.46047802,86.62911547,3.90E-09,44.57953713,57.04144098,-50.28017007,2.50E-09,53.20792945,,,,
507.4399996,1982,-72.57964588,216.8230535,-82.05355684,-52.4136926,80.19742858,-12.92930855,252.9132735,466.5665739,1.393129122,14.92795319,3.90E-09,-4.579934132,-18.25725369,-68.04099969,2.50E-09,59.63345493,,,,
507.4479996,1982,57.26456273,249.8605156,38.63979746,88.77697853,103.4424123,105.8931262,-2.508482989,468.0360164,-13.84670355,2.215033082,3.90E-09,-38.60834171,-19.50871465,-134.2030739,2.50E-09,66.03277979,,,,
507.4559996,1982,-20.85643706,232.3277239,-10.57406681,5.227972801,122.364291,55.09924748,126.7924848,469.4879933,76.06764644,101.0511624,3.90E-09,62.58360869,81.02808916,-13.86888694,2.50E-09,72.40584076,,,,
507.4639996,1982,-43.81549521,204.097255,-46.9711545,-13.33068378,19.5085414,18.16690242,179.7402545,470.9225329,-74.18585271,-63.58867836,3.90E-09,-85.42385626,-90.00676858,-162.231798,2.50E-09,78.75258172,,,,
507.4719996,1982,56.83807655,256.681118,55.5930525,92.40433172,129.6756713,126.8992216,-39.54023447,472.3396643,71.35377489,77.41559158,3.90E-09,38.83263106,56.98433089,-71.57133798,2.50E-09,85.0729402,,,,
507.4799996,1982,-101.3812918,184.2447792,-89.05264974,-74.10162035,-9.965806475,-39.57533339,260.6529778,473.7394199,-27.25613638,-7.818834516,3.90E-09,-30.4252671,-36.12916726,-112.0103679,2.60E-09,91.3668592,,,,
507.4879996,1982,28.14704878,224.4515117,35.96317927,76.11838448,50.83923993,94.28689187,1.402212488,475.1218308,-37.6785968,-15.56083207,3.90E-09,-58.75110145,-52.91236042,-158.0812933,2.60E-09,97.63428263,,,,
507.4959996,1982,-39.06494991,212.041169,-15.51143525,-10.2224238,72.12550299,33.35208609,134.728444,476.4869307,67.20163446,83.23974468,3.90E-09,51.84354729,68.48913505,-45.01423734,2.60E-09,103.8751499,,,,
507.5039996,1982,-72.71787962,167.846084,-61.51108335,-41.58936248,-42.41301432,-24.65614598,189.1553849,477.8347522,-94.82329586,-88.17928753,3.90E-09,-102.8257413,-97.59665521,-188.8680192,2.60E-09,110.0894096,,,,
507.5119996,1982,41.93685106,225.1060403,64.97092157,81.82926144,123.9123027,109.4695149,-35.37951124,479.165322,48.70038481,62.81781415,3.90E-09,21.20546492,36.52904121,-74.33718403,2.60E-09,116.2770076,,,,
507.5199996,1982,-77.92139404,179.5258601,-43.01276462,-59.15333881,58.05599001,-36.4338124,255.1545645,480.4786774,-15.58149522,-1.954098698,3.90E-09,-23.83910885,-18.11692026,-109.8808121,2.60E-09,122.4378889,,,,
507.5279996,1982,45.61166072,228.4194129,75.38885264,83.18629413,116.7023048,82.27970215,-6.641199142,481.7748524,-13.00983748,1.857723871,3.90E-09,-36.40749536,-20.52357161,-139.5722788,2.60E-09,128.5719973,,,,
507.5359996,1982,-30.20127964,217.3298533,16.36126139,-5.764353702,130.8006169,30.64772104,129.8908151,483.0538779,72.65805074,101.5644174,3.90E-09,60.00944955,70.1759234,-22.90647993,2.60E-09,134.6792836,,,,
507.5439996,1982,-38.52935424,186.7023142,-5.776830387,-19.90614173,41.81315685,-6.24205193,181.1489796,484.3157872,-78.69206986,-62.36260342,3.90E-09,-94.83254916,-78.40038981,-202.0520066,2.60E-09,140.7597002,,,,
507.5519996,1982,68.60888662,244.8149046,113.7713763,93.31202616,154.8097043,112.5138146,-49.83876065,485.5606125,85.63034625,97.40864889,3.90E-09,44.65511677,67.05467715,-81.73041239,2.60E-09,146.8131898,,,,
507.5599996,1982,-58.93448152,193.0070421,-8.391024159,-50.78554583,13.97668585,-27.47576765,229.1915235,486.7883933,3.057818809,25.63691247,3.90E-09,-11.25330882,-11.64162228,-110.3312532,2.60E-09,152.8397075,,,,
507.5679996,1982,80.46188865,243.7503166,119.3014839,105.1730853,85.5246393,113.3026757,-41.55960604,487.9991611,6.624486181,27.76205845,3.80E-09,-24.89562756,-8.348023259,-154.6165297,2.60E-09,158.8392058,,,,
507.5759996,1982,-25.19611009,209.7696059,35.6835257,-10.61417652,80.2669318,31.06404103,98.95357952,489.1929501,98.60463309,121.1382314,3.80E-09,70.09281464,80.37982795,-21.38688368,2.60E-09,164.811634,,,,
507.5839996,1982,-44.24659052,170.3814148,5.082399549,-23.5094585,-35.22819892,-9.034697642,149.5278886,490.3697972,-85.69981963,-62.08690941,3.80E-09,-111.5808595,-83.33182905,-198.6853446,2.60E-09,170.7569472,,,,
507.5919996,1982,85.31123269,248.8068626,138.815378,117.5593512,116.9632055,140.1064477,-83.91105496,491.5297339,84.84057768,108.870869,3.80E-09,42.039299,78.84031598,-61.93563429,2.60E-09,176.6750972,,,,
507.5999996,1982,-74.59140995,183.3149396,-22.70981493,-60.41424746,-19.83024276,-27.79809124,212.7926951,492.6727977,10.11181127,33.21798689,3.80E-09,-8.392428613,-5.001448873,-80.56776623,2.60E-09,182.5660401,,,,
507.6079996,1982,51.6814512,228.005548,91.7277237,84.70054526,45.64443966,99.37263515,-51.32507307,493.7990267,-28.87475662,-0.415009319,3.80E-09,-60.15340762,-36.94899866,-175.9601974,2.60E-09,188.429733,,,,
507.6159996,1982,-5.919554422,229.3070811,55.80170271,14.33745716,113.5158011,53.20583518,72.66022764,494.9084575,79.24218123,115.5112012,3.80E-09,59.10775845,62.73132165,-42.22456046,2.70E-09,194.2661313,,,,
507.6239996,1982,-34.80086485,186.2766597,13.41746791,-20.16964898,48.59342811,-5.680911136,130.3628375,496.0011236,-57.379673,-36.54699159,3.80E-09,-83.91576705,-70.68293128,-172.7900251,2.70E-09,200.0751934,,,,
507.6319996,1982,59.89873975,236.2798411,110.4930955,81.54408585,180.27045,108.6263551,-87.22890613,497.0770616,73.57335782,85.71011044,3.80E-09,23.08956436,66.33179016,-76.71326114,2.70E-09,205.8568768,,,,
507.6399996,1982,-65.15511261,188.0468732,-15.60179284,-60.91865357,82.18281245,-32.68252502,195.9917727,498.1363105,-16.27098228,-2.089726383,3.80E-09,-38.90122109,-26.90103935,-119.5522078,2.70E-09,211.6111407,,,,
507.6479996,1983,70.75983206,239.2288257,109.4854148,87.50294163,146.8787942,94.07462697,-73.34301195,499.178909,1.24099282,15.06275267,3.80E-09,-42.48593289,-4.458958715,-161.9226066,2.70E-09,217.3379461,,,,
507.6559996,1983,-7.599880901,224.9771483,43.27910515,-4.727000197,112.6525314,27.46275895,61.55479468,500.2048927,95.08610244,118.0067689,3.80E-09,60.02690447,100.9819723,-43.2214718,2.70E-09,223.0372531,,,,
507.6639996,1983,-21.57876187,196.8519508,6.855486159,-14.30489848,4.198435104,-9.67127291,111.0296935,501.214297,-75.70526328,-53.76841909,3.80E-09,-97.65754252,-82.66681268,-196.405911,2.70E-09,228.7090239,,,,
507.6719996,1983,76.4431081,262.7786637,114.004158,94.42544545,122.4691822,112.7769767,-110.5392527,502.2071624,81.33227399,99.61600424,3.80E-09,42.09712761,63.90652096,-74.05870291,2.70E-09,234.3532194,,,,
507.6799996,1983,-76.75409893,194.2138215,-33.50320654,-80.76744659,-18.74172426,-59.16557223,188.6759682,503.1835299,-5.419891036,9.501406958,3.80E-09,-30.75285283,-5.586272686,-125.6255628,2.70E-09,239.9698063,,,,
507.6879996,1983,34.64195843,217.7394885,66.54729473,47.10471752,29.46503823,47.92801966,-72.21475676,504.1434357,-31.68456322,-17.06723995,3.80E-09,-79.0785856,-33.92672461,-192.4656508,2.70E-09,245.5587473,,,,
507.6959996,1983,-33.13957512,209.4803502,13.26319536,-30.20230173,32.00754049,3.266470329,61.74976188,505.0869164,55.04690748,74.28443534,3.80E-09,21.62500097,51.02803756,-65.01418703,2.70E-09,251.1200041,,,,
507.7039996,1983,-31.21338715,187.8005716,-8.150609816,-32.66562978,-35.07228682,-25.58247891,111.481189,506.0140164,-82.68305688,-72.31392444,3.80E-09,-113.9110842,-87.90965988,-194.0123968,2.70E-09,256.653548,,,,
507.7119996,1983,63.09154945,240.8858314,92.25975883,72.12391336,104.0236794,88.89504087,-108.3369394,506.9247747,71.78791648,86.49222178,3.80E-09,18.00901202,57.76637643,-83.671642,2.70E-09,262.1593437,,,,
507.7199996,1983,-82.03728648,181.1627609,-47.87158004,-86.88190814,-7.35453287,-59.7345667,192.1647728,507.8192272,-26.49927192,-11.37873689,3.80E-09,-53.19862166,-31.35117697,-151.6023759,2.70E-09,267.6373596,,,,
507.7279996,1983,40.09363003,223.4082776,61.37974577,48.95724653,40.72701095,54.83891843,-66.69101557,508.6974145,-34.18549566,-27.01870389,3.80E-09,-78.86572714,-37.07985854,-201.0698343,2.70E-09,273.0875626,,,,
507.7359996,1983,-41.68017708,213.8748424,1.515212075,-40.07916397,15.51264377,-13.02047693,76.88326402,509.5593793,55.87268085,68.86390165,3.80E-09,17.22984587,54.17480632,-88.51830489,2.70E-09,278.5099214,,,,
507.7439996,1983,-46.16940833,199.8067388,-22.38527648,-43.6492071,-53.58978857,-39.43687227,126.6134762,510.4051607,-93.50708668,-82.83392485,3.80E-09,-126.1833363,-91.15114477,-238.9622992,2.70E-09,283.9044095,,,,
507.7519996,1983,49.86836733,262.1317132,71.67429807,59.77538513,79.73072361,79.63872235,-100.3168825,511.2347991,65.29531979,74.98451579,3.80E-09,14.58877678,65.61954673,-84.28043863,2.70E-09,289.2709951,,,,
507.7599996,1983,-100.4821588,193.334718,-76.33913063,-99.87138416,-27.4207485,-71.54394312,204.9641359,512.0483376,-35.84522232,-27.42195044,3.80E-09,-64.25247482,-35.36712478,-123.1777564,2.70E-09,294.6096482,,,,
507.7679996,1983,34.69709753,236.1320145,42.36833683,53.17400917,55.39047533,67.261985,-55.95227854,512.8458151,-51.99638158,-36.13656597,3.80E-09,-93.95955643,-64.81739507,-191.031246,2.70E-09,299.9203436,,,,
507.7759996,1983,-32.45729174,235.2057761,-7.788323287,-24.44263352,38.96676925,16.39854761,73.94247765,513.6272733,51.34208388,74.66915098,3.80E-09,20.55319243,38.25093157,-64.31064215,2.70E-09,305.2030575,,,,
507.7839996,1983,-34.16506229,224.1421445,-23.18972501,-22.94430329,-41.96316221,-7.883856342,116.1523858,514.392756,-76.08150468,-60.9217664,3.80E-09,-106.6698274,-75.31093777,-200.6160613,2.70E-09,310.4577607,,,,
507.7919996,1983,60.65623351,277.9503761,72.69712338,77.45880746,78.90387577,103.9059812,-106.4256819,515.1423051,77.33719151,96.51275812,3.70E-09,30.01152307,67.18512368,-88.09102722,2.80E-09,315.6844267,,,,
507.7999996,1983,-74.97178785,219.8389781,-61.44949204,-75.17197434,-36.03577807,-51.5401714,195.7750604,515.8759609,-26.21335117,-9.993078936,3.70E-09,-48.2033204,-28.292827,-133.4374436,2.80E-09,320.8830319,,,,
507.8079996,1983,61.59362808,279.5201018,61.96451265,74.44214804,43.88722382,79.65930734,-68.65893366,516.5937669,-8.96771774,2.490925271,3.70E-09,-53.213278,-4.743798709,-155.9733644,2.80E-09,326.0535558,,,,
507.8159996,1983,-56.86289716,237.9034725,-40.78938633,-56.44586078,5.180903485,-19.17600722,84.98927404,517.2957668,62.63304569,75.11622747,3.70E-09,26.71030513,50.53513033,-58.67391302,2.80E-09,331.1959751,,,,
507.8239996,1983,-60.10617637,208.8490745,-55.4156675,-54.18268407,-56.69091695,-45.19929588,144.5116796,517.982003,-121.9662926,-111.6916061,3.70E-09,-153.4986252,-126.4355044,-233.1698291,2.80E-09,336.310265,,,,
507.8319996,1983,83.13296708,301.9702505,93.65486533,94.70694067,98.40716269,118.7147808,-96.48446097,518.6525163,78.187624,94.81041296,3.70E-09,23.59863774,70.81058149,-74.49165096,2.80E-09,341.3964079,,,,
507.8399996,1983,-75.54906684,230.8557502,-63.00381267,-78.08454134,-49.30142587,-49.0836018,198.8597453,519.3073525,-3.176635558,3.831623745,3.70E-09,-37.49545928,-8.047339928,-117.1118782,2.80E-09,346.4543813,,,,
507.8479996,1983,48.26058006,272.7941433,51.82505182,67.06147863,27.69468271,75.18622249,-55.34405772,519.9465565,-18.23399988,-14.49484763,3.70E-09,-67.53228169,-15.11996249,-167.6777374,2.80E-09,351.4841641,,,,
507.8559996,1983,-28.24227533,259.4727949,-12.45824466,-23.36360856,20.0699309,13.39992651,83.68827111,520.5701679,77.58631248,92.62896866,3.70E-09,41.67497095,73.05032833,-47.50999186,2.80E-09,356.4857412,,,,
507.8639996,1983,-36.58100151,224.3922789,-38.73793713,-29.38513659,-53.08550156,-26.4904482,133.8056904,521.1782357,-88.66944597,-82.13624698,3.70E-09,-122.9200439,-92.57027095,-218.6090545,2.80E-09,361.4590955,,,,
507.8719996,1983,75.84995981,293.7797947,81.11251923,89.56747964,83.82343742,103.512524,-88.79370991,521.7708026,94.79983237,99.76142513,3.70E-09,40.47134064,85.33366129,-71.91431127,2.80E-09,366.4042066,,,,
507.8799996,1983,-92.63972805,211.0773752,-90.74156322,-101.0207448,-78.24414248,-82.39467569,212.2180011,522.3479113,-17.16130005,-11.52737244,3.70E-09,-42.91057317,-24.90561483,-137.769513,2.80E-09,371.3210583,,,,
507.8879996,1983,43.95515874,255.8541236,29.00002344,48.89548627,-1.709525494,45.75353743,-61.346475,522.9096092,-47.19628022,-45.1826117,3.70E-09,-93.7542139,-53.81790325,-209.5775106,2.80E-09,376.209637,,,,
507.8959996,1983,-19.8986062,264.0359257,-19.0741245,-25.7168432,4.470447441,6.402646818,72.82899716,523.4559386,82.35859138,92.19608297,3.70E-09,42.92081226,77.02098681,-50.5035615,2.80E-09,381.0699252,,,,
507.9039996,1984,-47.14566908,226.1078599,-55.91002903,-43.89352471,-73.79869276,-40.35989504,141.8000585,523.9869468,-92.62641946,-88.44286462,3.70E-09,-121.9713757,-88.99106148,-204.8760075,2.80E-09,385.9019105,,,,
507.9119996,1984,60.19542241,291.5503011,64.60861199,77.47478969,73.76724338,90.0257195,-74.75529704,524.5026791,57.5785137,57.27663392,3.70E-09,9.189919441,60.41489357,-78.32353089,2.80E-09,390.7055823,,,,
507.9199996,1984,-71.32057964,248.9909733,-68.63237966,-67.60018721,-42.27258753,-46.42719268,212.2080147,525.0031785,-4.478606371,0.488069075,3.70E-09,-31.27301633,-4.492338422,-108.6955818,2.80E-09,395.4809238,,,,
507.9279996,1984,55.30442211,296.5015519,46.46573653,78.8213491,40.42370131,83.4547703,-51.57175426,525.4884938,-11.71661854,-2.932439313,3.70E-09,-52.39326672,-17.57664177,-157.3809425,2.80E-09,400.2279242,,,,
507.9359996,1984,-62.47349912,247.5151757,-54.61011642,-51.46855084,4.435080553,-18.4652967,108.9694419,525.9586721,54.90600776,66.87642495,3.70E-09,29.64896414,55.32125268,-56.70367743,2.80E-09,404.9465749,,,,
507.9439996,1984,-81.93551991,193.502859,-100.0875969,-69.84750512,-91.66543106,-70.11571782,161.8034077,526.4137557,-136.8753521,-132.5463256,3.60E-09,-158.6621545,-128.7873103,-242.4020139,2.80E-09,409.6368633,,,,
507.9519996,1984,44.23431463,268.7514185,33.39697285,69.06828465,58.64789363,89.79232026,-75.16357693,526.8537943,35.5098866,46.8800246,3.60E-09,-5.397336539,37.02851969,-99.00020668,2.80E-09,414.2987812,,,,
507.9599996,1984,-111.8424771,205.2664229,-117.9664487,-103.5050229,-72.39054483,-71.58717404,228.2176902,527.2788339,-42.95793589,-29.03182701,3.60E-09,-57.46299989,-46.79410073,-156.6174844,2.80E-09,418.932319,,,,
507.9679996,1984,28.43999816,254.2697392,7.13723554,48.26342805,15.74009717,46.67029948,-40.6817979,527.6889183,-60.02659914,-56.28099588,3.60E-09,-95.25405382,-58.17869802,-216.0893715,2.80E-09,423.5374691,,,,
507.9759996,1984,-39.94605444,250.6849741,-39.65552342,-31.7680996,36.39255075,-3.923151681,92.49943592,528.0840994,50.65352104,63.34015388,3.60E-09,25.35412382,61.30025993,-66.63789997,2.80E-09,428.114225,,,,
507.9839996,1984,-66.07848411,219.3219044,-82.87942305,-58.72824664,-40.60779721,-52.73706646,156.5104232,528.464424,-103.0050559,-97.42554396,3.60E-09,-124.7078745,-107.7915053,-239.0793105,2.80E-09,432.6625794,,,,
507.9919996,1984,48.15113998,295.2147708,33.01385969,58.68054397,83.9278282,74.71810478,-61.21373074,528.8299358,48.61178239,42.22525818,3.60E-09,5.713588715,40.14133508,-112.9035904,2.80E-09,437.1825254,,,,
507.9999996,1984,-89.57393145,235.2142975,-105.1052153,-94.95180441,-51.87718443,-69.82689458,234.9128942,529.1806822,-37.92814378,-39.95996085,3.60E-09,-54.62821216,-36.37381013,-146.6454932,2.80E-09,441.6740586,,,,
508.0079996,1984,25.47339049,267.200928,-6.627023625,35.57512075,4.137153417,42.15946656,-24.76273917,529.5167163,-40.14501824,-41.85991547,3.60E-09,-77.5456981,-49.09775347,-199.7319405,2.80E-09,446.1371786,,,,
508.0159996,1984,-60.43659319,246.8236774,-74.71222491,-61.67753888,-15.15536021,-30.08331046,118.8439008,529.8380828,39.52828191,36.86217923,3.60E-09,9.873211431,42.58128531,-96.96975723,2.80E-09,450.5718779,,,,
508.0239996,1984,-59.13742368,223.3201254,-92.02310084,-53.69016437,-74.25047865,-51.76262925,160.9903227,530.1448286,-119.8065275,-123.8653126,3.60E-09,-141.0589456,-115.3147313,-257.7221401,2.80E-09,454.9781532,,,,
508.0319996,1984,54.06292487,304.3502118,22.46082047,66.73551039,61.0409444,82.7354474,-67.87709992,530.4370064,65.81317521,64.79219534,3.60E-09,28.65845279,52.66290315,-91.75841877,2.80E-09,459.3560046,,,,
508.0399996,1984,-98.32339639,236.6928586,-128.0248132,-106.9626355,-84.70581521,-87.00825611,232.9162828,530.7146591,-39.17079021,-40.32585365,3.60E-09,-52.22206352,-39.91510601,-152.4033655,2.80E-09,463.7054301,,,,
508.0479996,1984,27.40780121,274.3893802,-13.06452804,36.58995273,-7.33778943,37.29842868,-37.86157775,530.977839,-49.63969081,-52.86971627,3.60E-09,-84.91008432,-59.25479192,-214.9195691,2.80E-09,468.0264304,,,,
508.0559996,1984,-58.69370722,261.4948342,-78.50593513,-58.52875653,-23.73963998,-21.25084342,104.8168119,531.2265949,59.37841853,59.06909016,3.60E-09,32.24006156,42.66040849,-91.6461154,2.80E-09,472.319003,,,,
508.0639996,1984,-69.70658696,224.1142526,-102.9947297,-63.87637476,-103.7047374,-54.85088234,168.2183583,531.4609743,-123.3605331,-125.228979,3.50E-09,-141.4432513,-119.133578,-274.1726637,2.80E-09,476.5831486,,,,
508.0719996,1984,39.63411429,295.3134742,13.0418791,60.76866132,41.55819258,82.72155416,-47.1560895,531.681031,40.89329788,42.81355932,3.50E-09,6.158134704,41.46251351,-117.4705024,2.80E-09,480.818873,,,,
508.0799996,1984,-108.7401918,243.2974814,-135.202427,-109.3576438,-91.47661494,-79.6412439,260.6410779,531.8868084,-43.18906786,-42.34318914,3.50E-09,-58.93425173,-50.00473205,-163.5146459,2.80E-09,485.0261744,,,,
508.0879996,1984,31.27359577,292.4668845,-9.855885817,38.31956988,-10.97394244,44.18103802,-5.098818339,532.0783587,-57.82660628,-64.6208957,3.50E-09,-97.99224617,-58.88516022,-232.4464188,2.80E-09,489.2050553,,,,
508.0959996,1984,-39.19075025,283.4356531,-65.34793645,-40.99821005,-7.642048494,-2.770682986,119.9497185,532.2557344,64.87755759,59.27181719,3.50E-09,32.96760922,64.70523164,-77.23042557,2.80E-09,493.3555215,,,,
508.1039996,1984,-70.04446624,241.7135736,-114.7249271,-68.90492794,-95.05339168,-55.38328757,169.4324398,532.4189791,-106.0194755,-112.1003529,3.50E-09,-132.1630478,-113.2694269,-241.2114472,2.80E-09,497.4775784,,,,
508.1119996,1984,18.90178534,293.425375,-15.84341116,30.7895538,38.96184467,55.44361077,-41.24067377,532.5681473,22.21727459,19.51963825,3.50E-09,-20.2749234,18.61139623,-131.3052418,2.80E-09,501.5712287,,,,
508.1199996,1984,-95.32325558,249.6940716,-124.6513322,-96.10237692,-55.73532299,-68.26881101,248.6710942,532.7032903,-43.26668706,-51.37632655,3.50E-09,-65.22932803,-38.32284313,-158.1422578,2.80E-09,505.6364776,,,,
508.1279996,1984,63.04493353,317.8321341,18.45570881,71.55217907,49.29835278,75.51642855,-31.5583785,532.8244573,-20.28070788,-31.67000071,3.50E-09,-65.64509364,-22.94107601,-187.6041315,2.80E-09,509.673336,,,,
508.1359996,1984,-29.8643157,297.7257695,-58.4116536,-36.77123587,33.47285767,-1.401607471,112.8408217,532.9316984,79.34038782,80.33397281,3.50E-09,46.98105616,77.69817019,-66.52093373,2.80E-09,513.6818075,,,,
508.1439996,1984,-66.30012829,242.8894252,-110.3674414,-66.26562204,-85.21359668,-59.40562936,173.0596623,533.0250622,-97.85684586,-106.9075305,3.50E-09,-123.8508847,-99.1759321,-244.4615909,2.80E-09,517.6618994,,,,
508.1519996,1984,32.68090869,304.2574697,-2.221884447,46.01017122,39.48655363,60.634553,-37.91725995,533.1046041,47.75132349,36.94666954,3.50E-09,3.158633816,36.52184172,-120.7598149,2.80E-09,521.6136199,,,,
508.1599996,1985,-107.4327112,249.6256344,-137.8838629,-104.6772351,-81.87086145,-85.45198576,267.1081493,533.1703716,-39.51158675,-45.21541309,3.50E-09,-58.96545842,-42.35756276,-161.1471452,2.80E-09,525.5369805,,,,
508.1679996,1985,17.56244912,285.9942977,-29.75053898,38.86610526,-24.55851909,34.9299371,-5.429144108,533.2224171,-55.31152393,-66.08540961,3.50E-09,-93.39722348,-52.25378194,-208.375021,2.80E-09,529.4319922,,,,
508.1759996,1985,-42.90235078,281.4518268,-77.59146259,-35.63164873,-6.87400991,-9.789042533,125.1913153,533.2607938,46.74623391,48.87169316,3.40E-09,21.47122744,39.85148966,-75.74222415,2.80E-09,533.2986623,,,,
508.1839996,1985,-41.70426658,261.7086319,-92.39780806,-28.98813557,-67.73292579,-24.74985762,171.0368828,533.2855513,-90.99738303,-95.15600397,3.40E-09,-108.9812058,-94.15052502,-222.0470591,2.80E-09,537.1370027,,,,
508.1919996,1985,37.13358508,311.4985841,-5.788170353,60.41983802,36.53605246,74.99771205,-47.6740538,533.2967434,61.38081844,51.46151431,3.40E-09,23.41566687,68.6894092,-97.48710434,2.80E-09,540.9470248,,,,
508.1999996,1985,-113.5058442,234.9168189,-152.5844839,-108.5807299,-95.35256146,-92.63938173,253.2784127,533.2944165,-49.77084656,-51.81807292,3.40E-09,-65.85222203,-49.28354073,-169.1480407,2.80E-09,544.7287426,,,,
508.2079996,1985,25.63861662,279.6841484,-21.06559947,54.8215989,-4.312344429,53.70272203,-14.63314507,533.278627,-55.37424495,-67.30174317,3.40E-09,-91.61668606,-58.89636248,-214.924817,2.80E-09,548.4821718,,,,
508.2159996,1985,-53.08513352,276.1425372,-80.52855478,-33.63156818,3.769525353,-7.17504065,128.3563515,533.2494293,57.59976707,46.82944293,3.40E-09,29.33088306,59.73737018,-61.61269102,2.80E-09,552.2073221,,,,
508.2239996,1985,-63.06929648,246.6340267,-108.7887556,-47.33162455,-72.11582083,-50.8311523,184.3141988,533.2068681,-102.3337883,-112.7200869,3.40E-09,-126.2653844,-105.2807545,-233.2855018,2.80E-09,555.9042086,,,,
508.2319996,1985,37.64313813,303.3881254,-3.073365195,60.31253245,53.5791317,72.29877014,-32.82874251,533.1510003,49.82160942,38.43843459,3.40E-09,8.940354812,49.19115585,-114.4458585,2.80E-09,559.5728495,,,,
508.2399996,1985,-114.6181091,236.7981132,-154.9871778,-112.6955082,-85.49905062,-94.00483796,260.645386,533.0818812,-40.12150951,-51.94095863,3.40E-09,-62.12258514,-34.23463783,-149.5292629,2.80E-09,563.2132565,,,,
508.2479996,1985,16.33689011,281.3913809,-37.72955666,37.77670316,-25.30177122,36.75518481,-16.0370348,532.9995601,-53.93902601,-77.13491284,3.40E-09,-101.6709067,-51.94743068,-209.9614533,2.80E-09,566.8254497,,,,
508.2559996,1985,-43.99307756,283.844294,-83.2915057,-29.04986157,-13.72879896,0.376493776,116.272867,532.9040887,49.66571429,33.29081616,3.40E-09,17.73804665,46.90784211,-73.34836485,2.80E-09,570.4094455,,,,
508.2639996,1985,-50.23921247,269.2991391,-104.9857889,-33.28760739,-69.61200432,-28.10868716,162.8760032,532.7955205,-93.41750145,-101.7523957,3.40E-09,-113.3241413,-106.0685779,-225.0979363,2.80E-09,573.9652592,,,,
508.2719996,1985,24.96007449,313.5013895,-19.26942352,50.87579138,29.29169718,69.35798195,-48.05419027,532.6739109,50.72952464,44.95932355,3.30E-09,13.83312534,44.75376525,-113.017668,2.80E-09,577.4929134,,,,
508.2799996,1985,-121.6526605,234.8083653,-166.4594662,-115.2419141,-122.5200184,-94.52302309,251.6711734,532.5393124,-62.09983747,-67.04298878,3.30E-09,-74.19555351,-55.27127744,-157.548791,2.80E-09,580.9924236,,,,
508.2879996,1985,28.60371675,294.5077058,-30.50818219,51.61471265,-20.86252596,51.1974679,-24.83995693,532.3917766,-50.74518603,-58.81594915,3.30E-09,-86.31420337,-49.29505847,-197.0504186,2.80E-09,584.4638101,,,,
508.2959996,1985,-68.8238884,269.6138882,-106.7482014,-56.07666045,-28.36194473,-28.08472027,127.0223783,532.2313557,53.0639939,44.29752855,3.30E-09,25.39191631,54.42811195,-69.34910478,2.80E-09,587.9070953,,,,
508.3039996,1985,-69.22866193,230.2101268,-123.0904994,-54.08382513,-93.83070175,-56.07845003,180.2736611,532.0581068,-131.9231129,-149.2522597,3.30E-09,-152.1250413,-129.249345,-248.488502,2.80E-09,591.3223001,,,,
508.3119996,1985,60.93930086,308.5428379,14.54642136,84.90157474,75.02099802,95.3934829,-53.61105819,531.8720832,57.12126186,45.51114162,3.30E-09,19.88258514,60.34496102,-97.05345371,2.80E-09,594.7094439,,,,
508.3199996,1985,-112.75814,224.5801691,-157.2816206,-111.1690987,-77.08227037,-94.57073031,253.5310924,531.6733355,-21.51769865,-34.564979,3.30E-09,-36.58259331,-17.48130983,-129.7296532,2.80E-09,598.0685491,,,,
508.3279996,1985,20.73857689,264.7573286,-39.02473401,38.75747301,-2.543262759,35.08205949,-10.34943644,531.4619209,-62.06536593,-87.4807618,3.30E-09,-102.8972938,-66.6474127,-225.7340763,2.80E-09,601.3996433,,,,
508.3359996,1985,-45.9212903,267.5799376,-81.89396803,-32.7623309,11.21285663,-5.873140286,125.1520399,531.2378908,53.4682161,38.4987748,3.30E-09,21.83101069,51.477798,-80.01157707,2.80E-09,604.7027443,,,,
508.3439996,1985,-70.07016619,228.9890039,-118.4900787,-50.55067128,-81.44888184,-54.34539903,179.7771759,531.0013004,-103.7636014,-120.8727099,3.30E-09,-128.9989567,-103.4783479,-214.6708174,2.80E-09,607.9778758,,,,
508.3519996,1985,47.24844582,298.6281575,6.171041145,80.19621048,58.90045406,88.64076276,-47.37290244,530.7522041,53.34758426,31.68495414,3.30E-09,9.106713875,50.15511202,-94.29372296,2.80E-09,611.2250662,,,,
508.3599996,1985,-108.5111057,223.5973597,-144.0774278,-92.67560071,-80.86209425,-70.01062903,253.0393406,530.4906547,-29.75638605,-46.34626756,3.20E-09,-48.91601637,-24.71295477,-146.3727218,2.80E-09,614.4443413,,,,
508.3679996,1985,9.426056033,245.1360313,-42.52104133,35.9518683,-24.34068783,36.30331564,-3.967529847,530.2167112,-58.01310896,-75.83551022,3.20E-09,-101.8899717,-54.44105477,-215.2536705,2.80E-09,617.6357262,,,,
508.3759996,1985,-52.38062455,241.3983576,-88.29181269,-37.41838621,-6.737994169,-15.51468406,133.7948978,529.9304232,46.36329575,34.22147688,3.20E-09,14.85313202,49.21264664,-71.42026274,2.80E-09,620.7992448,,,,
508.3839996,1985,-53.89763883,219.8296539,-105.1831328,-36.64568343,-70.79974974,-40.50832421,177.0243835,529.6318451,-104.4817442,-120.5777844,3.20E-09,-122.7863555,-107.0608092,-224.1029366,2.80E-09,623.9349256,,,,
508.3919996,1985,59.70725605,285.8093736,13.84991136,82.57638949,53.59072704,89.71891269,-50.02530908,529.3210381,64.61035702,40.31878599,3.20E-09,21.9684779,54.27576491,-91.59057011,2.80E-09,627.0427995,,,,
508.3999996,1985,-76.28899879,228.0496638,-120.0733069,-69.31590076,-77.22994827,-59.22333345,245.4259861,528.9980495,-12.00262581,-33.82823112,3.20E-09,-31.06644761,-9.567982514,-118.4661886,2.80E-09,630.1228934,,,,
508.4079996,1985,58.98250096,281.1691048,-0.635123557,77.09706386,1.253979271,68.00900524,-20.80103954,528.662935,-20.04007329,-34.8745339,3.20E-09,-52.91944585,-19.0542848,-181.1061386,2.80E-09,633.1752312,,,,
508.4159996,1986,-36.59081028,249.4685967,-79.80089494,-36.15743097,-23.44440331,-18.05129667,126.0147239,528.3157548,70.5258918,54.62017275,3.20E-09,43.67462074,70.13558621,-70.97096341,2.80E-09,636.1998461,,,,
508.4239996,1986,-58.60682001,194.4918445,-117.9741556,-53.07979065,-106.5655509,-60.25533397,178.9964111,527.9565603,-103.4844458,-129.42668,3.20E-09,-129.1304536,-109.0426212,-241.6532761,2.80E-09,639.1967718,,,,
508.4319996,1986,58.18608474,264.7838416,2.748783859,73.65354064,41.15387472,82.46702899,-44.65494139,527.5854065,60.13096859,40.57322445,3.20E-09,16.88549362,41.94814715,-103.0433093,2.80E-09,642.1660341,,,,
508.4399996,1986,-98.78174692,193.588615,-152.7814947,-97.92747342,-106.5928036,-84.49422999,254.384715,527.2023516,-31.98981641,-48.27890536,3.20E-09,-49.57860125,-38.02477069,-142.4022671,2.80E-09,645.107666,,,,
508.4479996,1986,35.17883779,237.8951058,-30.39383006,51.61615056,-28.86790986,44.9306636,-17.88338543,526.8074488,-37.14846025,-58.70553996,3.10E-09,-80.38540601,-43.36005895,-204.4133005,2.80E-09,648.0217,,,,
508.4559996,1986,-33.79818563,230.3974347,-80.92293203,-32.06858851,-18.74001008,-7.818126429,117.0979311,526.4007512,69.41797397,48.40546608,3.10E-09,27.84826678,66.08864279,-71.54570374,2.80E-09,650.9081671,,,,
508.4639996,1986,-73.45124972,179.4961334,-135.5236779,-66.37826826,-117.2202942,-64.36081271,174.6636537,525.982318,-99.93537897,-124.1986176,3.10E-09,-131.9174307,-95.10682676,-227.89205,2.80E-09,653.7671019,,,,
508.4719996,1986,15.47237298,227.7297962,-38.05445078,30.03586934,2.491759303,44.59301369,-31.98713409,525.5522033,38.0506815,18.24282484,3.10E-09,-6.739718824,31.30500493,-124.4607081,2.80E-09,656.5985355,,,,
508.4799996,1986,-129.1022295,156.9916044,-181.0035504,-135.0068247,-130.4018399,-122.1181366,266.2684539,525.1104633,-69.62422337,-89.24943046,3.10E-09,-95.63601887,-77.12783955,-185.3497624,2.80E-09,659.4025046,,,,
508.4879996,1986,3.928206749,203.2380886,-57.99133758,16.19241042,-43.49716193,6.694768876,-7.843433132,524.6571539,-58.03193369,-82.10187171,3.10E-09,-109.053035,-62.41294815,-225.0169789,2.80E-09,662.1790439,,,,
508.4959996,1986,-73.3646112,177.0576532,-113.2346657,-66.45242904,-36.8841624,-45.24004184,144.7289861,524.1923291,35.80893989,17.94804818,3.10E-09,-0.26063108,38.31596182,-108.7700835,2.80E-09,664.9281854,,,,
508.5039996,1986,-82.70408949,139.8350085,-139.2309909,-65.03212252,-114.8782442,-70.02125436,199.6672373,523.7160485,-133.5270833,-149.1740725,3.10E-09,-157.6551425,-129.4342344,-262.1254214,2.80E-09,667.6499663,,,,
508.5119996,1986,28.7302594,223.9442918,-21.04703938,56.41136659,28.38786828,63.97712597,-28.05420102,523.2283668,49.78553858,32.76092418,3.10E-09,5.682937167,52.08438238,-103.6113798,2.80E-09,670.344427,,,,
508.5199996,1986,-120.6787003,148.3988353,-171.9082482,-114.0921858,-101.5635399,-100.2330084,270.8749962,522.7293368,-52.63405654,-71.92297883,3.10E-09,-71.73841488,-50.06860961,-157.5688036,2.80E-09,673.0116007,,,,
508.5279996,1986,25.48130378,185.3419608,-39.80275609,47.46836535,-6.473776957,41.31601572,-5.737546837,522.2190189,-54.68321395,-71.21921216,3.00E-09,-91.26883377,-62.66430998,-210.4918378,2.80E-09,675.6515243,,,,
508.5359996,1986,-35.74914104,188.1302687,-81.80543324,-29.56055646,9.646602304,-7.629619908,121.9351057,521.6974674,71.103358,56.51354326,3.00E-09,39.5442938,69.00255723,-64.19864159,2.80E-09,678.2642386,,,,
508.5439996,1986,-58.48863606,147.0861373,-125.7318364,-52.94164922,-84.19575845,-54.8848724,179.1168626,521.1647366,-104.6331608,-127.3568992,3.00E-09,-131.7730526,-103.8886982,-225.7811185,2.70E-09,680.8497799,,,,
508.5519996,1986,43.25419296,199.3985478,-20.81708476,59.35157909,43.80082808,72.95138655,-29.26467741,520.6208877,51.6992946,36.26624875,3.00E-09,11.81834749,45.91831128,-96.17524539,2.70E-09,683.4081878,,,,
508.5599996,1986,-113.9628721,118.7370428,-176.5935559,-118.0054849,-101.9486293,-100.5453609,271.5932289,520.065974,-38.87539424,-48.80810557,3.00E-09,-52.14072775,-54.88677775,-153.9269826,2.70E-09,685.9395017,,,,
508.5679996,1986,4.973605796,145.6860467,-65.52354773,19.83062294,-33.88922518,17.82135012,12.09727483,519.5000517,-69.43284673,-86.72747432,3.00E-09,-106.3337257,-88.57830311,-238.2605071,2.70E-09,688.4437619,,,,
508.5759996,1986,-60.19227527,143.5437373,-109.4218735,-53.93807447,-1.451190025,-23.43640415,152.7586806,518.9231795,31.88236443,20.47961558,3.00E-09,3.241051552,37.02387693,-100.6511106,2.70E-09,690.9210095,,,,
508.5839996,1986,-70.33665923,107.720987,-141.518251,-67.53802771,-41.27172606,-65.14233489,192.1908477,518.3354131,-119.5547703,-131.6389408,3.00E-09,-140.6429808,-126.2721448,-245.6769827,2.70E-09,693.371287,,,,
508.5919996,1986,31.80140044,166.7050253,-32.55651914,44.2441687,120.0926663,57.81198917,-23.20940239,517.736807,39.39970079,22.4286824,3.00E-09,-1.87236795,19.33361245,-119.6768251,2.70E-09,695.7946331,,,,
508.5999996,1986,-107.0792001,116.8250555,-164.3670256,-114.2378507,-25.22056403,-95.75110639,280.7894165,517.1274192,-45.82767008,-67.12262488,3.00E-09,-67.25627729,-47.01883214,-158.8056891,2.70E-09,698.1910909,,,,
508.6079996,1986,31.8156328,156.8596466,-37.15205823,31.99574531,20.45658185,31.23703687,9.384568021,516.5073078,-48.36604747,-78.25037159,2.90E-09,-92.08298376,-64.74222467,-220.6918079,2.70E-09,700.5607063,,,,
508.6159996,1986,-38.21839412,139.0169593,-82.84121093,-45.04151383,21.01690943,-11.84396563,151.5896922,515.87653,55.80029382,33.66513493,2.90E-09,21.58182538,33.75953131,-96.93290826,2.70E-09,702.9035187,,,,
508.6239996,1986,-39.39266399,117.7433419,-91.84467248,-39.31273618,-63.28583717,-36.46794374,198.3335587,515.2351393,-92.48984048,-107.5822983,2.90E-09,-121.2994606,-98.59439642,-242.8214877,2.70E-09,705.2195724,,,,
508.6319996,1986,73.2651873,189.3907678,33.17201075,75.9645279,72.68493064,86.34362664,-32.61913306,514.583194,78.70634717,58.20160865,2.90E-09,30.39461837,76.15018178,-91.87183917,2.70E-09,707.5089139,,,,
508.6399996,1986,-85.42059538,116.058448,-108.2941318,-97.05706623,-31.36371801,-80.10873226,271.6131348,513.9207554,-17.36842233,-41.17120378,2.90E-09,-46.45559739,-18.00012338,-132.2125936,2.70E-09,709.7715873,,,,
508.6479996,1986,44.55480728,158.6840428,21.16960885,53.03985643,90.53157239,49.48965739,15.34334845,513.2478757,-22.11340858,-36.3323826,2.90E-09,-73.89073413,-38.03768245,-203.7473429,2.70E-09,712.0076355,,,,
508.6559996,1986,-11.97349683,157.8942084,-18.84208602,-22.74441577,147.9610751,0.037700495,145.9898872,512.5646123,83.76132819,74.18233376,2.90E-09,42.29730753,57.583659,-71.2838101,2.70E-09,714.217106,,,,
508.6639996,1986,-35.05642252,108.2215155,-59.96978437,-48.93356541,48.58314154,-56.44378881,185.7529994,511.8710231,-84.79296652,-102.3544723,2.90E-09,-123.869871,-96.77880673,-225.575736,2.70E-09,716.400048,,,,
508.6719996,1987,38.61552824,146.364301,21.60510296,31.94179787,125.350377,39.23900949,-25.4734713,511.1671662,67.49187926,54.04282575,2.90E-09,7.2774317,68.85339504,-109.718406,2.70E-09,718.5565043,,,,
508.6799996,1987,-104.5439502,83.59819973,-117.3269855,-127.0166053,-1.435021225,-115.1713874,278.7391086,510.4530977,-42.44342184,-55.15395191,2.80E-09,-78.96199962,-51.50603563,-170.7639733,2.70E-09,720.6865226,,,,
508.6879996,1987,38.30517398,163.8127164,17.83337565,38.38163746,75.70986116,28.17035203,12.42196969,509.7288751,-54.55603372,-66.58240364,2.80E-09,-109.2274816,-79.12397277,-228.697176,2.70E-09,722.7901527,,,,
508.6959996,1987,-42.4267449,171.618575,-40.58514919,-55.35074617,68.43412995,-34.09179102,155.2939483,508.9945573,65.20092436,59.21148273,2.80E-09,17.9584858,53.89496737,-77.87495718,2.70E-09,724.8674402,,,,
508.7039996,1987,-48.39252654,89.14230915,-69.71244962,-68.0779761,-8.310940972,-77.93726474,192.7407543,508.2501987,-95.00999874,-107.1697998,2.80E-09,-142.9501557,-108.467059,-231.7600558,2.70E-09,726.9184381,,,,
508.7119996,1987,64.42587307,132.8605378,47.70658193,55.31963612,116.9545643,57.25285659,-34.61474207,507.4958582,55.33262533,42.10006489,2.80E-09,-11.61458508,32.04041699,-119.3557484,2.70E-09,728.9431913,,,,
508.7199996,1987,-70.38060064,89.65408215,-70.48351655,-88.58371889,-0.149838269,-77.63973568,265.7397109,506.7315919,-16.64595735,-30.68256676,2.80E-09,-58.34102295,-15.95586056,-143.9533617,2.70E-09,730.9417496,,,,
508.7279996,1987,83.19978096,139.6944305,72.80250453,82.0351787,80.61542783,73.62745264,-10.48309626,505.9574586,4.843413595,-7.723684203,2.80E-09,-53.38441834,6.659122847,-163.4758078,2.70E-09,732.9141644,,,,
508.7359996,1987,-3.331880059,132.213701,-2.478502491,-18.71112673,44.76730823,-0.331898088,129.1508256,505.1735154,100.1462398,92.80472768,2.80E-09,52.24270178,85.20553939,-40.55085779,2.70E-09,734.8604863,,,,
508.7439996,1987,-51.68987499,69.29624917,-64.73181757,-69.04595445,-77.91302635,-79.09282579,182.6232649,504.3798197,-81.32146215,-97.05321193,2.80E-09,-129.3587048,-93.57495143,-222.5227883,2.70E-09,736.7807697,,,,
508.7519996,1987,40.6508232,112.9510004,35.64287258,30.2239608,32.10895456,36.26922924,-35.48585117,503.5764304,54.35098848,39.22679288,2.80E-09,-10.95688489,40.71028498,-117.1473969,2.60E-09,738.6750599,,,,
508.7599996,1987,-92.36239633,65.81052712,-96.83506642,-120.5990601,-86.26503319,-108.8521343,258.6810922,502.7634011,-44.81861841,-54.9235341,2.70E-09,-85.56529159,-67.98478673,-170.7149348,2.60E-09,740.543411,,,,
508.7679996,1987,48.86514655,114.5707431,29.36268109,35.1105662,-4.054716723,29.31713455,-23.95241191,501.9407928,-35.41980108,-47.99878319,2.70E-09,-99.34002873,-49.81305109,-215.2353049,2.60E-09,742.3858777,,,,
508.7759996,1987,-32.44437821,98.76262421,-32.32691255,-52.40489031,-1.098440235,-24.15773402,117.0672979,501.1086625,68.09912917,57.50475216,2.70E-09,16.38277001,72.05315555,-75.1592831,2.60E-09,744.2025129,,,,
508.7839996,1987,-48.75535933,65.87938195,-64.37070622,-68.01604078,-73.69712706,-64.24613778,169.3054467,500.2670674,-91.25047345,-106.5379394,2.70E-09,-136.9776265,-101.7537984,-220.9473386,2.60E-09,745.9933685,,,,
508.7919996,1987,63.95984899,134.4110768,49.26109425,47.12039668,42.0187269,64.35119324,-53.01688379,499.4160652,54.66421391,40.55706842,2.70E-09,-9.276561344,41.82631914,-113.2043057,2.60E-09,747.7584957,,,,
508.7999996,1987,-53.17863686,93.46454923,-63.91422171,-82.26572926,-61.52451354,-61.82081306,244.6719919,498.5557122,-25.43275498,-29.23964032,2.70E-09,-61.7495408,-28.98968677,-145.599076,2.60E-09,749.4979528,,,,
508.8079996,1987,88.18095875,155.3817231,63.29496815,72.66701528,22.33482648,74.01567967,-26.91851096,497.6860682,7.201726642,0.191842179,2.70E-09,-49.83626456,-13.41220477,-160.7798442,2.60E-09,751.2117939,,,,
508.8159996,1987,-3.458848784,136.4437441,-16.65842844,-33.35444966,-16.10809326,-6.732219003,112.9960786,496.8071891,90.02259422,81.1679596,2.70E-09,42.39502096,74.1232486,-53.18244434,2.60E-09,752.9000731,,,,
508.8239996,1987,-16.35654833,109.3402372,-43.95324853,-40.70142854,-86.38561492,-39.64095781,158.5145019,495.9191331,-77.20113329,-81.07265106,2.70E-09,-113.8576146,-96.41585974,-205.0859264,2.60E-09,754.562848,,,,
508.8319996,1987,76.46423333,167.9209259,59.51468438,57.64696601,37.23958496,76.24042147,-50.57032546,495.0219593,82.997454,76.61689781,2.60E-09,24.44216211,59.06956152,-77.464025,2.60E-09,756.2001698,,,,
508.8399996,1987,-75.66307359,89.42638231,-81.57751994,-105.701049,-99.72931428,-90.85578512,262.8166453,494.1157226,-30.02971497,-42.83386105,2.60E-09,-74.0652782,-29.30976557,-143.3884662,2.60E-09,757.8120975,,,,
508.8479996,1987,76.62315811,158.228477,57.26204512,69.34979409,0.702042988,66.70220191,-10.90198166,493.2004812,-14.63684187,-24.73888175,2.60E-09,-73.24232909,-21.7284336,-168.2132009,2.60E-09,759.3986901,,,,
508.8559996,1987,-1.511277402,154.3084873,-9.842587792,-22.98252568,-6.674729612,5.23377308,127.9393923,492.2762944,94.49355944,91.8348451,2.60E-09,51.65613582,73.91449481,-41.12540009,2.60E-09,760.9600017,,,,
508.8639996,1987,-40.28953417,96.70898705,-59.12799376,-61.13553797,-83.22084283,-68.39570513,185.3193543,491.3432195,-89.53387398,-95.94981332,2.60E-09,-130.5134278,-102.8013306,-218.2895307,2.60E-09,762.4960925,,,,
508.8719996,1987,54.00322521,152.1079441,42.28066651,42.902013,89.59469969,54.42964128,-22.99364298,490.4013158,60.93757243,54.89299994,2.60E-09,3.349091834,44.61347692,-92.26281899,2.60E-09,764.0070191,,,,
508.8799996,1987,-98.92891156,79.44436226,-109.8784361,-122.7045974,-25.08480699,-102.1742175,281.4300038,489.4506374,-44.56396889,-49.42565457,2.60E-09,-75.6546396,-61.36417746,-147.9784122,2.60E-09,765.4928403,,,,
508.8879996,1987,36.50698451,126.4886777,14.47387747,29.12608553,19.9305396,27.99392096,7.407380202,488.4912417,-58.72041321,-65.72348928,2.60E-09,-110.4426558,-72.89810906,-196.6058381,2.60E-09,766.9536157,,,,
508.8959996,1987,-8.642233894,140.0626045,-14.8718528,-28.47394013,7.333050826,1.946312515,137.7010553,487.5231911,68.84519364,68.60591273,2.60E-09,28.8974327,58.12009263,-44.91172084,2.60E-09,768.3894038,,,,
508.9039996,1987,-24.98720825,107.8203517,-44.60650169,-42.94973948,-77.05977633,-39.29576319,181.7715624,486.54654,-71.75359481,-76.79407899,2.50E-09,-107.0588983,-87.4290845,-186.9073581,2.60E-09,769.8002642,,,,
508.9119996,1987,44.71267044,147.1382117,33.03824419,32.46369763,21.71378978,47.46080372,-21.54335915,485.5613442,59.37298313,50.59413891,2.50E-09,4.528788648,39.76211034,-81.63316961,2.50E-09,771.1862567,,,,
508.9199996,1987,-86.40552228,91.96478538,-99.43854922,-116.2257647,-97.83933547,-99.53165901,282.0122722,484.5676645,-45.15270767,-54.76079644,2.50E-09,-76.79477944,-56.64051563,-146.3050337,2.50E-09,772.5474416,,,,
508.9279996,1988,79.21760334,173.9040137,52.81682569,63.1240659,8.566471403,58.08887074,-3.368635625,483.56556,-17.34542908,-28.65436595,2.50E-09,-72.124034,-40.75200598,-175.4787284,2.50E-09,773.8838809,,,,
508.9359996,1988,-1.389728076,160.3393388,-9.662926136,-28.99678778,-2.973026332,-4.880409267,131.5296672,482.5550836,90.77590784,88.97105994,2.50E-09,48.44477979,60.95993188,-40.314079,2.50E-09,775.1956376,,,,
508.9439996,1988,-20.05299815,110.9102934,-42.15184817,-43.93490499,-74.90382384,-48.86397708,177.1092731,481.5362946,-78.04063641,-82.65715606,2.50E-09,-113.3343079,-92.19071842,-202.4082322,2.50E-09,776.4827695,,,,
508.9519996,1988,70.25944795,163.6281332,57.45591173,51.48516062,72.95159963,59.58198992,-36.05487636,480.5092552,75.44890216,73.4737411,2.50E-09,21.14648208,69.62258216,-75.62954345,2.50E-09,777.7453406,,,,
508.9599996,1988,-85.24820393,95.2111267,-95.88231982,-120.9091871,-36.85228931,-103.6859314,266.0571975,479.4740161,-25.90178352,-23.51517215,2.50E-09,-55.37376093,-36.84581741,-123.9500988,2.50E-09,778.9834157,,,,
508.9679996,1988,57.55270484,150.4176258,35.63560697,40.85352812,61.9471624,41.72927582,-5.335513758,478.4306384,-27.82744924,-31.47999838,2.40E-09,-81.87917954,-41.33310376,-171.7953351,2.50E-09,780.1970514,,,,
508.9759996,1988,-28.83924409,125.9755422,-34.88707862,-53.86943428,36.75976937,-24.3798947,140.0657559,477.3791817,62.28428969,65.38008661,2.40E-09,19.17311254,49.03538066,-54.94667191,2.50E-09,781.3863148,,,,
508.9839996,1988,-50.74586034,85.8813424,-73.54548929,-68.73628132,-63.75461024,-65.93550583,179.5853517,476.3196995,-99.83416259,-93.63687403,2.40E-09,-130.8839695,-119.3614796,-204.3296121,2.50E-09,782.5512728,,,,
508.9919996,1988,51.4811436,150.3831555,40.37740408,44.8084451,60.4134666,62.64905448,-34.13699219,475.2522514,51.8417236,61.24457428,2.40E-09,2.156890052,43.26805972,-81.97303298,2.50E-09,783.6919858,,,,
508.9999996,1988,-67.38756336,103.9274673,-75.23960516,-90.20865353,-59.94184972,-70.45279605,266.4510282,474.1768935,-36.51043497,-28.53168984,2.40E-09,-65.00255721,-39.39615562,-131.4551998,2.50E-09,784.8085153,,,,
509.0079996,1988,93.42166384,176.0138979,70.70940007,83.84216806,30.38455636,77.20109343,-13.52144774,473.0936839,0.348462659,0.177181339,2.40E-09,-48.13037428,-11.88814088,-135.5508083,2.50E-09,785.9009295,,,,
509.0159996,1988,-4.252299056,146.8525634,-12.68320874,-28.96318902,15.25026235,-9.053807979,140.3787255,472.0026838,96.68284467,102.0418294,2.40E-09,60.42156431,89.54731029,-9.597405253,2.50E-09,786.969295,,,,
509.0239996,1988,-22.36100149,105.10597,-47.35542648,-41.62498887,-55.28249301,-45.0361259,191.1538916,470.9039457,-77.04325909,-71.17740209,2.40E-09,-107.0612544,-89.10852348,-181.8793387,2.50E-09,788.0136731,,,,
509.0319996,1988,77.04027092,154.5830254,60.86650207,68.31545038,78.25012972,79.49726398,-23.00084055,469.7975268,78.82543061,80.23140568,2.40E-09,29.06146084,67.52688836,-48.06128422,2.50E-09,789.0341314,,,,
509.0399996,1988,-77.83586522,71.68283566,-93.90885069,-106.3198998,-48.91554346,-91.7533994,285.0995084,468.6834888,-29.52135298,-30.50386679,2.30E-09,-55.95136838,-30.53466495,-112.6459281,2.50E-09,790.0307371,,,,
509.0479996,1988,62.03214145,129.0143491,31.02464305,49.45327581,36.14840407,45.0578143,7.13164144,467.5618874,-26.96215926,-26.63663275,2.30E-09,-70.62335201,-42.35660997,-159.9622808,2.40E-09,791.0035551,,,,
509.0559996,1988,-34.95258789,101.4298411,-53.11436536,-62.21060944,-7.070072921,-38.26009266,148.3456582,466.4327787,62.58862283,63.81665415,2.30E-09,27.83017297,46.34122013,-46.84431344,2.40E-09,791.9526517,,,,
509.0639996,1988,-59.44437415,54.77670674,-99.02021802,-88.01580357,-98.30871781,-92.17566711,199.9905021,465.2962212,-115.8736751,-124.980533,2.30E-09,-150.8666807,-125.0530214,-235.9316909,2.40E-09,792.8780963,,,,
509.0719996,1988,58.81927637,132.1058802,27.59082683,40.2001727,44.86233975,48.01158293,-16.8238604,464.1522719,54.8021529,44.3373008,2.30E-09,1.224700067,44.50582742,-97.84316818,2.40E-09,793.7799555,,,,
509.0799996,1988,-62.03616735,87.14649906,-89.64343268,-99.99572977,-89.08729689,-91.73109744,274.1763401,463.000985,-22.34000939,-34.17039253,2.30E-09,-55.23181164,-29.15823199,-129.2643246,2.40E-09,794.6582968,,,,
509.0879996,1988,82.44919413,147.5544485,40.93000104,57.72312059,1.617642342,45.72070104,-3.354464024,461.8424212,-4.741068363,-20.97660565,2.30E-09,-59.11349249,-22.16023039,-152.8186999,2.40E-09,795.5131876,,,,
509.0959996,1988,-18.09681232,122.7863527,-46.12273365,-53.52085597,-9.379888005,-35.65473655,144.4867002,460.676639,93.97656245,82.66358819,2.30E-09,53.98809001,77.30601755,-22.42875524,2.40E-09,796.3446962,,,,
509.1039996,1988,-47.83310202,69.32653181,-91.82553432,-78.82059186,-93.71398603,-89.73047484,198.1196137,459.5036927,-99.46208168,-115.1871031,2.30E-09,-134.9851624,-110.8464654,-217.5374826,2.40E-09,797.1528935,,,,
509.1119996,1988,53.85402002,119.2090136,24.37535482,35.52016107,50.65963969,39.14450903,-12.70820495,458.3236409,52.57608126,32.71684299,2.20E-09,-3.41106919,42.31532815,-89.15478793,2.40E-09,797.9378472,,,,
509.1199996,1988,-84.71348958,52.89770042,-110.6668447,-115.2626267,-75.57403618,-107.4513707,281.6812293,457.1365399,-28.06020617,-47.24020548,2.20E-09,-62.93812583,-28.82276651,-123.5929529,2.40E-09,798.6996276,,,,
509.1279996,1988,54.42173096,104.5167423,16.00502921,44.18154878,7.909869921,32.8513551,10.88543115,455.9424455,-30.86459303,-43.76737286,2.20E-09,-80.91026704,-35.59779951,-168.435228,2.40E-09,799.4383022,,,,
509.1359996,1988,-35.68866311,83.98134412,-57.9405879,-57.2098401,-16.30114869,-37.64473892,158.9119968,454.7414177,54.50397311,50.91049872,2.20E-09,24.95008348,52.08608255,-43.72710551,2.40E-09,800.1539433,,,,
509.1439996,1988,-44.0878099,49.17367378,-89.21944438,-63.44189721,-100.2371547,-73.58572637,194.2071771,453.5335123,-112.6756197,-118.2592005,2.20E-09,-134.1619589,-115.9361613,-213.413254,2.40E-09,800.8466217,,,,
509.1519996,1988,73.86508094,124.2215079,38.51500529,66.99671467,55.86656103,74.10832799,-23.58135687,452.3187846,65.29443849,61.26762645,2.20E-09,26.58756675,57.38040367,-59.79120406,2.40E-09,801.5164045,,,,
509.1599996,1988,-86.01839369,47.07263853,-114.5564748,-107.2962557,-77.49037346,-90.94670014,283.4506981,451.0972937,-32.85504475,-34.82000007,2.20E-09,-44.31207214,-27.57955785,-100.9565216,2.40E-09,802.1633686,,,,
509.1679996,1988,45.48748926,81.28885463,2.488690416,37.09465271,19.85762128,25.14078906,12.30399853,449.869094,-51.82452091,-50.14035879,2.20E-09,-80.16353626,-50.50854621,-172.8348147,2.40E-09,802.7875795,,,,
509.1759996,1988,-16.53204442,78.03422993,-41.84322567,-38.795764,34.97959507,-27.89241287,155.7835708,448.6342429,59.90466408,61.2871975,2.10E-09,38.90541174,49.78400248,-26.11905527,2.30E-09,803.3891107,,,,
509.1839996,1989,-37.4843381,42.21491774,-77.27311238,-52.94355003,-74.01791213,-61.28856778,206.0681438,447.3928,-94.78643839,-101.2037873,2.10E-09,-112.8358724,-107.3649424,-169.9502706,2.30E-09,803.9680372,,,,
509.1919996,1989,50.38525808,92.81358099,21.3796065,49.29244996,30.15855459,61.87989173,-1.594573589,446.1448179,56.2544874,54.83551878,2.10E-09,22.08378176,52.46895735,-61.77951465,2.30E-09,804.524427,,,,
509.1999996,1989,-96.09549624,17.23320228,-118.9589621,-109.4603777,-110.4733709,-92.97219202,298.843854,444.8903542,-46.86891525,-48.89896019,2.10E-09,-58.39119589,-34.66304445,-124.6218926,2.30E-09,805.0583556,,,,
509.2079996,1989,36.0574276,55.65006031,-2.834557244,38.09528489,-34.35077368,29.3327315,32.76257363,443.6294692,-55.57940132,-57.71244495,2.10E-09,-84.16392153,-52.04890704,-170.1815807,2.30E-09,805.5698926,,,,
509.2159996,1989,-42.64134634,32.95011025,-70.1240244,-57.29693292,-29.42625591,-40.98547507,181.0020397,442.3622161,42.43781271,40.9759654,2.10E-09,26.52834835,35.71394252,-39.11761585,2.30E-09,806.0591132,,,,
509.2239996,1989,-33.37547924,5.20932737,-75.5236121,-46.02222965,-80.44576258,-53.12491294,212.2365631,441.08865,-102.2845848,-119.6702514,2.10E-09,-119.844337,-111.7600186,-194.2172457,2.30E-09,806.5260929,,,,
509.2319996,1989,68.16137398,75.36871699,35.53031945,67.22451763,45.68522557,74.96552014,-4.063652013,439.8088301,64.86678823,47.75383371,2.10E-09,29.20610153,57.1856338,-57.06051676,2.30E-09,806.9709012,,,,
509.2399996,1989,-92.2568738,-1.585325361,-126.9804985,-112.8911532,-106.8454819,-105.248623,297.0526153,438.5228108,-40.63824654,-50.87015094,2.00E-09,-49.09570019,-37.85408901,-102.4687725,2.30E-09,807.3936125,,,,
509.2479996,1989,51.49296835,38.64426301,1.381007244,38.71521783,-20.1362642,25.59402579,22.73223923,437.2306485,-31.9634712,-52.7508178,2.00E-09,-67.75929899,-40.71030371,-152.4416097,2.30E-09,807.7943025,,,,
509.2559996,1989,-40.30844753,7.420989261,-73.06773905,-61.52400177,-53.31335375,-42.52285727,174.7689208,435.932401,56.82754531,28.9545514,2.00E-09,25.95166209,49.53164637,-40.39065723,2.30E-09,808.1730456,,,,
509.2639996,1989,-43.45560675,-26.17045635,-91.19428833,-52.12140153,-131.4696182,-57.92754209,210.3945331,434.6281251,-112.1282829,-136.4817946,2.00E-09,-137.2286607,-105.33058,-200.1439243,2.30E-09,808.5299177,,,,
509.2719996,1989,89.39760565,63.62671085,56.60950953,92.81788523,43.86251581,98.71243416,-8.029237389,433.3178753,82.17723039,55.94582849,2.00E-09,39.65328567,72.32870887,-41.55711817,2.30E-09,808.8649905,,,,
509.2799996,1989,-69.31513446,-8.45130881,-93.59056667,-81.34756076,-92.29595428,-71.70168349,302.687354,432.0017062,-4.211738688,-38.41351271,2.00E-09,-23.84948495,-14.52858564,-73.23809181,2.30E-09,809.1783402,,,,
509.2879996,1989,61.31820267,26.74884224,23.62519268,64.44598955,-11.87218488,57.18129946,33.97774811,430.679675,-14.49941474,-38.38463598,2.00E-09,-55.23841361,-14.84093797,-133.0187393,2.20E-09,809.4700449,,,,
509.2959996,1989,-19.62729687,10.14497705,-40.87600532,-28.51456132,-19.75366424,-8.451845696,179.0296095,429.3518371,73.75870198,57.07745131,2.00E-09,46.97842553,68.91207559,-19.65969192,2.20E-09,809.7401801,,,,
509.3039996,1989,-44.08117431,-39.33280846,-83.79834391,-51.28930108,-106.8446127,-58.75141806,215.7925393,428.0182492,-98.65022335,-122.2933243,2.00E-09,-117.6924974,-96.08264549,-171.4515843,2.20E-09,809.9888191,,,,
509.3119996,1989,64.06064073,16.62244933,32.17950419,65.11826982,52.6497935,80.24007409,-3.170506693,426.678968,65.09626582,47.72315642,1.90E-09,28.77336544,68.79329143,-47.14848215,2.20E-09,810.216037,,,,
509.3199996,1989,-83.67009194,-43.03689196,-108.0466326,-93.43674568,-68.32790992,-71.91949195,296.2428726,425.3340481,-32.65327413,-46.85723084,1.90E-09,-40.96907335,-35.69664906,-101.5047889,2.20E-09,810.421916,,,,
509.3279996,1989,51.0324219,0.937265335,16.25797451,58.64909793,16.75195691,51.1499265,27.13015999,423.9835417,-38.05577023,-52.40776427,1.90E-09,-61.93337545,-37.21582108,-139.7609036,2.20E-09,810.6065279,,,,
509.3359996,1989,-14.77116554,-13.7703356,-32.90036047,-24.68321452,17.22485329,-5.551466033,172.2802194,422.6275099,68.48451629,54.11762346,1.90E-09,57.38708833,67.3383022,-13.36899212,2.20E-09,810.7699501,,,,
509.3439996,1989,-30.96919889,-43.45523496,-71.22551794,-44.45828221,-90.98723133,-47.47170325,206.6275121,421.2660062,-88.45677867,-104.5483481,1.90E-09,-92.46300865,-95.48964409,-167.9657422,2.20E-09,810.9122643,,,,
509.3519996,1989,44.11467985,-9.0000241,6.301945042,36.84870875,8.740883999,47.11922304,-2.703737736,419.8990846,49.39917338,39.10541391,1.90E-09,25.30402375,52.50009388,-55.76932912,2.20E-09,811.0335429,,,,
509.3599996,1989,-90.6101319,-80.46074122,-120.7486067,-110.518128,-103.9003497,-99.78682949,296.8630807,418.526803,-52.33296306,-67.35458595,1.90E-09,-58.49367647,-51.99430594,-110.0731698,2.20E-09,811.1338654,,,,
509.3679996,1989,63.25225266,-10.52483267,27.57352269,65.12898156,-6.720294869,59.90601623,25.33056044,417.1492123,-31.79567752,-52.09554002,1.90E-09,-57.18621686,-36.96689005,-133.2859487,2.20E-09,811.2133127,,,,
509.3759996,1989,-48.12053979,-46.19055525,-66.6796059,-55.38802329,-45.97632609,-26.77191018,185.6588572,415.7663723,56.61772431,43.28620303,1.80E-09,45.65224488,59.17998351,-34.87797474,2.20E-09,811.2719589,,,,
509.3839996,1989,-54.15305181,-87.98090947,-91.91468123,-60.52388492,-111.4332792,-60.67926284,227.9504052,414.3783376,-112.6138138,-128.3899968,1.80E-09,-121.4198116,-124.166329,-210.6338837,2.20E-09,811.3098816,,,,
509.3919996,1989,64.2863387,-11.97263481,33.54549777,62.58957444,38.13292508,75.21026861,17.92313395,412.9851601,60.25283876,34.25464188,1.80E-09,28.79248088,57.42726111,-48.48797689,2.20E-09,811.3271618,,,,
509.3999996,1989,-95.93380598,-83.65695357,-123.3767287,-113.345438,-121.4156459,-98.02395922,324.6561334,411.586897,-42.24340428,-71.79657777,1.80E-09,-51.97148582,-32.29500085,-93.35080932,2.10E-09,811.3238784,,,,
509.4079996,1989,75.48845419,-17.76490262,38.6898269,79.98157411,-7.770799844,72.11598677,40.20260968,410.1836026,-24.77267021,-47.21641186,1.80E-09,-56.39989201,-32.37985759,-130.8338676,2.10E-09,811.3001092,,,,
509.4159996,1989,21.68396373,-9.006405813,3.765099502,16.1016571,14.89442603,37.41477825,180.7439023,408.7753319,112.7484897,96.63896725,1.80E-09,94.7487762,111.4752193,25.60343428,2.10E-09,811.255935,,,,
509.4239996,1989,-17.08861074,-60.72326548,-51.6124752,-24.54068568,-94.98811185,-29.62379818,234.4240928,407.3621382,-55.1625325,-82.39208863,1.80E-09,-65.36784788,-56.61358255,-137.717616,2.10E-09,811.1914352,,,,
509.4319996,1989,67.57267159,-25.08933642,43.36960203,65.72073895,20.46567199,71.65041681,35.18137535,405.9440755,78.26566077,42.99024288,1.80E-09,44.77483807,62.87156945,-35.98221092,2.10E-09,811.1066874,,,,
509.4399996,1990,-81.10416654,-95.38827489,-102.6476096,-97.5378499,-108.5525477,-91.20507676,340.3999793,404.5212023,-27.48594521,-58.95438376,1.80E-09,-38.01616347,-34.72669749,-100.5821623,2.10E-09,811.0017729,,,,
509.4479996,1990,43.52875818,-59.80674957,9.540170129,45.38383471,-19.83660609,35.77899208,67.51727557,403.0935703,-32.93783911,-58.90973353,1.70E-09,-58.37739515,-32.97999052,-148.8132594,2.10E-09,810.876774,,,,
509.4559996,1990,-54.236646,-99.21919899,-67.17499576,-62.16447208,-13.9568189,-36.52653884,212.6844928,401.6612343,48.48853743,29.99401709,1.70E-09,35.88607764,45.98236665,-32.79150872,2.10E-09,810.7317672,,,,
509.4639996,1990,-57.40651744,-126.0226253,-84.47297812,-59.57005437,-69.48367055,-64.23394094,244.776681,400.2242459,-117.1436299,-138.4180348,1.70E-09,-124.6532083,-119.937704,-186.2313856,2.10E-09,810.5668343,,,,
509.4719996,1990,50.15264571,-56.86465743,32.43427457,59.04669452,68.06698559,68.02510177,32.32155118,398.7826613,60.62460708,39.6162308,1.70E-09,37.31761784,52.09360388,-31.91074293,2.10E-09,810.3820586,,,,
509.4799996,1990,-113.5298177,-148.9306314,-132.3754918,-123.8074738,-94.19014465,-112.7714637,343.8855778,397.3365385,-53.11930174,-69.39970923,1.70E-09,-49.15218153,-64.39251051,-99.8584942,2.10E-09,810.1775158,,,,
509.4879996,1990,32.83847082,-104.9836429,-4.595688482,35.34628049,-24.83214182,20.17875456,68.63775207,395.8859274,-65.98924003,-86.7045988,1.70E-09,-85.61509214,-63.74679422,-161.0177929,2.10E-09,809.9532903,,,,
509.4959996,1990,-26.37744392,-100.2389793,-43.61760127,-32.54867903,-15.47633467,-15.38128409,205.2453634,394.4308812,65.54242815,46.21650321,1.70E-09,53.42977052,69.2248974,-17.24522955,2.10E-09,809.7094639,,,,
509.5039996,1990,-33.2299575,-129.0850282,-62.16206549,-35.32986063,-94.2493453,-45.53009509,244.581927,392.971454,-87.60828103,-104.7412318,1.70E-09,-91.00702831,-95.17621552,-182.9052708,2.00E-09,809.4461151,,,,
509.5119996,1990,62.15011587,-74.69956266,42.42140442,70.28315087,19.23459854,73.84727215,39.61683753,391.5077,69.26258724,51.2459663,1.60E-09,49.25560889,64.07904554,-44.10805066,2.00E-09,809.1633299,,,,
509.5199996,1990,-91.92405228,-150.7369029,-106.7915112,-97.762638,-101.5012406,-87.63037724,346.1839437,390.0396722,-28.6609238,-50.42753924,1.60E-09,-23.9753926,-33.26002897,-83.40908183,2.00E-09,808.8611868,,,,
509.5279996,1990,50.34060942,-101.9115711,24.46498184,57.06585633,0.983547851,43.80515181,78.45759505,388.5674266,-43.39489394,-71.41319939,1.60E-09,-63.49753732,-53.02298139,-140.7241183,2.00E-09,808.5397673,,,,
509.5359996,1990,-25.12206164,-110.9228985,-33.22645676,-28.60749509,-21.76168554,-11.65741083,225.2518247,387.0910146,70.05545574,45.60659835,1.60E-09,51.20882108,61.05227381,-3.506308745,2.00E-09,808.1991561,,,,
509.5439996,1990,-46.36994891,-155.2594544,-69.87789201,-43.34895966,-121.1123705,-53.16767249,268.796673,385.6104888,-87.74107632,-110.4739861,1.60E-09,-96.14737896,-92.04688388,-165.2433874,2.00E-09,807.8394322,,,,
509.5519996,1990,51.44743136,-102.5027053,31.42948074,58.98977335,9.542256384,63.51384662,64.84408258,384.1259047,48.87534422,24.34883044,1.60E-09,30.20030632,55.06666522,-48.62649141,2.00E-09,807.4606799,,,,
509.5599996,1990,-81.91272201,-158.96729,-105.9865861,-95.08262417,-96.72414035,-83.7663492,357.7998495,382.6373125,-34.46726954,-60.68642777,1.60E-09,-34.24864056,-38.25167606,-96.0612705,2.00E-09,807.0629846,,,,
509.5679996,1990,49.61295858,-124.3722229,12.69864953,48.81030919,4.702620036,33.46181229,79.81242524,381.1447654,-29.29692505,-61.53103813,1.60E-09,-54.58909491,-54.52752447,-142.2845647,2.00E-09,806.6464255,,,,
509.5759996,1990,-13.87318808,-136.7595731,-30.18400534,-23.15285638,28.14760354,-9.968165852,214.3971214,379.6483187,67.11773998,32.65107501,1.50E-09,49.41273272,50.32888365,-4.858928132,2.00E-09,806.2110845,,,,
509.5839996,1990,3.473927012,-135.9659451,-24.54465669,7.142729451,-11.58118391,0.157964212,241.269914,378.1480257,-57.85004784,-90.15262222,1.50E-09,-66.26532077,-56.92547816,-145.6066753,2.00E-09,805.7570484,,,,
509.5919996,1990,85.07486976,-84.20607612,66.08700108,97.33365641,100.4576646,100.0849392,39.20010637,376.6439365,108.5545334,80.93684241,1.50E-09,88.56140054,105.2240116,-8.699275204,2.00E-09,805.2843984,,,,
509.5999996,1990,-61.65429409,-160.2957378,-76.29915185,-71.93545014,-32.28203878,-68.58040577,339.1653423,375.1361023,6.087196956,-25.62748403,1.50E-09,2.668754947,-7.678420178,-53.63905229,1.90E-09,804.7932184,,,,
509.6079996,1990,71.78474199,-116.2970866,52.34481159,76.38895526,59.32915142,57.89942037,72.13503564,373.6245778,6.1972716,-32.83024,1.50E-09,-26.50459677,-6.465364345,-104.596538,1.90E-09,804.2835923,,,,
509.6159996,1990,-26.44998405,-148.0009083,-28.44270943,-29.32820949,18.56752127,-22.73130896,227.8104896,372.1094166,81.42894271,41.49789039,1.50E-09,58.43417314,73.66272624,-0.852719126,1.90E-09,803.7556008,,,,
509.6239996,1990,-29.00745528,-172.2443447,-49.37356553,-22.14665983,-70.34589738,-39.58648613,255.1127352,370.5906679,-72.42688273,-111.2966982,1.50E-09,-86.76909671,-73.07366809,-171.3361095,1.90E-09,803.2093308,,,,
509.6319996,1990,86.13536623,-91.58232448,75.16444299,105.6710429,94.65964338,102.51766,36.76348746,369.0683849,102.1436491,75.83386734,1.50E-09,76.72589384,94.45208878,-18.90875241,1.90E-09,802.6448678,,,,
509.6399996,1990,-51.07482502,-154.6005838,-66.58260643,-52.55486063,-6.197761716,-54.43247425,333.5731033,367.5426215,6.316874085,-16.3147424,1.50E-09,10.81973984,-6.621061468,-41.46469594,1.90E-09,802.0622923,,,,
509.6479996,1990,55.49187422,-138.9509965,27.57506211,68.07800748,81.6696487,48.98949639,65.84308844,366.0134271,0.57637278,-27.71176841,1.40E-09,-16.2196027,-7.939531259,-94.19359052,1.90E-09,801.4616907,,,,
509.6559996,1990,-37.06552994,-168.0225967,-37.2360261,-26.31342609,89.77792518,-13.20688331,222.8844753,364.4808546,75.73275051,47.53539429,1.40E-09,63.99705932,61.08957121,1.812394275,1.90E-09,800.8431478,,,,
509.6639996,1990,-30.06047033,-195.1686063,-46.18751055,-13.69112271,-2.731345939,-33.61956497,261.3249859,362.9449555,-84.75557575,-115.5155106,1.40E-09,-88.34388378,-88.30207413,-164.2639578,1.90E-09,800.2067437,,,,
509.6719996,1990,58.27181106,-143.8841894,50.11801753,80.76798446,86.58931751,72.38906701,48.72213824,361.4057818,81.26892009,54.3716955,1.40E-09,66.28466745,76.84383952,-10.53188759,1.90E-09,799.5525669,,,,
509.6799996,1990,-72.64763093,-184.591229,-72.20049527,-67.15486235,-44.24048608,-69.3167359,343.0930635,359.8633854,-15.71991087,-44.08988408,1.40E-09,-5.476205361,-29.86327355,-48.95811201,1.90E-09,798.8807046,,,,
509.6879996,1990,85.32619988,-126.1664427,75.58407181,100.9004993,56.37912757,71.80838074,71.01263598,358.3178154,-2.587790009,-30.98629175,1.40E-09,-14.12391161,-6.195063012,-96.67880445,1.90E-09,798.1912371,,,,
509.6959996,1991,-2.205328032,-160.5999573,7.76674404,0.502217246,47.25307643,1.150432125,216.6736177,356.7691257,106.6685949,83.32470502,1.40E-09,98.18097036,99.43231741,22.25690778,1.80E-09,797.4842505,,,,
509.7039996,1991,-23.90155551,-204.5617417,-21.03560591,-16.30668284,-58.40740116,-41.65280613,248.5166309,355.2173662,-51.65667262,-82.5842402,1.40E-09,-57.93822069,-58.52347263,-151.0162685,1.80E-09,796.759832,,,,
509.7119996,1991,56.34080475,-169.0322026,79.99755386,75.02052026,64.7142099,62.75697169,48.62187937,353.6625856,85.39162476,55.96333742,1.30E-09,62.31792968,79.09755965,-40.14450072,1.80E-09,796.018064,,,,
509.7199996,1991,-76.21628571,-230.8971723,-44.69861974,-71.18845269,-43.08338199,-74.13889177,345.7570524,352.1048379,-24.58871028,-45.14962003,1.30E-09,-26.08279561,-36.86060247,-104.9408792,1.80E-09,795.259033,,,,
509.7279996,1991,63.74737057,-178.6460295,82.39441485,80.57615783,30.45536065,54.08032854,65.72930433,350.5441721,-5.037827309,-21.81744432,1.30E-09,-25.79850896,-6.556982802,-133.9010848,1.80E-09,794.4828254,,,,
509.7359996,1991,-37.15674671,-215.9045967,5.303122267,-29.50214794,12.03432542,-26.58472332,221.034261,348.9806389,82.89299504,63.74872156,1.30E-09,69.50715769,83.47025208,-9.593732001,1.80E-09,793.6895247,,,,
509.7439996,1991,-36.87394188,-228.7377712,-3.632155836,-21.31828727,-68.40431458,-40.80164809,258.3930408,347.4142906,-90.49812138,-107.384228,1.30E-09,-98.91102574,-99.91830117,-182.7249402,1.80E-09,792.8792159,,,,
509.7519996,1991,65.8243172,-148.3797518,107.217921,83.44416319,31.95184642,75.86232829,49.15939336,345.8451756,86.81903775,80.19317159,1.30E-09,61.65900754,84.87554072,-39.00776013,1.80E-09,792.051989,,,,
509.7599996,1991,-74.74626036,-242.904835,-31.57910755,-76.90272916,-100.6311181,-82.33107107,349.6858294,344.2733448,-9.043088371,-26.73646454,1.30E-09,-19.31054214,-3.002278758,-89.54910782,1.80E-09,791.2079283,,,,
509.7679996,1991,64.0979118,-206.9452992,95.02037107,78.58591875,-6.273465228,54.69932768,76.67365328,342.6988486,-7.377305365,-29.7722171,1.30E-09,-40.88688172,-14.77563663,-132.8338033,1.80E-09,790.3471189,,,,
509.7759996,1991,-23.51808342,-219.4104448,22.00315704,-23.41895036,-22.99879769,-14.35068929,227.5407649,341.1217355,91.04369589,80.53653882,1.30E-09,67.52861903,79.65873738,-17.23288722,1.80E-09,789.4696469,,,,
509.7839996,1991,-14.83563846,-256.7074233,10.70609204,-13.8880539,-92.63173712,-34.32187927,255.5479605,339.5420579,-71.2568674,-85.34122974,1.20E-09,-91.79390507,-75.02906083,-185.0067358,1.80E-09,788.5755963,,,,
509.7919996,1991,80.25576725,-190.3383464,119.6827138,89.23969454,40.68004727,82.03526196,35.19470742,337.9598637,106.2492855,90.78600676,1.20E-09,68.80027583,106.0627911,-24.05071862,1.70E-09,787.6650568,,,,
509.7999996,1991,-92.54028861,-282.0675008,-44.10940814,-99.26429082,-108.862565,-97.08262106,336.3759641,336.3752008,-8.624846067,-30.1610087,1.20E-09,-25.27306375,-12.90006278,-83.00232887,1.70E-09,786.7381137,,,,
509.8079996,1991,43.73456318,-251.4522148,76.02067445,50.44606287,-32.87192976,28.54619514,68.16853353,334.788124,-33.9808016,-62.29740061,1.20E-09,-75.31437917,-42.03840848,-158.4172776,1.70E-09,785.7948526,,,,
509.8159996,1991,-32.204855,-257.8992183,13.98048469,-40.22610438,-39.16695057,-38.59216681,220.7791723,333.198681,78.39241856,50.57584774,1.20E-09,44.21542698,76.22233794,-35.79354151,1.70E-09,784.83536,,,,
509.8239996,1991,-48.28431583,-299.1210998,-17.90859537,-51.81871185,-131.4949584,-73.34427671,253.4140265,331.6069152,-81.18638177,-116.92169,1.20E-09,-109.8625717,-90.85032901,-197.935174,1.70E-09,783.8597215,,,,
509.8319996,1991,54.22202484,-225.3001236,96.92596348,61.96790064,8.728830365,54.36611838,36.39310944,330.0128815,68.73863254,40.05626943,1.20E-09,26.35353935,64.87053718,-60.97729333,1.70E-09,782.8680262,,,,
509.8399996,1991,-83.97629565,-279.3203083,-37.35272592,-87.8872977,-81.46017894,-95.14663255,340.21697,328.4166289,-20.78635768,-47.40217153,1.20E-09,-38.05707092,-18.64712068,-87.09679211,1.70E-09,781.8603626,,,,
509.8479996,1991,45.88260999,-240.8175941,80.97118283,65.38301499,26.02062742,44.02322772,64.72315883,326.8182034,-17.83574769,-43.59700691,1.10E-09,-53.63331957,-24.47699774,-129.7093284,1.70E-09,780.8368104,,,,
509.8559996,1991,-32.9607217,-250.8080039,27.58729357,-21.5191708,43.07093394,-9.388442303,207.2862397,325.217655,76.57534467,64.11786797,1.10E-09,55.66612064,85.97968092,-34.38568949,1.70E-09,779.7974597,,,,
509.8639996,1991,-35.32277692,-276.2992175,6.474910689,-24.88485407,-27.75558862,-40.13928527,243.7065194,323.6150304,-74.42869472,-94.1628737,1.10E-09,-88.84077129,-68.35108069,-182.3109687,1.70E-09,778.7424017,,,,
509.8719996,1991,58.9029841,-220.0574335,98.90249458,78.32002708,84.6830094,79.9453931,26.10522313,322.0103833,81.29122987,65.71389207,1.10E-09,47.85144366,77.66777964,-30.82501638,1.70E-09,777.6717196,,,,
509.8799996,1991,-82.70981806,-284.9064974,-42.12896544,-80.49468517,-45.26695884,-76.86464725,321.4798735,320.4037574,-25.95013507,-39.05675677,1.10E-09,-35.53096453,-26.47319639,-98.21698177,1.70E-09,776.5854999,,,,
