Time:125Hz,Epoch,FP1,FP2,C3,C4,P7,P8,O1,O2,F7,F8,F3,F4,T7,T8,P3,P4,,,,
561.6799996,2194,-61.87461156,-68.84272801,476.5396051,398.8485622,-1.62E-06,-59.22126462,209.0258351,283.5454994,-19.88179315,96.44569401,677.358841,212.8894934,-38.50304023,-65.05258242,958.7559263,608.7872268,,,,
561.6879996,2194,54.16330161,91.49524274,-571.7095394,-440.2995227,-1.60E-06,-90.31143074,-267.4423329,-386.3403569,-50.3742092,-152.3233631,-201.4536091,-117.4243962,-7.895152136,-16.27613101,131.0821654,-473.9733239,,,,
561.6959996,2194,-74.75221561,-83.21421165,395.9238226,381.5896014,-1.59E-06,152.2649754,259.6068073,352.6238913,41.32903764,40.04289341,-395.0843004,58.86988853,69.60417047,90.77828505,-252.1846577,4.517021779,,,,
561.7039996,2194,23.32548072,52.40332444,-130.9967978,-108.8467389,-1.57E-06,-195.6645377,-119.3658528,-177.4082699,-68.35107207,-10.10191913,766.7145432,104.3893981,-83.77592085,-116.9391734,1209.789882,303.1803521,,,,
561.7119996,2194,4.681020234,19.89009558,-237.0710814,-119.6870747,-1.56E-06,142.9020601,-35.95813623,-61.42336016,26.84401482,-107.3572368,-945.4465529,-141.3967851,86.14114518,118.5848521,-733.4268517,-652.6571543,,,,
561.7199996,2194,-43.78854363,-53.50177866,486.7054676,416.8243898,-1.55E-06,-37.31221239,214.450883,278.5996509,-12.43789105,114.5468973,616.8035653,207.1110627,-36.42562104,-55.42250866,984.857112,593.3240736,,,,
561.7279996,2194,59.94364501,93.49219239,-556.2084233,-416.7550156,-1.53E-06,-64.2789087,-264.4301588,-385.350148,-31.55846667,-127.471115,-277.914596,-118.5391705,5.580047223,3.843614525,141.4376159,-482.3612159,,,,
561.7359996,2194,-69.68182363,-85.19787352,407.8847773,403.0160423,-1.52E-06,163.7439645,255.6017775,345.6040913,44.11823792,54.5538028,-457.0393839,53.41129383,64.67003978,84.23726381,-215.1021056,2.898885063,,,,
561.7439996,2194,46.59637017,62.58417039,-136.5892779,-115.8275296,-1.50E-06,-177.4620593,-122.8188487,-197.6005881,-59.50337036,4.446062898,703.0481184,102.3459456,-84.88509068,-113.2000929,1234.232846,299.5911642,,,,
561.7519996,2194,12.94221088,14.50857178,-243.2928679,-134.044016,-1.49E-06,159.981172,-35.85022397,-74.63493994,49.02770573,-89.07297715,-1010.371232,-138.8547959,97.00524759,137.4788402,-739.8725037,-648.8312676,,,,
561.7599996,2194,-59.33781752,-74.88045448,479.223098,408.1976161,-1.47E-06,-43.83778748,209.7952062,269.6490601,-15.82558418,113.0000173,556.2769323,198.1601597,-55.09448073,-67.65657578,984.4832966,595.5350792,,,,
561.7679996,2194,55.44232268,84.42398775,-565.8643336,-432.2909187,-1.46E-06,-69.62101797,-265.9858782,-395.340606,-48.49841494,-141.5993616,-337.6716589,-129.703816,-25.82367463,-12.8518993,140.45819,-484.558108,,,,
561.7759996,2194,-65.38378682,-89.32735554,400.9581945,386.4637556,-1.45E-06,168.9363642,263.9455915,343.7848327,44.22792113,46.78490772,-502.9625461,47.30848424,53.04916803,94.28203712,-225.1227275,9.936555464,,,,
561.7839996,2194,32.50328478,45.26103414,-141.9754113,-121.2762901,-1.43E-06,-183.9253854,-114.1399378,-190.7273565,-63.41809104,-6.954702545,659.1732227,88.14135363,-96.09841645,-104.3132951,1222.940534,311.023706,,,,
561.7919996,2194,-2.45425873,-1.638312354,-247.7129068,-135.193618,-1.42E-06,141.9012604,-34.94082902,-71.82505244,27.92979394,-111.1993572,-1044.202163,-159.4430943,76.18999635,127.3669343,-733.2954365,-636.4265527,,,,
561.7999996,2194,-45.43817057,-68.01437494,469.9808785,397.3730627,-1.40E-06,-49.56236785,208.7404136,264.5877773,-20.9772339,99.43393203,532.3404409,182.4281649,-61.11981459,-72.53177109,989.4317618,602.2974258,,,,
561.8079996,2194,72.43029193,95.1826898,-568.2762201,-438.3794035,5.17E-07,-69.36210146,-262.2234594,-392.788983,-38.16279291,-140.7153693,-359.8638031,-136.9655245,-17.962346,-8.395871866,138.3684038,-474.5984896,,,,
561.8159996,2194,-60.35971374,-88.54071766,401.5869446,387.5633867,2.33E-06,157.5341851,257.7681177,343.9243809,42.93466156,47.26695995,-515.6036299,44.68811874,51.56728342,81.5526232,-211.3981688,19.63863909,,,,
561.8239996,2194,38.02157436,39.38730017,-142.9452834,-115.8551002,1.75E-06,-196.935492,-129.2862093,-196.6531549,-71.25271128,-6.493956242,641.7648688,87.28633969,-109.4665212,-134.9233783,1232.720001,304.7772593,,,,
561.8319996,2194,5.285559435,-7.537448153,-240.1505379,-123.4161705,1.78E-06,136.1843473,-44.01858651,-73.1996013,24.39358694,-108.0327554,-1058.135519,-158.1155458,63.89422123,98.58826255,-719.1573413,-642.073442,,,,
561.8399996,2194,-26.2472178,-60.96126788,470.0425954,395.059057,1.88E-06,-45.73876944,198.1944869,253.4858806,-17.62056354,101.6560309,522.8946515,183.8390624,-63.06161629,-83.93346823,1008.625525,601.4333631,,,,
561.8479996,2194,90.69559242,101.7349527,-566.8937045,-440.6967146,1.73E-06,-56.84874872,-269.3525133,-402.8295754,-22.83541055,-135.5187602,-375.2690493,-134.7636317,-16.00616234,-2.88920806,139.0204532,-470.0447602,,,,
561.8559996,2194,-54.16105654,-85.51205995,407.5995022,391.063529,1.82E-06,168.9211206,259.0071845,338.301915,65.90561906,55.66276784,-525.4115778,48.28785873,49.73690964,85.37395498,-211.3522058,32.59029537,,,,
561.8639996,2194,40.92899844,47.12867666,-142.062869,-115.0201271,1.73E-06,-190.5649595,-121.9710298,-202.0412499,-60.6122878,-3.930124664,627.2872648,86.6889914,-115.2781529,-140.4716672,1235.462897,315.5677007,,,,
561.8719996,2194,-1.98991104,-4.873575856,-233.6855193,-115.3999328,1.76E-06,143.4728115,-30.32950659,-65.15765377,22.39874958,-107.8282773,-1075.274845,-159.063055,56.69160119,102.183418,-718.8327334,-630.8307742,,,,
561.8799996,2194,-51.31312648,-69.01613371,465.5326493,394.8810963,1.72E-06,-43.29918124,204.8029067,258.8918867,-23.90769233,105.9561058,503.7648239,184.7655966,-70.97615442,-71.27275016,1005.740236,609.2631857,,,,
561.8879996,2194,66.16169363,90.30194664,-585.8727989,-455.3217298,1.72E-06,-65.53563925,-270.2662802,-409.7901243,-42.96779447,-137.7990956,-410.0625236,-143.6358576,-27.13167395,-5.877490751,123.0441606,-471.0549497,,,,
561.8959996,2194,-61.75044872,-89.47532389,388.9858745,368.2109755,1.69E-06,161.298721,256.4471148,328.7844303,42.0791253,49.53915127,-559.5744444,34.02200614,45.15651726,81.02183098,-238.3320725,28.82930746,,,,
561.9039996,2194,47.05123735,55.2260029,-161.0058368,-146.1900065,1.68E-06,-188.7524309,-127.0269244,-211.4030925,-63.63566991,3.078868736,600.9358309,83.55408436,-105.5264268,-123.8395936,1195.161553,310.1028942,,,,
561.9119996,2194,5.340920727,2.594327699,-244.7906823,-135.9348907,1.67E-06,137.6697474,-34.19834449,-68.83187265,28.48269426,-97.1211686,-1090.938005,-155.6914374,64.57455316,110.8167108,-757.5531056,-633.730159,,,,
561.9199996,2195,-49.58193222,-68.05457101,466.2169621,395.6087352,1.65E-06,-60.69778937,204.2142057,264.4517915,-24.37843528,107.2482696,501.5197082,182.5905566,-72.22782496,-85.60071127,984.4901398,604.1006315,,,,
561.9279996,2195,63.61956249,89.96236016,-579.0121739,-445.4946768,1.63E-06,-81.90293306,-270.7918016,-401.7708831,-35.49507276,-133.4311664,-401.4718793,-144.1211299,-23.75387725,-17.48642054,114.936492,-479.0296391,,,,
561.9359996,2195,-78.39230134,-101.574099,398.7110517,388.8720268,1.62E-06,136.2879655,252.2526732,336.0389821,39.83016694,49.11207562,-543.2322735,28.74534946,44.1200394,60.16514984,-227.325867,20.90180459,,,,
561.9439996,2195,22.80762794,39.1584292,-155.6972833,-119.6226334,1.60E-06,-215.567577,-133.2991689,-208.6257171,-88.08747155,-9.806342284,604.1910677,60.89640131,-114.9281619,-161.6761932,1214.364184,294.3357074,,,,
561.9519996,2195,-5.17385795,2.578526949,-250.1710101,-130.0652186,1.59E-06,126.4221662,-44.48098921,-83.71977281,14.82156282,-102.5895763,-1096.31198,-179.5375863,64.58645541,94.6875341,-748.7012338,-648.0351099,,,,
561.9599996,2195,-49.57235054,-60.34330717,457.1649702,387.019849,1.57E-06,-62.11763322,192.223512,238.5076667,-25.70375456,111.2530712,494.4677744,168.5947082,-66.59188145,-82.50909946,973.9939768,595.3876072,,,,
561.9679996,2195,63.06041289,92.74485087,-580.4988371,-443.6782824,1.56E-06,-77.95419586,-273.8906607,-419.7461833,-42.31633461,-123.9571812,-410.3870338,-150.0099105,-20.35587027,-16.91980784,101.4303775,-477.7922014,,,,
561.9759996,2195,-66.81308781,-86.37583674,391.2432629,376.0616556,1.55E-06,153.9796066,252.8758742,313.9479928,40.90489665,63.16218586,-549.728431,27.58618005,50.49402414,77.37439513,-241.0933288,30.81397581,,,,
561.9839996,2195,50.78932691,71.11454582,-169.3555161,-155.8207831,1.53E-06,-177.4249159,-129.3728063,-233.8042117,-67.03880163,12.38391824,590.5871311,70.51977708,-99.50298041,-118.2918426,1168.346092,307.8867055,,,,
561.9919996,2195,9.457614218,16.0643423,-251.6542272,-151.6705081,1.52E-06,164.2013106,-31.42621124,-92.80919982,33.8109634,-71.48696268,-1098.859889,-158.0552654,79.72111547,131.8672538,-795.6458399,-617.036411,,,,
561.9999996,2195,-48.89845802,-62.19450303,450.5661755,370.0610516,1.50E-06,-40.72870279,200.0908658,227.2821469,-24.28097664,123.9478354,493.5065608,173.2083132,-66.95685436,-76.92215333,935.3330428,614.5090466,,,,
562.0079996,2195,72.8088859,105.0412024,-588.6557589,-461.7045466,1.49E-06,-54.57505388,-267.9047699,-429.7217482,-38.35701573,-123.3522044,-422.3933069,-153.5063045,-23.03222727,-21.10279838,45.61740318,-477.2476096,,,,
562.0159996,2195,-65.23955212,-80.10264384,397.737073,382.4355343,1.47E-06,171.390975,263.3849513,321.9477751,50.0688415,72.26396662,-540.9270309,40.94997691,48.78223101,75.52208967,-277.6429646,41.63917197,,,,
562.0239996,2195,34.49143313,58.89837594,-163.4988258,-135.6417953,1.46E-06,-186.8391836,-132.0200525,-228.8372771,-72.67628246,2.669136687,602.8500775,75.36763672,-120.5237074,-145.4659256,1149.718205,303.1706236,,,,
562.0319996,2195,9.470919015,20.68006126,-246.2267865,-135.6601442,1.45E-06,155.7761152,-39.87663907,-94.65755355,28.69535706,-91.26075656,-1092.116812,-158.5062067,62.44309227,91.85778155,-813.8243902,-633.0728164,,,,
562.0399996,2195,-32.19021307,-43.22396522,461.7205943,384.7859243,1.43E-06,-26.75851468,202.4777011,233.41673,-8.294166045,128.7449815,509.9180168,194.5522216,-50.49929214,-78.80793854,918.4379572,615.3785819,,,,
562.0479996,2195,74.11008795,105.783498,-578.6809179,-446.9119894,1.42E-06,-51.17833607,-271.7123919,-426.632784,-27.97905218,-120.2936547,-408.8053594,-133.8715979,-7.176699043,-16.77161786,26.56915293,-470.9370955,,,,
562.0559996,2195,-63.35097188,-79.25860806,396.5876162,378.7850829,1.40E-06,158.1171379,245.675258,304.1743453,45.59342373,58.32309454,-533.5027081,43.41831562,52.86075725,51.67742883,-291.4275616,45.12511987,,,,
562.0639996,2195,53.17227281,73.184639,-167.5937977,-154.8956309,-5.17E-07,-180.2932036,-140.2065522,-249.4142313,-58.45799985,4.398061315,603.9585762,82.86688151,-90.59115462,-146.0512909,1120.396701,307.4981974,,,,
562.0719996,2195,16.72308248,20.46313656,-243.9434197,-146.8593689,-2.33E-06,163.1031612,-36.39956601,-102.0278352,50.06811834,-81.04670846,-1085.109148,-149.2822961,92.52266709,99.4301698,-843.2782068,-620.9479265,,,,
562.0799996,2195,-50.66803254,-67.10428928,462.692941,385.7591923,-1.75E-06,-48.56967911,203.8549233,231.0451383,-13.89562336,116.8765048,524.3470507,186.4388145,-60.24270722,-101.0147246,920.2998853,630.8131326,,,,
562.0879996,2195,51.85423053,80.20410737,-571.7228049,-439.7287703,-1.78E-06,-74.55495345,-264.8757931,-423.2304344,-48.30336402,-143.9129528,-394.540344,-153.8788048,-29.15255129,-39.27710345,46.41480241,-461.4965169,,,,
562.0959996,2195,-76.29284082,-96.76634101,406.4666901,384.9603165,-1.88E-06,141.9733107,258.2096895,311.1579445,29.44852359,41.44091852,-514.3056243,19.43055581,41.54931049,40.44658121,-264.7006455,49.16108971,,,,
562.1039996,2195,31.91474399,48.05419834,-164.8223833,-144.3811549,-1.73E-06,-213.2905447,-135.4984175,-242.6918868,-79.2042946,-14.24107948,620.040064,51.24130019,-109.4411739,-166.553299,1148.715534,307.9486912,,,,
562.1119996,2195,-3.688888819,0.009169993,-243.1596059,-138.6060792,-1.82E-06,127.0209337,-41.27961587,-102.1843599,24.11941498,-105.5437546,-1067.195358,-184.3927905,67.46396052,70.41264277,-811.2798418,-626.4965269,,,,
562.1199996,2195,-42.77776142,-56.65629699,454.8855131,372.0362303,-1.73E-06,-59.69977507,193.2042613,215.8728694,-23.25152677,107.5867331,540.4597944,161.1616113,-66.90886562,-108.5553652,937.4826972,614.9739704,,,,
562.1279996,2195,74.58456111,105.0923208,-580.4236031,-458.6074689,-1.76E-06,-70.87250702,-273.2887897,-438.0268343,-34.5364848,-126.7011448,-380.9264781,-157.9069854,-21.55912706,-21.5988062,39.64302951,-469.217038,,,,
562.1359996,2195,-59.01618998,-78.3212887,405.7455983,375.7312167,-1.72E-06,146.5211109,255.2242584,305.1172042,47.43311951,66.94585836,-484.940261,31.70481629,43.80626345,53.60179157,-262.8991309,54.11866737,,,,
562.1439996,2195,41.56983636,61.20411487,-158.1697854,-140.2096205,-1.72E-06,-201.3776519,-130.2504906,-237.87203,-69.88300981,8.600020118,648.4733663,67.67180476,-110.3283198,-163.8187953,1156.670126,308.0985376,,,,
562.1519996,2195,-4.554794981,6.823506737,-224.9268219,-117.263076,-1.69E-06,137.6958997,-28.02091059,-84.21124064,28.36304072,-81.60538998,-1038.659122,-165.1378912,68.87642399,76.75797214,-799.6383361,-620.7193504,,,,
562.1599996,2195,-51.43589646,-59.47026991,462.7379887,386.0638834,-1.68E-06,-61.09831909,199.621089,229.771798,-26.8921721,118.1781454,572.3214401,171.6199527,-72.49784409,-116.3850081,960.3355423,618.7544505,,,,
562.1679996,2195,52.73821142,80.46265099,-580.0796421,-447.1496325,-1.67E-06,-74.50634977,-268.6283856,-424.7123872,-46.93319956,-136.8868912,-364.6150303,-159.4484225,-30.06559694,-47.81316358,55.45855906,-471.8394503,,,,
562.1759996,2196,-86.37825888,-109.914484,407.7916785,387.5473443,-1.65E-06,143.426026,259.3401584,316.3037505,40.57530545,50.59312866,-471.7701828,26.38651094,46.1171367,36.98808162,-251.2570145,55.16013254,,,,
562.1839996,2196,34.33726073,52.85220139,-165.1481375,-144.1351808,-1.63E-06,-195.1780643,-134.2247092,-236.8855959,-67.3708068,-6.270155862,656.5967835,56.40151917,-101.9720012,-163.8058878,1162.490453,302.5124781,,,,
562.1919996,2196,1.029038627,6.082230029,-227.0609401,-120.9741702,-1.62E-06,153.3413569,-31.68007159,-83.31792834,38.41561175,-87.13390502,-1029.158888,-169.8051267,81.50135686,91.21481239,-793.966727,-615.545404,,,,
562.1999996,2196,-49.46878791,-65.9354731,456.3230481,375.9063375,-1.60E-06,-57.97441305,191.7675058,221.7418608,-5.307188836,123.0468048,587.4441416,173.2730236,-46.72679849,-98.48266792,959.7858155,623.8913735,,,,
562.2079996,2196,50.52551966,77.24414043,-595.27577,-464.061995,-1.59E-06,-81.91760859,-282.0978231,-435.3891869,-30.37176269,-136.7906539,-363.2082942,-169.0734373,-10.73999139,-42.99603999,30.03699641,-486.8714589,,,,
562.2159996,2196,-91.70463072,-113.7919716,398.0162744,382.1820986,-1.57E-06,137.0220627,249.2788316,314.3238796,40.82597514,45.8108951,-461.6933447,11.07344904,43.04479484,33.22636708,-274.9830092,47.51398351,,,,
562.2239996,2196,21.92084978,40.0327318,-183.5479265,-150.841573,-1.56E-06,-207.5120376,-144.1727726,-243.60315,-72.58318447,-11.75891844,680.0963525,41.38718227,-112.5867181,-169.9405814,1139.457376,301.9450361,,,,
562.2319996,2196,-23.02672484,-17.25717887,-252.7564159,-131.335139,-1.55E-06,128.2919027,-43.52253568,-91.38311787,18.64912784,-107.663355,-1004.967762,-193.2203289,60.63520221,76.60783058,-826.3803939,-623.0120609,,,,
562.2399996,2196,-70.41598464,-89.28379854,441.5932666,377.6950891,-1.53E-06,-77.78069068,187.123139,225.7585483,-39.31220903,94.42997189,626.9382917,144.4086311,-75.10394024,-111.8030039,928.9012133,613.4395014,,,,
562.2479996,2196,51.36095657,75.37914179,-600.6146425,-453.8173846,-1.52E-06,-84.52258808,-280.4249129,-426.9077493,-55.59919896,-149.1198379,-292.6802534,-188.0267928,-31.53167265,-47.48158398,11.31441399,-488.5151968,,,,
562.2559996,2196,-88.99110893,-107.1795755,390.202595,385.3104099,-1.50E-06,133.567449,247.7695203,316.732387,28.32845654,43.36154454,-359.5822145,3.2714462,32.49941294,33.12449353,-283.8701534,49.35710873,,,,
562.2639996,2196,15.95038171,37.695139,-195.4470049,-156.5052918,-1.49E-06,-215.989086,-147.3466483,-245.2269235,-74.51896797,-17.11377389,789.1997033,34.85575839,-108.0608258,-167.0252801,1110.589023,288.6800577,,,,
562.2719996,2196,-12.52043503,-4.030239386,-267.3965128,-145.5645794,-1.47E-06,124.5548119,-48.34206143,-101.7915812,26.47322337,-112.8534455,-890.6142703,-197.8184199,69.93682619,64.43022732,-860.9958414,-638.4970219,,,,
562.2799996,2196,-49.23132993,-60.19860063,421.1724869,351.7962431,-1.46E-06,-71.85320266,180.6098907,208.1550422,-18.58669501,98.56965097,746.3417225,153.5682154,-59.29859706,-120.9683611,887.134482,605.6919979,,,,
562.2879996,2196,68.5560734,97.66604439,-619.0497833,-484.9614976,-1.45E-06,-73.90948235,-283.2721861,-442.4315841,-21.4377995,-129.7724303,-186.5586786,-161.6423375,2.910015549,-30.89871951,-61.76526036,-489.2940238,,,,
562.2959996,2196,-73.05160421,-94.42650003,377.029794,355.3971364,-1.43E-06,136.7743614,246.7794485,302.8673357,51.85476987,59.956086,-258.6676565,31.80654639,60.12548139,38.36895916,-357.4363054,54.54753815,,,,
562.3039996,2196,29.14044916,48.14973639,-202.6782343,-172.7202453,-1.42E-06,-212.9048952,-142.3303714,-246.8319388,-70.9510857,-8.591240843,890.8628453,58.50031258,-98.28730181,-176.0807951,1049.327544,295.5853293,,,,
562.3119996,2196,8.238282484,13.39265969,-268.4369126,-155.9913065,-1.40E-06,139.7204924,-36.99446656,-96.94776596,40.22160843,-88.39144515,-786.6289382,-169.3612348,89.00056652,81.53485321,-921.9510202,-622.0416505,,,,
562.3199996,2196,-26.14855954,-44.43753406,417.4875317,334.8009524,5.17E-07,-54.8768267,190.8641372,207.8139789,2.584471969,126.3837172,847.1341118,178.5809326,-37.45623622,-92.86227839,822.5097528,622.4859977,,,,
562.3279996,2196,76.36659117,102.295408,-619.2776599,-486.4200225,2.33E-06,-69.08385594,-268.7737655,-429.1416473,-26.32429321,-123.8454595,-90.57640392,-151.3390567,2.670023427,-28.88559401,-104.8549163,-474.9804416,,,,
562.3359996,2196,-69.41436416,-87.91631856,374.6854396,357.8399607,1.75E-06,136.7216387,258.8256168,320.3088241,42.44083132,60.8707526,-167.338014,35.69798542,57.14920772,43.02836095,-382.2907943,66.62809391,,,,
562.3439996,2196,36.54115104,61.78646083,-213.1957626,-188.598779,1.78E-06,-203.5106619,-139.4150789,-240.1301988,-65.9308367,-0.053263776,956.5176757,59.97709644,-93.18965924,-151.5505181,996.7915236,295.6392163,,,,
562.3519996,2196,4.748303586,19.46072208,-266.9604805,-161.7090914,1.88E-06,148.9946381,-29.94242154,-78.62376942,34.58448136,-83.98478738,-729.2010264,-165.9838537,86.72684334,97.25859914,-967.4629441,-608.760951,,,,
562.3599996,2196,-48.43878415,-55.95359647,426.1460334,351.4223035,1.73E-06,-62.20791403,197.4946711,236.6022328,-14.64071677,118.8414336,905.1090525,180.968632,-45.95496495,-87.64010892,802.4546146,644.9572528,,,,
562.3679996,2196,49.84759568,84.00793385,-613.5782313,-468.0318568,1.82E-06,-84.67849535,-272.4005472,-411.2742218,-39.0432031,-139.5280398,-53.03208435,-159.2979899,-7.18225203,-30.79411001,-134.2070489,-471.1693135,,,,
562.3759996,2196,-80.98013658,-95.10317577,377.2020096,365.7551831,1.73E-06,130.3396591,251.2321393,324.8335444,32.93747806,45.83728394,-151.8996399,23.30734622,51.04619111,39.44298489,-414.6632472,62.20214755,,,,
562.3839996,2196,30.99740756,56.68298501,-211.7553115,-181.4934778,1.76E-06,-204.2199082,-146.7835753,-236.257412,-72.18280772,-9.266442588,940.012237,50.71191665,-90.4877389,-138.8126161,955.66394,296.8240889,,,,
562.3919996,2196,-6.136868199,5.519255182,-268.1121252,-157.1221205,1.72E-06,141.0534375,-45.84436528,-79.29168885,36.67203081,-91.30018314,-772.0545564,-176.1730173,89.70029155,108.0304502,-1017.849899,-611.2425186,,,,
562.3999996,2196,-41.4382817,-54.63315574,409.9110567,330.3263534,1.72E-06,-57.97230699,170.5655398,218.6047034,-7.279286109,112.1064396,829.0606333,164.335221,-42.54372767,-83.34134104,735.2070086,621.3258097,,,,
562.4079996,2196,67.46046691,93.61411077,-622.1412598,-492.5591219,1.69E-06,-63.65225354,-291.2033487,-421.7803738,-27.95248081,-136.0686464,-154.4991287,-167.7126731,2.315855075,0.107854314,-216.0008858,-481.0907577,,,,
562.4159996,2196,-64.22961876,-86.55244836,373.3635574,340.0051322,1.68E-06,148.0573187,237.0804848,319.8336944,53.32038998,56.79761634,-252.3702825,24.43398405,61.51477757,78.91561627,-488.9607658,73.61686615,,,,
562.4239996,2196,56.63590051,72.8259052,-220.3479257,-216.6359768,1.67E-06,-181.1492256,-157.1972603,-245.896764,-42.34376334,3.353361813,831.9390736,49.86644201,-74.96299156,-112.5046439,867.2874276,296.1927252,,,,
562.4319996,2197,-0.854773785,1.722071646,-260.0268784,-164.3633213,1.65E-06,155.9267864,-39.51353573,-69.61974236,51.15600164,-79.63958908,-864.652511,-176.9609066,97.82977199,130.6053762,-1089.089295,-597.3641383,,,,
562.4399996,2197,-49.1674448,-67.95049295,412.2115297,330.4110904,1.63E-06,-61.31126317,175.8329293,228.6141831,-15.7812069,109.7390141,739.8491078,149.8719185,-55.20606591,-80.53672457,691.9989676,635.9988407,,,,
562.4479996,2197,76.23513486,94.61921143,-625.8814544,-499.7640913,1.62E-06,-53.84932266,-286.2257852,-417.7815062,-24.58948306,-138.2849109,-250.9114139,-188.7665908,-1.926283788,-5.002436559,-271.3364677,-486.457411,,,,
562.4559996,2197,-59.22694251,-89.04164481,374.410314,346.2882942,1.60E-06,163.3399155,245.4643905,332.7432484,62.35092494,65.03952377,-326.5647198,14.00286991,66.83954804,84.09391981,-532.8185639,76.32310379,,,,
562.4639996,2197,54.39270763,68.88900581,-221.507436,-207.5707973,1.59E-06,-181.7899988,-155.7557337,-234.9000847,-56.36735986,-1.656539873,756.3344863,36.7660827,-85.53092733,-122.3769685,842.1604257,296.235459,,,,
562.4719996,2197,7.574866286,9.979814274,-259.2409283,-164.4404744,1.57E-06,154.449825,-40.72937679,-67.55001932,42.57560443,-90.95885909,-937.962786,-188.6730325,92.09859282,118.773868,-1115.04263,-603.9919381,,,,
562.4799996,2197,-36.34156549,-53.89008947,407.2727326,318.0309922,1.56E-06,-58.3323936,172.4596363,220.4112247,-2.325932197,105.9459454,670.9111766,148.5996497,-47.270749,-74.52726056,647.8682804,628.295775,,,,
562.4879996,2197,89.6698817,113.0795407,-627.6086819,-514.943297,1.55E-06,-50.12427321,-285.0602861,-425.8351395,-11.37193497,-137.3088304,-319.0759889,-183.5751761,-1.061697767,-0.472930851,-321.5079076,-493.0547671,,,,
562.4959996,2197,-47.06539034,-73.03652266,373.2459995,330.1615623,1.53E-06,165.7480986,249.0027371,323.4680508,69.88702936,68.99259256,-382.5791821,24.39977088,65.05284032,88.33844099,-578.3898233,78.57648959,,,,
562.5039996,2197,47.91515822,60.10218118,-223.2796937,-217.5526455,1.52E-06,-187.3029529,-151.398186,-240.9622078,-52.35766733,-6.784975728,691.6994406,42.24624592,-89.23561612,-116.383891,779.0803861,297.3306693,,,,
562.5119996,2197,-6.722975712,-8.596686914,-253.8371011,-159.5495997,1.50E-06,144.0622449,-29.42299089,-58.87845342,35.80113712,-102.241326,-994.599897,-194.6693164,73.55983488,112.7807776,-1160.311166,-599.0869818,,,,
562.5199996,2197,-53.2891672,-71.6999181,408.7139302,328.9305107,1.49E-06,-75.90501921,183.1168188,233.9457037,-25.3893888,94.69849849,625.4180501,135.3569782,-73.12313597,-87.97144614,624.3377091,640.0390268,,,,
562.5279996,2197,56.2850162,82.01846806,-624.3941522,-497.9315195,1.47E-06,-74.13805131,-273.6197089,-407.9260566,-43.6986899,-156.0496139,-362.4106867,-204.9538638,-25.9016269,-13.07818307,-346.8255179,-478.1764396,,,,
562.5359996,2197,-63.2093862,-85.19357088,365.1047122,330.6889347,1.46E-06,153.7591969,257.1571027,330.8954762,48.3146585,51.72423767,-418.9045927,-3.359518595,41.73277054,78.24535477,-602.9409191,93.06864261,,,,
562.5439996,2197,63.42574677,78.20279145,-243.8689041,-246.3282182,1.45E-06,-180.9225964,-151.5779109,-252.3117853,-46.719383,-4.173923739,648.3310862,29.82397358,-88.38002936,-112.1472953,723.2904455,309.9798109,,,,
562.5519996,2197,10.3332347,10.79400246,-264.25098,-192.0200736,1.43E-06,158.2039958,-29.94159085,-68.06487736,53.58726483,-86.69609705,-1026.52131,-184.9719286,93.91071847,129.6274334,-1234.12874,-577.527805,,,,
562.5599996,2197,-33.89448032,-49.26538686,404.8783006,303.0696576,1.42E-06,-58.80896437,184.0177364,232.9222467,-6.750549671,112.9967545,597.7751341,150.2892201,-63.40665863,-71.48969605,547.789704,655.9214669,,,,
562.5679996,2197,86.6557089,110.745324,-616.8045033,-512.8664505,1.40E-06,-58.33202183,-270.2445268,-401.7024733,-17.79455298,-129.1228061,-388.9980762,-182.4391978,-16.02171726,-0.253114233,-421.3249267,-467.0895054,,,,
562.5759996,2197,-55.53026232,-82.18215958,387.4568191,346.1799621,-5.17E-07,149.3801298,264.1099418,352.2820241,57.14175282,75.05303241,-424.0449183,21.48300012,47.36577795,77.7083003,-644.1248236,107.5242201,,,,
562.5839996,2197,37.30409908,51.80493629,-213.0457357,-197.4681009,-2.33E-06,-211.2513399,-140.8033042,-216.1690906,-77.11401375,-5.907050208,646.937039,29.16908819,-117.600699,-141.7672543,718.8925502,305.3347789,,,,
562.5919996,2197,-0.010712342,5.513183075,-240.7382889,-147.9974062,-1.75E-06,132.7089709,-21.19292411,-43.26248713,18.82516559,-96.66679045,-1020.396601,-203.0662586,56.64058732,90.88549469,-1211.392527,-598.7913105,,,,
562.5999996,2197,-25.21734378,-36.88324349,413.568112,325.814609,-1.78E-06,-61.41778992,189.0703263,241.480967,-14.10079865,120.2019627,601.7808762,142.5618142,-65.36158215,-82.29264335,553.5667095,633.5452731,,,,
562.6079996,2197,88.87769581,113.3478343,-606.9985544,-493.7211023,-1.88E-06,-61.26016324,-267.45191,-396.5101502,-24.11603341,-122.4862816,-386.7904884,-184.9225733,-8.771199497,-7.225948276,-419.9636643,-477.5482346,,,,
562.6159996,2197,-40.62234229,-63.99897877,384.4998304,340.6058867,-1.73E-06,151.6246913,255.5468857,337.7437869,52.95583963,72.58152752,-417.3900166,14.4073022,53.75551618,70.65065944,-641.2315961,100.310986,,,,
562.6239996,2197,61.36365714,81.69580709,-229.0985965,-231.1567192,-1.82E-06,-183.2050359,-151.3340011,-240.9748615,-53.6992499,3.329076159,629.7699429,31.03368469,-83.99850926,-112.0313377,665.6923489,297.9791097,,,,
562.6319996,2197,2.459198296,13.05027715,-249.8499846,-173.0193816,-1.73E-06,149.6721417,-28.30709684,-58.18196888,33.50061966,-86.3940064,-1037.222745,-192.2253094,83.38559605,117.4820371,-1268.384582,-582.2578459,,,,
562.6399996,2197,-43.06658594,-45.6323699,404.0421112,310.2979389,-1.76E-06,-64.77885963,178.9478925,229.3176885,-26.21295468,113.9198822,589.2512389,142.546392,-65.08459353,-83.91177022,511.7464497,648.4832906,,,,
562.6479996,2197,65.18747476,101.8647089,-614.0833609,-506.5350415,-1.72E-06,-57.94226061,-271.9950351,-404.5527896,-27.8839499,-128.1064139,-408.9511814,-190.6943613,-4.561878083,3.4960421,-486.7891836,-477.5662674,,,,
562.6559996,2197,-66.01386617,-81.41929541,379.4094878,337.4105075,-1.72E-06,147.6777241,254.1278789,333.7122877,48.7834037,66.28297499,-433.0542591,7.058136357,52.57702803,78.92673707,-701.7489411,100.4097796,,,,
562.6639996,2197,42.6817147,67.48692195,-225.6905523,-217.0016139,-1.69E-06,-189.8318872,-147.7248772,-235.0146602,-66.7766096,-10.27704067,619.1117625,19.27047288,-96.53943635,-120.0048198,624.8540451,293.8116976,,,,
562.6719996,2197,-7.336633244,2.888323559,-232.7516772,-147.1894122,-1.68E-06,152.4152059,-17.57698777,-43.27049446,35.02626942,-93.51868603,-1033.992379,-199.5424015,79.13959831,122.4215124,-1298.174399,-582.9690841,,,,
562.6799996,2197,-41.39417696,-54.49680795,410.5609413,323.5941488,-1.67E-06,-66.79546387,181.3069846,231.772478,-21.98761691,104.7797402,593.3489129,132.4430589,-69.43792756,-75.27026638,480.8132162,644.9420758,,,,
562.6879996,2198,70.1861581,94.3817463,-609.1823165,-494.3342064,-1.65E-06,-59.78831924,-271.3182828,-402.2165512,-32.03075292,-139.9070639,-409.2759698,-200.0518329,-16.3175123,5.304882755,-518.004334,-483.5915902,,,,
562.6959996,2198,-84.68577288,-102.2592776,391.0953758,364.0101934,-1.63E-06,139.9407334,257.7080996,349.0038162,35.90590265,56.02879579,-424.4148759,3.672937834,33.05997957,75.47016933,-717.4358391,97.77218998,,,,
562.7039996,2198,19.19384741,50.12523179,-222.389957,-195.6701411,-1.62E-06,-209.1707476,-150.9057644,-226.4008063,-88.68082703,-24.68446615,619.590113,8.700372278,-126.4830224,-137.1910733,614.4815551,280.3104688,,,,
562.7119996,2198,-12.4548592,6.130202025,-231.424733,-130.0606277,-1.60E-06,143.4347614,-15.73763515,-39.7920596,21.80652717,-97.42789997,-1030.60766,-206.4725533,59.69454031,104.4903974,-1302.372823,-597.1429091,,,,
562.7199996,2198,-54.39986698,-57.80645955,413.8065797,348.87665,-1.59E-06,-70.55874814,193.2375245,243.5341248,-26.15185086,108.2947618,600.9053164,135.0886625,-71.17083257,-83.26297633,475.6435319,635.1236237,,,,
562.7279996,2198,55.52254086,89.3026925,-605.8458027,-472.109891,-1.57E-06,-69.9808609,-261.1430846,-391.1694246,-39.13861179,-146.6241092,-405.575567,-204.6468584,-14.79049613,-7.281651118,-520.202208,-492.3318411,,,,
562.7359996,2198,-75.4628055,-88.5781526,388.5052309,365.7916837,-1.56E-06,137.3110414,261.5415341,344.8456901,37.24331713,52.04842369,-412.5863874,-1.307063349,44.81525324,67.11923533,-712.3344314,96.12002489,,,,
562.7439996,2198,33.00618398,59.42328373,-224.6478281,-199.8541107,-1.55E-06,-204.3185454,-144.4678064,-231.024672,-78.52661913,-18.70650702,631.519062,13.6288454,-107.1638823,-128.2921641,599.0949239,283.7074814,,,,
562.7519996,2198,-4.962705185,5.650050828,-227.5511874,-128.3332329,-1.53E-06,142.5997658,-9.49820309,-35.8114636,18.96562084,-99.23791016,-1012.978085,-203.4238184,63.49388288,110.8136739,-1312.768163,-584.2500368,,,,
562.7599996,2198,-35.05906448,-42.23748429,404.3449627,326.4627209,-1.52E-06,-65.80022908,184.6645401,228.7487258,-27.53678774,103.3863241,611.1849385,134.0280225,-70.97271495,-76.48732536,460.2830482,643.3608883,,,,
562.7679996,2198,73.67689487,107.9832271,-610.2184358,-498.3292625,-1.50E-06,-54.73730208,-266.4207834,-403.9718234,-28.21261063,-139.4721608,-403.0936007,-195.2079982,-4.618313675,9.175781901,-565.1927997,-484.8776451,,,,
562.7759996,2198,-82.02717212,-94.6689507,403.7175369,373.6273385,-1.49E-06,136.795115,271.2366055,365.7491104,32.90487501,59.47097565,-390.9339029,13.35968394,45.47833042,73.38007429,-739.4577991,121.058683,,,,
562.7839996,2198,23.9685334,47.25028026,-217.1093233,-190.9039859,-1.47E-06,-217.2024612,-141.062154,-211.2282008,-96.2077994,-21.76497134,645.6715193,12.00349557,-117.6330695,-137.645482,583.0339138,301.3095464,,,,
562.7919996,2198,1.234634231,10.08619307,-229.0716202,-140.8057174,-1.46E-06,141.81903,-15.52711834,-33.45038184,14.16169861,-102.8787147,-1010.118033,-210.5932984,63.55071033,105.6157665,-1344.399801,-582.0229759,,,,
562.7999996,2198,-32.7241498,-38.23756276,409.8809603,319.8114862,-1.45E-06,-59.52565833,186.5035706,242.3860438,-25.03199241,108.8548081,626.4122342,142.676483,-58.31562766,-66.06235474,427.7674786,649.1909952,,,,
562.8079996,2198,68.90051129,98.80890918,-601.735499,-493.6625462,-1.43E-06,-53.31679143,-261.2572211,-384.7008058,-34.45957631,-131.4967999,-380.9916918,-183.0808816,2.247133371,19.93011982,-584.9421867,-472.0137617,,,,
562.8159996,2198,-81.44140579,-103.6859082,399.8366546,364.2267019,-1.42E-06,136.1899879,261.6065776,362.2166431,27.32800772,54.54561722,-373.1333577,11.54425935,45.43983104,68.38155162,-757.4380301,118.1476805,,,,
562.8239996,2198,25.44823333,45.84636541,-221.0377148,-201.4202194,-1.40E-06,-211.4901202,-150.3265011,-217.9467752,-97.36080763,-31.95151465,661.0742944,10.99988648,-113.5947186,-143.6448808,556.9346201,286.2375519,,,,
562.8319996,2198,-0.523063226,12.12064518,-227.4089713,-145.1561235,5.17E-07,152.2911965,-16.16921609,-34.03928686,16.30343921,-99.83260228,-978.6618634,-198.1418804,71.20032585,114.5853008,-1362.835268,-580.6708458,,,,
562.8399996,2198,-36.58333265,-36.98520256,406.3282122,309.5202407,2.33E-06,-52.9414952,181.8423154,234.2944865,-19.55686387,114.0667087,663.3623882,150.2838973,-56.27480705,-62.48473718,407.0359835,649.680008,,,,
562.8479996,2198,71.64442805,112.8267712,-600.0660769,-500.9860787,1.75E-06,-47.67537296,-260.8824982,-390.9421541,-32.0778419,-127.8691961,-342.4408465,-180.8800395,-5.57121494,14.82137348,-603.1560125,-474.2730559,,,,
562.8559996,2198,-61.77690514,-64.87596918,403.7682813,349.4584276,1.78E-06,158.055539,270.5338563,355.7069251,49.98651645,77.97014092,-324.2072346,27.01511419,48.6146482,92.53099045,-776.1429414,124.9522195,,,,
562.8639996,2198,52.50653881,90.73174183,-210.1141605,-212.7763768,1.88E-06,-173.4021126,-135.1886291,-215.491257,-47.64399438,11.25491159,713.52331,40.38759038,-88.45579195,-97.48054885,519.8534652,294.0883176,,,,
562.8719996,2198,9.633082341,31.18375189,-208.4867535,-134.2215115,1.73E-06,166.444824,-3.829820221,-19.9618806,47.69666279,-61.86790645,-907.7006245,-168.3555541,86.27186862,135.3890058,-1373.439246,-564.5992577,,,,
562.8799996,2198,-57.64250319,-56.96265148,413.2028182,327.5702103,1.82E-06,-74.56356771,180.4777571,244.7729213,-21.75688601,120.8564469,730.2923286,154.2507875,-67.18238866,-72.85307778,410.7446089,648.5008919,,,,
562.8879996,2198,46.07534991,84.88292903,-595.1383049,-478.1484949,1.73E-06,-71.91138741,-262.5601592,-376.98935,-48.80385466,-148.4779019,-283.6403365,-204.6029291,-23.91770777,-13.61397224,-598.9620549,-498.4015214,,,,
562.8959996,2198,-71.40721853,-77.8130982,403.6843734,363.1000337,1.76E-06,137.3587268,267.6082406,361.7365283,26.29139662,61.19586076,-241.2965143,4.832106222,40.05029976,65.51132588,-744.3419557,111.9234048,,,,
562.9039996,2198,38.48985655,73.80171597,-221.6966178,-220.3719699,1.72E-06,-196.3281563,-143.7335719,-223.6338545,-72.1446397,-0.451941602,789.6215039,20.47305665,-85.37981556,-106.7854783,534.1830791,286.8690582,,,,
562.9119996,2198,-5.143926799,13.61948654,-215.4116528,-149.5661441,1.72E-06,149.9495745,-7.094962933,-25.32087595,32.72041754,-79.87353153,-837.7734136,-192.4390277,93.33991969,130.3037322,-1374.550606,-566.6300756,,,,
562.9199996,2198,-55.96967434,-57.44439211,412.2732459,312.8579642,1.69E-06,-79.04794561,182.9220816,244.5128073,-29.311143,111.145124,817.1328645,141.5501637,-56.34562403,-74.12497546,422.3319851,659.7163256,,,,
562.9279996,2198,46.61777869,84.48412871,-579.1912965,-472.3888656,1.68E-06,-73.51131351,-254.4545777,-362.7309683,-56.2778684,-146.0072727,-190.1265479,-202.5777458,-14.45301054,-6.977242841,-581.156726,-475.6065636,,,,
562.9359996,2198,-79.09214547,-88.10123018,423.3607045,381.8576008,1.67E-06,126.4166328,270.8902504,381.1918565,22.81571232,61.04563806,-142.8068314,8.131544351,38.12744979,65.2693721,-713.9635836,131.2718768,,,,
562.9439996,2199,30.09761482,59.7397298,-222.6180677,-212.8292732,1.65E-06,-216.8527051,-156.9466678,-219.1914343,-82.00878953,-14.09025818,882.9932525,15.35204619,-104.1257927,-126.0356222,562.6926295,280.8955624,,,,
562.9519996,2199,-1.899580232,10.65903636,-218.749833,-144.373231,1.63E-06,136.0766681,-21.93990785,-27.33814177,19.68459795,-96.60951154,-748.2513937,-199.7603571,76.70515198,110.1424965,-1354.937437,-584.6634845,,,,
562.9599996,2199,-23.06569325,-31.51028584,411.6172021,315.6502485,1.62E-06,-70.52892237,176.3360441,238.4616567,-18.31620245,116.5622369,913.0304272,151.4452962,-44.57515079,-66.1653517,435.6483311,649.4026087,,,,
562.9679996,2199,80.72982369,111.9422976,-588.1944661,-481.8440472,1.60E-06,-61.46409619,-264.3679433,-379.3245604,-33.97791426,-126.7152054,-90.81852767,-175.5447369,4.936665418,9.797302481,-575.4570064,-471.2646778,,,,
562.9759996,2199,-57.32344968,-71.42323734,407.4924858,361.1497659,1.59E-06,134.1616234,258.1595334,356.4776665,38.38613762,68.67707539,-52.91936297,29.00821834,47.75082764,72.63244326,-721.8247205,140.2665985,,,,
562.9839996,2199,52.6095443,71.3402081,-220.3135433,-211.992477,1.57E-06,-205.4713765,-153.7552811,-226.3493154,-64.21673565,-10.2598484,964.657658,30.55699989,-95.70931724,-114.8289096,549.1946799,295.849923,,,,
562.9919996,2199,4.727980887,5.913240629,-193.3837893,-113.664029,1.56E-06,134.9045603,-8.60669551,-12.0374452,22.89429356,-95.46603884,-650.2322875,-189.0366769,66.84087962,108.9304071,-1325.57947,-551.6943077,,,,
562.9999996,2199,-29.13193901,-36.13913038,428.1258485,335.851418,1.55E-06,-75.94686124,182.8007889,249.8250741,-27.5643137,107.7032266,1006.516052,146.2885432,-68.99235723,-74.49391845,486.7164217,669.1368594,,,,
563.0079996,2199,66.07447365,101.3206606,-567.945348,-456.5988085,1.53E-06,-62.58009591,-256.5001613,-360.5529156,-33.02822286,-129.8758445,-18.26509402,-181.3033579,-6.646320266,18.35411104,-537.8374395,-465.6913041,,,,
563.0159996,2199,-83.6058164,-96.23864025,437.8583315,402.8996952,1.52E-06,116.3088275,264.6366537,384.3895114,19.21566823,58.65732623,29.52319803,19.48360774,31.54924619,61.17664015,-644.7800073,151.552153,,,,
563.0239996,2199,31.6824247,62.91942626,-200.6810395,-185.227237,1.50E-06,-220.8931987,-153.5102742,-209.0579176,-95.09441646,-33.39745831,1047.396808,11.32244551,-117.4713804,-138.4340397,653.5471221,298.2433445,,,,
563.0319996,2199,-5.296267162,11.89150405,-176.4320396,-100.4492418,1.49E-06,139.5849589,-5.844425289,-5.18339756,17.4774056,-106.8087353,-579.5323864,-194.0403007,69.02564882,116.5355784,-1238.528641,-547.2691397,,,,
563.0399996,2199,-39.55520318,-42.21414015,445.7658445,349.1965492,1.47E-06,-79.41639209,183.931963,248.8890042,-30.78703484,99.07654235,1077.036418,148.7816609,-55.85215071,-69.29769258,577.1502857,684.3192988,,,,
563.0479996,2199,67.59300897,100.4791037,-546.172639,-445.5346863,1.46E-06,-65.30497337,-253.4419279,-363.8608323,-38.10496473,-141.091429,50.68749719,-184.6750843,4.68477977,12.65740616,-435.8835297,-450.5635876,,,,
563.0559996,2199,-53.75439348,-69.35951582,461.1016599,395.9923235,1.45E-06,138.7819066,272.6363906,372.2098199,33.7273627,65.18749486,88.28313617,24.02555097,61.43740374,85.09095824,-553.6783076,159.8739707,,,,
563.0639996,2199,52.42632882,79.37986853,-173.4922034,-186.5941395,1.43E-06,-196.5942746,-141.6382744,-216.6275869,-70.84995458,-7.699225775,1084.004003,27.98098673,-69.41713669,-95.70159053,723.9626792,303.5011324,,,,
563.0719996,2199,-13.50724614,-1.782232411,-137.183474,-70.90060891,1.42E-06,138.3906356,7.378846494,8.911496973,22.75675702,-88.42931979,-560.185629,-186.7587395,97.48942162,131.1869226,-1144.033163,-539.2197206,,,,
563.0799996,2199,-44.58775865,-50.92003374,464.5561494,365.3875415,1.40E-06,-91.8117697,182.0403711,252.2858459,-45.64584759,96.30501607,1059.167895,132.9110646,-55.71162419,-79.04147319,691.7346149,666.2612783,,,,
563.0879996,2199,58.4744902,89.31858026,-538.5791365,-437.1568161,-5.17E-07,-70.87818156,-261.1310994,-366.6134659,-45.45299698,-144.4842776,-14.12030035,-203.5091706,3.803432767,12.83186785,-343.4392445,-482.2506007,,,,
563.0959996,2199,-85.21658309,-106.1957506,484.6935302,434.3349751,-2.33E-06,124.8720495,270.7207849,384.4134614,26.12795121,54.32994556,11.32735665,4.539336859,50.01288969,76.94222699,-441.6940592,149.7061241,,,,
563.1039996,2199,39.46059611,58.05746991,-168.023778,-164.5577274,-1.75E-06,-207.1459193,-151.5450471,-223.3060926,-83.07109768,-32.10815379,985.5159712,-4.038478912,-95.8549525,-117.4741345,845.0088113,288.3452286,,,,
563.1119996,2199,5.613635354,6.883272275,-149.6145077,-85.56677994,-1.78E-06,154.420951,-5.725470239,-20.49380815,36.13597369,-94.41245362,-678.4572856,-207.9582965,88.85723183,133.592381,-1065.038314,-557.1019505,,,,
563.1199996,2199,-23.65177536,-42.73736949,461.2640413,352.7838988,-1.88E-06,-59.31167079,181.1805818,234.0987729,-18.17220295,103.0352707,941.3013385,128.4968058,-49.05550841,-53.41824463,746.4175109,668.7003954,,,,
563.1279996,2199,82.90967209,102.9091848,-542.1678566,-450.5914847,-1.73E-06,-36.32541653,-254.1863092,-375.3913567,-20.62857411,-135.1443845,-129.1731588,-201.7002334,11.62715157,43.7890547,-295.7658389,-463.9244472,,,,
563.1359996,2199,-62.30435811,-93.61146584,467.7348668,403.5112986,-1.82E-06,143.8862524,273.8342325,368.9680132,48.78536857,72.5643563,-98.46185425,10.72858488,55.42007417,99.44326746,-405.8866229,165.8472817,,,,
563.1439996,2199,38.61704809,46.6360958,-182.658175,-183.6762023,-1.73E-06,-206.2304757,-146.6592836,-228.4505856,-86.28873415,-23.99538392,867.8226947,-6.883274674,-110.5509719,-117.5458614,874.8761076,292.0626203,,,,
563.1519996,2199,-12.23515884,-13.28050204,-150.0236121,-84.2447817,-1.76E-06,144.4136786,3.115403224,-14.0118052,13.76459367,-96.97383641,-784.9152901,-216.5680836,64.75398353,121.5103893,-1020.277003,-549.3323867,,,,
563.1599996,2199,-40.97982164,-55.67583564,456.8017362,350.8450928,-1.72E-06,-79.73338481,187.0813636,230.968339,-36.89417297,104.833003,851.9170568,122.8677181,-66.45518543,-70.06608186,797.3259298,674.5045813,,,,
563.1679996,2199,68.15116983,90.94330825,-552.0676795,-452.6367538,-1.72E-06,-58.23680983,-249.4061738,-383.8047729,-40.44186547,-131.9224362,-215.169884,-207.4092365,-9.305110538,17.55744024,-253.7423208,-464.6472266,,,,
563.1759996,2199,-67.63126579,-94.1525019,457.4265532,393.897053,-1.69E-06,133.0953643,273.1538924,356.5584004,34.93879215,73.37192599,-169.8508929,4.870130779,39.48702372,76.8779698,-372.8533713,163.1854416,,,,
563.1839996,2199,48.56542116,60.87569738,-190.9567337,-195.3429869,-1.68E-06,-202.2431945,-147.6726453,-234.3158685,-77.95250042,-11.53325921,804.5394894,-3.9092268,-106.0338504,-111.1664843,887.7274671,292.0985923,,,,
563.1919996,2199,8.557869581,5.627362,-159.3715887,-98.2272311,-1.67E-06,153.7539536,-0.846146165,-20.08639246,37.64667062,-68.25186056,-838.7303612,-201.6592032,76.76704379,146.0261609,-1021.050321,-543.5924071,,,,
563.1999996,2200,-23.4110478,-39.45819907,440.0751053,317.350722,-1.65E-06,-73.30965125,168.734523,207.2216884,-15.5570901,126.2795557,795.9166754,135.4680291,-58.39044927,-61.33210732,775.4091134,662.4766179,,,,
563.2079996,2200,70.67994115,94.2628062,-552.0851428,-467.2293891,-1.63E-06,-53.47764378,-257.956577,-392.4432213,-30.83266919,-125.6567921,-277.350276,-199.2424054,-3.619983455,12.05595266,-285.1618499,-476.6019893,,,,
563.2159996,2200,-61.15288598,-85.12428054,465.4448381,390.8251343,-1.62E-06,141.1490955,277.8006859,356.2570142,44.57190657,79.78125951,-216.2172937,17.30958345,48.68730201,79.68198032,-382.2019867,169.5261237,,,,
563.2239996,2200,55.41326082,69.3128046,-188.9336573,-205.9951802,-1.60E-06,-194.6031839,-142.8708429,-240.3493545,-63.60694134,-3.429565651,755.7990101,12.45534139,-87.24854503,-103.531822,870.6203417,297.5213521,,,,
563.2319996,2200,0.183518537,-5.182943873,-142.4667545,-79.68829402,-1.59E-06,154.28245,17.71728632,-3.428591281,30.93844621,-72.41222977,-878.3126766,-190.5553714,81.49007992,139.1692431,-1020.663326,-526.185862,,,,
563.2399996,2200,-40.06044846,-50.85010551,458.5831408,356.1867771,-1.57E-06,-78.34590511,191.8589156,237.2663867,-41.49369244,111.48968,777.793739,134.6617653,-76.65856639,-71.68456914,824.9778232,682.7841619,,,,
563.2479996,2200,55.54251841,92.03689367,-545.7075119,-438.1029477,-1.56E-06,-56.49407192,-247.7478607,-370.3193761,-49.03430824,-135.1401218,-299.3926464,-204.6649719,-19.7860029,15.93797986,-238.171831,-474.4408811,,,,
563.2559996,2200,-64.25212083,-78.59141689,459.0696001,396.8888067,-1.55E-06,144.0919235,273.0866456,358.4037746,37.33863735,76.56468393,-238.383196,14.97700202,38.3567915,89.14022683,-355.7317795,163.8631961,,,,
563.2639996,2200,50.19965204,73.92157217,-203.1685702,-211.8984364,-1.53E-06,-194.5970839,-155.0508433,-250.0072867,-71.27171414,-10.0626737,728.0479756,10.56528325,-99.67791186,-106.0898127,878.3349271,284.2184251,,,,
563.2719996,2200,-6.810377242,-1.145387116,-149.7527498,-86.43686684,-1.52E-06,151.458008,10.05871582,-6.837589752,31.96491457,-77.30634448,-907.2422229,-190.5661364,72.58751531,130.0093957,-1020.85526,-538.0312296,,,,
563.2799996,2200,-26.71221041,-35.12295508,446.6533955,331.5420997,-1.50E-06,-73.12987488,182.8378237,227.924149,-17.00591323,116.5340842,746.3035494,139.813156,-69.65287536,-65.21415299,810.6037768,674.4014862,,,,
563.2879996,2200,68.30597252,95.50376001,-553.2554331,-458.4619726,-1.49E-06,-59.48677147,-254.8356682,-377.1887975,-30.43939436,-130.6896346,-333.9001874,-196.163206,-11.36011096,21.5915793,-258.2551884,-475.5631485,,,,
563.2959996,2200,-77.31793674,-103.8837449,472.9370192,408.8757413,-1.47E-06,116.6798976,278.2629146,373.8453089,30.93387578,67.05508544,-254.6836654,14.18340455,24.19608784,74.62029432,-336.436525,169.5974327,,,,
563.3039996,2200,34.00715399,50.87104633,-187.6633499,-193.9250631,-1.46E-06,-221.4958045,-149.6814063,-232.4829454,-85.28527399,-31.94006338,705.4867719,-11.12584438,-120.5039063,-121.1367589,911.1850724,272.8361592,,,,
563.3119996,2200,-20.87115921,-20.32925584,-141.1975958,-79.45236271,-1.45E-06,130.9792403,7.80197217,-3.447992512,15.52574714,-99.82970735,-927.2981777,-213.9832024,61.03322786,121.6869747,-985.3988953,-552.4798089,,,,
563.3199996,2200,-40.51875727,-56.92713713,443.754405,324.2821076,-1.43E-06,-86.87088953,177.6025664,218.6351125,-31.54801268,96.49806897,734.7904241,117.9769054,-80.3665266,-72.37237274,843.0292569,658.0378425,,,,
563.3279996,2200,70.94688884,95.53456989,-562.114635,-479.5240597,-1.42E-06,-46.44305253,-258.3583029,-393.9145385,-33.13733357,-138.2154682,-359.862868,-220.3729668,-12.55501721,26.44016922,-259.2213788,-494.4889439,,,,
563.3359996,2200,-74.69442358,-97.1722964,472.8550323,396.0136914,-1.40E-06,142.8493027,283.7511286,367.6314008,36.63081233,78.90000712,-269.6318155,6.999121513,36.43732484,90.70824755,-341.0652548,166.1377277,,,,
563.3439996,2200,44.52837488,62.85654197,-187.4578307,-200.5018025,5.17E-07,-189.6736958,-137.3585833,-231.1441035,-72.97036343,-12.79136437,701.1821566,-3.951173961,-110.8368013,-103.4041851,918.0610474,274.2525365,,,,
563.3519996,2200,1.897657436,3.733430915,-143.2718595,-95.41613092,2.33E-06,164.2068807,11.93154124,-12.29440154,39.35464503,-73.57977968,-930.9557372,-198.9818443,77.7255953,147.09936,-986.1307789,-546.3800381,,,,
563.3599996,2200,-48.13649799,-57.00195359,441.7534285,314.8863942,1.75E-06,-76.97927592,173.6032069,212.2760191,-17.28543244,115.1366274,730.1564772,130.8158748,-62.43511213,-57.19358696,834.1469245,661.8503914,,,,
563.3679996,2200,49.49605212,83.92694736,-558.9650873,-469.5784932,1.78E-06,-52.71619838,-257.1848679,-386.1374848,-40.13259646,-141.3536705,-367.1343214,-224.3760142,-19.67089108,11.52419464,-250.1924104,-493.9453347,,,,
563.3759996,2200,-73.92725002,-87.83926887,475.8744504,395.7957618,1.88E-06,141.044693,279.3511763,365.7730381,33.99975495,82.54769589,-272.5163015,1.27818779,31.0807568,81.79559333,-320.3361463,168.2600752,,,,
563.3839996,2200,39.51378601,66.47226068,-194.6360745,-216.9491048,1.73E-06,-191.7756881,-153.5238019,-246.6647161,-72.66239398,5.619272659,686.7312346,-3.76633168,-100.8378258,-100.066604,913.2244045,266.806369,,,,
563.3919996,2200,-15.15786118,-6.820024519,-144.3814305,-96.11735985,1.82E-06,155.124029,6.720189457,-17.58457251,26.31072562,-63.10841351,-947.2435728,-206.9737125,66.70285641,124.2329308,-989.2630081,-551.7014852,,,,
563.3999996,2200,-52.07574025,-57.45911174,452.2789207,331.7273369,1.73E-06,-78.87586421,184.0776609,221.8570673,-23.39333425,128.9347009,723.6955067,125.3314616,-82.28350057,-76.53554923,847.9890586,660.636039,,,,
563.4079996,2200,52.71985662,86.69963231,-550.7850339,-455.6189203,1.76E-06,-50.86184588,-250.3616642,-378.6594749,-34.46723793,-120.7932056,-364.2327315,-215.3773351,-23.27036725,11.48859047,-229.7345343,-495.4522905,,,,
563.4159996,2200,-75.30255762,-97.50868098,467.1288098,393.8559244,1.72E-06,126.2991081,272.906637,354.0086563,33.01105701,78.6493192,-267.083163,0.702900723,26.90913763,63.63345994,-294.7247407,164.8276839,,,,
563.4239996,2200,39.12674388,53.35751561,-206.8861298,-222.1384041,1.72E-06,-202.3809725,-159.605879,-259.2723282,-67.06028713,-11.47041027,670.0258885,-15.47839897,-102.6128316,-113.9278434,910.7087358,257.1905501,,,,
563.4319996,2200,1.067467962,-1.311108549,-150.7803269,-103.0608735,1.69E-06,159.394063,3.979049718,-24.39290585,31.77271065,-70.1090127,-953.7722317,-206.7976938,69.54360518,125.0593965,-987.7405742,-548.9455131,,,,
563.4399996,2200,-21.10127488,-35.3991573,434.3400491,306.0046231,1.68E-06,-71.2033118,177.948818,200.65398,-25.69684513,129.549911,727.267261,133.1761868,-71.81212312,-70.61566794,847.5928346,668.3161148,,,,
563.4479996,2200,76.36661938,102.1767762,-566.8763242,-484.0170744,1.67E-06,-32.07921231,-251.894571,-400.3785974,-19.57411994,-104.9031706,-375.9039999,-200.6395463,2.753156668,39.23122431,-279.3630558,-485.6744865,,,,
563.4559996,2201,-61.60055399,-85.21446066,457.2330844,376.3293057,1.65E-06,146.3247571,274.5991489,343.9564105,40.32946659,99.24278775,-261.9590978,21.72319063,38.75863276,88.14992357,-337.7782251,186.7962175,,,,
563.4639996,2201,48.84704358,67.66616905,-213.4264914,-224.9373631,1.63E-06,-193.18579,-152.9708124,-257.5513664,-78.87195604,4.054647021,682.9773335,0.524907278,-109.0392334,-103.8254079,878.1665545,274.6042922,,,,
563.4719996,2201,-5.380262778,-3.991975079,-148.4394781,-90.69986901,1.62E-06,156.9633319,14.11758238,-14.15456786,26.67138864,-53.84718563,-941.1056156,-196.8463469,64.23154126,134.9684314,-1027.233202,-534.4384852,,,,
563.4799996,2201,-43.48152022,-53.00433351,431.6662289,321.9687233,1.60E-06,-86.95106199,178.8848974,210.3791052,-41.82842574,128.7206732,737.3012492,126.0872417,-87.71422569,-76.36556681,819.3159167,667.5299918,,,,
563.4879996,2201,54.15439952,84.61766852,-566.5871044,-458.8556328,1.59E-06,-58.3972484,-254.5594166,-386.4419172,-49.88547194,-120.9743127,-373.9765672,-222.3317812,-25.28650307,13.53357323,-294.6676592,-501.9360151,,,,
563.4959996,2201,-73.11246516,-96.92172023,461.9585652,405.9121875,1.57E-06,122.8862514,275.9263871,356.3579532,27.46330424,86.49584769,-252.9211811,1.831177463,25.30580793,64.21587633,-341.447316,171.0743324,,,,
563.5039996,2201,52.76677837,67.01441975,-210.0550836,-197.2394868,1.56E-06,-199.7822057,-147.6702072,-248.4147841,-75.93919466,-9.444364721,690.1632601,-15.15126166,-102.6926513,-114.0061213,875.1220359,255.8561873,,,,
563.5119996,2201,4.778044352,-1.16601481,-145.4829634,-67.87325042,1.55E-06,152.7381155,11.73011166,-11.62996466,33.47965136,-67.8527358,-929.2009664,-207.3098759,74.71238365,126.3443596,-1016.893162,-549.9064581,,,,
563.5199996,2201,-33.33449973,-51.78451696,429.5604077,339.4469286,1.53E-06,-90.99994332,169.4904114,207.7859368,-29.17710581,112.8885559,743.0217241,116.2031062,-76.51810893,-87.59222996,825.6714828,642.2163967,,,,
563.5279996,2201,77.60035194,101.8396512,-558.5709817,-430.9509722,1.52E-06,-46.22274204,-252.1845584,-375.7102896,-34.45632424,-131.5241307,-365.2096185,-224.8534978,-12.67511091,9.731360242,-286.7846474,-522.5718279,,,,
563.5359996,2201,-38.46891174,-59.68849005,459.8803019,412.9964102,1.50E-06,141.2697255,266.0682043,350.4354845,51.220709,97.98596058,-223.3621225,13.81692685,41.4218873,70.39846183,-320.6850379,163.696598,,,,
563.5439996,2201,71.28115612,95.9544471,-225.0571181,-210.5277065,1.49E-06,-182.8604652,-172.3046518,-270.0544367,-50.39644595,15.51179873,701.3177413,3.088908116,-87.25669287,-100.8433295,860.6029732,241.4962539,,,,
563.5519996,2201,6.852770704,15.81313923,-147.953278,-71.794498,1.47E-06,166.8126804,2.429432701,-18.60371635,42.3177427,-47.57688671,-915.301685,-189.2588426,76.80411836,135.9836541,-1029.057876,-551.4593144,,,,
563.5599996,2201,-37.14264274,-37.90166273,410.8290376,312.3892516,1.46E-06,-84.52995159,157.7943844,186.9786253,-25.18181537,125.0047917,758.2774447,126.1066602,-78.93992011,-79.05313129,815.6656855,640.8887412,,,,
563.5679996,2201,60.42622962,98.13517647,-583.4285732,-466.8004209,1.45E-06,-42.78170825,-266.553697,-403.0205142,-27.15370484,-123.9359425,-373.6203227,-220.8896401,-8.838717852,25.20069288,-332.8796209,-526.9217813,,,,
563.5759996,2201,-57.9807682,-72.3138024,442.3123464,385.9386779,1.43E-06,139.4724043,264.5055707,334.772391,47.56527532,95.71516744,-224.6981182,10.11703536,39.61378602,78.45740548,-356.284467,169.6696878,,,,
563.5839996,2201,47.10070805,75.82305463,-239.8759829,-230.3100145,1.42E-06,-192.8169954,-166.1450523,-275.2827729,-61.35149709,5.263570888,699.3756685,-12.54460537,-92.17771631,-106.8330637,823.821581,237.4787097,,,,
563.5919996,2201,-17.42374334,-7.91617874,-143.6076019,-67.02699186,1.40E-06,157.0153873,11.57246022,-9.706319168,32.54638045,-56.57535839,-897.4704777,-204.8357202,77.32174247,125.4569055,-1056.914586,-547.8254786,,,,
563.5999996,2201,-39.30849286,-42.29124742,414.0195148,315.9304315,-5.17E-07,-88.60003399,161.638124,192.2869926,-33.31852237,117.6081814,805.6929104,112.8477906,-73.18833018,-87.57668579,806.7299267,651.3411987,,,,
563.6079996,2201,54.50576837,90.25890852,-572.3356943,-453.9253551,-2.33E-06,-54.5820531,-262.7417614,-390.7825291,-35.87058684,-129.5182354,-309.6973056,-231.7865269,-3.648544887,9.818186214,-347.5961677,-523.7050041,,,,
563.6159996,2201,-72.15122975,-87.74621227,461.0370775,413.7931572,-1.75E-06,118.8462477,262.1568715,351.8854363,34.13071188,82.92803153,-130.3860941,1.157593086,30.16021334,52.22935538,-353.0723003,166.1067928,,,,
563.6239996,2201,51.9386422,79.07740522,-236.852945,-219.7689264,-1.78E-06,-201.9855894,-178.2246426,-271.8712921,-70.96727724,-13.3959477,798.3717516,-21.95341431,-107.4551793,-126.2295381,823.5614676,225.432263,,,,
563.6319996,2201,-4.234679716,1.7391338,-140.4185759,-64.69298785,-1.88E-06,154.245514,4.193177886,-8.87967102,37.52265465,-61.11615834,-793.1837434,-205.374578,73.38377144,121.4891751,-1068.776672,-544.2065304,,,,
563.6399996,2201,-26.65346222,-34.30654525,416.366607,321.6380396,-1.73E-06,-84.90005585,159.3460988,197.3555865,-16.87599105,122.794612,906.9693555,121.636041,-74.4688232,-82.95930812,788.8184025,661.5422003,,,,
563.6479996,2201,72.00803415,104.445565,-565.5266185,-441.8365234,-1.82E-06,-39.09718311,-257.3083822,-378.3963046,-19.94294228,-120.3779608,-220.2092392,-211.9687549,-7.560957022,15.48260213,-362.6082587,-503.5879751,,,,
563.6559996,2201,-66.783447,-85.89249857,470.4003265,429.1020719,-1.73E-06,123.7208909,269.1581893,364.4732413,40.3418836,97.43043421,-41.31888091,26.08210879,28.53665906,58.33400807,-352.5791068,201.1176294,,,,
563.6639996,2201,44.86366517,67.96349656,-233.4430034,-201.4472507,-1.76E-06,-208.1497251,-174.7072579,-260.4439621,-73.93622925,-7.36647748,864.9130654,-8.048090416,-117.9682597,-125.7996629,817.7991867,248.6847841,,,,
563.6719996,2201,-1.594327601,4.055608144,-134.1679942,-47.75878021,-1.72E-06,152.5419651,7.816478615,0.689222338,31.97223587,-61.3114976,-729.4714405,-193.7825807,55.22413244,111.0126004,-1059.569564,-525.2457739,,,,
563.6799996,2201,-16.65247846,-24.19643856,414.6423135,319.1602968,-1.72E-06,-80.35389995,157.3548574,193.3139557,-15.71568568,128.3623269,962.1024423,135.8004611,-77.86811478,-80.43841377,792.6745556,670.241158,,,,
563.6879996,2201,72.47062188,101.1423851,-571.4878302,-455.7905288,-1.69E-06,-36.99349595,-262.9149177,-388.1514761,-12.50360233,-116.2235931,-188.5229419,-205.5630148,1.094636094,33.89603144,-382.7651164,-497.9182588,,,,
563.6959996,2201,-69.18392174,-91.15404013,462.9060032,407.210001,-1.68E-06,123.1522729,262.8860392,351.4391684,43.66295545,90.65673904,-14.91959626,20.70850139,36.61573128,63.74205316,-371.2190427,205.3063259,,,,
563.7039996,2201,48.19153337,70.44828784,-233.0159585,-220.3952,-1.67E-06,-194.6253605,-170.2106978,-265.7509308,-67.07877114,-8.238371845,876.4881986,-10.46111989,-98.09030754,-114.8684866,784.7217277,241.7570753,,,,
563.7119996,2202,-16.44020599,-11.81255692,-121.7903437,-46.42078082,-1.65E-06,155.8371462,16.98146982,7.928651197,34.16708357,-58.13827896,-712.3380816,-188.9696078,75.4301274,129.6153321,-1072.007195,-519.370599,,,,
563.7199996,2202,-34.40393216,-43.04849495,414.0546249,317.2993349,-1.63E-06,-91.88286827,151.8819981,189.1173245,-29.28332515,118.5212072,970.7614825,125.6327488,-69.77735306,-83.60449368,790.3412594,658.7647001,,,,
563.7279996,2202,74.79024148,102.3481196,-558.4886565,-450.3848842,-1.62E-06,-29.50584803,-260.5509902,-383.0987996,-18.53667266,-113.4414947,-189.3764286,-211.5899565,17.23572591,37.14509112,-394.2926191,-519.8452563,,,,
563.7359996,2202,-64.67612248,-88.36933156,479.9698434,417.7784887,-1.60E-06,131.4288359,266.6718482,362.5106443,48.5158171,103.8368839,-2.272923103,30.8143858,58.16807112,81.32190633,-354.343235,199.7816726,,,,
563.7439996,2202,59.78941547,75.47776391,-238.1135126,-231.5366153,-1.59E-06,-190.1346426,-181.5731121,-273.5870387,-56.72748331,-7.148699,857.3493582,-10.66990949,-73.70931169,-106.7085692,783.7024905,219.2039713,,,,
563.7519996,2202,-0.66065906,-5.731400484,-113.7969844,-48.65561265,-1.57E-06,170.0070895,16.49325701,10.3479181,51.20494509,-53.3494528,-744.4638812,-189.2462168,101.3712972,139.49496,-1075.720831,-539.8107824,,,,
563.7599996,2202,-36.71288296,-53.68709142,424.2843755,331.2685768,-1.56E-06,-87.89961598,156.0348548,200.0845723,-18.36302191,120.9108624,933.7016342,125.7754732,-61.8089777,-73.81929035,808.9694017,643.3664389,,,,
563.7679996,2202,65.78090298,86.42860118,-566.5144568,-448.8852038,-1.55E-06,-37.77908315,-271.0815254,-390.4867777,-18.80739887,-130.6302974,-251.8059999,-229.8607554,2.23732987,27.28329718,-379.307197,-545.3913389,,,,
563.7759996,2202,-58.06742857,-85.03463382,461.2139978,399.3548114,-1.53E-06,136.931631,252.3096539,341.2672554,51.8356549,86.78496996,-76.80005241,9.204355122,36.43764201,75.22666815,-346.4440073,174.3207486,,,,
563.7839996,2202,73.20823146,84.10239656,-246.0314681,-240.2669824,-1.52E-06,-164.517658,-182.3412431,-281.1091827,-44.49956977,-4.371354968,768.8496622,-14.66688376,-89.63643096,-87.142081,768.9164696,200.9455833,,,,
563.7919996,2202,18.92395149,4.306720198,-119.5878524,-60.98158099,-1.50E-06,195.9030256,13.73385711,1.171334533,63.82699298,-35.88704997,-813.7435853,-180.1264378,90.98669451,163.5435074,-1081.537965,-534.7506099,,,,
563.7999996,2202,-15.58249558,-41.73321608,407.0207314,300.7774296,-1.49E-06,-65.85600596,147.1133591,183.8497532,-6.84818099,138.5756005,864.3602256,137.3184101,-65.88759082,-51.81680523,793.8358198,648.6964855,,,,
563.8079996,2202,68.99705139,81.05059686,-555.5535456,-447.8317897,-1.47E-06,-20.3170664,-258.9980926,-373.3125391,-15.99475801,-118.5157566,-318.7872589,-211.3776853,-5.289770213,43.10830973,-389.5378588,-537.4781333,,,,
563.8159996,2202,-65.63767099,-97.22385765,474.4912154,408.9467122,-1.46E-06,135.6959631,262.7471164,360.4322331,41.04775813,87.99625232,-114.1156123,22.36077624,23.06382693,75.34076025,-312.1232786,188.2907633,,,,
563.8239996,2202,66.06379605,77.41648488,-250.9235458,-250.4553315,-1.45E-06,-171.6519185,-184.263274,-279.9139885,-52.36700665,-13.28798513,716.8364344,-14.76247261,-93.31074333,-87.77669318,779.9687945,193.8588232,,,,
563.8319996,2202,8.840864263,-7.751916404,-116.7170816,-69.15911818,-1.43E-06,188.0067013,15.25006639,5.290559558,63.0908533,-47.08745275,-855.5117986,-178.2099238,91.69151946,162.8469488,-1074.10668,-540.3845621,,,,
563.8399996,2202,-34.67982724,-64.52837179,397.6700621,288.7850841,-1.42E-06,-89.10283208,138.5617818,177.8540978,-17.69984873,114.9687371,825.4712952,128.8414726,-73.23202198,-70.98145534,811.0591374,635.7249259,,,,
563.8479996,2202,64.77026557,72.03805646,-569.7099953,-466.2861804,-1.40E-06,-32.97843667,-266.6069981,-385.7815034,-17.54248864,-136.2464342,-369.0296137,-225.8617742,-1.255434945,25.00016881,-395.1396889,-558.6054533,,,,
563.8559996,2202,-56.20146787,-99.17313649,468.2023091,394.3203959,5.17E-07,138.3474388,265.6901285,355.3777771,57.08760855,90.39035114,-137.9898097,21.64171531,37.79615962,74.68416032,-310.6967768,183.7915418,,,,
563.8639996,2202,56.93369082,57.29511224,-254.2788357,-249.1143089,2.33E-06,-182.7803836,-183.9982314,-274.8934699,-55.64497367,-20.75064826,689.4180713,-18.7991182,-96.82507753,-100.9138798,791.8376092,187.9260849,,,,
563.8719996,2202,5.610625833,-15.34885062,-117.9703634,-62.75597414,1.75E-06,175.0758962,13.07183675,11.90726244,49.21363704,-61.38069912,-880.6400706,-187.3670941,83.58043889,138.2869968,-1051.228891,-546.1391804,,,,
563.8799996,2202,-21.39745067,-56.58453661,391.016791,293.4211373,1.78E-06,-89.63252277,140.0338007,183.7661717,-23.08489492,107.0576153,804.0969404,128.5378376,-73.84810663,-85.23731884,825.9060343,633.2512734,,,,
563.8879996,2202,67.53217632,71.65449281,-564.7438407,-440.5629693,1.88E-06,-34.70849676,-259.8412942,-369.1842328,-26.73955959,-144.9743143,-395.0627353,-218.787002,-12.11012784,8.716084331,-382.5009677,-552.39637,,,,
563.8959996,2202,-48.0146215,-86.59094955,468.9095927,414.7978729,1.73E-06,137.0196245,266.4774567,360.7235989,54.8901413,88.08741137,-155.260653,31.56338168,26.44390849,59.44822011,-289.3354894,190.8092342,,,,
563.9039996,2202,74.61671187,76.53777326,-265.7608473,-245.0563982,1.82E-06,-177.2084556,-185.7976347,-280.5305775,-44.73327763,-12.95137718,655.009086,-8.63169189,-99.56990127,-102.8673726,781.2047779,183.6570495,,,,
563.9119996,2202,10.8859604,-5.878484394,-120.0852378,-51.01023965,1.73E-06,177.0983246,14.48505455,13.15698597,59.09279618,-51.73679049,-910.5330028,-176.6436059,74.72439806,131.7896756,-1059.444378,-540.1146508,,,,
563.9199996,2202,-16.6125039,-34.57867491,386.1960296,293.8880013,1.76E-06,-79.02378885,141.5124937,177.4080237,-4.469238839,125.3253214,776.6334619,141.6870996,-75.90859782,-82.83955052,813.866632,633.7284387,,,,
563.9279996,2202,71.23901364,87.823575,-559.2313514,-437.2405454,1.72E-06,-21.28779347,-249.5599751,-370.7733806,-9.153416457,-121.3028462,-421.5761734,-205.7810714,-6.245326596,22.99867272,-406.7157494,-551.3718852,,,,
563.9359996,2202,-56.58706445,-90.58802276,477.8049368,428.8340373,1.72E-06,128.0140929,271.160477,367.34085,41.47518517,95.24216243,-155.6907324,33.53998484,19.98318632,51.44104763,-277.307163,200.4080321,,,,
563.9439996,2202,61.65546735,73.32955502,-258.0830679,-231.052175,1.69E-06,-184.6684803,-183.924242,-266.8954446,-66.47965663,-12.13288709,646.8896316,-12.96246924,-101.4728785,-110.8655368,787.2751875,180.2190875,,,,
563.9519996,2202,6.912885245,-7.768673202,-107.4785295,-34.9339753,1.68E-06,175.7200657,20.03425951,27.52707453,47.67121423,-48.58770277,-912.4551944,-181.4666326,76.82676777,133.3911986,-1053.833204,-538.8963075,,,,
563.9599996,2202,-0.755866124,-28.5393033,375.3848957,287.2331646,1.67E-06,-85.32814297,128.8608961,168.0903976,-19.80001614,121.2425446,774.060069,127.4378369,-79.39869762,-89.08457514,822.3503487,629.3073399,,,,
563.9679996,2203,87.82030889,98.4019175,-564.6371377,-450.8111218,1.65E-06,-13.62938086,-263.6134761,-377.6239472,-12.13259792,-115.3027534,-437.0282417,-211.3046158,9.363293615,32.17842587,-424.6837722,-553.6536291,,,,
563.9759996,2203,-48.51250134,-87.43278282,481.8718674,420.5708054,1.63E-06,140.5140708,264.271058,364.6325158,54.54901961,105.6607427,-163.4993839,38.25839163,42.58086257,69.04825504,-298.6095736,213.2667051,,,,
563.9839996,2203,70.26955613,72.18267449,-259.7979629,-240.287102,1.62E-06,-185.1917325,-191.6761426,-280.4907008,-59.34171961,-19.10830147,627.0690601,-19.4410577,-97.80225004,-115.9235718,759.1536669,185.5708748,,,,
563.9919996,2203,-0.397521386,-16.47796892,-96.93232964,-33.52948517,1.60E-06,170.6286171,16.20900653,21.6152775,50.01938725,-57.18730668,-918.237575,-187.7448237,81.43407557,122.8079449,-1067.443523,-526.3184952,,,,
563.9999996,2203,-20.08646923,-37.63820637,381.3217233,287.8639327,1.59E-06,-83.10847968,126.5634888,167.5509475,-19.66685743,113.8284329,769.325291,120.2713865,-71.71438246,-89.90128454,809.2880272,636.7287375,,,,
564.0079996,2203,80.36594194,99.31182665,-554.0199694,-443.1279545,1.57E-06,-9.627638552,-256.2794669,-367.7891852,-15.49376913,-122.731979,-444.6257897,-218.2818436,8.599633863,27.82580875,-435.1114036,-544.2323209,,,,
564.0159996,2203,-50.55618806,-83.83033104,489.5276986,424.127547,1.56E-06,139.1104168,266.1329073,373.7217458,53.05039915,110.731484,-149.0381738,42.59408466,52.13157419,69.35896077,-286.3175863,233.6077907,,,,
564.0239996,2203,69.36806425,80.35938929,-262.2055177,-251.9499459,1.55E-06,-173.1646986,-194.6321561,-278.5993858,-58.21269962,-9.009337263,623.294832,-16.34721897,-80.99744344,-104.4961719,746.1207207,186.4624965,,,,
564.0319996,2203,7.612738423,-0.4050174,-79.6973719,-24.81703557,1.53E-06,191.3054746,32.43484615,42.34761678,49.28726766,-44.4448646,-906.9847894,-177.0389424,90.63802392,140.4414509,-1057.733745,-515.0825484,,,,
564.0399996,2203,-19.09680674,-33.78457533,395.3270585,305.5334309,1.52E-06,-80.53303589,138.2949112,192.1080951,-23.40826014,127.9322389,793.8306117,138.676721,-61.8896402,-69.7938731,842.1568615,647.1990554,,,,
564.0479996,2203,68.00479899,92.48997615,-550.0928629,-437.4172647,1.50E-06,-17.72525223,-257.4028891,-354.2155518,-23.41254575,-120.7708281,-441.5569423,-215.4283909,11.5280608,31.89426302,-422.0541566,-556.542273,,,,
564.0559996,2203,-56.75790098,-78.20258288,488.2060632,423.2928368,1.49E-06,136.3651495,262.9206544,379.4002927,46.99801789,107.8216814,-144.5204749,39.80761426,49.00872311,68.41642387,-262.7333248,221.0066874,,,,
564.0639996,2203,61.83281758,81.79528953,-267.031625,-242.932709,1.47E-06,-174.9903338,-198.6980411,-270.7754969,-61.23300322,-4.338977489,617.6707008,-9.268408141,-79.77635643,-98.23210954,762.5582842,173.4410863,,,,
564.0719996,2203,-9.569165879,-9.394065108,-79.71619743,-3.677285601,1.46E-06,177.6065122,29.72700571,55.84005391,37.85122993,-43.83994911,-904.7691058,-173.0030835,77.99920685,123.9234572,-1027.357963,-518.0995508,,,,
564.0799996,2203,-24.81838164,-29.93683692,383.8304312,312.4674405,1.45E-06,-92.19425723,129.581038,191.9356141,-25.39517054,128.320661,792.9458974,136.5467187,-72.58256006,-91.42345782,869.7886757,639.1789348,,,,
564.0879996,2203,73.29268067,98.6994244,-556.5695244,-429.3542353,1.43E-06,-18.27929177,-266.0231563,-359.4173128,-16.95784412,-110.9789574,-451.5998322,-208.6559451,12.02982856,28.48889486,-415.3966189,-565.8501017,,,,
564.0959996,2203,-48.21250377,-73.92727788,486.1559746,436.8120234,1.42E-06,133.673702,261.4104977,376.9188796,41.92914288,110.5052557,-137.3841759,44.7808,33.75638393,57.68674148,-237.0963674,222.6833702,,,,
564.1039996,2203,73.03285594,88.72900653,-271.8046807,-240.3134,1.40E-06,-172.4569272,-194.5874,-273.7311376,-52.68006487,-0.206423634,611.4623009,-9.619148584,-82.56536808,-100.3251074,765.9122825,166.2966283,,,,
564.1119996,2203,-0.596070502,-10.19022671,-80.9264491,-12.53438426,-5.17E-07,180.9009226,29.21717049,44.40914092,51.06794781,-38.99285832,-908.9162289,-169.7554779,93.34893552,130.8620812,-1031.622064,-524.0519989,,,,
564.1199996,2203,-24.18964064,-41.80784795,376.1125663,302.0133025,-2.33E-06,-97.49823378,127.6806476,180.1347198,-29.26128237,113.0052126,792.1640358,131.0235667,-71.66926526,-98.76626028,872.7444987,630.7971456,,,,
564.1279996,2203,58.83076833,77.55990601,-551.9946044,-417.9658711,-1.75E-06,-28.0929108,-254.3479123,-348.2461522,-16.68280098,-124.609671,-452.682711,-215.926193,7.118702486,21.70259841,-412.5712206,-570.088332,,,,
564.1359996,2203,-59.41941418,-86.26670773,485.0352335,438.6641936,-1.78E-06,118.4071473,262.6601132,376.9849192,38.94571285,99.27281533,-124.2213928,38.61038225,26.73330252,47.41899098,-211.1463892,214.5991372,,,,
564.1439996,2203,72.37848215,89.38495893,-283.3883819,-252.0144061,-1.88E-06,-183.9826531,-204.0644659,-284.9155429,-58.5291608,-17.40808206,614.1660782,-15.56803806,-89.98759968,-108.9300361,778.0750393,146.4960129,,,,
564.1519996,2203,-0.616621645,-1.852576833,-78.64465191,-11.20662091,-1.73E-06,179.9440857,32.31908577,49.35615909,61.59628109,-36.58743957,-893.5041229,-161.0462498,93.37763248,139.1331549,-1021.400663,-518.4531984,,,,
564.1599996,2203,-14.59787468,-19.29879209,367.7750571,287.3237596,-1.82E-06,-86.66402046,131.6681591,175.7425038,-15.65280646,129.9265378,804.2192225,144.601255,-68.45206952,-81.84595418,878.0383047,639.5143603,,,,
564.1679996,2203,72.07816651,100.3319316,-557.2257137,-437.7017125,-1.73E-06,-10.24002584,-248.6697151,-354.3441517,-3.91879428,-106.0032241,-450.5430017,-199.3681717,20.08223995,42.18017545,-424.8389755,-561.1246611,,,,
564.1759996,2203,-56.7158153,-74.13610941,489.1893728,429.0181976,-1.76E-06,133.6835,273.0543405,380.3488091,52.72072491,123.8445817,-104.4365425,58.33800054,47.8662215,67.34109077,-212.4617353,237.5875853,,,,
564.1839996,2203,66.80735894,92.99694989,-282.643924,-261.0239012,-1.72E-06,-169.7605197,-195.8655523,-281.4536578,-57.0667302,7.596626323,615.6906424,-6.473014212,-79.21706912,-92.13604727,768.0025428,161.0350795,,,,
564.1919996,2203,-9.702410994,-6.560372775,-69.11946486,-13.68456447,-1.72E-06,184.3923609,36.27471782,52.73748278,51.16664241,-17.61568288,-890.9471236,-162.3389326,92.76811798,141.4159483,-1023.427451,-506.454443,,,,
564.1999996,2203,-5.763878692,-7.963241603,376.5018836,281.8699362,-1.69E-06,-80.82771496,131.8145396,174.2694992,-20.35085496,149.6856802,816.3314398,141.6672164,-61.49676019,-84.31133134,879.4535544,640.8006692,,,,
564.2079996,2203,111.5405864,139.1812677,-540.4744383,-440.2777872,-1.68E-06,19.39239131,-243.6901378,-349.6651262,11.41302366,-61.79928281,-432.1109996,-181.9947191,38.61937798,66.39940486,-427.4037689,-548.110694,,,,
564.2159996,2203,-26.17770531,-47.04626291,507.5966589,434.6529215,-1.67E-06,154.5391648,272.2777702,387.0924213,74.02699297,182.3774589,-65.58469417,89.29162815,59.63263886,93.28438795,-198.9087899,263.9125643,,,,
564.2239996,2204,74.98309584,101.798683,-275.6993413,-254.3490736,-1.65E-06,-173.7351747,-200.7920228,-279.4852788,-48.75199315,44.83515763,642.3501352,9.428436965,-79.00839699,-99.44280039,776.1232099,162.3440556,,,,
564.2319996,2204,-2.285653327,4.058765116,-65.16331004,-11.21734432,-1.63E-06,176.9850197,37.77707606,55.49524999,58.41305605,8.314559168,-860.5338581,-150.4582945,93.10991136,135.2681265,-1002.671828,-501.6912492,,,,
564.2399996,2204,-25.92008083,-21.0041184,369.5538995,282.5390029,-1.62E-06,-100.7489571,127.0269841,174.881266,-19.5828038,166.7319464,839.1457993,148.0346321,-68.3587099,-81.57541743,899.9613561,641.6718584,,,,
564.2479996,2204,65.17023475,105.7246349,-550.8263046,-434.8170748,-1.60E-06,-20.90695452,-251.451555,-353.1137572,-17.15434508,-80.27979528,-428.26451,-201.4540614,12.55976344,34.63715249,-406.2508836,-566.4515409,,,,
564.2559996,2204,-55.54079087,-65.21167782,493.8647213,427.6346733,-1.59E-06,121.8008232,269.9402305,373.8537339,51.91606067,150.8039965,-54.26333528,61.3817964,43.95272806,67.79827137,-169.0805537,247.7429299,,,,
564.2639996,2204,55.90897576,89.55123708,-281.3004544,-255.6648753,-1.57E-06,-186.4744657,-195.605065,-283.2358984,-53.00595959,27.48397884,645.455143,-8.679212272,-78.29371856,-94.6176167,777.5526777,151.9017531,,,,
564.2719996,2204,-11.92414111,-0.632980502,-56.7669566,3.837468085,-1.56E-06,167.7531426,43.75320209,60.29429719,37.12710988,-9.952248608,-834.6160833,-163.9387876,81.71768614,118.2628957,-975.8398018,-498.244349,,,,
564.2799996,2204,-11.59926686,-2.04829668,368.2797393,284.3777089,-1.55E-06,-94.80995034,128.2821073,166.100099,-21.09037768,158.2959465,878.1002314,144.5800098,-65.06084441,-85.54481019,927.2322114,642.6804919,,,,
564.2879996,2204,72.46193805,117.9223457,-542.3263717,-427.5276015,-1.53E-06,-6.532589739,-246.801378,-353.9430903,5.604418154,-69.73167691,-398.7044708,-190.9129488,28.14750514,53.61392532,-412.3439846,-561.2485251,,,,
564.2959996,2204,-56.38218415,-60.34558315,504.8699677,440.1802932,-1.52E-06,125.7491495,272.5292474,379.6990961,49.93581369,151.529047,-11.78660493,66.50500543,35.81397,62.37233342,-147.7087463,258.0760033,,,,
564.3039996,2204,63.58784291,103.4873086,-274.8495935,-241.2195752,-1.50E-06,-173.7521418,-188.2883647,-272.1979519,-57.93041555,24.53603778,677.878523,-7.494743221,-88.41933056,-90.2796119,799.2374515,154.76556,,,,
564.3119996,2204,-21.85761868,-4.43926966,-37.51169052,34.6484109,-1.49E-06,170.7489601,53.00776631,81.74813475,38.6169518,-5.494888067,-796.777625,-158.3615207,69.31639518,134.1437243,-944.066271,-477.9506869,,,,
564.3199996,2204,-26.83349148,-16.00973792,371.1958952,300.0481986,-1.47E-06,-112.4759565,120.0339292,170.8320693,-40.15326593,142.3528026,905.4494154,129.5416163,-94.50844036,-97.33142995,968.6751907,647.867446,,,,
564.3279996,2204,81.72570837,123.1702004,-550.3390119,-429.3697014,-1.46E-06,-12.69997349,-257.6625293,-360.9716387,-12.05861541,-91.00080576,-387.5550103,-213.5434874,7.494004533,37.4966588,-390.36206,-575.2160399,,,,
564.3359996,2204,-35.31026323,-37.90685287,494.0836273,422.2547172,-1.45E-06,135.8031181,262.9781873,363.7229776,61.56614036,158.7398333,22.62356669,67.54584048,43.49721258,72.36321352,-136.3605168,256.3768048,,,,
564.3439996,2204,72.74614688,115.5773773,-282.049312,-265.4536545,-1.43E-06,-163.5725045,-196.9683975,-289.3443692,-34.94752934,39.86663135,714.7839451,6.808077764,-61.95038982,-69.40059634,776.7214199,155.8852932,,,,
564.3519996,2204,-19.12496569,-5.875669386,-33.07325231,21.14563851,-1.42E-06,169.8908077,48.34210792,74.28031183,48.20755275,-6.406077925,-734.6238481,-145.4440004,89.14316042,133.2087681,-952.8399037,-472.306994,,,,
564.3599996,2204,-18.8202867,-10.24530505,369.1822284,286.5693872,-1.40E-06,-107.3925173,117.590883,166.610774,-35.52822831,139.8102974,987.9600163,141.3666062,-79.38727021,-104.0190873,972.1309893,644.5258614,,,,
564.3679996,2204,67.63542537,109.2303631,-528.0591494,-407.5781768,5.17E-07,-8.300158241,-241.384958,-337.3321523,-11.06521729,-87.23468331,-298.2205619,-193.8067861,22.42044627,44.22670929,-384.7442237,-564.7274837,,,,
564.3759996,2204,-67.53973785,-78.59999076,520.1075081,464.818621,2.33E-06,104.0017907,274.3883474,390.7399428,29.99380593,137.1276084,127.2740274,70.77629452,30.73460062,50.4865905,-76.35893646,271.0570694,,,,
564.3839996,2204,61.6545256,90.23616345,-278.2675018,-237.6564693,1.75E-06,-196.6890023,-197.0892449,-280.6702495,-79.84908625,0.018650622,786.0739829,-16.30453711,-88.27100819,-109.2792605,841.1726288,130.878782,,,,
564.3919996,2204,-14.24841109,-11.06947816,-16.61378896,53.15356624,1.78E-06,164.8360035,63.31432202,89.39214061,31.98198617,-22.51230684,-676.2126309,-154.3789893,83.97508228,129.0917587,-887.3924743,-490.1040571,,,,
564.3999996,2204,-19.08467253,-17.49921067,378.9319384,304.7739057,1.88E-06,-115.3969974,123.7258379,171.618166,-40.06889422,133.450924,1029.878484,141.2350149,-73.90587071,-94.56657467,1040.846129,633.3835527,,,,
564.4079996,2204,61.62871126,93.75220899,-519.8924442,-398.9019347,1.73E-06,-21.01263201,-244.7999151,-337.3884265,-20.98848335,-106.6094713,-292.2764037,-204.6013161,23.53151136,39.00083119,-332.3582526,-584.3914067,,,,
564.4159996,2204,-72.52324585,-90.05272701,538.2575964,478.9921618,1.82E-06,102.6257874,277.8998413,397.0840765,23.96272241,110.9469753,133.8380394,59.2412044,25.22956251,45.73672694,-1.046906983,264.8432624,,,,
564.4239996,2204,63.62491976,95.8236758,-262.5780544,-232.6755169,1.73E-06,-184.4826562,-194.0331801,-277.0198565,-75.62198472,-18.11263192,779.4599658,-20.38265761,-90.07439707,-103.0904777,917.6492378,129.6165668,,,,
564.4319996,2204,-9.711128001,1.379050207,9.928726051,57.87888097,1.76E-06,182.3269679,68.60602881,98.90565968,41.9989218,-24.07766284,-676.8654626,-143.6541261,90.98100352,145.0957345,-803.2903277,-477.2387402,,,,
564.4399996,2204,-17.96646662,-9.952987287,406.9914525,318.4128254,1.72E-06,-97.05014599,134.284596,185.4376568,-35.66565303,136.3794806,1039.231456,155.2143019,-75.16775624,-76.68312806,1145.928638,644.9690732,,,,
564.4479996,2204,63.71637221,101.9707795,-486.4048201,-374.0682278,1.72E-06,-1.716503786,-226.4686759,-321.3630708,-16.25697741,-96.34999477,-281.0681441,-189.4104478,16.75371413,53.67968402,-208.9122605,-571.2921863,,,,
564.4559996,2204,-66.80692751,-79.40540532,564.5325874,495.2997783,1.69E-06,114.4317145,290.2930757,403.3184074,33.57332542,126.3929481,154.2884535,77.57877785,23.89735517,62.36716587,143.2172424,281.8753822,,,,
564.4639996,2204,67.16769772,97.83358408,-254.1741813,-228.9473499,1.68E-06,-173.5365962,-188.8761537,-280.4177521,-62.50296987,-11.14021605,769.3494659,-11.98411604,-87.39497206,-81.10814487,1028.535241,126.2090262,,,,
564.4719996,2204,-25.90499582,-22.62061813,19.49030884,68.63044882,1.67E-06,180.1326919,74.35093842,96.60647784,47.16889477,-28.77250875,-694.9909741,-145.8689912,89.2441376,150.1120596,-695.5147554,-473.5012732,,,,
564.4799996,2205,-45.34189389,-44.26273971,396.4676516,315.4291474,1.65E-06,-121.0270951,127.5480513,170.7663477,-57.16839081,105.2077137,1004.879797,129.5915554,-95.10783129,-102.1899813,1263.599743,637.0756661,,,,
564.4879996,2205,60.76479314,93.32868974,-507.8301536,-396.4442328,1.63E-06,-9.611427874,-233.3581478,-341.9841416,-30.5332078,-127.1813486,-344.9054194,-223.627324,3.175107178,37.46805876,-129.2205317,-595.2135364,,,,
564.4959996,2205,-60.82050785,-80.46077821,543.7538652,462.8573057,1.62E-06,123.6492489,285.9227791,381.5849278,47.2797884,123.8772848,101.411458,65.36257632,38.42569685,74.78266825,200.2073733,269.5918758,,,,
564.5039996,2205,56.89759297,79.80208917,-275.1952744,-253.8205458,1.60E-06,-173.3950369,-196.4613809,-294.8912123,-64.24932511,-15.95367756,707.9154771,-19.75151414,-77.61423595,-78.99338031,1071.974288,105.4032245,,,,
564.5119996,2205,-22.51694027,-28.03923403,9.51379402,56.74194601,1.59E-06,183.4644668,74.64259493,90.43320469,41.15356836,-31.15769158,-746.4862148,-151.5590043,96.18495128,142.1606803,-651.2818521,-491.5224101,,,,
564.5199996,2205,-32.71433125,-42.35099403,385.3931255,305.2880225,1.57E-06,-107.1480886,130.8240798,165.9631618,-39.82648268,118.5475254,965.0136351,136.4593207,-69.00047154,-88.6784867,1292.201293,626.9842771,,,,
564.5279996,2205,56.34550856,76.17090029,-510.3869854,-383.6040579,1.56E-06,-10.5575747,-231.1676865,-328.814353,-28.10498919,-124.818105,-385.1744289,-219.8660148,15.90785289,41.27503501,-103.2705662,-596.400217,,,,
564.5359996,2205,-52.82850347,-81.37158408,535.3482618,471.1711537,1.55E-06,115.2718889,282.1785825,386.7981716,39.78022099,118.7417099,73.19964228,61.05505371,39.66110381,60.20971754,235.1297585,269.8629439,,,,
564.5439996,2205,74.51741979,96.83861568,-293.4496456,-259.4326018,1.53E-06,-167.3361639,-203.1383224,-299.7219137,-57.25346226,-8.742297707,666.0903708,-18.46538166,-64.18012223,-77.63558567,1066.756796,98.49940227,,,,
564.5519996,2205,-17.17460254,-20.87214696,-0.564108562,59.70508488,1.52E-06,176.2192747,64.73703825,94.66534205,33.12882541,-24.50795486,-776.3935772,-145.8429662,90.48613802,137.2657372,-647.4912057,-482.3188577,,,,
564.5599996,2205,-13.28911564,-21.890251,362.6573656,289.2373674,1.50E-06,-116.9941148,116.3254856,157.4617814,-48.34719356,124.2874613,936.1527759,143.0806605,-82.93507007,-98.67819559,1291.238381,629.9494709,,,,
564.5679996,2205,86.19829201,109.7140546,-537.8154778,-415.064177,1.49E-06,3.596910464,-238.7506475,-345.4670626,-12.32779181,-103.2162185,-424.9661622,-195.9565535,21.8305842,53.50761053,-144.5242645,-590.9073898,,,,
564.5759996,2205,-51.69309728,-76.64793005,512.5986952,448.0114427,1.47E-06,113.4484647,274.6503469,375.753638,40.4287213,136.1063623,46.16719162,85.61325646,30.39369736,60.4089117,206.5784795,291.2751933,,,,
564.5839996,2205,57.85985177,76.33774311,-310.9521072,-266.8638376,1.46E-06,-184.2518314,-204.7159907,-301.0951153,-79.04312426,-13.39733755,620.5686643,-21.85092689,-94.0441891,-102.5622615,1036.264424,104.8264257,,,,
564.5919996,2205,-11.83454171,-19.40251348,-20.98620115,44.54841031,1.45E-06,182.676075,69.26471544,87.17936396,25.68452809,-29.99805638,-817.1257771,-156.0477811,76.53833651,127.8377606,-675.7362591,-472.7388369,,,,
564.5999996,2205,-11.56703467,-13.13480228,332.0294108,264.116958,1.43E-06,-99.65236054,116.0995061,143.314569,-38.91183194,132.9056835,900.6530595,143.6640796,-75.42650695,-81.66799709,1250.025128,644.050185,,,,
564.6079996,2205,57.72598361,92.78621784,-548.8383279,-413.1026363,1.42E-06,6.433253329,-236.2159238,-345.2930961,-14.98913529,-97.32026914,-466.9499637,-199.1669299,20.87161196,60.45296144,-197.891728,-580.9447803,,,,
564.6159996,2205,-75.04895624,-89.40724943,499.0845104,448.4826495,1.40E-06,106.7055149,266.8343724,366.3995137,25.31125051,126.9574317,18.35608522,71.80940079,17.13441833,50.87006989,173.6516306,291.2389434,,,,
564.6239996,2205,42.33791526,73.78086865,-332.7007843,-272.7270686,-5.17E-07,-187.762392,-217.3811779,-312.817613,-85.32158699,-21.92959158,579.0490961,-31.57300534,-100.7303769,-101.241713,980.8317942,91.32447382,,,,
564.6319996,2205,-27.61482208,-20.95362736,-29.81157665,51.25026297,-2.33E-06,174.9477859,61.41443868,81.90017388,19.98499873,-34.32964274,-854.0034242,-154.8906446,67.53827776,127.0297734,-731.575605,-474.9624703,,,,
564.6399996,2205,-10.05626111,-6.025082693,309.8761341,255.2604037,-1.75E-06,-110.7749776,99.80872916,122.4057631,-48.60039393,125.982777,864.8460016,145.4776499,-80.62943503,-91.56270052,1190.344686,633.1022026,,,,
564.6479996,2205,66.73817081,97.38826305,-561.7962624,-414.6511378,-1.78E-06,-1.513279979,-241.6955133,-350.465085,-18.05426696,-99.29423823,-506.3655347,-193.6761105,26.4883504,55.0768182,-266.9209292,-586.2522984,,,,
564.6559996,2205,-57.61619629,-74.20243158,492.5242651,450.9357648,-1.88E-06,102.7100226,269.1182252,369.3505803,33.49189847,131.7410816,3.728058072,81.5461833,29.28598338,45.73119558,136.4221725,304.9753233,,,,
564.6639996,2205,74.85833431,104.9395151,-354.0229304,-292.0576728,-1.73E-06,-181.9087365,-223.8717571,-323.7489792,-61.43867869,-6.968556553,561.8646955,-19.29021836,-68.41399526,-98.94871143,926.9554506,91.79864232,,,,
564.6719996,2205,-8.223208494,-7.359137745,-34.98655538,42.62863965,-1.82E-06,173.4688093,57.73240242,84.20139304,45.84628668,-12.101555,-860.0286527,-137.3121081,101.0324752,134.1272243,-789.0138608,-470.4762542,,,,
564.6799996,2205,-7.070491669,-7.321541046,306.6335094,250.5007131,-1.73E-06,-121.8788019,92.74279104,125.767439,-35.33401433,133.4281355,858.4580452,148.4576727,-67.74332312,-94.54135879,1142.714046,628.8347592,,,,
564.6879996,2205,73.19667719,102.5120683,-568.4244216,-428.0010027,-1.76E-06,1.080721739,-250.3457402,-354.0970931,-11.50941022,-101.5189458,-527.3330651,-200.7655284,41.14629164,53.62542482,-331.4754947,-599.355063,,,,
564.6959996,2205,-48.69409747,-64.1265111,488.5160029,435.5168055,-1.72E-06,114.2374382,265.2223634,364.9746721,30.05766736,132.4322409,-5.764222486,83.48524369,46.46876752,55.36365055,73.18039558,302.5179333,,,,
564.7039996,2205,79.11876295,115.2187652,-359.3735534,-312.9871732,-1.72E-06,-163.1623419,-224.9303192,-332.7060564,-66.30507701,-3.215569438,538.2159487,-12.38951984,-63.22893477,-78.22376067,839.8516959,89.34213304,,,,
564.7119996,2205,-4.609001216,6.775693093,-32.59786068,20.30671045,-1.69E-06,206.1546897,62.87695327,77.41704642,51.71182214,0.720017796,-876.6975174,-120.8043452,108.2334886,166.1342499,-881.6539648,-453.4384268,,,,
564.7199996,2205,-0.850792247,11.2166989,304.6191404,224.2687949,-1.68E-06,-84.64389212,98.97103645,121.8504329,-29.97215203,148.9650269,849.8557823,169.5853526,-58.10140322,-61.18369666,1055.893049,652.1835762,,,,
564.7279996,2205,71.50326382,111.5684919,-563.8527931,-447.4646846,-1.67E-06,30.47775237,-241.2093424,-352.7332487,0.844972592,-80.06460027,-541.5268759,-180.3360177,43.66423245,83.44523118,-427.3175289,-575.1255286,,,,
564.7359996,2206,-59.39507158,-67.25678555,496.9920745,426.1787992,-1.65E-06,128.7094531,274.204002,368.4264359,39.51122998,148.4081826,-6.365684386,98.73795956,40.60564009,74.05413792,-3.758341974,329.7525457,,,,
564.7439996,2206,68.66826284,107.6864597,-358.4248722,-315.0608135,-1.63E-06,-159.6194237,-219.0204935,-324.7203255,-73.85041601,-6.844342325,529.8740484,-13.36776507,-79.31477264,-74.13415009,770.6847467,101.5931116,,,,
564.7519996,2206,-12.55454237,-4.591522008,-40.52993796,13.16118664,-1.62E-06,192.166486,62.15098112,78.45642999,47.98933816,-9.301868341,-879.9274715,-134.516983,86.93065717,158.539154,-942.0898634,-443.7923706,,,,
564.7599996,2206,-11.4703646,-6.87966432,285.4066662,217.0404245,-1.60E-06,-112.3108938,93.36592483,117.4407552,-33.40495589,130.9211629,842.5907011,149.7121134,-77.43470239,-80.25653445,990.1004427,645.942246,,,,
564.7679996,2206,67.47414889,100.7249703,-571.9278168,-436.6654769,-1.59E-06,6.947352896,-241.754036,-344.4879875,-9.500908766,-99.49501434,-546.3473263,-195.2957203,27.80624622,58.13659487,-483.2843018,-585.0070669,,,,
564.7759996,2206,-40.90269634,-52.00127199,478.3846562,411.310557,-1.57E-06,113.8182694,261.4416574,359.1738331,50.46823721,142.2935325,2.546770919,90.69613913,38.87553189,58.00604727,-49.25436017,323.2125201,,,,
564.7839996,2206,83.64879916,121.1855351,-367.2832011,-322.9720985,-1.56E-06,-164.157557,-227.9847997,-323.7684112,-45.197354,-0.299351498,519.7375746,-7.35028789,-56.50484122,-76.84754701,687.2927259,87.06198666,,,,
564.7919996,2206,-6.541483547,-0.377047037,-16.43010404,41.92713722,-1.55E-06,184.1313197,64.76215825,103.0072054,55.39022151,-1.604658946,-867.1187452,-114.0086562,107.402684,141.3689526,-989.3494521,-444.4360834,,,,
564.7999996,2206,-0.609872061,3.236235976,292.3238359,222.9077834,-1.53E-06,-123.4822583,81.58016847,117.7248219,-33.3060493,131.678687,856.268624,158.8834415,-67.51465513,-106.2778853,961.9605921,632.6643186,,,,
564.8079996,2206,55.13063708,88.40139882,-562.3725929,-424.1893279,-1.52E-06,-5.846983154,-248.2614698,-336.9511804,-13.93896748,-111.0137699,-556.8873223,-199.0913303,28.60919329,32.09278098,-534.151116,-606.1830505,,,,
564.8159996,2206,-52.19015296,-66.83309839,486.4164354,426.1779761,-1.50E-06,99.65889467,260.385292,367.9198949,28.45759636,115.3609016,1.087663133,80.4367884,22.19599688,31.07169415,-76.47748609,308.4755802,,,,
564.8239996,2206,100.2062611,128.3475334,-381.6133717,-339.7324396,-1.49E-06,-158.7424037,-233.4354375,-342.0092137,-47.70066991,-17.83077072,503.6258615,-15.72072966,-57.42494458,-75.59508377,635.4847091,70.96775836,,,,
564.8319996,2206,2.173680117,0.379998782,-24.10671461,27.43631588,-1.47E-06,197.1905191,65.92184522,88.54196207,64.10149464,-2.39023728,-877.9611483,-109.7867598,121.2933334,155.9538547,-1051.865991,-432.8351405,,,,
564.8399996,2206,7.139643287,7.368268838,281.428384,206.3297179,-1.46E-06,-106.045106,85.31385488,109.4961452,-37.10740957,133.5876384,845.9407146,167.7014654,-63.05025709,-89.80061047,905.676879,649.3938384,,,,
564.8479996,2206,80.12334724,107.8815407,-569.9887723,-445.9345564,-1.45E-06,24.56796851,-239.8825197,-343.2848188,-4.606862614,-92.80774292,-569.2908577,-176.302547,40.59624818,66.62642352,-601.5237837,-587.2259402,,,,
564.8559996,2206,-39.63694393,-58.51578256,484.9582337,411.925516,-1.43E-06,114.5393637,268.1559816,366.9539255,41.01393397,142.9153373,7.595914279,112.6234665,36.00993212,56.45483615,-127.3618511,336.5939245,,,,
564.8639996,2206,90.7818358,120.7403899,-386.9381131,-347.7073643,-1.42E-06,-159.439789,-227.2710244,-333.3356048,-56.05178424,-6.000840045,493.8403496,-0.493257174,-66.66301373,-67.61022191,583.3905297,79.07691169,,,,
564.8719996,2206,-8.862488381,-5.517312493,-27.58357687,24.11456224,-1.40E-06,196.4484616,75.20486534,104.1584992,52.01685417,-2.971729297,-881.3347375,-108.0201199,93.87373571,162.8383403,-1089.51434,-428.5031608,,,,
564.8799996,2206,8.592731949,16.09005045,274.6020066,205.0365829,5.17E-07,-106.8538992,91.16587126,124.1621977,-41.74413253,132.0783538,852.9250131,168.7017628,-89.44926315,-82.24980746,875.9023125,650.5868522,,,,
564.8879996,2206,101.7660116,137.2281246,-569.7136021,-446.3794444,2.33E-06,34.4576562,-239.3139942,-329.0446175,3.482922599,-77.65892189,-558.4585521,-161.0748531,31.73744425,87.77877778,-642.1581002,-577.5343541,,,,
564.8959996,2206,-13.8517111,-31.58475952,482.5790762,400.8548765,1.75E-06,124.7133296,257.032946,367.9221131,60.71822186,167.8238511,32.77752579,135.9716951,43.37529872,78.00724942,-166.4028896,355.9334843,,,,
564.9039996,2206,114.1032934,136.441027,-389.9176532,-361.2186585,1.78E-06,-155.0737175,-237.281179,-337.3040497,-37.10272861,8.842594918,507.0231788,15.11397085,-58.43172573,-64.69950468,529.3052254,86.05512437,,,,
564.9119996,2206,20.28963969,14.66879904,-24.46411347,3.761807377,1.88E-06,201.5542641,68.23763848,96.78765744,76.84525053,10.20378667,-858.2853267,-86.38928378,107.01393,161.3052327,-1142.299136,-418.750523,,,,
564.9199996,2206,21.47658199,22.45481818,267.0660044,173.1042921,1.73E-06,-110.1359939,77.28625023,107.6823953,-17.05275174,133.6151212,871.1683973,190.8824489,-67.17548157,-89.38926344,806.9755023,646.2950036,,,,
564.9279996,2206,92.53356881,122.9088841,-568.4158996,-455.4587304,1.82E-06,24.077563,-237.3681635,-329.1743263,11.02280763,-93.92211799,-545.6795542,-149.4919408,43.90305946,67.19220436,-712.2200373,-585.349309,,,,
564.9359996,2206,-31.58506415,-47.03468192,488.3700771,407.6145704,1.73E-06,116.4515901,270.9560476,381.3497392,55.43407707,149.5276413,60.55399824,140.912854,41.44848697,59.54227467,-210.3753884,353.092379,,,,
564.9439996,2206,85.76019621,122.1476782,-381.9037731,-343.850507,1.76E-06,-164.2246413,-226.4293131,-315.9776477,-59.51725036,-13.43946581,525.0226832,12.41611166,-72.26987346,-86.07731748,486.7698172,73.53320028,,,,
564.9519996,2206,-3.290954822,10.53283312,-15.02641246,26.59319781,1.72E-06,193.9949002,76.97764418,113.9792981,57.5325666,-4.662854562,-818.3515607,-86.91446357,94.52813294,143.0573675,-1166.585723,-419.7168236,,,,
564.9599996,2206,6.968943486,24.87357118,261.2251376,177.7193191,1.72E-06,-103.7475733,84.41164856,109.5932901,-8.564486862,137.813253,916.3748864,193.6022375,-55.53770153,-77.38218546,754.5133044,643.2092446,,,,
564.9679996,2206,63.78913156,105.4485129,-558.6444692,-436.7135656,1.69E-06,20.81386961,-225.9950544,-314.6172798,3.133440595,-97.94973446,-495.7111539,-156.3370197,43.68154662,65.31728497,-767.6675176,-579.0205729,,,,
564.9759996,2206,-61.06967225,-68.33406117,494.5920536,430.1068904,1.68E-06,95.17224153,273.1438805,391.390243,32.37750354,131.7050077,141.7183157,123.3550081,23.33577841,33.06378741,-229.197703,362.0142784,,,,
564.9839996,2206,81.74315357,121.8268968,-393.5549459,-345.0396085,1.67E-06,-167.0467493,-229.6554255,-320.7005163,-53.29478576,-16.97892743,591.7410217,-3.459849336,-64.29328624,-90.73250253,424.9928279,59.23286717,,,,
564.9919996,2207,-3.330289314,5.760730794,-9.397375512,39.96413487,1.65E-06,193.398711,84.65288089,125.9278112,55.22854797,-0.653588759,-735.0017476,-94.06996624,102.9621216,136.8130177,-1214.888916,-413.0816982,,,,
564.9999996,2207,-7.606878151,2.649702117,264.5063866,203.3136997,1.63E-06,-125.445347,85.95026355,124.6052266,-39.56760391,125.9500082,1013.923201,179.9456665,-71.18927891,-104.8011116,738.5163394,647.1187057,,,,
565.0079996,2207,63.40416961,100.1978759,-564.1739904,-433.4001917,1.62E-06,9.381596129,-234.066543,-317.2192801,-6.782265664,-111.6931848,-410.2358831,-171.2003984,38.09097881,46.57904611,-808.4684514,-595.5167163,,,,
565.0159996,2207,-41.88307171,-52.67392367,487.5558828,412.224377,1.60E-06,103.4476728,267.7247508,378.2041461,48.22572168,129.1533314,242.7790779,126.917499,38.3269833,39.96178057,-277.5239584,359.598019,,,,
565.0239996,2207,77.92938169,113.8555887,-389.8853323,-342.5389121,1.59E-06,-159.8389562,-223.5594559,-317.5339529,-42.69427302,-16.9069424,692.8808175,10.54265521,-49.99978919,-75.01121826,366.2126233,65.01829498,,,,
565.0319996,2207,-20.33180047,-13.49468592,-0.177231964,51.00978794,1.57E-06,197.7258449,88.83524688,131.6283047,58.97449526,-4.640608586,-627.7953792,-86.727261,110.3549927,142.4617852,-1253.734087,-405.208127,,,,
565.0399996,2207,-5.806299146,4.127959305,251.2699669,180.8519651,1.56E-06,-108.0114762,74.70444255,106.4464224,-30.8763078,120.2225702,1097.80973,176.9787819,-57.8188216,-93.19751053,689.562808,638.5984403,,,,
565.0479996,2207,64.21341009,99.77440973,-568.7906906,-447.27397,1.55E-06,32.8547422,-235.656204,-323.3231582,0.334773288,-104.1136519,-353.4413229,-166.2900707,60.24465714,70.81964981,-878.7153911,-597.0579125,,,,
565.0559996,2207,-43.32472145,-53.3489711,482.8742005,407.0743966,1.53E-06,119.028714,268.2078444,376.9132234,44.86993971,142.1495533,293.0771142,135.494597,55.4549037,56.38097672,-327.5551306,369.2174299,,,,
565.0639996,2207,78.01252341,115.0108029,-399.4433877,-353.822554,1.52E-06,-148.3355246,-230.8999211,-324.800585,-47.97229765,-13.65541909,701.4316152,11.38453961,-44.12244825,-65.31922842,301.807795,61.71224301,,,,
565.0719996,2207,-23.50862908,-19.31809168,7.519116092,53.21820979,1.50E-06,195.4559059,87.4929194,136.3372322,47.07720366,-4.00787332,-628.0624016,-83.92849196,106.8573566,149.744959,-1299.160031,-394.0043661,,,,
565.0799996,2207,3.378988992,9.644641557,250.2738793,179.1400574,1.49E-06,-114.1395042,74.51390065,108.8223074,-39.30282417,121.8024501,1077.647566,177.8960732,-60.83224674,-90.85792654,650.5593705,641.4922181,,,,
565.0879996,2207,73.557928,104.7435356,-562.5747054,-442.5731793,1.47E-06,31.44203993,-234.3938301,-317.0863068,6.649310628,-101.9666204,-399.2773567,-163.2953335,57.02661922,72.01950369,-923.3768972,-600.8567078,,,,
565.0959996,2207,-45.10716728,-60.98400075,489.386796,416.6401507,1.46E-06,102.6531634,263.9991038,382.9306242,43.70587816,137.5583197,246.2500827,134.6383414,43.68920917,49.93863319,-340.0456127,363.4035174,,,,
565.1039996,2207,89.08794646,124.3449146,-411.834025,-360.7675923,1.45E-06,-154.9798364,-237.0484898,-333.3008588,-44.07204654,-17.48942407,615.377171,2.05008331,-47.61339415,-71.89376678,266.9512333,31.66972159,,,,
565.1119996,2207,-5.652287711,4.345075968,-11.86645085,24.53728305,1.43E-06,213.2312015,80.85746334,112.3795992,72.876424,12.51734029,-726.1100109,-76.2783978,120.2718058,165.5301864,-1356.170739,-407.893331,,,,
565.1199996,2207,1.637856659,13.84738551,226.4523346,147.0315554,1.42E-06,-97.64776861,65.74242807,87.38858679,-19.34188502,142.2556849,967.2106486,193.0892868,-47.76031145,-64.99976924,577.2345784,639.7775829,,,,
565.1279996,2207,52.6395713,88.2690821,-567.4884485,-445.1282765,1.40E-06,40.28189113,-229.4510044,-315.0784785,8.729062688,-90.18601763,-510.2092819,-158.2205767,55.88280603,77.43093881,-990.6985661,-594.207148,,,,
565.1359996,2207,-74.72045507,-84.15128721,480.3500164,405.180338,-5.17E-07,108.5970528,263.5388367,378.3584021,37.73437768,141.6926352,154.8681547,130.8719514,34.95856264,46.5298813,-386.6422881,374.9167937,,,,
565.1439996,2207,65.41728364,99.95627341,-426.0961674,-386.4271068,-2.33E-06,-144.6178951,-244.819429,-337.8434319,-56.90539366,-27.83900102,506.5472975,-13.31916552,-53.03792725,-69.63875513,196.9488277,29.10338517,,,,
565.1519996,2207,-17.89936011,-17.6839997,-5.928138737,20.6508033,-1.75E-06,219.3714989,81.87166638,124.4085137,61.52128974,-2.273271995,-809.1872175,-96.942184,115.1990514,155.2916139,-1402.072609,-401.0497856,,,,
565.1599996,2207,-0.757042815,2.63237259,228.276518,142.335001,-1.78E-06,-94.86319936,67.29675739,95.50802595,-27.98139264,131.7108089,895.6689676,170.6083936,-52.36839608,-76.56526355,543.1959171,633.346973,,,,
565.1679996,2207,63.47423027,93.52165381,-561.6610777,-451.2108046,-1.88E-06,51.02101857,-223.7893174,-303.3527179,-1.73821321,-95.19651147,-582.7796336,-172.1485517,56.12874073,85.62390245,-1032.046838,-603.5805292,,,,
565.1759996,2207,-63.48641778,-75.01350871,482.0950397,398.8625414,-1.73E-06,112.3367799,264.0351541,381.2643336,36.05313855,138.9352913,101.7265886,123.5466983,36.7697436,58.6786026,-417.9110868,378.8218599,,,,
565.1839996,2207,62.96188612,99.29774436,-424.2522077,-385.3853769,-1.82E-06,-152.9174922,-245.6221292,-336.3949105,-59.31909517,-34.34139111,443.8690982,-24.99560383,-61.10478058,-71.84802324,150.7581976,23.81996717,,,,
565.1919996,2207,-25.03756569,-17.84061259,8.009788715,35.17873214,-1.73E-06,207.4326489,88.30608025,138.9063903,53.29911012,-15.3647218,-846.2709166,-102.4572802,94.44623466,149.3601501,-1422.256144,-398.100146,,,,
565.1999996,2207,-13.08573769,3.849014524,226.0707026,143.266153,-1.76E-06,-103.2594571,65.6993409,100.5983536,-28.66786423,111.6089362,857.993029,167.3791206,-71.5051357,-70.46631468,519.7350785,631.8443466,,,,
565.2079996,2207,33.62137538,78.14149093,-558.7882098,-444.8502407,-1.72E-06,34.57705235,-227.2394458,-294.8584625,-10.55735313,-113.9663924,-628.5144491,-178.9998943,34.1231128,77.61814531,-1060.155454,-602.3830313,,,,
565.2159996,2207,-87.78401067,-88.13795138,489.0381389,411.5175602,-1.72E-06,86.87461925,261.8572417,394.0997299,12.83763227,118.1631966,76.88107804,114.2437193,2.395456457,29.94058708,-412.1127205,379.4135311,,,,
565.2239996,2207,62.76613306,103.385489,-417.7263284,-379.5108232,-1.69E-06,-163.0999596,-245.939402,-325.4653549,-75.74346463,-50.02461627,407.5271864,-29.02301391,-84.62994745,-84.47892875,143.9413784,6.523227811,,,,
565.2319996,2207,-24.78133048,-18.43176576,24.64550612,45.10433487,-1.68E-06,194.2085301,85.76233866,150.0532574,42.08240139,-16.85614171,-863.599054,-95.33331998,89.02903649,139.7776608,-1415.435321,-405.4843649,,,,
565.2399996,2207,-8.196279278,10.42081856,230.9498549,143.0648383,-1.67E-06,-119.8128784,56.28696591,99.01060898,-38.74740139,111.1886836,837.137969,168.2126169,-73.45458195,-94.20747204,518.574761,610.8840769,,,,
565.2479996,2208,67.95384231,110.4316667,-550.6055519,-458.7164421,-1.65E-06,46.20757772,-231.1424899,-302.7417023,-0.338382368,-100.4681718,-657.4072928,-170.153775,47.41610485,70.00021297,-1089.405854,-622.3517236,,,,
565.2559996,2208,-53.17855468,-60.33241626,495.5760634,385.5062174,-1.63E-06,110.1751692,254.1675181,381.238694,40.44984037,146.2177314,65.95743173,141.4719387,34.21445864,45.82416962,-444.2150952,379.580871,,,,
565.2639996,2208,67.39011222,105.3402976,-412.9005814,-394.091889,-1.62E-06,-151.6277561,-251.757142,-332.2008313,-59.36615341,-34.01617371,377.7164614,-12.011491,-63.78788732,-77.30018337,88.83866647,6.78966753,,,,
565.2719996,2208,-17.59220847,-15.69127652,30.87538929,36.24877241,-1.60E-06,195.3631376,83.34693985,143.3104855,43.11753083,-13.29378856,-883.6883763,-93.9923652,87.96715956,126.6997401,-1453.934791,-394.7850521,,,,
565.2799996,2208,13.13619706,20.50497513,215.2605041,106.7542598,-1.59E-06,-118.8607155,43.58744937,76.49291917,-32.21028467,110.0962752,810.5615386,165.8194292,-74.32722473,-95.90698312,466.6852052,606.66306,,,,
565.2879996,2208,75.94733359,107.8056819,-554.1071205,-481.7742696,-1.57E-06,45.67272299,-231.4324067,-308.9870288,7.178473503,-104.1640778,-688.7957672,-170.5847358,50.83091762,78.38312454,-1157.722202,-621.9603319,,,,
565.2959996,2208,-44.63028944,-57.13538351,495.044054,370.5241124,-1.56E-06,106.1812981,259.235268,380.4878688,37.74252674,144.2809609,61.99945369,137.7700351,34.51781056,52.10536884,-482.2203688,394.5461641,,,,
565.3039996,2208,82.41233256,119.6246843,-424.2082212,-423.3454857,-1.55E-06,-148.4618498,-253.6947619,-341.7849423,-54.85773089,-28.41870318,361.806794,-14.98027846,-58.99781866,-56.73715666,34.61647407,5.688973459,,,,
565.3119996,2208,-20.26079336,-13.04262238,33.46602625,21.51688373,-1.53E-06,200.0734477,86.1739947,144.5293718,49.00292003,-5.830818299,-887.4563782,-90.27265601,92.86632591,144.3587711,-1498.860686,-384.5080722,,,,
565.3199996,2208,-5.287693016,10.14757456,225.5321464,118.0210447,-1.52E-06,-114.8599533,51.89669976,95.36688397,-42.06283863,112.345575,815.313482,165.8708465,-76.51728737,-89.5657846,438.2178681,621.7740763,,,,
565.3279996,2208,57.87623327,94.77919878,-526.412285,-443.0452389,-1.50E-06,44.57986862,-215.8389061,-272.2327934,-6.931621634,-103.4811531,-677.2299787,-170.0815435,35.76357683,76.76136809,-1165.162629,-606.2245869,,,,
565.3359996,2208,-55.16067572,-65.19148094,510.3828659,395.2313212,-1.49E-06,91.53337609,261.4517928,399.0107486,28.53021099,135.0651387,86.69501532,133.6032181,9.843464953,32.4725934,-465.1080421,397.4566815,,,,
565.3439996,2208,74.32996444,109.3938421,-416.7048123,-405.4438452,-1.47E-06,-157.9086942,-253.1434204,-329.4393044,-60.75137606,-42.32846655,366.2255606,-25.96294932,-74.63980331,-79.67472441,22.352561,-11.20730289,,,,
565.3519996,2208,-24.94025711,-22.95188977,54.98923092,51.54761488,-1.46E-06,192.4178491,100.188721,165.8179247,44.23981734,-10.86815405,-856.5218173,-90.17839485,86.75392419,131.7514631,-1487.657208,-382.086579,,,,
565.3599996,2208,5.370878654,16.33421526,224.3593594,113.0730606,-1.45E-06,-117.9514374,56.03933446,89.59255785,-35.46816446,110.6408191,845.3828394,167.4996589,-71.37210894,-87.24486974,443.9497558,605.8324715,,,,
565.3679996,2208,63.98746432,94.87742563,-520.6599098,-449.725108,-1.43E-06,54.24270545,-204.9239958,-276.0403072,9.214178269,-97.93234187,-659.2224975,-167.4356111,53.54169683,88.44809002,-1184.683473,-624.9537701,,,,
565.3759996,2208,-82.54804528,-94.66404274,526.6504478,414.1439146,-1.42E-06,79.27043414,280.2781652,411.3921552,20.17782243,129.3385552,127.3030845,129.5296832,16.45010657,28.9346692,-445.5777823,399.5692645,,,,
565.3839996,2208,38.22549768,78.65632121,-402.6782275,-380.7454192,-1.40E-06,-175.1648668,-234.309733,-310.6231649,-87.48711893,-66.74089052,385.2099395,-46.85367398,-79.93228144,-88.86559956,42.52106888,-25.66047253,,,,
565.3919996,2208,-54.55945948,-47.10314035,83.46617248,87.80907305,5.17E-07,186.0108225,123.5405862,195.0578298,22.59549889,-25.93725091,-826.7885076,-103.6251656,78.21571792,132.4098276,-1440.058859,-381.8026472,,,,
565.3999996,2208,-30.04718286,-15.91369668,239.79977,138.530137,2.33E-06,-143.6184848,62.12913501,100.8966624,-64.1830103,86.27608418,874.5485862,144.5207335,-92.33161793,-105.7504905,514.7047159,601.567651,,,,
565.4079996,2208,35.4136525,68.21301537,-502.7237584,-437.7384928,1.75E-06,26.77066152,-208.3576483,-279.1118118,-12.95640816,-132.6852357,-643.1555746,-199.6048996,31.91742574,59.76407667,-1118.779349,-637.8083752,,,,
565.4159996,2208,-90.4304403,-104.9089847,556.559836,426.030029,1.78E-06,72.46601555,285.681013,411.59552,14.61751298,108.3842054,169.8620726,115.6910971,-1.188259309,17.19465171,-345.2708922,406.0228753,,,,
565.4239996,2208,53.64496764,84.39397725,-371.640523,-372.6104167,1.88E-06,-167.7099639,-221.2995611,-308.5696714,-80.19595321,-76.06535869,428.5095693,-48.53269188,-91.12779615,-88.60216658,153.7219087,-18.10146702,,,,
565.4319996,2208,-29.35207099,-34.8805452,118.1274865,88.95618354,1.73E-06,192.6559042,133.9567737,192.8830497,48.00533326,-24.85081318,-770.3800723,-92.24115121,84.57006843,138.3811694,-1314.745054,-363.6302468,,,,
565.4399996,2208,-17.54300254,-10.94609324,266.8845148,150.2262872,1.82E-06,-139.0563904,73.08225287,106.621278,-51.67701745,83.46732567,920.4616615,160.1945724,-90.31668222,-106.4217239,643.6718405,616.3165601,,,,
565.4479996,2208,48.21776634,79.98170692,-476.5293321,-409.1457656,1.73E-06,37.62580595,-189.0584648,-260.5382837,-17.9143732,-133.8850324,-614.2603672,-182.7062054,22.18238368,59.07056507,-990.7465744,-621.7301874,,,,
565.4559996,2208,-69.26248767,-83.17065805,565.3089915,436.0509699,1.76E-06,80.91934695,291.7018467,413.9684416,22.09212513,118.781005,197.6533391,137.2495483,-0.520442814,23.68256238,-221.2695064,421.4155206,,,,
565.4639996,2208,58.50280153,89.76720732,-374.8733015,-362.5865804,1.72E-06,-164.7785825,-224.0391633,-308.0960908,-74.60691591,-69.94302671,417.4841149,-33.26448108,-89.55184733,-88.2295122,231.5940917,-17.10179722,,,,
565.4719996,2208,-28.32528762,-33.82078026,113.1121875,97.63031835,1.72E-06,193.2982738,130.9186844,186.2737228,45.64542227,-23.235798,-784.0752395,-86.50961258,78.13480509,137.4405489,-1243.903766,-356.4175192,,,,
565.4799996,2208,-27.5545627,-21.97094879,254.6535788,150.1036274,1.69E-06,-144.9569217,67.74854755,93.05178578,-47.50958664,84.16757936,904.3696862,153.6905448,-86.08342125,-96.50219655,699.4995795,611.5084053,,,,
565.4879996,2208,16.35665025,46.29584215,-472.5354397,-382.5706249,1.68E-06,17.58816311,-187.8229894,-253.4800479,-31.52912156,-148.0049289,-634.1350888,-201.6784875,19.14883955,53.77703158,-934.8885336,-626.5902225,,,,
565.4959996,2208,-79.70021179,-94.6975477,553.9578267,439.283868,1.67E-06,64.63154781,283.398464,398.1940531,4.005532907,97.9290249,191.1222536,114.5009025,-7.031652514,11.63780531,-151.7790596,410.8003307,,,,
565.5039996,2209,46.26557767,79.65558533,-394.1226637,-370.2221244,1.65E-06,-169.6189296,-232.9329016,-326.7907889,-73.55445363,-75.53158425,391.5751207,-48.9620478,-78.21195278,-80.22287354,254.9352519,-42.29912577,,,,
565.5119996,2209,-57.49302287,-57.04367334,113.918651,119.9254847,1.63E-06,170.4373556,128.9415249,190.5031358,24.57883239,-34.51620771,-789.3980846,-102.6497867,63.13487508,117.6510244,-1188.173157,-357.8338497,,,,
565.5199996,2209,-23.39539748,-10.26053758,232.7738129,140.7682412,1.62E-06,-157.2790459,54.14802534,68.94418826,-62.81638983,71.99072613,901.4829911,138.3851491,-106.0704896,-118.6008545,765.2084145,601.2531251,,,,
565.5279996,2209,28.85584066,69.38328626,-491.0497379,-401.1430089,1.60E-06,36.96556542,-195.5624737,-277.7721592,-9.598137846,-129.1365253,-655.8763464,-196.0341238,37.22395678,75.70985725,-923.2680994,-636.5167621,,,,
565.5359996,2209,-83.23938676,-80.89427696,554.3865739,447.8639295,1.59E-06,78.64574068,284.5071809,395.3354675,11.84726478,121.4572395,193.9818503,124.0146852,3.34592715,28.64860577,-112.1757967,427.8460707,,,,
565.5439996,2209,66.30346779,116.1590773,-395.648956,-363.0857452,1.57E-06,-148.488399,-233.9066943,-333.8193479,-61.41864454,-53.06129508,393.0519992,-38.15791162,-75.08765434,-66.39188948,301.454853,-26.33667841,,,,
565.5519996,2209,-28.41411066,-20.07920895,121.0967521,121.3921306,1.56E-06,200.7423913,125.5226439,182.8499114,62.10298221,3.81109173,-781.1841237,-72.30247441,85.21646827,145.8900674,-1164.379692,-339.9755192,,,,
565.5599996,2209,-23.66175772,-9.990819017,237.1880092,150.4041724,1.55E-06,-148.5920584,49.09469984,72.11005389,-55.51048986,92.57263489,912.5671593,157.6912368,-100.9372972,-111.6923422,783.9495202,610.9581279,,,,
565.5679996,2209,32.73975358,63.7706569,-489.2549478,-386.0012439,1.53E-06,36.27789003,-191.0293137,-266.5206908,-23.13947967,-133.8404726,-647.2019713,-196.5193667,15.25509763,65.92905277,-898.0378994,-622.8072842,,,,
565.5759996,2209,-57.74575739,-74.09079091,543.047843,434.5569095,1.52E-06,84.36693232,287.5198004,387.5521437,21.968988,118.988636,212.8656602,126.4206356,-3.492522129,38.92222683,-98.5122482,439.6151369,,,,
565.5839996,2209,59.13323326,93.46067646,-409.2797825,-371.9159366,1.50E-06,-150.4140532,-226.4501741,-334.2386525,-61.01606593,-58.39202363,402.2807903,-40.21088836,-69.70703643,-52.6770892,282.0351299,-28.65701255,,,,
565.5919996,2209,-51.32819989,-48.29989929,114.3069048,129.65823,1.49E-06,188.8295269,143.2367081,198.0395996,38.57960735,-12.41946739,-746.2829118,-87.00768888,74.63219919,144.5491801,-1155.767619,-327.361513,,,,
565.5999996,2209,-19.6465777,-7.754956846,218.3001111,138.3104853,1.47E-06,-147.5530392,56.66190057,69.24553526,-51.03513075,84.6665236,956.5429428,145.5085421,-96.18729721,-96.82956928,777.1538177,610.6860857,,,,
565.6079996,2209,25.84519828,57.19982116,-491.665772,-380.1403236,1.46E-06,35.83044733,-188.7762002,-260.8695975,-7.832746595,-131.3902892,-592.7604995,-198.1564847,33.1488819,81.11660013,-921.5213376,-622.0720206,,,,
565.6159996,2209,-79.56578693,-88.30102038,538.8924827,446.315254,1.45E-06,66.72924999,279.0068706,394.6802885,13.43444156,115.9957297,299.8422334,117.6754377,-7.854764564,31.83833671,-88.23442608,447.4616555,,,,
565.6239996,2209,41.45009006,82.34134807,-422.5480442,-372.9410956,1.43E-06,-164.6375947,-244.284484,-337.0556124,-62.56130848,-60.10973395,473.7590516,-53.74289875,-75.10310679,-58.86766863,259.8562047,-43.3461094,,,,
565.6319996,2209,-63.20831449,-60.23166778,111.1958399,132.6777606,1.42E-06,177.3012915,126.1492544,196.6979166,38.26027566,-15.80657706,-666.2777857,-98.30379286,73.65489847,132.2537703,-1170.457879,-335.2624333,,,,
565.6399996,2209,-14.1184291,-1.10954244,200.6313059,122.2541258,1.40E-06,-143.3755997,39.26968891,59.89612261,-52.72792983,82.32613472,1032.899936,133.8307018,-94.43208049,-97.78178912,767.655502,599.3397638,,,,
565.6479996,2209,34.09544613,64.12135283,-498.8223124,-394.8793157,-5.17E-07,47.33636605,-195.853384,-263.191022,4.600799887,-118.758615,-531.4831776,-190.9847262,47.10881453,92.95683977,-953.2582256,-628.0382902,,,,
565.6559996,2209,-72.9340676,-90.66699542,540.1563629,440.7819687,-2.33E-06,59.56938694,271.42582,394.8368601,17.8498765,119.8889509,369.7091604,130.8896079,5.259646579,20.2944834,-101.7491041,445.9920046,,,,
565.6639996,2209,57.22779707,88.88331638,-421.4716859,-370.8983204,-1.75E-06,-163.3721388,-249.8199611,-332.461958,-65.00341747,-64.81717894,533.7370349,-45.31507984,-66.86223118,-68.44026243,242.3405979,-51.88103405,,,,
565.6719996,2209,-59.36420902,-62.10177781,126.2736237,151.5285277,-1.78E-06,174.6574365,128.6589136,209.9239305,41.52897753,-12.44485714,-587.5080036,-81.12742295,77.60598037,127.2610742,-1167.402063,-317.7704378,,,,
565.6799996,2209,-22.88228841,-14.01954236,200.4716656,136.1649493,-1.88E-06,-167.889274,34.24825394,62.99015856,-63.52505115,69.26729366,1107.767217,136.2936215,-100.6395893,-126.8485389,780.2631451,608.5110998,,,,
565.6879996,2209,34.28915155,63.91071492,-501.5331563,-381.0435053,-1.73E-06,36.7036522,-199.8125081,-259.4065129,-11.4934758,-139.1124031,-468.402218,-197.3423886,43.75423932,70.4401198,-951.4526533,-623.4385619,,,,
565.6959996,2209,-67.57542273,-80.81449671,536.321451,444.5624445,-1.82E-06,66.26468626,271.0561292,395.9870636,24.98661047,114.4768157,436.8429056,133.1024827,14.98844542,25.62185804,-102.2627752,460.2107848,,,,
565.7039996,2209,60.47759183,96.0711371,-427.4421149,-371.4268207,-1.73E-06,-157.3618179,-242.9146117,-327.7528368,-57.73314443,-73.15102225,573.6717252,-48.61357513,-62.35920338,-63.68658464,227.679345,-45.54360374,,,,
565.7119996,2209,-53.64844677,-55.52237278,128.9371868,155.9047404,-1.76E-06,177.4511589,136.3832014,219.7627436,33.88837821,-25.36068689,-544.271404,-80.96837624,76.36253694,127.0382991,-1161.933697,-302.9495249,,,,
565.7199996,2209,-6.259975724,0.019350145,194.9444567,125.4727349,-1.72E-06,-151.5539004,33.38750671,64.25714402,-61.86504277,66.46009363,1134.045444,145.6517316,-94.28580095,-109.8956382,763.6133779,608.4216869,,,,
565.7279996,2209,52.32749976,75.65347157,-496.4775138,-385.7573691,-1.72E-06,59.66320764,-193.593714,-251.1723375,-2.422388906,-129.5520909,-456.704252,-180.7551604,46.62369296,93.04425014,-980.3523282,-617.2450756,,,,
565.7359996,2209,-66.15537199,-85.51911601,536.245859,438.5153018,-1.69E-06,69.28742024,268.6847476,396.6348916,21.48177494,117.2922149,453.8347192,148.8986422,10.80072555,38.26690552,-103.3193026,473.4710945,,,,
565.7439996,2209,57.89280728,87.07694884,-431.9608774,-380.8437245,-1.68E-06,-149.2786042,-248.6832445,-330.8289079,-63.79394499,-76.03283246,547.7199584,-39.73265717,-59.50738303,-42.52217731,192.1637114,-56.15362218,,,,
565.7519996,2209,-49.32654383,-55.21849418,133.8336697,152.9908814,-1.67E-06,191.7714952,137.1109204,217.7473477,34.10537773,-18.34019777,-579.952637,-67.75101188,83.76399988,154.5399842,-1187.567997,-303.1832811,,,,
565.7599996,2210,-7.529927803,1.598198318,187.0939541,116.8303032,-1.65E-06,-146.6935867,26.15767976,51.71500843,-58.1030636,73.39308437,1073.972183,158.2750891,-82.10815099,-86.49753486,744.0597142,598.1206939,,,,
565.7679996,2210,43.40116247,67.3240305,-490.3994305,-376.8948779,-1.63E-06,67.13439575,-192.3922959,-250.1644576,4.883278712,-120.0256726,-538.1862398,-168.0511559,60.06330431,110.2493323,-1007.982517,-630.8389059,,,,
565.7759996,2210,-72.32253831,-96.20838339,538.1123658,446.472963,-1.62E-06,73.21208438,269.0014917,392.2840274,25.09571838,127.5620933,380.9103233,157.303521,15.61683393,42.79085298,-104.6134279,468.0866868,,,,
565.7839996,2210,54.40925846,76.92753709,-449.0125868,-389.2363979,-1.60E-06,-151.3430852,-257.1188559,-349.9830094,-56.36077577,-71.74590105,445.9858032,-42.98443513,-54.49946185,-46.25936696,166.9959852,-73.69197867,,,,
565.7919996,2210,-51.50771481,-68.62768091,120.8351606,144.7516001,-1.59E-06,188.0820205,133.4250219,202.2274772,47.9895939,-15.77376558,-666.8775405,-73.66696842,86.75809165,143.0930478,-1208.928588,-305.5736132,,,,
565.7999996,2210,-9.09805026,-10.07114004,179.3924458,115.4113143,-1.57E-06,-143.1354724,31.41415453,50.59538805,-50.05682707,69.53281751,994.1969724,146.9862029,-83.79475226,-94.34699705,729.1060422,600.0293825,,,,
565.8079996,2210,34.87154151,54.04301402,-480.7236369,-363.0544463,-1.56E-06,66.9155534,-182.5259422,-236.1819283,4.653415557,-127.3223498,-613.7316759,-178.0212535,52.81327433,103.3469279,-1007.88525,-620.9853486,,,,
565.8159996,2210,-67.33795009,-94.13013937,533.4520025,436.466151,-1.55E-06,74.85026135,266.0283001,386.612553,26.77326403,119.1499236,318.861813,149.8843108,7.142539618,31.29958544,-87.56567258,470.3500148,,,,
565.8239996,2210,77.00600267,97.35370548,-450.3217859,-405.3183694,-1.53E-06,-119.6187345,-251.7792622,-348.7054715,-40.20066625,-65.81959768,364.2053419,-39.09384761,-45.17888798,-34.43602723,145.9804434,-80.97296703,,,,
565.8319996,2210,-44.02035974,-62.38273477,143.1927226,152.0724205,-1.52E-06,211.8860669,147.2821965,222.5291663,65.6220906,6.803830975,-718.989975,-50.74468091,93.84051046,160.937697,-1203.153062,-282.1725623,,,,
565.8399996,2210,-7.844793674,-9.99902775,178.1707534,104.6386783,-1.50E-06,-136.3960786,29.44178676,48.50151074,-43.51877625,77.88069058,936.1593973,156.3248439,-94.09692933,-99.49307796,738.5200317,604.7518954,,,,
565.8479996,2210,45.50890162,64.40673679,-480.443597,-376.9813366,-1.49E-06,86.57066224,-178.5872328,-238.2085978,21.48084216,-117.8056833,-681.3478878,-172.2699835,58.27080504,109.0677545,-1026.09153,-618.8378605,,,,
565.8559996,2210,-78.17499403,-103.1746703,532.559636,429.0075049,-1.47E-06,71.57066159,263.0289066,384.3139128,39.85769925,128.174865,273.1411846,155.9048147,14.79346327,37.11885448,-90.5514398,484.4938252,,,,
565.8639996,2210,49.29507844,72.70064692,-461.21133,-413.9088362,-1.46E-06,-146.2227158,-268.3381209,-361.8606968,-57.95892242,-88.99738624,293.0106067,-60.4502639,-61.59822001,-68.96583417,132.7681635,-103.4601122,,,,
565.8719996,2210,-43.99839892,-59.26772515,146.1741046,150.0100788,-1.45E-06,205.6520938,143.2011014,216.6958922,55.94213661,-12.20792377,-764.7551171,-62.46205468,93.08618135,139.156749,-1202.558139,-302.422021,,,,
565.8799996,2210,3.154253328,-2.730891166,167.799248,92.02457674,-1.43E-06,-140.3947892,19.48811358,35.21622346,-30.75960335,78.71726086,899.3494389,163.1755547,-74.90559597,-87.90989491,721.6956705,586.7458091,,,,
565.8879996,2210,47.05381231,58.243141,-492.0157975,-395.4778313,-1.42E-06,70.91274489,-195.946964,-260.7732153,21.12717882,-126.3044927,-731.2523802,-177.1136539,59.49320355,97.61384008,-1061.697517,-642.6289927,,,,
565.8959996,2210,-65.21890195,-89.50801219,531.6459579,412.855151,-1.40E-06,74.95962425,261.5312452,369.6707541,40.54121842,125.6351697,244.6404023,156.9192121,20.26639934,31.52340192,-111.8446272,471.3085639,,,,
565.9039996,2210,59.60170278,83.2184084,-450.7587934,-413.3930812,5.17E-07,-132.6825252,-254.4344851,-353.9295067,-37.84689556,-69.16188324,260.5914771,-42.86276033,-42.00039608,-46.30809717,95.40929106,-101.3156155,,,,
565.9119996,2210,-46.00910848,-65.51663231,156.2628919,151.4130134,2.33E-06,199.0336261,146.7086979,223.6284123,62.45677845,-1.482381471,-781.9561096,-57.24082597,89.15605669,132.393831,-1209.452061,-284.5012367,,,,
565.9199996,2210,-2.775976732,-6.597002564,166.1711061,86.03800731,1.75E-06,-145.1284824,16.58896614,36.4756086,-37.39115656,73.70748,869.6701194,153.52578,-84.85147756,-106.4430046,711.2743792,583.8795591,,,,
565.9279996,2210,28.58319592,41.35980828,-463.3563096,-357.4327487,1.78E-06,67.40330968,-178.1066626,-224.2840334,11.54207882,-128.3550599,-754.0781853,-173.920063,50.59432349,85.54164937,-1059.101261,-632.6675661,,,,
565.9359996,2210,-76.63858697,-106.7810444,556.4669604,458.7139142,1.88E-06,49.52016549,270.6120665,402.2731394,15.20360949,108.4827929,251.7200819,154.3654588,-11.34686775,-6.624822368,-52.82407916,483.6449733,,,,
565.9439996,2210,62.52141071,79.84304938,-446.4152458,-390.6551871,1.73E-06,-153.5950188,-261.3487322,-348.9167704,-55.00325804,-94.21234073,244.5156815,-57.8759604,-68.43782436,-77.93130285,121.9038818,-119.6707325,,,,
565.9519996,2210,-47.71192561,-68.86149944,169.0429939,178.7866902,1.82E-06,189.5159443,145.8549911,227.9041253,56.11023516,-16.32343178,-779.5099109,-61.98768024,70.66524632,122.2261251,-1188.328757,-289.8521592,,,,
565.9599996,2210,6.582210859,1.566786278,170.6326531,104.7610196,1.73E-06,-145.640127,19.19754942,37.80973397,-45.20726227,64.44872171,877.4695593,151.8038698,-103.9056094,-109.7071373,733.9283895,573.6838269,,,,
565.9679996,2210,50.4302085,60.51212123,-459.8769497,-358.8324729,1.76E-06,80.73403013,-177.6760942,-230.3890095,22.67274182,-121.4542771,-748.7587095,-167.3354447,56.4390162,101.1726962,-1058.789534,-634.5596082,,,,
565.9759996,2210,-76.94864844,-105.6025673,554.6377227,444.8921587,1.72E-06,59.45239195,266.4568795,392.283795,25.00232617,116.7392381,270.0777389,165.3848045,1.737391654,13.88195437,-58.73794775,494.7205091,,,,
565.9839996,2210,43.15586008,66.06692749,-433.1809819,-376.5839923,1.72E-06,-144.8164045,-246.9310034,-331.3117239,-73.26014674,-99.94065358,251.8897178,-55.01205792,-76.03092388,-72.43461912,120.0388444,-115.574761,,,,
565.9919996,2210,-53.90473412,-72.17258983,185.5983309,194.6899231,1.69E-06,195.7055661,158.4411812,242.6323779,41.50269251,-24.08731469,-749.5278531,-59.2067029,65.19187418,122.231366,-1147.621619,-269.8249842,,,,
565.9999996,2210,3.050480263,-5.900671806,160.0656706,89.99820007,1.68E-06,-150.1891302,9.378929741,22.04480281,-42.82846278,53.30867987,890.4601174,148.6201794,-93.79613928,-105.6970456,745.2517708,579.8901816,,,,
566.0079996,2210,48.34825916,51.4935346,-453.9262081,-354.3226268,1.67E-06,76.01488223,-178.2396899,-234.2342004,20.5008846,-132.4781845,-742.7961859,-176.6305601,56.97584123,93.33898585,-1059.327708,-632.2637659,,,,
566.0159996,2211,-53.57664327,-88.90079977,549.7495337,441.0350272,1.65E-06,66.24904645,258.592897,377.9653174,36.48656223,119.102798,296.0366228,160.0395597,1.455209351,10.30216118,-30.99921729,501.9668696,,,,
566.0239996,2211,76.24253986,89.9967422,-449.0446009,-401.2021097,1.63E-06,-125.9138541,-263.6683818,-355.3879105,-32.87744205,-81.50119164,254.6920247,-48.44057923,-51.38936171,-50.70282267,105.0284232,-113.9801737,,,,
566.0319996,2211,-26.25326199,-50.84654332,189.4469167,176.3395068,1.62E-06,212.8567345,149.5421677,230.937528,79.88642189,3.642311499,-729.3049918,-39.59694446,96.08812051,142.1263775,-1154.191497,-251.1242235,,,,
566.0399996,2211,12.14886593,4.127119118,163.8788405,77.73559185,1.60E-06,-138.3917929,1.646349474,18.5757115,-17.31639041,78.41228428,905.4884737,167.975577,-77.16280186,-95.92982045,743.7290437,590.5792551,,,,
566.0479996,2211,33.67824095,36.12655325,-435.9963827,-345.1777802,1.59E-06,73.37976466,-179.5793334,-219.4920979,32.75062058,-122.5414903,-734.6657076,-164.0309776,52.89376758,88.55908217,-1050.937694,-616.7743397,,,,
566.0559996,2211,-59.95166427,-98.6449045,553.0439403,434.1072163,1.57E-06,50.9246496,250.9344487,380.0283684,29.1441312,107.8238277,310.0775537,156.3772681,-12.13884943,-5.736955638,3.476036028,512.805678,,,,
566.0639996,2211,72.51526201,84.97087874,-449.9719486,-415.1985609,1.56E-06,-131.3338677,-263.3616925,-351.3345322,-37.47669726,-94.20363599,240.7757672,-57.51521059,-54.83434767,-48.16217128,105.058181,-115.728662,,,,
566.0719996,2211,-57.6174525,-83.98798047,205.2579536,190.8177061,1.55E-06,192.8632516,161.4184356,258.4610522,70.61703391,-13.00676766,-722.7531138,-46.77923981,74.14486704,138.3952089,-1123.45268,-228.9082294,,,,
566.0799996,2211,-18.66809786,-28.28542457,158.0366129,85.72622482,1.53E-06,-173.4290161,1.846690689,34.18248307,-50.14187951,35.37283244,901.7217043,137.4517863,-123.8318753,-127.3472155,795.6950434,586.6949687,,,,
566.0879996,2211,25.1255349,30.11259704,-434.5142335,-340.6835478,1.52E-06,61.57625147,-169.2939698,-208.7750779,15.19834704,-152.7243359,-744.0064471,-190.1090591,31.39864147,80.25189783,-1011.633899,-629.8639002,,,,
566.0959996,2211,-78.39367647,-112.5622612,563.7232941,448.7521934,1.50E-06,43.4278839,263.7292575,392.0193015,25.92522014,95.99245851,324.8950331,149.8016999,-20.1991507,2.42252291,56.90669324,512.6837313,,,,
