Time:125Hz,Epoch,FP1,FP2,C3,C4,P7,P8,O1,O2,F7,F8,F3,F4,T7,T8,P3,P4,,,,
528.7119996,2065,1.62E-06,-67.03440911,0,0,0,-124.9675749,-111.3922295,67.56929525,18.32685909,-70.547007,0,111.789405,0,-79.9946497,0,0,,,,
528.7199996,2065,1.61E-06,-86.41432676,0,0,0,45.01976707,58.65592665,9.455492332,-88.41117096,-87.95490693,0,110.2079139,0,-3.101031161,0,0,,,,
528.7279996,2065,1.59E-06,21.18348919,0,0,0,-53.52515206,-55.48611203,80.17965574,25.08055736,15.21293312,0,108.6297679,0,-247.8377328,0,0,,,,
528.7359996,2065,1.58E-06,-148.0875796,0,0,0,-40.43106691,-51.4628719,19.21754942,5.768387558,-122.988465,0,107.0549935,0,62.90634591,0,0,,,,
528.7439996,2065,1.56E-06,-9.485790628,0,0,0,35.02832709,31.27053949,18.35091325,-72.49833198,-22.61422597,0,105.4836171,0,-169.2791824,0,0,,,,
528.7519996,2065,1.55E-06,-73.29901289,0,0,0,-145.0654994,-131.4564085,58.10661241,53.80726545,-64.72865638,0,103.9156651,0,-102.9351253,0,0,,,,
528.7599996,2065,1.53E-06,-121.6940652,0,0,0,44.0068094,44.55723849,-14.52022976,-82.90691572,-96.01630488,0,102.3511634,0,-3.564230966,0,0,,,,
528.7679996,2065,1.52E-06,22.35864579,0,0,0,-28.31712667,-41.86951223,91.9894444,9.4690992,22.97510472,0,100.7901378,0,-267.5464358,0,0,,,,
528.7759996,2065,1.50E-06,-166.3356149,0,0,0,-49.29968321,-49.38450635,40.93786201,3.316519812,-135.6032032,0,99.23261416,0,43.54489332,0,0,,,,
528.7839996,2065,1.49E-06,-24.36255622,0,0,0,49.78880431,42.70418473,35.97983385,-62.48974081,-34.99488707,0,97.67861783,0,-177.7513429,0,0,,,,
528.7919996,2065,1.48E-06,-55.62153818,0,0,0,-119.5499361,-124.5863735,86.65430257,64.05171355,-46.4592259,0,96.12817415,0,-114.9213969,0,0,,,,
528.7999996,2065,1.46E-06,-123.9236889,0,0,0,25.10553555,29.52085679,-0.565236652,-79.54922851,-100.9417474,0,94.58130824,0,6.301557645,0,0,,,,
528.8079996,2065,1.45E-06,17.20629392,0,0,0,-64.02836716,-71.25421135,87.60946023,27.15641045,8.257580926,0,93.03804504,0,-263.2087144,0,0,,,,
528.8159996,2065,1.43E-06,-153.7251182,0,0,0,-60.08493052,-83.92791954,17.11603001,8.227974567,-128.5134995,0,91.49840928,0,47.54305652,0,0,,,,
528.8239996,2065,-4.87E-07,-16.0083373,0,0,0,53.89966602,25.81061406,0.698464085,-92.18626396,-23.62271051,0,89.96242554,0,-158.2016029,0,0,,,,
528.8319996,2065,-2.30E-06,-53.87652266,0,0,0,-122.4124788,-133.0714089,72.13422311,53.64251789,-37.94222274,0,88.43011819,0,-113.0689204,0,0,,,,
528.8399996,2065,-1.72E-06,-137.2298257,0,0,0,32.60164996,25.3889056,-16.47133819,-82.5764499,-99.0928406,0,86.90151145,0,7.480007385,0,0,,,,
528.8479996,2065,-1.75E-06,87.34020146,0,0,0,-112.3265443,-115.7756493,113.8922536,56.13788932,86.14634228,0,85.37662931,0,-417.9704953,0,0,,,,
528.8559996,2065,-1.85E-06,-34.96225136,0,0,0,-224.3321304,-222.3244719,124.7237874,140.7176922,-6.169465513,0,83.8554956,0,-203.1012281,0,0,,,,
528.8639996,2065,-1.70E-06,-98.09355828,0,0,0,15.79638393,6.600160635,14.51757359,-54.29433488,-66.74922299,0,82.33813397,0,-53.80891458,0,0,,,,
528.8719996,2065,-1.79E-06,-76.83660627,0,0,0,-10.84923745,-18.11064889,38.35349679,-20.05616615,-58.51611308,0,80.82456788,0,-48.56219001,0,0,,,,
528.8799996,2065,-1.70E-06,-11.53612299,0,0,0,-15.72930837,-21.24908244,48.93996569,-12.25148888,-40.36964827,0,79.3148206,0,-95.70323296,0,0,,,,
528.8879996,2065,-1.73E-06,-43.59726118,0,0,0,-45.27333362,-57.05948814,54.24596109,11.44645341,-67.30511404,0,77.80891524,0,-56.92821142,0,0,,,,
528.8959996,2066,-1.69E-06,-123.7809175,0,0,0,-0.542314035,-15.91408262,17.20051273,-39.61687908,-97.26243364,0,76.30687469,0,27.93446268,0,0,,,,
528.9039996,2066,-1.69E-06,-12.14895754,0,0,0,-33.24911548,-48.50428937,51.31752442,-2.558732314,-18.16909624,0,74.80872168,0,-131.1511867,0,0,,,,
528.9119996,2066,-1.67E-06,-124.3792975,0,0,0,-52.85997681,-72.97343053,19.56531702,5.928203502,-111.6008043,0,73.31447876,0,75.18770357,0,0,,,,
528.9199996,2066,-1.65E-06,-46.23045642,0,0,0,51.31023764,26.25484637,21.36523744,-64.68145558,-50.47860516,0,71.82416828,0,-72.80023793,0,0,,,,
528.9279996,2066,-1.64E-06,-20.4165831,0,0,0,-54.1478159,-68.79563737,88.88368714,65.54668074,-46.53932574,0,70.33781242,0,-71.44979086,0,0,,,,
528.9359996,2066,-1.62E-06,-99.77714949,0,0,0,21.04573154,1.476271013,16.22610334,-11.25211606,-91.0639405,0,68.85543317,0,47.25376651,0,0,,,,
528.9439996,2066,-1.61E-06,5.403827811,0,0,0,-31.73063034,-59.18615876,57.1031477,23.72411204,-0.190533071,0,67.37705236,0,-165.5543427,0,0,,,,
528.9519996,2066,-1.59E-06,-114.6374854,0,0,0,-46.39308624,-66.4742978,21.68326379,25.2477398,-113.6153336,0,65.90269158,0,96.3567761,0,0,,,,
528.9599996,2066,-1.58E-06,-30.99118026,0,0,0,41.81297914,22.2481464,6.925609032,-61.77458761,-43.09654626,0,64.43237231,0,-82.57184344,0,0,,,,
528.9679996,2066,-1.56E-06,-80.52493992,0,0,0,-113.1701991,-117.7871005,64.77812344,53.32023935,-69.955879,0,62.9661158,0,-44.67026825,0,0,,,,
528.9759996,2066,-1.55E-06,-129.477673,0,0,0,18.96634817,21.62171002,-7.828108825,-61.10556659,-121.5937471,0,61.50394313,0,84.76759149,0,0,,,,
528.9839996,2066,-1.53E-06,37.57541867,0,0,0,-21.59740039,-47.33496585,76.32107952,28.47449192,-9.246817398,0,60.0458752,0,-189.4362877,0,0,,,,
528.9919996,2066,-1.52E-06,-127.9222603,0,0,0,-25.16393983,-69.73921713,55.81970231,45.37257907,-126.6459415,0,58.59193271,0,119.6420181,0,0,,,,
528.9999996,2066,-1.50E-06,-25.4941661,0,0,0,68.66776603,40.94022076,25.34387274,-57.68055649,-39.46495375,0,57.14213623,0,-48.93502866,0,0,,,,
529.0079996,2066,-1.49E-06,-50.23267863,0,0,0,-113.4792014,-124.9621037,78.44101834,78.27170041,-61.61202727,0,55.69650608,0,-28.04824949,0,0,,,,
529.0159996,2066,-1.48E-06,-140.4219048,0,0,0,23.52612976,6.868475802,3.020440357,-58.65512511,-135.3934396,0,54.25506245,0,136.0081904,0,0,,,,
529.0239996,2066,-1.46E-06,20.70231581,0,0,0,-44.04588764,-52.98753934,62.6389853,-3.744625169,-30.63567841,0,52.81782532,0,-132.747387,0,0,,,,
529.0319996,2066,-1.45E-06,-115.1882179,0,0,0,-51.71835523,-59.56580486,28.37397112,28.35536789,-127.773957,0,51.38481451,0,148.1380436,0,0,,,,
529.0399996,2066,-1.43E-06,-11.63742055,0,0,0,69.27629209,58.04552469,22.30610521,-62.02896143,-25.47981898,0,49.95604965,0,-29.38726726,0,0,,,,
529.0479996,2066,4.87E-07,-42.36782312,0,0,0,-122.2231874,-109.7819703,74.10693747,30.74788211,-67.19070887,0,48.53155018,0,-5.146031432,0,0,,,,
529.0559996,2066,2.30E-06,-114.6088197,0,0,0,39.7354547,51.3367923,-9.226714496,-107.9814401,-140.9870149,0,47.11133537,0,133.5846715,0,0,,,,
529.0639996,2066,1.72E-06,35.19204751,0,0,0,-15.70984263,-15.8386988,73.52794045,-16.76358681,-0.45093192,0,45.69542431,0,-161.5490042,0,0,,,,
529.0719996,2066,1.75E-06,-143.5574495,0,0,0,-75.04329525,-54.62577082,23.61095835,-23.14038603,-132.9482278,0,44.2838359,0,142.8339754,0,0,,,,
529.0799996,2066,1.85E-06,-32.08187575,0,0,0,35.68203772,64.594986,-5.470489074,-129.5566423,-62.24604042,0,42.87658887,0,-40.60690686,0,0,,,,
529.0879996,2066,1.70E-06,-30.27069,0,0,0,-114.3390147,-108.1351852,70.86734917,0.163917607,-72.13866049,0,41.47370178,0,-34.85136974,0,0,,,,
529.0959996,2066,1.79E-06,-101.4171302,0,0,0,69.00094379,65.42433246,3.817574576,-151.7185908,-136.2146411,0,40.07519299,0,142.3091059,0,0,,,,
529.1039996,2066,1.70E-06,66.69871325,0,0,0,-11.20723195,3.937868978,83.7290077,-43.83619655,28.42949619,0,38.68108068,0,-169.5199826,0,0,,,,
529.1119996,2066,1.73E-06,-102.0174643,0,0,0,-70.97443046,-48.75128765,36.88557636,-13.71297409,-99.64301383,0,37.29138288,0,111.4472849,0,0,,,,
529.1199996,2066,1.69E-06,-14.00510098,0,0,0,70.29108172,89.14891369,9.065819008,-132.2318213,-45.32464907,0,35.90611741,0,-42.4294891,0,0,,,,
529.1279996,2066,1.69E-06,-18.96334463,0,0,0,-115.6823941,-97.92205285,86.69448517,32.32132053,-34.17177026,0,34.52530192,0,-48.19443019,0,0,,,,
529.1359996,2066,1.67E-06,-108.2765766,0,0,0,32.89160625,33.27234368,8.237560386,-126.4958093,-127.7121313,0,33.14895388,0,141.0162614,0,0,,,,
529.1439996,2066,1.65E-06,53.77860915,0,0,0,-6.251960596,-6.171817457,73.81718129,-93.7830542,-2.008814627,0,31.77709061,0,-139.1595668,0,0,,,,
529.1519996,2067,1.64E-06,-105.7474235,0,0,0,-48.10785645,-35.34002462,42.18508006,-24.88714867,-99.59440013,0,30.40972921,0,133.1133828,0,0,,,,
529.1599996,2067,1.62E-06,-25.63866201,0,0,0,86.04353724,98.26613698,26.71485269,-114.4321904,-28.1015701,0,29.04688662,0,-27.32725839,0,0,,,,
529.1679996,2067,1.61E-06,-20.72309916,0,0,0,-88.59138406,-73.78257946,103.4641442,-0.32569817,-23.70899347,0,27.68857961,0,-31.41012668,0,0,,,,
529.1759996,2067,1.59E-06,-122.7475448,0,0,0,50.87000703,56.44169772,22.9605025,-140.4480984,-117.2798896,0,26.33482477,0,162.4886761,0,0,,,,
529.1839996,2067,1.58E-06,24.16038172,0,0,0,-11.34252868,-2.749136173,84.92861347,-78.69165899,-1.987510329,0,24.98563851,0,-135.0501396,0,0,,,,
529.1919996,2067,1.56E-06,-115.6495764,0,0,0,-57.56951613,-42.47939906,48.78157289,-43.73394013,-114.664627,0,23.64103705,0,143.0008739,0,0,,,,
529.1999996,2067,1.55E-06,-12.71522232,0,0,0,104.7578251,98.69765643,24.18330283,-161.1082779,-40.72670413,0,22.30103646,0,1.527184629,0,0,,,,
529.2079996,2067,1.53E-06,-6.776768004,0,0,0,-56.8780616,-75.27195094,110.1775679,-23.539309,-35.15848497,0,20.96565262,0,-22.00704508,0,0,,,,
529.2159996,2067,1.52E-06,-118.8159839,0,0,0,69.01557639,56.40714625,38.75155131,-143.2197546,-117.8045648,0,19.63490123,0,174.7316764,0,0,,,,
529.2239996,2067,1.50E-06,35.82190028,0,0,0,8.155385191,11.53560821,98.27475563,-77.29155881,24.32378777,0,18.30879783,0,-114.5441742,0,0,,,,
529.2319996,2067,1.49E-06,-127.2291723,0,0,0,-52.96467564,-50.68054152,56.61108481,-32.913922,-107.8068314,0,16.98735776,0,175.91132,0,0,,,,
529.2399996,2067,1.48E-06,-29.75634709,0,0,0,80.79011044,78.94859996,13.31750151,-154.5788067,-46.72723228,0,15.6705962,0,45.07154338,0,0,,,,
529.2479996,2067,1.46E-06,-4.307442696,0,0,0,-94.12822807,-83.57899408,88.85732881,-17.88501695,-28.29646482,0,14.35852817,0,17.39557318,0,0,,,,
529.2559996,2067,1.45E-06,-120.1647463,0,0,0,54.83382226,57.58810058,28.08964512,-138.9426819,-118.7325605,0,13.05116849,0,219.1485054,0,0,,,,
529.2639996,2067,1.43E-06,70.7896572,0,0,0,11.04421989,3.985285112,95.85593633,-67.28523368,37.7814279,0,11.74853182,0,-91.02619229,0,0,,,,
529.2719996,2067,-4.87E-07,-82.76482463,0,0,0,-62.05331385,-70.629862,43.88272944,-8.558732773,-88.4696115,0,10.45063263,0,201.7686592,0,0,,,,
529.2799996,2067,-2.30E-06,-24.47753726,0,0,0,123.8056582,102.9447361,28.83395148,-128.1059863,-40.70894277,0,9.157485246,0,76.37347434,0,0,,,,
529.2879996,2067,-1.72E-06,3.214874103,0,0,0,-39.75745569,-58.45262558,131.1131523,15.15236339,-14.72993711,0,7.869103793,0,28.25076473,0,0,,,,
529.2959996,2067,-1.75E-06,-115.2872431,0,0,0,52.24384056,44.96571241,27.9676069,-124.946529,-122.2931411,0,6.585502238,0,254.781538,0,0,,,,
529.3039996,2067,-1.85E-06,46.7166904,0,0,0,30.80265822,14.36015973,102.8399633,-84.89663885,11.96583583,0,5.306694371,0,-58.04748238,0,0,,,,
529.3119996,2067,-1.70E-06,-79.78267209,0,0,0,-96.43422002,-118.6651483,105.6680013,24.0392064,-94.83740741,0,4.032693805,0,192.229477,0,0,,,,
529.3199996,2067,-1.79E-06,-36.37719178,0,0,0,44.0993879,22.57424084,26.30101087,-97.52090951,-78.66247293,0,2.76351399,0,152.0674565,0,0,,,,
529.3279996,2067,-1.70E-06,14.82330223,0,0,0,-35.49659526,-61.54923003,99.58839532,5.007341037,-23.229112,0,1.4991682,0,37.3154601,0,0,,,,
529.3359996,2067,-1.73E-06,-77.25286191,0,0,0,-10.46895494,-27.32766853,57.81482877,-34.52309384,-83.53089422,0,0.239669537,0,197.3303732,0,0,,,,
529.3439996,2067,-1.69E-06,-31.12602834,0,0,0,53.82296998,36.98626625,17.12157429,-109.0036566,-54.06010691,0,-1.01496907,0,87.77859984,0,0,,,,
529.3519996,2067,-1.69E-06,-54.31575406,0,0,0,15.26386885,-20.59422104,44.38669899,-73.98657774,-92.78861147,0,-2.264734857,0,128.1460344,0,0,,,,
529.3599996,2067,-1.67E-06,-25.54648963,0,0,0,5.433041155,-24.70497011,60.74685562,-60.34517917,-66.08563889,0,-3.509615234,0,120.3358847,0,0,,,,
529.3679996,2067,-1.65E-06,-44.79075456,0,0,0,49.27839065,28.02206596,23.85157019,-78.22994486,-68.75264378,0,-4.749597784,0,143.3974064,0,0,,,,
529.3759996,2067,-1.64E-06,-0.115543202,0,0,0,28.29600422,-6.359914011,60.21058259,-36.35560827,-33.73723502,0,-5.984670254,0,41.87280054,0,0,,,,
529.3839996,2067,-1.62E-06,-49.34329088,0,0,0,-5.919245822,-40.25746799,46.55350538,-31.34213092,-78.73815891,0,-7.214820562,0,127.2963261,0,0,,,,
529.3919996,2067,-1.61E-06,-43.90263789,0,0,0,77.52746338,43.77619198,10.32512826,-103.9186233,-82.60350816,0,-8.440036798,0,88.62621865,0,0,,,,
529.3999996,2067,-1.59E-06,-20.99387993,0,0,0,-7.382715948,-43.96747973,82.00819299,-2.850657641,-30.91239085,0,-9.660307219,0,5.059543573,0,0,,,,
529.4079996,2068,-1.58E-06,-94.7252496,0,0,0,57.74109372,29.0707045,17.7557227,-73.91133194,-95.57651263,0,-10.87562025,0,164.2790905,0,0,,,,
529.4159996,2068,-1.56E-06,54.025523,0,0,0,39.36219575,10.0481759,54.81794673,-53.26288937,-12.13804576,0,-12.08596448,0,-79.65413369,0,0,,,,
529.4239996,2068,-1.55E-06,-125.4713892,0,0,0,-59.20881672,-94.56590683,63.36219592,39.45359536,-132.6936854,0,-13.29132868,0,231.6880349,0,0,,,,
529.4319996,2068,-1.53E-06,-182.7755364,0,0,0,79.3937482,42.97253658,-9.440771271,-81.53147743,-180.9214548,0,-14.49170177,0,353.3085928,0,0,,,,
529.4399996,2068,-1.52E-06,32.67371238,0,0,0,40.72719298,-0.420137901,52.72818278,-44.4357112,-26.05245999,0,-15.68707285,0,-51.04935034,0,0,,,,
529.4479996,2068,-1.50E-06,-4.013143706,0,0,0,52.77842647,2.84260074,34.78425914,-37.57289159,-51.07688686,0,-16.87743117,0,-1.497685334,0,0,,,,
529.4559996,2068,-1.49E-06,-19.55377221,0,0,0,41.32495474,-0.155097204,44.99337622,-0.461837285,-51.82833351,0,-18.06276618,0,41.71149839,0,0,,,,
529.4639996,2068,-1.48E-06,-12.60213042,0,0,0,38.72645264,11.07797286,36.79438229,-34.11827043,-38.2693421,0,-19.24306745,0,23.85815755,0,0,,,,
529.4719996,2068,-1.46E-06,18.75367486,0,0,0,20.7510189,-4.818989166,35.5380323,-64.54319459,-29.82522683,0,-20.41832476,0,-71.91943476,0,0,,,,
529.4799996,2068,-1.45E-06,-56.28034455,0,0,0,-8.856000757,-46.40264595,43.01581951,-0.980160336,-83.51389893,0,-21.58852803,0,36.63741713,0,0,,,,
529.4879996,2068,-1.43E-06,-2.755066004,0,0,0,108.4565427,59.10464734,27.31603652,-56.46444656,-21.82552623,0,-22.75366734,0,-47.23856566,0,0,,,,
529.4959996,2068,4.87E-07,20.51848266,0,0,0,-34.53773547,-69.08287755,64.45687664,24.77215593,-1.443938951,0,-23.91373295,0,-100.1191187,0,0,,,,
529.5039996,2068,2.30E-06,-78.15124359,0,0,0,34.03763818,0.415011112,-1.131285172,-57.40903157,-104.655322,0,-25.06871528,0,75.63506803,0,0,,,,
529.5119996,2068,1.72E-06,63.79696525,0,0,0,77.26252368,30.03561976,72.31595211,-42.60906271,-4.266356068,0,-26.21860491,0,-177.6426247,0,0,,,,
529.5199996,2068,1.75E-06,-56.98554511,0,0,0,-11.64886214,-52.20280317,76.9614584,31.08667829,-62.11422658,0,-27.36339259,0,-3.331040522,0,0,,,,
529.5279996,2068,1.85E-06,-35.61800394,0,0,0,121.0074413,73.27711829,7.002108323,-87.70891454,-44.99137358,0,-28.50306922,0,-59.44648479,0,0,,,,
529.5359996,2068,1.70E-06,24.77047935,0,0,0,-23.06431998,-74.69546023,86.0951702,46.6660637,-12.84315501,0,-29.63762588,0,-158.4653279,0,0,,,,
529.5439996,2068,1.79E-06,-106.8246303,0,0,0,37.53653032,-2.945496096,-2.095030249,-43.76220492,-117.0047804,0,-30.76705379,0,81.95525629,0,0,,,,
529.5519996,2068,1.70E-06,55.22791696,0,0,0,53.11816016,3.020998839,41.20322754,-39.07741964,2.441585373,0,-31.89134436,0,-203.8404461,0,0,,,,
529.5599996,2068,1.73E-06,-53.67766113,0,0,0,-26.16195068,-79.15004462,59.08805598,49.32403422,-77.79507706,0,-33.01048913,0,-1.320860763,0,0,,,,
529.5679996,2068,1.69E-06,-20.81399209,0,0,0,138.8733664,86.46459783,-0.52360574,-98.26315374,-67.29290702,0,-34.12447983,0,-48.37125382,0,0,,,,
529.5759996,2068,1.69E-06,44.24615653,0,0,0,-9.946098047,-72.24663085,84.95046638,39.0383785,-17.86193198,0,-35.23330832,0,-160.6750438,0,0,,,,
529.5839996,2068,1.67E-06,-105.3427962,0,0,0,64.04724056,7.748243329,11.64177571,-44.50617624,-114.6310299,0,-36.33696666,0,101.1309136,0,0,,,,
529.5919996,2068,1.65E-06,61.17436945,0,0,0,63.82577668,16.87792785,55.50615612,-58.01721133,7.328082658,0,-37.43544704,0,-202.6073401,0,0,,,,
529.5999996,2068,1.64E-06,-34.69433905,0,0,0,-22.93578213,-68.54841079,58.54528358,44.8465285,-77.21310913,0,-38.5287418,0,15.89679471,0,0,,,,
529.6079996,2068,1.62E-06,5.172037027,0,0,0,154.5033321,111.848966,11.62294751,-42.64931238,-24.18717158,0,-39.61684347,0,-36.29057502,0,0,,,,
529.6159996,2068,1.61E-06,57.66238836,0,0,0,-21.95176905,-66.51374337,100.4128017,93.0521385,27.41179548,0,-40.69974473,0,-164.3485247,0,0,,,,
529.6239996,2068,1.59E-06,-89.26955417,0,0,0,73.35223478,14.29532667,14.95414447,-25.17274068,-121.8528229,0,-41.77743839,0,130.9349908,0,0,,,,
529.6319996,2068,1.58E-06,73.3627231,0,0,0,84.680841,32.39113929,66.25088068,-19.7546882,23.58071513,0,-42.84991746,0,-187.1153165,0,0,,,,
529.6399996,2068,1.56E-06,-77.57450228,0,0,0,-66.21325358,-101.713081,59.39534798,46.72952187,-58.56760984,0,-43.91717508,0,28.14151994,0,0,,,,
529.6479996,2068,1.55E-06,-67.96266223,0,0,0,115.788252,61.91717582,-16.56148178,-110.3842676,-78.81174985,0,-44.97920455,0,17.15318856,0,0,,,,
529.6559996,2068,1.53E-06,16.9886606,0,0,0,-6.685021655,-67.13920447,84.55548702,58.17430769,-14.64594975,0,-46.03599934,0,-133.3596395,0,0,,,,
529.6639996,2069,1.52E-06,-104.6736223,0,0,0,75.07179771,20.92523226,17.10792941,-26.60491597,-116.5269054,0,-47.08755305,0,140.9565311,0,0,,,,
529.6719996,2069,1.50E-06,59.05717172,0,0,0,141.66655,77.46466147,19.26213993,-97.83492425,-6.918064572,0,-48.13385946,0,-148.7104071,0,0,,,,
529.6799996,2069,1.49E-06,-49.58391144,0,0,0,-9.033643031,-63.59682915,24.63282336,15.19140992,-62.19222608,0,-49.1749125,0,10.47216048,0,0,,,,
529.6879996,2069,1.48E-06,-1.279685278,0,0,0,111.4336274,57.26865309,-1.144754037,-82.24782707,-14.18997019,0,-50.21070625,0,-63.20642352,0,0,,,,
529.6959996,2069,1.46E-06,79.29316995,0,0,0,28.661635,-41.49019255,73.92183268,10.874095,30.75694281,0,-51.24123494,0,-207.8952957,0,0,,,,
529.7039996,2069,1.45E-06,-139.7470804,0,0,0,-23.96190357,-92.84209235,27.38040392,45.76784727,-143.2137019,0,-52.26649296,0,236.3289442,0,0,,,,
529.7119996,2069,1.43E-06,12.46840828,0,0,0,89.69927868,20.95191042,23.89677435,-47.17159272,-31.01136105,0,-53.28647486,0,15.83753935,0,0,,,,
529.7199996,2069,-4.87E-07,32.9062109,0,0,0,-11.68631881,-71.59888683,55.32235713,10.48992206,-19.08947966,0,-54.30117532,0,-29.15956138,0,0,,,,
529.7279996,2069,-2.30E-06,-95.31509882,0,0,0,-6.806015188,-66.91118609,21.97008279,-8.593456701,-100.9950596,0,-55.3105892,0,205.6017548,0,0,,,,
529.7359996,2069,-1.72E-06,34.58204613,0,0,0,96.78582671,18.19880246,39.47888748,-44.08666441,-3.855969741,0,-56.3147115,0,13.02705126,0,0,,,,
529.7439996,2069,-1.75E-06,-12.15965765,0,0,0,-31.62974907,-100.6378853,59.46216516,52.17197385,-45.68971797,0,-57.31353737,0,114.3391956,0,0,,,,
529.7519996,2069,-1.85E-06,-191.0107593,0,0,0,64.24339952,4.785805606,-47.89986288,-71.65503132,-169.6263823,0,-58.3070621,0,410.723665,0,0,,,,
529.7599996,2069,-1.70E-06,-29.35278148,0,0,0,134.0749692,66.53738485,-15.42780584,-103.7745295,-65.97707891,0,-59.29528116,0,149.5446096,0,0,,,,
529.7679996,2069,-1.79E-06,72.29365977,0,0,0,-72.42742555,-134.999722,107.1201175,98.48513432,1.750045911,0,-60.27819015,0,34.90281566,0,0,,,,
529.7759996,2069,-1.70E-06,-74.15912099,0,0,0,72.69216877,8.578744858,19.06142378,-0.347320247,-85.65866456,0,-61.25578482,0,348.1527788,0,0,,,,
529.7839996,2069,-1.73E-06,48.31354334,0,0,0,103.2572127,35.97890645,47.54152947,-17.99304852,15.68891827,0,-62.22806106,0,158.014388,0,0,,,,
529.7919996,2069,-1.69E-06,11.77315495,0,0,0,-53.87111859,-98.55401444,65.40172467,66.63257105,-6.402907199,0,-63.19501494,0,204.4539913,0,0,,,,
529.7999996,2069,-1.69E-06,-85.50508508,0,0,0,81.38829652,46.79020357,-24.58794206,-61.45827846,-91.52826969,0,-64.15664265,0,400.5040346,0,0,,,,
529.8079996,2069,-1.67E-06,80.16486935,0,0,0,31.19988024,-14.72740985,63.2347011,-25.3494518,19.27252707,0,-65.11294054,0,137.7548925,0,0,,,,
529.8159996,2069,-1.65E-06,-48.74657053,0,0,0,-14.49620078,-56.33492477,39.74571971,-13.04432474,-54.34385755,0,-66.0639051,0,351.5038602,0,0,,,,
529.8239996,2069,-1.64E-06,-13.07078347,0,0,0,100.3494761,68.71775387,-3.895557151,-91.60061248,-22.86286882,0,-67.00953297,0,286.7197608,0,0,,,,
529.8319996,2069,-1.62E-06,55.46113064,0,0,0,-39.79270054,-67.37205997,54.49643487,23.81278655,0.829689729,0,-67.94982095,0,160.6902004,0,0,,,,
529.8399996,2069,-1.61E-06,-67.54808968,0,0,0,49.34510069,22.26940828,-10.54968584,-56.96272624,-105.9890491,0,-68.88476596,0,398.4084776,0,0,,,,
529.8479996,2069,-1.59E-06,92.70344429,0,0,0,82.55523506,60.1557909,57.01054661,-69.20868733,34.77881284,0,-69.81436509,0,105.3678282,0,0,,,,
529.8559996,2069,-1.58E-06,-4.166336429,0,0,0,-16.21709521,-32.78515719,75.35588623,16.68612701,-19.64127146,0,-70.73861555,0,259.596717,0,0,,,,
529.8639996,2069,-1.56E-06,4.28763793,0,0,0,127.0663203,110.4211678,8.971583067,-91.55588467,-10.22564897,0,-71.65751473,0,234.0609725,0,0,,,,
529.8719996,2069,-1.55E-06,68.38107302,0,0,0,-51.42813731,-55.71310927,51.46941428,-0.970813116,27.30559117,0,-72.57106012,0,68.21244609,0,0,,,,
529.8799996,2069,-1.53E-06,-89.85210928,0,0,0,-0.498517436,-5.562083645,-40.17659838,-94.89904123,-121.3318873,0,-73.47924939,0,361.181494,0,0,,,,
529.8879996,2069,-1.52E-06,83.00898633,0,0,0,75.98755012,55.49315069,15.86241925,-111.2498309,11.37517068,0,-74.38208034,0,58.92013603,0,0,,,,
529.8959996,2069,-1.50E-06,-10.3841708,0,0,0,-62.70482273,-76.59551247,37.48068518,20.75874159,-44.31672804,0,-75.2795509,0,201.0178802,0,0,,,,
529.9039996,2069,-1.49E-06,-18.21683056,0,0,0,111.8893361,91.41416084,-38.58675479,-115.0118453,-29.08031146,0,-76.17165917,0,209.4247204,0,0,,,,
529.9119996,2069,-1.48E-06,95.90483174,0,0,0,-7.320619771,-42.10510132,46.444092,-13.61849753,54.94684477,0,-77.05840337,0,13.07441549,0,0,,,,
529.9199996,2070,-1.46E-06,-53.08668494,0,0,0,38.85101619,13.47339771,-40.42102347,-67.32707539,-87.9122884,0,-77.93978186,0,318.3575261,0,0,,,,
529.9279996,2070,-1.45E-06,99.51875427,0,0,0,90.97420797,76.46607347,0.096237687,-103.4719568,39.25109748,0,-78.81579316,0,13.61858737,0,0,,,,
529.9359996,2070,-1.43E-06,-0.361269185,0,0,0,-66.61965924,-81.67010959,40.25099242,-6.778649955,-49.96566168,0,-79.6864359,0,144.9951279,0,0,,,,
529.9439996,2070,4.87E-07,-21.57321724,0,0,0,108.3086406,84.88843881,-52.93951353,-149.9166587,-65.52632383,0,-80.55170888,0,180.5446725,0,0,,,,
529.9519996,2070,2.30E-06,112.4268967,0,0,0,-14.70229068,-26.796263,30.25603353,-18.7132572,56.047657,0,-81.41161103,0,-43.02671853,0,0,,,,
529.9599996,2070,1.72E-06,-20.986182,0,0,0,53.67001935,46.26944189,-11.91654539,-37.29840367,-63.55946344,0,-82.2661414,0,244.7280535,0,0,,,,
529.9679996,2070,1.75E-06,114.5605516,0,0,0,127.6731904,103.8760877,30.96517855,-69.59556171,67.90207574,0,-55.24299237,0,-37.60134969,0,0,,,,
529.9759996,2070,1.85E-06,31.88967081,0,0,0,-158.5822153,-171.6227494,89.04893198,92.85538993,-2.448600168,0,-38.85773098,0,72.942964,0,0,,,,
529.9839996,2070,1.70E-06,-36.46679894,0,0,0,42.4878145,33.46766762,-12.93107657,-62.1724816,-86.3758781,0,-31.61352698,0,239.2618448,0,0,,,,
529.9919996,2070,1.79E-06,-4.675985399,0,0,0,172.6950673,149.6733513,-23.61549441,-128.8791531,-49.93489797,0,56.78064994,0,172.6597175,0,0,,,,
529.9999996,2070,1.70E-06,-144.5441048,0,0,0,99.31937793,79.24502304,-51.07216687,-105.8625689,-172.270458,0,68.05104792,0,421.8078863,0,0,,,,
530.0079996,2070,1.73E-06,68.7694605,0,0,0,116.233146,100.4523013,12.19278991,-96.68770798,15.58633109,0,-39.02570753,0,43.18934278,0,0,,,,
530.0159996,2070,1.69E-06,94.87064753,0,0,0,-12.19245863,-24.60387129,68.67951945,-15.15743996,64.23614149,0,0.335160707,0,-20.45565994,0,0,,,,
530.0239996,2070,1.69E-06,-56.5652372,0,0,0,6.739727063,-8.23423316,-13.59722514,-84.31250173,-78.51203147,0,103.4138277,0,270.1843043,0,0,,,,
530.0319996,2070,1.67E-06,69.2774777,0,0,0,92.60068062,67.92644831,4.169461469,-124.547348,18.40078221,0,-31.82645709,0,40.49751936,0,0,,,,
530.0399996,2070,1.65E-06,41.77310031,0,0,0,-12.57163924,-31.44611767,45.07354076,-8.249807203,3.438323941,0,79.66344322,0,89.48752921,0,0,,,,
530.0479996,2070,1.64E-06,-24.37576708,0,0,0,40.2632,23.16636247,-26.15915038,-62.0681821,-61.3579672,0,299.4803462,0,237.2842794,0,0,,,,
530.0559996,2070,1.62E-06,96.49733792,0,0,0,55.80892044,32.46394049,1.346289696,-75.93324398,31.07481405,0,43.03368634,0,21.34356487,0,0,,,,
530.0639996,2070,1.61E-06,9.545712875,0,0,0,-29.96593012,-52.11687705,22.27562865,-3.362602777,-27.42466133,0,229.4123848,0,160.5791925,0,0,,,,
530.0719996,2070,1.59E-06,0.629644891,0,0,0,94.37739823,64.39216891,-18.3720001,-95.50150556,-26.49849306,0,243.1791629,0,143.078082,0,0,,,,
530.0799996,2070,1.58E-06,73.26551769,0,0,0,19.8498754,-16.27597536,58.28944274,3.438684118,32.1817956,0,188.1533426,0,17.09791648,0,0,,,,
530.0879996,2070,1.56E-06,-32.92121451,0,0,0,56.83415153,21.11111898,7.107048467,-36.63921284,-56.19435132,0,598.5581003,0,257.131482,0,0,,,,
530.0959996,2070,1.55E-06,94.74552124,0,0,0,102.0870638,62.84296145,18.03602676,-86.32563255,36.59798639,0,168.8322523,0,18.72602176,0,0,,,,
530.1039996,2070,1.53E-06,14.44250518,0,0,0,-33.38141216,-70.14322611,49.79503061,15.55262161,-19.76458991,0,474.2277303,0,122.8600029,0,0,,,,
530.1119996,2070,1.52E-06,-39.44285659,0,0,0,96.99801854,65.02361761,-36.85201988,-130.249172,-51.54871878,0,597.1010376,0,182.6390434,0,0,,,,
530.1199996,2070,1.50E-06,73.33706335,0,0,0,-10.35727888,-39.48916631,32.09050439,-30.22649949,31.11995658,0,269.7921746,0,-16.14184567,0,0,,,,
530.1279996,2070,1.49E-06,-67.18953811,0,0,0,29.35563147,1.421935006,-16.93190907,-45.40263207,-80.26548841,0,956.4180606,0,270.6126183,0,0,,,,
530.1359996,2070,1.48E-06,69.09544533,0,0,0,108.0869909,76.5930164,4.432507585,-102.4275674,33.88000158,0,453.8232543,0,22.66319283,0,0,,,,
530.1439996,2070,1.46E-06,40.40901785,0,0,0,-28.79241455,-61.13384147,65.15181578,33.85053595,11.39358815,0,735.2395555,0,108.763806,0,0,,,,
530.1519996,2070,1.45E-06,-3.384554307,0,0,0,145.2737774,117.2326274,-5.7098526,-84.9928124,-15.71490885,0,987.4310478,0,179.9613876,0,0,,,,
530.1599996,2070,1.43E-06,98.35581207,0,0,0,5.197154148,-21.09174803,60.66446698,26.53203585,69.83859015,0,437.800246,0,-64.31245452,0,0,,,,
530.1679996,2070,-4.87E-07,-54.2921807,0,0,0,6.655868672,-26.90529754,-22.57160134,-6.639466331,-76.91141046,0,1258.166053,0,243.8266677,0,0,,,,
530.1759996,2071,-2.30E-06,83.95112104,0,0,0,107.5153841,66.24044199,-16.34245661,-76.41726573,25.69464149,0,744.5978074,0,1.56716735,0,0,,,,
530.1839996,2071,-1.72E-06,28.05044382,0,0,0,-56.88507364,-93.41705197,42.46325714,55.9472609,5.132022223,0,938.7109017,0,79.08743409,0,0,,,,
530.1919996,2071,-1.75E-06,-19.16125229,0,0,0,105.7771531,73.28722153,-42.50281658,-107.3117826,-36.18180575,0,1291.503848,0,173.8269274,0,0,,,,
530.1999996,2071,-1.85E-06,108.548322,0,0,0,0.126290406,-33.02472112,46.05459684,-11.6573772,63.47987079,0,674.3639487,0,-78.79014558,0,0,,,,
530.2079996,2071,-1.70E-06,-63.1902479,0,0,0,21.33677515,-16.45438283,-7.389319978,-16.39548687,-74.22795921,0,1527.709363,0,234.536386,0,0,,,,
530.2159996,2071,-1.79E-06,55.10441143,0,0,0,117.7929042,76.95487355,-7.558015641,-73.34877349,26.25464121,0,1030.915152,0,3.491531233,0,0,,,,
530.2239996,2071,-1.70E-06,-0.211722346,0,0,0,-64.56695657,-100.2892225,43.43450945,65.39019547,-2.750333729,0,1204.511143,0,81.87035592,0,0,,,,
530.2319996,2071,-1.73E-06,-35.04519299,0,0,0,115.9660795,74.70984597,-42.74884812,-90.62525181,-51.74578252,0,1616.797843,0,191.0926248,0,0,,,,
530.2399996,2071,-1.69E-06,107.2795467,0,0,0,20.3773882,-16.32596436,39.98663834,13.16342702,70.39496936,0,970.5943597,0,-68.20963488,0,0,,,,
530.2479996,2071,-1.69E-06,-68.36089119,0,0,0,7.422976646,-30.28736922,-15.96323124,2.47704885,-63.85161748,0,1838.9737,0,249.4175128,0,0,,,,
530.2559996,2071,-1.67E-06,73.09870255,0,0,0,106.8335236,54.0040834,-14.21838691,-94.2843755,22.33457204,0,1387.580637,0,35.08298896,0,0,,,,
530.2639996,2071,-1.65E-06,15.53448308,0,0,0,-65.77310397,-110.40514,42.043539,31.33995232,-8.568956792,0,1580.910465,0,121.8764919,0,0,,,,
530.2719996,2071,-1.64E-06,-56.71340495,0,0,0,109.3994608,64.73911169,-38.36939004,-106.722414,-56.35967331,0,2053.843222,0,243.6233052,0,0,,,,
530.2799996,2071,-1.62E-06,110.8567294,0,0,0,26.14714726,-18.76903662,50.23297632,7.705596874,75.34289991,0,1416.577661,0,-24.25990585,0,0,,,,
530.2879996,2071,-1.61E-06,-56.86783584,0,0,0,2.890473523,-35.93644042,-5.051437228,29.2626526,-49.82706735,0,2319.591693,0,304.7842291,0,0,,,,
530.2959996,2071,-1.59E-06,59.79767706,0,0,0,87.81222369,46.45129656,-13.79510322,-53.77130361,26.29956317,0,1927.311426,0,111.246876,0,0,,,,
530.3039996,2071,-1.58E-06,11.83312625,0,0,0,-69.4276693,-112.5270901,44.84266458,49.7926291,-27.78474005,0,2145.744448,0,193.8005973,0,0,,,,
530.3119996,2071,-1.56E-06,-66.42766097,0,0,0,107.8895436,57.55709131,-30.25415973,-99.77513057,-68.4141274,0,2669.847093,0,321.1130782,0,0,,,,
530.3199996,2071,-1.55E-06,97.35278796,0,0,0,-0.960647782,-43.04517852,42.81048777,11.63679047,66.54940353,0,2027.556704,0,45.29315648,0,0,,,,
530.3279996,2071,-1.53E-06,-58.75123549,0,0,0,-9.975685056,-43.7283813,-15.26773653,23.8127539,-76.45986517,0,2923.568903,0,350.6202877,0,0,,,,
530.3359996,2071,-1.52E-06,62.79134305,0,0,0,108.2252066,73.19943486,-15.33522001,-54.04343052,30.40506125,0,2493.950407,0,111.0482207,0,0,,,,
530.3439996,2071,-1.50E-06,23.02558849,0,0,0,-79.98210132,-119.5519705,37.26099696,85.19878778,-5.744213738,0,2616.829178,0,154.8772349,0,0,,,,
530.3519996,2071,-1.49E-06,-50.63593443,0,0,0,104.4012623,45.77700795,-31.50564436,-68.96774561,-75.06606363,0,3137.86357,0,294.5662614,0,0,,,,
530.3599996,2071,-1.48E-06,119.743527,0,0,0,35.53146409,-21.76440192,65.99309222,23.43460354,76.72938562,0,2445.994351,0,0.771863194,0,0,,,,
530.3679996,2071,-1.46E-06,-48.7723666,0,0,0,-17.12057023,-63.26922802,-0.992693511,47.04895164,-68.27952489,0,3311.292323,0,311.8988901,0,0,,,,
530.3759996,2071,-1.45E-06,61.49280549,0,0,0,91.28611778,44.06604966,-21.26705557,-55.56442732,-4.312923836,0,2951.743991,0,121.670349,0,0,,,,
530.3839996,2071,-1.43E-06,33.42634873,0,0,0,-70.12866165,-122.3086729,44.98811958,75.90662504,-15.8505455,0,3089.557883,0,164.4886985,0,0,,,,
530.3919996,2071,4.87E-07,-41.63253664,0,0,0,91.24399802,31.4004817,-34.00697516,-57.90774616,-59.63211147,0,3666.843261,0,319.6253572,0,0,,,,
530.3999996,2071,2.30E-06,123.4801471,0,0,0,7.803912854,-30.64963466,43.4354898,31.18020549,70.37741571,0,3026.291234,0,44.60928042,0,0,,,,
530.4079996,2071,1.72E-06,-64.59029873,0,0,0,-30.13941059,-64.33013861,-2.72875408,67.41611307,-81.74666616,0,3937.933846,0,363.9423266,0,0,,,,
530.4159996,2071,1.75E-06,43.10479023,0,0,0,100.0976291,41.26358037,-19.26469362,-43.85500585,2.992585431,0,3650.63898,0,197.5567961,0,0,,,,
530.4239996,2071,1.85E-06,55.99185258,0,0,0,-46.89184392,-94.80689893,39.57870406,68.55363457,6.173104477,0,3767.88055,0,223.1262489,0,0,,,,
530.4319996,2072,1.70E-06,-8.234880017,0,0,0,133.0722729,81.82465401,-18.81124649,-14.80492377,-37.33657226,0,4287.875905,0,331.3655729,0,0,,,,
530.4399996,2072,1.79E-06,135.6352065,0,0,0,44.85865197,-13.8368684,52.49350058,90.94044641,98.55581918,0,3552.136315,0,16.94960486,0,0,,,,
530.4479996,2072,1.70E-06,-57.81396964,0,0,0,-8.593013874,-53.54977319,-19.31837874,65.90014968,-53.51048455,0,4365.598129,0,306.0665333,0,0,,,,
530.4559996,2072,1.73E-06,68.02710768,0,0,0,134.1824706,85.03614651,-15.59452641,-27.61012758,29.62848198,0,3942.037318,0,72.27906094,0,0,,,,
530.4639996,2072,1.69E-06,67.45414667,0,0,0,-39.85309825,-91.20095142,52.54463204,127.3487245,17.04506761,0,3907.493474,0,49.35375781,0,0,,,,
530.4719996,2072,1.69E-06,-46.99363001,0,0,0,98.86702319,40.97956563,-45.06253407,-27.7709993,-61.10634947,0,4408.0457,0,178.8582931,0,0,,,,
530.4799996,2072,1.67E-06,115.2955968,0,0,0,31.73888374,-22.57132086,30.87801486,40.95893077,61.79654013,0,3620.354274,0,-149.4810588,0,0,,,,
530.4879996,2072,1.65E-06,-43.78221287,0,0,0,-4.431265162,-55.45207363,-19.07634062,71.68538126,-76.88086424,0,4365.027162,0,127.8631182,0,0,,,,
530.4959996,2072,1.64E-06,44.61605938,0,0,0,120.6994241,56.62268018,-41.48274452,-27.60928574,14.26553295,0,3936.315123,0,-67.71632884,0,0,,,,
530.5039996,2072,1.62E-06,37.46775325,0,0,0,-42.74938986,-91.46285384,32.41308465,118.0911244,10.37553159,0,3866.479817,0,-71.91460415,0,0,,,,
530.5119996,2072,1.61E-06,-39.5299372,0,0,0,125.4441692,76.55196295,-21.4131506,8.161370823,-48.40134382,0,4337.851963,0,62.82768524,0,0,,,,
530.5199996,2072,1.59E-06,124.969794,0,0,0,51.79938016,-15.33748829,63.73311122,78.93652174,70.73215415,0,3499.601802,0,-257.2693673,0,0,,,,
530.5279996,2072,1.58E-06,-55.61022638,0,0,0,-20.71767594,-79.67242833,-13.42760133,77.58628729,-94.50443249,0,4259.07558,0,51.86267109,0,0,,,,
530.5359996,2072,1.56E-06,31.06807675,0,0,0,108.7322035,48.64623267,-47.86599865,-43.01719091,-2.336348299,0,3883.17521,0,-121.8900689,0,0,,,,
530.5439996,2072,1.55E-06,38.35868438,0,0,0,-38.39203262,-105.9920465,33.32350252,109.1044338,0.004562804,0,3779.688037,0,-137.919654,0,0,,,,
530.5519996,2072,1.53E-06,-48.58438239,0,0,0,108.5368892,41.14552624,-46.80940023,-7.911759775,-77.98132309,0,4279.911823,0,20.53958858,0,0,,,,
530.5599996,2072,1.52E-06,117.1509884,0,0,0,55.9543326,-15.23008111,37.11608913,69.54125857,73.60768686,0,3457.517717,0,-286.3127019,0,0,,,,
530.5679996,2072,1.50E-06,-25.36392491,0,0,0,26.45166793,-45.2904912,3.849645652,122.8335859,-58.27959632,0,4174.198144,0,10.66543544,0,0,,,,
530.5759996,2072,1.49E-06,67.93092552,0,0,0,136.5415711,69.35677622,-35.50717385,16.28314768,2.630613203,0,3776.48769,0,-160.2524397,0,0,,,,
530.5839996,2072,1.48E-06,65.87794776,0,0,0,-28.50691575,-91.20974414,37.4413139,157.7024114,16.05596586,0,3637.989972,0,-172.8235567,0,0,,,,
530.5919996,2072,1.46E-06,-18.13501034,0,0,0,140.3544111,67.7611631,-13.08747107,31.79746128,-33.84091966,0,4144.618332,0,8.548559492,0,0,,,,
530.5999996,2072,1.45E-06,117.4410277,0,0,0,53.59390299,-22.32726827,59.4191762,80.21848951,84.83487212,0,3316.944645,0,-277.5191317,0,0,,,,
530.6079996,2072,1.43E-06,-53.7201296,0,0,0,-2.325657004,-68.16632355,5.864209112,119.403193,-68.91921634,0,4049.731818,0,35.82210365,0,0,,,,
530.6159996,2072,-4.87E-07,52.82646322,0,0,0,160.4069614,86.28105756,4.485025273,8.128734095,18.55048512,0,3689.697573,0,-124.7998799,0,0,,,,
530.6239996,2072,-2.30E-06,49.12239804,0,0,0,-35.62680209,-99.67751939,65.75889959,113.4842265,21.82589004,0,3554.858376,0,-135.6850959,0,0,,,,
530.6319996,2072,-1.72E-06,-57.24745889,0,0,0,81.22110139,38.09857994,-54.8957135,-41.29685993,-79.61492128,0,4133.820758,0,59.85345724,0,0,,,,
530.6399996,2072,-1.75E-06,104.132473,0,0,0,48.81329249,2.902856626,32.33935527,28.95442087,62.86936691,0,3303.33939,0,-254.5231977,0,0,,,,
530.6479996,2072,-1.85E-06,-37.47137875,0,0,0,-0.824317757,-40.37589199,2.443533586,89.26911221,-47.41746862,0,3987.057614,0,35.06900036,0,0,,,,
530.6559996,2072,-1.70E-06,65.8696464,0,0,0,119.5918835,90.79991232,-48.67126438,-42.93750167,20.49377707,0,3647.514805,0,-112.9243136,0,0,,,,
530.6639996,2072,-1.79E-06,55.03466804,0,0,0,-55.37633646,-79.42294625,12.00229939,58.20791454,21.73930642,0,3468.136693,0,-148.1260844,0,0,,,,
530.6719996,2072,-1.70E-06,-55.82346135,0,0,0,96.73146237,68.71596543,-60.53860434,-70.18221915,-65.63293958,0,4021.962701,0,38.48294001,0,0,,,,
530.6799996,2072,-1.73E-06,111.0505842,0,0,0,49.15350277,29.63067335,27.22296546,-4.543586933,73.41864716,0,3191.044438,0,-261.9622884,0,0,,,,
530.6879996,2073,-1.69E-06,-66.97964618,0,0,0,-16.9818876,-26.78705085,-7.301520408,37.50677367,-49.98426198,0,3870.899021,0,30.04288985,0,0,,,,
530.6959996,2073,-1.69E-06,23.45830767,0,0,0,143.7100808,101.053549,-27.0241668,-87.96357722,-7.083467302,0,3552.441245,0,-109.2185602,0,0,,,,
530.7039996,2073,-1.67E-06,74.73447286,0,0,0,-125.3065299,-177.3457146,96.77285673,133.8019276,3.297746601,0,3215.505743,0,-162.1133283,0,0,,,,
530.7119996,2073,-1.65E-06,-109.57359,0,0,0,3.218506424,-29.75483674,-25.73681011,7.79353916,-118.8420167,0,4070.164909,0,155.1099074,0,0,,,,
530.7199996,2073,-1.64E-06,85.39130814,0,0,0,160.4729023,132.7446806,-29.47862151,-121.7532118,46.19254831,0,3239.689036,0,-207.7228813,0,0,,,,
530.7279996,2073,-1.62E-06,61.34185928,0,0,0,-81.64006222,-97.20202868,37.55951778,68.17866469,9.676772787,0,3347.51208,0,-115.9214347,0,0,,,,
530.7359996,2073,-1.61E-06,-30.27885307,0,0,0,58.56604561,41.59635576,-62.77644531,-46.34417745,-54.63959968,0,3794.813122,0,41.70838071,0,0,,,,
530.7439996,2073,-1.59E-06,68.26140881,0,0,0,57.693511,35.73251143,-36.22082987,-50.96200829,40.52783172,0,3170.531964,0,-196.9639043,0,0,,,,
530.7519996,2073,-1.58E-06,-14.72527062,0,0,0,-73.37130768,-85.84148907,-22.46518088,23.78665166,-42.28385101,0,3549.06486,0,-7.079209399,0,0,,,,
530.7599996,2073,-1.56E-06,-13.98475387,0,0,0,85.76382532,73.66397029,-82.3331408,-109.1715412,-53.46562899,0,3632.227067,0,3.324248131,0,0,,,,
530.7679996,2073,-1.55E-06,65.47703159,0,0,0,-12.80120441,-25.15674793,-8.006778444,2.141636942,25.39685656,0,3130.60438,0,-175.1991111,0,0,,,,
530.7759996,2073,-1.53E-06,-29.63926884,0,0,0,5.494132172,-8.462821127,-40.53188951,-4.931115538,-55.19851764,0,3667.515523,0,48.49238083,0,0,,,,
530.7839996,2073,-1.52E-06,52.86421387,0,0,0,114.1908283,97.0098461,-40.68764869,-89.61487945,7.54292214,0,3296.822005,0,-103.9881539,0,0,,,,
530.7919996,2073,-1.50E-06,18.87461097,0,0,0,-71.90125192,-82.4517108,6.825268203,38.96234217,-6.414746783,0,3231.240894,0,-84.6003629,0,0,,,,
530.7999996,2073,-1.49E-06,-79.49050506,0,0,0,45.5581412,30.80765298,-89.48723727,-105.9845989,-94.87249512,0,3705.714896,0,91.16982397,0,0,,,,
530.8079996,2073,-1.48E-06,68.12919709,0,0,0,21.04600235,4.797640935,-8.190712568,-83.22439643,15.22304809,0,3011.412184,0,-170.9208913,0,0,,,,
530.8159996,2073,-1.46E-06,-35.91831514,0,0,0,-18.36314321,-26.69008917,-17.25704334,-9.433638593,-56.46807417,0,3574.648372,0,58.49578416,0,0,,,,
530.8239996,2073,-1.45E-06,39.47253153,0,0,0,120.9891513,109.8602954,-44.23397363,-70.10266326,16.98425426,0,3310.221878,0,-66.74929076,0,0,,,,
530.8319996,2073,-1.43E-06,63.62400553,0,0,0,-58.40007393,-64.44024845,27.21104545,39.53749586,27.00964491,0,3086.135642,0,-112.592834,0,0,,,,
530.8399996,2073,4.87E-07,-58.82443237,0,0,0,50.00643914,40.33531622,-64.05383495,-104.9113237,-91.15853894,0,3696.833302,0,107.1615086,0,0,,,,
530.8479996,2073,2.30E-06,91.67227525,0,0,0,15.18380218,10.02221456,-7.415969236,-58.38020065,38.52149795,0,2916.141074,0,-192.7866891,0,0,,,,
530.8559996,2073,1.72E-06,-27.73042445,0,0,0,-54.08698736,-42.75087203,-33.32181341,-17.69094785,-63.76488106,0,3514.032529,0,54.23023346,0,0,,,,
530.8639996,2073,1.75E-06,27.26813375,0,0,0,121.8708299,103.2880771,-50.39919558,-133.6008878,-22.43240963,0,3294.769517,0,-56.51712137,0,0,,,,
530.8719996,2073,1.85E-06,30.45909659,0,0,0,-73.74310734,-97.01238512,19.71916186,30.14985406,-6.563459232,0,3022.309195,0,-114.674115,0,0,,,,
530.8799996,2073,1.70E-06,-90.11382599,0,0,0,35.41214426,25.50159404,-83.469333,-88.6046881,-111.850204,0,3704.872174,0,127.5825692,0,0,,,,
530.8879996,2073,1.79E-06,99.51398323,0,0,0,55.75658321,26.65019455,9.508918127,-56.02032462,51.8791073,0,2889.588138,0,-191.5097396,0,0,,,,
530.8959996,2073,1.70E-06,-20.64903019,0,0,0,-30.13831069,-47.04660493,-5.546065309,25.86988753,-44.75622036,0,3475.839064,0,65.7768047,0,0,,,,
530.9039996,2073,1.73E-06,54.60742433,0,0,0,136.1043862,117.8614297,-49.40678974,-74.80860938,6.985953154,0,3282.287193,0,-38.2150649,0,0,,,,
530.9119996,2073,1.69E-06,99.62246062,0,0,0,-34.74800246,-66.71097022,44.45883893,75.69317796,47.71404592,0,2957.978235,0,-127.3950761,0,0,,,,
530.9199996,2073,1.69E-06,-43.83714501,0,0,0,66.47185506,39.03517409,-48.87159398,-59.00501002,-71.40187256,0,3668.495106,0,140.725696,0,0,,,,
530.9279996,2073,1.67E-06,116.8756337,0,0,0,56.09686297,26.85652603,9.557799208,-51.8007464,73.10280539,0,2875.802039,0,-162.0457881,0,0,,,,
530.9359996,2073,1.65E-06,-19.68725895,0,0,0,-51.5552545,-73.12411564,-8.736271981,23.5057414,-26.22679688,0,3459.38912,0,81.17768958,0,0,,,,
530.9439996,2074,1.64E-06,80.74312428,0,0,0,156.9241889,131.5983109,-54.55138236,-128.2431156,41.44668254,0,3196.87871,0,-92.54034451,0,0,,,,
530.9519996,2074,1.62E-06,241.3595483,0,0,0,-44.70297189,-70.02454075,88.17612349,52.77279316,163.6274799,0,2413.300759,0,-400.6388094,0,0,,,,
530.9599996,2074,1.61E-06,69.10636419,0,0,0,-48.79964021,-68.87922951,32.064227,37.52022002,28.40998648,0,3122.466361,0,-86.91194014,0,0,,,,
530.9679996,2074,1.59E-06,82.03521894,0,0,0,53.85871585,25.88996077,-4.410877653,-33.15193139,43.06194848,0,3075.700211,0,-92.65124527,0,0,,,,
530.9759996,2074,1.58E-06,-19.74169116,0,0,0,10.94400674,-22.56320323,-10.20084166,19.89517314,-34.26192694,0,3634.309472,0,102.3198101,0,0,,,,
530.9839996,2074,1.56E-06,47.21753198,0,0,0,100.9532325,60.70528848,-9.671869328,-31.49351844,20.08578647,0,3278.244732,0,-36.75183569,0,0,,,,
530.9919996,2074,1.55E-06,39.20231664,0,0,0,-22.74072598,-55.16095469,11.46288546,25.96890969,7.845521091,0,3203.928055,0,-39.07888877,0,0,,,,
530.9999996,2074,1.53E-06,-45.93854654,0,0,0,65.11378944,37.73122318,-59.78581192,-79.88685988,-61.59528367,0,3793.83461,0,148.0389848,0,0,,,,
531.0079996,2074,1.52E-06,121.4035334,0,0,0,48.76612203,21.17036479,5.550987002,-35.16008205,87.45368189,0,2993.919494,0,-160.3887213,0,0,,,,
531.0159996,2074,1.50E-06,-41.26288235,0,0,0,-54.90779367,-78.28565253,-39.23836974,28.24158185,-44.80716813,0,3618.220857,0,86.56927438,0,0,,,,
531.0239996,2074,1.49E-06,-2.066357768,0,0,0,85.78615121,52.23728493,-83.1861148,-86.23119594,-20.46007211,0,3429.330559,0,-22.85024337,0,0,,,,
531.0319996,2074,1.48E-06,41.61855198,0,0,0,-41.70260656,-73.75880841,0.739080001,27.12390435,18.75772787,0,3139.624857,0,-107.9735868,0,0,,,,
531.0399996,2074,1.46E-06,-67.31103926,0,0,0,57.90951588,25.98371397,-71.01511549,-61.35385764,-87.57518338,0,3818.657331,0,128.7567192,0,0,,,,
531.0479996,2074,1.45E-06,107.4351457,0,0,0,53.85395673,20.16079842,-8.320181101,-34.31767612,60.82217401,0,2987.762174,0,-202.0573664,0,0,,,,
531.0559996,2074,1.43E-06,-31.70785069,0,0,0,-60.75141701,-84.87737446,-24.74194135,32.08339434,-38.45795487,0,3523.658212,0,27.85080883,0,0,,,,
531.0639996,2074,-4.87E-07,5.908979968,0,0,0,92.84556416,66.04116712,-88.08732733,-105.3929196,-21.15901029,0,3412.001142,0,-47.46427727,0,0,,,,
531.0719996,2074,-2.30E-06,70.5281802,0,0,0,-40.55272683,-64.28741593,6.9210073,39.60265241,31.62532254,0,3013.481119,0,-175.1753445,0,0,,,,
531.0799996,2074,-1.72E-06,-59.36880701,0,0,0,68.14607319,38.85667664,-55.92118826,-27.65946422,-68.03900716,0,3719.426323,0,90.78552636,0,0,,,,
531.0879996,2074,-1.75E-06,161.4792394,0,0,0,127.5265706,96.27447953,-20.20993206,-76.57948667,114.3966595,0,2646.911112,0,-338.5270846,0,0,,,,
531.0959996,2074,-1.85E-06,49.8250667,0,0,0,-53.32567284,-69.87233044,-3.542280368,41.86330952,13.6790695,0,3033.033942,0,-161.1822339,0,0,,,,
531.1039996,2074,-1.70E-06,-91.33145735,0,0,0,28.07935548,2.881427018,-70.0344963,-15.84069635,-84.94091878,0,3781.373913,0,128.2480129,0,0,,,,
531.1119996,2074,-1.79E-06,56.91820626,0,0,0,61.98035189,27.58981524,-16.93833085,-22.22299868,44.74238481,0,3098.358678,0,-126.3017504,0,0,,,,
531.1199996,2074,-1.70E-06,21.57224318,0,0,0,8.978927244,-25.63088373,-16.70996666,6.775626619,-1.058134678,0,3252.106826,0,-53.11220477,0,0,,,,
531.1279996,2074,-1.73E-06,-22.6568103,0,0,0,8.944329643,-28.20814073,-35.70316842,10.61107562,-29.04674553,0,3446.527694,0,33.3436857,0,0,,,,
531.1359996,2074,-1.69E-06,37.32598044,0,0,0,77.70955307,37.64367973,-26.23201171,-13.81912418,16.69272147,0,3159.17996,0,-83.76750166,0,0,,,,
531.1439996,2074,-1.69E-06,16.7516592,0,0,0,-10.4989779,-50.34892846,-10.58417947,59.54584471,1.735122122,0,3202.883011,0,-45.14373325,0,0,,,,
531.1519996,2074,-1.67E-06,-15.62955119,0,0,0,36.09279031,8.393383536,-55.89988533,-2.362017549,-30.12797387,0,3470.859415,0,59.59636561,0,0,,,,
531.1599996,2074,-1.65E-06,81.57275384,0,0,0,37.80020006,21.17133648,-24.61428122,-6.5009827,40.21447336,0,3001.19168,0,-119.7157714,0,0,,,,
531.1679996,2074,-1.64E-06,-9.18049825,0,0,0,-60.0664793,-77.7904755,-26.21833374,55.01664015,-32.63982029,0,3328.044201,0,41.33701317,0,0,,,,
531.1759996,2074,-1.62E-06,32.01189232,0,0,0,90.10058814,62.63841863,-68.537065,-55.27737711,-21.10860106,0,3281.308483,0,7.378271208,0,0,,,,
531.1839996,2074,-1.61E-06,72.42749483,0,0,0,-30.6294147,-64.36487441,1.043270433,68.22380855,24.35535889,0,2947.298447,0,-90.64869576,0,0,,,,
531.1919996,2074,-1.59E-06,-55.44484359,0,0,0,29.36785365,-6.210196101,-59.44438716,-5.78500208,-62.74133625,0,3562.398052,0,147.2847098,0,0,,,,
531.1999996,2075,-1.58E-06,92.2997817,0,0,0,47.34494032,13.143263,-24.52185032,-31.67931545,44.26331438,0,2900.182893,0,-115.0604737,0,0,,,,
531.2079996,2075,-1.56E-06,-30.88328259,0,0,0,-88.76594641,-130.1162229,-26.66617974,54.60980217,-49.61526814,0,3279.572714,0,63.91378715,0,0,,,,
531.2159996,2075,-1.55E-06,-25.59071739,0,0,0,96.60982851,44.24465757,-89.58435956,-89.72613297,-49.86239548,0,3338.632541,0,58.37065853,0,0,,,,
531.2239996,2075,-1.53E-06,82.82688509,0,0,0,-31.09791439,-69.18296057,-7.545369177,60.97328682,28.94310313,0,2849.841498,0,-110.6016402,0,0,,,,
531.2319996,2075,-1.52E-06,-63.3232018,0,0,0,23.35109123,-10.81025586,-78.94379514,12.92015884,-76.32199808,0,3564.566553,0,151.337969,0,0,,,,
531.2399996,2075,-1.50E-06,83.84108942,0,0,0,64.14073315,19.23887469,-31.05859278,-16.6883238,46.05158953,0,2833.121862,0,-145.3956229,0,0,,,,
531.2479996,2075,-1.49E-06,-10.84004314,0,0,0,-76.9887161,-113.1313309,-24.65257819,91.0758902,-25.36523973,0,3195.80935,0,15.77346421,0,0,,,,
531.2559996,2075,-1.48E-06,-16.66609274,0,0,0,94.69459862,63.0194377,-93.94346764,-47.81927429,-19.97762751,0,3241.759246,0,-8.813123075,0,0,,,,
531.2639996,2075,-1.46E-06,77.78744587,0,0,0,-20.94253827,-58.84793576,16.59540578,79.36947903,43.05279963,0,2689.982534,0,-196.3413716,0,0,,,,
531.2719996,2075,-1.45E-06,-67.20297715,0,0,0,41.68970102,-3.06031358,-44.37524344,6.109750263,-94.35183332,0,3446.297243,0,100.0012947,0,0,,,,
531.2799996,2075,-1.43E-06,82.10234011,0,0,0,71.40157698,37.26337684,-8.4070138,-35.68523855,25.58875492,0,2695.629515,0,-193.0029458,0,0,,,,
531.2879996,2075,4.87E-07,14.53793204,0,0,0,-41.00800973,-82.45400717,20.10792125,102.4660661,-17.15620207,0,3037.715548,0,-30.68953987,0,0,,,,
531.2959996,2075,2.30E-06,34.83026894,0,0,0,158.7256962,92.3776714,-39.04693324,-3.743461611,7.468340588,0,3072.671355,0,-38.45245373,0,0,,,,
531.3039996,2075,1.72E-06,96.23930221,0,0,0,-10.17996078,-50.77641422,32.98501169,122.326439,71.43123739,0,2465.296035,0,-231.4906627,0,0,,,,
531.3119996,2075,1.75E-06,-55.6880872,0,0,0,47.60450529,9.603460158,-44.01202401,68.8474933,-57.95370377,0,3214.181701,0,57.48887382,0,0,,,,
531.3199996,2075,1.85E-06,122.8997364,0,0,0,115.1699117,62.33213845,2.725477537,42.17701504,70.97336642,0,2412.792084,0,-256.946915,0,0,,,,
531.3279996,2075,1.70E-06,2.897970306,0,0,0,-58.30374935,-100.9292569,2.320313414,127.9102221,-7.820186865,0,2713.583159,0,-93.64451852,0,0,,,,
531.3359996,2075,1.79E-06,-12.46666334,0,0,0,115.5733384,57.06118885,-77.33105374,-44.76111827,-31.38591271,0,2810.068196,0,-57.41843926,0,0,,,,
531.3439996,2075,1.70E-06,106.532336,0,0,0,-10.66612645,-65.36988832,10.93731274,82.74588191,54.01296982,0,2204.452351,0,-236.8556201,0,0,,,,
531.3519996,2075,1.73E-06,-52.79760481,0,0,0,33.46920828,-18.97945008,-75.95299783,42.27610514,-51.87069343,0,2963.462875,0,65.20923582,0,0,,,,
531.3599996,2075,1.69E-06,80.53284419,0,0,0,87.02634463,21.22354108,-21.17239867,-3.533882058,53.33638434,0,2204.254933,0,-219.2723124,0,0,,,,
531.3679996,2075,1.69E-06,-32.164802,0,0,0,-73.47016619,-124.0593085,0.467516533,84.62667296,-43.80844266,0,2528.380027,0,-37.14251954,0,0,,,,
531.3759996,2075,1.67E-06,-39.64609495,0,0,0,109.1239042,60.9218725,-97.62218882,-56.98742081,-56.8512588,0,2657.960479,0,-4.539888059,0,0,,,,
531.3839996,2075,1.65E-06,87.17910734,0,0,0,-10.03084349,-61.50862589,6.790670343,122.2938575,50.58267686,0,2032.045248,0,-208.2677569,0,0,,,,
531.3919996,2075,1.64E-06,-75.631185,0,0,0,15.14752452,-28.37774919,-73.76636513,78.39489894,-76.25551046,0,2841.430061,0,116.2251136,0,0,,,,
531.3999996,2075,1.62E-06,75.52834883,0,0,0,73.56386076,23.92370596,-56.04189689,-9.493862504,26.94791412,0,2129.126119,0,-159.5416971,0,0,,,,
531.4079996,2075,1.61E-06,-5.991523695,0,0,0,-48.93432365,-112.511424,-5.884528491,112.8968636,-22.16640494,0,2406.955958,0,-12.51968972,0,0,,,,
531.4159996,2075,1.59E-06,-23.00241944,0,0,0,129.9351649,65.54745719,-73.54168034,-19.72584947,-21.0013558,0,2527.391092,0,1.217324452,0,0,,,,
531.4239996,2075,1.58E-06,93.88661215,0,0,0,8.174778573,-47.0308363,18.21792495,115.2398391,66.40621419,0,1855.357278,0,-229.2136233,0,0,,,,
531.4319996,2075,1.56E-06,-75.1061359,0,0,0,61.11387477,8.882573712,-50.62881331,90.06194444,-69.71604272,0,2618.802034,0,77.97686129,0,0,,,,
531.4399996,2075,1.55E-06,91.38551421,0,0,0,107.3543867,62.37595273,-24.00156054,26.46179582,61.76812026,0,1842.702081,0,-231.1153773,0,0,,,,
531.4479996,2075,1.53E-06,17.27836594,0,0,0,-46.47304083,-87.56043689,15.79995888,131.3039813,16.57789853,0,2049.340521,0,-105.6822054,0,0,,,,
531.4559996,2076,1.52E-06,-37.15249331,0,0,0,122.9098415,71.5145217,-71.33283832,-13.57449928,-27.8197518,0,2199.685228,0,-53.99044957,0,0,,,,
531.4639996,2076,1.50E-06,83.13859228,0,0,0,-7.542923533,-50.02694934,6.742430663,100.3961869,55.15708193,0,1522.96967,0,-275.984924,0,0,,,,
531.4719996,2076,1.49E-06,-151.0765652,0,0,0,-0.175769273,-22.35971971,-65.19182434,86.40140714,-119.721587,0,2680.681146,0,188.4458781,0,0,,,,
531.4799996,2076,1.48E-06,-14.74125748,0,0,0,118.9252966,94.27940238,-63.81072082,-28.78373344,-12.5425195,0,2030.938946,0,-76.69912402,0,0,,,,
531.4879996,2076,1.46E-06,118.9933352,0,0,0,23.0686957,-10.08706102,27.91545833,69.92105192,89.77031515,0,1275.886398,0,-316.4682035,0,0,,,,
531.4959996,2076,1.45E-06,-39.54531205,0,0,0,60.74092802,38.27079629,-34.12399612,44.23558771,0.62893672,0,1927.007963,0,-34.67050044,0,0,,,,
531.5039996,2076,1.43E-06,-9.84786886,0,0,0,42.59706182,33.03392031,-48.59642421,6.179861075,27.4485354,0,1656.093019,0,-118.2005952,0,0,,,,
531.5119996,2076,-4.87E-07,32.21065037,0,0,0,2.799117814,-7.16377461,-49.53094466,-2.406032513,13.16174274,0,1399.545066,0,-180.7431162,0,0,,,,
531.5199996,2076,-2.30E-06,-37.34935359,0,0,0,-18.89826579,-24.43448851,-65.85259532,-2.663226029,-39.47536952,0,1690.797315,0,-38.79174013,0,0,,,,
531.5279996,2076,-1.72E-06,0.839717994,0,0,0,63.15599389,51.60196842,-65.96896857,-45.68384347,21.275983,0,1473.554306,0,-117.0376186,0,0,,,,
531.5359996,2076,-1.75E-06,27.6929623,0,0,0,3.377810899,-8.303774811,-30.96227612,29.58519232,42.83103718,0,1222.866452,0,-173.3783319,0,0,,,,
531.5439996,2076,-1.85E-06,-50.79081223,0,0,0,14.0165461,19.07162789,-70.18847242,5.036592151,-41.45485239,0,1641.098488,0,11.69409371,0,0,,,,
531.5519996,2076,-1.70E-06,78.23282089,0,0,0,79.66158261,72.94398721,-36.69289783,-36.01180652,39.52597453,0,1108.414922,0,-182.6538044,0,0,,,,
531.5599996,2076,-1.79E-06,6.339637623,0,0,0,-37.79680873,-45.14392362,-0.190898849,33.51458561,4.24365441,0,1288.90355,0,-51.85154285,0,0,,,,
531.5679996,2076,-1.70E-06,-22.87249864,0,0,0,91.56280872,96.23122549,-61.26422245,-73.54365803,-4.076962728,0,1408.411171,0,-6.602972257,0,0,,,,
531.5759996,2076,-1.73E-06,92.91239377,0,0,0,0.22216853,0.251907341,11.3891058,46.29474504,61.13650179,0,816.0638722,0,-201.4480227,0,0,,,,
531.5839996,2076,-1.69E-06,-48.72938376,0,0,0,2.909990885,5.066829527,-48.25741184,1.609397716,-58.79891136,0,1508.881851,0,97.01084064,0,0,,,,
531.5919996,2076,-1.69E-06,73.08480702,0,0,0,76.45513464,81.10346325,-50.33904942,-78.71512432,45.113816,0,947.4614868,0,-120.1680359,0,0,,,,
531.5999996,2076,-1.67E-06,15.04763339,0,0,0,-69.61751926,-65.29021487,-10.02825701,34.944743,-1.81833737,0,1087.153951,0,-23.41886262,0,0,,,,
531.6079996,2076,-1.65E-06,-33.94055346,0,0,0,87.26163236,80.46094875,-88.9144008,-99.59656143,-39.96584584,0,1337.52797,0,52.04153011,0,0,,,,
531.6159996,2076,-1.64E-06,82.55688194,0,0,0,-31.18230989,-39.21573885,-18.05244583,2.079173417,65.51672353,0,657.1788684,0,-180.0383323,0,0,,,,
531.6239996,2076,-1.62E-06,-87.60825695,0,0,0,-8.565008247,-11.70338202,-78.20291998,-45.33409273,-69.31799874,0,1447.379841,0,144.1497021,0,0,,,,
531.6319996,2076,-1.61E-06,56.04284325,0,0,0,98.75707484,90.5474942,-56.2461129,-89.86617581,25.99080487,0,849.3799543,0,-98.98365467,0,0,,,,
531.6399996,2076,-1.59E-06,-3.264613906,0,0,0,-77.19943147,-76.26895253,1.343274484,62.51956155,-5.547189088,0,958.0969593,0,-6.811479816,0,0,,,,
531.6479996,2076,-1.58E-06,-75.85588273,0,0,0,81.5009296,78.53068164,-81.25472963,-118.1985143,-56.65217664,0,1261.777757,0,88.1045995,0,0,,,,
531.6559996,2076,-1.56E-06,78.92841213,0,0,0,-14.19190383,-18.51284164,4.136332903,-16.41755689,40.85295078,0,534.935211,0,-172.0781486,0,0,,,,
531.6639996,2076,-1.55E-06,-69.47943627,0,0,0,-2.827741539,10.20612304,-55.54088009,-3.397375025,-61.04816952,0,1323.421615,0,144.3262883,0,0,,,,
531.6719996,2076,-1.53E-06,59.85678234,0,0,0,73.01600022,85.54677283,-65.67073303,-77.59694518,50.74452369,0,721.3304262,0,-102.8122972,0,0,,,,
531.6799996,2076,-1.52E-06,-16.47782197,0,0,0,-207.267436,-203.0406126,1.849405104,125.3827567,-28.43224629,0,865.5764019,0,34.19442889,0,0,,,,
531.6879996,2076,-1.50E-06,-153.3554586,0,0,0,-92.83220299,-89.71243186,-77.10369096,31.66311387,-129.0992049,0,1481.067329,0,290.3243812,0,0,,,,
531.6959996,2076,-1.49E-06,20.79242878,0,0,0,-78.91117519,-73.52842778,-25.44069684,33.61248366,7.849376364,0,592.1889724,0,-31.37232385,0,0,,,,
531.7039996,2076,-1.48E-06,-51.37171249,0,0,0,-28.9196365,-37.6553449,-43.66521228,1.785585223,-63.61432453,0,964.4825208,0,133.8855348,0,0,,,,
531.7119996,2077,-1.46E-06,80.59040591,0,0,0,165.532482,138.7703792,-24.25851005,-96.69449128,46.86822779,0,480.5134302,0,-74.95781261,0,0,,,,
531.7199996,2077,-1.45E-06,69.50352269,0,0,0,-37.58356181,-58.9319147,34.97987929,84.18362141,56.5143191,0,322.7642446,0,-82.43976508,0,0,,,,
531.7279996,2077,-1.43E-06,-61.9234389,0,0,0,48.42048874,32.43730252,-70.68625716,-19.52269815,-58.72682669,0,926.3261713,0,152.60084,0,0,,,,
531.7359996,2077,4.87E-07,116.0827298,0,0,0,73.15960922,65.780077,-18.89502003,-36.233419,61.92447728,0,148.4115072,0,-148.0053408,0,0,,,,
531.7439996,2077,2.30E-06,-17.34598767,0,0,0,-77.87597787,-82.9095131,-22.4655695,64.88914227,-25.22011263,0,585.9313235,0,66.33398586,0,0,,,,
531.7519996,2077,1.72E-06,-0.271604433,0,0,0,109.7889373,83.88372034,-72.46921365,-81.91761722,-2.101590122,0,568.9156409,0,38.96268077,0,0,,,,
531.7599996,2077,1.75E-06,112.5066825,0,0,0,-8.418712673,-26.28188958,16.71742469,38.38396918,84.03974044,0,26.10922869,0,-124.9419451,0,0,,,,
531.7679996,2077,1.85E-06,-63.57174763,0,0,0,-2.68914344,-10.4155753,-68.02974314,7.186274492,-55.25528951,0,763.1320138,0,191.7903489,0,0,,,,
531.7759996,2077,1.70E-06,61.00724906,0,0,0,94.1056653,68.14997282,-38.00168467,-54.05309383,36.65512007,0,155.0959022,0,-55.65969051,0,0,,,,
531.7839996,2077,1.79E-06,15.14388407,0,0,0,-54.25669979,-80.00230755,9.150000942,68.91031812,0.624540013,0,317.7228432,0,50.60757669,0,0,,,,
531.7919996,2077,1.70E-06,-23.71873164,0,0,0,101.7034622,73.78232434,-69.12890381,-70.85408966,-26.8800028,0,569.9518369,0,137.4700271,0,0,,,,
531.7999996,2077,1.73E-06,88.08318592,0,0,0,-19.4288248,-45.99532134,-0.109723522,30.75532305,64.17666996,0,-125.5366164,0,-94.66503628,0,0,,,,
531.8079996,2077,1.69E-06,-85.8598031,0,0,0,-32.56910968,-46.27579705,-86.47440212,10.74287532,-83.10535898,0,644.95907,0,226.1430701,0,0,,,,
531.8159996,2077,1.69E-06,52.59055663,0,0,0,103.9450994,89.29157765,-58.58679987,-59.46795594,30.79175441,0,87.80528216,0,-18.76921318,0,0,,,,
531.8239996,2077,1.67E-06,29.36254648,0,0,0,-64.88050584,-75.80593725,20.79510541,92.07002585,29.81775363,0,115.8016016,0,28.81070271,0,0,,,,
531.8319996,2077,1.65E-06,-41.13526871,0,0,0,87.99700273,66.26682085,-79.7010202,-68.73308274,-41.35181498,0,505.3701907,0,162.4804426,0,0,,,,
531.8399996,2077,1.64E-06,113.4272254,0,0,0,29.21506381,0.760931474,8.094570238,29.87546297,85.94580791,0,-274.3623669,0,-120.3765624,0,0,,,,
531.8479996,2077,1.62E-06,-45.59408244,0,0,0,17.67017498,-3.816629081,-31.83744657,59.78927947,-9.706993727,0,451.2535442,0,179.6218571,0,0,,,,
531.8559996,2077,1.61E-06,55.60555859,0,0,0,105.8794882,74.96745764,-45.86611171,-43.34975425,64.10377836,0,-75.00946507,0,-32.6554597,0,0,,,,
531.8639996,2077,1.59E-06,31.71774087,0,0,0,-85.88976062,-109.2716639,1.423889005,74.20705406,17.18142803,0,-71.49866119,0,24.70979583,0,0,,,,
531.8719996,2077,1.58E-06,-46.13712554,0,0,0,67.12458417,47.9348832,-98.32008683,-64.43531577,-63.22730548,0,346.898042,0,169.2438984,0,0,,,,
531.8799996,2077,1.56E-06,91.17136062,0,0,0,-0.994731251,-27.46682321,-21.88532345,41.21361855,63.80730991,0,-469.5515217,0,-130.6755739,0,0,,,,
531.8879996,2077,1.55E-06,-57.15679711,0,0,0,-0.3739093,-21.75324317,-51.61245061,64.37292871,-29.48014627,0,250.8677748,0,166.0438835,0,0,,,,
531.8959996,2077,1.53E-06,70.21407169,0,0,0,123.0660039,98.64642192,-43.47303842,-32.49750467,51.60763,0,-295.738922,0,-55.06186638,0,0,,,,
531.9039996,2077,1.52E-06,43.25202761,0,0,0,-47.9557041,-73.6274694,19.00610566,111.6990271,17.23408098,0,-359.4666227,0,-16.49530137,0,0,,,,
531.9119996,2077,1.50E-06,-32.33240382,0,0,0,133.9960779,106.645028,-55.55067494,-17.70445522,-17.33198002,0,37.05931233,0,116.6132038,0,0,,,,
531.9199996,2077,1.49E-06,118.544867,0,0,0,41.02596736,14.64670391,22.45716535,81.77029354,126.6521137,0,-854.7434136,0,-203.8489764,0,0,,,,
531.9279996,2077,1.48E-06,-55.21966532,0,0,0,-13.17802669,-33.92319505,-49.00798346,103.2790901,-28.42813181,0,-121.75449,0,129.6042882,0,0,,,,
531.9359996,2077,1.46E-06,68.93561276,0,0,0,135.0721173,100.1695481,-47.85942427,-8.331533202,42.365385,0,-615.0933497,0,-67.13549766,0,0,,,,
531.9439996,2077,1.45E-06,53.91906051,0,0,0,-51.22490406,-87.42038693,21.38834257,128.5540824,38.77737394,0,-706.5086215,0,-45.43870578,0,0,,,,
531.9519996,2077,1.43E-06,-26.73400139,0,0,0,96.96176714,67.04608941,-74.45012381,-8.998722489,-29.66652959,0,-249.9481974,0,121.6061944,0,0,,,,
531.9599996,2077,-4.87E-07,127.4982957,0,0,0,38.3975512,2.180621798,25.24490317,69.08477408,109.191416,0,-1117.872364,0,-182.7378318,0,0,,,,
531.9679996,2078,-2.30E-06,-72.4850408,0,0,0,-32.23204982,-53.93244454,-44.79139143,74.27274312,-29.16161859,0,-381.0948153,0,158.9296612,0,0,,,,
531.9759996,2078,-1.72E-06,38.96598472,0,0,0,100.4197284,81.05323676,-74.21252506,-24.60813547,15.22054113,0,-835.4352102,0,-25.46164805,0,0,,,,
531.9839996,2078,-1.75E-06,21.74953122,0,0,0,-70.64525413,-103.1295347,22.57025527,134.2686795,9.504475708,0,-949.7199793,0,-19.75297074,0,0,,,,
531.9919996,2078,-1.85E-06,-90.88979522,0,0,0,54.20144458,25.11032569,-78.43906741,-15.82995948,-54.48087129,0,-448.0861799,0,161.2292283,0,0,,,,
531.9999996,2078,-1.70E-06,101.9523791,0,0,0,10.2767633,-22.62161944,-3.208465187,64.73684409,81.15284529,0,-1292.898194,0,-163.9299583,0,0,,,,
532.0079996,2078,-1.79E-06,-54.71818751,0,0,0,-38.08045268,-64.77061202,-48.07433331,96.67361299,-45.28031824,0,-567.3111143,0,137.0735676,0,0,,,,
532.0159996,2078,-1.70E-06,27.08332292,0,0,0,72.69313575,62.62051484,-89.57689403,-17.20199741,13.69726802,0,-986.429656,0,-46.3382163,0,0,,,,
532.0239996,2078,-1.73E-06,39.42578729,0,0,0,-57.63911694,-77.69295302,8.839702137,129.1119176,36.20442042,0,-1107.076236,0,-57.37268269,0,0,,,,
532.0319996,2078,-1.69E-06,-32.49857061,0,0,0,121.1550048,85.7136183,-32.08815673,13.10349163,-5.009426806,0,-605.4750183,0,111.3176844,0,0,,,,
532.0399996,2078,-1.69E-06,113.0849574,0,0,0,30.38217984,-1.815042753,45.54418844,101.3437795,109.2405491,0,-1473.060881,0,-207.8775926,0,0,,,,
532.0479996,2078,-1.67E-06,-75.96900651,0,0,0,-38.81929417,-64.07689053,-25.89288795,112.417542,-46.53240771,0,-731.9963918,0,106.7355007,0,0,,,,
532.0559996,2078,-1.65E-06,28.42940061,0,0,0,108.3278892,85.94238814,-54.30753281,-8.260234041,25.25100806,0,-1109.067269,0,-68.18871265,0,0,,,,
532.0639996,2078,-1.64E-06,48.3148763,0,0,0,-64.47224921,-86.79131844,25.13388164,150.8593099,44.40194659,0,-1263.481372,0,-90.19775044,0,0,,,,
532.0719996,2078,-1.62E-06,-46.96411011,0,0,0,86.03619667,52.42190068,-57.55519772,23.5531452,-34.86170068,0,-714.5117544,0,93.00735579,0,0,,,,
532.0799996,2078,-1.61E-06,105.5721593,0,0,0,39.3492302,-2.920480015,22.07772305,82.5517923,90.74547251,0,-1545.837734,0,-221.0888364,0,0,,,,
532.0879996,2078,-1.59E-06,-72.11773165,0,0,0,-36.21493284,-75.01238669,-44.75001105,116.6087649,-38.26378863,0,-823.6595694,0,80.73194508,0,0,,,,
532.0959996,2078,-1.58E-06,22.23543151,0,0,0,109.6728152,73.23160194,-72.51669914,-6.212785328,20.93662505,0,-1168.154238,0,-85.36037665,0,0,,,,
532.1039996,2078,-1.56E-06,53.1501579,0,0,0,-41.05133793,-75.11532812,37.61688974,144.1703449,46.49120062,0,-1307.574322,0,-95.05850665,0,0,,,,
532.1119996,2078,-1.55E-06,-66.10894405,0,0,0,67.36202317,33.15655371,-43.81567903,33.81032236,-34.61995001,0,-709.2302807,0,110.2179057,0,0,,,,
532.1199996,2078,-1.53E-06,66.99615575,0,0,0,3.985043792,-30.81454209,19.39784193,62.17941493,64.14940911,0,-1475.316989,0,-186.9607705,0,0,,,,
532.1279996,2078,-1.52E-06,-61.20243763,0,0,0,-16.1410899,-58.37215924,-18.06220022,99.94991693,-43.05206185,0,-673.510226,0,138.4835815,0,0,,,,
532.1359996,2078,-1.50E-06,61.82295397,0,0,0,127.5325387,79.36414575,-43.92417504,28.67294655,47.13049648,0,-963.7536239,0,-23.07647847,0,0,,,,
532.1439996,2078,-1.49E-06,69.39745866,0,0,0,-78.25609028,-114.4388175,20.89720407,183.4954974,37.07982282,0,-1090.081328,0,-44.71887262,0,0,,,,
532.1519996,2078,-1.48E-06,-52.71394713,0,0,0,51.3420105,17.21463602,-75.89021075,31.05883681,-67.22573262,0,-408.1873156,0,179.5518232,0,0,,,,
532.1599996,2078,-1.46E-06,115.1617886,0,0,0,25.84052221,-11.49669942,0.580445244,55.13661188,71.32459613,0,-1207.610766,0,-153.7648352,0,0,,,,
532.1679996,2078,-1.45E-06,-23.17046254,0,0,0,-9.176333099,-43.49419691,-25.68376083,130.3964351,-34.33426388,0,-477.5226101,0,130.5619803,0,0,,,,
532.1759996,2078,-1.43E-06,49.70764501,0,0,0,131.6737618,94.57612935,-48.33696694,40.66945377,44.91964342,0,-764.7531408,0,-41.17773422,0,0,,,,
532.1839996,2078,4.87E-07,49.57054818,0,0,0,-65.09912852,-98.59563705,18.90612851,167.1502411,52.38672893,0,-961.0925241,0,-107.0303335,0,0,,,,
532.1919996,2078,2.30E-06,-60.98172159,0,0,0,67.58523387,38.49043447,-72.36665449,55.84112851,-52.85232261,0,-306.1958217,0,100.9338952,0,0,,,,
532.1999996,2078,1.72E-06,96.34323971,0,0,0,24.34204242,-10.25228569,9.249626097,96.97279686,83.37917771,0,-1131.569705,0,-235.4165524,0,0,,,,
532.2079996,2078,1.75E-06,-60.23610073,0,0,0,-41.41233559,-81.67857006,-27.41551622,127.7663055,-50.0832636,0,-418.78783,0,55.4683915,0,0,,,,
532.2159996,2078,1.85E-06,22.70829003,0,0,0,110.4690542,73.75812642,-68.94533526,21.5919569,14.74727977,0,-680.7408787,0,-94.76491235,0,0,,,,
532.2239996,2079,1.70E-06,42.99772607,0,0,0,-81.29921606,-110.6954178,2.89755205,151.1022426,35.44260651,0,-899.11351,0,-146.2145084,0,0,,,,
532.2319996,2079,1.79E-06,-77.49540648,0,0,0,52.22374214,16.88122749,-79.20262268,32.86467581,-86.82601512,0,-204.7701179,0,87.8267166,0,0,,,,
532.2399996,2079,1.70E-06,88.60484315,0,0,0,33.36688202,0.493845313,11.17267625,96.99736378,79.67335951,0,-1045.935308,0,-269.1717455,0,0,,,,
532.2479996,2079,1.73E-06,-50.42170734,0,0,0,-32.22316304,-55.76032834,-13.04062134,147.6299639,-22.02114677,0,-366.6565324,0,10.50961613,0,0,,,,
532.2559996,2079,1.69E-06,35.59585775,0,0,0,136.3237432,101.1468229,-40.98592275,53.73566761,22.83102845,0,-598.7760901,0,-129.8483402,0,0,,,,
532.2639996,2079,1.69E-06,60.7013833,0,0,0,-56.15101684,-94.30303142,38.88371647,202.4273653,63.23163216,0,-858.6555428,0,-202.9949093,0,0,,,,
532.2719996,2079,1.67E-06,-69.25264152,0,0,0,51.88316716,11.32868409,-71.21053026,51.57817718,-57.90726529,0,-126.0555786,0,70.26594795,0,0,,,,
532.2799996,2079,1.65E-06,110.0243995,0,0,0,52.21935908,6.12356434,19.71130896,102.8839246,80.77717217,0,-939.4608213,0,-264.3337861,0,0,,,,
532.2879996,2079,1.64E-06,-29.19630584,0,0,0,-23.64380393,-59.90697322,17.54442603,179.83229,-11.42139526,0,-277.5268553,0,5.468827528,0,0,,,,
532.2959996,2079,1.62E-06,28.5421037,0,0,0,123.7047154,82.4963792,-47.80278225,46.55815858,20.78446653,0,-433.9369768,0,-93.86103923,0,0,,,,
532.3039996,2079,1.61E-06,65.55684914,0,0,0,-38.62428204,-81.56670922,31.16259936,194.8094423,47.78196244,0,-696.9086214,0,-179.1160993,0,0,,,,
532.3119996,2079,1.59E-06,-70.26207008,0,0,0,63.85748837,28.63773426,-55.24930865,81.12058552,-49.51634057,0,11.66803312,0,61.19749168,0,0,,,,
532.3199996,2079,1.58E-06,77.79808061,0,0,0,27.24891512,-7.541244718,-6.887917512,84.80336924,82.26379774,0,-786.6877505,0,-263.2465678,0,0,,,,
532.3279996,2079,1.56E-06,-56.02078643,0,0,0,-36.10080113,-67.35988283,-17.09154222,156.2345525,-29.38248974,0,-128.5118646,0,-0.089156665,0,0,,,,
532.3359996,2079,1.55E-06,21.11869553,0,0,0,115.5526378,82.03364107,-60.15791134,53.39440834,14.85164193,0,-297.9768477,0,-128.2237613,0,0,,,,
532.3439996,2079,1.53E-06,55.86562717,0,0,0,-71.77502271,-107.2810292,-2.222680438,178.4365152,42.96121887,0,-580.37168,0,-221.6521719,0,0,,,,
532.3519996,2079,1.52E-06,-82.701815,0,0,0,48.88419,16.19078129,-87.26663609,74.55417075,-68.34286284,0,159.4948931,0,29.13419038,0,0,,,,
532.3599996,2079,1.50E-06,96.46294617,0,0,0,25.34954107,0.069580502,-11.18858153,103.182614,77.03860193,0,-672.9466301,0,-318.3885015,0,0,,,,
532.3679996,2079,1.49E-06,-47.59434965,0,0,0,-56.46840449,-80.47242753,-24.76901564,143.6174611,-27.60205368,0,-34.68857998,0,-38.82476806,0,0,,,,
532.3759996,2079,1.48E-06,-6.870410522,0,0,0,101.6224235,77.70458711,-75.04823546,-1.828681305,1.607573215,0,-134.1470664,0,-112.1278822,0,0,,,,
532.3839996,2079,1.46E-06,57.43854228,0,0,0,-78.71131375,-81.54199185,-1.823392483,127.995745,47.1914426,0,-420.6329851,0,-210.7834077,0,0,,,,
532.3919996,2079,1.45E-06,-62.86189857,0,0,0,60.21206891,62.6752027,-74.62994426,20.78328686,-49.9778485,0,339.8376221,0,40.28991617,0,0,,,,
532.3999996,2079,1.43E-06,101.3342823,0,0,0,46.53572887,44.57634227,-2.667650582,37.37481841,89.10673849,0,-509.7644771,0,-316.9944411,0,0,,,,
532.4079996,2079,-4.87E-07,-41.55382864,0,0,0,-60.2209328,-52.20193203,-38.30615467,107.63612,-13.3676324,0,40.40594846,0,-82.3081319,0,0,,,,
532.4159996,2079,-2.30E-06,14.02843341,0,0,0,127.3862278,138.7753498,-90.11936411,-18.57043956,25.2805762,0,-137.5059476,0,-193.8272182,0,0,,,,
532.4239996,2079,-1.72E-06,95.94069692,0,0,0,-41.21355469,-22.18062325,6.879283687,130.5666043,90.97231628,0,-576.2156815,0,-323.8414427,0,0,,,,
532.4319996,2079,-1.75E-06,-34.22033595,0,0,0,79.02477172,93.85845711,-76.01255168,33.15245206,-10.99993868,0,109.6952214,0,-52.09974229,0,0,,,,
532.4399996,2079,-1.85E-06,116.9713249,0,0,0,73.36546383,81.95839071,-8.618218245,46.85688538,123.8506349,0,-789.5458106,0,-397.8493613,0,0,,,,
532.4479996,2079,-1.70E-06,-30.15570175,0,0,0,-74.06816123,-54.29365832,-32.4456284,113.4497866,10.72461826,0,-286.3603512,0,-150.442767,0,0,,,,
532.4559996,2079,-1.79E-06,5.797241663,0,0,0,122.6631844,126.7354806,-92.14910911,-52.23102756,12.55774328,0,-410.1803651,0,-212.4123709,0,0,,,,
532.4639996,2079,-1.70E-06,57.72934941,0,0,0,-24.51409683,-28.49856378,5.486435295,100.1978277,82.72983791,0,-866.2242172,0,-342.9202353,0,0,,,,
532.4719996,2079,-1.73E-06,-92.76122017,0,0,0,34.75198193,46.40405505,-87.45534901,20.33483249,-19.64620028,0,-167.3604748,0,-61.94687109,0,0,,,,
532.4799996,2080,-1.69E-06,72.722426,0,0,0,32.26011449,50.09154873,-32.58955571,-5.514741509,83.63983629,0,-1012.025042,0,-378.505577,0,0,,,,
532.4879996,2080,-1.69E-06,-54.21258063,0,0,0,-78.94744145,-51.53124698,-49.27139801,64.61010146,-23.54820087,0,-503.8313932,0,-124.0836211,0,0,,,,
532.4959996,2080,-1.67E-06,-9.117353849,0,0,0,93.86567753,121.3168156,-109.4018406,-65.58861911,7.938670346,0,-618.5705291,0,-186.0220611,0,0,,,,
532.5039996,2080,-1.65E-06,49.91301117,0,0,0,-69.39809118,-43.55549035,-13.2645306,77.08492293,65.99401247,0,-1083.981453,0,-319.7052983,0,0,,,,
532.5119996,2080,-1.64E-06,-93.2938111,0,0,0,33.44417817,54.82485114,-101.4599697,-1.724050432,-47.06268088,0,-350.5690498,0,-25.32557609,0,0,,,,
532.5199996,2080,-1.62E-06,80.39857739,0,0,0,52.65471757,71.04701198,-41.60415712,-8.464247679,102.1300555,0,-1217.040999,0,-359.0602956,0,0,,,,
532.5279996,2080,-1.61E-06,-56.94340145,0,0,0,-80.23007075,-51.51626779,-49.23607816,55.37701836,5.760387532,0,-743.5530723,0,-116.3900705,0,0,,,,
532.5359996,2080,-1.59E-06,-13.38721948,0,0,0,102.610015,127.0330268,-105.6826892,-77.37356926,21.86556833,0,-818.6026051,0,-162.4116403,0,0,,,,
532.5439996,2080,-1.58E-06,48.60430371,0,0,0,-73.3938214,-42.86263094,-23.95690897,64.56263209,85.01399634,0,-1317.687014,0,-310.0555615,0,0,,,,
532.5519996,2080,-1.56E-06,-101.6733337,0,0,0,31.4238576,54.69212414,-96.77628085,-34.17970375,-49.22688755,0,-572.7771408,0,-6.049153791,0,0,,,,
532.5599996,2080,-1.55E-06,106.4119748,0,0,0,86.52937809,91.41199296,5.728511131,-26.05647391,104.2236966,0,-1421.551352,0,-331.4326752,0,0,,,,
532.5679996,2080,-1.53E-06,-29.59458496,0,0,0,-77.5279194,-52.80183405,-21.70400307,65.89826532,15.52947668,0,-966.1088587,0,-90.16467157,0,0,,,,
532.5759996,2080,-1.52E-06,-31.62784436,0,0,0,92.8240846,115.5887265,-106.696406,-76.14613909,0.323043352,0,-1001.14846,0,-113.1496459,0,0,,,,
532.5839996,2080,-1.50E-06,44.82551952,0,0,0,-79.29462903,-62.72201808,-17.67580863,68.57574289,61.87504519,0,-1499.101599,0,-251.248565,0,0,,,,
532.5919996,2080,-1.49E-06,-105.3505594,0,0,0,-12.19051897,11.71003621,-124.6436057,-34.10899114,-54.83300327,0,-706.1767277,0,78.06539621,0,0,,,,
532.5999996,2080,-1.48E-06,73.73704212,0,0,0,52.93870578,63.83598646,-34.06104556,-40.35570085,100.6933962,0,-1537.43079,0,-251.3648418,0,0,,,,
532.6079996,2080,-1.46E-06,-59.32987163,0,0,0,-87.09244005,-70.24869483,-30.20336423,57.44248653,-3.263617999,0,-1108.789559,0,-30.51853261,0,0,,,,
532.6159996,2080,-1.45E-06,-40.76607332,0,0,0,93.31062528,114.8246276,-115.2238878,-80.32876942,-0.317753915,0,-1116.145205,0,-59.99081419,0,0,,,,
532.6239996,2080,-1.43E-06,119.6220057,0,0,0,-141.2720619,-122.851694,57.23368041,172.1327094,153.6266524,0,-2023.82964,0,-364.9454409,0,0,,,,
532.6319996,2080,4.87E-07,-51.77835518,0,0,0,-186.971036,-163.3362766,1.405470819,174.3089767,11.31802342,0,-1342.185859,0,-40.90499571,0,0,,,,
532.6399996,2080,2.30E-06,-13.5059126,0,0,0,61.22649846,73.01983203,-69.48691457,-27.97365431,26.11925766,0,-1455.934711,0,-106.3716835,0,0,,,,
532.6479996,2080,1.72E-06,-42.38030528,0,0,0,10.53638154,13.20440082,-51.78800416,2.323166242,-0.131444834,0,-1413.357823,0,-67.12921084,0,0,,,,
532.6559996,2080,1.75E-06,-22.91435387,0,0,0,-32.65057464,-24.55222568,-50.17376631,6.474747402,9.576933901,0,-1550.33127,0,-101.4746266,0,0,,,,
532.6639996,2080,1.85E-06,-29.9096248,0,0,0,-20.75142102,-15.13915241,-51.10560024,7.285353923,13.97674981,0,-1460.329385,0,-56.79412574,0,0,,,,
532.6719996,2080,1.70E-06,-27.40885998,0,0,0,58.14319495,56.28839176,-62.02466428,-34.69250366,5.90063271,0,-1403.240278,0,-27.00733254,0,0,,,,
532.6799996,2080,1.79E-06,48.98278334,0,0,0,-15.30433182,-10.96846055,3.455816033,50.03355984,64.36129206,0,-1768.027905,0,-135.6904618,0,0,,,,
532.6879996,2080,1.70E-06,-75.18599187,0,0,0,27.26522999,27.67454594,-59.29589256,-10.75584027,-22.96683291,0,-1221.373179,0,90.19979972,0,0,,,,
532.6959996,2080,1.73E-06,7.373635272,0,0,0,20.47275858,14.95467943,-34.7841301,-38.03382219,45.25796985,0,-1763.656339,0,-107.3292568,0,0,,,,
532.7039996,2080,1.69E-06,-37.31092532,0,0,0,-60.90430999,-53.03110184,-19.70660735,44.68238037,-5.771731375,0,-1470.010903,0,45.7930303,0,0,,,,
532.7119996,2080,1.69E-06,-7.770011195,0,0,0,112.7243158,117.523823,-60.19340241,-43.99232086,13.01563494,0,-1396.553291,0,49.87493722,0,0,,,,
532.7199996,2080,1.67E-06,66.96599903,0,0,0,-25.85183908,-21.91970583,27.88207935,68.20923163,93.78674225,0,-1935.319687,0,-131.8798003,0,0,,,,
532.7279996,2080,1.65E-06,-100.6812064,0,0,0,7.119084683,9.676131294,-60.58431342,-5.77585964,-46.60152618,0,-1186.639691,0,171.2455804,0,0,,,,
532.7359996,2081,1.64E-06,22.06793843,0,0,0,43.79417519,37.54656364,-31.53193432,-41.80784648,58.75248375,0,-1854.437168,0,-103.3647622,0,0,,,,
532.7439996,2081,1.62E-06,-60.92236903,0,0,0,-98.63268669,-90.71882954,-15.03185028,43.2701701,-12.37562926,0,-1530.157923,0,46.34309036,0,0,,,,
532.7519996,2081,1.61E-06,-50.86095489,0,0,0,66.79729109,71.34888129,-96.60711689,-87.80416825,-27.09482912,0,-1412.247823,0,58.38846838,0,0,,,,
532.7599996,2081,1.59E-06,40.04240248,0,0,0,-51.16358962,-52.68354347,-7.979314217,52.43874174,68.95204354,0,-1989.813,0,-140.681536,0,0,,,,
532.7679996,2081,1.58E-06,-105.5409869,0,0,0,15.33197829,14.47374733,-67.69791444,6.096916943,-58.17172525,0,-1218.104006,0,162.8791207,0,0,,,,
532.7759996,2081,1.56E-06,54.05685686,0,0,0,76.74980008,56.32389864,-8.417897533,-31.52747127,64.24702046,0,-1949.590454,0,-130.4627718,0,0,,,,
532.7839996,2081,1.55E-06,-58.14169709,0,0,0,-84.00231519,-95.61903364,4.870400669,53.8049018,-6.154449586,0,-1608.170729,0,54.65338387,0,0,,,,
532.7919996,2081,1.53E-06,-58.75064228,0,0,0,78.50675713,81.65145893,-94.72026281,-85.5386295,-25.72307555,0,-1465.885354,0,82.24288868,0,0,,,,
532.7999996,2081,1.52E-06,51.93224689,0,0,0,-39.11431012,-42.55224632,4.916179459,59.35884807,76.82803034,0,-2071.364038,0,-136.1988138,0,0,,,,
532.8079996,2081,1.50E-06,-119.1496075,0,0,0,7.468514959,7.135109217,-60.21945069,-4.089004718,-47.52150227,0,-1254.168297,0,183.2033059,0,0,,,,
532.8159996,2081,1.49E-06,40.92463877,0,0,0,59.89767008,56.68829607,-20.22018558,-52.28769526,65.26157415,0,-1975.749072,0,-116.9758021,0,0,,,,
532.8239996,2081,1.48E-06,-41.78730022,0,0,0,-97.01571959,-105.9941255,-0.091026674,59.42363944,-12.09739223,0,-1653.628395,0,50.45213232,0,0,,,,
532.8319996,2081,1.46E-06,-38.98769739,0,0,0,90.85389333,80.6888524,-78.91039272,-84.35034961,-25.06264498,0,-1476.58392,0,81.01184668,0,0,,,,
532.8399996,2081,1.45E-06,67.90730992,0,0,0,-31.46049566,-43.24175711,18.86592625,58.56403898,70.71821867,0,-2104.364975,0,-156.8129005,0,0,,,,
532.8479996,2081,1.43E-06,-110.3082599,0,0,0,-20.94658769,-29.70977166,-80.47830419,2.585018878,-71.94275163,0,-1267.966855,0,175.934832,0,0,,,,
532.8559996,2081,-4.87E-07,49.70730835,0,0,0,51.44177297,40.22605028,-48.46367137,-60.48367895,62.62868649,0,-1947.372918,0,-111.8126917,0,0,,,,
532.8639996,2081,-2.30E-06,-35.01855604,0,0,0,-84.25369072,-97.37403971,0.212492986,58.82038983,1.969032062,0,-1648.77719,0,27.86043902,0,0,,,,
532.8719996,2081,-1.72E-06,-47.34278965,0,0,0,68.94282549,57.43188122,-90.31232318,-83.21861927,-39.06472083,0,-1450.188926,0,62.44706017,0,0,,,,
532.8799996,2081,-1.75E-06,64.74973202,0,0,0,-69.67470933,-78.51257442,-19.68068616,53.26540647,62.54693882,0,-2074.395109,0,-167.2827761,0,0,,,,
532.8879996,2081,-1.85E-06,-114.2485776,0,0,0,-36.32269009,-43.9511547,-113.8581215,9.689512804,-68.69528511,0,-1229.696657,0,171.6303971,0,0,,,,
532.8959996,2081,-1.70E-06,54.95512452,0,0,0,51.57892963,29.98909297,-70.73940453,-55.31400475,37.52566037,0,-1903.980992,0,-112.6366778,0,0,,,,
532.9039996,2081,-1.79E-06,3.116063289,0,0,0,-68.49139213,-86.03221354,3.768372935,78.71974993,0.840760563,0,-1639.434959,0,15.68836605,0,0,,,,
532.9119996,2081,-1.70E-06,-26.59513708,0,0,0,102.874578,103.7491564,-70.37372476,-29.23478021,1.725355692,0,-1445.233851,0,52.46921978,0,0,,,,
532.9199996,2081,-1.73E-06,70.50297663,0,0,0,-33.07180428,-45.79425298,16.93846822,93.8273779,84.59157756,0,-2104.870232,0,-171.6658774,0,0,,,,
532.9279996,2081,-1.69E-06,-92.82347225,0,0,0,1.629992964,-16.24841174,-51.18849859,24.93060435,-52.71503571,0,-1248.189199,0,192.1708318,0,0,,,,
532.9359996,2081,-1.69E-06,63.53307844,0,0,0,72.16154817,68.34493737,-30.82915743,-18.08941205,72.38697651,0,-1925.910978,0,-90.15567606,0,0,,,,
532.9439996,2081,-1.67E-06,-16.24508297,0,0,0,-98.97625003,-102.4903649,5.347121496,117.8407864,14.52256438,0,-1694.658284,0,39.85996313,0,0,,,,
532.9519996,2081,-1.65E-06,-60.47309455,0,0,0,73.38118189,62.96915515,-87.00200113,-47.6429122,-21.37085756,0,-1417.77178,0,124.0940311,0,0,,,,
532.9599996,2081,-1.64E-06,60.02462205,0,0,0,-38.36668011,-50.4015398,3.532046616,74.87481406,76.62909635,0,-2081.628286,0,-121.8462209,0,0,,,,
532.9679996,2081,-1.62E-06,-99.10498461,0,0,0,-29.68768525,-37.29883537,-64.99309975,36.61977358,-61.37026788,0,-1233.438368,0,221.0323175,0,0,,,,
532.9759996,2081,-1.61E-06,50.49980411,0,0,0,60.80535903,46.21822072,-53.65570837,-30.08538427,36.9147461,0,-1857.922274,0,-42.34127976,0,0,,,,
532.9839996,2081,-1.59E-06,0.189061423,0,0,0,-83.42964344,-93.87539199,-1.064730563,119.668612,4.691288657,0,-1665.492237,0,63.90086054,0,0,,,,
532.9919996,2082,-1.58E-06,-35.81726073,0,0,0,61.2750384,57.18661665,-88.46913215,-19.63927204,-20.30300875,0,-1395.237271,0,145.5314881,0,0,,,,
532.9999996,2082,-1.56E-06,81.67401442,0,0,0,-45.22547767,-69.0756113,-5.37925889,84.29708114,61.05706115,0,-2053.591926,0,-86.5072657,0,0,,,,
533.0079996,2082,-1.55E-06,-81.92557698,0,0,0,-3.064274363,-31.75313061,-64.64675044,40.07758794,-61.37632613,0,-1193.641551,0,262.0907592,0,0,,,,
533.0159996,2082,-1.53E-06,43.80924359,0,0,0,69.55142475,51.75544907,-53.92363902,-15.96316722,60.87060203,0,-1819.068132,0,-13.52067098,0,0,,,,
533.0239996,2082,-1.52E-06,-28.15191868,0,0,0,-97.71027553,-113.2148509,-21.7795802,122.1790101,10.93123229,0,-1624.232354,0,90.05800183,0,0,,,,
533.0319996,2082,-1.50E-06,-41.0311865,0,0,0,88.5157111,67.33113401,-97.88139479,-22.02835871,-7.34011738,0,-1319.373242,0,169.0186407,0,0,,,,
533.0399996,2082,-1.49E-06,85.00002583,0,0,0,-41.05010579,-60.99195577,-8.96134074,107.9056453,88.14046746,0,-2024.550715,0,-99.64878148,0,0,,,,
533.0479996,2082,-1.48E-06,-99.55854993,0,0,0,-39.69651248,-48.92119504,-99.14337504,64.25292668,-75.62695398,0,-1137.067801,0,256.4741971,0,0,,,,
533.0559996,2082,-1.46E-06,79.07036359,0,0,0,85.12499521,71.5586037,-72.79376652,-6.458313271,66.02103422,0,-1746.297008,0,-29.06132778,0,0,,,,
533.0639996,2082,-1.45E-06,24.35967433,0,0,0,-81.74652386,-100.3991594,-16.37988027,147.8041397,38.88973978,0,-1617.264228,0,44.87555017,0,0,,,,
533.0719996,2082,-1.43E-06,-35.03915647,0,0,0,77.01831032,60.95605782,-104.7237018,0.018579239,-15.33759134,0,-1274.569621,0,151.8519797,0,0,,,,
533.0799996,2082,4.87E-07,111.4901383,0,0,0,-30.62888501,-49.15933385,-17.03699438,95.31174614,88.20384587,0,-1985.848488,0,-106.7484223,0,0,,,,
533.0879996,2082,2.30E-06,-68.41192023,0,0,0,-25.49110475,-37.80905663,-98.009905,58.59395453,-70.45057068,0,-1126.526388,0,249.8064191,0,0,,,,
533.0959996,2082,1.72E-06,66.7679838,0,0,0,74.35074457,66.66487906,-70.2659762,10.34808565,44.52751259,0,-1728.953175,0,-26.79178859,0,0,,,,
533.1039996,2082,1.75E-06,8.315206396,0,0,0,-115.5818198,-129.6643656,-13.03904213,138.6876271,9.983660938,0,-1601.738927,0,53.61074218,0,0,,,,
533.1119996,2082,1.85E-06,-60.28554982,0,0,0,58.19746539,43.49750814,-111.6013153,-50.63933232,-59.03527132,0,-1192.606593,0,185.7569913,0,0,,,,
533.1199996,2082,1.70E-06,153.3377736,0,0,0,-84.76125858,-99.43105444,32.99228596,125.4547279,123.4104186,0,-2417.248545,0,-269.9356597,0,0,,,,
533.1279996,2082,1.79E-06,20.87574296,0,0,0,-193.9744614,-209.4766014,22.94059398,200.4607301,23.17584789,0,-1948.372147,0,-17.97883862,0,0,,,,
533.1359996,2082,1.70E-06,-17.05930411,0,0,0,55.78544836,38.26256581,-80.2992605,-7.128358669,-14.38848775,0,-1565.071718,0,104.4003011,0,0,,,,
533.1439996,2082,1.73E-06,-3.217344827,0,0,0,31.84961662,8.687641143,-59.701255,56.02343759,17.43474189,0,-1572.816431,0,89.62104472,0,0,,,,
533.1519996,2082,1.69E-06,32.29584587,0,0,0,-2.872379771,-21.79842394,-50.66501396,73.85991194,39.79196888,0,-1726.044457,0,32.3211346,0,0,,,,
533.1599996,2082,1.69E-06,-4.179389539,0,0,0,-37.73851513,-57.30354356,-52.23451483,73.8724539,-9.022901408,0,-1622.123705,0,79.88002504,0,0,,,,
533.1679996,2082,1.67E-06,-53.98998205,0,0,0,24.7029133,-5.426223843,-83.6593354,10.51662536,-39.32306929,0,-1402.238036,0,150.2164332,0,0,,,,
533.1759996,2082,1.65E-06,60.11480345,0,0,0,-0.613544024,-23.08550262,-33.60154422,70.12018466,67.96738932,0,-1856.439083,0,-27.86977919,0,0,,,,
533.1839996,2082,1.64E-06,-25.62291791,0,0,0,-1.181786215,-14.05066626,-68.4506213,94.33603259,-11.29100661,0,-1289.255663,0,192.9681935,0,0,,,,
533.1919996,2082,1.62E-06,45.68311732,0,0,0,40.04953854,23.23959329,-55.42639066,47.24931412,26.26327472,0,-1678.414341,0,28.92513521,0,0,,,,
533.1999996,2082,1.61E-06,-0.885769907,0,0,0,-93.76804751,-106.7751607,-38.15965957,121.9074775,-0.676401596,0,-1580.757494,0,107.8326366,0,0,,,,
533.2079996,2082,1.59E-06,-45.47962853,0,0,0,45.39544061,26.82030237,-110.5840019,2.920359897,-25.84928054,0,-1193.173155,0,228.1205889,0,0,,,,
533.2159996,2082,1.58E-06,82.6132848,0,0,0,-2.001270324,-33.67759821,-8.376576521,96.94068597,81.41517139,0,-1864.174078,0,-40.70616641,0,0,,,,
533.2239996,2082,1.56E-06,-64.29776808,0,0,0,-3.385707718,-33.1901884,-56.89081838,100.6203096,-35.66889996,0,-1104.477297,0,269.5001513,0,0,,,,
533.2319996,2082,1.55E-06,55.43661128,0,0,0,96.36682262,72.91013836,-53.93821776,27.72411732,64.63921387,0,-1574.190062,0,51.43243101,0,0,,,,
533.2399996,2082,1.53E-06,8.570230877,0,0,0,-81.26900046,-94.26466848,5.36534758,158.5383986,43.15533883,0,-1553.579294,0,89.78929989,0,0,,,,
533.2479996,2083,1.52E-06,-84.02802539,0,0,0,48.2537941,31.51799257,-93.25591712,1.450652597,-50.01795932,0,-1075.214317,0,255.9625331,0,0,,,,
533.2559996,2083,1.50E-06,55.66375627,0,0,0,-25.37775916,-47.09775109,-22.25646868,85.79658453,55.3200756,0,-1810.371381,0,-38.22222435,0,0,,,,
533.2639996,2083,1.49E-06,-95.55324356,0,0,0,-54.0841949,-69.75644887,-82.54016137,105.1201839,-57.6664117,0,-1016.69936,0,281.1371447,0,0,,,,
533.2719996,2083,1.48E-06,41.57694605,0,0,0,89.74170072,66.14105296,-73.7733704,6.257719506,38.49445236,0,-1466.72168,0,70.87587897,0,0,,,,
533.2799996,2083,1.46E-06,29.71758275,0,0,0,-58.2517282,-74.23693776,12.56442883,163.4231219,49.97454266,0,-1495.231747,0,73.12026903,0,0,,,,
533.2879996,2083,1.45E-06,-40.80799214,0,0,0,76.28534495,68.49642582,-74.54490971,37.31207591,-1.581386703,0,-1038.224382,0,220.5980632,0,0,,,,
533.2959996,2083,1.43E-06,109.2365612,0,0,0,-3.869917356,-8.285059213,-1.806677537,99.07355948,109.4799506,0,-1818.891067,0,-74.25396645,0,0,,,,
533.3039996,2083,-4.87E-07,-79.8137324,0,0,0,-58.07200995,-53.80831732,-69.83734709,99.54898049,-41.87080944,0,-1027.829493,0,257.0603695,0,0,,,,
533.3119996,2083,-2.30E-06,43.95396591,0,0,0,88.53243356,76.4317325,-66.23284802,-21.77327247,32.07954918,0,-1458.801735,0,59.49352798,0,0,,,,
533.3199996,2083,-1.72E-06,38.50055608,0,0,0,-61.81982884,-62.7780173,15.28399665,109.8390371,52.03854433,0,-1500.219135,0,69.47998089,0,0,,,,
533.3279996,2083,-1.75E-06,-62.67292988,0,0,0,51.82897629,71.43427095,-96.84280265,-21.11442193,-17.28901569,0,-1006.725671,0,237.6709976,0,0,,,,
533.3359996,2083,-1.85E-06,99.07657977,0,0,0,-15.45526107,0.548188894,-19.97421003,50.29416638,93.5565071,0,-1801.699751,0,-68.69217102,0,0,,,,
533.3439996,2083,-1.70E-06,-73.70223388,0,0,0,-38.75772554,-18.52780351,-59.70539614,69.51884178,-24.5811181,0,-1041.276343,0,250.8704166,0,0,,,,
533.3519996,2083,-1.79E-06,35.57658697,0,0,0,87.49487715,105.717557,-72.52159711,-48.80517083,48.67730277,0,-1474.808032,0,65.21631299,0,0,,,,
533.3599996,2083,-1.70E-06,35.69181226,0,0,0,-90.15870176,-65.89442824,-7.878323084,87.04117673,38.6645626,0,-1555.665454,0,73.933101,0,0,,,,
533.3679996,2083,-1.73E-06,-76.6035192,0,0,0,53.58421429,76.82961162,-94.95464179,-34.15280669,-28.61721871,0,-1065.209367,0,242.7666071,0,0,,,,
533.3759996,2083,-1.69E-06,82.79290337,0,0,0,-21.76456753,-0.45916233,-15.50723777,19.58914523,109.2052355,0,-1888.266884,0,-68.13957884,0,0,,,,
533.3839996,2083,-1.69E-06,-73.98814128,0,0,0,-57.68594635,-29.33298396,-67.74619619,32.92111799,-26.26479299,0,-1130.207941,0,260.2587341,0,0,,,,
533.3919996,2083,-1.67E-06,14.27249749,0,0,0,83.55410675,110.9770397,-71.33197356,-63.01181179,29.83621914,0,-1553.668485,0,71.14783787,0,0,,,,
533.3999996,2083,-1.65E-06,11.12750985,0,0,0,-129.4493445,-84.92371326,-13.56661012,70.89608269,35.51988977,0,-1662.479515,0,72.72297444,0,0,,,,
533.4079996,2083,-1.64E-06,-83.67181863,0,0,0,15.47284523,54.63456767,-114.8890096,-77.61129153,-51.69748987,0,-1115.415255,0,271.7961625,0,0,,,,
533.4159996,2083,-1.62E-06,82.45346504,0,0,0,-12.53625935,15.45257683,-9.355139265,-10.98036558,76.49205618,0,-1959.03032,0,-66.39812092,0,0,,,,
533.4239996,2083,-1.61E-06,-68.21416927,0,0,0,-53.17208111,-16.58797689,-37.08971302,35.69890177,-34.58925167,0,-1246.925464,0,227.4476966,0,0,,,,
533.4319996,2083,-1.59E-06,14.8902424,0,0,0,106.50023,127.3185072,-45.86500087,-79.54796258,29.79085161,0,-1633.69348,0,59.38746658,0,0,,,,
533.4399996,2083,-1.58E-06,18.59053984,0,0,0,-62.13761074,-41.40058503,31.04012792,74.86912905,70.55932538,0,-1783.040691,0,48.95072404,0,0,,,,
533.4479996,2083,-1.56E-06,-60.53051471,0,0,0,72.10779593,100.2614803,-59.92733582,-20.03303061,4.787863569,0,-1261.965421,0,243.4852995,0,0,,,,
533.4559996,2083,-1.55E-06,105.5323484,0,0,0,16.04975653,41.07507297,18.98966536,10.7987908,101.8136939,0,-2116.546256,0,-63.65824776,0,0,,,,
533.4639996,2083,-1.53E-06,-67.31883565,0,0,0,-57.28299333,-21.97009623,-39.37934921,22.26522554,-22.73265041,0,-1394.77004,0,264.7759074,0,0,,,,
533.4719996,2083,-1.52E-06,20.87484311,0,0,0,84.84736855,120.15558,-67.70171479,-67.64112763,37.29675344,0,-1755.965193,0,97.85091055,0,0,,,,
533.4799996,2083,-1.50E-06,39.94024993,0,0,0,-88.04385576,-53.19425775,18.85942414,76.66549718,48.92118031,0,-1937.630365,0,62.85408716,0,0,,,,
533.4879996,2083,-1.49E-06,-94.28275774,0,0,0,29.21831541,62.24737354,-80.71266807,-61.63280316,-42.9310823,0,-1369.765388,0,272.826861,0,0,,,,
533.4959996,2083,-1.48E-06,48.5629147,0,0,0,-21.75681687,11.27219989,-21.35175731,-12.73728353,73.64265739,0,-2216.372248,0,-43.66281804,0,0,,,,
533.5039996,2084,-1.46E-06,-70.02466143,0,0,0,-66.68368966,-28.42018681,-60.52929522,39.04098886,-15.36446232,0,-1532.506223,0,263.3262623,0,0,,,,
533.5119996,2084,-1.45E-06,27.17599225,0,0,0,82.78563874,109.5221621,-83.45559789,-58.30828759,45.49766076,0,-1894.175836,0,101.3584012,0,0,,,,
533.5199996,2084,-1.43E-06,16.60602464,0,0,0,-98.64369716,-79.04054527,-10.23662759,67.28690403,36.11322815,0,-2106.035683,0,70.25933253,0,0,,,,
533.5279996,2084,4.87E-07,-83.52965275,0,0,0,47.63725241,57.97149881,-86.93309757,-75.84375832,-40.6102448,0,-1519.864097,0,295.4278713,0,0,,,,
533.5359996,2084,2.30E-06,86.82060369,0,0,0,-8.863823916,2.4363456,-3.867716994,-15.95804727,90.89638125,0,-2388.765065,0,-39.75303936,0,0,,,,
533.5439996,2084,1.72E-06,-96.3809309,0,0,0,-96.75840077,-79.67522104,-57.24546193,26.1156247,-46.58841146,0,-1697.193801,0,266.7192128,0,0,,,,
533.5519996,2084,1.75E-06,-13.7551321,0,0,0,81.60401834,87.68942918,-78.27833879,-93.81564031,10.10839846,0,-1982.898867,0,124.3334935,0,0,,,,
533.5599996,2084,1.85E-06,27.91569712,0,0,0,-87.49277714,-65.77424344,5.762301565,70.30644233,52.14007191,0,-2212.031605,0,59.5165217,0,0,,,,
533.5679996,2084,1.70E-06,-68.68233522,0,0,0,42.95623954,57.89483719,-85.58045523,-34.3737735,-12.54953078,0,-1623.251237,0,266.4856343,0,0,,,,
533.5759996,2084,1.79E-06,106.5028186,0,0,0,17.43170004,12.21563798,3.055771779,17.58832748,109.0116296,0,-2499.670244,0,-65.33475493,0,0,,,,
533.5839996,2084,1.70E-06,-54.80382918,0,0,0,-67.067305,-47.50400205,-42.16058792,60.08604062,-34.4852312,0,-1842.946825,0,240.6684929,0,0,,,,
533.5919996,2084,1.73E-06,13.6654876,0,0,0,77.54410158,101.2037627,-84.93738273,-62.73832546,24.32749227,0,-2159.880062,0,88.55181933,0,0,,,,
533.5999996,2084,1.69E-06,9.143293294,0,0,0,-166.4833172,-149.4182792,14.72076427,141.8242161,40.68119932,0,-2339.85737,0,45.03860962,0,0,,,,
533.6079996,2084,1.69E-06,-219.2674335,0,0,0,-59.69978033,-43.90159127,-109.5137306,37.07005085,-138.354176,0,-1145.347718,0,485.3183668,0,0,,,,
533.6159996,2084,1.67E-06,-68.4418003,0,0,0,28.71650494,37.21972828,-85.65922018,-21.3032846,-22.4801101,0,-1913.421486,0,194.441017,0,0,,,,
533.6239996,2084,1.65E-06,-41.42092103,0,0,0,-72.2457503,-54.76414905,-49.49011385,42.83551894,-1.972202716,0,-2228.192436,0,125.4359215,0,0,,,,
533.6319996,2084,1.64E-06,28.43966682,0,0,0,33.37056473,52.19881983,-72.65433286,-54.81480825,40.41871183,0,-2516.266586,0,-19.31860088,0,0,,,,
533.6399996,2084,1.62E-06,2.219356312,0,0,0,-69.74713333,-49.8681593,-18.76407596,46.55994056,12.09657462,0,-2475.441182,0,30.6465303,0,0,,,,
533.6479996,2084,1.61E-06,-60.36620835,0,0,0,12.40551266,34.87175322,-66.63710762,-32.38117927,-35.86666997,0,-2189.757276,0,131.1324955,0,0,,,,
533.6559996,2084,1.59E-06,56.37479854,0,0,0,-28.95491381,-10.45482399,-23.75824705,-11.4956877,63.51290446,0,-2884.419976,0,-147.703189,0,0,,,,
533.6639996,2084,1.58E-06,-68.30034597,0,0,0,-79.99443128,-58.2926473,-49.83231769,37.0758983,-28.79305387,0,-2285.808188,0,125.0522033,0,0,,,,
533.6719996,2084,1.56E-06,22.68224158,0,0,0,57.95304699,76.69397982,-74.97908948,-62.92465531,39.48136154,0,-2629.47855,0,-16.933713,0,0,,,,
533.6799996,2084,1.55E-06,37.00266444,0,0,0,-105.9466807,-90.93927289,-13.29369109,58.68323732,36.53518607,0,-2807.186838,0,-29.41977297,0,0,,,,
533.6879996,2084,1.53E-06,-58.17767481,0,0,0,-5.978980642,8.336383534,-87.69251666,-55.78370643,-39.71270619,0,-2260.21671,0,179.7491685,0,0,,,,
533.6959996,2084,1.52E-06,86.83448351,0,0,0,-22.11484604,-10.92298523,-31.37978267,-46.37204044,64.92055507,0,-3055.217246,0,-129.0852968,0,0,,,,
533.7039996,2084,1.50E-06,-21.49139193,0,0,0,-60.284917,-48.44325267,-38.58548599,41.14082585,-44.07365253,0,-2476.456782,0,130.7708123,0,0,,,,
533.7119996,2084,1.49E-06,71.79279306,0,0,0,111.1738,123.8848411,-55.85669795,-30.29175049,59.6828552,0,-2761.944759,0,-16.04531697,0,0,,,,
533.7199996,2084,1.48E-06,88.77339938,0,0,0,-72.47324341,-63.69297378,15.85360479,108.8466661,94.6921646,0,-3086.784201,0,-99.02354977,0,0,,,,
533.7279996,2084,1.46E-06,-44.01629978,0,0,0,24.02699905,28.38956105,-74.10068454,-5.935145989,-30.3158892,0,-2424.773936,0,158.2766127,0,0,,,,
533.7359996,2084,1.45E-06,109.3689837,0,0,0,-2.576617582,5.737374421,-25.14835398,-2.165566064,91.53279865,0,-3231.769211,0,-150.6700817,0,0,,,,
533.7439996,2084,1.43E-06,-35.82294683,0,0,0,-84.04133084,-78.35562182,-47.21830474,45.86155842,-21.33458641,0,-2648.4258,0,121.1086274,0,0,,,,
533.7519996,2084,-4.87E-07,24.99978058,0,0,0,79.1192499,83.87430886,-75.09791641,-80.25474198,25.63542176,0,-2836.670052,0,9.401326402,0,0,,,,
533.7599996,2085,-2.30E-06,67.7770535,0,0,0,-110.0453043,-93.64667379,2.060495817,58.57168841,49.94947505,0,-3189.58238,0,-90.10499291,0,0,,,,
533.7679996,2085,-1.72E-06,-82.39097652,0,0,0,11.87015616,16.92440386,-79.67757919,-38.06186034,-65.46702155,0,-2475.324911,0,185.5958439,0,0,,,,
533.7759996,2085,-1.75E-06,89.37378292,0,0,0,8.651322879,5.575122373,-3.646739533,-24.74293201,86.94675432,0,-3323.030607,0,-150.4369515,0,0,,,,
533.7839996,2085,-1.85E-06,-36.74068211,0,0,0,-104.4132555,-101.4458072,-31.27027791,42.76768077,-30.15569171,0,-2748.633256,0,121.9202037,0,0,,,,
533.7919996,2085,-1.70E-06,8.427984657,0,0,0,79.40173974,68.6129821,-82.01072058,-65.73143077,7.165762609,0,-2860.413253,0,52.33585859,0,0,,,,
533.7999996,2085,-1.79E-06,53.85133846,0,0,0,-95.064965,-106.2777243,7.954451054,78.4083825,72.82372395,0,-3247.252796,0,-60.57247006,0,0,,,,
533.8079996,2085,-1.70E-06,-106.7136143,0,0,0,-10.62126708,-13.81936598,-93.61819167,-31.76967808,-49.18591958,0,-2485.192915,0,235.4420248,0,0,,,,
533.8159996,2085,-1.73E-06,68.78320855,0,0,0,-3.203109499,-8.433587285,-42.5771042,-23.49746204,77.0890666,0,-3290.458451,0,-86.01620838,0,0,,,,
533.8239996,2085,-1.69E-06,-59.33960517,0,0,0,-104.3087138,-113.5923041,-37.62645917,51.32592355,-25.84265727,0,-2735.193788,0,166.9094833,0,0,,,,
533.8319996,2085,-1.69E-06,-19.45529685,0,0,0,79.4320052,64.90716988,-82.62613166,-74.19822314,-0.52647029,0,-2801.671334,0,106.3114429,0,0,,,,
533.8399996,2085,-1.67E-06,60.86651966,0,0,0,-85.23959909,-85.1140165,-2.954601416,79.0849772,58.842113,0,-3205.472496,0,-20.19592382,0,0,,,,
533.8479996,2085,-1.65E-06,-92.56158014,0,0,0,2.020503496,6.35539132,-82.75005382,-17.66712218,-54.0739497,0,-2437.531087,0,271.7894405,0,0,,,,
533.8559996,2085,-1.64E-06,79.19999739,0,0,0,10.2452508,9.101167784,-31.51578329,-23.55093699,70.83942605,0,-3229.828397,0,-52.66780473,0,0,,,,
533.8639996,2085,-1.62E-06,-32.95542216,0,0,0,-102.640026,-101.755009,-39.10110358,75.69630153,-21.97233363,0,-2702.418697,0,181.7772392,0,0,,,,
533.8719996,2085,-1.61E-06,-12.41399933,0,0,0,78.6495322,70.28127511,-85.43144626,-43.39647558,0.625288821,0,-2744.644299,0,133.4696066,0,0,,,,
533.8799996,2085,-1.59E-06,41.33699385,0,0,0,-99.97210602,-104.8753399,-14.86191873,87.03831195,50.88169546,0,-3159.643947,0,-1.156086616,0,0,,,,
533.8879996,2085,-1.58E-06,-101.636544,0,0,0,-10.48948052,-22.5247458,-95.15326062,-22.12145528,-74.15239365,0,-2365.900784,0,283.5185877,0,0,,,,
533.8959996,2085,-1.56E-06,87.59948758,0,0,0,41.23683462,21.76921086,-13.25133209,-32.0624312,58.01506951,0,-3147.938887,0,-50.73691797,0,0,,,,
533.9039996,2085,-1.55E-06,-41.14559823,0,0,0,-78.42820549,-81.24984733,-8.13289118,84.9630888,-2.227841455,0,-2652.82296,0,160.6019126,0,0,,,,
533.9119996,2085,-1.53E-06,-15.63297772,0,0,0,94.70627787,88.10606116,-65.26015714,-43.50602758,25.9264284,0,-2689.322813,0,95.76512463,0,0,,,,
533.9199996,2085,-1.52E-06,66.670548,0,0,0,-63.72479414,-71.82460537,20.31619269,101.7147793,66.13174609,0,-3159.23435,0,-64.23182797,0,0,,,,
533.9279996,2085,-1.50E-06,-113.7040024,0,0,0,6.535325339,-3.986370129,-61.43863945,31.77972516,-74.65745373,0,-2361.803635,0,243.0230385,0,0,,,,
533.9359996,2085,-1.49E-06,59.05280577,0,0,0,25.03263385,7.645407894,-1.745561863,-15.38725359,53.92032544,0,-3134.255757,0,-71.81530838,0,0,,,,
533.9439996,2085,-1.48E-06,-48.6739029,0,0,0,-112.5034919,-122.2668676,-22.07658922,57.34417931,-6.965414512,0,-2642.752373,0,152.0194115,0,0,,,,
533.9519996,2085,-1.46E-06,-44.69839581,0,0,0,79.96325695,57.29501071,-99.2595148,-74.32428876,-7.252623342,0,-2607.352566,0,130.3461528,0,0,,,,
533.9599996,2085,-1.45E-06,61.30282,0,0,0,-56.57973172,-78.36779325,13.35269657,71.56590094,47.57671668,0,-3086.434263,0,-30.15942585,0,0,,,,
533.9679996,2085,-1.43E-06,-78.72008266,0,0,0,15.3334964,3.360970933,-61.76023496,7.994616615,-58.79774221,0,-2277.574132,0,272.3153337,0,0,,,,
533.9759996,2085,4.87E-07,75.01835592,0,0,0,41.65307799,29.12390003,-19.80539081,-13.07975815,58.83673572,0,-3053.241249,0,-56.03979878,0,0,,,,
533.9839996,2085,2.30E-06,-30.53364157,0,0,0,-105.1283161,-102.668968,-10.36580521,87.91847755,-11.91206767,0,-2608.857094,0,149.3587986,0,0,,,,
533.9919996,2085,1.72E-06,1.572434898,0,0,0,87.36512207,82.23242679,-63.66761634,-38.63025024,-5.546010656,0,-2556.322996,0,128.7332658,0,0,,,,
533.9999996,2085,1.75E-06,101.0060492,0,0,0,-50.30488947,-61.69019771,49.81702426,110.4516397,58.2803407,0,-3079.184351,0,-55.38948296,0,0,,,,
534.0079996,2085,1.85E-06,-76.30255613,0,0,0,3.907237298,-9.555024712,-7.246015203,46.97828797,-50.03326495,0,-2251.561561,0,267.3991328,0,0,,,,
534.0159996,2086,1.70E-06,71.74675214,0,0,0,44.78968343,15.35660846,77.02330922,10.3277044,70.36519886,0,-2991.676291,0,-43.3337659,0,0,,,,
534.0239996,2086,1.79E-06,-28.91073383,0,0,0,-120.5336059,-133.6932733,99.2376419,101.3274993,-13.33926526,0,-2558.66938,0,158.2696147,0,0,,,,
534.0319996,2086,1.70E-06,-30.050076,0,0,0,48.15584431,40.79465414,16.64588243,-45.15590439,-37.90343886,0,-2433.975246,0,170.3041278,0,0,,,,
534.0399996,2086,1.73E-06,78.67703871,0,0,0,-58.83505675,-80.68115199,138.9860173,89.20975161,49.87563241,0,-2960.692061,0,-32.11149292,0,0,,,,
534.0479996,2086,1.69E-06,-69.47453333,0,0,0,-23.6540247,-33.09285379,58.07495104,37.4662235,-50.99506255,0,-2135.268791,0,271.0440947,0,0,,,,
534.0559996,2086,1.69E-06,72.5532963,0,0,0,4.073134765,5.190855174,81.09746919,4.221001297,36.17946408,0,-2849.914246,0,-41.44441852,0,0,,,,
534.0639996,2086,1.67E-06,-26.70855088,0,0,0,-104.5777893,-114.5859026,125.6684708,104.1280628,-30.54364013,0,-2437.572356,0,139.5989643,0,0,,,,
534.0719996,2086,1.65E-06,-18.44110668,0,0,0,85.25477595,66.17088845,62.67260322,-38.50954257,-23.10491022,0,-2301.708215,0,151.3010539,0,0,,,,
534.0799996,2086,1.64E-06,94.25276035,0,0,0,-44.43959975,-54.590083,153.394903,102.9934882,62.30027854,0,-2867.509011,0,-69.6505763,0,0,,,,
534.0879996,2086,1.62E-06,-63.40741101,0,0,0,3.963308022,-3.370529049,81.20704139,76.46558704,-32.36362325,0,-2043.201902,0,224.1287875,0,0,,,,
534.0959996,2086,1.61E-06,70.03505679,0,0,0,43.20448917,24.85318649,121.5723329,19.40933086,71.49999738,0,-2743.373071,0,-76.17440296,0,0,,,,
534.1039996,2086,1.59E-06,-26.63442869,0,0,0,-107.4667333,-116.0262707,125.2302659,84.75961779,-20.97116682,0,-2351.505665,0,108.0833144,0,0,,,,
534.1119996,2086,1.58E-06,-15.23002455,0,0,0,79.14429803,78.74808545,42.35373003,-42.22640807,-17.6388517,0,-2201.036277,0,109.5842852,0,0,,,,
534.1199996,2086,1.56E-06,89.97375145,0,0,0,-38.94446491,-46.8545505,164.3250205,101.1049653,84.03465755,0,-2792.498368,0,-115.0645887,0,0,,,,
534.1279996,2086,1.55E-06,-73.55035298,0,0,0,-21.04694179,-15.84782953,73.00090984,30.08781517,-51.49118053,0,-1926.698795,0,225.0238559,0,0,,,,
534.1359996,2086,1.53E-06,86.67083876,0,0,0,28.9597855,43.69548876,88.85904209,-30.16167652,40.30888305,0,-2617.040278,0,-86.35263014,0,0,,,,
534.1439996,2086,1.52E-06,-8.776568145,0,0,0,-98.14362326,-85.09404416,134.4698798,74.24507995,-19.30640165,0,-2288.772991,0,50.66752434,0,0,,,,
534.1519996,2086,1.50E-06,-21.26485071,0,0,0,65.33330672,88.38749576,57.690552,-75.62833326,-14.33433219,0,-2091.704265,0,86.23532115,0,0,,,,
534.1599996,2086,1.49E-06,102.1738946,0,0,0,-68.9678189,-37.81482524,141.3291988,52.75698413,73.25002997,0,-2684.03153,0,-127.9876942,0,0,,,,
534.1679996,2086,1.48E-06,-64.74385356,0,0,0,-12.60801107,11.83013219,63.77405132,18.50347226,-59.84653077,0,-1836.925587,0,198.6452051,0,0,,,,
534.1759996,2086,1.46E-06,84.30222367,0,0,0,47.0338375,69.98518622,98.03104896,-39.32032323,60.33414011,0,-2541.332292,0,-104.2625174,0,0,,,,
534.1839996,2086,1.45E-06,3.806435034,0,0,0,-125.1514616,-91.55350175,117.4508827,58.26442247,-0.76578877,0,-2253.024862,0,49.72909823,0,0,,,,
534.1919996,2086,1.43E-06,-15.11346029,0,0,0,60.830762,83.64803303,30.80591983,-94.51023431,-28.71660644,0,-2033.567082,0,111.7473751,0,0,,,,
534.1999996,2086,-4.87E-07,121.7926603,0,0,0,-33.17156812,-17.34968471,137.441253,35.95105969,79.83880483,0,-2689.274259,0,-123.1929776,0,0,,,,
534.2079996,2086,-2.30E-06,-36.1176572,0,0,0,24.81556727,35.69795807,86.53382371,22.2568018,-27.87833974,0,-1886.629375,0,196.4176285,0,0,,,,
534.2159996,2086,-1.72E-06,99.65483325,0,0,0,93.06523149,102.4852962,134.095625,-24.69772196,91.47234759,0,-2605.705811,0,-105.8835464,0,0,,,,
534.2239996,2086,-1.75E-06,25.83827133,0,0,0,-103.6189556,-67.12781579,141.3188193,84.96499994,31.47517622,0,-2393.299024,0,17.28692823,0,0,,,,
534.2319996,2086,-1.85E-06,-31.77529547,0,0,0,147.2929725,179.6701993,-16.84661466,-152.228097,-37.5682621,0,-2030.588358,0,125.4074645,0,0,,,,
534.2399996,2086,-1.70E-06,142.2286822,0,0,0,34.52765959,56.89647336,110.8858822,-35.41755781,104.9178893,0,-3055.708553,0,-236.6839606,0,0,,,,
534.2479996,2086,-1.79E-06,-26.99477513,0,0,0,-139.5362358,-109.6156125,113.1194883,102.5291156,-19.34552377,0,-2322.784706,0,113.5294468,0,0,,,,
534.2559996,2086,-1.70E-06,16.90332199,0,0,0,101.6142079,127.6261534,24.00336947,-90.81921694,-3.712914016,0,-2371.872438,0,57.64797168,0,0,,,,
534.2639996,2086,-1.73E-06,109.0587667,0,0,0,-33.77683634,-2.072596227,119.5903178,26.97250243,76.07406033,0,-2958.183799,0,-135.1022502,0,0,,,,
534.2719996,2087,-1.69E-06,-40.28541604,0,0,0,-68.07832617,-33.20818873,73.72426416,27.80341445,-20.59087027,0,-2373.991194,0,115.3646423,0,0,,,,
534.2799996,2087,-1.69E-06,26.77421597,0,0,0,65.73599883,94.37656135,42.38248818,-83.46448688,27.12995835,0,-2736.93965,0,-48.9341762,0,0,,,,
534.2879996,2087,-1.67E-06,44.02999505,0,0,0,-55.18755119,-32.99148393,109.9968153,46.4756032,37.45205536,0,-2940.573042,0,-92.47807002,0,0,,,,
534.2959996,2087,-1.65E-06,-31.46813192,0,0,0,43.66899516,58.11798304,47.95747997,-0.489573908,-10.74802508,0,-2496.723142,0,72.90780644,0,0,,,,
534.3039996,2087,-1.64E-06,79.89731647,0,0,0,18.02714548,37.46835166,64.84836418,-5.333873311,75.46611099,0,-3107.719388,0,-157.0747904,0,0,,,,
534.3119996,2087,-1.62E-06,-18.57533956,0,0,0,-117.2099349,-90.58929955,60.26008521,36.64326027,-0.705560392,0,-2813.146631,0,-0.044349791,0,0,,,,
534.3199996,2087,-1.61E-06,-5.628084185,0,0,0,54.55149324,60.09808501,19.62387391,-87.511318,-1.414318435,0,-2732.081751,0,4.425915726,0,0,,,,
534.3279996,2087,-1.59E-06,86.55610966,0,0,0,-47.57390516,-43.33436031,98.48374226,22.86090709,62.35088755,0,-3268.449203,0,-167.3424629,0,0,,,,
534.3359996,2087,-1.58E-06,-66.42315047,0,0,0,-18.34425418,0.743586472,35.23080175,-1.516525345,-43.98719157,0,-2590.599574,0,117.0870511,0,0,,,,
534.3439996,2087,-1.56E-06,63.05227057,0,0,0,49.65413251,48.96535377,67.19497702,-39.10011637,46.22127953,0,-3185.678407,0,-134.2386222,0,0,,,,
534.3519996,2087,-1.55E-06,8.767533645,0,0,0,-91.61886015,-88.50162173,91.06440637,50.05873523,1.116554859,0,-3018.200106,0,-34.01575413,0,0,,,,
534.3599996,2087,-1.53E-06,-13.32445005,0,0,0,68.92058715,76.59321582,21.12300755,-72.17784085,-14.01878552,0,-2778.209091,0,25.33015246,0,0,,,,
534.3679996,2087,-1.52E-06,114.9316863,0,0,0,-31.35869017,-39.5669589,111.5568301,41.43026323,77.53812198,0,-3462.835077,0,-216.9878173,0,0,,,,
534.3759996,2087,-1.50E-06,-56.04894578,0,0,0,-17.54596524,-13.39737244,28.30724623,7.868018761,-48.04919919,0,-2674.79506,0,121.9276362,0,0,,,,
534.3839996,2087,-1.49E-06,57.97836746,0,0,0,52.20156025,62.44713725,34.69601277,-58.73153972,49.68718655,0,-3261.532591,0,-124.507102,0,0,,,,
534.3919996,2087,-1.48E-06,13.50783232,0,0,0,-115.2364888,-106.839735,80.50175066,60.37520189,2.980058954,0,-3139.496652,0,-31.70271524,0,0,,,,
534.3999996,2087,-1.46E-06,-29.4190319,0,0,0,58.12835373,68.19920074,-12.90770471,-72.14113352,-40.61321798,0,-2789.845802,0,73.71034066,0,0,,,,
534.4079996,2087,-1.45E-06,90.05667622,0,0,0,-24.24806653,-26.56007898,86.99821669,38.97452263,88.15466057,0,-3521.862216,0,-210.1938359,0,0,,,,
534.4159996,2087,-1.43E-06,-78.13238225,0,0,0,-15.2415304,-19.88695549,37.12651518,13.44560376,-35.88621065,0,-2699.330162,0,132.3198307,0,0,,,,
534.4239996,2087,4.87E-07,57.063371,0,0,0,65.99669957,75.7271261,22.85632839,-67.48036874,45.63687218,0,-3240.397136,0,-110.9754373,0,0,,,,
534.4319996,2087,2.30E-06,30.14639496,0,0,0,-85.60172181,-74.72058583,89.1314067,83.07962772,34.9308519,0,-3157.595068,0,-54.61273162,0,0,,,,
534.4399996,2087,1.72E-06,-36.45678103,0,0,0,77.69953559,83.39247431,24.69850724,-47.31715076,-11.61466158,0,-2767.644997,0,82.49069715,0,0,,,,
534.4479996,2087,1.75E-06,81.67300875,0,0,0,-50.96024111,-44.09826552,81.83115732,35.08502933,67.65056913,0,-3504.931914,0,-182.2419934,0,0,,,,
534.4559996,2087,1.85E-06,-80.25136753,0,0,0,-59.05662564,-56.26516108,0.568140472,12.80674066,-70.3099513,0,-2668.141635,0,164.3478955,0,0,,,,
534.4639996,2087,1.70E-06,34.2508091,0,0,0,40.52218526,52.0385554,-4.501338754,-77.83860724,35.14590922,0,-3175.687596,0,-66.90007453,0,0,,,,
534.4719996,2087,1.79E-06,6.000899741,0,0,0,-134.7159416,-112.9188195,54.54886379,70.85976778,21.05072877,0,-3117.135686,0,-26.60879428,0,0,,,,
534.4799996,2087,1.70E-06,-50.01211193,0,0,0,34.32029141,48.20686306,-24.17304211,-66.06049046,-40.99234017,0,-2687.580802,0,106.4707834,0,0,,,,
534.4879996,2087,1.73E-06,77.37290991,0,0,0,-27.45895963,-23.67694232,74.55848289,15.04605032,76.57870004,0,-3435.355066,0,-177.3636908,0,0,,,,
534.4959996,2087,1.69E-06,-77.17221911,0,0,0,-12.05432832,-20.71517337,54.15324769,44.74346953,-28.73323144,0,-2635.031831,0,144.1103484,0,0,,,,
534.5039996,2087,1.69E-06,47.34623126,0,0,0,80.26697569,80.37447707,45.22364737,-31.07890671,50.80682935,0,-3137.486216,0,-85.65865638,0,0,,,,
534.5119996,2087,1.67E-06,20.96114899,0,0,0,-90.30944874,-74.48794298,91.12642274,90.69947647,30.39817876,0,-3098.818816,0,-41.46386774,0,0,,,,
534.5199996,2087,1.65E-06,-45.7324096,0,0,0,73.50853789,77.06048412,9.305111351,-53.04194462,-24.41557612,0,-2655.00097,0,96.30294382,0,0,,,,
534.5279996,2088,1.64E-06,82.51057542,0,0,0,-35.11068547,-34.40957699,64.41706759,30.78745832,78.13623579,0,-3431.697706,0,-208.267168,0,0,,,,
534.5359996,2088,1.62E-06,-91.36382001,0,0,0,-54.3050985,-46.55673369,12.00020673,34.00760539,-53.94469682,0,-2617.641616,0,113.6895831,0,0,,,,
534.5439996,2088,1.61E-06,21.00356785,0,0,0,59.87925801,71.93500736,10.94479084,-72.10724337,11.98364791,0,-3065.145968,0,-105.0245049,0,0,,,,
534.5519996,2088,1.59E-06,-2.835360976,0,0,0,-131.3283311,-109.2933422,44.6215276,81.39647059,7.959982796,0,-3050.705298,0,-79.14251453,0,0,,,,
534.5599996,2088,1.58E-06,-133.2364699,0,0,0,23.05332547,32.264921,-58.80698988,-48.48976908,-94.31681446,0,-2168.737558,0,207.601396,0,0,,,,
534.5679996,2088,1.56E-06,44.61690587,0,0,0,25.6432926,19.62414058,28.86348078,-6.940252015,16.04228739,0,-2732.841237,0,-69.63370439,0,0,,,,
534.5759996,2088,1.55E-06,12.28779032,0,0,0,-5.693199408,-2.984268109,43.19408564,63.52586225,21.49437497,0,-2628.882409,0,-21.95168445,0,0,,,,
534.5839996,2088,1.53E-06,98.130693,0,0,0,-3.409235734,0.525666277,84.73208721,64.55883469,110.8988192,0,-3273.408063,0,-257.0814046,0,0,,,,
534.5919996,2088,1.52E-06,128.6466047,0,0,0,-150.8572643,-149.2877591,154.0835092,192.5190848,123.0838488,0,-3485.477242,0,-291.6802608,0,0,,,,
534.5999996,2088,1.50E-06,50.50651499,0,0,0,-19.15150417,-14.91542575,69.69724911,77.18324337,63.97372729,0,-3105.150204,0,-131.285832,0,0,,,,
534.6079996,2088,1.49E-06,26.57539571,0,0,0,-36.15524691,-30.99872701,66.03416116,75.87948379,52.54595909,0,-3079.60005,0,-104.6617252,0,0,,,,
534.6159996,2088,1.48E-06,-79.30813489,0,0,0,24.31654517,29.28542285,-11.3756334,6.576187444,-36.34292096,0,-2473.381968,0,124.8775574,0,0,,,,
534.6239996,2088,1.46E-06,46.69455185,0,0,0,41.43620314,39.93594962,18.6855968,-22.40492329,37.37342456,0,-3080.552398,0,-117.1354498,0,0,,,,
534.6319996,2088,1.45E-06,-22.1879327,0,0,0,-85.13466236,-85.07361685,53.87545429,63.49824108,-22.63639888,0,-2835.374593,0,9.728101618,0,0,,,,
534.6399996,2088,1.43E-06,-77.47317698,0,0,0,63.67352087,63.21903533,-22.90876829,-81.89779455,-57.98970201,0,-2548.502141,0,87.80804162,0,0,,,,
534.6479996,2088,-4.87E-07,35.3988832,0,0,0,-46.9408258,-51.80831644,53.20506604,16.43780757,40.23201909,0,-3230.102809,0,-180.1073619,0,0,,,,
534.6559996,2088,-2.30E-06,-115.598169,0,0,0,-36.01606648,-31.38249019,-13.01230865,24.27092432,-70.31076395,0,-2481.582026,0,105.0390508,0,0,,,,
534.6639996,2088,-1.72E-06,-0.611081295,0,0,0,54.38325153,64.14948602,-19.33343448,-36.12434689,16.89058757,0,-2955.960206,0,-111.3889117,0,0,,,,
534.6719996,2088,-1.75E-06,2.240914113,0,0,0,-94.66033179,-89.23476679,39.63695123,89.66201047,19.26661358,0,-2963.750971,0,-86.73258587,0,0,,,,
534.6799996,2088,-1.85E-06,-70.30495929,0,0,0,52.79299613,46.12898982,-32.32640512,-43.36231846,-54.20963771,0,-2497.637172,0,65.65182737,0,0,,,,
534.6879996,2088,-1.70E-06,61.38337156,0,0,0,-27.95701208,-36.57040193,37.52497939,5.903700553,46.04651445,0,-3258.515494,0,-226.2887734,0,0,,,,
534.6959996,2088,-1.79E-06,-67.98739586,0,0,0,-45.29454422,-53.31232024,-12.44663337,43.27343176,-53.35294823,0,-2531.505215,0,70.94398412,0,0,,,,
534.7039996,2088,-1.70E-06,15.99262616,0,0,0,73.53698569,55.43661686,-24.53029802,-25.98768356,15.00201728,0,-2923.204746,0,-118.227794,0,0,,,,
534.7119996,2088,-1.73E-06,-23.22007678,0,0,0,-109.1123045,-119.2573069,30.8496301,87.0680747,3.104700022,0,-3005.721752,0,-118.2773904,0,0,,,,
534.7199996,2088,-1.69E-06,-96.77084049,0,0,0,52.57629292,35.87861601,-42.61205814,-40.61198282,-66.05615448,0,-2434.256085,0,73.2495701,0,0,,,,
534.7279996,2088,-1.69E-06,63.33527223,0,0,0,10.94676169,-14.87199102,50.36281423,31.27551588,71.59135329,0,-3237.449354,0,-245.5591597,0,0,,,,
534.7359996,2088,-1.67E-06,-90.0092944,0,0,0,-56.42542379,-63.25591106,-12.10715829,60.90211593,-43.47179669,0,-2493.834982,0,71.7120116,0,0,,,,
534.7439996,2088,-1.65E-06,17.55806355,0,0,0,88.36298631,79.72545608,-35.54367432,-47.90777228,21.04817603,0,-2827.315617,0,-102.4914966,0,0,,,,
534.7519996,2088,-1.64E-06,25.82770222,0,0,0,-73.84330884,-92.62780944,70.10681806,112.7328857,42.46786498,0,-2999.376334,0,-144.3929604,0,0,,,,
534.7599996,2088,-1.62E-06,-85.08745747,0,0,0,35.45988896,25.81022089,-32.18455749,-13.60067593,-55.02725227,0,-2375.488747,0,83.89927235,0,0,,,,
534.7679996,2088,-1.61E-06,57.24994915,0,0,0,-21.95297154,-23.227497,23.90442041,16.14966101,56.02078646,0,-3173.474697,0,-238.4256344,0,0,,,,
534.7759996,2088,-1.59E-06,-91.40884953,0,0,0,-68.80842409,-70.48765699,-9.356397558,65.33007994,-52.8824905,0,-2454.165351,0,55.47397457,0,0,,,,
534.7839996,2089,-1.58E-06,20.63923975,0,0,0,96.10752777,89.41269816,-34.39936128,-32.19303772,20.41244357,0,-2757.535247,0,-104.5962729,0,0,,,,
534.7919996,2089,-1.56E-06,45.86068944,0,0,0,-70.82151574,-76.42659259,66.33343999,123.7496293,49.77589704,0,-2981.897884,0,-164.9320729,0,0,,,,
534.7999996,2089,-1.55E-06,-77.35675316,0,0,0,43.87115411,34.9598306,-23.52955537,-10.54758854,-58.78849463,0,-2346.043456,0,70.33934155,0,0,,,,
534.8079996,2089,-1.53E-06,87.97410932,0,0,0,14.25738764,-4.806509922,34.73092255,26.76928394,68.51664317,0,-3156.883304,0,-244.4582586,0,0,,,,
534.8159996,2089,-1.52E-06,-46.85792872,0,0,0,-39.777921,-57.21433307,4.695754713,100.4298494,-20.96537756,0,-2484.008815,0,41.45558906,0,0,,,,
534.8239996,2089,-1.50E-06,7.989803627,0,0,0,107.5518334,83.21481931,-21.39210728,-15.51376211,22.42982797,0,-2750.758605,0,-88.64969848,0,0,,,,
534.8319996,2089,-1.49E-06,6.255722425,0,0,0,-80.87003977,-102.6740036,60.08555352,109.462208,39.16747603,0,-2949.804641,0,-119.2060284,0,0,,,,
534.8399996,2089,-1.48E-06,-99.83328951,0,0,0,24.79864563,18.57147005,-45.48476948,-24.49844487,-58.21717127,0,-2278.487997,0,114.9281783,0,0,,,,
534.8479996,2089,-1.46E-06,72.36541867,0,0,0,6.099244604,-10.7515776,29.37752502,17.53447311,56.08129631,0,-3107.340779,0,-231.1849382,0,0,,,,
534.8559996,2089,-1.45E-06,-70.37779691,0,0,0,-66.9934905,-84.08659482,10.61149927,94.45211626,-51.21138758,0,-2431.762012,0,50.53933787,0,0,,,,
534.8639996,2089,-1.43E-06,23.84599183,0,0,0,74.21191797,67.35437677,-27.51715039,-7.962992991,12.70689172,0,-2670.314112,0,-96.10871322,0,0,,,,
534.8719996,2089,4.87E-07,68.9376013,0,0,0,-83.63168892,-100.8353338,61.22615635,136.1790012,43.2257695,0,-2922.791302,0,-172.7092741,0,0,,,,
534.8799996,2089,2.30E-06,-66.99513132,0,0,0,34.14299391,15.35134828,-31.14518462,18.03358639,-53.49885829,0,-2235.570775,0,74.40845968,0,0,,,,
534.8879996,2089,1.72E-06,79.85222192,0,0,0,-1.349770992,-16.4855325,39.87371737,56.2902388,85.07360539,0,-3067.161344,0,-261.8065587,0,0,,,,
534.8959996,2089,1.75E-06,-66.16391229,0,0,0,-71.95256716,-93.99607501,12.23913337,104.7121073,-38.74143007,0,-2390.723514,0,33.07752327,0,0,,,,
534.9039996,2089,1.85E-06,2.545172278,0,0,0,72.62143311,66.97198356,-39.05207958,-22.53323815,-2.992220578,0,-2594.922257,0,-93.52754788,0,0,,,,
534.9119996,2089,1.70E-06,22.52047166,0,0,0,-119.6122245,-107.8343301,34.73720819,112.5991191,19.70218067,0,-2878.823677,0,-171.6718334,0,0,,,,
534.9199996,2089,1.79E-06,-99.54232698,0,0,0,9.975105931,12.47555222,-50.80564621,-28.5009136,-90.69507403,0,-2146.732841,0,99.23251395,0,0,,,,
534.9279996,2089,1.70E-06,93.15127362,0,0,0,16.39730055,27.09483948,48.5125896,-1.319550692,64.85977912,0,-2985.302198,0,-258.0384258,0,0,,,,
534.9359996,2089,1.73E-06,-50.48051016,0,0,0,-62.31834024,-42.77278192,32.66417026,84.14699425,-38.97735926,0,-2354.348478,0,15.93299203,0,0,,,,
534.9439996,2089,1.69E-06,-0.844190924,0,0,0,91.37750977,106.6492314,-25.12081795,-38.71867665,-7.961710867,0,-2527.448294,0,-94.41153191,0,0,,,,
534.9519996,2089,1.69E-06,37.32876899,0,0,0,-84.93415901,-61.45044087,54.24676214,82.09499754,35.15866775,0,-2847.172504,0,-202.1760156,0,0,,,,
534.9599996,2089,1.67E-06,-102.3496523,0,0,0,26.49047792,45.55266015,-34.60390483,-44.69829181,-64.13292346,0,-2105.600937,0,70.13542496,0,0,,,,
534.9679996,2089,1.65E-06,51.12129745,0,0,0,8.861613867,18.32292753,35.36899657,-32.91126608,67.31922695,0,-2926.789037,0,-263.7295054,0,0,,,,
534.9759996,2089,1.64E-06,-71.33272377,0,0,0,-85.43961745,-67.43706915,11.44971345,36.33418412,-31.23683729,0,-2298.584709,0,12.53138994,0,0,,,,
534.9839996,2089,1.62E-06,1.106055639,0,0,0,90.16086683,117.7702226,-28.81447168,-77.80632062,13.94742981,0,-2433.138304,0,-94.54018714,0,0,,,,
534.9919996,2089,1.61E-06,30.34458869,0,0,0,-88.98985548,-59.71734336,63.42086956,54.77031642,37.38817393,0,-2780.558816,0,-215.7501234,0,0,,,,
534.9999996,2089,1.59E-06,-110.4613256,0,0,0,2.585560301,29.01787242,-36.68595235,-76.88930505,-94.66000688,0,-1994.290221,0,73.92505343,0,0,,,,
535.0079996,2089,1.58E-06,61.92921321,0,0,0,13.21297069,40.06144383,19.46303462,-61.01705399,50.37629375,0,-2800.817889,0,-279.2335058,0,0,,,,
535.0159996,2089,1.56E-06,-73.25252389,0,0,0,-79.66653791,-49.95565435,14.34275057,33.22418757,-24.51198133,0,-2236.216219,0,-46.58658373,0,0,,,,
535.0239996,2089,1.55E-06,-28.76373629,0,0,0,73.28844338,104.6416214,-37.88714209,-93.35601466,-7.992687781,0,-2331.05194,0,-121.5503267,0,0,,,,
535.0319996,2089,1.53E-06,45.53034143,0,0,0,-95.32614532,-63.35309398,30.77972799,54.24532925,36.56970186,0,-2676.578299,0,-230.319491,0,0,,,,
535.0399996,2090,1.52E-06,-68.14062288,0,0,0,9.112616207,41.87038273,-48.04759136,-31.55576784,-48.1874389,0,-1912.365536,0,44.44274055,0,0,,,,
535.0479996,2090,1.50E-06,70.66051132,0,0,0,-1.297364414,35.08165317,11.50782953,-40.36256787,59.23524007,0,-2733.460696,0,-304.8428482,0,0,,,,
535.0559996,2090,1.49E-06,-81.86200556,0,0,0,-179.1494959,-153.1645736,36.96008114,100.767292,-59.90479181,0,-2083.787444,0,-16.88862128,0,0,,,,
535.0639996,2090,1.48E-06,-70.45872834,0,0,0,54.20475721,68.15244788,-14.78233647,-44.62585841,-45.07943529,0,-1808.462953,0,14.57453734,0,0,,,,
535.0719996,2090,1.46E-06,79.24799311,0,0,0,38.24654983,59.51703589,34.52997576,-47.80848943,67.68308204,0,-2585.450593,0,-317.3937325,0,0,,,,
535.0799996,2090,1.45E-06,-33.83756953,0,0,0,-82.27956745,-53.90401655,11.68679643,-6.944083279,-35.51069937,0,-2112.838714,0,-100.6443881,0,0,,,,
535.0879996,2090,1.43E-06,-26.55764486,0,0,0,-17.3865522,17.14901692,-26.06471229,-54.69150589,-31.57905351,0,-2079.311171,0,-123.1007147,0,0,,,,
535.0959996,2090,-4.87E-07,14.47141813,0,0,0,13.58299622,51.54483731,-21.20992509,-51.55316315,2.388896559,0,-2276.674734,0,-229.8225581,0,0,,,,
535.1039996,2090,-2.30E-06,-12.47914338,0,0,0,-48.16266644,-17.64287555,6.526914325,6.538392306,-2.322886478,0,-2191.033523,0,-182.7437721,0,0,,,,
535.1119996,2090,-1.72E-06,-30.3191245,0,0,0,19.44201149,42.27106752,-33.67056375,-56.47122783,-23.90433085,0,-1985.067152,0,-110.6014056,0,0,,,,
535.1199996,2090,-1.75E-06,39.54852796,0,0,0,-15.85582119,16.67262719,-5.844880649,-41.92722778,20.68048727,0,-2328.776907,0,-246.5949996,0,0,,,,
535.1279996,2090,-1.85E-06,-57.68238161,0,0,0,-91.05063267,-50.36340822,-8.946265928,1.735569863,-32.51841424,0,-2013.692568,0,-108.2189124,0,0,,,,
535.1359996,2090,-1.70E-06,-28.70000299,0,0,0,55.61612714,77.3225294,-30.72749239,-98.38463235,-27.31922435,0,-2009.938533,0,-135.9243127,0,0,,,,
535.1439996,2090,-1.79E-06,40.008545,0,0,0,-72.07107535,-51.28482834,25.07850686,7.153595618,24.57242396,0,-2308.245964,0,-233.4681806,0,0,,,,
535.1519996,2090,-1.70E-06,-75.68709786,0,0,0,-19.44016115,-0.108521938,-65.74904819,-51.43461702,-56.54564019,0,-1704.046573,0,-5.09600861,0,0,,,,
535.1599996,2090,-1.73E-06,57.51633554,0,0,0,24.06876404,23.01053877,-2.885774243,-67.81711751,25.85333844,0,-2321.915626,0,-265.0011992,0,0,,,,
535.1679996,2090,-1.69E-06,-24.52987286,0,0,0,-83.48567946,-77.6193325,-1.298401463,13.33987207,-33.88451549,0,-1925.150489,0,-85.20986795,0,0,,,,
535.1759996,2090,-1.69E-06,-19.68480201,0,0,0,63.88808797,71.64322893,-73.11260306,-93.81647987,-9.596131069,0,-1877.409763,0,-111.3605346,0,0,,,,
535.1839996,2090,-1.67E-06,48.44035233,0,0,0,-73.38189672,-64.79845136,21.23525357,21.66888653,42.77264705,0,-2315.391124,0,-264.485886,0,0,,,,
535.1919996,2090,-1.65E-06,-76.6398131,0,0,0,9.489522675,26.60975592,-54.22091233,-43.43129568,-80.02117146,0,-1527.914562,0,35.40208098,0,0,,,,
535.1999996,2090,-1.64E-06,74.9899488,0,0,0,44.24207798,61.9864181,-1.702409387,-35.40958215,59.11625417,0,-2272.928442,0,-297.0950023,0,0,,,,
535.2079996,2090,-1.62E-06,-38.28400698,0,0,0,-104.0699961,-80.5851321,1.32785041,38.45824827,-7.315038606,0,-1854.864626,0,-102.7250223,0,0,,,,
535.2159996,2090,-1.61E-06,-21.25067697,0,0,0,83.07385855,95.03430229,-69.32355609,-117.0006685,-19.51668961,0,-1753.377697,0,-96.32848133,0,0,,,,
535.2239996,2090,-1.59E-06,74.5914484,0,0,0,-42.86275679,-37.15187695,31.83725738,31.15067244,49.46416191,0,-2280.98832,0,-284.2657536,0,0,,,,
535.2319996,2090,-1.58E-06,-81.76459338,0,0,0,6.685145992,16.29096327,-56.59531031,-41.22004025,-77.46961905,0,-1450.521937,0,51.66761678,0,0,,,,
535.2399996,2090,-1.56E-06,66.16922736,0,0,0,37.93468796,46.77853195,-21.96399635,-85.20265773,45.37960238,0,-2191.014813,0,-260.3601682,0,0,,,,
535.2479996,2090,-1.55E-06,-40.41643901,0,0,0,-108.4648653,-92.60607876,-9.980230301,16.30367296,-34.15670137,0,-1790.858285,0,-74.06488745,0,0,,,,
535.2559996,2090,-1.53E-06,-44.5696774,0,0,0,63.5501902,71.47183241,-83.12354577,-118.3299494,-50.23536817,0,-1654.566868,0,-52.6423592,0,0,,,,
535.2639996,2090,-1.52E-06,45.54491058,0,0,0,-74.95673497,-71.91657068,8.620404356,17.01949793,27.47480724,0,-2188.054708,0,-247.1317317,0,0,,,,
535.2719996,2090,-1.50E-06,-96.74797473,0,0,0,-14.93610694,-2.171185099,-72.99147306,-36.61299235,-97.36124732,0,-1342.316641,0,70.61396555,0,0,,,,
535.2799996,2090,-1.49E-06,62.83078954,0,0,0,36.51116302,51.84328223,-28.83890519,-64.4518872,44.25101391,0,-2089.925975,0,-257.6250239,0,0,,,,
535.2879996,2090,-1.48E-06,-54.03660908,0,0,0,-118.2494108,-103.126527,-6.874269338,38.97702711,-14.60685709,0,-1716.190001,0,-81.23106663,0,0,,,,
535.2959996,2091,-1.46E-06,-57.35033888,0,0,0,40.51670743,56.2300075,-92.95105587,-112.2108229,-47.39327768,0,-1557.577746,0,-61.65816959,0,0,,,,
535.3039996,2091,-1.45E-06,45.81152415,0,0,0,-103.2319108,-86.12287351,-20.88370873,9.617584976,17.57841723,0,-2113.389202,0,-264.8584716,0,0,,,,
535.3119996,2091,-1.43E-06,-119.5260502,0,0,0,-36.80407936,-31.16808375,-89.28140382,-43.27898783,-109.0254042,0,-1235.228021,0,79.16101645,0,0,,,,
535.3199996,2091,4.87E-07,52.00537714,0,0,0,47.34009726,44.09740459,-25.57543071,-91.31097321,20.08982957,0,-1938.659745,0,-230.8415111,0,0,,,,
535.3279996,2091,2.30E-06,-4.425787034,0,0,0,-85.95720777,-76.6019077,6.384918,31.45480045,-13.49337821,0,-1596.939048,0,-72.2169947,0,0,,,,
535.3359996,2091,1.72E-06,-3.37105032,0,0,0,87.93553814,95.67445201,-60.32704412,-73.85957893,-11.66310297,0,-1445.978954,0,-54.14621957,0,0,,,,
535.3439996,2091,1.75E-06,68.11565983,0,0,0,-61.83034493,-59.11048294,17.29001164,43.09828484,47.31503161,0,-2037.704763,0,-259.8757399,0,0,,,,
535.3519996,2091,1.85E-06,-112.7863486,0,0,0,-36.44972193,-21.66110402,-87.71367475,-21.89219364,-81.3741008,0,-1153.723958,0,88.21957515,0,0,,,,
535.3599996,2091,1.70E-06,52.34046491,0,0,0,33.80713402,48.32185425,-48.3057407,-61.67173193,38.44449774,0,-1852.757366,0,-228.8682033,0,0,,,,
535.3679996,2091,1.79E-06,-17.34317604,0,0,0,-87.08013109,-85.19975464,2.593591645,56.989231,-29.02660263,0,-1533.095179,0,-73.30568428,0,0,,,,
