Time:125Hz,Epoch,FP1,FP2,C3,C4,P7,P8,O1,O2,F7,F8,F3,F4,T7,T8,P3,P4,,,,
348.1839998,1360,1.81E-07,-18.00357668,0,-1.56E-07,0,56.55627187,27.44858443,-2.861945341,105.2949152,-100.1135554,-4.55E-08,-1.29E-07,0,-107.3447738,0,0,,,,
348.1919998,1360,1.67E-07,128.7582883,0,-1.56E-07,0,36.46749243,-2.041053478,-33.09903931,-148.8837278,46.12875925,-4.56E-08,-1.30E-07,0,-449.7529352,0,0,,,,
348.1999998,1360,-7.95E-07,-31.12456611,0,-1.57E-07,0,-61.91069347,-99.97142022,85.56129371,149.8782936,-81.03672174,-4.57E-08,-1.31E-07,0,-142.7791635,0,0,,,,
348.2079998,1360,-1.69E-06,46.7411101,0,-1.57E-07,0,102.5763437,65.87145085,-89.55519493,-90.51908386,-62.7120094,-4.59E-08,-1.31E-07,0,-278.4983266,0,0,,,,
348.2159998,1360,5.08E-07,59.79623008,0,-1.57E-07,0,-82.61836736,-109.990411,41.7834172,-21.94655419,-25.73157788,-4.60E-08,-1.32E-07,0,-339.4813427,0,0,,,,
348.2239998,1360,2.30E-06,-65.3305307,0,-1.58E-07,0,50.01567102,25.0302404,-9.918727303,89.17168158,-131.8388642,-4.61E-08,-1.33E-07,0,-89.33434718,0,0,,,,
348.2319998,1360,1.66E-06,118.1617045,0,-1.58E-07,0,68.11971212,23.77705118,-24.35826913,-168.8755511,33.37014674,-4.63E-08,-1.34E-07,0,-458.0486706,0,0,,,,
348.2399998,1360,8.07E-07,-49.50664021,0,-1.58E-07,0,-51.67040449,-90.05060128,103.523207,143.2639773,-74.72245363,-4.64E-08,-1.34E-07,0,-151.1200005,0,0,,,,
348.2479998,1360,-4.99E-08,52.08090688,0,-1.59E-07,0,140.246209,109.2387017,-81.137421,-73.21934877,-33.19292467,-4.65E-08,-1.35E-07,0,-276.894721,0,0,,,,
348.2559998,1360,1.33E-07,92.98941787,0,-1.59E-07,0,-27.05724294,-64.06562645,70.52565904,5.638684451,35.6214085,-4.67E-08,-1.36E-07,0,-371.8410124,0,0,,,,
348.2639998,1360,1.91E-07,-37.56576743,0,-1.59E-07,0,42.34168443,11.24551833,23.66155685,120.0092876,-110.7177306,-4.68E-08,-1.37E-07,0,-88.85612518,0,0,,,,
348.2719998,1360,7.16E-08,144.5161193,0,-1.60E-07,0,24.52743758,1.465204032,-33.7254099,-160.5062145,10.23298329,-4.69E-08,-1.37E-07,0,-414.7266538,0,0,,,,
348.2799998,1360,1.75E-07,-36.27875642,0,-1.60E-07,0,-77.56503504,-96.91108472,91.0546344,137.6656221,-101.5857356,-4.70E-08,-1.38E-07,0,-121.01396,0,0,,,,
348.2879998,1360,-8.56E-07,56.723605,0,-1.60E-07,0,117.8784837,98.43958095,-81.9180399,-74.88326162,-60.13277856,-4.71E-08,-1.39E-07,0,-250.9724946,0,0,,,,
348.2959998,1360,-1.71E-06,117.0849619,0,-1.61E-07,0,-41.9310151,-48.40590991,58.72698181,3.020370061,40.61499227,-4.73E-08,-1.39E-07,0,-344.5339992,0,0,,,,
348.3039998,1360,4.66E-07,0.419644086,0,-1.61E-07,0,91.06235587,82.12645299,25.19368161,133.0518969,-65.62300553,-4.74E-08,-1.40E-07,0,-69.41425788,0,0,,,,
348.3119998,1360,2.27E-06,182.7635249,0,-1.61E-07,0,73.87453024,54.50746774,-4.470947497,-143.3306156,64.64826796,-4.75E-08,-1.41E-07,0,-424.6481139,0,0,,,,
348.3199998,1360,1.62E-06,-15.34733496,0,-1.61E-07,0,-82.8280264,-82.21310844,117.5553712,133.8248089,-83.04636091,-4.76E-08,-1.41E-07,0,-124.1875775,0,0,,,,
348.3279998,1360,7.72E-07,64.55260278,0,-1.62E-07,0,123.9705382,128.7020703,-81.0940561,-96.55043724,-70.79375226,-4.77E-08,-1.42E-07,0,-241.4693703,0,0,,,,
348.3359998,1360,-8.46E-08,211.4947016,0,-1.62E-07,0,-33.22864679,-34.76605452,30.36375536,-126.1597263,93.98865172,-4.78E-08,-1.43E-07,0,-493.9777295,0,0,,,,
348.3439998,1360,9.79E-08,75.3547577,0,-1.62E-07,0,28.83336063,27.02166679,24.471515,63.15253833,-25.31414495,-4.79E-08,-1.43E-07,0,-167.1422513,0,0,,,,
348.3519998,1360,1.56E-07,80.64377904,0,-1.62E-07,0,34.16983566,32.12460441,-21.27202735,-23.79815813,-20.2056219,-4.80E-08,-1.44E-07,0,-226.5397859,0,0,,,,
348.3599998,1360,3.75E-08,-86.09810225,0,-1.63E-07,0,-10.94516082,-3.219919067,7.621826042,147.7657002,-144.5364766,-4.81E-08,-1.45E-07,0,22.06016382,0,0,,,,
348.3679998,1360,1.41E-07,59.74018546,0,-1.63E-07,0,142.4858116,147.4450026,-122.7868014,-108.698167,-80.04306632,-4.82E-08,-1.45E-07,0,-174.8110665,0,0,,,,
348.3759998,1360,-8.90E-07,154.6747109,0,-1.63E-07,0,-106.12657,-98.36532518,81.61114113,-62.40332949,53.05266906,-4.83E-08,-1.46E-07,0,-385.7863,0,0,,,,
348.3839998,1360,-1.74E-06,-17.93525228,0,-1.63E-07,0,25.58870089,42.70115309,20.90164987,118.7431085,-101.0662772,-4.84E-08,-1.47E-07,0,-36.11929657,0,0,,,,
348.3919998,1360,4.33E-07,156.1931214,0,-1.64E-07,0,104.2057777,119.7729941,-86.23707075,-114.3187866,21.97050368,-4.85E-08,-1.47E-07,0,-342.8432209,0,0,,,,
348.3999998,1360,2.23E-06,92.83444549,0,-1.64E-07,0,-86.85177411,-71.27005119,84.48528818,89.16400017,18.02684935,-4.86E-08,-1.48E-07,0,-269.5244015,0,0,,,,
348.4079998,1360,1.59E-06,20.28886149,0,-1.64E-07,0,103.4473582,108.3319883,-39.52780906,35.1373342,-82.38713571,-4.87E-08,-1.48E-07,0,-95.38269871,0,0,,,,
348.4159998,1361,1.69E-06,133.514593,0,-1.64E-07,0,-34.96765432,-26.96802587,6.883974261,-118.6032992,30.58424798,-4.88E-08,-1.49E-07,0,-381.7382198,0,0,,,,
348.4239998,1361,7.83E-07,-29.57743821,0,-1.64E-07,0,-65.2226627,-48.62320699,66.81480275,111.5274727,-95.95188244,-4.89E-08,-1.50E-07,0,-105.1176331,0,0,,,,
348.4319998,1361,-2.31E-07,118.1491637,0,-1.65E-07,0,135.681458,134.3185527,-74.39861421,-107.318759,-29.88796206,-4.90E-08,-1.50E-07,0,-272.8392933,0,0,,,,
348.4399998,1361,1.35E-07,143.6562236,0,-1.65E-07,0,-36.90235281,-36.0320984,67.98156515,3.303400614,43.36963264,-4.91E-08,-1.51E-07,0,-342.4157935,0,0,,,,
348.4479998,1361,4.84E-08,-4.092228787,0,-1.65E-07,0,69.07995866,79.15976291,8.984886812,123.263221,-73.36592198,-4.92E-08,-1.52E-07,0,-99.34586078,0,0,,,,
348.4559998,1361,2.78E-08,151.251099,0,-1.65E-07,0,43.96385241,47.00344584,-28.62946315,-121.7526177,56.9555617,-4.93E-08,-1.52E-07,0,-427.6882585,0,0,,,,
348.4639998,1361,-8.82E-07,-23.93760336,0,-1.65E-07,0,-85.93988636,-75.23841894,79.82094306,111.2628929,-60.19859779,-4.93E-08,-1.53E-07,0,-162.7509875,0,0,,,,
348.4719998,1361,-1.82E-06,67.66807842,0,-1.66E-07,0,93.01365379,103.6487816,-85.11063882,-92.53459475,-51.65226366,-4.94E-08,-1.53E-07,0,-253.4126496,0,0,,,,
348.4799998,1361,-1.50E-06,164.2994465,0,-1.66E-07,0,-48.50917679,-45.36432162,37.42546801,-47.65866685,48.70875334,-4.95E-08,-1.54E-07,0,-375.4724798,0,0,,,,
348.4879998,1361,3.79E-07,25.12527036,0,-1.66E-07,0,54.3369797,57.73883171,15.13530532,104.8961685,-82.22350293,-4.96E-08,-1.54E-07,0,-82.76841942,0,0,,,,
348.4959998,1361,2.15E-06,176.9195111,0,-1.66E-07,0,69.04543025,69.6771758,-43.02087183,-157.0425242,42.66009501,-4.97E-08,-1.55E-07,0,-436.7074054,0,0,,,,
348.5039998,1361,1.63E-06,-40.7181302,0,-1.66E-07,0,-106.8786795,-101.6304209,90.90458426,123.141331,-55.57791821,-4.97E-08,-1.55E-07,0,-185.8979175,0,0,,,,
348.5119998,1361,6.56E-07,27.30294342,0,-1.66E-07,0,86.88525538,79.82959896,-86.9182673,-90.54385958,-55.84934025,-4.98E-08,-1.56E-07,0,-230.6639438,0,0,,,,
348.5199998,1361,-1.11E-07,143.9459008,0,-1.67E-07,0,-37.06716981,-60.55141176,32.40470366,-73.95955755,43.33078239,-4.99E-08,-1.56E-07,0,-369.7840412,0,0,,,,
348.5279998,1361,1.38E-08,-33.73738934,0,-1.67E-07,0,11.41491227,0.128606724,7.189570745,116.452812,-115.2378329,-5.00E-08,-1.57E-07,0,-37.28298545,0,0,,,,
348.5359998,1361,1.07E-07,163.5784589,0,-1.67E-07,0,44.33897729,36.94169975,-77.06760694,-178.1340721,18.40987009,-5.00E-08,-1.57E-07,0,-367.7726746,0,0,,,,
348.5439998,1361,-3.01E-08,22.2370184,0,-1.67E-07,0,-72.26003271,-81.90871276,87.01508352,108.0397289,-41.46647566,-5.01E-08,-1.58E-07,0,-144.0992982,0,0,,,,
348.5519998,1361,8.35E-08,43.48444438,0,-1.67E-07,0,105.4138549,102.6599032,-85.41069682,-54.11926164,-46.90743758,-5.02E-08,-1.59E-07,0,-197.0621144,0,0,,,,
348.5599998,1361,-9.51E-07,128.1651461,0,-1.67E-07,0,-68.65154929,-64.64503431,12.47149853,-53.67594999,44.53037224,-5.02E-08,-1.59E-07,0,-356.6319848,0,0,,,,
348.5679998,1361,-1.80E-06,-36.90148249,0,-1.67E-07,0,-5.311219714,-8.375566424,10.4963512,114.5181503,-116.272318,-5.03E-08,-1.59E-07,0,-34.76896974,0,0,,,,
348.5759998,1361,3.73E-07,160.28057,0,-1.67E-07,0,44.12556465,29.612607,-61.71269736,-187.0051083,12.65920178,-5.03E-08,-1.60E-07,0,-361.6104041,0,0,,,,
348.5839998,1361,2.18E-06,34.2374187,0,-1.68E-07,0,-91.13840885,-98.21657994,80.2113114,94.32412584,-51.66373042,-5.04E-08,-1.60E-07,0,-129.1362687,0,0,,,,
348.5919998,1361,1.53E-06,63.57288162,0,-1.68E-07,0,96.60282252,95.29875751,-98.36646774,-71.3470604,-55.81706995,-5.05E-08,-1.61E-07,0,-174.400806,0,0,,,,
348.5999998,1361,1.64E-06,126.187723,0,-1.68E-07,0,-131.0497416,-130.7055574,84.97965184,-10.82572371,55.27161621,-5.05E-08,-1.61E-07,0,-315.6086423,0,0,,,,
348.6079998,1361,7.25E-07,-108.3702852,0,-1.68E-07,0,-44.82504027,-53.98374461,96.76902873,224.0179997,-120.4400016,-5.06E-08,-1.62E-07,0,103.6086689,0,0,,,,
348.6159998,1361,-2.88E-07,125.6009153,0,-1.68E-07,0,140.9498072,124.9680881,-133.4375181,-250.2753845,23.83081414,-5.06E-08,-1.62E-07,0,-328.5683717,0,0,,,,
348.6239998,1361,7.80E-08,46.16861512,0,-1.68E-07,0,-133.4210189,-134.6394899,94.63422263,73.50766565,1.983349023,-5.07E-08,-1.63E-07,0,-176.2577739,0,0,,,,
348.6319998,1361,-8.00E-09,-26.45993989,0,-1.68E-07,0,79.54890978,78.23174895,-51.23069963,65.54083153,-79.11747518,-5.07E-08,-1.63E-07,0,4.761504528,0,0,,,,
348.6399998,1361,-2.82E-08,163.3835522,0,-1.68E-07,0,26.08251225,22.43566023,-65.71967939,-185.1104971,73.87817586,-5.08E-08,-1.64E-07,0,-373.7442779,0,0,,,,
348.6479998,1361,1.65E-08,-42.95047078,0,-1.68E-07,0,-97.34988359,-99.29849942,87.03311095,157.1145792,-79.38526506,-5.08E-08,-1.64E-07,0,-27.6075065,0,0,,,,
348.6559998,1361,-9.80E-07,56.1899319,0,-1.68E-07,0,115.5546628,109.0512981,-108.1664882,-138.957765,-32.66230601,-5.09E-08,-1.65E-07,0,-229.6838902,0,0,,,,
348.6639998,1361,-1.85E-06,76.98642325,0,-1.68E-07,0,-74.78879829,-76.55496936,32.94670536,-35.37282549,21.68876926,-5.09E-08,-1.65E-07,0,-304.8347953,0,0,,,,
348.6719998,1362,3.35E-07,-47.72068363,0,-1.68E-07,0,41.48072152,34.39746804,-9.514799738,116.7262477,-81.91966324,-5.10E-08,-1.65E-07,0,-28.70695655,0,0,,,,
348.6799998,1362,2.13E-06,126.3739747,0,-1.69E-07,0,58.83297413,45.42551229,-64.59739535,-157.9257234,60.8533648,-5.10E-08,-1.66E-07,0,-364.7490832,0,0,,,,
348.6879998,1362,1.49E-06,-41.57836242,0,-1.69E-07,0,-110.2951917,-118.9429396,93.81647503,114.2531088,-44.72328678,-5.11E-08,-1.66E-07,0,-102.3471863,0,0,,,,
348.6959998,1362,1.60E-06,7.37933191,0,-1.69E-07,0,99.75873635,86.2087991,-95.0696513,-82.9797393,-49.36894251,-5.11E-08,-1.67E-07,0,-168.0332346,0,0,,,,
348.7039998,1362,6.85E-07,89.16880432,0,-1.69E-07,0,-52.77799807,-67.75432077,4.673845625,-67.98966564,43.96345875,-5.11E-08,-1.67E-07,0,-329.2343527,0,0,,,,
348.7119998,1362,-3.28E-07,-80.9371597,0,-1.69E-07,0,6.506100086,-7.803291161,-4.580590681,122.1820602,-90.49456819,-5.12E-08,-1.67E-07,0,-14.92902166,0,0,,,,
348.7199998,1362,3.85E-08,100.1191896,0,-1.69E-07,0,61.8544534,50.48901923,-99.78360426,-161.2189706,15.11851175,-5.12E-08,-1.68E-07,0,-342.7492514,0,0,,,,
348.7279998,1362,-4.71E-08,-10.99019685,0,-1.69E-07,0,-101.9799539,-107.1083814,63.68851052,106.9899563,-38.58205495,-5.12E-08,-1.68E-07,0,-135.3265734,0,0,,,,
348.7359998,1362,-6.70E-08,-28.19419875,0,-1.69E-07,0,89.64251047,74.50154588,-93.30374702,-51.84936225,-48.55900058,-5.13E-08,-1.68E-07,0,-132.2155355,0,0,,,,
348.7439998,1362,-2.20E-08,56.63399532,0,-1.69E-07,0,-57.04308104,-71.22010264,-2.066729113,-85.35738424,25.60540149,-5.13E-08,-1.69E-07,0,-310.5329274,0,0,,,,
348.7519998,1362,-6.45E-08,-92.78414293,0,-1.69E-07,0,-0.016663934,-10.07021764,3.702216237,129.5081062,-103.3247169,-5.13E-08,-1.69E-07,0,8.394546918,0,0,,,,
348.7599998,1362,-9.88E-07,69.47004333,0,-1.69E-07,0,69.08722802,49.45864248,-92.83417093,-168.8253649,23.38448975,-5.14E-08,-1.70E-07,0,-331.1069746,0,0,,,,
348.7679998,1362,-1.91E-06,-30.41330844,0,-1.69E-07,0,-97.44848141,-111.2535438,60.77344665,81.94183084,-38.55969981,-5.14E-08,-1.70E-07,0,-153.4410062,0,0,,,,
348.7759998,1362,3.08E-07,-14.30810249,0,-1.69E-07,0,95.13847376,85.65642804,-101.967318,-36.49829882,-44.74764623,-5.14E-08,-1.70E-07,0,-159.3163976,0,0,,,,
348.7839998,1362,2.09E-06,91.79261737,0,-1.69E-07,0,-59.49963875,-66.82455194,-9.651168746,-65.70308447,54.15353935,-5.14E-08,-1.71E-07,0,-367.1558425,0,0,,,,
348.7919998,1362,1.46E-06,-36.77152394,0,-1.69E-07,0,10.19358104,1.74459068,-0.077211193,158.9312487,-88.16196837,-5.15E-08,-1.71E-07,0,-30.33906372,0,0,,,,
348.7999998,1362,1.56E-06,136.7484792,0,-1.69E-07,0,107.1742767,84.11049289,-86.20627733,-120.317401,60.69256363,-5.15E-08,-1.71E-07,0,-360.4168221,0,0,,,,
348.8079998,1362,6.48E-07,1.757591634,0,-1.69E-07,0,-103.272133,-118.8657805,87.23795832,126.5158671,-10.96076306,-5.15E-08,-1.72E-07,0,-167.2100585,0,0,,,,
348.8159998,1362,-3.65E-07,-4.421905781,0,-1.69E-07,0,82.00489512,71.91389487,-84.94935639,-29.76416902,-66.4797132,-5.15E-08,-1.72E-07,0,-127.812879,0,0,,,,
348.8239998,1362,2.00E-09,82.79461307,0,-1.69E-07,0,-23.90756253,-39.09185493,0.858237928,-80.5150152,54.4020231,-5.15E-08,-1.72E-07,0,-341.7599367,0,0,,,,
348.8319998,1362,-8.33E-08,-62.68051541,0,-1.69E-07,0,20.30462001,12.1253062,16.25939479,166.3248246,-80.6487435,-5.16E-08,-1.72E-07,0,-6.907270054,0,0,,,,
348.8399998,1362,-1.03E-07,129.3978049,0,-1.69E-07,0,78.2623283,68.162435,-91.85402237,-123.3229107,38.43578147,-5.16E-08,-1.73E-07,0,-304.667257,0,0,,,,
348.8479998,1362,-5.77E-08,-9.735576995,0,-1.69E-07,0,-110.2172201,-118.729986,80.09197002,118.809745,-35.66428382,-5.16E-08,-1.73E-07,0,-102.2012722,0,0,,,,
348.8559998,1362,-9.99E-08,-1.859051837,0,-1.69E-07,0,84.77419478,78.51193369,-83.29219013,-11.63188445,-72.4397395,-5.16E-08,-1.73E-07,0,-93.01782785,0,0,,,,
348.8639998,1362,-1.02E-06,108.6394803,0,-1.69E-07,0,-48.14672386,-59.0534439,-10.47251596,-66.2468107,51.39556736,-5.16E-08,-1.74E-07,0,-335.8109996,0,0,,,,
348.8719998,1362,-1.94E-06,-99.84500392,0,-1.69E-07,0,2.118307119,-18.6207155,14.43249167,164.9919395,-94.05437711,-5.16E-08,-1.74E-07,0,1.101521285,0,0,,,,
348.8799998,1362,-1.63E-06,68.09087725,0,-1.69E-07,0,87.8830471,55.91847015,-87.79930558,-134.232134,31.99738051,-5.16E-08,-1.74E-07,0,-327.8809874,0,0,,,,
348.8879998,1362,2.57E-07,-7.803880974,0,-1.68E-07,0,-105.2071229,-124.1468911,77.94082346,132.8785745,-34.61617372,-5.16E-08,-1.74E-07,0,-150.3681915,0,0,,,,
348.8959998,1362,2.02E-06,-8.140743646,0,-1.68E-07,0,85.11106739,74.25070821,-80.3784812,15.11384526,-77.09245025,-5.16E-08,-1.75E-07,0,-104.8625628,0,0,,,,
348.9039998,1362,1.50E-06,81.1266727,0,-1.68E-07,0,-61.78852898,-69.59664801,-9.099981819,-75.84432756,57.35205276,-5.16E-08,-1.75E-07,0,-345.5306105,0,0,,,,
348.9119998,1362,1.48E-06,-73.13903573,0,-1.68E-07,0,-27.69635794,-28.58418284,2.348303988,152.2172236,-96.72066149,-5.16E-08,-1.75E-07,0,-3.481768634,0,0,,,,
348.9199998,1362,6.65E-07,93.97204791,0,-1.68E-07,0,72.95109099,60.6407919,-109.0974195,-146.9029886,3.076264049,-5.16E-08,-1.75E-07,0,-323.7699931,0,0,,,,
348.9279998,1363,-4.06E-07,-47.89721646,0,-1.68E-07,0,-134.2956858,-150.3775335,63.9012473,91.94302481,-37.15932827,-5.16E-08,-1.76E-07,0,-180.8845279,0,0,,,,
348.9359998,1363,-4.40E-09,-21.43803699,0,-1.68E-07,0,69.4432402,48.00900345,-103.8839509,-35.8210396,-64.55820261,-5.16E-08,-1.76E-07,0,-134.2879841,0,0,,,,
348.9439998,1363,-1.09E-07,136.1765868,0,-1.68E-07,0,-26.55507706,-54.08618474,-33.33832238,-93.91450948,53.09680874,-5.16E-08,-1.76E-07,0,-365.7201869,0,0,,,,
348.9519998,1363,-1.19E-07,-40.99890811,0,-1.68E-07,0,0.375992573,-26.33633962,6.073771827,192.0816363,-75.51905269,-5.16E-08,-1.76E-07,0,-11.73454109,0,0,,,,
348.9599998,1363,-7.76E-08,126.990738,0,-1.68E-07,0,102.2477943,73.54866286,-112.1448889,-100.0775385,66.23477163,-5.16E-08,-1.77E-07,0,-306.3691919,0,0,,,,
348.9679998,1363,-1.18E-07,9.823051576,0,-1.68E-07,0,-100.2160423,-113.4338418,56.16251865,133.3555572,3.071267239,-5.16E-08,-1.77E-07,0,-149.1856773,0,0,,,,
348.9759998,1363,-1.04E-06,-25.74962667,0,-1.68E-07,0,61.14149523,53.05169578,-103.0170298,26.15369207,-67.42344132,-5.16E-08,-1.77E-07,0,-94.11728747,0,0,,,,
348.9839998,1363,-1.96E-06,99.51810403,0,-1.68E-07,0,-44.66653958,-66.69141679,-43.06236029,-62.39885725,58.95686845,-5.16E-08,-1.77E-07,0,-338.4903334,0,0,,,,
348.9919998,1363,2.55E-07,-61.69553003,0,-1.67E-07,0,-15.28745999,-45.51898106,2.720023643,171.9858924,-81.00438072,-5.16E-08,-1.77E-07,0,12.93433287,0,0,,,,
348.9999998,1363,2.04E-06,102.5907155,0,-1.67E-07,0,76.77365957,48.477406,-122.7355132,-150.1064999,24.1236775,-5.16E-08,-1.78E-07,0,-287.3341182,0,0,,,,
349.0079998,1363,1.40E-06,6.94848893,0,-1.67E-07,0,-84.77083523,-112.0189617,46.36186608,104.6710548,-8.840468001,-5.16E-08,-1.78E-07,0,-147.9112016,0,0,,,,
349.0159998,1363,1.51E-06,12.17411542,0,-1.67E-07,0,109.5937651,78.6972742,-83.42302481,34.14814259,-28.24634162,-5.15E-08,-1.78E-07,0,-99.7424864,0,0,,,,
349.0239998,1363,1.55E-06,138.7120473,0,-1.67E-07,0,-23.96822558,-47.69366844,-25.53356466,-69.24858959,68.99602013,-5.15E-08,-1.78E-07,0,-359.9828515,0,0,,,,
349.0319998,1363,4.84E-07,-56.60416957,0,-1.67E-07,0,-13.38993655,-34.88202362,8.454503888,198.2507893,-107.8936806,-5.15E-08,-1.78E-07,0,-8.854844539,0,0,,,,
349.0399998,1363,-3.45E-07,134.906789,0,-1.67E-07,0,94.09562344,74.26815291,-115.7858442,-95.68103815,29.5079218,-5.15E-08,-1.78E-07,0,-320.4060656,0,0,,,,
349.0479998,1363,-1.23E-07,56.75956893,0,-1.67E-07,0,-71.05400295,-89.39783593,55.28087939,122.5149776,0.920964855,-5.15E-08,-1.79E-07,0,-193.9605069,0,0,,,,
349.0559998,1363,-1.10E-07,9.576073918,0,-1.66E-07,0,120.4510412,86.38426732,-79.4281926,49.35020256,-48.23490102,-5.15E-08,-1.79E-07,0,-123.2295895,0,0,,,,
349.0639998,1363,-1.89E-07,126.5402152,0,-1.66E-07,0,-9.001247939,-47.11382571,-26.54989937,-51.20359634,87.53057065,-5.14E-08,-1.79E-07,0,-378.0539446,0,0,,,,
349.0719998,1363,-1.09E-07,-88.5582861,0,-1.66E-07,0,-33.89124062,-64.13828926,-1.908593982,211.5350361,-76.23315978,-5.14E-08,-1.79E-07,0,-1.668332623,0,0,,,,
349.0799998,1363,-1.69E-07,76.41216679,0,-1.66E-07,0,65.09237452,33.65147752,-140.0770012,-87.99764716,12.89531355,-5.14E-08,-1.79E-07,0,-279.4738843,0,0,,,,
349.0879998,1363,-1.08E-06,19.77947704,0,-1.66E-07,0,-93.29140979,-126.7127055,39.40461233,120.0594081,-20.1047307,-5.14E-08,-1.79E-07,0,-144.4711596,0,0,,,,
349.0959998,1363,-2.01E-06,-17.92878825,0,-1.66E-07,0,86.22938329,51.9284007,-90.44912034,44.20203046,-72.78023632,-5.13E-08,-1.79E-07,0,-54.44459368,0,0,,,,
349.1039998,1363,-1.70E-06,107.6916928,0,-1.66E-07,0,-17.50833411,-44.48235474,-36.39829261,-57.86579088,60.25770022,-5.13E-08,-1.79E-07,0,-329.5249008,0,0,,,,
349.1119998,1363,1.96E-07,-93.70111061,0,-1.65E-07,0,-4.442682441,-23.50610514,9.244881448,216.2136552,-73.73324216,-5.13E-08,-1.80E-07,0,13.86411401,0,0,,,,
349.1199998,1363,1.96E-06,71.15532091,0,-1.65E-07,0,100.9537699,85.16926317,-115.406957,-90.39019608,33.4091107,-5.12E-08,-1.80E-07,0,-278.5643217,0,0,,,,
349.1279998,1363,1.44E-06,5.373895713,0,-1.65E-07,0,-100.8795463,-105.6069216,62.39832853,127.2823898,-7.209850867,-5.12E-08,-1.80E-07,0,-159.0978516,0,0,,,,
349.1359998,1363,1.42E-06,-48.00803668,0,-1.65E-07,0,53.06478667,45.3309621,-88.30193517,60.81010689,-76.23762975,-5.12E-08,-1.80E-07,0,-53.33662946,0,0,,,,
349.1439998,1363,1.56E-06,111.7873829,0,-1.65E-07,0,-10.69103472,-15.10361677,-46.32413906,-85.25795208,56.71298994,-5.12E-08,-1.80E-07,0,-318.6321125,0,0,,,,
349.1519998,1363,4.35E-07,-21.98071964,0,-1.65E-07,0,34.63195762,48.2788097,15.47481833,214.5723847,-49.70126706,-5.11E-08,-1.80E-07,0,19.56760426,0,0,,,,
349.1599998,1363,-3.60E-07,121.6420113,0,-1.64E-07,0,113.4610214,128.6555788,-119.9593526,-42.75092533,78.04248446,-5.11E-08,-1.80E-07,0,-265.7639691,0,0,,,,
349.1679998,1363,-1.56E-07,3.640797923,0,-1.64E-07,0,-109.7604756,-87.28370831,43.8396993,137.2724356,1.331961645,-5.10E-08,-1.80E-07,0,-125.4554679,0,0,,,,
349.1759998,1363,-1.33E-07,-17.74190192,0,-1.64E-07,0,77.90641031,101.249386,-89.28640833,63.65405417,-67.08841927,-5.10E-08,-1.80E-07,0,-18.235012,0,0,,,,
349.1839998,1364,-2.16E-07,147.8537878,0,-1.64E-07,0,-24.22413501,-8.260799492,-45.85935943,-60.7382792,101.9177612,-5.10E-08,-1.80E-07,0,-307.7791705,0,0,,,,
349.1919998,1364,-1.35E-07,-51.72076472,0,-1.64E-07,0,-49.15550277,-32.78077235,3.062917372,193.1154012,-71.65846222,-5.09E-08,-1.81E-07,0,62.98676037,0,0,,,,
349.1999998,1364,-1.95E-07,101.5875695,0,-1.63E-07,0,84.05054944,89.9905488,-128.7280401,-113.2212554,13.79716412,-5.09E-08,-1.81E-07,0,-209.094356,0,0,,,,
349.2079998,1364,-1.55E-07,16.29330612,0,-1.63E-07,0,-91.74829898,-85.05491863,51.56358343,94.85404591,-0.959732982,-5.08E-08,-1.81E-07,0,-111.7796797,0,0,,,,
349.2159998,1364,-1.13E-06,-31.62386145,0,-1.63E-07,0,74.28388563,85.67063369,-82.44200676,60.16956131,-61.35911247,-5.08E-08,-1.81E-07,0,-7.12404938,0,0,,,,
349.2239998,1364,-2.02E-06,139.1055263,0,-1.63E-07,0,-25.43782829,-12.85918067,-45.55076532,-71.48856117,83.929849,-5.08E-08,-1.81E-07,0,-307.5231948,0,0,,,,
349.2319998,1364,-1.73E-06,-69.4133011,0,-1.63E-07,0,-54.15767943,-29.19038095,5.336152604,193.4103016,-81.40618417,-5.07E-08,-1.81E-07,0,59.35666605,0,0,,,,
349.2399998,1364,1.74E-07,70.28914944,0,-1.62E-07,0,63.09334138,88.06418176,-146.0149505,-103.4211169,14.23830173,-5.07E-08,-1.81E-07,0,-206.4990713,0,0,,,,
349.2479998,1364,1.93E-06,9.536702102,0,-1.62E-07,0,-115.6207644,-93.10461425,26.56786515,87.27106018,-4.159033501,-5.06E-08,-1.81E-07,0,-127.5842905,0,0,,,,
349.2559998,1364,1.42E-06,-41.88905698,0,-1.62E-07,0,76.60074745,97.93027779,-101.4197166,35.02370753,-84.28370036,-5.06E-08,-1.81E-07,0,-8.354590169,0,0,,,,
349.2639998,1364,1.40E-06,149.1999066,0,-1.62E-07,0,12.75795026,31.11474613,-47.88236162,-94.25760247,104.7804118,-5.05E-08,-1.81E-07,0,-313.1720022,0,0,,,,
349.2719998,1364,1.54E-06,-49.98102906,0,-1.61E-07,0,-21.82262835,-0.552044727,38.65159263,216.7824103,-38.03625157,-5.05E-08,-1.81E-07,0,59.00814109,0,0,,,,
349.2799998,1364,4.11E-07,80.70031323,0,-1.61E-07,0,76.43171544,101.9178253,-125.2381762,-79.77574979,13.69884348,-5.04E-08,-1.81E-07,0,-177.8988443,0,0,,,,
349.2879998,1364,-3.83E-07,40.28050457,0,-1.61E-07,0,-115.2730236,-86.85018394,38.66042232,82.47695154,21.40102107,-5.04E-08,-1.81E-07,0,-112.1506871,0,0,,,,
349.2959998,1364,-1.79E-07,-49.71450168,0,-1.61E-07,0,67.21803398,79.73478686,-69.57281333,35.09408364,-57.72405307,-5.03E-08,-1.81E-07,0,18.93244239,0,0,,,,
349.3039998,1364,-1.56E-07,133.9163647,0,-1.60E-07,0,-7.622119903,5.757375533,-48.40911595,-120.8289301,77.62869157,-5.02E-08,-1.81E-07,0,-288.7234521,0,0,,,,
349.3119998,1364,-2.39E-07,-27.63856936,0,-1.60E-07,0,-36.70781532,-6.595075009,13.26322122,167.9977172,-47.19132919,-5.02E-08,-1.81E-07,0,52.79742666,0,0,,,,
349.3199998,1364,-1.58E-07,89.57691069,0,-1.60E-07,0,101.042615,123.1276296,-127.3581754,-119.9704356,29.42340249,-5.01E-08,-1.81E-07,0,-176.7754461,0,0,,,,
349.3279998,1364,-2.17E-07,71.78397693,0,-1.60E-07,0,-78.92722862,-56.04769836,51.04498416,70.03465925,23.72787299,-5.01E-08,-1.81E-07,0,-92.59911573,0,0,,,,
349.3359998,1364,-1.77E-07,7.354281442,0,-1.59E-07,0,81.42410538,106.2984022,-66.02598974,69.66826497,-42.8994934,-5.00E-08,-1.81E-07,0,38.24562381,0,0,,,,
349.3439998,1364,-1.15E-06,169.0136381,0,-1.59E-07,0,0.345803647,17.42586435,-43.19951521,-85.24131636,95.10432606,-4.99E-08,-1.81E-07,0,-292.5392323,0,0,,,,
349.3519998,1364,-2.04E-06,2.77649945,0,-1.59E-07,0,-14.65259407,-4.798953246,35.78225155,183.9047289,-47.02814738,-4.99E-08,-1.81E-07,0,47.23321923,0,0,,,,
349.3599998,1364,-1.75E-06,111.883227,0,-1.59E-07,0,126.7170096,129.6097543,-108.9277066,-101.9440324,43.7810472,-4.98E-08,-1.81E-07,0,-195.7004693,0,0,,,,
349.3679998,1364,1.53E-07,77.92900799,0,-1.58E-07,0,-83.64835863,-70.8933648,57.04497901,86.78360312,52.65906983,-4.98E-08,-1.81E-07,0,-146.8338221,0,0,,,,
349.3759998,1364,1.91E-06,8.042080853,0,-1.58E-07,0,57.75574829,69.94902719,-67.62003682,65.68680121,-36.5288419,-4.97E-08,-1.81E-07,0,3.618531497,0,0,,,,
349.3839998,1364,1.40E-06,142.1147818,0,-1.58E-07,0,-21.86871385,-19.65396952,-45.82281257,-117.7042917,78.81824586,-4.96E-08,-1.81E-07,0,-298.3129115,0,0,,,,
349.3919998,1364,1.38E-06,-42.17132009,0,-1.58E-07,0,-56.34853074,-53.68574347,34.57803116,164.2246269,-70.06668653,-4.96E-08,-1.81E-07,0,58.39542744,0,0,,,,
349.3999998,1364,1.52E-06,111.2781712,0,-1.57E-07,0,95.32811765,98.16894548,-133.3027098,-118.9192629,0.662961881,-4.95E-08,-1.81E-07,0,-176.4548149,0,0,,,,
349.4079998,1364,1.34E-06,105.9723103,0,-1.57E-07,0,-73.18638956,-62.79918674,38.18085763,56.85682592,11.27280197,-4.94E-08,-1.81E-07,0,-146.5259441,0,0,,,,
349.4159998,1364,4.96E-07,-2.034859305,0,-1.57E-07,0,73.03760941,83.64441328,-60.63396418,58.40099522,-54.88792064,-4.94E-08,-1.81E-07,0,6.8690866,0,0,,,,
349.4239998,1364,-4.97E-07,127.3454494,0,-1.57E-07,0,-14.17997915,-1.933671048,-54.86481308,-128.4831737,65.91361527,-4.93E-08,-1.81E-07,0,-299.7736842,0,0,,,,
349.4319998,1364,-1.66E-07,-27.63664454,0,-1.56E-07,0,-40.28399789,-21.79134015,25.40277363,158.1520884,-72.46918022,-4.92E-08,-1.80E-07,0,31.01709457,0,0,,,,
349.4399998,1365,-2.16E-07,112.146113,0,-1.56E-07,0,112.5771844,123.67093,-122.7963834,-105.348836,14.07812841,-4.91E-08,-1.80E-07,0,-205.5856504,0,0,,,,
349.4479998,1365,-2.59E-07,74.37872743,0,-1.56E-07,0,-79.27874182,-61.46969322,45.38109974,72.02946781,27.28239438,-4.91E-08,-1.80E-07,0,-157.2460336,0,0,,,,
349.4559998,1365,-1.97E-07,-12.40308739,0,-1.55E-07,0,62.05446012,78.62461387,-60.6198395,93.66919423,-33.11413216,-4.90E-08,-1.80E-07,0,4.327117978,0,0,,,,
349.4639998,1365,-2.47E-07,132.6396283,0,-1.55E-07,0,-24.75605976,-19.35935403,-58.77597939,-99.96987507,89.48552274,-4.89E-08,-1.80E-07,0,-317.5504317,0,0,,,,
349.4719998,1365,-2.11E-07,-90.03834578,0,-1.55E-07,0,-66.99879937,-55.65184373,16.040949,153.4669366,-74.29678414,-4.88E-08,-1.80E-07,0,27.68571227,0,0,,,,
349.4799998,1365,-2.32E-07,42.66491135,0,-1.54E-07,0,95.12326381,106.3087242,-139.9781542,-118.4342199,15.76949665,-4.88E-08,-1.80E-07,0,-206.1653882,0,0,,,,
349.4879998,1365,-1.17E-06,53.84214588,0,-1.54E-07,0,-106.9747757,-95.97555067,27.77624509,61.73235064,21.92058654,-4.87E-08,-1.80E-07,0,-182.2240548,0,0,,,,
349.4959998,1365,-2.08E-06,-27.03584057,0,-1.54E-07,0,49.2157621,52.10977617,-65.27454012,48.90386785,-84.69317543,-4.86E-08,-1.80E-07,0,-1.500086836,0,0,,,,
349.5039998,1365,-1.78E-06,163.2826942,0,-1.53E-07,0,-6.421963477,-1.733761902,-47.39733893,-159.5137503,71.66620725,-4.85E-08,-1.80E-07,0,-318.826631,0,0,,,,
349.5119998,1365,-1.79E-06,-9.118598222,0,-1.53E-07,0,-52.67854635,-34.72161699,31.44592255,156.9595544,-53.6768102,-4.84E-08,-1.79E-07,0,29.62400461,0,0,,,,
349.5199998,1365,7.97E-08,121.4240212,0,-1.53E-07,0,141.6004541,150.7184987,-130.880553,-99.54180512,35.02977425,-4.84E-08,-1.79E-07,0,-196.0918686,0,0,,,,
349.5279998,1365,1.96E-06,100.857932,0,-1.53E-07,0,-75.55707953,-55.28786029,37.91710989,58.06467441,64.29961128,-4.83E-08,-1.79E-07,0,-193.3203944,0,0,,,,
349.5359998,1365,1.33E-06,-49.20945132,0,-1.52E-07,0,37.08924906,62.84534148,-70.29320469,75.67776029,-63.51052122,-4.82E-08,-1.79E-07,0,-1.661307996,0,0,,,,
349.5439998,1365,1.40E-06,111.7200656,0,-1.52E-07,0,4.446487369,15.73577811,-66.45399687,-123.7910345,69.56867795,-4.81E-08,-1.79E-07,0,-315.9560387,0,0,,,,
349.5519998,1365,1.48E-06,-37.65452042,0,-1.52E-07,0,-72.15567296,-57.6132982,25.43304497,169.9741218,-44.08349801,-4.80E-08,-1.79E-07,0,30.68602951,0,0,,,,
349.5599998,1365,1.34E-06,70.96384724,0,-1.51E-07,0,64.45473948,70.4802399,-143.8226785,-119.6529644,9.784134288,-4.79E-08,-1.79E-07,0,-165.4000387,0,0,,,,
349.5679998,1365,4.75E-07,58.17461749,0,-1.51E-07,0,-95.4090649,-97.06617332,23.00726048,24.13059034,24.31853903,-4.78E-08,-1.79E-07,0,-157.3757788,0,0,,,,
349.5759998,1365,-5.07E-07,-5.56870031,0,-1.51E-07,0,71.55248435,75.61009069,-76.66313126,68.24109335,-38.92719054,-4.78E-08,-1.79E-07,0,15.15346783,0,0,,,,
349.5839998,1365,-1.81E-07,171.2619638,0,-1.50E-07,0,13.43939636,17.80964817,-79.27186221,-135.9452245,118.4573136,-4.77E-08,-1.78E-07,0,-324.3514856,0,0,,,,
349.5919998,1365,-2.30E-07,-24.28552954,0,-1.50E-07,0,-42.22383451,-46.52976092,27.41227094,174.6812011,-30.60372781,-4.76E-08,-1.78E-07,0,14.38525212,0,0,,,,
349.5999998,1365,-2.73E-07,102.0271577,0,-1.49E-07,0,128.7853507,115.0324901,-127.2500285,-70.19457637,38.19551728,-4.75E-08,-1.78E-07,0,-196.3469365,0,0,,,,
349.6079998,1365,-2.11E-07,97.55066257,0,-1.49E-07,0,-87.57967758,-87.81412189,41.51508043,66.51519585,57.17669119,-4.74E-08,-1.78E-07,0,-198.9182986,0,0,,,,
349.6159998,1365,-2.61E-07,-33.64306988,0,-1.49E-07,0,14.6879326,25.14691109,-62.34032709,84.6785141,-78.79147206,-4.73E-08,-1.78E-07,0,16.89706441,0,0,,,,
349.6239998,1365,-2.24E-07,111.8792644,0,-1.48E-07,0,-41.99723532,-32.98562096,-80.21241068,-150.149938,63.63229307,-4.72E-08,-1.78E-07,0,-317.0134597,0,0,,,,
349.6319998,1365,-2.45E-07,-61.14333828,0,-1.48E-07,0,-90.70259426,-80.00543395,17.73082524,130.8722962,-57.62912564,-4.71E-08,-1.77E-07,0,9.874898559,0,0,,,,
349.6399998,1365,-2.31E-07,83.28900288,0,-1.48E-07,0,91.08855115,95.99052196,-158.2386547,-125.1734929,15.42135555,-4.70E-08,-1.77E-07,0,-190.3983785,0,0,,,,
349.6479998,1365,-1.19E-06,85.62845847,0,-1.47E-07,0,-106.236108,-101.0461435,4.952613087,33.38129065,65.42501803,-4.69E-08,-1.77E-07,0,-206.1320832,0,0,,,,
349.6559998,1365,-2.09E-06,-42.60187115,0,-1.47E-07,0,26.43637802,20.77064799,-77.84000355,79.54365679,-72.73099203,-4.68E-08,-1.77E-07,0,33.33858758,0,0,,,,
349.6639998,1365,-1.79E-06,140.847197,0,-1.47E-07,0,2.959474383,-7.245312894,-85.82945607,-141.1701306,64.23339831,-4.67E-08,-1.77E-07,0,-273.4613016,0,0,,,,
349.6719998,1365,1.10E-07,-8.502010086,0,-1.46E-07,0,-38.26850184,-35.77535678,35.79952367,190.8561693,-11.58428269,-4.66E-08,-1.77E-07,0,58.48352037,0,0,,,,
349.6799998,1365,1.87E-06,101.1169923,0,-1.46E-07,0,147.496474,141.712262,-123.6871278,-43.03131187,73.55879835,-4.65E-08,-1.76E-07,0,-136.5454687,0,0,,,,
349.6879998,1365,1.36E-06,83.69386968,0,-1.46E-07,0,-86.74293767,-87.61386229,33.11356057,83.18931021,87.74018497,-4.64E-08,-1.76E-07,0,-163.8205915,0,0,,,,
349.6959998,1366,1.34E-06,-14.72526834,0,-1.45E-07,0,36.46416731,40.52709556,-59.59203115,119.6843596,-58.1122427,-4.63E-08,-1.76E-07,0,56.81902919,0,0,,,,
349.7039998,1366,1.47E-06,204.0899631,0,-1.45E-07,0,-15.91312142,-21.02542764,-54.59805013,-148.4517632,129.4039902,-4.62E-08,-1.76E-07,0,-383.0700114,0,0,,,,
349.7119998,1366,1.30E-06,-40.72335419,0,-1.44E-07,0,-138.7448473,-142.2282613,83.32533375,234.6824094,-28.67425878,-4.61E-08,-1.76E-07,0,10.7790918,0,0,,,,
349.7199998,1366,1.41E-06,33.27243121,0,-1.44E-07,0,159.0802278,150.161855,-165.8819802,-25.92328372,-24.32050207,-4.60E-08,-1.75E-07,0,-57.25151334,0,0,,,,
349.7279998,1366,3.63E-07,204.9432349,0,-1.44E-07,0,-8.33241093,-10.75166085,-53.15003498,-138.8271888,155.2176775,-4.59E-08,-1.75E-07,0,-408.6714399,0,0,,,,
349.7359998,1366,-5.02E-07,18.20744279,0,-1.43E-07,0,8.94263942,14.05075762,-44.75967085,100.1995853,-20.34611893,-4.58E-08,-1.75E-07,0,-89.08631013,0,0,,,,
349.7439998,1366,-2.45E-07,132.437171,0,-1.43E-07,0,-14.70297452,-25.52407331,-45.19223637,-34.40573081,90.75952355,-4.57E-08,-1.75E-07,0,-313.3681223,0,0,,,,
349.7519998,1366,-2.55E-07,4.004891037,0,-1.43E-07,0,-137.1467364,-150.2837895,59.32266012,159.6871519,24.90442591,-4.56E-08,-1.74E-07,0,-135.4157024,0,0,,,,
349.7599998,1366,-3.18E-07,-132.2066228,0,-1.42E-07,0,137.7292481,133.2815961,-143.2462966,164.8721449,-176.7018903,-4.55E-08,-1.74E-07,0,168.2304418,0,0,,,,
349.7679998,1366,-2.46E-07,-37.35271732,0,-1.42E-07,0,-33.98875475,-34.50453032,13.71453101,184.7242881,-68.51236134,-4.54E-08,-1.74E-07,0,23.40318016,0,0,,,,
349.7759998,1366,-2.99E-07,-117.5455134,0,-1.41E-07,0,-82.51456718,-80.44273025,60.40165401,313.6243877,-118.6757709,-4.53E-08,-1.74E-07,0,158.6370316,0,0,,,,
349.7839998,1366,-2.61E-07,-79.33431166,0,-1.41E-07,0,51.4651772,49.98153929,-61.6239608,172.3572177,-118.8840835,-4.52E-08,-1.73E-07,0,96.20792109,0,0,,,,
349.7919998,1366,-2.82E-07,36.48097922,0,-1.41E-07,0,-2.946880644,-11.66334447,-13.58354923,81.20205551,18.13313881,-4.51E-08,-1.73E-07,0,-107.6697002,0,0,,,,
349.7999998,1366,-2.68E-07,108.6621413,0,-1.40E-07,0,82.09876522,60.79219209,-76.50134878,-61.1987151,99.05317838,-4.49E-08,-1.73E-07,0,-238.0420292,0,0,,,,
349.8079998,1366,-2.73E-07,2.599423643,0,-1.40E-07,0,-20.70226324,-38.9014197,18.9444388,95.49760349,17.47359562,-4.48E-08,-1.73E-07,0,-67.29825936,0,0,,,,
349.8159998,1366,-2.69E-07,-13.71470025,0,-1.39E-07,0,31.59555577,15.07483685,-49.51704507,41.05705317,-23.72244131,-4.47E-08,-1.72E-07,0,-39.59486678,0,0,,,,
349.8239998,1366,-2.69E-07,80.7086132,0,-1.39E-07,0,16.84281114,-11.39645328,-53.94013813,-110.4443876,81.50868355,-4.46E-08,-1.72E-07,0,-240.5645505,0,0,,,,
349.8319998,1366,-1.22E-06,-78.6154787,0,-1.39E-07,0,-71.40258874,-86.97164216,24.22470475,116.0969217,-42.71469478,-4.45E-08,-1.72E-07,0,38.11630906,0,0,,,,
349.8399998,1366,-2.12E-06,28.63559849,0,-1.38E-07,0,51.43113843,42.5245833,-137.5505737,-114.3961401,-9.788585675,-4.44E-08,-1.72E-07,0,-134.4813655,0,0,,,,
349.8479998,1366,-1.82E-06,38.87616032,0,-1.38E-07,0,-72.37014308,-84.03080359,-5.537621891,-6.93181198,34.73253313,-4.43E-08,-1.71E-07,0,-135.5507309,0,0,,,,
349.8559998,1366,-1.83E-06,-39.79727666,0,-1.37E-07,0,33.72985131,27.43022771,-66.49250439,71.20436851,-36.6252448,-4.42E-08,-1.71E-07,0,41.85792068,0,0,,,,
349.8639998,1366,3.70E-08,84.95670391,0,-1.37E-07,0,3.280934694,-4.050568341,-103.0185611,-124.6337115,78.78731076,-4.40E-08,-1.71E-07,0,-262.8237409,0,0,,,,
349.8719998,1366,1.92E-06,-82.7532148,0,-1.36E-07,0,-96.07092245,-109.5393341,4.343116439,145.2004512,-38.31786931,-4.39E-08,-1.71E-07,0,14.16687723,0,0,,,,
349.8799998,1366,1.29E-06,38.12041476,0,-1.36E-07,0,89.94084148,65.66280801,-160.1430315,-83.40079439,2.676364914,-4.38E-08,-1.70E-07,0,-127.4581344,0,0,,,,
349.8879998,1366,1.36E-06,64.85382367,0,-1.36E-07,0,-67.79596563,-79.48150186,-19.77732547,11.52291398,56.88893399,-4.37E-08,-1.70E-07,0,-174.2589679,0,0,,,,
349.8959998,1366,1.44E-06,-58.06449979,0,-1.35E-07,0,9.282639322,10.81677641,-83.47367655,119.3710107,-61.7984334,-4.36E-08,-1.70E-07,0,67.5024008,0,0,,,,
349.9039998,1366,1.30E-06,115.1649277,0,-1.35E-07,0,-1.315824932,-3.079065177,-126.3256028,-147.9255606,63.52128299,-4.34E-08,-1.69E-07,0,-261.9327509,0,0,,,,
349.9119998,1366,1.39E-06,-53.87839255,0,-1.34E-07,0,-100.3970874,-93.59745142,0.988709806,146.5582203,-29.76681058,-4.33E-08,-1.69E-07,0,41.89352859,0,0,,,,
349.9199998,1366,3.52E-07,17.60012751,0,-1.34E-07,0,70.01061217,75.0815604,-174.8241612,-53.62876884,2.019047516,-4.32E-08,-1.69E-07,0,-59.56765477,0,0,,,,
349.9279998,1366,-5.18E-07,65.35940078,0,-1.33E-07,0,-90.29285333,-77.72602374,-29.7059944,5.516713028,57.89399245,-4.31E-08,-1.69E-07,0,-147.4363324,0,0,,,,
349.9359998,1366,-2.59E-07,-33.71631018,0,-1.33E-07,0,12.39171526,41.66802065,-75.30226121,121.6824485,-44.96760162,-4.30E-08,-1.68E-07,0,95.90041808,0,0,,,,
349.9439998,1366,-2.69E-07,154.5504345,0,-1.33E-07,0,13.1098688,34.1886907,-115.0989796,-142.6141676,91.77963275,-4.28E-08,-1.68E-07,0,-254.3524358,0,0,,,,
349.9519998,1367,-3.31E-07,-25.22112289,0,-1.32E-07,0,-102.8503038,-78.90443873,26.33464861,142.2424155,-18.7818937,-4.27E-08,-1.68E-07,0,15.86580475,0,0,,,,
349.9599998,1367,-2.59E-07,40.03350587,0,-1.32E-07,0,66.74675261,99.19163954,-154.6993404,-75.07407175,-3.969835779,-4.26E-08,-1.67E-07,0,-98.98500596,0,0,,,,
349.9679998,1367,-3.13E-07,93.26411557,0,-1.31E-07,0,-76.80396391,-48.46685925,-9.205564344,-14.39422861,52.75848446,-4.25E-08,-1.67E-07,0,-187.2273318,0,0,,,,
349.9759998,1367,-2.74E-07,-35.12792972,0,-1.31E-07,0,33.36470993,64.64948079,-37.44910608,114.8056282,-45.4369201,-4.23E-08,-1.67E-07,0,71.18846816,0,0,,,,
349.9839998,1367,-2.95E-07,146.6829322,0,-1.30E-07,0,36.88203259,66.45178163,-92.48253424,-152.3567314,100.3194313,-4.22E-08,-1.66E-07,0,-271.136305,0,0,,,,
349.9919998,1367,-2.81E-07,-24.06124558,0,-1.30E-07,0,-69.39536083,-41.31446536,35.94178406,137.1900404,0.647908444,-4.21E-08,-1.66E-07,0,16.39685598,0,0,,,,
349.9999998,1367,-2.86E-07,50.92159898,0,-1.30E-07,0,100.1163666,128.2556542,-143.254465,-77.02002921,40.9484977,-4.20E-08,-1.66E-07,0,-92.4143827,0,0,,,,
350.0079998,1367,-2.81E-07,93.73935125,0,-1.29E-07,0,-94.63032444,-75.03407694,-15.54769263,-14.37997532,88.28406089,-4.18E-08,-1.65E-07,0,-171.7160481,0,0,,,,
350.0159998,1367,-2.81E-07,-98.76235761,0,-1.29E-07,0,-22.05603516,-3.627213013,-72.75834758,110.0207391,-70.35717828,-4.17E-08,-1.65E-07,0,114.6914734,0,0,,,,
350.0239998,1367,-2.79E-07,80.88560142,0,-1.28E-07,0,3.493997015,27.9360955,-134.5045155,-174.944465,74.75577733,-4.16E-08,-1.65E-07,0,-258.2300274,0,0,,,,
350.0319998,1367,-2.78E-07,-47.71196005,0,-1.28E-07,0,-84.34296361,-60.86812282,23.89129867,135.3162243,-4.881694343,-4.14E-08,-1.64E-07,0,0.427276555,0,0,,,,
350.0399998,1367,-1.23E-06,18.92567326,0,-1.27E-07,0,91.7451164,112.5509989,-143.691753,-64.21008528,21.36996827,-4.13E-08,-1.64E-07,0,-107.5307374,0,0,,,,
350.0479998,1367,-2.13E-06,81.95674926,0,-1.27E-07,0,-88.13645278,-60.92921568,-19.55665562,-16.90119968,83.63788333,-4.12E-08,-1.64E-07,0,-216.7481686,0,0,,,,
350.0559998,1367,-1.83E-06,-69.73007659,0,-1.26E-07,0,2.148555219,28.13447364,-53.21515166,129.5712171,-62.87646358,-4.11E-08,-1.63E-07,0,77.17986137,0,0,,,,
350.0639998,1367,-1.84E-06,89.24528087,0,-1.26E-07,0,18.11422549,45.31468504,-111.5010908,-161.0627023,69.6191945,-4.09E-08,-1.63E-07,0,-267.6553126,0,0,,,,
350.0719998,1367,2.85E-08,-66.27368671,0,-1.25E-07,0,-92.1821143,-56.4209466,36.74816772,119.8979615,-6.242416219,-4.08E-08,-1.63E-07,0,4.412745848,0,0,,,,
350.0799998,1367,1.91E-06,19.31619091,0,-1.25E-07,0,93.68305428,123.396239,-130.413496,-78.77613666,18.41999635,-4.07E-08,-1.62E-07,0,-77.00479276,0,0,,,,
350.0879998,1367,1.28E-06,76.85004688,0,-1.24E-07,0,-85.25988978,-48.65243251,-15.74761466,-45.00387431,63.25639928,-4.05E-08,-1.62E-07,0,-178.9158613,0,0,,,,
350.0959998,1367,1.35E-06,-96.31226008,0,-1.24E-07,0,7.424971492,43.8902641,-56.11870968,97.00976359,-68.56646373,-4.04E-08,-1.62E-07,0,109.5964101,0,0,,,,
350.1039998,1367,1.43E-06,97.06648755,0,-1.24E-07,0,30.57999001,49.48678932,-110.8222017,-188.7899455,89.27091777,-4.03E-08,-1.61E-07,0,-238.687758,0,0,,,,
350.1119998,1367,1.29E-06,-54.04535833,0,-1.23E-07,0,-132.010005,-103.9993529,26.40136295,104.6588341,-18.55416942,-4.01E-08,-1.61E-07,0,50.94713316,0,0,,,,
350.1199998,1367,1.38E-06,4.305311451,0,-1.23E-07,0,54.91040219,79.43487629,-160.9974077,-76.20642682,-33.86400971,-4.00E-08,-1.61E-07,0,-24.37994614,0,0,,,,
350.1279998,1367,1.30E-06,87.62087542,0,-1.22E-07,0,-63.18898157,-53.02647236,-28.4012114,-49.32812417,52.21972475,-3.99E-08,-1.60E-07,0,-162.2702636,0,0,,,,
350.1359998,1367,1.33E-06,-77.92099955,0,-1.22E-07,0,4.344172492,19.42621721,-61.32025748,95.32646301,-45.32379025,-3.97E-08,-1.60E-07,0,133.2127368,0,0,,,,
350.1439998,1367,1.29E-06,109.2227772,0,-1.21E-07,0,20.19453063,27.0805189,-131.2544174,-192.6370237,89.28158347,-3.96E-08,-1.59E-07,0,-220.468437,0,0,,,,
350.1519998,1367,3.36E-07,-36.83038787,0,-1.21E-07,0,-73.54107437,-74.06486082,40.74096978,101.3580769,-18.17794806,-3.95E-08,-1.59E-07,0,41.89834465,0,0,,,,
350.1599998,1367,-5.83E-07,-2.383729294,0,-1.20E-07,0,107.6463788,116.1563107,-134.5572035,-66.73612178,-9.124049713,-3.93E-08,-1.59E-07,0,-20.17678182,0,0,,,,
350.1679998,1367,-2.96E-07,88.06300038,0,-1.20E-07,0,-67.2557015,-47.15034723,-20.06980109,-38.69561863,76.01860867,-3.92E-08,-1.58E-07,0,-167.3586396,0,0,,,,
350.1759998,1367,-3.20E-07,-58.69613862,0,-1.19E-07,0,27.83053103,49.53019806,-32.84047582,123.4874535,-55.59027107,-3.90E-08,-1.58E-07,0,138.2904141,0,0,,,,
350.1839998,1367,-3.75E-07,119.0150023,0,-1.19E-07,0,52.74428062,71.46607398,-106.4567299,-175.3171265,77.59682599,-3.89E-08,-1.58E-07,0,-196.5031523,0,0,,,,
350.1919998,1367,-3.06E-07,-26.9329222,0,-1.18E-07,0,-92.82787733,-72.99260532,40.11723334,83.5005732,-10.52439368,-3.88E-08,-1.57E-07,0,59.1682346,0,0,,,,
350.1999998,1367,-3.58E-07,-0.230085623,0,-1.18E-07,0,106.1078692,118.393309,-135.1848974,-96.01984317,-2.059599902,-3.86E-08,-1.57E-07,0,-1.948831307,0,0,,,,
350.2079998,1368,-3.19E-07,90.59729084,0,-1.17E-07,0,-54.23607274,-41.50336818,-22.85780475,-73.69468069,71.17157782,-3.85E-08,-1.56E-07,0,-146.4895622,0,0,,,,
350.2159998,1368,-3.40E-07,-40.68461744,0,-1.17E-07,0,7.803931272,23.275646,-51.33166211,107.8605643,-74.19088165,-3.83E-08,-1.56E-07,0,176.1880355,0,0,,,,
350.2239998,1368,-3.25E-07,134.4445531,0,-1.16E-07,0,32.63528362,43.70463005,-132.9587943,-172.0373277,73.31547181,-3.82E-08,-1.56E-07,0,-170.8477986,0,0,,,,
350.2319998,1368,-3.30E-07,-5.323480751,0,-1.16E-07,0,-103.8972104,-91.98248336,25.24908051,107.2983633,-8.823725909,-3.81E-08,-1.55E-07,0,66.02358628,0,0,,,,
350.2399998,1368,-3.25E-07,-8.48255121,0,-1.16E-07,0,120.3660949,124.5754657,-142.6093219,25.84261781,-50.66855656,-3.79E-08,-1.55E-07,0,120.8150787,0,0,,,,
350.2479998,1368,-3.24E-07,43.47336954,0,-1.15E-07,0,-66.12728108,-65.26480623,36.86393269,135.0691535,16.1339112,-3.78E-08,-1.54E-07,0,31.52815377,0,0,,,,
350.2559998,1368,-3.22E-07,-123.7728648,0,-1.14E-07,0,-102.7092044,-98.84722779,117.7337614,384.9408136,-114.0360903,-3.76E-08,-1.54E-07,0,345.461624,0,0,,,,
350.2639998,1368,-3.20E-07,16.09647501,0,-1.14E-07,0,26.93275673,28.14221339,-46.76233241,89.32723219,-17.89852833,-3.75E-08,-1.54E-07,0,80.62016806,0,0,,,,
350.2719998,1368,-3.18E-07,30.44330812,0,-1.13E-07,0,-25.90992609,-24.44594599,-4.454449633,97.78843491,-2.433698996,-3.73E-08,-1.53E-07,0,46.91002259,0,0,,,,
350.2799998,1368,-3.16E-07,107.8932246,0,-1.13E-07,0,67.5211274,69.60843597,-126.6312204,-111.9959322,43.34398497,-3.72E-08,-1.53E-07,0,-103.3782905,0,0,,,,
350.2879998,1368,-3.15E-07,75.99902365,0,-1.13E-07,0,-57.36811101,-50.08433551,-24.76744405,7.737427668,30.79310545,-3.71E-08,-1.52E-07,0,-41.86759724,0,0,,,,
350.2959998,1368,-3.13E-07,-5.145077142,0,-1.12E-07,0,4.137277301,14.40126086,-67.41224243,79.83888766,-64.91497096,-3.69E-08,-1.52E-07,0,143.7931856,0,0,,,,
350.3039998,1368,-3.11E-07,164.9586821,0,-1.12E-07,0,15.30010914,22.03980645,-127.750776,-166.6706929,65.27441054,-3.68E-08,-1.51E-07,0,-150.7558622,0,0,,,,
350.3119998,1368,-3.09E-07,35.38098948,0,-1.11E-07,0,-56.28388884,-51.17632587,22.62814036,136.5225694,-15.29724886,-3.66E-08,-1.51E-07,0,130.1118089,0,0,,,,
350.3199998,1368,-3.07E-07,119.2611767,0,-1.11E-07,0,133.1302262,133.2773879,-131.500721,-37.05355928,44.30617589,-3.65E-08,-1.51E-07,0,1.774920662,0,0,,,,
350.3279998,1368,-1.26E-06,139.565795,0,-1.10E-07,0,-39.94785704,-35.0565025,-22.72649486,9.884140426,113.8085482,-3.63E-08,-1.50E-07,0,-84.57073651,0,0,,,,
350.3359998,1368,-2.16E-06,-28.26071261,0,-1.10E-07,0,11.44050296,17.16234339,-39.21227887,151.0947509,-48.15777063,-3.62E-08,-1.50E-07,0,208.9784707,0,0,,,,
350.3439998,1368,-1.86E-06,155.6838219,0,-1.09E-07,0,46.87109513,43.05078644,-110.352485,-123.7979032,62.71403164,-3.60E-08,-1.49E-07,0,-115.9454246,0,0,,,,
350.3519998,1368,-1.87E-06,43.22402082,0,-1.09E-07,0,-97.71027962,-92.28249549,41.70280125,148.528553,-11.01510957,-3.59E-08,-1.49E-07,0,130.924167,0,0,,,,
350.3599998,1368,-1.91E-06,92.11457541,0,-1.08E-07,0,116.2201444,117.3558643,-124.9038001,-22.85855762,-8.927402804,-3.57E-08,-1.48E-07,0,72.91837865,0,0,,,,
350.3679998,1368,-1.82E-06,158.0101814,0,-1.08E-07,0,-26.87905002,-29.32650568,-14.87145766,-9.599260119,86.43949256,-3.56E-08,-1.48E-07,0,-102.3635666,0,0,,,,
350.3759998,1368,4.70E-08,-6.604603321,0,-1.07E-07,0,17.64119728,29.39374378,-33.9140594,176.5870539,-55.27585475,-3.55E-08,-1.48E-07,0,204.5763861,0,0,,,,
350.3839998,1368,1.90E-06,174.1072694,0,-1.07E-07,0,75.05692178,79.93264772,-122.7318393,-114.1337325,75.84580858,-3.53E-08,-1.47E-07,0,-130.773298,0,0,,,,
350.3919998,1368,1.30E-06,23.13808254,0,-1.06E-07,0,-113.2736948,-105.8485947,37.57251587,151.6727553,8.721546063,-3.52E-08,-1.47E-07,0,85.3309641,0,0,,,,
350.3999998,1368,1.35E-06,20.26646125,0,-1.06E-07,0,52.10156643,62.16551057,-148.3271788,-8.444712093,-40.55713594,-3.50E-08,-1.46E-07,0,73.85984183,0,0,,,,
350.4079998,1368,1.44E-06,145.0326325,0,-1.05E-07,0,-52.64971369,-54.97736291,-47.51079584,-23.704707,63.71048587,-3.49E-08,-1.46E-07,0,-106.8631545,0,0,,,,
350.4159998,1368,1.30E-06,17.72920403,0,-1.05E-07,0,36.56670486,30.76540019,-34.5902362,195.9593916,-26.97078232,-3.47E-08,-1.45E-07,0,214.406262,0,0,,,,
350.4239998,1368,1.39E-06,171.3230566,0,-1.04E-07,0,73.26238711,68.56525939,-118.1387887,-91.96640832,88.43979461,-3.46E-08,-1.45E-07,0,-117.4603459,0,0,,,,
350.4319998,1368,1.30E-06,39.46500388,0,-1.04E-07,0,-93.85599878,-95.19959202,52.69106097,157.3273214,-12.99208356,-3.44E-08,-1.44E-07,0,98.69894825,0,0,,,,
350.4399998,1368,1.33E-06,68.55069711,0,-1.03E-07,0,125.2635414,118.1209894,-116.7849408,18.39008078,-21.30512515,-3.43E-08,-1.44E-07,0,83.53990035,0,0,,,,
350.4479998,1368,1.30E-06,160.5270056,0,-1.03E-07,0,-17.00412791,-24.39064986,-17.30974405,2.63092192,98.53396987,-3.41E-08,-1.43E-07,0,-126.6218149,0,0,,,,
350.4559998,1368,1.30E-06,-17.4817819,0,-1.02E-07,0,24.53792217,19.86618667,-6.856708061,213.8961755,-40.24696294,-3.40E-08,-1.43E-07,0,209.1644735,0,0,,,,
350.4639998,1369,1.28E-06,141.0997266,0,-1.02E-07,0,77.69932043,69.38566628,-112.2199619,-72.23603847,80.20108993,-3.38E-08,-1.43E-07,0,-120.7086367,0,0,,,,
350.4719998,1369,1.27E-06,21.94586503,0,-1.01E-07,0,-88.72454157,-93.04087555,49.53625699,177.9105297,10.15331652,-3.37E-08,-1.42E-07,0,72.81781164,0,0,,,,
350.4799998,1369,1.25E-06,36.23562897,0,-1.01E-07,0,101.4699049,95.31235326,-119.7534701,33.67580135,-2.971066385,-3.35E-08,-1.42E-07,0,59.06582803,0,0,,,,
350.4879998,1369,1.24E-06,128.818675,0,-1.00E-07,0,-38.75649161,-48.31154685,-31.24514968,15.16863081,91.78700632,-3.33E-08,-1.41E-07,0,-146.8685319,0,0,,,,
350.4959998,1369,1.23E-06,-40.83968796,0,-9.95E-08,0,25.96518341,13.23430743,-17.58581382,224.2825767,-61.85961295,-3.32E-08,-1.41E-07,0,202.107376,0,0,,,,
350.5039998,1369,2.60E-07,128.4623563,0,-9.90E-08,0,72.62895656,61.56917954,-122.7014481,-83.19746643,68.38291174,-3.30E-08,-1.40E-07,0,-129.5971875,0,0,,,,
350.5119998,1369,-6.52E-07,1.371269438,0,-9.85E-08,0,-104.9517462,-110.8107314,35.94080379,160.8261803,-10.33928885,-3.29E-08,-1.40E-07,0,69.09404742,0,0,,,,
350.5199998,1369,-3.67E-07,-6.42877782,0,-9.80E-08,0,102.0892894,85.61643365,-130.6671988,10.28055335,-33.64286127,-3.27E-08,-1.39E-07,0,81.68863194,0,0,,,,
350.5279998,1369,-3.90E-07,101.0227316,0,-9.75E-08,0,-46.42064334,-59.49864178,-47.34669027,-33.59692417,77.65992024,-3.26E-08,-1.39E-07,0,-139.3784758,0,0,,,,
350.5359998,1369,-4.44E-07,-58.06535558,0,-9.69E-08,0,-0.898734867,-6.162708244,-41.84133808,187.3825914,-81.18711846,-3.24E-08,-1.38E-07,0,198.830563,0,0,,,,
350.5439998,1369,-3.75E-07,108.2064825,0,-9.64E-08,0,76.79170732,60.86527676,-139.8787588,-104.1073075,50.79110452,-3.23E-08,-1.38E-07,0,-127.9109078,0,0,,,,
350.5519998,1369,-4.26E-07,-0.453418403,0,-9.59E-08,0,-85.32662458,-99.62277733,43.95077282,154.6031209,-6.704221802,-3.21E-08,-1.37E-07,0,61.79851794,0,0,,,,
350.5599998,1369,-3.87E-07,6.95974614,0,-9.54E-08,0,112.1965379,99.40530619,-108.079726,24.87441384,-34.9983389,-3.20E-08,-1.37E-07,0,72.40915251,0,0,,,,
350.5679998,1369,-4.06E-07,107.669147,0,-9.49E-08,0,-47.3844499,-60.48924098,-28.2719419,-37.12799228,75.26552567,-3.18E-08,-1.36E-07,0,-154.34396,0,0,,,,
350.5759998,1369,-3.92E-07,-70.04393236,0,-9.44E-08,0,-34.90820371,-46.79997232,-33.64828547,167.9692594,-97.16301833,-3.17E-08,-1.36E-07,0,201.3175651,0,0,,,,
350.5839998,1369,-3.95E-07,100.9704704,0,-9.39E-08,0,64.61044661,40.9481859,-139.3518961,-131.5834844,22.6373643,-3.15E-08,-1.35E-07,0,-125.3802566,0,0,,,,
350.5919998,1369,-3.90E-07,-10.48972573,0,-9.33E-08,0,-68.17450608,-92.84574072,49.79639487,145.4540475,-8.877497959,-3.13E-08,-1.35E-07,0,40.47345681,0,0,,,,
350.5999998,1369,-3.89E-07,-6.607925374,0,-9.28E-08,0,126.4823874,105.1183859,-115.2021775,45.61848953,-19.27542503,-3.12E-08,-1.34E-07,0,59.89872932,0,0,,,,
350.6079998,1369,-3.86E-07,98.36186999,0,-9.23E-08,0,-28.11835284,-43.67258845,-41.4426764,-21.15595484,97.49396488,-3.10E-08,-1.34E-07,0,-167.445749,0,0,,,,
350.6159998,1369,-3.84E-07,-113.665539,0,-9.18E-08,0,-17.66492968,-30.50103538,-27.24972086,196.5881475,-85.95545441,-3.09E-08,-1.33E-07,0,197.4825251,0,0,,,,
350.6239998,1369,-3.81E-07,74.40289281,0,-9.13E-08,0,87.94835112,64.35747779,-144.5737853,-109.1441915,38.31381498,-3.07E-08,-1.33E-07,0,-128.4122967,0,0,,,,
350.6319998,1369,-3.79E-07,6.351054755,0,-9.08E-08,0,-81.86825892,-97.72125695,26.23404546,143.0417052,13.72778745,-3.06E-08,-1.32E-07,0,11.72972412,0,0,,,,
350.6399998,1369,-3.76E-07,-13.81945569,0,-9.02E-08,0,102.6915066,78.64897137,-127.9086091,40.20402255,-48.64335869,-3.04E-08,-1.32E-07,0,38.73346403,0,0,,,,
350.6479998,1369,-3.74E-07,89.80647609,0,-8.97E-08,0,11.57343229,-31.18449179,-27.86543857,-13.04055844,68.21568667,-3.03E-08,-1.31E-07,0,-184.7006307,0,0,,,,
350.6559998,1369,-3.72E-07,-88.16562003,0,-8.92E-08,0,26.70626251,-2.741905694,0.224417984,239.1997169,-48.92844269,-3.01E-08,-1.31E-07,0,177.9411983,0,0,,,,
350.6639998,1369,-3.69E-07,71.10268277,0,-8.87E-08,0,87.98287276,65.78152205,-126.1254202,-77.2714255,62.43943214,-2.99E-08,-1.30E-07,0,-123.1207806,0,0,,,,
350.6719998,1369,-3.67E-07,-25.7658917,0,-8.82E-08,0,-88.26809932,-101.1426677,50.79392603,148.161764,-9.963287318,-2.98E-08,-1.30E-07,0,50.84844216,0,0,,,,
350.6799998,1369,-3.65E-07,4.147379067,0,-8.76E-08,0,108.4980752,105.4365757,-111.6201108,55.15328146,-40.31416531,-2.96E-08,-1.29E-07,0,80.72741192,0,0,,,,
350.6879998,1369,-3.63E-07,117.2362446,0,-8.71E-08,0,-15.92446164,-18.30422571,-44.0906468,-10.80273514,97.24605209,-2.95E-08,-1.29E-07,0,-169.4935081,0,0,,,,
350.6959998,1369,-3.60E-07,-82.51759585,0,-8.66E-08,0,-10.67277864,-1.9021972,-14.98210972,223.7742888,-69.2973061,-2.93E-08,-1.28E-07,0,187.7001022,0,0,,,,
350.7039998,1369,-3.58E-07,122.9190521,0,-8.61E-08,0,91.25957753,104.4770571,-136.6042293,-79.0794563,41.03939325,-2.92E-08,-1.28E-07,0,-133.8687031,0,0,,,,
350.7119998,1369,-3.56E-07,28.42086989,0,-8.56E-08,0,-73.9322814,-62.15321477,44.83790543,164.1010727,10.96362516,-2.90E-08,-1.27E-07,0,29.72820632,0,0,,,,
350.7199998,1370,-3.53E-07,6.257691287,0,-8.50E-08,0,113.3317515,116.8639727,-95.14610147,62.80726972,-29.65428652,-2.88E-08,-1.27E-07,0,93.83339896,0,0,,,,
350.7279998,1370,-3.51E-07,118.8553513,0,-8.45E-08,0,-37.54163896,-30.58109963,-36.10467854,-18.44160917,74.69410304,-2.87E-08,-1.26E-07,0,-145.4366218,0,0,,,,
350.7359998,1370,-3.49E-07,-63.67474723,0,-8.40E-08,0,-25.69855726,-12.35215073,-27.34260703,221.9419064,-88.26440322,-2.85E-08,-1.26E-07,0,217.8427042,0,0,,,,
350.7439998,1370,-3.47E-07,144.3100178,0,-8.35E-08,0,107.0283066,113.6165686,-149.5152183,-95.44897525,40.66653808,-2.84E-08,-1.25E-07,0,-116.369228,0,0,,,,
350.7519998,1370,-3.45E-07,-5.134985192,0,-8.30E-08,0,-193.9080699,-174.3983172,131.4566254,279.9610758,-9.124244659,-2.82E-08,-1.25E-07,0,102.0227207,0,0,,,,
350.7599998,1370,-3.42E-07,-130.0992895,0,-8.24E-08,0,-74.21447079,-54.61796017,58.05863413,371.0584877,-124.3653063,-2.81E-08,-1.24E-07,0,355.1262584,0,0,,,,
350.7679998,1370,-3.40E-07,117.3037032,0,-8.19E-08,0,62.15477484,70.32898359,-93.01869484,-30.13534647,49.95660311,-2.79E-08,-1.24E-07,0,-87.78740455,0,0,,,,
350.7759998,1370,-3.38E-07,79.40655655,0,-8.14E-08,0,52.01794263,63.17828944,-64.56466235,44.22828041,41.68827857,-2.77E-08,-1.23E-07,0,-10.53635611,0,0,,,,
350.7839998,1370,-3.36E-07,86.75880027,0,-8.09E-08,0,0.389027011,17.55104969,-40.53122684,75.76639247,39.4609932,-2.76E-08,-1.23E-07,0,14.98821355,0,0,,,,
350.7919998,1370,-3.34E-07,49.38644337,0,-8.04E-08,0,-1.679013621,16.67055091,-67.74899765,87.99401618,-15.64136412,-2.74E-08,-1.22E-07,0,80.63310635,0,0,,,,
350.7999998,1370,-3.31E-07,108.5071219,0,-7.98E-08,0,66.62339329,69.36787023,-112.8293123,-15.83942551,18.35524084,-2.73E-08,-1.22E-07,0,-24.9793949,0,0,,,,
350.8079998,1370,-3.29E-07,80.08410932,0,-7.93E-08,0,-52.87349455,-45.50039733,-0.134531354,102.5455595,15.0231627,-2.71E-08,-1.21E-07,0,22.92573655,0,0,,,,
350.8159998,1370,-3.27E-07,34.66683907,0,-7.88E-08,0,36.53784269,63.46696559,-119.9817557,24.45911362,-38.75996704,-2.69E-08,-1.21E-07,0,69.4600085,0,0,,,,
350.8239998,1370,-3.25E-07,103.9731424,0,-7.83E-08,0,-26.39902056,-0.101118962,-78.91520773,-33.35737982,37.54431852,-2.68E-08,-1.20E-07,0,-117.1665633,0,0,,,,
350.8319998,1370,-3.23E-07,5.274231546,0,-7.77E-08,0,9.459000054,27.86318568,-34.34553122,177.0445295,-35.09442114,-2.66E-08,-1.20E-07,0,129.3606354,0,0,,,,
350.8399998,1370,-3.21E-07,146.5008079,0,-7.72E-08,0,106.69612,123.5866947,-131.9466502,-60.32442343,68.43635571,-2.65E-08,-1.19E-07,0,-90.21375497,0,0,,,,
350.8479998,1370,-3.19E-07,48.18780871,0,-7.67E-08,0,-63.83845065,-41.79336454,31.96523479,99.81149983,45.61514826,-2.63E-08,-1.18E-07,0,3.128261956,0,0,,,,
350.8559998,1370,-3.17E-07,0.988730793,0,-7.62E-08,0,67.59299679,83.11652806,-86.23284098,29.84373846,-28.58804398,-2.61E-08,-1.18E-07,0,92.50795222,0,0,,,,
350.8639998,1370,-3.15E-07,142.7231719,0,-7.57E-08,0,-8.186560092,5.865940202,-41.95397189,-80.45312297,66.51627843,-2.60E-08,-1.17E-07,0,-129.4854624,0,0,,,,
350.8719998,1370,-3.13E-07,16.84529439,0,-7.51E-08,0,41.2119084,62.69123858,14.33022019,177.8635046,-22.68498956,-2.58E-08,-1.17E-07,0,187.0478888,0,0,,,,
350.8799998,1370,-3.11E-07,152.7618784,0,-7.46E-08,0,102.384132,123.48869,-103.2294345,-62.08818047,84.18109552,-2.57E-08,-1.16E-07,0,-75.55284212,0,0,,,,
350.8879998,1370,-3.09E-07,50.52446607,0,-7.41E-08,0,-112.6714765,-86.20169283,39.32045743,114.225951,27.43276089,-2.55E-08,-1.16E-07,0,41.73818866,0,0,,,,
350.8959998,1370,-3.07E-07,24.34465515,0,-7.36E-08,0,71.83818412,96.21421949,-105.3001671,20.16736844,-19.01884066,-2.54E-08,-1.15E-07,0,114.4436272,0,0,,,,
350.9039998,1370,-3.05E-07,133.5111952,0,-7.31E-08,0,-30.6866338,-12.61446001,-50.00817462,-90.71748313,92.64115469,-2.52E-08,-1.15E-07,0,-156.7486924,0,0,,,,
350.9119998,1370,-3.03E-07,-40.19447198,0,-7.25E-08,0,-12.11594126,2.244321037,-6.551579736,166.4390829,-64.50100068,-2.50E-08,-1.14E-07,0,191.1573282,0,0,,,,
350.9199998,1370,-3.01E-07,130.4800942,0,-7.20E-08,0,91.86283262,100.8704003,-141.8489582,-128.8492072,54.05975446,-2.49E-08,-1.14E-07,0,-101.6186121,0,0,,,,
350.9279998,1370,-2.99E-07,34.56196392,0,-7.15E-08,0,-91.91121584,-78.29545365,26.32639346,71.03999635,6.705109413,-2.47E-08,-1.13E-07,0,2.950984258,0,0,,,,
350.9359998,1370,-2.97E-07,-9.080301429,0,-7.10E-08,0,105.4395505,115.9724428,-106.5650811,27.45961043,-51.18462408,-2.46E-08,-1.13E-07,0,87.83058656,0,0,,,,
350.9439998,1370,-2.95E-07,126.1619376,0,-7.05E-08,0,-9.415642738,-0.886880333,-43.11733401,-78.21265232,107.3928622,-2.44E-08,-1.12E-07,0,-205.5440842,0,0,,,,
350.9519998,1370,-2.93E-07,-44.95153267,0,-6.99E-08,0,-16.81945228,-1.752332369,5.218897859,173.7226831,-57.0146316,-2.42E-08,-1.11E-07,0,155.2400569,0,0,,,,
350.9599998,1370,-2.91E-07,116.9907822,0,-6.94E-08,0,100.1967407,113.7846675,-138.0096125,-124.2388902,48.09863296,-2.41E-08,-1.11E-07,0,-120.0277878,0,0,,,,
350.9679998,1370,-2.89E-07,39.36863556,0,-6.89E-08,0,-95.35199094,-79.42070265,47.10282437,85.44964698,40.00540412,-2.39E-08,-1.10E-07,0,-16.4874491,0,0,,,,
350.9759998,1371,-2.87E-07,-9.162578891,0,-6.84E-08,0,63.8593279,78.82559006,-90.4653529,26.39231625,-49.45257097,-2.38E-08,-1.10E-07,0,90.14581851,0,0,,,,
350.9839998,1371,-2.86E-07,114.9702376,0,-6.79E-08,0,-32.67484265,-18.11202843,-59.37694048,-112.5157294,69.54126239,-2.36E-08,-1.09E-07,0,-199.3573992,0,0,,,,
350.9919998,1371,-2.84E-07,-77.85184226,0,-6.73E-08,0,-19.3339527,-8.739983991,-0.289456709,167.1301792,-70.5866755,-2.34E-08,-1.09E-07,0,141.2525226,0,0,,,,
350.9999998,1371,-2.82E-07,83.64631811,0,-6.68E-08,0,108.7258001,110.3867048,-134.0046008,-114.7937479,37.18481334,-2.33E-08,-1.08E-07,0,-155.6784821,0,0,,,,
351.0079998,1371,-2.80E-07,44.73119278,0,-6.63E-08,0,-70.2296219,-56.57103782,43.74269897,80.72465817,38.79560392,-2.31E-08,-1.08E-07,0,-64.80358151,0,0,,,,
351.0159998,1371,-2.78E-07,-10.86316811,0,-6.58E-08,0,100.2528949,117.1884297,-78.32094564,47.83287772,-27.86511733,-2.30E-08,-1.07E-07,0,46.3669068,0,0,,,,
351.0239998,1371,-2.76E-07,102.7921788,0,-6.53E-08,0,-27.67431059,-6.540650192,-42.19648552,-80.75826504,95.70089194,-2.28E-08,-1.07E-07,0,-257.135935,0,0,,,,
351.0319998,1371,-2.74E-07,-71.90810958,0,-6.48E-08,0,-49.73557305,-24.29693795,5.553041911,178.3947228,-53.8322723,-2.26E-08,-1.06E-07,0,96.04398612,0,0,,,,
351.0399998,1371,-2.73E-07,89.50664555,0,-6.42E-08,0,139.8425018,139.324329,-121.1497752,-107.0398235,39.47552021,-2.25E-08,-1.05E-07,0,-171.3681214,0,0,,,,
351.0479998,1371,-2.71E-07,44.27370642,0,-6.37E-08,0,-14.85978876,-19.15385018,75.48029928,119.2169126,67.8332858,-2.23E-08,-1.05E-07,0,-88.09906046,0,0,,,,
351.0559998,1371,-2.69E-07,-13.86057444,0,-6.32E-08,0,123.5064917,123.7708392,-50.45071358,84.81076284,15.63497685,-2.22E-08,-1.04E-07,0,36.95280183,0,0,,,,
351.0639998,1371,-2.67E-07,69.65892999,0,-6.27E-08,0,9.778465636,10.38840631,-23.78918536,-83.48643778,108.8831313,-2.20E-08,-1.04E-07,0,-234.8368635,0,0,,,,
351.0719998,1371,-2.65E-07,-151.7633828,0,-6.22E-08,0,-41.02211016,-27.24142125,18.70988483,187.4376338,-49.27950345,-2.18E-08,-1.03E-07,0,141.8077092,0,0,,,,
351.0799998,1371,-2.64E-07,5.226825743,0,-6.17E-08,0,85.50393498,89.99695534,-142.1356605,-98.51072251,36.39822981,-2.17E-08,-1.03E-07,0,-121.6549029,0,0,,,,
351.0879998,1371,-2.62E-07,-15.45718605,0,-6.12E-08,0,-64.40676531,-66.5904415,31.54329042,100.0337765,23.75282135,-2.15E-08,-1.02E-07,0,-46.23382621,0,0,,,,
351.0959998,1371,-2.60E-07,-40.89062929,0,-6.06E-08,0,114.7398539,112.2461864,-80.15534566,81.79866555,-11.26363492,-2.14E-08,-1.02E-07,0,72.29520792,0,0,,,,
351.1039998,1371,-2.58E-07,94.23436226,0,-6.01E-08,0,13.1125754,9.951558765,-34.53828793,-79.20529644,137.7237455,-2.12E-08,-1.01E-07,0,-236.967743,0,0,,,,
351.1119998,1371,-2.57E-07,-99.33951668,0,-5.96E-08,0,-26.17347588,-18.05097254,22.56512104,189.39441,-38.98921126,-2.11E-08,-1.01E-07,0,127.2881348,0,0,,,,
351.1199998,1371,-2.55E-07,36.03803006,0,-5.91E-08,0,98.42116338,106.0986698,-133.4754947,-98.30019167,37.62118572,-2.09E-08,-9.99E-08,0,-135.4210218,0,0,,,,
351.1279998,1371,-2.53E-07,-35.72786258,0,-5.86E-08,0,-102.519675,-101.1073099,49.92502054,76.38265177,30.11146891,-2.07E-08,-9.94E-08,0,-68.76925309,0,0,,,,
351.1359998,1371,-2.52E-07,-75.50741629,0,-5.81E-08,0,66.3570884,58.68615721,-69.06131178,48.95869972,-59.87126571,-2.06E-08,-9.88E-08,0,81.38736827,0,0,,,,
351.1439998,1371,-2.50E-07,103.6605695,0,-5.76E-08,0,1.951920509,-7.186283713,-44.0590224,-96.62587779,92.52925272,-2.04E-08,-9.82E-08,0,-237.4176588,0,0,,,,
351.1519998,1371,-2.48E-07,-88.37403754,0,-5.71E-08,0,-32.39030237,-37.61661036,25.71534813,195.5266532,-33.56418264,-2.03E-08,-9.77E-08,0,101.5627514,0,0,,,,
351.1599998,1371,-2.47E-07,29.34540719,0,-5.65E-08,0,102.6974801,94.19226099,-132.7760488,-89.41361968,33.32888357,-2.01E-08,-9.71E-08,0,-150.3208257,0,0,,,,
351.1679998,1371,-2.45E-07,-8.150013925,0,-5.60E-08,0,-68.13749005,-62.41561231,42.30210523,91.79024662,34.67404766,-1.99E-08,-9.66E-08,0,-108.4806041,0,0,,,,
351.1759998,1371,-2.43E-07,-44.31699795,0,-5.55E-08,0,108.4516081,117.7398212,-57.56314184,82.39379792,-15.72348366,-1.98E-08,-9.60E-08,0,19.0977523,0,0,,,,
351.1839998,1371,-2.42E-07,85.99713622,0,-5.50E-08,0,19.01554537,21.45370397,-30.79146061,-91.34911502,117.8206017,-1.96E-08,-9.55E-08,0,-282.2320926,0,0,,,,
351.1919998,1371,-2.40E-07,-178.063118,0,-5.45E-08,0,-3.394655756,2.657368047,33.30639,240.048932,-95.56985298,-1.95E-08,-9.49E-08,0,205.8933733,0,0,,,,
351.1999998,1371,-2.38E-07,-8.366403795,0,-5.40E-08,0,173.4185124,162.6139304,-145.2027282,-99.83146863,5.688682885,-1.93E-08,-9.44E-08,0,-89.01529288,0,0,,,,
351.2079998,1371,-2.37E-07,37.71357175,0,-5.35E-08,0,-112.3473095,-120.4830517,69.15085443,10.23583811,108.4485944,-1.92E-08,-9.38E-08,0,-249.7350802,0,0,,,,
351.2159998,1371,-2.35E-07,-149.7097906,0,-5.30E-08,0,68.94807004,69.02051939,-30.76168577,186.9486824,-76.8340484,-1.90E-08,-9.32E-08,0,155.0407498,0,0,,,,
351.2239998,1371,-2.33E-07,48.40207443,0,-5.25E-08,0,115.4436779,95.21060591,-95.32338358,-117.4004482,86.80759376,-1.88E-08,-9.27E-08,0,-253.4806232,0,0,,,,
351.2319998,1372,-2.32E-07,-112.9127062,0,-5.20E-08,0,-97.95444731,-102.1455248,95.32434756,179.0011015,9.502178839,-1.87E-08,-9.21E-08,0,-17.89130409,0,0,,,,
351.2399998,1372,-2.30E-07,-116.2807322,0,-5.15E-08,0,103.7686513,110.906471,-94.72151158,12.64258729,-28.62706551,-1.85E-08,-9.16E-08,0,39.31189355,0,0,,,,
351.2479998,1372,-2.29E-07,5.20837022,0,-5.10E-08,0,-24.34562432,-33.70375117,4.827171019,-71.14673424,95.96019541,-1.84E-08,-9.10E-08,0,-214.5259386,0,0,,,,
351.2559998,1372,-2.27E-07,-162.1745907,0,-5.05E-08,0,18.33217669,17.21904572,26.58464498,190.7024813,-53.82795058,-1.82E-08,-9.05E-08,0,154.4835861,0,0,,,,
351.2639998,1372,-2.26E-07,0.298829049,0,-5.00E-08,0,127.174093,126.1131502,-103.4779819,-86.32477798,79.3867142,-1.81E-08,-8.99E-08,0,-136.1204203,0,0,,,,
351.2719998,1372,-2.24E-07,-84.5068023,0,-4.95E-08,0,-76.00743749,-80.85342984,76.69650429,127.4322282,49.83275741,-1.79E-08,-8.93E-08,0,-44.41023532,0,0,,,,
351.2799998,1372,-2.23E-07,-138.2113018,0,-4.90E-08,0,67.86852789,69.45768609,-66.10849183,74.76031633,-70.73817076,-1.77E-08,-8.88E-08,0,95.15240791,0,0,,,,
351.2879998,1372,-2.21E-07,5.382196563,0,-4.85E-08,0,-8.806315522,-13.10245786,-36.86774121,-95.40165359,67.03038193,-1.76E-08,-8.82E-08,0,-204.0626939,0,0,,,,
351.2959998,1372,-2.19E-07,-279.0521229,0,-4.80E-08,0,-38.25632768,-41.47240956,94.57191892,348.8649678,-113.8406405,-1.74E-08,-8.77E-08,0,330.5861176,0,0,,,,
351.3039998,1372,-2.18E-07,-236.3779429,0,-4.75E-08,0,124.5998236,124.2997731,-60.23269573,187.9953016,-118.9467926,-1.73E-08,-8.71E-08,0,285.5911512,0,0,,,,
351.3119998,1372,-2.16E-07,-147.996146,0,-4.70E-08,0,-22.57969907,-26.64868634,34.31100718,145.290237,-28.31312198,-1.71E-08,-8.65E-08,0,88.52098781,0,0,,,,
351.3199998,1372,-2.15E-07,-159.1398155,0,-4.65E-08,0,87.31898335,77.48081953,-39.58577971,110.3570196,-36.67233839,-1.70E-08,-8.60E-08,0,116.6665568,0,0,,,,
351.3279998,1372,-2.13E-07,28.45176964,0,-4.60E-08,0,67.17498712,50.6214621,-69.45140784,-125.8000076,126.7697642,-1.68E-08,-8.54E-08,0,-267.9875017,0,0,,,,
351.3359998,1372,-2.12E-07,-144.8864027,0,-4.55E-08,0,-51.57343352,-54.28974225,59.53572627,185.0843382,2.353477137,-1.67E-08,-8.49E-08,0,49.04742054,0,0,,,,
351.3439998,1372,-2.11E-07,-125.9556096,0,-4.50E-08,0,86.80753995,85.56278691,-85.53363876,-3.163453071,-6.712478105,-1.65E-08,-8.43E-08,0,-5.554302794,0,0,,,,
351.3519998,1372,-2.09E-07,-55.59917942,0,-4.45E-08,0,-38.70650581,-52.38726605,8.793206545,-66.59422811,86.88289176,-1.63E-08,-8.37E-08,0,-207.3446029,0,0,,,,
351.3599998,1372,-2.08E-07,-208.1334629,0,-4.40E-08,0,11.42276363,5.661930951,18.6474934,185.3396123,-58.02245664,-1.62E-08,-8.32E-08,0,141.3266799,0,0,,,,
351.3679998,1372,-2.06E-07,-17.6992446,0,-4.35E-08,0,93.12368616,85.02490151,-103.4538501,-82.23529789,60.20069931,-1.60E-08,-8.26E-08,0,-174.9791427,0,0,,,,
351.3759998,1372,-2.05E-07,-101.1099421,0,-4.30E-08,0,-66.82234625,-75.700391,53.75256571,103.5592968,27.15599325,-1.59E-08,-8.21E-08,0,-46.70129624,0,0,,,,
351.3839998,1372,-2.03E-07,-165.8571859,0,-4.25E-08,0,76.1010797,68.55791982,-57.50928081,41.86072779,-38.57581791,-1.57E-08,-8.15E-08,0,65.8390949,0,0,,,,
351.3919998,1372,-2.02E-07,-38.35298561,0,-4.20E-08,0,-5.913783058,-20.7417986,-32.28861238,-112.138611,93.7434206,-1.56E-08,-8.10E-08,0,-228.0844702,0,0,,,,
351.3999998,1372,-2.00E-07,-215.6958717,0,-4.16E-08,0,-58.40010612,-66.49169019,24.43695965,159.5897835,-55.9661618,-1.54E-08,-8.04E-08,0,116.5160454,0,0,,,,
351.4079998,1372,-1.99E-07,-68.11600202,0,-4.11E-08,0,73.44812372,61.02067755,-134.2774068,-101.6114075,3.383011161,-1.53E-08,-7.98E-08,0,-105.1929412,0,0,,,,
351.4159998,1372,-1.98E-07,-59.52643268,0,-4.06E-08,0,-52.60909152,-78.05576233,44.1395542,77.27080845,35.99962866,-1.51E-08,-7.93E-08,0,-63.45778169,0,0,,,,
351.4239998,1372,-1.96E-07,-134.481609,0,-4.01E-08,0,96.34285099,67.24290826,-29.09210999,93.45161702,-25.52019593,-1.50E-08,-7.87E-08,0,104.7961045,0,0,,,,
351.4319998,1372,-1.95E-07,-15.11493556,0,-3.96E-08,0,18.48078764,-5.176957537,-37.06900759,-107.9731836,104.2771182,-1.48E-08,-7.82E-08,0,-213.2356457,0,0,,,,
351.4399998,1372,-1.94E-07,-181.2676933,0,-3.91E-08,0,-31.13015866,-48.98307283,48.03572818,192.9923643,-19.49463992,-1.47E-08,-7.76E-08,0,116.4998557,0,0,,,,
351.4479998,1372,-1.92E-07,-51.26905925,0,-3.86E-08,0,121.1441472,100.771041,-104.6043354,-64.49501964,38.87431094,-1.45E-08,-7.70E-08,0,-74.54727739,0,0,,,,
351.4559998,1372,-1.91E-07,-87.72301034,0,-3.82E-08,0,-70.95461572,-81.95682998,49.10015769,62.62297335,50.93210397,-1.43E-08,-7.65E-08,0,-50.0230832,0,0,,,,
351.4639998,1372,-1.89E-07,-184.2871355,0,-3.77E-08,0,70.82875065,63.62530551,-45.99606045,103.5282388,-35.96430135,-1.42E-08,-7.59E-08,0,142.8618915,0,0,,,,
351.4719998,1372,-1.88E-07,-44.03644411,0,-3.72E-08,0,10.77122263,2.453107358,-57.53579458,-92.39813077,86.18378102,-1.40E-08,-7.54E-08,0,-188.6349567,0,0,,,,
351.4799998,1372,-1.87E-07,-231.0482369,0,-3.67E-08,0,-58.55509896,-65.75384252,39.57214786,191.1191009,-54.29077679,-1.39E-08,-7.48E-08,0,138.6002762,0,0,,,,
351.4879998,1373,-1.85E-07,-99.39788465,0,-3.62E-08,0,125.248203,109.1076511,-115.7846911,-79.35778214,24.47132952,-1.37E-08,-7.43E-08,0,-58.5415647,0,0,,,,
351.4959998,1373,-1.84E-07,-107.7013777,0,-3.57E-08,0,-72.12923778,-83.16989575,43.46561923,76.65242276,66.6527445,-1.36E-08,-7.37E-08,0,-73.3992388,0,0,,,,
351.5039998,1373,-1.83E-07,-188.7750796,0,-3.53E-08,0,59.83576609,44.68793186,-45.72652282,128.6953986,-44.37461917,-1.34E-08,-7.32E-08,0,125.6591015,0,0,,,,
351.5119998,1373,-1.81E-07,-8.11936736,0,-3.48E-08,0,37.72877703,21.19039997,-55.52695767,-111.4124832,96.93275242,-1.33E-08,-7.26E-08,0,-208.8998609,0,0,,,,
351.5199998,1373,-1.80E-07,-178.0141746,0,-3.43E-08,0,-62.6083351,-56.61319271,40.9747083,197.0916854,-21.18967992,-1.31E-08,-7.20E-08,0,112.2866569,0,0,,,,
351.5279998,1373,-1.79E-07,-72.32016547,0,-3.38E-08,0,85.06257124,93.76089587,-125.507923,-48.56953966,16.16442218,-1.30E-08,-7.15E-08,0,-65.17104983,0,0,,,,
351.5359998,1373,-1.78E-07,-84.40396823,0,-3.34E-08,0,-78.92599851,-64.24140609,35.57692901,66.15423609,58.79563504,-1.28E-08,-7.09E-08,0,-61.92890997,0,0,,,,
351.5439998,1373,-1.13E-06,-152.2551065,0,-3.29E-08,0,67.42622861,87.8790968,-47.75680525,116.6023668,-18.38722819,-1.27E-08,-7.04E-08,0,143.3296998,0,0,,,,
351.5519998,1373,-2.03E-06,13.14222355,0,-3.24E-08,0,27.04841096,39.83468389,-52.83550869,-103.0218725,113.8380587,-1.25E-08,-6.98E-08,0,-209.4324715,0,0,,,,
351.5599998,1373,-1.73E-06,-165.4139272,0,-3.20E-08,0,-60.0947994,-34.44424317,41.60237528,202.9035923,-7.399630554,-1.24E-08,-6.93E-08,0,112.3079986,0,0,,,,
351.5679998,1373,-1.74E-06,-25.97921327,0,-3.15E-08,0,119.7854659,143.5942558,-129.3336129,-40.13474631,66.02479233,-1.22E-08,-6.87E-08,0,-90.16798424,0,0,,,,
351.5759998,1373,-1.78E-06,-44.95716048,0,-3.10E-08,0,-56.44774148,-44.77161871,49.50494008,84.15578518,77.1409671,-1.21E-08,-6.82E-08,0,-115.8316416,0,0,,,,
351.5839998,1373,-1.70E-06,-165.9924911,0,-3.05E-08,0,62.79781768,86.16372465,-44.44820483,131.61021,-43.32772351,-1.19E-08,-6.76E-08,0,128.3890394,0,0,,,,
351.5919998,1373,-1.73E-06,12.23085923,0,-3.01E-08,0,35.62731925,61.06243375,-65.69955048,-100.9359665,137.0594996,-1.18E-08,-6.71E-08,0,-227.1071306,0,0,,,,
351.5999998,1373,-1.68E-06,-139.5421656,0,-2.96E-08,0,-30.62162423,-14.26524621,66.84925763,207.1467821,9.099879003,-1.17E-08,-6.65E-08,0,101.5284296,0,0,,,,
351.6079998,1373,-1.69E-06,-23.44155955,0,-2.91E-08,0,139.4725213,154.8828068,-104.72559,-42.9390503,50.14149989,-1.15E-08,-6.60E-08,0,-46.41448423,0,0,,,,
351.6159998,1373,-1.66E-06,-47.43474082,0,-2.87E-08,0,-61.04154616,-46.01883933,46.08330568,64.02406749,91.47004258,-1.14E-08,-6.54E-08,0,-82.07600573,0,0,,,,
351.6239998,1373,-1.65E-06,-158.1967601,0,-2.82E-08,0,49.9786139,64.2326014,-32.51670227,114.0331828,-53.24801836,-1.12E-08,-6.49E-08,0,168.5123732,0,0,,,,
351.6319998,1373,-1.63E-06,11.81719502,0,-2.78E-08,0,10.43153994,36.7304921,-62.93299531,-139.6705416,94.89622439,-1.11E-08,-6.43E-08,0,-162.4808421,0,0,,,,
351.6399998,1373,2.88E-07,-162.2041992,0,-2.73E-08,0,-70.67253042,-35.96000541,40.32432846,151.2765881,-11.19458078,-1.09E-08,-6.38E-08,0,132.0018007,0,0,,,,
351.6479998,1373,2.10E-06,-52.20072558,0,-2.68E-08,0,117.3180966,144.2309813,-140.8000012,-84.68421538,22.18433852,-1.08E-08,-6.32E-08,0,-42.6793277,0,0,,,,
351.6559998,1373,1.52E-06,-53.2544899,0,-2.64E-08,0,-80.34104239,-48.57728691,17.00165046,23.03098374,64.52294297,-1.06E-08,-6.27E-08,0,-89.1683905,0,0,,,,
351.6639998,1373,1.56E-06,-158.3892913,0,-2.59E-08,0,24.23050467,56.38976244,-46.23133005,84.939939,-54.45324331,-1.05E-08,-6.21E-08,0,147.3777152,0,0,,,,
351.6719998,1373,1.66E-06,-2.522130198,0,-2.55E-08,0,10.70275267,34.82330102,-69.65466703,-154.9934464,72.90208949,-1.03E-08,-6.16E-08,0,-184.589285,0,0,,,,
351.6799998,1373,1.51E-06,-172.8211361,0,-2.50E-08,0,-47.4342257,-24.20464442,54.52151127,142.3152512,-27.66200628,-1.02E-08,-6.10E-08,0,116.8597281,0,0,,,,
351.6879998,1373,1.60E-06,-16.77363949,0,-2.46E-08,0,146.3583769,162.5936922,-111.9256412,-82.9947924,57.38170074,-1.00E-08,-6.05E-08,0,-53.31607811,0,0,,,,
351.6959998,1373,1.51E-06,-6.707211091,0,-2.41E-08,0,-74.81392856,-51.73062714,32.96986858,28.58794355,82.80665624,-9.90E-09,-5.99E-08,0,-91.39027935,0,0,,,,
351.7039998,1373,1.54E-06,-151.7157042,0,-2.37E-08,0,21.6275476,46.54447018,-41.51530007,90.13829273,-66.47633743,-9.80E-09,-5.94E-08,0,153.1173221,0,0,,,,
351.7119998,1373,1.50E-06,30.80052652,0,-2.32E-08,0,12.89237814,33.94463675,-70.48786913,-152.6173524,93.70939437,-9.60E-09,-5.88E-08,0,-196.9525697,0,0,,,,
351.7199998,1373,1.50E-06,-138.4357263,0,-2.28E-08,0,-120.1361987,-86.59237502,42.67093997,149.0075464,-36.30195093,-9.50E-09,-5.83E-08,0,104.9556345,0,0,,,,
351.7279998,1373,1.48E-06,-50.19673028,0,-2.23E-08,0,60.00553192,80.8208402,-142.1749101,-118.7492075,-20.36421777,-9.30E-09,-5.77E-08,0,-44.29772235,0,0,,,,
351.7359998,1373,1.47E-06,-6.398875623,0,-2.19E-08,0,-49.05475757,-40.46159127,18.17964993,-34.28313678,60.2717751,-9.20E-09,-5.72E-08,0,-100.6963922,0,0,,,,
351.7439998,1374,1.46E-06,-73.5622083,0,-2.14E-08,0,78.29587859,96.21897397,-30.79054645,85.67599429,-12.74813626,-9.00E-09,-5.67E-08,0,122.7450802,0,0,,,,
351.7519998,1374,1.44E-06,84.18121263,0,-2.10E-08,0,44.70188197,55.23138804,-64.87670622,-139.0101795,139.291056,-8.90E-09,-5.61E-08,0,-228.3280547,0,0,,,,
351.7599998,1374,1.43E-06,-131.9846072,0,-2.05E-08,0,-64.136708,-61.4839351,62.4533129,156.6790683,-5.75072682,-8.80E-09,-5.56E-08,0,95.66761058,0,0,,,,
351.7679998,1374,1.42E-06,-51.9278317,0,-2.01E-08,0,91.83905238,96.21464434,-116.062451,-97.06981708,4.11644085,-8.60E-09,-5.50E-08,0,-31.76490882,0,0,,,,
351.7759998,1374,1.40E-06,-34.41972715,0,-1.96E-08,0,-86.06156183,-79.45654562,19.43118779,-32.96862173,59.44970585,-8.50E-09,-5.45E-08,0,-87.87532334,0,0,,,,
351.7839998,1374,1.39E-06,-137.4442894,0,-1.92E-08,0,43.61430396,47.61955125,-39.77283431,57.18758744,-68.35372031,-8.30E-09,-5.40E-08,0,160.6906714,0,0,,,,
351.7919998,1374,1.38E-06,37.6704113,0,-1.88E-08,0,47.51624574,46.58693572,-70.70017635,-189.1147756,82.24879193,-8.20E-09,-5.34E-08,0,-189.7753402,0,0,,,,
351.7999998,1374,1.36E-06,-126.5972414,0,-1.83E-08,0,-61.91354975,-59.16792858,57.72916483,125.5814299,-2.237779137,-8.10E-09,-5.29E-08,0,116.7516588,0,0,,,,
351.8079998,1374,1.35E-06,-29.82152107,0,-1.79E-08,0,101.5576812,98.68658362,-123.8753212,-81.06923535,25.53008588,-7.90E-09,-5.24E-08,0,-11.72568724,0,0,,,,
351.8159998,1374,1.34E-06,-21.10588936,0,-1.74E-08,0,-77.19526875,-83.72289926,13.29777766,-2.417631096,80.94125739,-7.80E-09,-5.18E-08,0,-79.35664071,0,0,,,,
351.8239998,1374,1.32E-06,-133.7232458,0,-1.70E-08,0,18.52500881,11.72169259,-48.37564201,86.81326345,-51.46182049,-7.60E-09,-5.13E-08,0,184.4030924,0,0,,,,
351.8319998,1374,1.31E-06,19.87031975,0,-1.66E-08,0,7.125385735,-8.914228362,-86.54380244,-183.3639737,73.5117761,-7.50E-09,-5.07E-08,0,-163.3872911,0,0,,,,
351.8399998,1374,1.30E-06,-174.8060581,0,-1.61E-08,0,-100.6408675,-107.1897708,37.0570413,98.9896378,-29.14364189,-7.40E-09,-5.02E-08,0,127.8650092,0,0,,,,
351.8479998,1374,1.28E-06,-77.13503513,0,-1.57E-08,0,87.6529586,80.19089651,-145.5232722,-125.4444516,-9.289777071,-7.20E-09,-4.97E-08,0,-1.421442698,0,0,,,,
351.8559998,1374,1.27E-06,-26.2317685,0,-1.53E-08,0,-69.67943855,-84.23515197,13.23782415,-54.24296937,53.55159134,-7.10E-09,-4.92E-08,0,-73.40728392,0,0,,,,
351.8639998,1374,-6.49E-07,-112.7626621,0,-1.49E-08,0,19.6643064,21.44269516,-45.06491874,59.37735238,-57.93522658,-6.90E-09,-4.86E-08,0,190.962094,0,0,,,,
351.8719998,1374,-2.46E-06,51.74627431,0,-1.44E-08,0,11.72315759,13.75567406,-104.5824042,-171.9884299,85.00147701,-6.80E-09,-4.81E-08,0,-176.1702122,0,0,,,,
351.8799998,1374,-1.88E-06,-116.0599586,0,-1.40E-08,0,-75.6729007,-84.98084167,39.38405659,142.5493325,9.295378278,-6.70E-09,-4.76E-08,0,107.6576538,0,0,,,,
351.8879998,1374,-1.91E-06,-31.52063368,0,-1.36E-08,0,112.8393258,94.86012565,-120.5892167,-88.43477426,45.74172352,-6.50E-09,-4.70E-08,0,-2.999810086,0,0,,,,
351.8959998,1374,-2.01E-06,-62.49179377,0,-1.32E-08,0,-87.62357049,-103.5138539,19.84993699,-40.99282023,72.23073085,-6.40E-09,-4.65E-08,0,-70.92367378,0,0,,,,
351.9039998,1374,-1.86E-06,-191.3914059,0,-1.27E-08,0,12.87655711,-1.029884354,-34.84600962,73.37688087,-58.26391789,-6.30E-09,-4.60E-08,0,211.1455202,0,0,,,,
351.9119998,1374,-1.95E-06,21.73218075,0,-1.23E-08,0,44.32865338,28.15834581,-71.66382887,-186.0714009,111.7414567,-6.10E-09,-4.54E-08,0,-148.0906652,0,0,,,,
351.9199998,1374,-1.86E-06,-134.2593901,0,-1.19E-08,0,-80.71395413,-80.79044497,63.11183018,110.0760923,6.960303763,-6.00E-09,-4.49E-08,0,130.8966674,0,0,,,,
351.9279998,1374,-1.88E-06,-53.33250211,0,-1.15E-08,0,106.5097902,103.2431886,-118.6038381,-89.59086571,14.82319604,-5.90E-09,-4.44E-08,0,10.40996704,0,0,,,,
351.9359998,1374,-1.84E-06,-25.70295135,0,-1.11E-08,0,-62.52664266,-71.31658125,22.06051733,-22.28798681,85.68203816,-5.70E-09,-4.39E-08,0,-100.2088232,0,0,,,,
351.9439998,1374,-1.84E-06,-156.6222129,0,-1.07E-08,0,-0.879122656,-0.619126231,-38.40706395,86.42208283,-52.46018705,-5.60E-09,-4.34E-08,0,168.9956182,0,0,,,,
351.9519998,1374,-1.82E-06,30.93704382,0,-1.02E-08,0,30.11925579,22.57554161,-94.31759137,-191.5237538,89.40607157,-5.50E-09,-4.28E-08,0,-188.5857271,0,0,,,,
351.9599998,1374,-1.80E-06,-89.50681862,0,-9.80E-09,0,-38.77597205,-58.40410065,60.75259096,118.2831324,27.6932541,-5.30E-09,-4.23E-08,0,79.50871337,0,0,,,,
351.9679998,1374,-1.78E-06,-8.902655642,0,-9.40E-09,0,136.9878868,107.9167872,-102.7899987,-60.4786606,54.96603282,-5.20E-09,-4.18E-08,0,-18.3174943,0,0,,,,
351.9759998,1374,-1.77E-06,-31.98884651,0,-9.00E-09,0,-72.81244549,-94.08036914,27.17311729,-10.53355167,94.91327331,-5.10E-09,-4.13E-08,0,-89.94858355,0,0,,,,
351.9839998,1374,-1.75E-06,-182.9698696,0,-8.60E-09,0,-7.931851594,-18.9909542,-36.54349769,93.57111821,-72.19047865,-4.90E-09,-4.08E-08,0,213.9709412,0,0,,,,
351.9919998,1374,-1.74E-06,-12.05466508,0,-8.20E-09,0,7.299195501,-12.19664074,-97.28309191,-178.2377539,37.01590757,-4.80E-09,-4.02E-08,0,-130.0957953,0,0,,,,
351.9999998,1375,-1.72E-06,-177.8898948,0,-7.80E-09,0,-102.326905,-124.2112909,50.94817453,119.3812811,-40.89998173,-4.70E-09,-3.97E-08,0,142.6393842,0,0,,,,
352.0079998,1375,-1.70E-06,-72.96916615,0,-7.40E-09,0,84.50688489,69.12576403,-133.7909568,-88.70036401,12.31943237,-4.50E-09,-3.92E-08,0,37.5808201,0,0,,,,
352.0159998,1375,-1.69E-06,-19.50675269,0,-7.00E-09,0,-87.38099224,-92.97706645,-10.00147573,-26.75376697,81.75046219,-4.40E-09,-3.87E-08,0,-72.78971189,0,0,,,,
352.0239998,1375,-1.67E-06,-142.2899714,0,-6.60E-09,0,-7.354430049,-11.28287195,-49.13586614,123.3330503,-49.95686979,-4.30E-09,-3.82E-08,0,205.8187947,0,0,,,,
352.0319998,1375,-1.66E-06,135.1054455,0,-6.20E-09,0,9.064108404,-4.253697424,-149.2641388,-317.3397472,171.37174,-4.10E-09,-3.77E-08,0,-346.3999095,0,0,,,,
352.0399998,1375,-1.64E-06,36.5431181,0,-5.80E-09,0,-81.25707808,-100.5477785,-26.87466992,-124.7311244,117.2547327,-4.00E-09,-3.72E-08,0,-208.4656479,0,0,,,,
352.0479998,1375,-1.63E-06,-59.33296098,0,-5.40E-09,0,119.165983,97.2594514,-121.6877666,-26.99133996,-13.8273367,-3.90E-09,-3.66E-08,0,45.19012623,0,0,,,,
352.0559998,1375,-1.61E-06,-56.33374723,0,-5.00E-09,0,-76.86921665,-93.24720489,24.88075525,59.97080893,48.30794873,-3.80E-09,-3.61E-08,0,-4.635945798,0,0,,,,
352.0639998,1375,-1.60E-06,-133.7442532,0,-4.60E-09,0,3.295750743,-16.78926309,-37.30438618,58.45548926,-8.50244258,-3.60E-09,-3.56E-08,0,136.4287645,0,0,,,,
352.0719998,1375,-1.58E-06,-41.71317919,0,-4.20E-09,0,18.61634052,-2.894299375,-72.91059205,-128.3175092,50.61852377,-3.50E-09,-3.51E-08,0,-55.43831381,0,0,,,,
352.0799998,1375,-1.57E-06,-151.398921,0,-3.80E-09,0,-118.7252975,-128.1418669,52.03320508,94.49253036,-27.25356253,-3.40E-09,-3.46E-08,0,144.0620414,0,0,,,,
352.0879998,1375,3.56E-07,-73.40916872,0,-3.40E-09,0,85.33596207,67.52947082,-121.1372414,-109.8624322,-10.75630431,-3.20E-09,-3.41E-08,0,36.0505984,0,0,,,,
352.0959998,1375,2.17E-06,-34.66880672,0,-3.00E-09,0,-66.74450675,-80.47477325,11.6341828,-29.55628656,47.68122847,-3.10E-09,-3.36E-08,0,-40.7545879,0,0,,,,
352.1039998,1375,1.59E-06,-122.2605491,0,-2.60E-09,0,29.12013621,19.04090031,-35.74133281,96.56649982,-33.35275457,-3.00E-09,-3.31E-08,0,188.7573463,0,0,,,,
352.1119998,1375,1.63E-06,5.411436444,0,-2.30E-09,0,55.58044472,29.71561986,-84.60009405,-119.5302857,95.33594424,-2.90E-09,-3.26E-08,0,-101.6809815,0,0,,,,
352.1199998,1375,1.72E-06,-132.0519997,0,-1.90E-09,0,-112.5170725,-129.9740302,47.53943813,140.6622229,5.948542815,-2.70E-09,-3.21E-08,0,147.6411978,0,0,,,,
352.1279998,1375,1.57E-06,-69.27010942,0,-1.50E-09,0,58.64702982,38.97684181,-133.3885268,-72.92184296,-15.20431295,-2.60E-09,-3.16E-08,0,84.35180124,0,0,,,,
352.1359998,1375,1.67E-06,-10.93694981,0,-1.10E-09,0,-62.45469116,-85.87894459,0.386396092,-44.53350654,55.11596524,-2.50E-09,-3.11E-08,0,-33.15744558,0,0,,,,
352.1439998,1375,1.58E-06,-103.413412,0,-7.00E-10,0,30.42944902,20.89595019,-32.24427736,114.7685449,-31.88587502,-2.40E-09,-3.06E-08,0,219.702151,0,0,,,,
352.1519998,1375,1.61E-06,17.77249018,0,-3.00E-10,0,29.69034784,13.13373284,-96.19928334,-138.0695699,85.7861426,-2.20E-09,-3.01E-08,0,-104.3212079,0,0,,,,
352.1599998,1375,1.57E-06,-158.2235364,0,0,0,-99.10041503,-120.4070575,50.18090098,130.5191414,-15.20318365,-2.10E-09,-2.96E-08,0,153.4795836,0,0,,,,
352.1679998,1375,1.57E-06,-83.89756984,0,4.00E-10,0,94.52755456,82.17225215,-132.3902562,-40.25588395,5.704894411,-2.00E-09,-2.91E-08,0,62.03492617,0,0,,,,
352.1759998,1375,1.55E-06,-32.44646039,0,8.00E-10,0,-79.86855927,-84.75320335,-13.78443714,-1.083323948,82.07686058,-1.90E-09,-2.86E-08,0,-91.08847804,0,0,,,,
352.1839998,1375,1.54E-06,-170.2789793,0,1.20E-09,0,1.75861165,-11.20310327,-28.79176587,148.4331762,-68.8919326,-1.80E-09,-2.81E-08,0,202.3399206,0,0,,,,
352.1919998,1375,1.52E-06,1.400703869,0,1.50E-09,0,37.3352204,17.55154569,-87.35249366,-142.1232911,64.24041769,-1.60E-09,-2.77E-08,0,-151.9541508,0,0,,,,
352.1999998,1375,1.51E-06,-139.6702666,0,1.90E-09,0,-107.7124699,-113.0082232,62.25757813,138.8939826,-17.89296518,-1.50E-09,-2.72E-08,0,92.07952984,0,0,,,,
352.2079998,1375,1.49E-06,-86.74327299,0,2.30E-09,0,82.95456751,70.24466261,-110.9868203,-48.85052127,-22.06258919,-1.40E-09,-2.67E-08,0,34.39913569,0,0,,,,
352.2159998,1375,1.48E-06,-23.26853746,0,2.60E-09,0,-72.51427059,-92.37996428,9.187083901,-49.70991864,76.95745336,-1.30E-09,-2.62E-08,0,-111.3158567,0,0,,,,
352.2239998,1375,1.46E-06,-242.2380363,0,3.00E-09,0,30.36483943,18.07915039,-34.45474244,228.3315017,-140.2721535,-1.10E-09,-2.57E-08,0,386.1243231,0,0,,,,
352.2319998,1375,1.45E-06,-109.8440207,0,3.40E-09,0,164.236714,146.1044645,-183.5332161,-50.97700298,-67.72501826,-1.00E-09,-2.52E-08,0,141.241644,0,0,,,,
352.2399998,1375,1.44E-06,-137.6733757,0,3.70E-09,0,-19.26384181,-34.70503675,-13.14368695,100.7737044,-40.38807988,-9.00E-10,-2.47E-08,0,160.2918164,0,0,,,,
352.2479998,1375,1.42E-06,-95.02835015,0,4.10E-09,0,56.71506762,41.41351316,-107.1791673,-20.83191547,-38.71998476,-8.00E-10,-2.43E-08,0,93.68371864,0,0,,,,
352.2559998,1376,1.41E-06,9.554196025,0,4.40E-09,0,-78.3795449,-93.75980467,-18.79036925,-119.3415273,75.95606775,-7.00E-10,-2.38E-08,0,-160.1210905,0,0,,,,
352.2639998,1376,1.40E-06,-132.3772828,0,4.80E-09,0,-21.27889266,-33.8063812,11.17804991,127.633071,-39.52335421,-6.00E-10,-2.33E-08,0,178.6802228,0,0,,,,
352.2719998,1376,1.38E-06,1.869816244,0,5.20E-09,0,82.56301964,61.32295999,-114.7135433,-97.12357732,58.49272228,-4.00E-10,-2.28E-08,0,-61.18702145,0,0,,,,
352.2799998,1376,1.37E-06,-64.98601885,0,5.50E-09,0,-132.7851906,-147.6951798,32.99277775,28.78919734,46.97802624,-3.00E-10,-2.23E-08,0,-6.497112687,0,0,,,,
352.2879998,1376,1.36E-06,-148.3341779,0,5.90E-09,0,3.891039173,-8.924606901,-83.94105981,40.40835657,-77.20252467,-2.00E-10,-2.19E-08,0,220.957344,0,0,,,,
352.2959998,1376,1.34E-06,9.711448156,0,6.20E-09,0,-26.71106083,-51.31248108,-88.17194554,-146.7815256,52.7237136,-1.00E-10,-2.14E-08,0,-114.3760687,0,0,,,,
352.3039998,1376,1.33E-06,-150.4414348,0,6.60E-09,0,-76.62127717,-99.44701525,31.01494908,115.5476426,-49.70597849,0,-2.09E-08,0,164.5346078,0,0,,,,
352.3119998,1376,-5.92E-07,-73.10249869,0,6.90E-09,0,89.28443361,64.38984685,-119.3355812,-76.85191485,12.06212144,1.00E-10,-2.04E-08,0,53.01687834,0,0,,,,
352.3199998,1376,-2.40E-06,-28.41486648,0,7.30E-09,0,-79.17523994,-103.7116708,-0.17446715,-9.516942997,83.73680209,3.00E-10,-2.00E-08,0,-51.82045032,0,0,,,,
352.3279998,1376,-1.82E-06,-116.9337962,0,7.60E-09,0,18.19121428,0.324557832,-48.5824638,122.9568941,-57.30461378,4.00E-10,-1.95E-08,0,226.9752815,0,0,,,,
352.3359998,1376,-1.85E-06,32.10764016,0,8.00E-09,0,13.34758353,-2.712399959,-111.4662606,-139.0086722,78.56123419,5.00E-10,-1.90E-08,0,-99.19414167,0,0,,,,
352.3439998,1376,-1.95E-06,-115.3708999,0,8.30E-09,0,-107.3030729,-121.2163461,27.69494224,110.7383001,-6.883366762,6.00E-10,-1.86E-08,0,147.8484733,0,0,,,,
352.3519998,1376,-1.80E-06,-34.11026837,0,8.70E-09,0,89.05343335,74.39492858,-130.358917,-52.46694669,-4.2882033,7.00E-10,-1.81E-08,0,82.55894121,0,0,,,,
352.3599998,1376,-1.89E-06,-10.4085139,0,9.00E-09,0,-76.22082283,-77.36834602,-24.28238085,-39.65070707,77.21994703,8.00E-10,-1.76E-08,0,-73.32177585,0,0,,,,
352.3679998,1376,-1.80E-06,-175.2654847,0,9.30E-09,0,-22.37590437,-13.2585903,-43.2157461,121.9639203,-70.38769309,9.00E-10,-1.72E-08,0,227.9939345,0,0,,,,
352.3759998,1376,-1.83E-06,-5.009866792,0,9.70E-09,0,8.783960125,20.87652807,-117.0030304,-144.8343776,56.31875635,1.00E-09,-1.67E-08,0,-108.5182229,0,0,,,,
352.3839998,1376,-1.79E-06,-120.6894451,0,1.00E-08,0,-121.4456497,-93.6237145,35.189699,125.1532491,-4.43569578,1.20E-09,-1.63E-08,0,113.1480222,0,0,,,,
352.3919998,1376,-1.78E-06,-58.72788212,0,1.03E-08,0,63.80336418,93.19366476,-130.5953684,-39.80247945,-9.802799037,1.30E-09,-1.58E-08,0,58.7143374,0,0,,,,
352.3999998,1376,-1.76E-06,-35.6691138,0,1.07E-08,0,-105.1724801,-79.39463663,-23.21717314,-47.69493434,68.96354773,1.40E-09,-1.53E-08,0,-96.62767314,0,0,,,,
352.4079998,1376,-1.75E-06,-179.7096922,0,1.10E-08,0,-21.48557059,-3.033176721,-33.73389196,129.2852059,-76.07750378,1.50E-09,-1.49E-08,0,234.3230406,0,0,,,,
352.4159998,1376,-1.73E-06,20.9795302,0,1.13E-08,0,44.68673109,61.81744701,-117.1877317,-159.7911697,53.88237685,1.60E-09,-1.44E-08,0,-111.286501,0,0,,,,
352.4239998,1376,-1.72E-06,-140.2435232,0,1.17E-08,0,-131.806623,-102.7611497,49.98787357,118.9434096,3.681312414,1.70E-09,-1.40E-08,0,128.7601239,0,0,,,,
352.4319998,1376,-1.70E-06,-94.54523481,0,1.20E-08,0,61.0448196,78.00162922,-112.9120197,-42.16599319,-12.14356898,1.80E-09,-1.35E-08,0,123.2638034,0,0,,,,
352.4399998,1376,-1.68E-06,-8.497256472,0,1.23E-08,0,-84.14383772,-60.19703595,-14.86511866,-57.72832086,61.09461653,1.90E-09,-1.31E-08,0,-45.98783526,0,0,,,,
352.4479998,1376,-1.67E-06,-167.4567338,0,1.26E-08,0,-45.3407798,-1.220468176,-32.30314101,151.8294236,-69.85449172,2.00E-09,-1.26E-08,0,288.5023839,0,0,,,,
352.4559998,1376,-1.65E-06,37.47453244,0,1.30E-08,0,39.05141788,77.36995583,-117.6989299,-154.5128734,67.55216699,2.10E-09,-1.22E-08,0,-68.04010118,0,0,,,,
352.4639998,1376,-1.64E-06,-75.54281931,0,1.33E-08,0,-98.59249369,-58.14887316,64.13905655,120.6601323,18.64859527,2.20E-09,-1.17E-08,0,138.8342106,0,0,,,,
352.4719998,1376,-1.62E-06,-50.91389305,0,1.36E-08,0,65.35048991,103.0011357,-105.4149089,-2.727465624,22.24563397,2.30E-09,-1.13E-08,0,133.2801458,0,0,,,,
352.4799998,1376,-1.61E-06,11.17785888,0,1.39E-08,0,-88.40052666,-57.79619673,-13.23822952,-43.7836806,95.76469843,2.40E-09,-1.09E-08,0,-43.81285418,0,0,,,,
352.4879998,1376,-1.59E-06,-155.4113526,0,1.42E-08,0,-26.29710832,2.318434857,-17.20830006,143.7015954,-79.78677767,2.60E-09,-1.04E-08,0,301.2556088,0,0,,,,
352.4959998,1376,-1.58E-06,27.83590812,0,1.45E-08,0,22.72588839,57.66213164,-114.71755,-147.7382164,44.52638228,2.70E-09,-1.00E-08,0,-39.3245579,0,0,,,,
352.5039998,1376,-1.56E-06,-88.80564663,0,1.49E-08,0,-141.878336,-95.1549182,56.57100246,116.8559787,-2.399970131,2.80E-09,-9.50E-09,0,163.6770256,0,0,,,,
352.5119998,1377,-1.55E-06,-61.05385304,0,1.52E-08,0,56.94718833,92.95571519,-106.3938932,-21.91958124,-33.37624047,2.90E-09,-9.10E-09,0,164.0256976,0,0,,,,
352.5199998,1377,-1.53E-06,37.71632894,0,1.55E-08,0,-75.90670726,-41.23416075,-6.372362682,-59.50048767,63.39343473,3.00E-09,-8.70E-09,0,-29.57164168,0,0,,,,
352.5279998,1377,-1.52E-06,-85.41690689,0,1.58E-08,0,-0.664744864,34.42781088,5.719892608,141.8234869,-43.70346519,3.10E-09,-8.20E-09,0,308.1432378,0,0,,,,
352.5359998,1377,4.05E-07,61.42944308,0,1.61E-08,0,48.55016483,76.75380343,-92.08586279,-148.8477324,85.06885681,3.20E-09,-7.80E-09,0,-14.53741676,0,0,,,,
352.5439998,1377,2.22E-06,-89.65498606,0,1.64E-08,0,-150.1391258,-111.2838725,63.6147986,108.6732901,4.829054222,3.30E-09,-7.40E-09,0,183.902202,0,0,,,,
352.5519998,1377,1.64E-06,-51.53122943,0,1.67E-08,0,50.85719733,87.1514981,-112.2835951,-30.41020533,-36.233129,3.40E-09,-6.90E-09,0,181.3240664,0,0,,,,
352.5599998,1377,1.67E-06,34.48757706,0,1.70E-08,0,-70.51747405,-36.45571409,-19.63182154,-54.65602101,74.87734123,3.50E-09,-6.50E-09,0,-24.88959595,0,0,,,,
352.5679998,1377,1.77E-06,-98.67086802,0,1.73E-08,0,-17.26277243,15.70501966,-7.624752335,163.7357825,-28.66706235,3.60E-09,-6.10E-09,0,282.1719067,0,0,,,,
352.5759998,1377,1.62E-06,91.42947768,0,1.76E-08,0,51.00906493,76.35217461,-103.2151039,-153.0171509,81.50655392,3.70E-09,-5.70E-09,0,-53.502857,0,0,,,,
352.5839998,1377,1.71E-06,-35.09879664,0,1.79E-08,0,-135.0214559,-99.63628648,55.41892372,90.61103724,1.280450228,3.80E-09,-5.20E-09,0,157.112635,0,0,,,,
352.5919998,1377,1.63E-06,-21.60654961,0,1.82E-08,0,43.61681477,73.31428721,-114.7358814,-35.88776356,-14.61056256,3.90E-09,-4.80E-09,0,161.7278893,0,0,,,,
352.5999998,1377,1.65E-06,47.84564689,0,1.85E-08,0,-82.73318824,-65.9472232,-10.88091937,-88.5289644,71.42720319,4.00E-09,-4.40E-09,0,-37.55889082,0,0,,,,
352.6079998,1377,1.61E-06,-112.4518124,0,1.88E-08,0,-49.91038091,-27.10234672,-12.89031124,125.3021634,-81.14648322,4.10E-09,-4.00E-09,0,288.7714053,0,0,,,,
352.6159998,1377,1.61E-06,66.27199551,0,1.91E-08,0,24.93616421,52.02513211,-128.4587475,-156.4121434,51.80707409,4.20E-09,-3.50E-09,0,-67.42333678,0,0,,,,
352.6239998,1377,1.59E-06,-38.92310953,0,1.93E-08,0,-107.1852107,-84.20062372,64.15755787,102.2630174,9.244526752,4.30E-09,-3.10E-09,0,129.9671438,0,0,,,,
352.6319998,1377,1.58E-06,-33.42746292,0,1.96E-08,0,81.79410625,94.15906976,-86.00469375,-21.71041063,-6.513051103,4.40E-09,-2.70E-09,0,150.9555293,0,0,,,,
352.6399998,1377,1.56E-06,45.27167689,0,1.99E-08,0,-58.87384474,-42.49962637,-2.896209877,-67.10749497,93.81802886,4.50E-09,-2.30E-09,0,-51.45289586,0,0,,,,
352.6479998,1377,1.55E-06,-74.40175139,0,2.02E-08,0,-7.799803861,13.92591108,12.04148518,167.3264621,-33.92351556,4.60E-09,-1.90E-09,0,306.9544477,0,0,,,,
352.6559998,1377,1.54E-06,103.1871341,0,2.05E-08,0,74.69397365,90.38472073,-85.6865702,-117.8156135,95.9036629,4.60E-09,-1.50E-09,0,-23.33905066,0,0,,,,
352.6639998,1377,1.52E-06,-11.74375988,0,2.08E-08,0,-90.75458647,-64.72677776,90.09511564,128.2513566,38.56770873,4.70E-09,-1.10E-09,0,157.2214938,0,0,,,,
352.6719998,1377,1.51E-06,5.559515077,0,2.10E-08,0,77.3622889,105.3472755,-73.13574294,14.13371231,19.70151138,4.80E-09,-7.00E-10,0,177.7682573,0,0,,,,
352.6799998,1377,1.49E-06,56.47101536,0,2.13E-08,0,-70.05760185,-46.12171541,1.263130287,-50.1735598,91.73926674,4.90E-09,-3.00E-10,0,-37.41121954,0,0,,,,
352.6879998,1377,1.48E-06,-104.0280127,0,2.16E-08,0,-41.25237292,-11.12756056,-1.365602171,157.0693909,-72.97145824,5.00E-09,1.00E-10,0,306.8689921,0,0,,,,
352.6959998,1377,1.46E-06,80.46201876,0,2.19E-08,0,41.27798692,57.36579019,-110.2294242,-141.2318537,78.10438695,5.10E-09,6.00E-10,0,-27.810947,0,0,,,,
352.7039998,1377,1.45E-06,-61.6202548,0,2.21E-08,0,-138.6165098,-133.8911047,71.23693511,88.9704456,-1.019737864,5.20E-09,1.00E-09,0,161.5815364,0,0,,,,
352.7119998,1377,1.44E-06,-50.30097128,0,2.24E-08,0,38.1953639,48.84216305,-102.4759876,-39.73510659,-65.43924041,5.30E-09,1.40E-09,0,203.5766322,0,0,,,,
352.7199998,1377,1.42E-06,74.90590868,0,2.27E-08,0,-61.0600264,-52.35787663,-21.9201667,-87.11298677,75.47945646,5.40E-09,1.80E-09,0,-30.08198001,0,0,,,,
352.7279998,1377,1.41E-06,-95.06977421,0,2.30E-08,0,-33.18606542,-33.53110458,8.800107155,156.9626243,-59.25364297,5.50E-09,2.10E-09,0,320.2656584,0,0,,,,
352.7359998,1377,1.40E-06,49.58768174,0,2.32E-08,0,46.52210108,44.48017001,-108.5111169,-153.7824808,56.20108577,5.60E-09,2.50E-09,0,2.908995354,0,0,,,,
352.7439998,1377,1.38E-06,-59.86117112,0,2.35E-08,0,-138.6432598,-132.7013587,61.04213983,74.09085349,7.012209792,5.70E-09,2.90E-09,0,157.3854079,0,0,,,,
352.7519998,1377,1.37E-06,-38.81349824,0,2.37E-08,0,43.19947368,42.72110429,-100.1826156,-47.79943722,-56.26888067,5.80E-09,3.30E-09,0,184.6083178,0,0,,,,
352.7599998,1377,-5.51E-07,72.84294633,0,2.40E-08,0,-32.61976165,-35.7250408,-12.04244728,-111.4846292,79.35367757,5.80E-09,3.70E-09,0,-63.4367323,0,0,,,,
352.7679998,1378,-2.36E-06,-63.07360109,0,2.43E-08,0,-16.07731243,-8.20510491,21.42236853,163.4569075,-22.04157006,5.90E-09,4.10E-09,0,258.9342456,0,0,,,,
352.7759998,1378,-1.78E-06,103.5671529,0,2.45E-08,0,43.83839776,51.19762646,-102.3299961,-125.7978328,64.12006395,6.00E-09,4.50E-09,0,-57.46989094,0,0,,,,
352.7839998,1378,-1.81E-06,-43.02573951,0,2.48E-08,0,-142.7509775,-126.4681435,71.51277082,92.67313318,4.371868728,6.10E-09,4.90E-09,0,103.2605647,0,0,,,,
352.7919998,1378,-1.91E-06,-48.09161983,0,2.50E-08,0,28.19840933,51.01559933,-91.51728837,-26.76593096,-29.16545904,6.20E-09,5.30E-09,0,137.2253241,0,0,,,,
352.7999998,1378,-1.76E-06,47.27000314,0,2.53E-08,0,-73.3653137,-58.57582763,-28.72446567,-105.6034747,66.97679487,6.30E-09,5.60E-09,0,-101.6309859,0,0,,,,
352.8079998,1378,-1.85E-06,-124.9273745,0,2.55E-08,0,-30.64426852,-26.27247824,11.35405084,151.405769,-68.81494305,6.40E-09,6.00E-09,0,232.2455206,0,0,,,,
352.8159998,1378,-1.76E-06,15.71872241,0,2.58E-08,0,44.75254037,46.96852511,-92.81895517,-146.0338314,32.93554371,6.40E-09,6.40E-09,0,-76.78209939,0,0,,,,
352.8239998,1378,-1.79E-06,-101.4124324,0,2.60E-08,0,-144.1544623,-132.8256595,71.42814617,66.97665061,-34.35038019,6.50E-09,6.80E-09,0,89.19581975,0,0,,,,
352.8319998,1378,-1.75E-06,-52.07463794,0,2.63E-08,0,68.68474475,71.99238208,-85.23610991,-32.17591381,-64.66254449,6.60E-09,7.20E-09,0,119.218255,0,0,,,,
352.8399998,1378,-1.75E-06,7.518794752,0,2.65E-08,0,-72.41163094,-65.20322834,-7.427046567,-105.4780797,39.23699494,6.70E-09,7.50E-09,0,-118.0214153,0,0,,,,
352.8479998,1378,-1.72E-06,-219.4883352,0,2.68E-08,0,-88.38274764,-72.8661313,7.002611671,110.9635877,-135.2030735,6.80E-09,7.90E-09,0,253.484874,0,0,,,,
352.8559998,1378,-1.71E-06,-20.74012073,0,2.70E-08,0,41.81864995,45.57450819,-116.3380024,-202.3210683,-26.74655521,6.90E-09,8.30E-09,0,-64.39790733,0,0,,,,
352.8639998,1378,-1.69E-06,-118.5029567,0,2.73E-08,0,-127.6212217,-119.950116,74.09627493,65.21176407,-62.40847923,6.90E-09,8.60E-09,0,81.49653884,0,0,,,,
352.8719998,1378,-1.68E-06,-90.4653579,0,2.75E-08,0,49.60808876,59.10811944,-79.12711762,-6.021040221,-98.95087953,7.00E-09,9.00E-09,0,138.9589735,0,0,,,,
352.8799998,1378,-1.66E-06,116.7876619,0,2.77E-08,0,-129.7739973,-118.5683699,30.1527842,-167.7422891,100.5793773,7.10E-09,9.40E-09,0,-270.6002231,0,0,,,,
352.8879998,1378,-1.65E-06,-147.8692235,0,2.80E-08,0,-169.8331642,-152.9233675,106.8842112,184.0364504,-90.90431474,7.20E-09,9.70E-09,0,192.2378034,0,0,,,,
352.8959998,1378,-1.63E-06,-84.93185558,0,2.82E-08,0,118.8142787,129.4188414,-178.5254265,-89.8297728,-100.2112825,7.30E-09,1.01E-08,0,110.9396927,0,0,,,,
352.9039998,1378,-1.62E-06,-26.43355664,0,2.84E-08,0,-117.9284978,-102.841048,-4.697246875,-98.69585851,22.59092499,7.40E-09,1.05E-08,0,-116.7696307,0,0,,,,
352.9119998,1378,-1.60E-06,-178.7635869,0,2.87E-08,0,-81.27915098,-69.08010348,15.46239304,90.01019011,-114.3621691,7.40E-09,1.08E-08,0,192.3511641,0,0,,,,
352.9199998,1378,-1.59E-06,-21.07191632,0,2.89E-08,0,46.82569658,36.61336146,-103.0729347,-122.2816466,-35.3358801,7.50E-09,1.12E-08,0,-14.36545996,0,0,,,,
352.9279998,1378,-1.57E-06,-16.97496525,0,2.91E-08,0,-113.8379588,-124.8431441,36.28369404,-2.670510874,10.08125308,7.60E-09,1.15E-08,0,-22.19180048,0,0,,,,
352.9359998,1378,-1.56E-06,-102.2664193,0,2.93E-08,0,9.81365767,7.302903751,-60.0970061,50.1984732,-75.61857495,7.70E-09,1.19E-08,0,185.2276871,0,0,,,,
352.9439998,1378,-1.54E-06,27.77248648,0,2.96E-08,0,-15.60179831,-21.95208911,-74.8169228,-113.4840365,35.77653609,7.70E-09,1.22E-08,0,-70.13453108,0,0,,,,
352.9519998,1378,-1.53E-06,-58.32019975,0,2.98E-08,0,-103.7724141,-106.4114402,40.67320858,88.83408124,-33.59456613,7.80E-09,1.26E-08,0,132.412575,0,0,,,,
352.9599998,1378,-1.51E-06,-2.848994987,0,3.00E-08,0,65.12196813,61.78810332,-90.24581177,-28.33531688,-22.05142746,7.90E-09,1.29E-08,0,114.9727516,0,0,,,,
352.9679998,1378,-1.50E-06,72.39316031,0,3.02E-08,0,-81.82035265,-85.64654418,2.712272752,-38.35782823,68.09728984,8.00E-09,1.33E-08,0,-59.67444722,0,0,,,,
352.9759998,1378,-1.48E-06,-70.56358389,0,3.05E-08,0,-65.5073997,-66.84994479,-7.894865966,140.5406282,-89.80548712,8.00E-09,1.36E-08,0,248.3745212,0,0,,,,
352.9839998,1378,4.39E-07,77.56807737,0,3.07E-08,0,5.771291135,3.561271418,-111.9293403,-138.2334479,22.31454902,8.10E-09,1.40E-08,0,-39.50044692,0,0,,,,
352.9919998,1378,2.25E-06,0.346589285,0,3.09E-08,0,-127.8562703,-124.4716028,45.67493249,59.83787976,-3.710815304,8.20E-09,1.43E-08,0,86.84306577,0,0,,,,
352.9999998,1378,1.67E-06,9.042844583,0,3.11E-08,0,37.25247899,35.3717108,-90.65950719,-8.049923439,-51.5902222,8.30E-09,1.47E-08,0,136.9488088,0,0,,,,
353.0079998,1378,1.71E-06,93.40297739,0,3.13E-08,0,-76.83217179,-80.65316109,-37.00182091,-90.57012278,68.57799807,8.30E-09,1.50E-08,0,-108.3103534,0,0,,,,
353.0159998,1378,1.80E-06,-61.6042874,0,3.15E-08,0,-51.06339839,-59.87237914,1.513615117,155.2007758,-64.26281648,8.40E-09,1.53E-08,0,220.7780834,0,0,,,,
353.0239998,1379,1.65E-06,102.8888803,0,3.17E-08,0,51.28558638,29.8931701,-100.1140417,-111.544972,21.12258751,8.50E-09,1.57E-08,0,-42.66962613,0,0,,,,
353.0319998,1379,1.75E-06,3.48864643,0,3.19E-08,0,-122.3059486,-128.9956664,75.64872414,100.4768412,-6.996705725,8.60E-09,1.60E-08,0,105.1836056,0,0,,,,
353.0399998,1379,1.66E-06,21.18796068,0,3.21E-08,0,60.78465897,57.47935755,-60.86859705,34.65319299,-40.15060521,8.60E-09,1.63E-08,0,167.882859,0,0,,,,
353.0479998,1379,1.69E-06,134.2730477,0,3.23E-08,0,-43.87887147,-53.51518587,0.4377403,-74.24633685,83.35927611,8.70E-09,1.67E-08,0,-100.8100831,0,0,,,,
353.0559998,1379,1.65E-06,-70.24726482,0,3.25E-08,0,-67.61083152,-71.19234823,40.00116837,175.2926838,-55.8125704,8.80E-09,1.70E-08,0,254.2779532,0,0,,,,
353.0639998,1379,1.64E-06,101.2444865,0,3.27E-08,0,41.70268316,25.36453826,-92.69195101,-117.2920662,30.94432478,8.80E-09,1.73E-08,0,-27.40087917,0,0,,,,
353.0719998,1379,1.62E-06,36.77293477,0,3.29E-08,0,-122.5684368,-140.7278716,86.04315726,103.4795577,-10.11585489,8.90E-09,1.77E-08,0,98.60766236,0,0,,,,
353.0799998,1379,1.61E-06,-7.425838047,0,3.31E-08,0,32.29126875,22.17330517,-58.1531889,45.31890514,-58.01326399,9.00E-09,1.80E-08,0,197.6538619,0,0,,,,
353.0879998,1379,1.60E-06,89.46225625,0,3.33E-08,0,-65.11703388,-74.32922972,-16.05361207,-86.55235542,70.45735426,9.10E-09,1.83E-08,0,-61.75432282,0,0,,,,
353.0959998,1379,1.58E-06,-51.07022253,0,3.35E-08,0,-47.16912535,-52.01111391,21.78514458,195.3261169,-67.19912025,9.10E-09,1.86E-08,0,285.4574133,0,0,,,,
353.1039998,1379,1.57E-06,98.13969967,0,3.37E-08,0,60.21567352,42.54819335,-111.1501235,-80.70504609,45.40871277,9.20E-09,1.89E-08,0,-0.502695225,0,0,,,,
353.1119998,1379,1.55E-06,-21.26323298,0,3.39E-08,0,-132.4597215,-156.9169934,73.94123274,98.86301808,4.360056716,9.30E-09,1.93E-08,0,129.6600103,0,0,,,,
353.1199998,1379,1.54E-06,-25.72683208,0,3.41E-08,0,25.60007195,9.714191577,-74.31957697,36.01945404,-85.36840279,9.30E-09,1.96E-08,0,222.640353,0,0,,,,
353.1279998,1379,1.52E-06,122.0698563,0,3.43E-08,0,-60.22120969,-77.28843464,-24.02129171,-74.73409635,55.68761613,9.40E-09,1.99E-08,0,-70.06272867,0,0,,,,
353.1359998,1379,1.51E-06,-38.6937932,0,3.45E-08,0,-35.97014027,-58.49888843,39.68369747,191.8646179,-72.63676374,9.50E-09,2.02E-08,0,289.9290194,0,0,,,,
353.1439998,1379,1.49E-06,100.2852258,0,3.47E-08,0,55.96570288,36.90110637,-98.73320581,-85.30280856,30.39054389,9.50E-09,2.05E-08,0,18.03544887,0,0,,,,
353.1519998,1379,1.48E-06,-27.75585881,0,3.48E-08,0,-166.6319713,-181.3703407,80.94172927,114.7598265,4.684258076,9.60E-09,2.08E-08,0,134.378127,0,0,,,,
353.1599998,1379,1.47E-06,-54.05896782,0,3.50E-08,0,14.14930854,-9.383963507,-65.69393856,22.12358193,-84.73242721,9.60E-09,2.11E-08,0,244.2907996,0,0,,,,
353.1679998,1379,1.45E-06,124.8106919,0,3.52E-08,0,-32.97164545,-55.31382744,-21.53315889,-110.4952491,69.69459097,9.70E-09,2.14E-08,0,-47.39762576,0,0,,,,
353.1759998,1379,1.44E-06,-84.42458666,0,3.54E-08,0,5.025225953,-9.734828921,36.79994527,237.2291591,-98.01286711,9.80E-09,2.17E-08,0,413.7949784,0,0,,,,
353.1839998,1379,1.42E-06,51.6183997,0,3.56E-08,0,211.1709933,194.2118319,-218.5437786,-133.289016,-34.97778291,9.80E-09,2.20E-08,0,146.002801,0,0,,,,
353.1919998,1379,1.41E-06,90.66318367,0,3.57E-08,0,35.0588957,19.47498303,-81.74405491,-99.0972076,49.17956218,9.90E-09,2.23E-08,0,11.41109127,0,0,,,,
353.1999998,1379,1.40E-06,-0.726495243,0,3.59E-08,0,16.02540436,4.591809725,-29.27396551,61.79622744,-31.51929477,1.00E-08,2.26E-08,0,198.0838385,0,0,,,,
353.2079998,1379,-5.23E-07,63.59900654,0,3.61E-08,0,-79.23888766,-85.48911076,15.83674398,3.595452156,47.70711424,1.00E-08,2.29E-08,0,3.344318837,0,0,,,,
353.2159998,1379,-2.34E-06,-38.5440266,0,3.62E-08,0,-8.914406956,-17.6266781,4.103682819,144.3912648,-30.29246896,1.01E-08,2.32E-08,0,226.9904479,0,0,,,,
353.2239998,1379,-1.75E-06,54.57920126,0,3.64E-08,0,24.14108025,18.3118753,-71.26834686,-40.57940731,37.83270564,1.01E-08,2.35E-08,0,46.01170001,0,0,,,,
353.2319998,1379,-1.79E-06,14.79089628,0,3.66E-08,0,-138.0402768,-128.289284,68.48088006,95.67689261,5.933434973,1.02E-08,2.38E-08,0,125.8242184,0,0,,,,
353.2399998,1379,-1.89E-06,8.702667997,0,3.67E-08,0,30.3170783,43.36782643,-50.01319072,23.41336524,-49.77549233,1.03E-08,2.41E-08,0,210.2430076,0,0,,,,
353.2479998,1379,-1.73E-06,94.66581775,0,3.69E-08,0,-83.19303029,-63.11169464,2.652129125,-74.37805948,75.00493285,1.03E-08,2.44E-08,0,-36.65608992,0,0,,,,
353.2559998,1379,-1.83E-06,-26.75019876,0,3.71E-08,0,-61.27037447,-32.97343839,23.27840174,146.4696912,-40.72856951,1.04E-08,2.47E-08,0,249.4288353,0,0,,,,
353.2639998,1379,-1.74E-06,103.1647989,0,3.72E-08,0,32.16834985,58.63504897,-96.6622056,-88.3127788,28.8348835,1.04E-08,2.50E-08,0,14.61409072,0,0,,,,
353.2719998,1379,-1.76E-06,37.87966156,0,3.74E-08,0,-133.8618724,-100.2743763,71.10971601,98.76824007,27.83798447,1.05E-08,2.53E-08,0,104.8001045,0,0,,,,
353.2799998,1380,-1.72E-06,20.98757041,0,3.76E-08,0,31.9055581,69.3273899,-53.39365359,55.52237187,-15.70279524,1.06E-08,2.55E-08,0,209.0923692,0,0,,,,
353.2879998,1380,-1.72E-06,116.1273921,0,3.77E-08,0,-80.41364864,-41.3681643,-20.15805092,-96.38379699,68.24283059,1.06E-08,2.58E-08,0,-49.11593934,0,0,,,,
353.2959998,1380,-1.70E-06,-50.1119728,0,3.79E-08,0,-82.60103458,-45.37334182,39.46394038,145.2382356,-71.56321943,1.07E-08,2.61E-08,0,294.441675,0,0,,,,
353.3039998,1380,-1.69E-06,101.4003714,0,3.80E-08,0,46.38772795,73.4785777,-89.64146259,-124.0956601,39.39893443,1.07E-08,2.64E-08,0,33.39704964,0,0,,,,
353.3119998,1380,-1.67E-06,32.71953627,0,3.82E-08,0,-121.8009699,-91.01062119,77.89549018,67.32455369,15.19194079,1.08E-08,2.66E-08,0,119.0122995,0,0,,,,
353.3199998,1380,-1.65E-06,-2.674283936,0,3.83E-08,0,46.22839524,73.61848601,-36.95626739,54.6022817,-32.45880319,1.08E-08,2.69E-08,0,232.7980844,0,0,,,,
353.3279998,1380,-1.64E-06,130.5566151,0,3.85E-08,0,-48.11935951,-29.33384701,7.023050266,-102.3708034,115.3313839,1.09E-08,2.72E-08,0,-53.86634976,0,0,,,,
353.3359998,1380,-1.62E-06,-25.93848239,0,3.86E-08,0,-73.37819856,-45.13448574,60.08198657,155.1139146,-41.95678177,1.09E-08,2.75E-08,0,324.1418906,0,0,,,,
353.3439998,1380,-1.61E-06,143.0807009,0,3.88E-08,0,61.00046868,92.35290164,-95.44513263,-116.1974911,51.84851193,1.10E-08,2.77E-08,0,54.97630038,0,0,,,,
353.3519998,1380,-1.59E-06,78.99113689,0,3.89E-08,0,-115.7068518,-80.39808887,93.1826004,79.16011265,52.03778559,1.10E-08,2.80E-08,0,121.17092,0,0,,,,
353.3599998,1380,-1.58E-06,30.81123881,0,3.90E-08,0,49.92611994,88.59602878,-21.79827222,64.33424194,-22.38525775,1.11E-08,2.83E-08,0,263.6818393,0,0,,,,
353.3679998,1380,-1.56E-06,145.5189341,0,3.92E-08,0,-44.23228245,-2.219480205,-0.785572172,-92.67636144,112.2324146,1.11E-08,2.85E-08,0,-49.82064258,0,0,,,,
353.3759998,1380,-1.55E-06,-47.48051645,0,3.93E-08,0,-94.78107495,-39.82090436,53.14244203,185.8141078,-41.56422481,1.12E-08,2.88E-08,0,301.2719989,0,0,,,,
353.3839998,1380,-1.53E-06,112.3230466,0,3.95E-08,0,40.1312095,87.6542071,-111.1002635,-105.4280173,39.19531007,1.12E-08,2.90E-08,0,49.25519714,0,0,,,,
353.3919998,1380,-1.52E-06,55.83985701,0,3.96E-08,0,-126.3187979,-86.12043114,70.2234782,53.00814208,51.45223437,1.13E-08,2.93E-08,0,117.4934482,0,0,,,,
353.3999998,1380,-1.50E-06,15.14590707,0,3.97E-08,0,40.85803025,76.53727593,-39.38238478,42.81444116,-25.99767565,1.13E-08,2.95E-08,0,268.1668269,0,0,,,,
353.4079998,1380,-1.49E-06,128.0666362,0,3.99E-08,0,-73.07891143,-44.51147382,-15.21607737,-123.0506961,78.19415319,1.14E-08,2.98E-08,0,-24.89694606,0,0,,,,
353.4159998,1380,-1.47E-06,-59.3477275,0,4.00E-08,0,-102.633269,-67.50668066,44.34238894,132.5863633,-78.07413556,1.14E-08,3.01E-08,0,337.5940307,0,0,,,,
353.4239998,1380,-1.46E-06,97.28946413,0,4.01E-08,0,54.40114982,87.75970779,-114.8601779,-145.3898591,9.150830192,1.15E-08,3.03E-08,0,84.36326116,0,0,,,,
353.4319998,1380,4.62E-07,31.64168432,0,4.03E-08,0,-156.8038826,-118.3651215,63.70750334,24.38178688,12.65278886,1.15E-08,3.06E-08,0,149.5695845,0,0,,,,
353.4399998,1380,2.27E-06,40.56521014,0,4.04E-08,0,39.82326977,83.12598822,-58.1358006,16.12879536,-34.34599984,1.16E-08,3.08E-08,0,277.1473542,0,0,,,,
353.4479998,1380,1.69E-06,176.8835798,0,4.05E-08,0,-31.6839572,8.006511669,-29.6200969,-124.6999923,120.6886547,1.16E-08,3.10E-08,0,-72.5860319,0,0,,,,
353.4559998,1380,1.73E-06,-58.83179612,0,4.06E-08,0,-118.8307458,-77.59621679,49.76852118,155.63659,-56.99920987,1.17E-08,3.13E-08,0,288.4244841,0,0,,,,
353.4639998,1380,1.83E-06,122.344077,0,4.08E-08,0,63.35937862,90.08606531,-110.0684652,-132.195783,12.91757059,1.17E-08,3.15E-08,0,47.34810795,0,0,,,,
353.4719998,1380,1.68E-06,73.64425893,0,4.09E-08,0,-106.522735,-80.87540239,77.13393287,39.435439,47.29547881,1.18E-08,3.18E-08,0,82.52319766,0,0,,,,
353.4799998,1380,1.77E-06,-13.75566647,0,4.10E-08,0,-0.914111763,38.01929322,-39.5899583,33.11338358,-41.55014086,1.18E-08,3.20E-08,0,247.4256604,0,0,,,,
353.4879998,1380,1.68E-06,132.2599751,0,4.11E-08,0,-70.00860338,-37.98620167,-26.59492994,-148.6819948,82.04149085,1.19E-08,3.22E-08,0,-58.22328139,0,0,,,,
353.4959998,1380,1.71E-06,-48.70630988,0,4.12E-08,0,-84.01036053,-63.17940396,58.54851843,132.1549925,-50.42047309,1.19E-08,3.25E-08,0,297.4880993,0,0,,,,
353.5039998,1380,1.67E-06,87.79918684,0,4.13E-08,0,57.87169765,75.35031749,-108.8848382,-128.6475582,28.89327832,1.19E-08,3.27E-08,0,54.80084516,0,0,,,,
353.5119998,1380,1.67E-06,34.57136677,0,4.15E-08,0,-156.0294953,-125.586625,54.8605126,42.47155619,39.55916594,1.20E-08,3.29E-08,0,83.35277071,0,0,,,,
353.5199998,1380,1.64E-06,-48.413048,0,4.16E-08,0,-19.92979023,14.56747248,-59.53291619,26.70088462,-69.13448791,1.20E-08,3.32E-08,0,241.3360646,0,0,,,,
353.5279998,1380,1.63E-06,87.88091139,0,4.17E-08,0,-58.88776901,-34.68189541,-40.45407121,-168.0641006,50.94273194,1.21E-08,3.34E-08,0,-95.88332119,0,0,,,,
353.5359998,1381,1.62E-06,-84.39105229,0,4.18E-08,0,-93.72821647,-65.36237546,40.05625837,133.7064951,-62.32929133,1.21E-08,3.36E-08,0,229.0175017,0,0,,,,
353.5439998,1381,1.60E-06,33.44047149,0,4.19E-08,0,50.8187249,72.28673431,-121.5730915,-144.6185206,15.14554822,1.22E-08,3.39E-08,0,-5.213786354,0,0,,,,
353.5519998,1381,1.59E-06,-9.550701321,0,4.20E-08,0,-115.2043849,-94.79054764,66.72873245,-30.1395221,-4.097403877,1.22E-08,3.41E-08,0,43.87186739,0,0,,,,
353.5599998,1381,1.57E-06,-59.20795074,0,4.21E-08,0,39.09082406,69.71292499,-39.04031031,-17.7916299,-86.27961479,1.22E-08,3.43E-08,0,209.4517853,0,0,,,,
353.5679998,1381,1.56E-06,48.10772981,0,4.22E-08,0,-36.38673997,-13.42480226,-28.14861755,-198.8046144,72.77487336,1.23E-08,3.45E-08,0,-127.0974892,0,0,,,,
353.5759998,1381,1.54E-06,-147.7440442,0,4.23E-08,0,-96.81908052,-71.53830021,52.14482221,60.59118123,-82.54807958,1.23E-08,3.47E-08,0,233.6661519,0,0,,,,
353.5839998,1381,1.53E-06,9.361985017,0,4.24E-08,0,58.79139303,83.52796905,-122.8268739,-204.892553,-7.529568167,1.24E-08,3.49E-08,0,-2.653634418,0,0,,,,
353.5919998,1381,1.51E-06,-33.92148191,0,4.25E-08,0,-144.3825856,-124.0455825,55.60114749,-53.28796334,1.615152347,1.24E-08,3.52E-08,0,8.313119083,0,0,,,,
353.5999998,1381,1.50E-06,-113.8687502,0,4.26E-08,0,-12.62084084,4.358902917,-50.92120413,-35.5710631,-122.5230492,1.24E-08,3.54E-08,0,204.993375,0,0,,,,
353.6079998,1381,1.49E-06,23.31529118,0,4.27E-08,0,-49.74853575,-42.14692148,-46.59317362,-218.5280574,27.71093928,1.25E-08,3.56E-08,0,-120.9653801,0,0,,,,
353.6159998,1381,1.47E-06,-137.441299,0,4.28E-08,0,-87.85727531,-71.8257887,49.15245471,49.23901225,-93.80690605,1.25E-08,3.58E-08,0,225.5591078,0,0,,,,
353.6239998,1381,1.46E-06,18.06659287,0,4.29E-08,0,64.86517458,80.28099801,-114.9654286,-206.1864465,-9.302021843,1.25E-08,3.60E-08,0,13.83156567,0,0,,,,
353.6319998,1381,1.44E-06,-26.98748791,0,4.30E-08,0,-147.9220984,-130.0793292,57.57255156,-37.71860062,5.022103604,1.26E-08,3.62E-08,0,37.06856069,0,0,,,,
353.6399998,1381,1.43E-06,-80.9871499,0,4.31E-08,0,-2.322537762,26.57100929,-45.028455,-19.34317199,-107.800832,1.26E-08,3.64E-08,0,239.9766259,0,0,,,,
353.6479998,1381,1.42E-06,91.36887525,0,4.32E-08,0,-45.46568123,-24.30691066,-29.44650039,-202.5977481,63.14622714,1.27E-08,3.66E-08,0,-78.60425152,0,0,,,,
353.6559998,1381,-5.04E-07,-166.2975156,0,4.33E-08,0,-110.0301692,-90.9028039,75.34579831,168.224939,-133.0462545,1.27E-08,3.68E-08,0,396.1997321,0,0,,,,
353.6639998,1381,-2.32E-06,-89.97936976,0,4.33E-08,0,167.32185,185.0321127,-199.7910239,-140.0064075,-140.9169639,1.27E-08,3.70E-08,0,243.6394094,0,0,,,,
353.6719998,1381,-1.74E-06,-5.45495796,0,4.34E-08,0,21.71930388,37.86024942,-93.79854999,-182.1921841,-17.11466822,1.28E-08,3.72E-08,0,19.66444204,0,0,,,,
353.6799998,1381,-1.77E-06,-64.86952117,0,4.35E-08,0,-29.69051832,-12.54315412,-9.591279478,-0.72387713,-67.13257705,1.28E-08,3.74E-08,0,190.0789738,0,0,,,,
353.6879998,1381,-1.87E-06,65.23663674,0,4.36E-08,0,-57.34266606,-43.20610053,18.70782273,-97.63723058,62.98045321,1.28E-08,3.76E-08,0,-55.42192716,0,0,,,,
353.6959998,1381,-1.72E-06,-10.85369879,0,4.37E-08,0,-28.0615194,-17.60551277,38.78259941,62.21717336,-13.05458754,1.29E-08,3.78E-08,0,199.0857738,0,0,,,,
353.7039998,1381,-1.81E-06,97.22957771,0,4.38E-08,0,47.57999314,49.97128539,-52.68079325,-94.659035,44.92800845,1.29E-08,3.80E-08,0,50.09339529,0,0,,,,
353.7119998,1381,-1.72E-06,37.87654987,0,4.38E-08,0,-105.976642,-100.4665137,83.20498541,40.31955565,60.7565118,1.29E-08,3.82E-08,0,63.38641647,0,0,,,,
353.7199998,1381,-1.75E-06,-15.36948829,0,4.39E-08,0,39.55282102,48.20763243,-17.20274942,42.7227415,-32.21614933,1.29E-08,3.84E-08,0,241.5293022,0,0,,,,
353.7279998,1381,-1.71E-06,109.8233587,0,4.40E-08,0,-38.68923035,-30.46544341,6.469907627,-108.5170645,100.5154754,1.30E-08,3.85E-08,0,-64.99624092,0,0,,,,
353.7359998,1381,-1.70E-06,-106.9394548,0,4.41E-08,0,-109.8059151,-98.20456568,66.60376229,127.4646614,-36.45988623,1.30E-08,3.87E-08,0,233.2481372,0,0,,,,
353.7439998,1381,-1.68E-06,48.22417032,0,4.41E-08,0,37.39075447,46.25866401,-87.47584366,-132.6914894,-9.200802908,1.30E-08,3.89E-08,0,49.13198014,0,0,,,,
353.7519998,1381,-1.67E-06,100.7594848,0,4.42E-08,0,-92.08314212,-78.03411365,69.59144395,-1.573195772,38.46615722,1.31E-08,3.91E-08,0,22.49250081,0,0,,,,
353.7599998,1381,-1.65E-06,7.618044199,0,4.43E-08,0,38.37660975,50.41837346,-13.67363548,61.89262556,-22.46154975,1.31E-08,3.93E-08,0,201.3602777,0,0,,,,
353.7679998,1381,-1.64E-06,153.2113281,0,4.43E-08,0,-26.23962747,-18.52825601,-7.584336694,-112.9124223,119.7384018,1.31E-08,3.94E-08,0,-113.6087522,0,0,,,,
353.7759998,1381,-1.62E-06,-11.15705485,0,4.44E-08,0,-78.7896012,-72.19582517,87.27258942,176.8891204,1.480073781,1.32E-08,3.96E-08,0,223.3900795,0,0,,,,
353.7839998,1381,-1.61E-06,100.9888422,0,4.45E-08,0,86.25430143,82.76401392,-65.3551629,-70.54422174,57.09029147,1.32E-08,3.98E-08,0,48.49985235,0,0,,,,
353.7919998,1382,-1.59E-06,109.319013,0,4.45E-08,0,-91.82356346,-92.49538845,91.7732629,42.81407865,67.30125775,1.32E-08,4.00E-08,0,43.73680125,0,0,,,,
353.7999998,1382,-1.58E-06,34.7924911,0,4.46E-08,0,47.22755652,40.40757813,2.20619702,91.21314938,-23.27097281,1.32E-08,4.01E-08,0,246.7995519,0,0,,,,
353.8079998,1382,-1.56E-06,173.3804065,0,4.47E-08,0,7.935394814,-2.321206391,4.391173056,-120.3235545,142.7118695,1.33E-08,4.03E-08,0,-101.2016432,0,0,,,,
353.8159998,1382,-1.55E-06,-3.751502755,0,4.47E-08,0,-88.07970684,-89.45717084,101.8229361,182.6774657,3.584364317,1.33E-08,4.05E-08,0,222.1711504,0,0,,,,
353.8239998,1382,-1.53E-06,129.6948771,0,4.48E-08,0,76.0405338,69.47895661,-78.81034542,-51.95518265,46.37796981,1.33E-08,4.06E-08,0,26.79865211,0,0,,,,
353.8319998,1382,-1.52E-06,113.3803541,0,4.48E-08,0,-95.27366339,-94.90148047,85.85175528,43.03344813,83.43192941,1.33E-08,4.08E-08,0,-6.553313449,0,0,,,,
353.8399998,1382,-1.50E-06,18.21120442,0,4.49E-08,0,20.21773486,26.46470654,6.731317592,90.14421352,-26.35281097,1.34E-08,4.10E-08,0,218.4136564,0,0,,,,
353.8479998,1382,-1.49E-06,172.3563577,0,4.49E-08,0,-36.30507389,-25.01257117,-12.26772523,-117.5439335,102.2582251,1.34E-08,4.11E-08,0,-102.72625,0,0,,,,
353.8559998,1382,-1.47E-06,-16.19365586,0,4.50E-08,0,-116.8612353,-94.14951771,79.07502287,153.5402408,-34.75803199,1.34E-08,4.13E-08,0,226.8282098,0,0,,,,
353.8639998,1382,-1.46E-06,92.05772521,0,4.50E-08,0,68.74637188,79.0859524,-91.36989744,-94.802198,24.11836018,1.34E-08,4.14E-08,0,37.00728411,0,0,,,,
353.8719998,1382,-1.44E-06,98.77764805,0,4.51E-08,0,-93.16616534,-86.32154138,90.27262657,39.78244178,76.54853499,1.35E-08,4.16E-08,0,-2.121485065,0,0,,,,
353.8799998,1382,4.77E-07,49.24236923,0,4.51E-08,0,43.40368562,54.94493604,6.268679738,111.3378189,-22.84426573,1.35E-08,4.17E-08,0,204.6515008,0,0,,,,
353.8879998,1382,2.29E-06,200.9663195,0,4.52E-08,0,-6.381385883,-1.449700703,-17.38383345,-94.86765551,124.8645892,1.35E-08,4.19E-08,0,-146.9899638,0,0,,,,
353.8959998,1382,1.71E-06,0.299653949,0,4.52E-08,0,-95.62617026,-92.69104536,106.077936,191.3766872,2.358730772,1.35E-08,4.21E-08,0,178.246519,0,0,,,,
353.9039998,1382,1.74E-06,96.91119185,0,4.53E-08,0,63.50776162,59.67727665,-70.41418062,-77.79362815,20.64579544,1.35E-08,4.22E-08,0,16.09692108,0,0,,,,
353.9119998,1382,1.84E-06,78.9113371,0,4.53E-08,0,-126.0520303,-122.8014478,70.58594559,27.59867851,43.21237846,1.36E-08,4.23E-08,0,-17.58759099,0,0,,,,
353.9199998,1382,1.69E-06,16.85309406,0,4.54E-08,0,23.30114834,30.7985455,-14.51457467,100.0152832,-45.72705825,1.36E-08,4.25E-08,0,188.4734585,0,0,,,,
353.9279998,1382,1.78E-06,177.3030244,0,4.54E-08,0,-10.02564243,-12.6587486,-27.51133339,-129.5587135,91.7231581,1.36E-08,4.26E-08,0,-162.6732065,0,0,,,,
353.9359998,1382,1.69E-06,18.7347885,0,4.54E-08,0,-79.30519435,-77.95055486,88.78915432,171.9693153,-19.9039179,1.36E-08,4.28E-08,0,156.6865093,0,0,,,,
353.9439998,1382,1.72E-06,161.0122301,0,4.55E-08,0,124.7841184,121.8588714,-85.45187057,-44.61557914,66.18758991,1.36E-08,4.29E-08,0,-16.81805943,0,0,,,,
353.9519998,1382,1.68E-06,125.3153869,0,4.55E-08,0,-89.98739261,-92.28434023,81.65460484,71.39502137,98.81616354,1.37E-08,4.31E-08,0,-48.10874778,0,0,,,,
353.9599998,1382,1.68E-06,12.38950791,0,4.56E-08,0,18.28604754,12.43134464,6.926124386,135.9385817,-39.12408589,1.37E-08,4.32E-08,0,193.8516054,0,0,,,,
353.9679998,1382,1.66E-06,163.9132011,0,4.56E-08,0,15.05848019,-2.949036548,-17.54756758,-108.6940254,110.7333156,1.37E-08,4.33E-08,0,-154.3206964,0,0,,,,
353.9759998,1382,1.65E-06,-22.95979977,0,4.56E-08,0,-86.86984119,-94.00357605,99.29551751,179.8977911,-15.93754767,1.37E-08,4.35E-08,0,161.9975094,0,0,,,,
353.9839998,1382,1.63E-06,86.94511078,0,4.57E-08,0,86.16417687,74.48959978,-80.04966432,-56.2498939,18.99683842,1.37E-08,4.36E-08,0,12.62758593,0,0,,,,
353.9919998,1382,1.62E-06,91.13126163,0,4.57E-08,0,-78.39789433,-93.58075736,76.77926236,47.78416718,70.61105762,1.37E-08,4.37E-08,0,-30.83809361,0,0,,,,
353.9999998,1382,1.60E-06,7.259328448,0,4.57E-08,0,35.65511357,33.42018272,-3.797599586,121.5988182,-51.99801581,1.38E-08,4.39E-08,0,189.0262659,0,0,,,,
354.0079998,1382,1.59E-06,160.37573,0,4.57E-08,0,16.99130828,19.15803035,-33.58978322,-119.2936031,111.4886169,1.38E-08,4.40E-08,0,-170.2838772,0,0,,,,
354.0159998,1382,1.57E-06,-23.59618241,0,4.58E-08,0,-80.37351307,-69.4908354,91.44889608,193.7480882,5.031103883,1.38E-08,4.41E-08,0,152.4152917,0,0,,,,
354.0239998,1382,1.56E-06,72.99632794,0,4.58E-08,0,80.50159469,90.35551548,-88.82687505,-54.49507371,5.982970129,1.38E-08,4.42E-08,0,22.52343309,0,0,,,,
354.0319998,1382,1.54E-06,82.20300641,0,4.58E-08,0,-98.55870359,-87.83969978,61.89774317,11.79208844,49.30495146,1.38E-08,4.44E-08,0,-21.92846555,0,0,,,,
354.0399998,1382,1.53E-06,-0.987300345,0,4.58E-08,0,12.97917938,33.55091726,-15.42785198,120.0659326,-55.14287004,1.38E-08,4.45E-08,0,211.0439979,0,0,,,,
354.0479998,1383,1.51E-06,145.8305056,0,4.59E-08,0,8.14186821,26.56173612,-47.99587886,-118.7668746,88.44379273,1.39E-08,4.46E-08,0,-136.7753049,0,0,,,,
354.0559998,1383,1.50E-06,-17.93322508,0,4.59E-08,0,-62.43609836,-47.3030782,85.41344574,156.737712,-10.7189426,1.39E-08,4.47E-08,0,171.7403732,0,0,,,,
354.0639998,1383,1.48E-06,86.73349963,0,4.59E-08,0,99.86508978,112.8660868,-91.02511935,-65.59618655,32.47689171,1.39E-08,4.48E-08,0,20.894533,0,0,,,,
354.0719998,1383,1.47E-06,71.14919383,0,4.59E-08,0,-92.24775658,-76.7767028,56.34045764,25.71754293,67.22787151,1.39E-08,4.50E-08,0,-34.13927737,0,0,,,,
354.0799998,1383,1.46E-06,-17.46420637,0,4.59E-08,0,31.48255788,47.09879704,-6.32244366,121.9995459,-70.72498019,1.39E-08,4.51E-08,0,209.238239,0,0,,,,
354.0879997,1383,1.44E-06,169.524679,0,4.60E-08,0,11.09187528,30.32490866,-41.09960315,-127.7527986,82.9902835,1.39E-08,4.52E-08,0,-142.1747723,0,0,,,,
354.0959998,1383,1.43E-06,29.46970388,0,4.60E-08,0,-56.93686174,-29.93622987,82.04013814,160.6073783,-7.586622693,1.39E-08,4.53E-08,0,169.5265344,0,0,,,,
354.1039998,1383,-4.92E-07,141.0523977,0,4.60E-08,0,169.3060459,180.1172663,-74.88956454,-26.79043116,46.68969119,1.39E-08,4.54E-08,0,20.23869317,0,0,,,,
354.1119997,1383,-2.30E-06,121.3195862,0,4.60E-08,0,-39.91963648,-29.68506088,89.83151663,64.30025091,114.9292108,1.39E-08,4.55E-08,0,-42.88244838,0,0,,,,
354.1199998,1383,-1.72E-06,-1.960472173,0,4.60E-08,0,41.4963544,65.7069595,20.73587896,121.1678222,-35.93123701,1.40E-08,4.56E-08,0,234.2810981,0,0,,,,
354.1279998,1383,-1.76E-06,147.5097192,0,4.60E-08,0,28.96579953,50.27501639,-16.03499239,-132.0283362,77.77561604,1.40E-08,4.57E-08,0,-108.9609642,0,0,,,,
354.1359998,1383,-1.86E-06,-9.074707088,0,4.60E-08,0,-91.84801427,-63.62490073,101.7327569,167.6126702,-27.16181085,1.40E-08,4.58E-08,0,177.8191267,0,0,,,,
354.1439998,1383,-1.70E-06,100.5291574,0,4.60E-08,0,80.30609136,109.0987462,-88.32086865,-59.43858473,9.503641891,1.40E-08,4.59E-08,0,38.06337906,0,0,,,,
354.1519997,1383,-1.80E-06,88.69729306,0,4.60E-08,0,-89.01579446,-69.00470516,60.41752168,5.033894479,54.24742332,1.40E-08,4.60E-08,0,-21.30749196,0,0,,,,
354.1599998,1383,-1.71E-06,15.2721622,0,4.60E-08,0,46.8346967,63.31123658,1.342569651,96.55849832,-64.58693616,1.40E-08,4.61E-08,0,228.1917347,0,0,,,,
354.1679998,1383,-1.74E-06,171.0161384,0,4.60E-08,0,12.29874305,33.20018484,-36.96976472,-131.2674834,92.37188308,1.40E-08,4.62E-08,0,-123.2239122,0,0,,,,
354.1759997,1383,-1.69E-06,-30.99895016,0,4.60E-08,0,-117.0175131,-88.61951936,80.27536463,157.7439351,-40.91566346,1.40E-08,4.63E-08,0,202.2599479,0,0,,,,
354.1839998,1383,-1.69E-06,112.9126275,0,4.60E-08,0,133.6842471,152.744946,-99.19828333,-70.96757345,0.954576436,1.40E-08,4.64E-08,0,53.01214663,0,0,,,,
354.1919998,1383,-1.67E-06,114.2139468,0,4.60E-08,0,-29.78966504,-15.40859513,71.77582865,34.35868697,89.65370497,1.40E-08,4.65E-08,0,-60.94142023,0,0,,,,
354.1999997,1383,-1.66E-06,-7.060353334,0,4.60E-08,0,46.81029732,58.45028319,18.467224,146.7589551,-59.20360045,1.40E-08,4.66E-08,0,209.2829333,0,0,,,,
354.2079998,1383,-1.64E-06,168.2360179,0,4.60E-08,0,42.46713008,45.94286421,-26.58235805,-117.106167,88.35011461,1.40E-08,4.67E-08,0,-132.1578908,0,0,,,,
354.2159998,1383,-1.63E-06,-42.36629643,0,4.60E-08,0,-87.37241337,-80.52655722,107.2313055,163.5518587,-35.30906411,1.40E-08,4.68E-08,0,164.7248437,0,0,,,,
354.2239998,1383,-1.61E-06,71.24888864,0,4.60E-08,0,100.9541013,107.3734003,-74.63063954,-67.82141766,-41.2244945,1.41E-08,4.68E-08,0,43.81072364,0,0,,,,
354.2319998,1383,-1.59E-06,142.5207452,0,4.60E-08,0,-39.00982911,-34.09022844,80.54864269,29.03310389,64.4026476,1.41E-08,4.69E-08,0,-42.40673939,0,0,,,,
354.2399997,1383,-1.58E-06,50.70667431,0,4.60E-08,0,72.89388718,79.45058166,23.22390482,156.2460017,-26.89255346,1.41E-08,4.70E-08,0,214.9506504,0,0,,,,
354.2479998,1383,-1.56E-06,219.3886229,0,4.60E-08,0,55.49602305,58.60810504,-27.33420617,-124.4197451,111.304226,1.41E-08,4.71E-08,0,-145.7109341,0,0,,,,
354.2559998,1383,-1.55E-06,52.27377317,0,4.60E-08,0,-49.71830354,-54.73358928,117.5731664,166.8088187,-12.89432342,1.41E-08,4.72E-08,0,152.5008072,0,0,,,,
354.2639997,1383,-1.54E-06,149.5076888,0,4.60E-08,0,154.1229162,140.1681599,-62.55048007,-41.54352781,-5.354000186,1.41E-08,4.72E-08,0,32.07102187,0,0,,,,
354.2719998,1383,-1.52E-06,169.847428,0,4.60E-08,0,-47.08402356,-51.04320515,77.39734685,21.78814184,61.12313399,1.41E-08,4.73E-08,0,-61.90263872,0,0,,,,
354.2799998,1383,-1.51E-06,59.48929804,0,4.60E-08,0,56.64926257,54.98182387,31.43094952,153.5904558,-63.74657289,1.41E-08,4.74E-08,0,212.9684089,0,0,,,,
354.2879998,1383,-1.49E-06,203.7002175,0,4.60E-08,0,84.28365949,68.88131153,-1.735954407,-100.4725002,96.38847603,1.41E-08,4.75E-08,0,-146.0215805,0,0,,,,
354.2959998,1383,-1.48E-06,4.775507063,0,4.59E-08,0,-67.85771343,-75.05791943,134.5893538,181.4126214,-11.02906199,1.41E-08,4.75E-08,0,157.5278955,0,0,,,,
354.3039997,1384,-1.46E-06,98.49328038,0,4.59E-08,0,113.1390594,104.9725815,-65.45884718,-46.67586081,-17.3161074,1.41E-08,4.76E-08,0,68.21499984,0,0,,,,
