Time:125Hz,Epoch,FP1,FP2,C3,C4,P7,P8,O1,O2,F7,F8,F3,F4,T7,T8,P3,P4,,,,
732.4639995,2861,-7.237985423,-22.36016036,-81.95994164,0,-139.0548179,7.895069064,-10.01708007,7.937420273,-45.83413794,-34.63587446,-33.88499697,3.391811716,-34.24321725,-37.87909981,0,-24.70363616,,,,
732.4719995,2861,-15.95579465,-30.65210083,-48.41804797,0,56.23896186,1.771049979,-4.69807441,2.629248575,20.96837646,32.13546398,21.09718015,-161.4215932,22.60345541,31.93622488,0,30.02209193,,,,
732.4799995,2861,-52.92594901,-70.00759632,-30.88952215,0,12.50187634,-44.05654742,-52.02965551,-44.11871968,-41.96306083,-34.23819941,-29.34104771,-147.6966566,-34.33056448,-39.20473315,0,-9.049399786,,,,
732.4879995,2861,19.1933729,5.843242062,-85.81713034,0,-99.01099143,27.74251413,22.42314183,30.80541809,2.65976314,7.806033043,-5.021586388,-19.39687676,7.710566733,-1.582184866,0,-12.76321396,,,,
732.4959995,2861,-49.61038807,-69.60826165,-7.098834718,0,135.6109647,-41.15186608,-41.57490477,-36.70621608,-4.022159714,4.77150011,5.027207687,-251.2544607,-2.329988367,-3.864697022,0,19.47686984,,,,
732.5039995,2861,-6.1778323,-23.55341185,-74.07328702,0,-132.9390132,4.58525807,-3.788384887,7.977436098,-40.21122161,-32.62237257,-29.91964941,0.458888359,-30.85572146,-42.56891561,0,-25.3298284,,,,
732.5119995,2861,-5.345583388,-21.28674437,-33.46846212,0,66.74070029,5.71332665,-5.64475523,1.285952534,28.26561537,37.33684499,31.38092411,-162.0404665,31.27033401,23.56149197,0,23.40924424,,,,
732.5199995,2861,-49.27238226,-67.90640649,-20.38859402,0,5.814703614,-41.25697743,-54.14873515,-43.42934979,-47.18738547,-42.6822348,-28.86395487,-144.3757528,-42.1223446,-55.51549656,0,-22.48074632,,,,
732.5279995,2861,0.839015855,-12.42999737,-88.1295868,0,-106.2904844,15.29597952,2.941865821,12.07731892,-4.110476376,3.459208059,-1.747172313,-29.83079492,6.074480068,-7.478173175,0,-9.785578606,,,,
732.5359995,2861,-71.99055062,-89.36613337,-18.19302543,0,129.8077589,-60.86306971,-70.85680429,-66.11354579,-19.82282581,-7.063749995,-0.735438137,-255.9431723,-16.22381093,-19.06709491,0,11.24138707,,,,
732.5439995,2861,-24.02502358,-38.918392,-98.06026425,0,-150.2433349,-12.43043616,-22.5695804,-7.769643399,-68.99514285,-60.67860508,-54.83762564,13.39804305,-64.82359359,-69.28253025,0,-52.00750287,,,,
732.5519995,2861,-19.21432045,-33.3478522,-54.41144391,0,50.91017481,-6.108626892,-20.00099957,-10.02784761,9.297279193,23.76551941,15.96918706,-155.3837834,16.17572867,11.13855379,0,10.05556469,,,,
732.5599995,2861,-50.31437743,-65.68190899,-17.01040809,0,2.595783086,-44.57504361,-63.49590955,-52.66548817,-51.39914976,-36.86823812,-30.33632047,-139.0928458,-44.48778513,-58.02718379,0,-26.40839303,,,,
732.5679995,2861,7.154293132,-2.472203856,-68.91544947,0,-104.5154413,17.60281643,4.420737051,13.48552501,-5.243828556,8.197103178,-5.914277377,-18.77900526,3.85590846,-12.42867636,0,-18.68278742,,,,
732.5759995,2861,-45.18441841,-60.35425024,15.43017753,0,134.5584974,-38.89148043,-46.1493401,-43.20562872,-5.4768328,9.040276551,8.967572297,-255.8261134,3.888214718,-12.57181026,0,12.09860994,,,,
732.5839995,2861,-6.736012123,-19.02226473,-61.09068423,0,-130.3956865,-0.179637102,-3.035487287,5.779332613,-34.77160565,-28.08398588,-23.71345671,-23.83817915,-27.76905042,-44.84336362,0,-28.60185759,,,,
732.5919995,2861,-47.40624635,-59.81579875,-54.10896689,0,55.66194539,-34.03340652,-34.66737407,-30.42072352,7.297513144,13.91386905,6.708241334,-189.9770728,20.69736385,2.023761286,0,7.00633551,,,,
732.5999995,2861,-63.975758,-81.29655729,-32.07924322,0,-8.887799139,-59.058981,-66.29776097,-55.75275109,-74.34338933,-70.22208965,-62.49420519,-141.7949651,-69.5345696,-87.7631678,0,-53.47183039,,,,
732.6079995,2861,12.67751459,1.699879908,-70.75461358,0,-99.73743791,17.46293466,14.44745961,27.45781734,3.353262414,8.848809829,-0.063774677,-36.01337179,-6.815341966,-6.198686248,0,-13.82658317,,,,
732.6159995,2861,-63.26889006,-77.00269769,-9.523425087,0,130.1181324,-61.76433768,-61.35625973,-52.82746605,-9.412945432,1.736835361,4.484592381,-271.7243131,-6.023687832,-15.42935296,0,13.35039612,,,,
732.6239995,2861,-1.364525414,-13.7188265,-84.92996406,0,-140.7539735,-0.678571673,-5.682632706,10.75501961,-49.85186265,-44.01611285,-42.3590694,-10.91127308,-41.03386939,-65.64945688,0,-41.97405039,,,,
732.6319995,2861,-7.760314146,-20.99423629,-31.78177542,0,71.51264837,-3.649423196,-9.16270204,1.398064919,31.36203623,42.89910137,33.73626966,-194.1234094,40.10315544,23.9046591,0,36.97288203,,,,
732.6399995,2861,-50.0543363,-65.71410793,-18.38801019,0,9.543134275,-48.02045038,-58.20354621,-46.77951762,-51.16571232,-35.49300715,-27.8267538,-165.5567845,-36.15379487,-56.72741465,0,-10.37147604,,,,
732.6479995,2861,23.22118948,12.29441504,-85.01087548,0,-92.04795037,33.55943768,22.14874748,33.15168588,-1.578809776,9.634770495,0.715429635,-40.96372767,3.841417872,-6.480680897,0,-1.36650323,,,,
732.6559995,2861,-30.54541214,-47.21413789,-2.543925289,0,149.8827344,-21.07040252,-34.44294194,-27.50054022,7.937982592,23.00210946,25.33977825,-282.7065652,12.66293533,7.27903523,0,42.88268691,,,,
732.6639995,2861,13.82881552,-0.163085642,-69.72020074,0,-115.0547099,21.90370908,5.395527276,19.30898769,-16.60899856,-5.286225,-5.247232096,-39.56279362,-5.637108382,-24.89389301,0,-2.363009763,,,,
732.6719995,2862,-2.377624966,-16.98034885,-40.96509152,0,80.90410323,6.5048153,-2.955833175,2.850220673,35.8082907,44.50551229,33.96109289,-205.167321,40.59702019,27.86525035,0,36.6648998,,,,
732.6799995,2862,-33.99710672,-52.5549737,-25.23323978,0,14.28659718,-27.47955521,-42.24348551,-32.49890031,-43.92563966,-32.2447464,-25.43205479,-177.8010215,-42.93214322,-49.72863855,0,-11.42005831,,,,
732.6879995,2862,26.45046934,12.92778246,-68.11398039,0,-81.02456647,42.38197673,21.13795836,34.66414743,22.91196379,31.74304729,21.21888794,-71.03310784,27.10750037,19.84314159,0,13.44067443,,,,
732.6959995,2862,-42.6411163,-61.55453525,8.945446205,0,146.7517265,-26.92642164,-40.9006007,-34.9652098,2.216062232,12.3690384,14.30686404,-286.3293666,3.69309599,3.529138717,0,33.6733003,,,,
732.7039995,2862,5.870963609,-11.46633494,-72.07838473,0,-124.6357915,18.60609548,10.59972992,22.17452934,-36.78359549,-26.94851086,-26.16224323,-19.82745537,-40.82042219,-38.59665115,0,-17.38752162,,,,
732.7119995,2862,-13.26636117,-32.0196509,-46.82354133,0,73.70996912,-1.320281384,-7.909270931,2.000906983,31.30470854,38.1386421,28.58562153,-194.1587818,27.83815548,26.5040685,0,35.50008776,,,,
732.7199995,2862,-38.37663547,-62.43593637,-36.83776389,0,1.529442225,-32.25154303,-48.34023576,-30.26169795,-60.74240266,-47.8013465,-43.28566103,-160.0723964,-60.04760526,-60.02322292,0,-19.72029172,,,,
732.7279995,2862,41.79151304,20.74025055,-77.54015253,0,-81.57021945,45.64066625,26.21529315,47.47895913,11.86442116,24.46137106,10.57445301,-55.02586288,16.88670028,14.75755611,0,12.9913613,,,,
732.7359995,2862,-29.7580742,-54.05695887,4.240505247,0,145.8001526,-29.57926301,-48.601021,-33.22880857,22.53736644,25.73084681,25.59688452,-292.9523588,21.91069981,11.11813464,0,49.48779342,,,,
732.7439995,2862,11.81502107,-6.354472736,-62.61285391,0,-137.7280094,20.86074037,-7.374963029,15.29585611,-33.81804824,-21.54635079,-31.28720886,-37.3895105,-36.96671908,-41.19198927,0,-19.05696176,,,,
732.7519995,2862,-2.491778169,-21.70101258,-13.05915601,0,71.36119502,8.325884868,-21.87200209,-6.822402587,23.88015463,42.52376174,20.94396856,-206.7457289,23.3985596,24.5766828,0,27.39201327,,,,
732.7599995,2862,-27.422663,-51.6629273,-0.429330509,0,3.842595568,-25.50818102,-56.50260741,-42.78588439,-37.18176962,-26.81093413,-28.98720839,-163.4867384,-35.21757218,-47.7591667,0,-12.46946753,,,,
732.7679995,2862,34.94009485,18.0312622,-59.18394784,0,-85.48087947,44.10287651,25.09497572,34.07570435,19.43475688,38.88096166,10.43062309,-57.57516095,35.74889843,19.40206916,0,7.332578676,,,,
732.7759995,2862,-45.38715655,-64.19558751,12.71806692,0,136.24247,-38.21227269,-52.21952476,-48.36175724,-7.820444582,16.62353836,0.575528889,-283.5920134,9.955062834,2.269707439,0,20.61733962,,,,
732.7839995,2862,15.85822131,0.944909254,-53.2485848,0,-143.0145403,22.44986324,2.562952158,16.49106853,-43.79426232,-24.50579264,-39.66696943,-24.58155188,-37.39882833,-35.65602448,0,-35.29197608,,,,
732.7919995,2862,4.302163144,-10.49821909,-8.960534807,0,81.94026829,13.38034355,8.318451123,9.487536309,39.44798549,59.60992483,34.67962631,-220.0649859,48.80464738,46.76644601,0,30.61272713,,,,
732.7999995,2862,-41.48411271,-60.86142352,-0.774256691,0,6.673371433,-39.43506455,-44.09967639,-43.07078081,-45.52266211,-29.31376676,-30.87047073,-189.8229743,-26.0013263,-45.85637849,0,-20.49927767,,,,
732.8079995,2862,21.69521425,4.618839188,-55.39764887,0,-99.53328256,28.53748423,23.93152031,28.9657898,2.196555083,18.47818442,-2.897384035,-76.90997964,19.77452034,5.115091354,0,-1.781365778,,,,
732.8159995,2862,-43.45471433,-65.62082808,19.85949154,0,129.1763289,-37.66848058,-39.59291679,-40.16889826,-2.164364084,12.22574876,2.425419158,-297.8611241,9.25866567,-0.698863335,0,27.62398759,,,,
732.8239995,2862,21.23874228,2.980502393,-37.80863854,0,-139.469331,25.77092323,12.5938334,18.58931242,-33.18891911,-20.9116521,-29.28899505,-46.3665655,-13.00610942,-33.45641021,0,-21.27118936,,,,
732.8319995,2862,9.584311182,-9.91699262,11.83404075,0,80.48766808,17.14117535,1.682017503,3.666445087,45.2730263,60.11210677,38.68880936,-244.7258688,62.64954764,48.49471129,0,46.56402406,,,,
732.8399995,2862,-32.49452065,-56.15964221,12.26114487,0,5.393480215,-30.37377904,-43.45162547,-38.41227219,-38.14976366,-27.49933617,-28.43177114,-204.5678568,-26.43974704,-38.17248198,0,-9.57897599,,,,
732.8479995,2862,33.91541085,15.16521108,-41.24314206,0,-87.54831671,41.09273689,35.98623624,38.51197304,9.867836797,22.48199924,4.402777341,-94.91764447,28.24605764,16.49178089,0,3.99320448,,,,
732.8559995,2862,-40.10023009,-62.52364098,38.48640199,0,142.2964454,-30.51373028,-35.12110366,-39.15046634,6.186241851,18.49082708,9.782830952,-322.3920435,22.2191551,9.962357487,0,37.18595799,,,,
732.8639995,2862,14.63228505,-2.446924014,-35.0131974,0,-133.8557289,22.31555648,19.38331954,20.42394285,-32.02671638,-24.25310087,-31.95455319,-61.57619291,-12.88438942,-31.3393996,0,-15.47982424,,,,
732.8719995,2862,8.438566594,-9.341071972,-2.245593387,0,86.03218842,13.70345032,12.23806529,9.74731545,41.85301831,53.082687,32.77726033,-252.324315,51.20835829,42.67073556,0,45.24554883,,,,
732.8799995,2862,-26.95715213,-50.03248388,4.74317676,0,11.55331671,-28.88493507,-38.99302179,-34.02082569,-31.13986808,-21.09058151,-22.30966772,-213.1836689,-24.55476075,-39.30351102,0,-5.310101677,,,,
732.8879995,2862,43.10664783,26.07750775,-40.18427783,0,-84.35115893,45.16056434,36.95992239,43.78186237,23.06789501,28.94716882,15.2687817,-107.0527266,39.12856966,17.83780234,0,10.35152462,,,,
732.8959995,2862,-33.42946708,-53.09267002,26.11193163,0,146.0684091,-31.47872804,-41.74800872,-37.00052623,17.68106434,26.2236012,20.65857079,-350.0339667,20.35466806,13.32912732,0,39.00898731,,,,
732.9039995,2862,3.93814978,-11.20312651,-61.88383512,0,-134.1431178,7.090561434,3.474097184,12.24625688,-41.42435651,-22.13307516,-34.74532764,-95.57477646,-23.51891659,-36.82325918,0,-26.45129427,,,,
732.9119995,2862,-8.503082468,-24.9501411,-23.97661319,0,74.02482605,-2.425346369,-2.076124249,1.563594602,13.85852187,40.03363111,14.00563101,-269.8443038,42.38422823,28.3789015,0,27.0241142,,,,
732.9199995,2862,-32.76085719,-56.67045107,-9.638719058,0,0.190497698,-29.66066626,-44.67432307,-29.30338107,-50.05592746,-30.81650062,-37.32865669,-225.3389417,-35.85140404,-42.68397641,0,-11.23512332,,,,
732.9279995,2863,37.04407534,18.56707048,-52.29852907,0,-82.83784251,48.77821466,38.58980075,53.99179446,11.01857709,23.86386923,6.971527895,-124.8047372,31.16975543,19.67158386,0,16.46345122,,,,
732.9359995,2863,-40.17128579,-60.09606819,18.27825628,0,144.3051174,-32.68183211,-39.53522276,-32.52752924,6.712457897,21.80560096,16.88611453,-362.8562747,21.9581388,14.09684871,0,49.95141783,,,,
732.9439995,2863,2.115467185,-14.50409142,-63.32231995,0,-151.3187327,3.236025541,-11.33298996,3.854340838,-51.69028423,-29.51913929,-42.17201473,-102.8295927,-37.36484171,-44.98472792,0,-22.70139768,,,,
732.9519995,2863,1.462826109,-15.31695156,-5.49340685,0,64.31032176,7.275854302,-9.599151974,1.327485352,12.58327461,36.28391449,14.0845339,-277.7026607,31.33468889,21.05730328,0,35.03586209,,,,
732.9599995,2863,-7.161527921,-27.84612395,28.81343096,0,13.27930661,-3.782294984,-24.9051928,-11.03744016,-22.54312406,-7.505949163,-8.743721165,-254.6841384,-15.34177729,-20.85051457,0,23.87048549,,,,
732.9679995,2863,35.49817937,19.12538057,-24.75794836,0,-79.30007044,42.8800636,26.16095241,39.75712798,31.30680076,44.71159191,25.6251627,-173.7792298,34.06160813,33.73807879,0,37.21801098,,,,
732.9759995,2863,-74.35266392,-94.07761436,19.71232887,0,116.5082855,-65.47784447,-82.0710906,-73.10974075,-24.79685186,-4.306131871,-13.02620265,-372.4932275,-22.69394666,-18.2052026,0,23.15449329,,,,
732.9839995,2863,-10.41675186,-26.49620279,-66.54689781,0,-168.2031674,-2.048673963,-18.22875985,-2.918673538,-82.53867515,-60.3176582,-70.99897424,-82.65724118,-72.56324359,-73.10853866,0,-44.82282011,,,,
732.9919995,2863,9.665865651,-7.054209501,-2.796840301,0,76.89392725,16.79692233,7.853247488,17.51583621,26.78258569,40.29882321,22.72883742,-279.7282121,37.96344901,27.47635181,0,44.28202024,,,,
732.9999995,2863,-14.56989081,-34.28019394,27.0297782,0,22.4249745,-12.56637278,-23.91589062,-11.52644401,-17.244415,-8.189266941,-9.695668419,-253.7620423,-13.87810766,-24.49167071,0,22.10467107,,,,
733.0079995,2863,26.25524098,12.44846439,-24.14251587,0,-83.90262809,30.62361636,18.87772544,32.52509854,4.573462007,27.09962702,3.49023554,-156.4466831,17.5181772,11.89276309,0,17.13021342,,,,
733.0159995,2863,-55.15716353,-72.95695515,41.19274169,0,122.92722,-51.90532836,-68.59144177,-55.90072888,-15.10821982,7.218406381,-1.88605088,-375.00941,-3.855626402,-8.70306394,0,30.66230057,,,,
733.0239995,2863,13.20162549,-2.539132866,-30.22919789,0,-141.0743037,19.21837361,3.262554648,19.47186615,-35.4251034,-28.1494366,-32.65946796,-110.8120451,-26.44524245,-37.65384563,0,-15.1565163,,,,
733.0319995,2863,-7.06594641,-23.55992696,7.295173223,0,78.1171065,-0.268754318,-8.571883689,-0.987913342,18.92437644,33.97939995,21.99512871,-299.4062864,34.11229456,29.42290791,0,40.32011615,,,,
733.0399995,2863,-54.11868767,-73.58586497,2.558020861,0,-6.457924347,-50.76923509,-62.82685009,-50.72942331,-61.9159368,-45.0628997,-40.61016843,-246.5951597,-55.03500553,-53.00759613,0,-7.861276548,,,,
733.0479995,2863,17.29635553,1.630890668,-43.3380861,0,-83.23121561,26.46018061,20.1166948,28.48211864,-0.958747293,5.42833922,-6.749773862,-131.0428716,10.70400689,-2.35666749,0,0.443953191,,,,
733.0559995,2863,-42.24129172,-61.50094996,38.86215223,0,137.8794355,-36.85503582,-48.92562194,-41.50965123,-12.51628853,0.089143563,-0.141416037,-344.9110268,-0.931880406,-9.723126166,0,22.47114311,,,,
733.0639995,2863,7.871704766,-5.04324162,-27.01382318,0,-140.1825068,12.00404052,-4.175215422,11.94775063,-46.35241916,-29.8788017,-33.08300047,-92.17510741,-42.28343297,-39.82952491,0,-18.7230433,,,,
733.0719995,2863,-7.355533383,-19.79100117,22.139061,0,85.11762973,-1.415834198,-8.770902165,-3.58975678,26.30425364,40.89945383,25.9572029,-281.6912925,35.05137457,25.73675292,0,38.08853106,,,,
733.0799995,2863,-25.11663047,-41.75538826,35.48238309,0,2.095415773,-22.13461857,-42.76078132,-28.83182236,-35.92653696,-26.16898999,-25.87474158,-228.9345539,-34.250507,-45.52213312,0,-7.633593965,,,,
733.0879995,2863,38.30119904,27.67993539,-17.0382458,0,-79.11604605,46.09023773,30.67762935,44.8307219,19.63046525,31.05977042,13.28964967,-143.8576418,24.97535706,21.08231407,0,20.50884874,,,,
733.0959995,2863,-37.52147106,-51.00768236,45.38618551,0,140.7208951,-32.66441111,-43.38307207,-35.63587232,-0.315060638,19.34537949,12.46634425,-373.8470606,16.8449186,7.221578492,0,45.9079185,,,,
733.1039995,2863,18.39170943,6.709530338,-14.95814992,0,-137.2815855,25.34196195,5.385414093,22.89167978,-30.88938949,-20.86254955,-23.13469304,-113.3713648,-20.25341335,-33.6947943,0,-8.809201938,,,,
733.1119995,2863,-4.326779321,-16.29438131,31.81980311,0,89.22074563,7.56726231,0.03261997,6.890611309,31.32304166,37.19582386,28.79053741,-300.2636138,30.1242153,31.01617141,0,50.07565931,,,,
733.1199995,2863,-30.58613805,-44.3514788,26.32944824,0,9.750694197,-21.84105571,-29.03743464,-20.64546477,-43.07046232,-26.17017862,-27.21715148,-251.8330311,-39.00703746,-33.88836933,0,15.47841338,,,,
733.1279995,2863,44.32334214,33.85875514,-18.09494391,0,-66.37954817,51.85391826,45.08061309,56.02153019,19.84039572,32.73366543,16.23964804,-169.7242507,30.02310389,29.59815372,0,37.26655307,,,,
733.1359995,2863,-33.54195267,-49.09673941,49.86453808,0,151.3413324,-33.31799865,-40.25872079,-30.84711781,11.82255845,15.9845056,18.80437824,-398.1403427,14.02177781,11.43612504,0,60.13067085,,,,
733.1439995,2863,6.146607925,-4.709732073,-29.18657522,0,-134.0216002,11.26702731,-2.745537632,14.16525271,-25.23786162,-16.3016388,-19.62230735,-138.4880317,-17.43614083,-27.92661103,0,10.58740007,,,,
733.1519995,2863,-12.17914174,-21.59656245,21.55634114,0,80.3907688,-5.469830158,-9.628198867,-2.925726159,20.62869602,29.93745691,18.37535382,-313.7780084,23.53503104,16.95356175,0,47.22317002,,,,
733.1599995,2863,-35.5087148,-46.8865999,30.00328056,0,4.701524919,-34.31376344,-38.64072354,-30.30423709,-49.5543315,-43.59276878,-36.69408779,-253.5593489,-51.34533798,-58.03954991,0,-0.627123819,,,,
733.1679995,2863,19.67146116,13.58139983,-30.88871991,0,-68.88966028,27.24726779,23.97266046,32.08525368,14.2962978,22.3867675,9.943563146,-167.3317431,21.02829786,11.32774969,0,25.12172529,,,,
733.1759995,2863,-57.61667327,-67.30850257,25.88452671,0,131.8440708,-52.75946365,-51.19500195,-47.23089631,-13.10078417,-2.721755489,-2.858503107,-378.0919098,-10.04451991,-14.32654963,0,34.95821484,,,,
733.1839995,2864,3.696837088,-2.609226801,-36.596582,0,-140.6094158,14.67678053,10.64692506,22.18374365,-49.15889736,-35.42994793,-38.07549512,-116.7904239,-37.20914456,-44.48720886,0,-10.76711463,,,,
733.1919995,2864,-1.408063659,-8.733126361,20.69996426,0,92.47126781,9.434532085,3.033324118,9.628827361,26.67609785,37.12548119,28.84607076,-313.9044231,36.39133183,33.66765886,0,55.05078237,,,,
733.1999995,2864,-18.24883794,-29.224739,28.47994904,0,13.10398082,-12.67549622,-17.98398648,-9.0169664,-32.0627503,-25.48529915,-16.36069207,-265.9046758,-27.39202428,-30.61413838,0,18.01089153,,,,
733.2079995,2864,27.70813117,21.10120715,-20.47647898,0,-55.43497148,45.94189056,48.27580505,52.22065933,21.38476573,31.57297596,22.57454886,-183.3592637,34.38908944,29.89568715,0,42.17791591,,,,
733.2159995,2864,-59.93960993,-69.27196599,39.60882894,0,144.1917863,-44.262266,-46.23826647,-45.93399711,-11.88150655,0.952343394,4.692032558,-390.8864441,-6.302067356,-2.971318194,0,47.74855979,,,,
733.2239995,2864,0.662841254,-3.296038886,-24.97803325,0,-135.0318176,16.53339885,12.06213989,21.09224016,-50.31471316,-38.30422546,-36.80161317,-127.4505066,-37.7277458,-43.3775596,0,-7.162157882,,,,
733.2319995,2864,-13.34821866,-18.08074449,34.10922949,0,97.47836056,3.002477286,2.50734505,5.646724783,21.54346119,34.92371623,25.98638979,-330.7737567,36.92494366,29.58870846,0,56.68873669,,,,
733.2399995,2864,-45.62253269,-51.7432847,32.09439187,0,9.145544637,-33.49569206,-41.77391189,-31.33530289,-50.54062841,-36.81156258,-33.94862807,-275.5168108,-47.8740252,-48.4507233,0,5.404602899,,,,
733.2479995,2864,2.72697341,2.382327324,-11.38767041,0,-71.83658437,19.53853968,17.86450248,29.45608201,-4.334036681,5.067922562,-6.9205464,-174.9507627,3.768207155,-0.916893,0,14.92728052,,,,
733.2559995,2864,-62.65081746,-69.09679075,62.56055147,0,129.8060301,-52.46603553,-53.08218356,-47.44363566,-21.1165096,-10.53384978,-8.418688638,-372.8688103,-12.81442175,-16.56051309,0,34.6642912,,,,
733.2639995,2864,3.821910586,3.131739901,-28.70538782,0,-137.648559,18.14667968,7.828889015,20.08630252,-43.63916791,-34.99807144,-35.85042618,-107.5374579,-34.58124012,-42.94808109,0,-9.213865405,,,,
733.2719995,2864,-6.26992344,-4.818203371,21.42877247,0,96.98332519,13.12975672,0.036348077,7.675579382,28.07715356,40.683025,27.04744321,-308.9006336,42.67772591,30.32895313,0,51.75355781,,,,
733.2799995,2864,-20.73634334,-22.38307159,37.84513393,0,10.94420271,-7.072065752,-23.10016773,-15.23843155,-34.93123775,-17.56654897,-21.14466926,-262.5502063,-32.9830073,-33.18354505,0,11.24917271,,,,
733.2879995,2864,33.50926071,37.3258218,-23.86300881,0,-59.83241551,47.00718671,35.08052306,38.98747674,24.77926063,38.77834331,21.61388148,-191.8224415,27.39847796,26.3538822,0,35.04340456,,,,
733.2959995,2864,-43.40201033,-45.55594123,33.24137733,0,138.4220656,-38.908769,-54.57117514,-53.72671397,0.38466898,18.54225225,15.72652736,-412.5578481,7.498465946,-1.050199424,0,45.11740082,,,,
733.3039995,2864,0.045185068,-0.359462822,-56.702804,0,-142.3603338,2.90327635,-13.70712228,-6.593149758,-45.93086204,-34.56278082,-38.3468654,-143.6879933,-44.0932381,-54.5747646,0,-25.95891619,,,,
733.3119995,2864,-23.97144064,-23.18829528,-16.52449758,0,81.49926273,-19.82864801,-31.77401893,-28.85928931,8.098670165,19.86426578,7.607079723,-322.4338996,18.54402864,2.632444745,0,26.58200137,,,,
733.3199995,2864,-44.13388213,-45.65024093,-11.02070939,0,-12.90637294,-42.94349923,-57.03561582,-48.96191094,-58.54263846,-41.89908076,-40.17920415,-250.5343982,-56.55081078,-63.6045299,0,-12.90580746,,,,
733.3279995,2864,19.26990226,23.54228265,-60.01928207,0,-79.07883138,28.11760497,21.53167881,28.05136457,-0.095697889,9.63125499,-1.976870799,-159.7554698,-4.750544281,-7.411863294,0,1.761629674,,,,
733.3359995,2864,-34.90992273,-32.89648426,20.83532934,0,131.4952094,-27.20726945,-39.5959095,-34.9524466,0.789471498,11.96095262,11.91544014,-377.6931957,7.201843053,-10.36920433,0,39.06956243,,,,
733.3439995,2864,9.829060877,14.86837154,-61.99939611,0,-141.4831425,15.13006561,1.569239732,12.14797215,-24.09217689,-12.66814149,-19.31343683,-127.6314108,-22.41135307,-39.60603588,0,-5.455818856,,,,
733.3519995,2864,-15.03032786,-9.600624332,-24.64729634,0,77.31201556,-7.990853046,-14.75714374,-11.52942954,12.82330579,27.28285199,14.03434867,-310.7682525,17.16680245,5.379140482,0,26.12038587,,,,
733.3599995,2864,-26.23470303,-21.62332887,-8.032935201,0,-13.25811397,-19.29496901,-38.62027971,-28.63405536,-43.92547402,-26.44890942,-25.49761333,-248.6876873,-35.43792915,-47.57811047,0,-6.820216054,,,,
733.3679995,2864,26.951875,36.29044635,-39.01724053,0,-67.88490476,36.60559428,29.65597222,37.39850298,19.54052501,37.7861035,17.10085026,-175.2037536,15.0440896,18.7866427,0,18.38912982,,,,
733.3759995,2864,-36.92222893,-31.89821481,34.94944776,0,132.0670216,-31.0901882,-30.42035509,-29.60288801,-10.83671603,7.029511631,2.014417723,-374.7078923,-13.91069865,-14.16900611,0,27.11911327,,,,
733.3839995,2864,27.16626982,34.01011682,-38.83954216,0,-129.5999515,35.63398107,23.37990564,31.25425158,-18.71109728,-9.36585819,-13.52302808,-126.0740907,-10.74358478,-27.86264798,0,-7.544370371,,,,
733.3919995,2864,-5.838162653,0.714302433,19.30767551,0,96.37761156,6.586132775,-3.852686589,-2.270278551,37.2371337,49.39512744,36.53426079,-333.765176,42.1083556,34.71892401,0,46.09466892,,,,
733.3999995,2864,-33.28748736,-26.27019999,21.11621388,0,-18.07623115,-22.12837292,-39.84617236,-31.67428542,-52.21258886,-35.26819783,-34.06668648,-256.4398285,-46.59481036,-54.64734171,0,-5.982704414,,,,
733.4079995,2864,40.43477835,50.91137134,-20.31348609,0,-66.35587172,53.4202084,34.99674734,45.37885462,15.79838484,28.34962221,16.15829633,-173.5767786,23.38779779,15.04544152,0,24.56243862,,,,
733.4159995,2864,-33.98144905,-29.58813892,53.29870943,0,136.8124413,-25.90362181,-37.77061711,-33.04721978,5.467623025,18.38389121,21.11259888,-383.5250243,4.773246836,1.557890037,0,49.56416556,,,,
733.4239995,2864,15.95449609,25.16847699,-26.7191235,0,-139.455223,28.03544774,14.79073895,25.54263739,-25.16967019,-9.163980584,-17.55663873,-119.1697879,-21.62756989,-35.04612822,0,-3.283931814,,,,
733.4319995,2864,9.601609825,18.8665723,37.81898046,0,96.02817524,22.47217028,9.034315765,15.72609341,30.6777653,51.76282825,32.08697216,-317.1036329,35.83017728,29.33273774,0,48.71965861,,,,
733.4399995,2865,-20.66625867,-14.10487528,41.56886203,0,-8.624196308,-11.70587667,-29.29855852,-17.95245213,-33.42832279,-11.76831658,-16.64093825,-260.5847685,-33.87718509,-37.73345436,0,13.4226559,,,,
733.4479995,2865,20.78794381,33.29555168,-21.11480946,0,-68.48677429,38.64581902,26.03137963,34.84551085,19.46306763,37.73215851,16.07519717,-179.9076008,28.67371663,12.90791922,0,26.07126288,,,,
733.4559995,2865,-35.05677866,-24.75437363,58.11847877,0,131.3356093,-22.25792444,-35.6080801,-31.12150854,-6.48709967,12.17052104,6.575256676,-368.3587586,4.753067402,-13.19632631,0,29.69705704,,,,
733.4639995,2865,28.98395088,43.8874081,-5.364945728,0,-130.9142172,39.68436488,26.46895398,36.31325488,-18.61714004,0.63596357,-13.20720511,-122.139608,-8.308423112,-27.00424257,0,-7.584297023,,,,
733.4719995,2865,-3.925789777,11.43646532,32.20918192,0,107.9246846,10.81715624,5.683055098,4.86442768,34.79652429,56.00791459,32.87268539,-335.2563058,51.32298476,35.52800115,0,47.60649239,,,,
733.4799995,2865,-17.15711754,-3.794216186,24.56422809,0,-4.521997241,-3.021897748,-24.49146404,-21.13364484,-39.25082199,-17.23325272,-25.45754976,-256.4504287,-23.55021343,-38.64196946,0,-2.041950716,,,,
733.4879995,2865,45.2219323,63.51604175,-22.13052621,0,-60.20989111,63.40243482,39.25150128,42.84866969,27.92478145,50.11880606,22.72930451,-189.3319532,43.78355671,30.44323275,0,17.92250509,,,,
733.4959995,2865,-27.68941857,-12.94757083,47.70611778,0,141.9468224,-14.07692951,-27.51310701,-30.7842883,6.782601573,25.47604766,18.25509906,-395.388117,24.07345595,8.674384908,0,30.85325689,,,,
733.5039995,2865,29.92061998,46.20629759,-31.85658498,0,-134.8305585,44.74351207,30.74679902,32.46591096,-15.30790964,-1.808275537,-10.39434052,-130.9352606,3.053129808,-19.80682153,0,-9.953893881,,,,
733.5119995,2865,-4.342369608,10.40326924,4.399232214,0,98.79885201,9.720040467,1.889885743,-3.227139705,35.44581813,51.2658782,34.79597579,-334.9173884,51.6947012,33.82574771,0,39.49676561,,,,
733.5199995,2865,-37.46461398,-24.46759382,-3.334415342,0,-16.26606702,-27.95251896,-36.8570831,-39.00378359,-48.47711803,-31.47431408,-32.43036976,-252.5489542,-32.99758095,-49.38434847,0,-15.39572421,,,,
733.5279995,2865,11.2225818,27.16002781,-48.59938679,0,-82.20623234,23.73504131,17.69272634,14.77542587,5.622634893,19.74150631,0.257083274,-167.7409875,28.39538021,5.4128075,0,0.114460001,,,,
733.5359995,2865,-55.86754688,-43.95191629,19.46004203,0,114.331601,-47.1622686,-46.6128747,-54.81382502,-23.3429068,-11.05397674,-11.89368372,-356.0363058,0.34741477,-25.0088144,0,2.878023603,,,,
733.5439995,2865,8.094406844,24.47614403,-53.76351138,0,-155.0319245,19.89205819,21.83168949,18.21018406,-43.46719186,-32.67781379,-37.81980756,-94.02617576,-27.76499931,-43.89039165,0,-32.54277479,,,,
733.5519995,2865,-21.04933505,-5.705020523,2.390045444,0,91.19074044,-10.8028898,-8.177494481,-14.23015798,24.75831258,35.9763566,18.82049004,-309.3551169,38.34844277,28.01333638,0,36.62245678,,,,
733.5599995,2865,-46.53731349,-33.49049306,-2.548963502,0,-27.32145816,-41.76607935,-45.16032562,-46.26999056,-55.29880024,-44.81601312,-45.17739184,-228.137109,-32.64905576,-55.7458667,0,-21.0719991,,,,
733.5679995,2865,21.6001451,38.41235907,-44.63389762,0,-91.05487185,29.35060951,27.03386613,23.48257665,7.551598094,13.47493489,-0.524553308,-148.0869499,26.0453428,3.739437259,0,-4.251685924,,,,
733.5759995,2865,-27.32326549,-12.95207957,44.61294954,0,121.0213834,-21.49572655,-29.17105491,-33.1048335,1.254051774,8.390589625,10.19957904,-352.5335215,5.910706755,-4.399600835,0,20.52955526,,,,
733.5839995,2865,24.14748904,44.74500483,-29.38363275,0,-147.9007589,37.58593693,30.25843915,28.69901948,-15.93730712,-2.266111835,-12.56323884,-103.5255234,-8.043977907,-19.13682452,0,-9.29121989,,,,
733.5919995,2865,-19.20489198,-2.722166051,-5.721568434,0,79.66225719,-5.210069178,-3.761174034,-16.30660181,35.35550799,49.02818838,26.73517635,-308.3388342,40.69167114,31.23297756,0,38.73161382,,,,
733.5999995,2865,-31.03942242,-20.29591638,-16.956454,0,-29.45821327,-24.59637822,-29.04055521,-34.79883452,-43.15789313,-44.99929167,-38.88502461,-222.5420011,-39.40145623,-57.51358102,0,-24.35439723,,,,
733.6079995,2865,33.51130968,50.9482903,-42.32535173,0,-73.17094221,44.26188859,41.80991714,35.98097243,29.63976286,20.07375735,14.49003692,-161.783163,43.86735873,13.00225488,0,5.757928028,,,,
733.6159995,2865,-39.77034436,-24.69463171,34.84844461,0,114.3582087,-30.47389272,-39.9233921,-47.68050699,0.619476234,6.190576879,8.531360905,-364.1039376,8.385663975,-9.45955238,0,22.52477475,,,,
733.6239995,2865,24.48653658,42.12313378,-32.16811442,0,-152.6722834,34.63783494,25.57600227,22.39962595,-22.64145005,-16.46471157,-17.38069872,-109.0232403,-20.57021413,-29.74783678,0,-12.12975357,,,,
733.6319995,2865,-2.341116672,12.98629786,24.16156617,0,102.6322613,6.984921355,13.54727124,-0.040349586,50.28161051,45.66389604,40.10725391,-325.5618302,56.18177546,36.72937796,0,47.3726492,,,,
733.6399995,2865,-29.80861385,-16.67008106,10.19856152,0,-24.42281007,-23.79651016,-24.09991194,-31.43102509,-41.13675538,-39.40348739,-30.83326098,-236.8568297,-26.57213005,-50.50654854,0,-15.23229905,,,,
733.6479995,2865,20.35088326,39.42704155,-35.59972171,0,-88.44234939,27.79770974,33.34656083,23.90336508,6.696891775,12.70278805,4.777633961,-159.5443086,25.03146496,5.373657024,0,5.678035245,,,,
733.6559995,2865,-38.37366337,-22.15082805,44.39787991,0,111.7537377,-40.07196783,-31.11464634,-43.79302895,0.032307546,-3.167266978,5.117490247,-351.5414901,3.50638172,-17.97924397,0,21.93932763,,,,
733.6639995,2865,39.32874695,60.58220685,-10.36547331,0,-143.1975182,40.66241699,38.32189033,35.82260965,-5.949417122,-5.776850406,-5.356079168,-105.7537036,-1.459028461,-19.87274201,0,-2.058965573,,,,
733.6719995,2865,-9.461723176,9.956018306,37.03490595,0,101.552346,-1.658175888,2.044102545,-10.81377185,41.90112065,47.12932389,40.45570909,-322.6649911,47.36603495,38.33663698,0,57.14097238,,,,
733.6799995,2865,-31.54360858,-15.15376491,18.85318804,0,-24.41426174,-29.52172261,-30.49596577,-37.03411417,-45.17974229,-43.96847996,-34.1810223,-214.4156599,-46.34080075,-58.39994663,0,-6.609344144,,,,
733.6879995,2865,51.90881011,74.05823296,-7.080349964,0,-63.52133613,56.7442587,43.876964,45.29104734,37.68653136,44.63844149,32.48161449,-152.6525284,43.93046518,32.46332295,0,35.97222408,,,,
733.6959995,2866,-23.2893199,-4.689645004,71.98467459,0,136.2391418,-20.76859139,-37.81632198,-41.02681448,27.71089642,32.61403106,34.99064112,-370.9990973,26.93466333,16.4528177,0,53.54958343,,,,
733.7039995,2866,20.92944614,43.95552432,-22.30018288,0,-146.9648413,21.64285948,0.965586257,0.348434203,-14.51196815,-9.556984363,-14.06252875,-112.1179471,-18.99575857,-34.13156779,0,-11.84771792,,,,
733.7119995,2866,-17.88396084,2.729195627,5.709492091,0,85.76000552,-17.68175218,-40.25819685,-45.05035579,27.35014799,39.50830032,24.44230815,-316.8321636,27.18142948,10.48190377,0,30.53090036,,,,
733.7199995,2866,-28.25504296,-10.88964357,7.211560207,0,-30.54891317,-31.29652467,-50.15204606,-48.50675102,-47.94104132,-43.71660656,-41.74698261,-216.6046802,-49.20385931,-72.89613835,0,-19.38389975,,,,
733.7279995,2866,52.24797465,74.29701673,-14.24468526,0,-61.26693724,53.69745672,41.57416728,42.87954857,35.73734063,35.14887215,22.19975111,-157.4103873,44.29038815,16.68967883,0,34.25196107,,,,
733.7359995,2866,-25.14308126,-7.915227711,40.2395567,0,131.0186902,-27.61235389,-46.7969319,-47.16995125,20.88741423,25.4013734,27.88222635,-368.8562545,27.850183,7.981149337,0,64.28441265,,,,
733.7439995,2866,15.59045503,36.8527587,-54.78379421,0,-155.4997857,14.86826696,-3.038272938,2.502021971,-33.0082211,-28.97202746,-31.14633287,-96.52971057,-34.58488389,-47.91427452,0,-6.720552897,,,,
733.7519995,2866,-6.997002689,13.17924931,2.254543097,0,92.09917182,-1.342879448,-15.55828483,-15.40072823,25.55939119,25.2476903,19.09516437,-299.0307504,27.66779368,11.77707763,0,41.66389953,,,,
733.7599995,2866,-25.25430376,-5.838075449,-10.57346074,0,-25.36992848,-19.5040502,-44.33796811,-36.00633315,-34.90698875,-30.62159475,-26.61999623,-219.3966595,-29.02566452,-44.77272185,0,2.223976659,,,,
733.7679995,2866,26.26525046,48.54710009,-56.73623473,0,-71.03901653,29.47795223,16.93800812,22.83114897,16.80318185,20.86735079,2.346192502,-157.1605326,22.99728537,4.764041237,0,8.862140308,,,,
733.7759995,2866,-33.9126346,-17.68041411,23.92366312,0,129.035055,-35.84050218,-37.57386867,-36.28020868,-1.637197412,-4.37208535,-2.764500191,-345.7260889,2.865045498,-20.98168579,0,13.08765871,,,,
733.7839995,2866,37.56250004,60.5972417,-42.58198559,0,-128.4472299,44.33229975,38.97661383,45.25354645,-10.58729155,-8.968408818,-11.55057739,-96.56798709,3.680719266,-21.88631668,0,-14.07200039,,,,
733.7919995,2866,5.042957266,27.59277079,10.05738433,0,124.6755651,12.23176756,9.139360427,4.988546536,52.36734353,52.25123828,44.51029431,-326.2009598,69.46835226,41.85080341,0,44.46842633,,,,
733.7999995,2866,-30.68962127,-9.489780038,-22.87833233,0,-15.42557307,-26.05838346,-35.70605861,-32.35530775,-32.43502937,-36.03081993,-24.75720859,-231.0148787,-27.90002313,-44.96267377,0,-18.27627292,,,,
733.8079995,2866,29.05291562,53.99832774,-75.33257849,0,-65.03725937,40.57014195,30.5874323,36.43617995,22.79276439,22.55138564,16.74847022,-162.5624145,29.61990457,16.18715788,0,0.602281797,,,,
733.8159995,2866,-38.22178491,-18.99744272,0.502942805,0,130.1362188,-27.85803155,-37.23027982,-36.43643115,2.382001376,-1.148383246,9.348172272,-354.1313988,16.18233917,-7.873910133,0,14.69786915,,,,
733.8239995,2866,8.65810731,32.63455634,-81.30114191,0,-155.1541078,23.59886028,14.2908945,20.23518376,-28.6539513,-32.76587436,-29.0776034,-88.81194146,-14.10731315,-33.44208892,0,-31.73716373,,,,
733.8319995,2866,-15.22284129,7.341402498,-20.50636304,0,94.35882047,-0.667794413,-5.978145274,-7.408084827,27.66971139,23.85291627,20.93991901,-297.6203203,31.53024594,22.01520593,0,18.90357906,,,,
733.8399995,2866,-22.34225022,-0.826239472,-21.61674336,0,-20.24237734,-10.18268185,-20.79561668,-18.93920372,-35.54460685,-42.24766035,-28.78706637,-197.9769303,-31.60387496,-48.99768112,0,-24.24536743,,,,
733.8479995,2866,28.8259058,53.69678469,-60.36102461,0,-65.8538851,42.27639112,39.37177977,39.17222427,30.2911582,23.06090074,17.85958915,-136.7676608,43.9688266,18.28857915,0,3.719623881,,,,
733.8559995,2866,-52.39582915,-33.16828567,10.55826639,0,120.8757435,-42.64600032,-40.9161684,-44.93650343,-6.346200003,-9.216661458,-0.312980262,-324.7939525,0.773949404,-19.05491549,0,5.95188899,,,,
733.8639995,2866,15.93857775,40.25101964,-69.79859316,0,-148.0797955,30.51351966,23.72825217,26.55533069,-35.77486684,-34.92069762,-31.43238328,-59.52226905,-19.85182382,-42.6181635,0,-36.37494202,,,,
733.8719995,2866,-2.752878591,19.72844052,-9.55698357,0,107.9954435,11.83714542,3.089194832,0.619866331,38.43901358,33.59908093,31.65688786,-276.5061722,53.33520124,26.92611984,0,28.51105045,,,,
733.8799995,2866,-28.73278004,-9.231128875,-18.20182717,0,-22.71578956,-11.89854269,-22.80525679,-18.6353752,-36.81486795,-40.90542894,-29.2465332,-176.429012,-31.83316516,-47.57831212,0,-17.51551731,,,,
733.8879995,2866,42.96913915,66.71809171,-45.1130137,0,-52.50282158,65.63330623,58.97593725,62.28010239,25.64975094,21.76260913,19.42921936,-116.6879864,34.01252917,24.53146661,0,13.55917401,,,,
733.8959995,2866,-15.82781772,4.467121541,44.56391291,0,154.5462741,-0.597725284,-6.459675589,-7.254939235,23.50271423,14.70130738,30.11982418,-318.0141572,30.97129503,12.5276297,0,38.31580157,,,,
733.9039995,2866,24.63726141,49.48144374,-44.37867906,0,-132.7936665,41.39641011,32.82148327,41.66933771,-10.89470043,-13.03417369,-9.651903958,-57.9260566,7.562730901,-13.84858486,0,-6.058214364,,,,
733.9119995,2866,2.760713002,27.28683446,9.715756236,0,117.7124428,22.0156721,15.96045403,18.25818271,32.74338651,37.26054346,29.94749808,-270.5662108,43.87922403,38.5822249,0,38.12980448,,,,
733.9199995,2866,-23.40157101,1.851367187,1.015709734,0,-6.413093095,-4.724680361,-15.71889424,-12.89219389,-40.01654444,-31.98509917,-25.37184729,-185.0091398,-33.64834702,-37.58144565,0,-10.75395182,,,,
733.9279995,2866,5.895870593,37.02255491,-50.19588943,0,-64.02667646,25.36215393,19.47187381,21.89138813,6.009796941,12.16371141,2.446862861,-123.9738997,22.7406948,14.25394803,0,2.928146721,,,,
733.9359995,2866,-44.94212169,-17.01052801,28.85541912,0,122.1977551,-34.09640999,-38.67842918,-37.74954796,-14.96933643,-17.81603203,-11.79499084,-292.9165854,-13.76487857,-19.63038762,0,0.948921602,,,,
733.9439995,2866,31.96114227,65.80736867,-34.91929541,0,-140.6691408,48.51126275,38.62804798,46.02856017,-22.27678265,-19.6566064,-24.72694695,-38.56836119,-17.16790336,-27.96909696,0,-25.90310693,,,,
733.9519995,2867,4.801849518,37.94322154,39.86805133,0,123.294478,27.02902164,25.55692973,26.14408843,37.60309145,52.4474177,36.61506929,-278.02625,54.46767214,50.8925793,0,50.07203886,,,,
733.9599995,2867,-7.500155144,21.88616353,50.01510337,0,-0.939517627,8.844848484,5.114340737,8.321116176,-26.09675801,-20.97442193,-16.30145836,-194.7556999,-13.93576044,-17.13377084,0,5.492042546,,,,
733.9679995,2867,32.30236753,64.8664854,3.11750858,0,-47.96234236,52.18063548,47.16413234,47.71667933,34.32890864,29.1094783,21.13714863,-143.6818417,44.6892728,33.3920288,0,22.71696021,,,,
733.9759995,2867,-52.2192656,-23.09735968,48.15619195,0,130.3416609,-30.76385744,-34.68214345,-35.77825977,-13.46015896,-7.014838395,-7.263679418,-319.834373,-10.02599609,-11.2995144,0,24.50308347,,,,
733.9839995,2867,6.79072541,39.95037173,-43.21445778,0,-148.2335497,32.45643165,27.00031265,31.16969351,-43.84454415,-34.74967396,-45.5268711,-49.75789223,-37.02735599,-37.56653327,0,-18.61452915,,,,
733.9919995,2867,-16.37059895,16.2579293,13.81044973,0,104.0129896,7.94328359,4.188972203,1.260488851,25.48300154,29.46596064,12.70062092,-264.8646273,38.7348448,26.23020738,0,40.85591585,,,,
733.9999995,2867,-17.57008926,13.23550744,17.3641144,0,-15.73241311,1.904775596,-5.147351154,-0.782530117,-39.5288704,-28.12630318,-32.90390117,-165.5822927,-32.56199186,-38.23109956,0,-1.074172446,,,,
734.0079995,2867,38.33398755,71.97935874,-1.902137339,0,-40.18153146,65.2055981,63.76277553,63.83245328,27.61870047,35.78101687,18.92398357,-120.0277232,24.17133831,31.75513257,0,32.03627658,,,,
734.0159995,2867,-23.14099716,6.682389893,79.0671601,0,150.5774182,-2.456160397,-7.431080284,-11.83597281,10.89611367,17.9903988,16.07023722,-306.7111983,10.63612296,9.045541985,0,52.00450794,,,,
734.0239995,2867,43.01816443,77.23383124,2.51694403,0,-124.3205153,59.92673162,52.76300616,54.4435311,-6.415959013,9.627854176,-7.252416706,-50.81838053,2.810406128,-5.991933575,0,16.26028008,,,,
734.0319995,2867,-7.077503423,24.45849637,47.26931414,0,114.8444062,11.08204074,9.744613636,3.072058103,41.83232591,53.33983187,33.50345345,-278.4136411,42.92084042,39.03917315,0,60.56365306,,,,
734.0399995,2867,-18.11315843,10.7772352,29.32779868,0,-23.90672845,-6.017905115,-12.39896043,-11.36542579,-39.08044935,-31.24150577,-33.95410656,-176.0861661,-41.60847928,-46.90790788,0,2.45095107,,,,
734.0479995,2867,36.98143559,73.52221803,-14.93553393,0,-56.61375959,53.53286346,53.45490944,52.49373876,24.59895466,32.37646944,14.75765132,-129.4929678,30.1356206,23.88439128,0,35.2394029,,,,
734.0559995,2867,-44.14539137,-8.58741635,45.03656359,0,127.4077044,-29.0184636,-31.07240413,-36.44180012,-2.429516186,5.688196251,5.063042136,-313.3155617,2.846715666,-3.217710311,0,49.1295645,,,,
734.0639995,2867,21.83243262,61.12321654,-28.87318425,0,-133.8406537,39.92712247,36.38840635,35.75951413,-19.99718707,-10.85542836,-22.80223683,-48.17277084,-21.51762159,-25.09674464,0,7.82993818,,,,
734.0719995,2867,-14.04560287,24.66978463,28.6831805,0,114.2601002,8.105925414,7.50011554,-0.039868285,31.28054936,43.0945637,24.98013182,-266.2132058,31.80927711,28.67312127,0,58.04653596,,,,
734.0799995,2867,-19.60947775,18.36008729,29.09040089,0,-26.53971895,-2.009016224,-16.76604881,-13.1739044,-45.66528216,-29.22405073,-36.60276761,-157.0816573,-36.03019332,-47.34035237,0,2.831841958,,,,
734.0879995,2867,43.41340972,86.06569888,-3.02033313,0,-47.43715717,67.21383802,56.92624211,58.39936973,25.85242513,40.8298898,15.40170908,-114.9108868,36.00469906,23.74087154,0,36.29987903,,,,
734.0959995,2867,-33.73720214,5.213469412,42.65394122,0,136.3461185,-13.48332288,-20.96236196,-24.39396355,5.728497934,18.79631136,12.88237355,-309.6622836,2.195443439,2.057452861,0,56.76093841,,,,
734.1039995,2867,33.50632581,77.87492023,-36.36980293,0,-129.0466484,53.20705776,37.70613271,42.35424578,-8.32978291,3.040213695,-11.86568868,-60.82740948,-18.46003128,-15.21391358,0,17.70678894,,,,
734.1119995,2867,-4.235160996,40.26649694,25.34219488,0,121.6776832,23.86036278,9.990758833,8.126309344,38.87598177,50.73677295,32.41859539,-290.0427547,39.04223767,32.211014,0,66.05841241,,,,
734.1199995,2867,-26.5537159,16.97837986,10.85769618,0,-18.29206165,0.774692126,-16.95703396,-8.036300442,-41.25253337,-27.18984117,-30.02248028,-179.773853,-40.19135871,-42.6987337,0,11.5506574,,,,
734.1279995,2867,30.2220314,79.29902405,-11.97477114,0,-43.91058761,61.14943989,43.92616354,52.18172846,25.30019057,39.97247683,17.85863448,-129.8323033,24.67978204,28.32315513,0,35.92217454,,,,
734.1359995,2867,-55.18664085,-11.08070784,46.5700875,0,126.4963057,-25.83890225,-36.23425485,-38.16618286,-5.872958222,4.64320258,6.536999454,-310.611585,-6.308408651,-6.9230126,0,40.63163967,,,,
734.1439995,2867,-7.772928292,38.93737339,-55.92995934,0,-151.5907688,16.99190655,11.41013152,15.54248537,-43.29628368,-37.05980838,-36.09370419,-40.78000793,-44.10350785,-45.93449,0,-18.76133534,,,,
734.1519995,2867,-21.34821339,21.73982751,10.69431139,0,99.96801119,0.766357127,-9.662007556,-10.06885421,15.72459301,21.62930255,17.39832109,-249.7753473,15.17051249,4.849073011,0,29.72812205,,,,
734.1599995,2867,-11.87286514,28.03316183,17.07384072,0,-18.23643968,9.803785983,-4.316099314,-0.278758517,-25.72289241,-23.91583128,-9.151486686,-147.9635145,-31.40619616,-44.36219035,0,8.024700014,,,,
734.1679995,2867,36.42560994,83.85492812,-8.010971111,0,-31.19788517,63.7122827,55.03495721,58.94030568,34.3442748,40.96624365,37.35544622,-116.9167111,38.45637275,26.10309351,0,51.58603146,,,,
734.1759995,2867,-37.97662749,5.560774844,63.06062454,0,131.5092735,-17.10071922,-33.01271234,-30.03659321,1.732156323,12.25363649,22.68498186,-291.6928243,1.370852255,-10.07263852,0,61.99468805,,,,
734.1839995,2867,35.99596975,80.46690144,-22.18131595,0,-129.536424,52.04679248,36.79496864,45.90678585,-2.167198948,-0.366624669,11.53696699,-31.29517359,-19.47093451,-22.83455095,0,23.99773284,,,,
734.1919995,2867,2.061756257,45.59678767,30.38196006,0,129.3787652,18.67929907,9.410100634,11.46539024,45.4089509,50.18727491,59.48377317,-266.7963421,39.93001901,31.68541902,0,75.32357225,,,,
734.1999995,2867,-16.81911249,26.85529181,12.28993936,0,-22.07874748,-3.062453874,-17.78558926,-11.84833662,-32.94966443,-22.65044918,-2.774290153,-157.1900978,-33.1200609,-42.73559783,0,19.92475021,,,,
734.2079995,2868,42.71920468,91.70751285,-17.48987201,0,-39.42350112,57.04385107,49.19284859,50.62026255,30.07564619,41.69051922,43.63306666,-109.9036202,30.64619813,23.25752042,0,40.2552036,,,,
734.2159995,2868,-24.21648021,20.69672282,60.2578706,0,137.6568356,-11.89098183,-21.98315436,-22.47282469,2.968040084,16.49587626,35.61581264,-293.3463375,10.69555978,-0.007598254,0,54.17853208,,,,
734.2239995,2868,37.96375169,84.71180511,-11.42722254,0,-123.2338828,51.60994898,39.7116169,46.35174474,-0.48824682,4.854742593,23.9921542,-42.05529254,7.373735561,-5.556735021,0,19.91685778,,,,
734.2319995,2868,5.907538912,52.18727978,56.21543984,0,129.1432568,18.0408492,12.05396736,10.2390976,38.94414255,49.2922551,64.05568823,-261.9115069,52.66913096,37.09060224,0,50.19297333,,,,
734.2399995,2868,-4.22378856,42.72169191,47.39921199,0,-29.29678966,6.540038871,-9.339938065,-6.683693122,-39.41217022,-21.38179344,2.653979237,-153.0349344,-21.92755646,-37.90667793,0,-8.341279851,,,,
734.2479995,2868,48.81971775,97.94601834,21.1908351,0,-35.69069257,63.90896174,56.93006875,52.76578074,49.46229725,57.32133323,69.13834105,-131.056623,66.66835065,48.2553037,0,36.17778894,,,,
734.2559995,2868,-22.53060633,22.80634374,89.35504575,0,142.7070991,-12.2886481,-9.37003747,-22.79306936,10.5868684,16.14758295,46.014673,-300.4842807,23.16803262,7.059216394,0,32.01884868,,,,
734.2639995,2868,29.92778314,79.78161914,0.323804255,0,-133.3546898,40.66859659,41.30559173,33.48776914,-15.10339668,-9.419411678,11.96120183,-37.44426821,-2.195037939,-19.76318821,0,-18.50345724,,,,
734.2719995,2868,-14.95414823,31.95979784,53.71600072,0,122.4448445,-1.211514157,-0.999444274,-12.81320303,36.67230575,42.7947978,61.04579027,-263.4952494,52.02309052,34.53817227,0,33.78868167,,,,
734.2799995,2868,-17.7651878,28.58077912,34.72209768,0,-29.08990902,-3.671773088,-14.08127613,-18.94917012,-41.50444581,-33.50355279,-3.179815304,-130.0737222,-29.28867198,-45.32208331,0,-22.60244076,,,,
734.2879995,2868,38.40729102,88.00721418,5.161388204,0,-42.20627755,57.30739952,47.22913781,41.60406843,34.61820122,38.67874338,52.54628663,-93.50574055,53.29375801,30.41147474,0,17.4096337,,,,
734.2959995,2868,-35.76619622,8.692457235,75.02206186,0,134.7942851,-18.93179014,-28.13203467,-35.39440321,0.800671109,11.04244336,38.23416657,-269.2863672,16.99358563,1.923464653,0,25.41915129,,,,
734.3039995,2868,22.82909527,71.3752266,-11.03549401,0,-137.757177,42.28570168,36.84489134,31.63466581,-28.02125727,-11.63137539,3.254704817,-0.643452894,-8.438841548,-22.44583527,0,-24.48778497,,,,
734.3119995,2868,-4.703549232,39.2773329,55.83286814,0,125.3975028,11.49013427,15.97026949,-0.329065489,31.51358284,39.12310516,55.9865341,-228.0575214,57.28183635,35.14838873,0,33.54015509,,,,
734.3199995,2868,-5.27063812,35.77461113,42.85704959,0,-19.3583557,4.855000412,2.109968414,-7.24658133,-23.97236033,-25.27698822,10.14132828,-117.4883286,-4.65540524,-27.16699449,0,-4.724718388,,,,
734.3279995,2868,36.62137225,81.24874386,2.473301191,0,-40.73084722,52.00117092,51.80856916,40.28318353,35.08980684,36.65962362,53.86865267,-88.13657494,57.08743099,35.41014243,0,30.15202522,,,,
734.3359995,2868,-25.09177763,14.28389514,82.09379838,0,134.118094,-15.48590175,-12.93628261,-27.95680686,-3.069801458,3.86935,36.31781443,-254.0015247,9.374209091,-1.038666108,0,37.75877596,,,,
734.3439995,2868,51.05853626,96.49221744,17.07545532,0,-122.9525445,62.07811853,61.95474469,53.39170329,-3.878255311,4.351093549,25.56945818,1.574682489,8.899258548,0.600664477,0,9.110223942,,,,
734.3519995,2868,12.89922176,56.87664701,73.89379329,0,143.7854663,25.01045588,27.06651973,9.979050777,49.42983214,59.2184825,75.3785844,-240.7591526,66.63681022,57.05849853,0,65.38564268,,,,
734.3599995,2868,-2.510598876,40.34937538,40.10311062,0,-10.3150197,8.840032608,-5.251318032,-12.52293298,-21.12752451,-12.21486897,16.57833896,-121.4680578,-13.98579913,-20.7102819,0,8.68866054,,,,
734.3679995,2868,32.38379251,82.12360655,-3.710337095,0,-40.11668652,55.58697198,31.50785921,28.3340438,37.92274631,48.74030087,55.89800317,-85.6631324,52.1252731,40.75107519,0,37.02038157,,,,
734.3759995,2868,-42.01438591,3.949005514,60.07770343,0,117.4252946,-24.03492953,-47.52226699,-53.83014772,-15.85815474,-2.540857645,22.65476486,-245.8983866,-6.324993786,-12.11140621,0,38.52054173,,,,
734.3839995,2868,28.57973001,77.37360171,-32.86810009,0,-147.4416103,43.0044993,24.79675358,22.31866765,-26.50616575,-12.59637236,6.32314831,23.01223988,-18.00988792,-20.82981925,0,5.720521756,,,,
734.3919995,2868,8.683429,52.67271101,39.63522477,0,127.1009411,21.31300063,16.21017202,3.123925824,38.24651218,50.21736749,62.91026537,-208.555159,53.56329967,44.02546161,0,72.30174544,,,,
734.3999995,2868,12.83978749,54.66175201,57.10421933,0,-12.02126085,19.32178991,11.35483646,3.870407803,-12.1234626,-11.6126266,15.44807142,-94.67831182,-2.101036183,-23.61545025,0,34.01293618,,,,
734.4079995,2868,45.10250514,91.71218647,24.98907999,0,-25.83891441,54.81400631,44.66917591,37.22754289,55.16381933,56.99198576,66.78402069,-70.29718762,68.44729658,45.33658154,0,63.8922814,,,,
734.4159995,2868,-35.02846813,5.977799828,77.50930567,0,131.4099401,-31.79631324,-37.77920302,-51.07772271,-5.584750894,-1.211728666,27.42902693,-227.4416493,-6.340543794,-14.7191253,0,47.22539952,,,,
734.4239995,2868,51.32982324,97.8554982,14.15667327,0,-126.9555466,54.9205185,50.16933663,43.86170256,-6.339294867,-8.037400073,13.83991371,33.57500052,-7.53018171,-22.12093538,0,14.78722954,,,,
734.4319995,2868,43.42221045,88.31978095,101.0817405,0,155.3153557,48.67083002,41.66133907,31.5520124,67.43731328,73.41640124,86.65459668,-215.7845051,79.17423473,60.17708067,0,93.47956492,,,,
734.4399995,2868,28.88590526,72.42679305,80.73008479,0,7.250412046,32.80302344,21.10687172,15.53866379,8.337661221,12.24251094,38.97985321,-111.726736,5.165961915,-3.539004378,0,54.79982419,,,,
734.4479995,2868,44.22863516,93.8329581,13.12167306,0,-18.61582742,55.38968004,53.40576675,45.19509159,57.18583009,64.56173729,71.56154515,-85.07432319,60.06873477,51.80113261,0,76.00714297,,,,
734.4559995,2868,-34.89063821,8.575136544,46.92151144,0,128.5436082,-31.75140677,-27.24876118,-38.35384871,-15.20524352,-0.644110585,17.93723895,-230.7091329,-7.769326528,-15.69271954,0,50.0861068,,,,
734.4639995,2869,41.10154886,87.93820118,-30.39855937,0,-125.2069245,41.89564836,44.58562113,39.67251869,-10.62556228,-5.817629935,6.835876264,30.26465982,-8.701579552,-19.54516777,0,21.21160508,,,,
734.4719995,2869,1.733116037,47.66880926,32.21459519,0,140.9078329,4.6812975,3.138267935,-6.900752113,41.99647222,53.51113578,62.863989,-204.0398126,52.17761659,40.33408179,0,86.13616024,,,,
734.4799995,2869,-10.6347807,34.56342029,9.843806206,0,-28.92744177,-10.19594736,-19.83612564,-21.07500634,-39.80525165,-31.57199297,-8.347643513,-68.64466285,-40.4825188,-51.61806791,0,15.31039935,,,,
734.4879995,2869,54.66552017,104.3880472,-2.117330232,0,-23.81207139,58.74359052,58.16031698,55.25064396,47.65204716,46.62164911,53.86594338,-51.71365233,49.88535614,30.70606402,0,57.32753548,,,,
734.4959995,2869,-15.62141452,28.36120188,63.66955181,0,147.0383914,-19.13363902,-15.17058637,-23.16347808,16.20642664,19.92125843,42.79862225,-229.4109314,24.42724871,4.184590944,0,76.98418234,,,,
734.5039995,2869,34.80071677,82.97535632,-32.98932534,0,-120.6923015,33.49131298,34.25535161,31.90698421,2.457182408,0.196385031,16.84555077,26.72676654,-2.656690273,-13.55152547,0,33.09217579,,,,
734.5119995,2869,3.477443746,51.84027176,23.12380071,0,136.9556321,5.845085867,9.764828211,0.132238535,38.23349918,39.01949053,52.10972682,-208.1547187,39.06378038,31.41096556,0,77.61082883,,,,
734.5199995,2869,-3.980843353,44.41597696,4.430834836,0,-29.72387281,-5.87433372,-7.469726409,-10.42093407,-33.40848034,-27.63716441,-3.490698339,-84.04676292,-25.93368591,-37.11713178,0,30.78270383,,,,
734.5279995,2869,37.79465399,88.66421818,-15.00287303,0,-33.71344239,40.13599847,41.95227171,37.04397041,39.83620489,41.66104635,50.69478939,-56.37363938,44.61989574,35.45387285,0,61.00529123,,,,
734.5359995,2869,-27.20286426,18.57949843,64.02013922,0,128.1318019,-30.30971823,-24.8729235,-37.79299439,-4.964929762,-1.443829983,21.52283047,-212.4041055,-3.195141685,-14.72172322,0,50.67550426,,,,
734.5439995,2869,53.06111144,104.1361977,1.889573739,0,-120.1361858,51.90822522,55.47887969,48.75541965,3.73637268,8.905796018,19.63223486,33.97232672,8.267644648,-8.828612824,0,27.46474804,,,,
734.5519995,2869,6.599147896,55.2902816,60.70007992,0,153.7387004,11.05831733,21.15120891,10.43690222,54.66237728,64.53387858,72.85896773,-218.9049353,63.1990217,55.56297162,0,86.41985527,,,,
734.5599995,2869,-26.66649465,21.21314648,29.52902543,0,-23.67319238,-24.51545066,-16.53561905,-23.05092317,-44.27310704,-32.85789975,-14.63464488,-80.24014402,-35.77948184,-42.5944148,0,11.16416404,,,,
734.5679995,2869,28.96339663,80.49460742,11.17800776,0,-34.42831777,36.35279445,41.96735481,34.04522009,20.84310613,23.27114159,27.98212411,-43.54172216,33.15786344,15.63830283,0,38.13359453,,,,
734.5759995,2869,-34.13065161,10.50851166,71.40212869,0,131.0272667,-30.77150252,-24.30655002,-36.68336174,-4.723404172,-3.966298186,20.16124909,-217.4942001,-1.366458435,-13.51628018,0,47.65854697,,,,
734.5839995,2869,34.89611482,83.35171867,-5.182429918,0,-124.4337473,35.48982026,41.4592503,35.41673916,-7.510666536,-8.357023909,3.950868303,32.29212993,-4.278050787,-19.70608775,0,11.51871574,,,,
734.5919995,2869,7.085160274,55.49962289,65.77672625,0,144.161006,12.49270995,23.21786063,11.76250012,48.209508,42.87621486,53.34471514,-203.0449512,53.33314352,37.84286974,0,76.02547561,,,,
734.5999995,2869,-9.002519285,39.48402191,29.9237826,0,-21.63036872,-4.655938926,7.728881696,-2.447755108,-28.97833606,-25.62530445,-5.049047638,-78.39019044,-26.91603998,-28.41922943,0,30.15054998,,,,
734.6079995,2869,43.63303502,94.94427196,6.177900461,0,-23.19177185,46.59430217,57.82998866,47.75123084,36.5745734,42.00988929,45.99640642,-60.33362569,49.6033172,40.34577783,0,56.09227424,,,,
734.6159995,2869,-14.5012399,29.75426267,84.67444693,0,137.4540457,-18.26076946,-13.47710257,-22.06369764,11.32091205,8.111560967,33.00353464,-225.6754071,9.029380869,-1.902034961,0,53.11931103,,,,
734.6239995,2869,48.89014843,97.8077367,6.944547354,0,-115.320445,44.81506806,48.0347032,44.15080907,13.09492248,2.984757034,25.38282495,19.87390577,3.800419456,-5.155334119,0,19.48177897,,,,
734.6319995,2869,5.716332606,55.89733346,60.92827514,0,148.0086245,5.489637975,14.54686548,2.806451701,52.35250251,48.93723337,68.33005616,-221.402983,61.16802458,45.8459436,0,73.43076752,,,,
734.6399995,2869,-7.517016598,41.21691638,37.89789127,0,-31.37630496,-11.70887811,-8.62787766,-14.79274956,-33.5057785,-28.86647476,-5.60927419,-85.60673084,-31.81051763,-42.29728308,0,7.644540108,,,,
734.6479995,2869,40.21927719,91.81218404,28.79338567,0,-26.0195515,34.83649391,40.27137766,32.01103391,44.62626321,39.1495734,49.74525791,-62.18640163,34.30604132,24.5107491,0,37.95339051,,,,
734.6559995,2869,-19.07833812,29.57312733,100.3935723,0,138.5284568,-24.39977094,-15.09112095,-24.7496922,7.078672116,3.364046841,32.87017779,-214.6250195,-1.878230121,-10.98833814,0,43.97383011,,,,
734.6639995,2869,40.79226492,92.27071528,18.46615672,0,-122.7997511,42.20550213,44.24355271,42.34411308,0.849433907,1.503575399,19.79222561,29.90513558,-1.217968324,-9.06304597,0,16.14615419,,,,
734.6719995,2869,-17.25221473,30.29834068,61.10134864,0,129.7240687,-13.41293656,-7.832959607,-16.93037115,37.849943,35.52800412,52.67649238,-212.4504778,39.63317215,29.48648949,0,59.68622186,,,,
734.6799995,2869,-17.04099299,28.98965691,22.48677106,0,-42.35050771,-14.88621555,-9.798640783,-10.46675741,-49.13444009,-52.19739121,-25.59269177,-64.06812076,-51.86332891,-58.7645574,0,-7.653365781,,,,
734.6879995,2869,38.14821219,87.67395882,17.2000701,0,-23.83305045,45.6514455,47.41655826,48.72462162,44.8607687,34.59967103,47.05102962,-53.09538752,35.9988253,33.8459788,0,50.89518856,,,,
734.6959995,2869,-24.37973092,22.61731361,96.40151349,0,136.8426427,-18.52910184,-16.76602919,-17.79798977,4.317143354,2.871428126,31.29991355,-216.6095729,-0.268353664,0.06721512,0,62.82948634,,,,
734.7039995,2869,43.7262126,93.70100734,8.65301675,0,-117.8022054,52.10008275,54.05054124,58.22283231,-6.775290453,-3.801898837,14.07909869,32.49525582,-6.470727004,-4.11033051,0,29.57428832,,,,
734.7119995,2869,-11.23650774,35.65599478,63.35458182,0,141.9483752,-3.21687175,2.553335481,-2.303376335,44.69063152,37.17865812,58.40784996,-206.5501146,40.53785424,41.2745506,0,79.83283166,,,,
734.7199995,2870,-8.036282229,41.24558822,47.49033613,0,-31.23372872,-1.328298593,-2.096926546,-1.245048385,-38.42079357,-43.33025192,-14.56010009,-62.64677745,-38.23730609,-44.58530794,0,11.33683155,,,,
734.7279995,2870,43.8408583,97.92930665,25.17891917,0,-12.43567338,59.80727456,57.60303436,60.17245882,49.44637622,44.60122146,53.78567023,-64.5183011,48.6615209,46.2839574,0,58.23012965,,,,
734.7359995,2870,-37.33624875,13.02984009,74.86838526,0,138.879775,-21.21033437,-19.38722677,-17.69654374,3.173739394,3.942224246,28.45512988,-230.6258835,-5.852556846,4.031758595,0,55.10223128,,,,
734.7439995,2870,24.22766293,78.46529583,-10.28564136,0,-123.1063,41.48046534,42.55986374,48.20981006,-23.12768436,-17.90145587,-7.054494218,27.15838187,-27.759143,-17.27416884,0,7.340716351,,,,
734.7519995,2870,-11.73005932,40.35381783,61.86341456,0,143.1543673,7.249997039,5.92267005,3.780524145,40.01246847,38.56712645,51.32549577,-211.5435332,34.8676316,43.28001411,0,74.42618986,,,,
734.7599995,2870,-20.44021225,32.92791479,38.86327698,0,-30.45262821,-3.51521273,-10.47687291,-6.860262888,-36.12660446,-32.57976522,-12.13610973,-70.64454558,-41.40603927,-35.32281771,0,22.11870346,,,,
734.7679995,2870,24.82299729,81.21977139,16.17281737,0,-27.38206366,38.46071836,37.86048074,37.45154318,22.62323445,24.11292066,27.34606939,-46.93169738,19.95252653,18.97377011,0,42.8720003,,,,
734.7759995,2870,-16.14840163,35.00615612,103.1062775,0,132.1904712,-11.50440248,-9.167841348,-16.14436751,10.3320032,4.082237344,32.27358764,-197.5619991,-5.694641906,-6.291915666,0,56.79694413,,,,
734.7839995,2870,45.81393623,98.618202,22.5852099,0,-106.8137396,49.05083285,56.86558939,51.52389148,20.55092279,13.07859566,28.43402161,34.50683748,4.367649369,1.367508083,0,37.29212326,,,,
734.7919995,2870,-12.93563018,34.19253482,67.89728735,0,145.5172789,-9.766945927,4.266927228,-5.31474545,49.88115267,38.71363639,53.26250109,-214.9325973,41.07956052,33.76088299,0,66.48588697,,,,
734.7999995,2870,-19.59791432,26.31689654,41.9362871,0,-37.61134146,-13.70149539,-6.452836291,-9.75753203,-32.72101263,-46.80409046,-14.84902493,-75.78992042,-43.49798106,-50.28190883,0,-2.099914065,,,,
734.8079995,2870,28.35837767,76.90330252,12.4878147,0,-12.5521432,38.83752629,59.54500621,48.4727768,36.41191897,23.11289145,37.94192354,-67.91972343,32.9265205,25.46215869,0,41.22748044,,,,
734.8159995,2870,-31.54078403,13.60498726,67.31414466,0,141.3854881,-25.3571631,-4.525147929,-15.39824472,5.656316428,-4.098790101,26.04774038,-224.4399632,-0.662819578,-1.663875573,0,52.1899016,,,,
734.8239995,2870,6.271378955,58.73843528,-31.08544782,0,-125.012134,13.42389935,27.15152273,21.73475066,-7.974552306,-18.1690416,-1.720467038,24.74055144,-16.06018119,-19.66910317,0,9.250587787,,,,
734.8319995,2870,-37.14121989,13.03336075,28.29733585,0,128.3796562,-30.34510625,-6.369628746,-21.64499813,21.04647817,11.1060441,22.40502779,-199.0183507,12.31179424,5.339548366,0,41.24074017,,,,
734.8399995,2870,-20.99717943,26.19159419,15.2974988,0,-34.53309881,-13.89747613,5.884824663,-0.381923076,-37.55828251,-46.84569656,-24.22727823,-58.36015989,-49.8488072,-53.88258638,0,-0.703243717,,,,
734.8479995,2870,19.42242492,68.02712102,-14.48406775,0,-12.99853832,30.54761073,48.1947836,41.11165136,33.37446233,22.85454542,29.15713721,-57.38482361,30.74723865,19.8876252,0,41.88961579,,,,
734.8559995,2870,-37.49998209,7.822164679,42.44105998,0,123.5702289,-27.87326521,-20.51663047,-24.35486053,-5.633681801,-14.18209618,9.297084424,-206.0086774,-10.83224593,-20.06148453,0,40.6939518,,,,
734.8639995,2870,24.8537575,77.33324403,-40.25058279,0,-129.2831194,37.70156356,43.26285822,43.98666625,-8.702400671,-9.916273196,0.54563194,31.843374,-11.00068239,-11.60207042,0,11.75269423,,,,
734.8719995,2870,-10.50886744,38.0891559,44.03074322,0,142.7129562,-0.470214264,15.94424135,2.845830576,33.4780029,29.8312817,41.02480136,-214.7061269,22.98729377,31.28234671,0,55.25814798,,,,
734.8799995,2870,-2.617100922,45.27045887,42.63522897,0,-23.47611084,9.888666075,17.78403912,11.46678329,-12.85507196,-29.5337165,-1.62357494,-81.16098654,-33.14386014,-30.35959159,0,14.70339106,,,,
734.8879995,2870,27.89397508,82.3334501,0.376425745,0,-11.6484583,49.29312511,55.59769154,48.81942637,46.27977675,44.0218856,48.96795268,-88.03075199,48.58256008,44.75179055,0,57.78122242,,,,
734.8959995,2870,-37.4279461,11.99851416,52.07173196,0,122.6654446,-21.94619198,-19.48468392,-24.64891192,-13.93729797,-7.357939205,14.35553871,-233.3950542,-22.31802177,-9.331622962,0,45.06836377,,,,
734.9039995,2870,24.45359311,78.47883125,-19.33792247,0,-123.0163673,40.16680305,41.30439465,41.89065712,-5.053866513,-12.3744768,3.360183272,17.77005881,-24.19744401,-12.94195451,0,14.06053763,,,,
734.9119995,2870,-16.72448978,36.59548487,41.43787909,0,137.228359,-4.133472764,2.459172126,-3.910011805,37.47161318,31.07094803,44.52800292,-219.5917826,29.32736981,30.23726471,0,61.09331376,,,,
734.9199995,2870,-10.13704405,43.20326673,13.94530734,0,-33.14186018,0.727873116,1.051795594,1.531694399,-30.01451112,-36.6894082,-10.161898,-76.45253986,-41.11615474,-38.78538968,0,8.260197815,,,,
734.9279995,2870,30.84483234,87.45989693,-7.968526078,0,-5.865467391,47.67520124,44.17943835,40.35223224,44.38296841,38.23133199,45.39699493,-79.69459955,37.59531202,37.27320769,0,48.84110017,,,,
734.9359995,2870,-27.4077231,23.89305458,52.17777491,0,123.0989937,-19.91512365,-28.47908817,-29.21949033,6.452133012,0.631458855,24.83581685,-227.0740093,-9.34133779,-3.609310947,0,44.35641102,,,,
734.9439995,2870,35.44013842,91.41329375,-33.05179365,0,-123.8065408,40.5777882,33.80915719,39.2817281,8.959398311,-2.718486895,12.51528901,9.028306136,-5.168657,-5.501149187,0,15.7265029,,,,
734.9519995,2870,-22.49677113,29.83159288,14.46738416,0,127.3245211,-19.51341806,-29.50890724,-31.14217935,33.79997051,21.68622717,37.11305586,-225.8064686,26.63788612,15.2851051,0,52.14934902,,,,
734.9599995,2870,-15.42819781,36.58449248,-12.6819764,0,-63.47597895,-15.90188815,-33.26475964,-24.94865464,-47.5913117,-60.05655155,-28.92556591,-52.70309939,-67.23010282,-69.73807635,0,-17.84892452,,,,
734.9679995,2870,45.94231615,104.6474153,-7.240806182,0,-18.03149819,50.57737407,43.24480083,46.16138769,44.23339618,37.15658207,46.75872833,-53.64034741,34.74964752,30.62831424,0,38.78666414,,,,
734.9759995,2871,-17.95297224,35.56381041,75.05238458,0,120.5000787,-17.03423122,-27.81093678,-25.54034871,12.65002458,8.715458569,33.46111931,-198.5584241,8.139903315,-2.123003508,0,45.24377217,,,,
734.9839995,2871,44.67661407,101.7651327,9.308324585,0,-132.5988713,51.14743139,37.21927175,46.41840916,2.283712519,-1.282685303,15.34738684,49.25686129,-6.365633364,-8.230441058,0,0.191356303,,,,
734.9919995,2871,-2.798388752,53.60896462,79.8599864,0,141.7137737,5.797307465,-2.299316018,-4.272185587,49.88375193,53.97499002,65.52600173,-209.0727729,46.37011126,49.82568442,0,51.7484254,,,,
734.9999995,2871,-16.04253741,39.62524225,44.89946962,0,-51.46704595,-10.08455023,-21.22532525,-17.88847356,-32.45448329,-26.68923356,-5.779792844,-47.99673432,-35.4722587,-34.50888423,0,-14.63060676,,,,
735.0079995,2871,26.19708651,84.86709305,19.52410183,0,-32.42325437,39.78109546,32.31644683,33.14682402,21.49556188,25.6905993,29.04287358,-27.26035722,27.3966492,23.41816109,0,11.18526309,,,,
735.0159995,2871,-25.06498003,30.11356247,82.88496833,0,114.5632174,-16.21394043,-21.43167077,-22.86189245,-2.993527104,1.496254756,22.51736717,-172.6963457,5.154047637,-3.113113032,0,25.51204805,,,,
735.0239995,2871,38.26829697,97.74992203,5.859084057,0,-129.1690903,47.18431633,45.95642198,48.94640018,0.569791554,7.303106286,17.27413134,62.34954985,1.753509288,-0.128803139,0,-1.451630511,,,,
735.0319995,2871,-12.64921842,43.1160206,66.94747629,0,133.628905,-5.770456894,-5.813908582,-13.10833832,32.88434874,39.57481676,45.80202448,-179.5268852,32.24032999,31.95034984,0,36.6866004,,,,
735.0399995,2871,-11.51495753,45.6431317,39.50454734,0,-57.75199497,-10.3500534,-19.21647032,-20.12171111,-31.55194146,-31.1832647,-10.78649506,-16.76688636,-38.71727359,-46.15144018,0,-21.64958553,,,,
735.0479995,2871,16.71747681,77.8538985,18.88298937,0,-38.52694112,23.79151894,17.90347047,17.15512671,26.93149072,32.93622008,37.14077116,-14.53920543,24.51543387,18.60456382,0,10.19820101,,,,
735.0559995,2871,-50.29092978,1.566774045,72.2146126,0,94.58037643,-50.92693558,-52.18745918,-57.90238262,-23.35052287,-17.60741524,4.577723908,-150.4166587,-19.95003337,-26.41021375,0,3.974907399,,,,
735.0639995,2871,33.83291797,88.51985668,-4.030156403,0,-150.4937037,31.02707757,29.95789855,27.6002852,-15.49717559,-21.75173234,-5.261475897,99.67471113,-16.19573317,-27.04139399,0,-27.45575864,,,,
735.0719995,2871,3.685276132,56.65068895,71.63831351,0,128.6102932,1.626917804,1.149176404,-6.944600924,34.78756259,30.95512536,46.61317746,-151.9624297,36.50417195,24.60895473,0,33.82213294,,,,
735.0799995,2871,9.239424442,59.48113105,46.89553081,0,-42.87326531,4.019655009,2.695646343,-1.15449037,-11.14971802,-14.30320197,11.13833726,-14.85038204,-10.35292627,-20.69552206,0,7.30073257,,,,
735.0879995,2871,37.91289408,91.36067245,22.06633531,0,-19.34355456,40.78919208,43.93816811,36.57456733,43.46921181,43.00541599,49.66953887,-22.65319512,45.66352002,40.49687804,0,34.88958443,,,,
735.0959995,2871,-29.36683005,19.36676391,86.11218,0,114.1829082,-32.0348646,-25.55360412,-35.47294132,-11.08155606,-11.06582683,12.94403529,-159.0794832,-8.281169748,-14.70418606,0,18.91943444,,,,
735.1039995,2871,37.33259827,86.52904117,7.210326922,0,-127.332022,30.88739114,34.6144638,33.40175321,9.943663854,-6.258729173,14.08627027,80.91600986,14.42144823,-5.710888938,0,-8.437955743,,,,
735.1119995,2871,-2.574297479,43.46797301,67.36215367,0,140.4217486,-5.842840994,-6.796912986,-11.20499303,42.70777239,25.68865537,49.79933887,-156.812143,47.84849836,27.68654258,0,29.18498751,,,,
735.1199995,2871,18.57901403,66.61190708,56.99005808,0,-41.23383507,13.66318066,10.24687789,11.77768789,-17.3687244,-27.66985098,5.193952112,-4.641651515,-19.77580832,-28.31584196,0,-10.416354,,,,
735.1279995,2871,51.40988907,104.0650022,49.26573861,0,-11.88947863,49.38070189,51.82872246,54.23664639,55.5067716,48.46518571,63.18856534,-24.10543094,56.34390186,51.42590732,0,34.35323104,,,,
735.1359995,2871,-11.14540627,36.73346596,105.0750236,0,125.978233,-19.24514468,-10.18101608,-13.50733043,5.463696037,3.546858947,36.6352844,-159.305398,6.484291806,3.993378554,0,28.45336907,,,,
735.1439995,2871,69.03890904,120.0565826,31.38342264,0,-112.5342664,60.42062441,67.83919958,65.28445701,31.52705898,16.76318485,42.11719044,75.24284198,31.99092594,19.69597136,0,13.45791015,,,,
735.1519995,2871,9.627370169,58.28779408,94.27557636,0,150.9258282,6.73996115,10.91823553,4.7331716,67.27716243,48.30937296,74.19758687,-180.6716419,64.19119768,53.88636951,0,56.2132596,,,,
735.1599995,2871,5.673793392,54.06727219,56.51189423,0,-37.95970422,0.270627883,9.57396355,7.179377143,-18.74921821,-25.58645628,5.761220358,-24.37943633,-24.78437658,-22.19827341,0,-1.688960939,,,,
735.1679995,2871,39.75489178,91.94891741,29.10206185,0,-6.037250635,36.9214018,50.90737451,46.02837279,50.85220871,44.57447895,52.66880536,-35.82993377,55.16851281,48.93548759,0,37.08589759,,,,
735.1759995,2871,-37.38644961,11.48263734,75.066935,0,114.6939036,-35.01933024,-28.05422811,-31.22440171,-6.010407118,-7.144580132,12.94543907,-165.7899727,-5.560364403,-7.186521065,0,22.62385849,,,,
735.1839995,2871,27.33403862,79.51055051,0.842680716,0,-128.1591812,36.55872291,43.31223728,43.43785348,-9.456812981,-9.798846534,1.073140258,77.80996663,-9.273845017,-5.912312625,0,-8.778096215,,,,
735.1919995,2871,-7.196669927,42.41788324,80.06733425,0,149.0284973,-0.441236855,6.491677341,1.692488135,39.03479891,28.93437461,42.73454154,-160.4793005,40.48821158,32.62724913,0,38.8468815,,,,
735.1999995,2871,11.65558831,62.77333043,52.02250506,0,-38.5909617,15.1438095,17.00805853,19.90300838,-18.57795414,-22.1321222,-3.117234082,0.91321685,-20.31596841,-23.02293323,0,-1.637416928,,,,
735.2079995,2871,45.49399879,97.96490981,32.38400679,0,1.6134465,49.87432875,58.86842077,54.69243577,52.68373903,53.89916189,57.69894139,-28.98459421,59.33868176,57.71383563,0,46.15542695,,,,
735.2159995,2871,-16.44449065,26.95624128,94.61647431,0,125.9958278,-22.44600127,-12.59693958,-17.82845377,3.579636345,-3.636720769,26.12124839,-163.6653855,1.418159861,-1.71573637,0,32.64345817,,,,
735.2239995,2871,55.47008677,102.9574519,23.1717449,0,-111.9621805,52.74903809,60.04181248,62.04666609,17.60142505,6.221637127,28.31457944,72.58124545,5.143059271,13.48417156,0,10.81519557,,,,
735.2319995,2872,-1.145832609,45.91280913,87.28160818,0,156.3251327,-0.443260704,1.54323081,-2.462090684,52.29901694,42.33059288,64.33369414,-173.4069154,46.13159154,48.05099222,0,48.58523796,,,,
735.2399995,2872,1.365756982,48.61497799,50.25539293,0,-59.27831546,-0.611696246,-10.01637127,-4.306193997,-31.05038299,-33.51236893,-8.546088942,2.585068718,-33.29102624,-37.99727629,0,-22.94830223,,,,
735.2479995,2872,33.86672103,85.74816887,33.19771006,0,-21.98384519,36.01510453,37.59204963,39.31929084,37.74666978,38.62021171,43.25718237,-14.40381668,36.35726326,41.57641419,0,18.68949009,,,,
735.2559995,2872,-26.34007949,20.24633913,99.6175239,0,111.3984284,-31.07946874,-18.56508526,-24.33123555,-5.963541121,-12.2215998,14.4784618,-140.6120294,-10.31748921,-8.172954059,0,12.68602358,,,,
735.2639995,2872,53.35536724,102.2428347,34.11236083,0,-126.8117611,49.79678868,57.14524404,58.71250558,11.30656577,3.037988149,16.01202361,94.07784327,7.749142436,6.074939201,0,-2.930630877,,,,
735.2719995,2872,9.495600428,56.38993797,107.3215331,0,154.9291394,14.79829447,15.57394337,16.05126522,57.74532642,53.57615947,65.91490132,-175.9648086,59.69085232,60.00012483,0,58.46243226,,,,
735.2799995,2872,6.986704096,52.45463433,68.71119394,0,-39.68679338,15.40724848,12.50838634,14.87332599,-20.37202629,-21.7936659,3.911010193,-22.77514015,-19.43703492,-16.73356641,0,-0.478796755,,,,
735.2879995,2872,39.44189727,89.60017204,50.23169277,0,-4.211980055,47.9380411,53.45292743,49.56244965,47.48436343,41.46008247,53.20546602,-37.5014827,43.02983898,48.71231507,0,32.40298542,,,,
735.2959995,2872,-20.74815322,27.08591101,122.5431562,0,117.9885377,-14.49006568,-14.62332137,-15.69301804,8.605628483,-1.596454482,28.64146914,-162.2355307,0.3069887,1.573323818,0,26.03313296,,,,
735.3039995,2872,40.29938225,88.62744192,46.48052498,0,-126.096277,49.56440668,40.39278417,47.48707125,12.76097506,6.278676994,23.76171903,74.51368143,8.673749658,11.83838008,0,1.962242798,,,,
735.3119995,2872,2.974916165,48.14456737,107.3787467,0,146.4131391,8.214078485,7.177411741,5.495205927,49.6450275,40.26306154,62.14768619,-168.2740032,45.13035077,49.67409535,0,46.60205516,,,,
735.3199995,2872,16.74285366,62.32203846,72.71492037,0,-46.33776109,20.85076703,15.62717017,17.50405881,-17.25374519,-24.66374155,4.146691683,-2.581191912,-25.29957588,-22.65045436,0,-8.893063614,,,,
735.3279995,2872,54.94504528,100.685948,58.59007552,0,4.194975898,59.83038287,51.55303884,51.95226172,60.66040309,58.04802201,66.928726,-28.43845241,53.6870548,61.85327911,0,42.18802862,,,,
735.3359995,2872,3.719104914,43.85937138,122.6589649,0,131.9844555,1.225096369,-0.646205952,-3.462605756,29.51986748,21.83974817,52.26220487,-161.4047806,18.6737401,23.91829252,0,44.3405467,,,,
735.3439995,2872,54.55171245,98.68785576,40.86389922,0,-116.3243255,57.70836328,61.84542121,62.82589771,23.68649712,16.19517255,31.43553351,64.53135014,18.765379,18.38816229,0,10.09281406,,,,
735.3519995,2872,-4.214572322,38.89806057,112.0971101,0,149.9269864,-0.109196716,-1.317662274,-3.506112916,45.23719892,41.21155267,52.68246359,-180.0079511,37.6138952,45.86810166,0,46.78908486,,,,
735.3599995,2872,6.463850664,51.79293381,75.07229542,0,-43.59062658,7.837971061,1.735370231,3.381947376,-20.14818623,-17.53340868,-2.263962726,-3.401696878,-35.15931804,-21.97581626,0,-12.50037026,,,,
735.3679995,2872,26.04062393,73.82440948,31.18284419,0,-15.92894169,28.81204259,29.70135825,29.32724394,36.45887221,40.81708653,37.3023299,-20.75602897,33.49979632,36.52336659,0,10.30627515,,,,
735.3759995,2872,-29.11796919,13.94564025,93.30523716,0,92.57564306,-33.17419305,-43.54580685,-40.69530557,-7.770109648,-12.40864122,8.050752291,-141.4684693,-16.36253519,-17.33974075,0,-3.379132827,,,,
735.3839995,2872,54.32634613,101.7315178,29.49975382,0,-127.5228673,53.62237249,43.9463825,48.61217356,17.86119959,13.58245401,21.55119471,85.2534114,-1.821476828,6.302960048,0,-11.76230296,,,,
735.3919995,2872,-8.857826526,35.63424786,78.07436428,0,142.0873953,-9.110555937,-12.69973983,-13.61893913,45.7582329,45.49099535,52.70809753,-170.4324893,29.84958727,40.11627594,0,36.55772312,,,,
735.3999995,2872,9.190431269,54.38596041,51.42435668,0,-58.47057166,7.292442623,-9.495089212,0.491333252,-21.59890858,-25.24966348,-5.277639209,0.927252339,-33.95160913,-29.34103372,0,-16.84491852,,,,
735.4079995,2872,51.16060356,98.59392153,52.14155831,0,-5.567672573,54.89060106,45.34784612,49.44729032,55.35529755,51.52309135,56.64709868,-28.61133395,44.21562086,51.96728065,0,33.02953704,,,,
735.4159995,2872,-26.87149121,14.60055474,95.44326273,0,102.995414,-26.80805557,-33.08734958,-31.79076011,1.499660948,-4.138604261,18.73841973,-149.609348,-15.63842715,-5.996647867,0,15.84754932,,,,
735.4239995,2872,56.42990131,101.2339984,23.74475406,0,-122.5646783,60.57231728,49.77801541,60.64956562,18.6612608,10.53704284,18.08598271,78.48164417,4.878615205,13.88778315,0,-5.117900259,,,,
735.4319995,2872,14.74275199,55.14116057,103.0055375,0,155.9206547,21.0643834,20.96080674,23.29003642,59.76093688,51.87471918,61.13190658,-192.1085699,46.9854254,60.40058191,0,51.38249362,,,,
735.4399995,2872,20.01052303,60.47903389,62.75337097,0,-46.90121995,22.13013671,20.43598717,24.63779935,-8.57033781,-18.82490409,-0.44392662,-30.93453757,-23.90461178,-17.14197438,0,-6.922005063,,,,
735.4479995,2872,61.10420549,105.1377715,52.75534325,0,12.16080514,68.69761014,61.5796106,65.51569195,75.73050272,72.23056936,66.08677104,-76.13709911,67.86867364,71.83177065,0,46.2437265,,,,
735.4559995,2872,-21.06540997,17.83078207,99.66734558,0,110.9734284,-13.95895295,-19.76741458,-16.91025358,13.05057528,12.29030086,25.13604318,-208.8102736,4.324272641,11.68823498,0,26.88397628,,,,
735.4639995,2872,20.51476316,64.07011004,-6.126817471,0,-143.075922,24.22861461,23.33182486,29.10241133,-9.595661102,-15.24482162,-11.17839363,34.81420932,-13.41595712,-11.98094909,0,-24.81224955,,,,
735.4719995,2872,-14.00322187,26.90583818,62.60492994,0,132.6879543,-14.11471816,-11.85227616,-10.7130041,27.3844767,21.18221465,26.00520662,-197.7894717,16.80949828,23.44082005,0,20.48775034,,,,
735.4799995,2872,14.88236612,55.57081971,47.42707716,0,-63.75625644,13.1407841,13.02418845,20.01796653,-20.58739621,-29.02169641,-15.36556527,-21.07384455,-37.82396459,-31.33689022,0,-26.06611939,,,,
735.4879995,2873,40.97968158,84.09865633,35.59474812,0,-2.9965396,39.67893461,46.48441629,48.44103711,56.34589374,52.50256468,46.48642035,-68.51872745,51.62801419,53.11272821,0,24.72430625,,,,
735.4959995,2873,-24.09147502,13.50504246,88.22139086,0,106.6828494,-28.22316288,-21.82432962,-20.09188453,-8.370850819,-7.465189751,4.281967766,-188.3923046,-19.94536362,-5.299557336,0,10.11467996,,,,
735.5039995,2873,41.6093313,83.55554898,20.72876621,0,-133.9356034,42.24211944,46.60889183,52.36178911,1.537178051,-3.410918104,-5.034545695,44.68024494,-13.30955626,0.895738272,0,-16.5800972,,,,
735.5119995,2873,-7.516502584,33.32590705,99.03019942,0,142.1659641,-7.591309789,-5.993249103,-6.309854505,50.59692557,41.64098128,41.19520298,-209.4268725,37.40284775,42.04780487,0,35.5261715,,,,
735.5199995,2873,11.92901097,52.78287509,62.619403,0,-63.77854944,6.999747326,-0.642652983,8.603545463,-25.9554574,-28.61406861,-21.59720666,-24.57358071,-42.23653887,-34.73809644,0,-24.11031933,,,,
735.5279995,2873,35.09219988,75.88687447,38.53738221,0,-16.7232775,30.26221262,34.16290926,39.53252362,47.11802801,43.63022198,36.3501108,-61.23642187,34.81361247,40.18460363,0,21.10207244,,,,
735.5359995,2873,-40.82503107,-2.822001338,73.93607319,0,92.64866411,-43.1257804,-32.1453387,-31.37603802,-5.157237404,-8.619839621,5.505915072,-184.3240489,-12.75072278,-11.2419267,0,7.33055316,,,,
735.5439995,2873,35.14000338,80.56032452,-10.25574156,0,-131.1597137,42.12966199,49.87599848,54.57989948,-16.06182242,-3.154220337,-14.30250546,44.24163179,-16.90819794,-7.33665341,0,-24.55035621,,,,
735.5519995,2873,-9.459623941,31.88375618,71.0154896,0,143.1418901,-3.250992294,5.553283748,6.224512236,31.21813714,40.44083428,28.19486964,-225.1272343,19.87134422,38.84718444,0,33.49707365,,,,
735.5599995,2873,-7.902115724,33.5127025,37.4010212,0,-61.8496589,-4.719945471,0.441337335,7.866747481,-28.10044712,-26.52463807,-24.74956167,-54.46130265,-42.48663767,-25.97049781,0,-18.44579863,,,,
735.5679995,2873,27.5979021,71.47664938,30.12386882,0,0.445098524,33.01335814,38.98908984,43.41100683,33.66401088,45.7740513,26.1657844,-83.19805854,34.57122306,45.04567415,0,18.65949589,,,,
735.5759995,2873,-21.38059947,17.56592193,101.701795,0,108.5276992,-18.29221954,-15.32777532,-10.19408819,-4.240515793,1.94450522,4.662131164,-204.3204297,-15.17492878,1.129272087,0,14.16713224,,,,
735.5839995,2873,43.45454867,89.24256339,27.46568904,0,-118.133092,50.9452371,52.03894378,59.15346563,10.89607152,11.90598636,5.031283741,19.66205334,-10.79645112,12.2439797,0,-5.239803663,,,,
735.5919995,2873,-11.46532216,31.99628737,101.591533,0,149.3841679,-5.500731924,-2.867175201,-4.426989223,35.38209491,42.51412618,35.43862212,-232.2861844,22.67772289,39.36371702,0,32.98330454,,,,
735.5999995,2873,-1.496073828,40.65088045,70.82663823,0,-60.77383785,3.807295907,5.151719133,9.104196806,-27.47917678,-26.846405,-19.69129965,-53.60269632,-38.62069444,-27.53772147,0,-25.31110876,,,,
735.6079995,2873,25.37552541,69.04878354,52.6643796,0,-0.154329685,38.43410902,42.74703929,40.79854262,42.28491016,42.58945605,33.24943329,-83.93200281,33.52467628,47.8448141,0,19.28284634,,,,
735.6159995,2873,-26.73926614,11.72304044,111.9935831,0,101.4328215,-16.16508174,-16.0980528,-17.37470915,-16.19665968,-7.121288726,-4.585245965,-195.6632289,-23.01199233,-4.762998635,0,3.237694206,,,,
735.6239995,2873,41.45495516,84.20328732,43.4776303,0,-116.6225651,51.67182543,55.36128995,58.29877,4.680088918,13.71484971,0.183061325,20.463829,-3.038860193,16.99231315,0,-14.57123656,,,,
735.6319995,2873,-14.32462088,24.81548252,109.3073869,0,148.9456644,-6.475292759,-6.180959014,-9.30538475,37.32099685,45.5381683,35.28344028,-232.8799384,29.84951569,45.9371537,0,31.511694,,,,
735.6399995,2873,10.34951852,50.08596021,65.6779401,0,-68.036865,15.59709289,1.932072161,10.78036569,-30.33264472,-26.03933778,-20.35672751,-49.80183662,-38.27381306,-27.71702847,0,-29.96768369,,,,
735.6479995,2873,43.80708304,86.1165901,52.03800431,0,4.989176835,47.92790502,43.30823999,47.49498009,53.40275154,54.88203449,46.06724765,-98.6241645,42.58354856,57.6155981,0,16.13002685,,,,
735.6559995,2873,-18.65946688,18.15413455,116.0323656,0,108.3069073,-19.24687787,-24.4208102,-24.43166872,5.645560705,8.204071583,13.49894892,-214.3195859,-9.744555685,1.015401128,0,1.457832975,,,,
735.6639995,2873,48.95142389,90.74456239,42.87292016,0,-118.6394268,55.92897567,49.85281126,52.23924475,21.2889975,17.43610888,10.49652865,10.03042338,5.666600898,9.833637791,0,-19.94159492,,,,
735.6719995,2873,-7.095076466,31.31987799,95.21332984,0,143.4631404,-5.756223323,-3.837155507,-9.754013857,48.6059848,43.01891365,40.29173417,-247.6093194,30.92920835,40.66123742,0,25.70938875,,,,
735.6799995,2873,6.64394582,45.0401002,48.01985814,0,-71.08100983,-0.752239322,0.447889424,1.735979541,-26.69967169,-32.86992905,-23.85301372,-59.81680741,-39.31230087,-38.79549462,0,-39.36050487,,,,
735.6879995,2873,30.43015912,71.19474064,40.98389384,0,-4.145484295,24.78917831,34.7336724,31.64083957,42.78749624,35.3416915,28.32239738,-89.70847321,34.2760407,32.25924585,0,-0.52334166,,,,
735.6959995,2873,-34.68872128,1.567854682,94.4110579,0,81.20390119,-48.16056018,-40.106362,-45.47382795,-14.98665721,-18.01353378,-9.914199975,-184.6428648,-28.43938238,-23.92526185,0,-18.77912187,,,,
735.7039995,2873,43.61849523,85.76188632,23.91365753,0,-132.7601749,37.62121002,45.19852453,41.28607119,2.906142948,-1.973803759,-7.558920413,53.38994753,-9.005876936,-8.147010252,0,-44.3447477,,,,
735.7119995,2873,-8.488639576,30.05886315,103.8886544,0,153.1579788,-8.290010448,5.85488816,-5.118495205,43.27711654,40.62028867,35.34488074,-210.1493655,35.95857165,37.14594217,0,8.707367245,,,,
735.7199995,2873,-6.434358609,35.12074513,65.78089239,0,-72.41719854,-6.954654987,-0.856093069,-2.393467295,-33.0551519,-29.02580963,-26.63634023,-34.10270599,-30.53475931,-29.51411336,0,-47.78135656,,,,
735.7279995,2873,33.15254911,81.3991562,63.34267572,0,0.06048858,38.23387588,45.10981038,40.09817109,32.95872928,35.91860586,21.14421856,-64.02500675,29.57265709,38.37666877,0,-12.64054487,,,,
735.7359995,2873,-15.56550559,25.77621182,122.9834188,0,107.3724874,-17.90522429,-6.41643907,-13.78828231,-1.441203314,1.248790752,1.193251852,-176.7058296,-10.84078189,-5.409708536,0,-16.06213843,,,,
735.7439995,2874,43.49256763,86.57805757,41.07516147,0,-120.7142636,42.28983328,54.02910066,47.83602082,16.09909173,25.62908307,9.317589357,36.39853337,19.59382104,19.49982141,0,-29.2702997,,,,
735.7519995,2874,-8.454975074,30.42653664,106.2320327,0,145.4749445,-5.497258085,-1.125228685,-12.45344377,31.9708846,40.97593956,29.98658077,-209.2007902,30.43004215,37.77027775,0,3.134082087,,,,
735.7599995,2874,8.452293143,46.68074021,59.0491836,0,-75.93637601,3.767208397,4.531198037,3.927244481,-28.36735105,-29.52633981,-25.73744131,-25.51848201,-26.86563222,-33.2831054,0,-53.24281901,,,,
735.7679995,2874,33.43923797,74.81497068,61.76595199,0,-3.707771596,27.94198308,33.77057991,30.00300925,48.28268327,47.98833128,33.96310053,-79.29062709,51.94340517,48.38757654,0,-4.907197148,,,,
735.7759995,2874,-23.99019851,12.6073946,133.7901415,0,87.98026911,-27.2861966,-27.59024956,-31.89871742,-11.8320427,-10.46763985,-6.86547302,-184.0439981,-15.73615932,-11.72540374,0,-23.37520008,,,,
735.7839995,2874,51.26313404,91.69712087,55.86269908,0,-130.8372444,48.8731519,57.79999144,53.70095401,16.0313925,13.35186042,5.000862452,29.79537647,26.71317597,17.82221839,0,-30.10805856,,,,
735.7919995,2874,-0.66533869,37.77840357,117.9322738,0,154.9902349,-5.834740914,8.52670749,-4.519283165,49.21750921,47.35430373,42.81773237,-236.3946528,53.76373779,55.94498723,0,17.64343882,,,,
735.7999995,2874,14.04119045,53.40598681,66.00902004,0,-68.71799592,6.894490531,18.25822276,14.09265115,-31.4562001,-30.05714072,-22.95470499,-48.34943387,-32.19938247,-21.55574054,0,-46.93745703,,,,
735.8079995,2874,43.1751207,84.02778629,52.25897068,0,13.14893695,37.26834506,60.3909694,52.4871965,55.30900238,57.92937629,45.91914742,-107.6042692,62.14647409,66.79584217,0,11.8183196,,,,
735.8159995,2874,-34.91931665,2.080988449,99.27118579,0,98.55917823,-41.87728854,-25.28596304,-32.29494693,-2.43298503,-5.496153582,0.679471178,-218.5038251,-6.012961566,-2.181404803,0,-12.18366936,,,,
735.8239995,2874,38.90762471,80.45774295,38.53295486,0,-145.2173484,32.90119361,48.15218139,45.84115341,-6.780057664,-6.085328527,-16.4495522,11.77758309,-4.089320663,-1.820343876,0,-45.04025889,,,,
735.8319995,2874,-6.264363661,28.18095727,129.8931917,0,150.0835908,-15.27328935,6.969111046,-5.232798662,42.40748778,48.75523425,37.20314652,-259.0887799,44.09613452,51.09245419,0,19.25482162,,,,
735.8399995,2874,-13.3970202,18.54789913,65.47104864,0,-78.82090566,-22.41995936,-2.19190675,-10.42777923,-36.62985218,-39.47523963,-33.48515355,-67.89343317,-37.74301768,-34.32853207,0,-49.88830224,,,,
735.8479995,2874,24.80134519,59.59637104,44.10233704,0,-18.77161799,16.48797474,39.40453787,28.96440881,25.1252591,19.82002291,8.259593358,-100.0859532,38.7404186,27.04465211,0,-18.2360042,,,,
735.8559995,2874,-15.47564902,13.42061589,98.55907968,0,96.05565282,-29.51532031,-10.81526776,-20.72404558,-2.022627705,-4.91189045,-5.437605674,-214.4491168,3.941755342,-5.98091775,0,-11.7802453,,,,
735.8639995,2874,58.28170942,89.78977515,21.0796678,0,-121.6704494,48.21423903,69.10610831,62.82570072,12.54863967,9.763350398,-1.74827171,1.760577623,16.05831073,14.52233951,0,-22.27184029,,,,
735.8719995,2874,-6.607709764,22.6046989,92.38343159,0,151.1755254,-12.92294711,5.809096059,-3.569523236,41.81064434,36.40342444,27.87879039,-260.1199357,48.06565343,46.86167701,0,24.102841,,,,
735.8799995,2874,-0.748934067,29.23098469,51.12332919,0,-71.52988929,-3.713409398,6.816786799,3.486979263,-29.37352944,-36.79372824,-36.08856793,-73.42180975,-30.40597304,-21.87608822,0,-34.40975054,,,,
735.8879995,2874,44.24952493,76.20918837,58.38477881,0,2.564742986,40.52840336,52.13776283,44.5980353,39.59714471,42.24767669,25.98574033,-119.8220181,39.08874721,52.9456141,0,13.09414536,,,,
735.8959995,2874,-13.20620337,13.240726,115.1295784,0,94.48978662,-27.3824533,-21.85908703,-26.14049635,-0.205200385,1.306939127,-0.279838633,-227.2760375,-1.475272205,0.382133573,0,0.833994471,,,,
735.9039995,2874,43.85420909,73.63425802,40.31261226,0,-129.2869581,32.4271269,46.3107816,44.47714761,8.467290885,4.150857572,-10.48357049,-4.871773512,7.032422851,14.1714568,0,-24.35268348,,,,
735.9119995,2874,-26.01401677,-0.220987534,102.1130231,0,130.744012,-39.4174389,-19.26376767,-29.8725607,18.14475111,16.67982898,5.064648722,-249.4950043,11.10416836,28.54612276,0,9.819166692,,,,
735.9199995,2874,-10.17738333,15.47129354,43.98175364,0,-101.9805855,-26.56442207,-13.89442195,-19.84575292,-49.86025984,-56.75953314,-60.71187432,-45.51963475,-55.46186747,-51.44429496,0,-57.14035517,,,,
735.9279995,2874,31.6626873,60.04571645,49.19775981,0,-6.726124295,20.46766218,41.32035713,27.87026106,32.29242998,29.18649916,8.029530834,-96.63187267,32.31525655,35.79091556,0,-4.966185489,,,,
735.9359995,2874,-35.37687851,-11.07038425,97.24520885,0,84.95495812,-47.97751327,-28.64203897,-41.40034801,-23.20226122,-24.72082411,-26.69087605,-200.2675511,-28.56940922,-19.70496596,0,-16.82361809,,,,
735.9439995,2874,26.4181126,57.11052773,16.82523896,0,-142.7614001,23.75949517,39.67214144,34.64773639,-7.457830914,-14.39847041,-31.33073444,19.92128899,-4.757241201,-3.464748824,0,-36.62222588,,,,
735.9519995,2874,-18.44964423,8.57313083,115.1614689,0,139.5985429,-18.86509462,0.997907676,-11.0597205,24.34936225,20.77857656,3.245101106,-237.5230596,19.99816234,32.48431419,0,11.45699559,,,,
735.9599995,2874,2.039192137,28.61654455,81.8344416,0,-78.79855667,-0.86084485,19.33687283,11.84578851,-35.84574043,-40.80305319,-49.28346162,-42.94889246,-47.48959955,-28.9539868,0,-38.83889809,,,,
735.9679995,2874,22.04014927,52.5384208,65.54260943,0,-1.926842278,24.42313126,48.68806867,38.88219183,39.13147663,36.74273759,12.87549302,-92.3869729,42.42401297,53.83981678,0,13.17971585,,,,
735.9759995,2874,-44.88331978,-19.07019662,105.3258548,0,77.01248912,-44.82289675,-27.53034336,-37.49804508,-27.25341848,-30.28960533,-32.54884209,-188.1098252,-32.18649456,-13.97565594,0,-11.78135728,,,,
735.9839995,2874,24.84302728,55.40471127,23.74659645,0,-136.8556917,30.90071509,47.19172991,39.311895,-12.34451081,-18.90371178,-34.4724844,33.66272087,-14.50259781,0.914346562,0,-35.39495497,,,,
735.9919995,2874,-14.56192063,11.62064983,108.0790327,0,145.0487794,-12.79635486,3.181065166,-8.165202006,24.42250601,19.50886838,4.405614415,-216.9064203,25.1142526,37.20507332,0,14.27769568,,,,
735.9999995,2875,6.617684479,32.08667651,71.16742335,0,-80.53611538,0.861857282,12.57804226,9.258831438,-35.19905161,-38.85091209,-45.66451263,-28.72513906,-40.59271731,-26.27948115,0,-35.40213469,,,,
736.0079995,2875,22.22677716,48.63495244,48.78356584,0,2.993800702,19.87925404,39.192714,30.55198441,37.81710586,39.94875781,14.07458628,-90.98188932,46.55700115,54.03276493,0,12.55506804,,,,
736.0159995,2875,-47.28043548,-26.61680832,73.95231656,0,72.98416638,-51.27817589,-37.54905779,-45.73576038,-33.89001119,-34.76594167,-43.39925667,-178.6443384,-33.50536157,-23.24779098,0,-22.12664267,,,,
736.0239995,2875,21.16963121,49.99090432,-1.87875948,0,-152.3643487,23.22429641,36.17550417,32.63510562,-24.21202494,-26.05657269,-48.99969421,39.82118578,-24.55766875,-11.15723899,0,-42.57392309,,,,
736.0319995,2875,-25.17095045,0.873416294,86.94934301,0,133.6139917,-26.02457282,-15.15266135,-20.80007047,16.36037884,18.02335249,-2.566023486,-225.2680422,16.30223686,32.40848491,0,16.38170787,,,,
736.0399995,2875,-4.25306477,20.28802232,41.39100415,0,-96.02888191,-7.086008167,-4.874518997,0.209701509,-46.29594237,-48.08802496,-59.54489685,-26.81350044,-55.70179185,-40.2454234,0,-42.34668473,,,,
736.0479995,2875,33.68899408,59.53344594,43.22900832,0,-5.527946418,35.31581177,47.73884059,49.09402478,36.84142373,38.85807689,10.47841795,-88.95852336,38.9154529,49.13568817,0,16.46221706,,,,
736.0559995,2875,-38.66853709,-19.68258977,91.61651604,0,74.81511211,-45.7125326,-36.7804965,-34.51040723,-16.10817248,-15.23329154,-21.48058215,-195.8840079,-22.54873577,-4.808128006,0,1.393564428,,,,
736.0639995,2875,19.50946302,42.96523742,3.40444762,0,-159.5215041,12.58636976,17.84236152,23.70618298,-23.74170111,-25.73479594,-41.94539443,41.96708982,-32.7677062,-14.17398407,0,-45.56169078,,,,
736.0719995,2875,-10.37966405,9.845156262,84.97039403,0,133.5840934,-19.60095578,-9.613413015,-12.0926001,7.737670524,11.83460025,-2.439873116,-207.1612681,4.702802486,22.62426221,0,0.682360622,,,,
736.0799995,2875,-4.903677013,15.88348306,28.48178955,0,-89.47179342,-14.69058419,-7.534255643,-3.518943014,-35.23438641,-37.73527293,-43.30183842,-36.64990748,-41.44416043,-27.84786283,0,-40.60599565,,,,
736.0879995,2875,28.45130009,52.27040958,16.72411955,0,-7.720899481,23.56558492,33.05940252,33.3923529,34.37952411,31.48960488,5.754108856,-93.66792766,33.28340977,39.97704726,0,0.513275656,,,,
736.0959995,2875,-6.01650409,8.935852179,85.1710753,0,89.17324965,-17.29114379,-13.10878898,-13.38142835,-14.7517399,-9.623912578,-23.42783288,-197.1113845,-22.10697552,-7.485123809,0,-6.478330165,,,,
736.1039995,2875,33.10534822,47.61328679,9.457215814,0,-136.796726,23.33977374,32.91792989,35.54335193,11.89496011,3.996909123,-17.2297077,1.627314106,3.168306748,15.86211369,0,-21.32190132,,,,
736.1119995,2875,-32.57080316,-20.13635434,72.12157869,0,120.1639793,-44.66853185,-30.87526553,-33.16522973,10.07103421,-3.124879127,-14.75704954,-229.9372832,6.314783391,13.33450983,0,-7.86944929,,,,
736.1199995,2875,-13.33502567,-0.44033465,18.21063421,0,-116.6927259,-28.54600031,-21.16202048,-15.00748861,-62.65030497,-72.73825151,-81.96643241,-29.04532479,-70.29066641,-57.99096541,0,-70.25549994,,,,
736.1279995,2875,18.1222653,30.21231223,26.00640386,0,-19.76397134,4.167222241,23.70847858,22.31159162,35.37031993,18.25296118,-7.743629254,-103.2317188,17.22380566,39.92345924,0,-6.649297223,,,,
736.1359995,2875,-28.14388796,-20.49646439,92.43416173,0,73.57919756,-48.03923023,-26.97954655,-31.6130794,-17.11610464,-34.00285389,-40.63898401,-199.1254192,-38.93453905,-19.35268055,0,-21.98707741,,,,
736.1439995,2875,21.86626041,34.54537494,3.395218191,0,-145.0521414,5.824433752,28.66408458,26.46446257,-8.795541865,-25.81460956,-48.55253111,2.549841892,-15.83212563,-11.86054413,0,-44.79954176,,,,
736.1519995,2875,-27.82831675,-17.98737042,68.80930536,0,131.010387,-45.44560319,-22.1695056,-30.332685,14.01399197,-0.177995394,-18.29059654,-255.932394,9.655982264,15.73323184,0,-1.696978959,,,,
736.1599995,2875,-7.1055412,2.684653554,25.23919179,0,-101.8207472,-28.60185066,-15.31160732,-15.9950662,-46.77606633,-62.21865861,-70.31387487,-52.41250968,-55.56240177,-50.94731415,0,-56.24805982,,,,
736.1679995,2875,-0.270079848,11.36039119,13.79627355,0,-23.43271654,-17.80017505,3.923799,-3.488813825,22.89966437,-2.552564468,-21.2485719,-99.2877135,13.97234705,12.30084469,0,-17.18205673,,,,
736.1759995,2875,-37.30669278,-27.37203923,70.41323419,0,56.4145806,-56.62743742,-40.78990728,-45.3924942,-39.26751408,-51.12313737,-57.54917867,-177.2843579,-54.8130381,-43.90071794,0,-28.71831275,,,,
736.1839995,2875,42.32493445,56.35250577,7.94579672,0,-145.4408159,24.84783342,39.25040402,37.22439812,-6.992668022,-12.3168158,-39.51599033,15.94391352,-25.4441516,-6.914951393,0,-25.59809153,,,,
736.1919995,2875,-36.32407231,-26.23256187,67.92609275,0,123.7861799,-55.87498113,-35.16363328,-47.7188679,19.92066397,9.78881976,-10.20232396,-258.2229609,5.721152833,18.71444303,0,13.64750587,,,,
736.1999995,2875,-19.27210972,-5.332233028,11.83400066,0,-118.2388647,-37.40458231,-29.83038707,-28.30569107,-68.47646326,-68.60126099,-86.18674372,-49.68724607,-75.24814694,-64.30833335,0,-67.40351974,,,,
736.2079995,2875,20.94140809,38.01439593,21.90623648,0,-13.32627418,8.079676744,18.61092707,17.45993565,15.04763445,7.444844366,-23.98994068,-106.2979957,-0.032223354,14.30603237,0,-22.31917707,,,,
736.2159995,2875,-32.48667624,-22.56030389,75.74510004,0,69.56775074,-52.03030821,-49.52576631,-49.46761366,-19.2750621,-32.19215115,-38.76747075,-202.4692921,-38.87706169,-24.49958802,0,-18.22797483,,,,
736.2239995,2875,39.25996204,51.98610898,-1.789432489,0,-150.8090594,20.08935431,12.89642689,23.47880344,-6.752501981,-15.2031323,-37.18895936,6.448332949,-18.03604545,-7.31391273,0,-37.36891667,,,,
736.2319995,2875,-11.88204329,-1.527511808,74.34456278,0,124.5202292,-29.06147627,-27.29310821,-27.37106111,23.2547135,10.4734106,-7.960479691,-252.9134718,4.09272561,12.32921794,0,-4.359138445,,,,
736.2399995,2875,12.12413168,23.11717395,38.405893,0,-96.19762768,-4.079792351,-5.161090456,0.408549336,-31.75027039,-41.07002521,-51.90668729,-61.19998486,-44.81102473,-41.39907401,0,-48.02848984,,,,
736.2479995,2875,30.81792412,43.43594548,42.69689132,0,1.516687593,19.16849862,21.71434315,27.77528861,35.26954625,27.27420965,4.049457712,-126.3933181,24.99539322,33.77801979,0,2.383945048,,,,
736.2559995,2876,-30.85693907,-22.17826014,89.60686074,0,68.12728437,-41.32896055,-39.1272945,-34.7994545,-25.50929004,-33.91715861,-38.65816473,-205.3023048,-48.17432099,-28.56600216,0,-20.81161443,,,,
736.2639995,2876,52.21735275,64.61168117,21.42150839,0,-137.9808015,43.99012978,43.73985563,50.75390852,6.898094714,-1.309478596,-24.96727208,6.061609532,-3.763438595,6.01206273,0,-27.45980061,,,,
736.2719995,2876,0.199981573,7.649630841,88.85824787,0,137.8545721,-13.17240281,-13.53825355,-12.65532852,39.6349386,29.3626319,6.509608223,-252.3819682,25.78845237,33.10716029,0,18.5552755,,,,
736.2799995,2876,23.27567032,30.79954853,38.34699066,0,-91.19184837,8.401781169,9.915759285,13.48932124,-20.84803849,-31.40534771,-47.73955794,-52.62171598,-41.07519169,-29.13358817,0,-33.77268015,,,,
736.2879995,2876,37.50587373,45.93896646,34.74114606,0,12.70218979,22.30319255,42.54752904,37.57137968,59.2766241,47.48039748,17.71278515,-129.9116253,49.80629926,53.49174737,0,20.6489757,,,,
736.2959995,2876,-43.14760477,-41.25040469,56.73132438,0,64.34755801,-64.8336957,-46.97070595,-49.76271121,-24.40238269,-36.01963685,-45.75191942,-211.5789938,-37.00288712,-33.80384553,0,-25.10867703,,,,
736.3039995,2876,24.60991173,30.72849504,-25.23185673,0,-156.3002806,7.093832162,21.75088624,22.77387172,-24.25580879,-39.76166803,-61.66800684,14.00889526,-36.1835993,-30.9245639,0,-65.22815004,,,,
736.3119995,2876,-22.77523777,-19.46755091,60.53034625,0,129.3253013,-40.14432041,-20.68444555,-29.63163838,20.37379024,3.206771553,-13.61424009,-235.0995382,3.781905753,12.01627681,0,-9.928143719,,,,
736.3199995,2876,9.22406337,13.37556485,22.97174426,0,-99.26597835,-6.716578453,5.379453496,5.430377519,-31.28698848,-45.3970471,-57.20485445,-31.86162421,-47.46916272,-42.69117214,0,-56.32316061,,,,
736.3279995,2876,23.41651033,29.22494825,16.93197745,0,-3.31988148,11.14242974,33.53467475,29.51358553,36.27954303,22.68533058,-5.021319077,-103.5726989,23.02835791,28.83103159,0,-9.49311593,,,,
736.3359995,2876,-40.71923375,-40.57437766,50.24850473,0,63.859218,-55.86783151,-35.30665748,-40.32306417,-22.45838468,-38.00154785,-45.89344364,-185.1644098,-45.14642558,-30.97627612,0,-25.04698781,,,,
736.3439995,2876,45.94378154,51.39133288,-12.50550034,0,-141.6075233,36.95095644,48.11739293,48.93879347,-0.817257167,-16.7243463,-37.9764135,24.53687868,-11.5472885,-5.643834426,0,-34.39396379,,,,
736.3519995,2876,-8.347679557,-3.719320147,74.7760377,0,139.3214149,-19.22409499,-6.07650482,-10.52567747,31.75236454,19.01653164,2.079435804,-236.6934962,21.40638262,24.50869076,0,22.2486619,,,,
736.3599995,2876,8.659236276,14.73865104,27.07741945,0,-90.89649397,-3.660922167,3.884280501,5.844509738,-23.1463839,-39.03425587,-49.4851037,-36.96302431,-44.60191683,-38.5499274,0,-28.95196962,,,,
736.3679995,2876,29.34065336,35.98586371,22.1609058,0,2.928004988,20.20414944,37.28682792,31.66340634,39.23932596,21.98644172,-3.328450581,-103.1266911,22.49222622,29.32703716,0,4.657357142,,,,
736.3759995,2876,-31.32452506,-30.96997559,55.51986086,0,75.16973214,-46.71056407,-23.59763253,-31.05580385,-12.23252562,-28.99088918,-35.29507122,-176.6403745,-26.54161864,-25.70744755,0,-14.4473878,,,,
736.3839995,2876,39.90156453,44.2214052,-16.37692982,0,-125.1645986,30.52576756,50.229968,47.04075835,11.58350116,-7.929897072,-30.5614592,34.40892498,6.380114208,-2.338326298,0,-31.44350019,,,,
736.3919995,2876,-21.80806941,-21.72398088,67.58850044,0,140.3947318,-28.91818096,-8.866919867,-18.25096955,20.17781499,4.114780027,-14.83159299,-221.062047,11.01410319,14.29968446,0,2.740262524,,,,
736.3999995,2876,0.265411767,-0.855151822,22.92476841,0,-84.58156466,-9.151857324,5.546256381,2.380733365,-28.94116043,-46.73216111,-57.21519273,-16.01580005,-51.17396107,-38.84944413,0,-43.99445619,,,,
736.4079995,2876,31.06674287,34.29125016,24.5931102,0,17.47562359,23.27585506,42.193426,36.01528604,46.39769709,25.4045583,0.14636992,-81.25248646,31.71555888,35.41222492,0,0.778868186,,,,
736.4159995,2876,-28.88263417,-27.24811838,62.64448155,0,76.96051806,-40.31722586,-21.9764172,-24.9870422,-20.18430546,-36.36337376,-43.28787162,-159.89816,-29.50571414,-29.83277849,0,-16.94472287,,,,
736.4239995,2876,45.94834869,50.01205945,-1.449225959,0,-112.1956283,41.26707806,55.77581714,56.08081159,9.586262741,-3.283649647,-27.16008283,41.83474045,-2.442895251,2.441636371,0,-18.73215263,,,,
736.4319995,2876,-9.25706427,-7.912833681,80.50597904,0,153.6143138,-16.30745379,0.691547121,-5.957444107,33.67709986,23.4964596,3.230308655,-213.8813094,19.72045453,29.60958468,0,25.38398343,,,,
736.4399995,2876,4.186989527,9.11869443,16.16119661,0,-86.04815916,-3.677974646,14.77813913,14.24900535,-29.40872267,-41.28372362,-51.58704614,-4.623816214,-39.68246014,-33.9619729,0,-27.82061332,,,,
736.4479995,2876,27.34846485,34.28307911,9.231946749,0,25.06390932,30.35001655,54.92602757,47.17974874,42.25151424,28.52126365,2.945371296,-74.75380779,40.83882882,42.2280751,0,20.99895651,,,,
736.4559995,2876,-29.77243906,-27.27749574,51.24291358,0,78.30367442,-33.69940596,-18.17397491,-25.21248842,-19.90667398,-29.6488221,-37.35639345,-151.7028165,-22.89090137,-19.23723783,0,1.969339851,,,,
736.4639995,2876,39.70248627,48.45313426,-21.01745161,0,-125.397108,35.49891214,43.24588249,42.13126975,-1.846766826,-11.77575627,-32.27485057,65.26403407,-8.003339035,-3.114194521,0,-14.93433053,,,,
736.4719995,2876,-13.30239292,-7.246050526,58.88410873,0,141.34865,-13.66068204,-7.381472703,-13.23187474,24.55641381,19.66503259,2.033820414,-183.9216273,24.93369867,27.89550345,0,31.57762752,,,,
736.4799995,2876,19.99439726,24.56380221,19.92189982,0,-90.76154345,18.33810985,18.73660139,20.37650707,-22.55232146,-25.64187235,-36.59413841,13.49947296,-21.87246018,-17.4732665,0,-13.57538746,,,,
736.4879995,2876,40.68263842,48.22637639,14.77634047,0,28.46928506,44.98721523,48.88862256,43.35465037,50.72477588,39.44364067,15.51449143,-64.21622055,46.18553585,52.42627212,0,21.89649838,,,,
736.4959995,2876,-19.04055083,-13.06331512,44.2048457,0,80.39971077,-15.38802217,-15.89010218,-23.52796283,-11.686752,-16.82551035,-26.18133226,-147.4978058,-13.25617896,-8.823437195,0,-9.913127757,,,,
736.5039995,2876,51.06450007,60.45290988,-13.61049693,0,-117.8689521,52.33285737,60.77763937,53.81115827,15.27793066,12.28260342,-11.46828495,47.44389722,19.21990398,21.51969007,0,-24.17749534,,,,
736.5119995,2877,-22.5995578,-16.59263689,59.01544887,0,147.6060839,-20.98275305,-8.442875568,-22.59028276,27.002706,15.65843023,2.819522536,-191.3636905,36.94635257,28.17761811,0,3.101524428,,,,
736.5199995,2877,6.892100672,15.57517049,2.198725935,0,-97.8709172,16.08193297,16.6376631,9.121802313,-36.65917978,-42.48055738,-50.64739554,21.73325843,-19.91218749,-32.12648686,0,-51.59196625,,,,
736.5279995,2877,39.15090346,50.91927475,21.48232798,0,27.72397001,55.75918489,65.37658229,49.92340919,45.39720513,45.48503053,17.0359028,-72.77379456,58.85205108,58.34738699,0,10.37185386,,,,
736.5359995,2877,-27.76341731,-19.43340856,70.35308277,0,84.47719819,-14.3242702,-5.000835327,-18.22354025,-12.26565479,-14.45585286,-23.61824279,-153.5197423,-5.462118428,-1.414987188,0,-7.394165796,,,,
736.5439995,2877,39.15851095,51.88389119,-2.792504189,0,-121.2992455,50.47532707,64.26809335,54.36834927,9.548613559,7.027270975,-15.75698765,46.22595192,23.6846681,22.96879087,0,-24.94539081,,,,
736.5519995,2877,-22.27903819,-13.84207227,62.04772641,0,144.1507295,-15.02025438,0.162704817,-15.6848883,22.01693563,18.53221563,0.659021281,-206.705133,36.1548149,31.35132788,0,2.563937256,,,,
736.5599995,2877,5.517256046,14.03495095,5.788601956,0,-104.2287439,13.27602384,14.85723745,10.30877705,-31.21780979,-39.03439333,-46.31535152,-2.138029216,-24.99227889,-27.27837141,0,-46.37478208,,,,
736.5679995,2877,36.19876638,47.27863889,20.89587767,0,20.79422136,47.74436669,58.7888672,45.66627227,56.99673978,46.23892486,25.84199762,-99.14021662,66.27678171,60.03418989,0,13.57911909,,,,
736.5759995,2877,-37.45612786,-29.56754132,54.33740743,0,78.84975206,-23.8997354,-12.41413493,-26.46494782,-18.3835491,-23.2982771,-29.27883851,-173.0324263,-11.3314982,-13.28397621,0,-13.81243511,,,,
736.5839995,2877,19.26366871,30.85000458,-34.54082006,0,-133.4467166,35.60718625,44.80694534,36.77807401,-19.34596012,-15.64488832,-38.4851258,42.48870463,-10.4565032,1.308935614,0,-36.59994179,,,,
736.5919995,2877,-27.26502332,-22.83543319,50.42339737,0,140.7757765,-19.57444457,-6.457181364,-23.28756351,8.884645077,7.715384536,-8.418817016,-204.1322194,15.99285929,20.39196915,0,-2.646474127,,,,
736.5999995,2877,6.985075459,8.79097678,19.77548043,0,-93.04366812,14.30449267,22.61316568,11.92812763,-25.29638781,-37.87721673,-43.69073417,10.09262628,-24.18563703,-29.66044699,0,-46.34512825,,,,
736.6079995,2877,26.78834206,32.0051912,27.41741868,0,23.80599074,40.73283305,55.49727093,42.28028029,46.83877621,38.68342071,15.39022825,-68.63630483,57.61387656,53.57506997,0,7.30405617,,,,
736.6159995,2877,-49.33869262,-45.65483195,50.44914042,0,64.78012998,-36.31592327,-24.4772846,-35.54968527,-31.77097981,-30.55878317,-42.16453769,-143.217763,-17.73512152,-19.79254032,0,-24.4607837,,,,
736.6239995,2877,6.744040503,15.71871218,-35.39721704,0,-150.6282695,25.99045692,36.16626743,28.17680437,-18.82445818,-22.15208218,-43.30281871,67.03446692,-9.973996748,-3.284971079,0,-44.4390788,,,,
736.6319995,2877,-39.23810854,-33.6056558,43.04454494,0,127.0928444,-24.60535664,-8.766582306,-24.13837231,-4.943543026,-4.876098322,-21.89253671,-170.5493685,-5.369311337,16.253026,0,-8.332568071,,,,
736.6399995,2877,-2.570442666,3.955649243,-4.915447048,0,-106.4492122,4.897846109,14.84881949,4.918007807,-51.20252352,-45.49271875,-61.60957923,35.44302233,-54.10019967,-33.68599067,0,-51.25303373,,,,
736.6479995,2877,15.72931003,25.88802507,-3.653750594,0,5.016848034,25.706778,34.98246822,22.42343561,28.9119568,33.57324761,6.519887746,-54.5136431,32.76637595,45.83440748,0,4.495777852,,,,
736.6559995,2877,-37.46610785,-30.38369392,39.24335443,0,54.62352944,-29.35691266,-23.33390843,-30.97843664,-38.61881717,-30.76091564,-45.00640314,-116.7679181,-34.469906,-23.98564719,0,-24.15755387,,,,
736.6639995,2877,45.43033841,54.98338841,-22.6040474,0,-128.4025701,54.35154388,62.41927363,57.74313528,11.83469183,8.860960417,-20.33448074,73.67137176,12.04839947,18.88485923,0,-21.75669644,,,,
736.6719995,2877,-18.38498622,-14.40003967,42.28870528,0,150.5272841,-10.05871914,-4.191416696,-12.60183048,34.24626493,28.7557884,10.74997192,-195.9585234,26.9766285,43.02845555,0,26.35800059,,,,
736.6799995,2877,-7.642082685,-2.840510606,-39.10471138,0,-108.7082622,4.849179425,-1.448747756,-0.139859648,-50.25652539,-50.53034085,-65.55399447,20.95125988,-49.88768406,-38.38007422,0,-40.71166636,,,,
736.6879995,2877,17.97674651,24.15310648,-31.96594773,0,3.557709202,28.41715208,29.46148255,22.59223313,34.32217575,26.5714556,-4.265035698,-54.69052522,37.69225385,39.09024677,0,13.08108315,,,,
736.6959995,2877,-20.07093419,-21.55012264,44.59049934,0,66.8962711,-21.05233928,-13.39524353,-24.96353518,-17.43567715,-21.54270631,-31.26595954,-119.9139517,-28.05047501,-13.76923462,0,0.747332589,,,,
736.7039995,2877,54.52807153,56.49970544,-3.529370396,0,-119.2790501,54.37235126,68.62009513,55.51815653,13.79771404,5.962333039,-10.31065848,66.24939132,7.415101055,18.5319168,0,-3.387768821,,,,
736.7119995,2877,-28.89328939,-27.40202529,88.96859356,0,140.1063276,-33.30805771,-15.48701272,-32.36478373,29.90526112,15.8818988,5.787001892,-194.6829382,22.3352505,26.03876266,0,25.70608963,,,,
736.7199995,2877,-20.59915654,-19.04294445,69.59139882,0,-119.1547239,-25.42016704,-15.08898997,-20.05158081,-54.50376565,-61.97457445,-71.42089569,39.51054941,-62.02041013,-55.94420368,0,-56.87066092,,,,
736.7279995,2877,16.23146447,18.17049131,99.59524876,0,5.465748255,12.46643011,25.80584838,16.72900408,24.92444368,16.25231036,-6.649527114,-29.52177928,26.83263918,28.36647876,0,-2.692621241,,,,
736.7359995,2877,-30.94905687,-31.91041647,150.7053511,0,56.0677576,-42.49498895,-27.47613111,-35.74350295,-25.00155957,-35.6483721,-41.00877949,-89.24987245,-32.50377074,-27.42863589,0,-19.52316221,,,,
736.7439995,2877,35.01648711,38.98876181,91.79267681,0,-133.52071,28.56932076,47.9382695,41.4910331,-1.547005551,-8.959092605,-27.65316125,110.5768131,-1.790570599,4.043758798,0,-35.53358171,,,,
736.7519995,2877,-17.53810798,-17.78888606,165.0562072,0,140.6790321,-26.64585644,-10.48896081,-22.85590801,25.41508656,19.25601406,7.690431382,-147.9808935,23.70977039,32.88482733,0,9.882166841,,,,
736.7599995,2877,20.56460459,19.57340871,111.6114493,0,-103.3684861,6.152454389,18.14252237,12.79813302,-24.31029174,-34.53684976,-39.25673831,60.71402192,-40.48278405,-24.51343905,0,-41.27076107,,,,
736.7679995,2878,32.29119396,31.37931001,123.6063372,0,28.19715711,18.85557406,45.52114319,31.35176694,49.77876144,39.25049445,24.1102768,-37.03742453,50.68660536,57.52919445,0,14.41760872,,,,
736.7759995,2878,-52.06869478,-59.59795539,140.3804621,0,52.69756748,-68.76105916,-45.661136,-60.23746315,-36.6385947,-49.86754793,-45.81807486,-90.826339,-37.7627222,-31.93524362,0,-36.69152418,,,,
736.7839995,2878,22.46357805,19.76197485,61.90168152,0,-154.5777928,10.84399424,29.43138302,18.27106784,-20.6718805,-33.93032467,-49.87028079,119.8881225,-28.87488757,-18.91842622,0,-66.32215806,,,,
736.7919995,2878,-16.68589657,-21.45689538,159.7717388,0,135.5255786,-33.54380692,-16.9039775,-31.1059129,17.04563641,15.10393258,-2.942073123,-144.6475877,11.188678,25.1826989,0,-1.574798291,,,,
736.7999995,2878,16.72333594,10.6425484,109.7802724,0,-104.2789355,-5.20128698,6.693137029,3.197230301,-32.88103126,-40.67582734,-49.93190141,69.33239282,-47.2691248,-28.88222934,0,-53.41905279,,,,
736.8079995,2878,36.4996602,32.01523943,107.4655347,0,21.93116028,21.77751396,41.45704606,29.31758026,52.21225281,37.79030157,20.78463769,-25.52332043,46.47040091,52.57310664,0,1.452135098,,,,
736.8159995,2878,-35.73642183,-40.85931149,130.3095825,0,57.71326337,-49.72323372,-41.4894048,-52.39428073,-19.00631961,-22.7131136,-28.74122568,-97.82286015,-21.51794386,-18.29753605,0,-22.93364726,,,,
736.8239995,2878,32.41797983,33.44938813,52.57707287,0,-139.8758725,20.22522649,26.30321691,23.40582473,-5.805728188,-8.736794718,-35.125658,98.01421738,-11.2933609,-1.136921461,0,-41.00058668,,,,
736.8319995,2878,-18.93388518,-24.17464115,143.7152658,0,139.0625844,-33.36440294,-15.71317903,-27.10753755,25.44685053,16.97132329,1.051625553,-151.9759572,19.2563995,29.22687267,0,13.19485009,,,,
736.8399995,2878,1.282425476,-3.913804486,101.6553574,0,-118.7196839,-13.42086107,7.877082312,0.962506964,-46.51730716,-53.15979002,-62.9493392,75.57652638,-51.71903657,-42.75511486,0,-53.16903296,,,,
736.8479995,2878,28.61164303,26.49775735,122.6188255,0,6.845956675,15.97233667,40.39843444,33.56357072,30.43158858,23.49314223,-0.643014688,-22.08842069,29.85512152,35.19686489,0,-3.609430792,,,,
736.8559995,2878,-16.10475815,-25.08439457,173.8134556,0,67.07253468,-30.30354205,-14.73643529,-19.28880819,-1.513306757,-9.15018324,-16.92582758,-96.34820142,-5.223474793,-2.662737504,0,1.26106038,,,,
736.8639995,2878,42.61111433,36.20490234,101.5266966,0,-120.1583464,31.7941517,55.3471583,48.71569163,8.947678445,6.82140883,-17.64260082,98.60127114,10.89516214,16.57526603,0,-9.602329232,,,,
736.8719995,2878,-12.19418478,-23.23390173,173.2059069,0,146.3051167,-29.42481248,-5.35566353,-14.26152871,18.77697971,12.17827899,0.441827409,-145.0942736,7.967175051,23.89126842,0,17.12942588,,,,
736.8799995,2878,19.91785968,8.889738723,108.4990768,0,-103.736035,6.380336005,14.84925959,16.8367045,-14.3431992,-35.16081294,-37.90636101,76.77384238,-38.46296526,-26.62795597,0,-35.1628041,,,,
736.8879995,2878,25.46541964,19.78779793,105.9760236,0,19.89151869,21.26568739,33.34007122,28.89074609,51.49179267,32.91688271,13.14307897,-17.58598702,39.90430481,44.16487808,0,13.88070119,,,,
736.8959995,2878,-17.09534714,-25.57351451,155.0382295,0,66.11087482,-28.81869022,-24.66830646,-24.3357473,-14.71031996,-22.66315497,-30.45995182,-74.50680209,-29.48800708,-16.65273709,0,-8.427494072,,,,
736.9039995,2878,62.15726296,57.38159046,106.0107203,0,-109.3717098,50.4839857,59.65696116,60.08141446,30.45006382,18.72388552,-3.970927308,105.0603836,16.1522602,24.37946217,0,-5.627875308,,,,
736.9119995,2878,3.539282693,-3.22287284,191.7727685,0,158.9389543,-12.13654403,8.697418002,-0.503342178,44.18607315,33.82621343,19.06904087,-153.120354,33.67993062,39.65506738,0,36.52187051,,,,
736.9199995,2878,41.54660955,35.05605288,140.9276599,0,-87.60167981,23.96885011,36.26436254,36.53630532,-6.801257499,-8.02848781,-24.24969454,61.65397661,-21.30600096,-6.55307991,0,-8.275120932,,,,
736.9279995,2878,52.26205629,45.74711529,138.2890445,0,42.11778311,35.4384595,50.01742864,43.9459908,72.73606687,63.46372383,36.88183188,-49.33121726,59.89971955,67.32960061,0,40.68412572,,,,
736.9359995,2878,-10.74368612,-21.04484375,150.5493926,0,65.7669931,-33.16449965,-25.34329984,-29.50289645,-0.949250032,-16.09670326,-20.11664406,-107.3354141,-13.05964722,-14.73479938,0,-2.168975783,,,,
736.9439995,2878,51.01975234,44.77644178,82.49693609,0,-119.4322616,36.51631474,47.04310614,42.82091502,28.08795908,15.36349369,-5.231530643,77.40049645,13.30648842,17.29318984,0,-8.187476041,,,,
736.9519995,2878,-2.431720669,-13.17441272,174.6893996,0,153.3872603,-20.33963747,-2.901035897,-15.88915327,40.82998363,26.65148547,15.90327346,-169.952005,13.07498528,27.08077026,0,29.88030415,,,,
736.9599995,2878,44.60604389,36.43136948,125.0674244,0,-89.18629489,24.10224681,32.80465885,31.29792439,-6.404169881,-19.24265765,-24.37131921,51.11057057,-32.03194931,-21.88884178,0,-11.83215982,,,,
736.9679995,2878,43.61624955,39.04595026,118.9787776,0,42.79690101,26.45513182,43.09557904,35.37281536,75.77759047,63.29785636,43.57047299,-62.48570448,60.78583023,61.7898213,0,50.62256399,,,,
736.9759995,2878,-29.26692304,-38.29065812,117.9197912,0,59.76813484,-56.27702854,-41.09168352,-48.97275147,-8.944140089,-19.62770558,-25.86089083,-104.2651323,-27.66020307,-30.35594593,0,-6.696022498,,,,
736.9839995,2878,44.37203603,37.11569313,39.08749394,0,-122.5193812,24.52566897,38.80125102,33.91484856,19.56220031,3.319904479,-16.66658846,91.86296981,1.242294732,-5.161351909,0,-25.41206874,,,,
736.9919995,2878,-14.04098964,-25.0490923,124.1476748,0,146.7229015,-26.5765408,-13.22254964,-24.34067838,41.92045571,22.96317015,12.27716267,-161.6766068,19.42283834,20.53195509,0,24.99579615,,,,
736.9999995,2878,14.99863667,5.648023409,62.26592955,0,-108.7404364,-2.565723461,2.410796579,2.136569035,-21.97123911,-35.36751312,-46.42891367,62.56019496,-46.60562724,-38.15218541,0,-34.45243837,,,,
737.0079995,2878,22.03435999,11.38201575,65.17912485,0,24.62016007,5.072536321,14.29075794,9.555837552,51.69781061,29.52374521,12.28087821,-39.44942583,29.18272185,30.9911037,0,11.68305328,,,,
737.0159995,2878,-28.10186347,-41.46891293,89.08380884,0,53.73381879,-43.45344367,-41.87296596,-48.24658843,-17.28762244,-38.1209787,-36.84738226,-73.71750851,-36.99884446,-41.64097049,0,-18.54641402,,,,
737.0239995,2879,60.40190631,53.23702791,15.5601802,0,-118.4092748,46.75202289,48.33017602,42.25643594,24.10948804,7.946387105,-13.33792432,115.3361384,3.390565699,3.654079689,0,-18.81343133,,,,
737.0319995,2879,-5.08326635,-16.87460839,99.07866505,0,145.609594,-21.68555017,-22.62419276,-34.44907735,59.28477257,37.52612407,25.28203764,-154.0464232,19.62329422,31.32960003,0,31.1982103,,,,
737.0399995,2879,11.50230011,1.50308104,47.00206104,0,-117.522851,-3.573739952,-6.828663966,-10.22318842,-17.78159648,-33.29360252,-43.76847535,75.86105754,-46.78616465,-42.31392671,0,-39.14862751,,,,
737.0479995,2879,20.57259192,10.93472341,60.29195583,0,19.06103916,10.58032764,23.08733511,11.25746273,43.9806193,26.31751688,4.49124624,-16.40620219,23.85557558,23.75247987,0,2.339006062,,,,
737.0559995,2879,-36.52909909,-51.35929874,99.04984129,0,49.56673765,-47.39946212,-39.74627969,-52.39499707,-9.775555231,-31.64619283,-32.04473713,-67.84542213,-42.15848937,-34.98327139,0,-14.87008667,,,,
737.0639995,2879,31.16332148,20.43176493,25.21717665,0,-131.878221,23.75141624,31.1776687,24.1057146,6.314725984,-8.636521903,-29.44869667,117.9941791,-8.965499318,-8.384802893,0,-28.47595897,,,,
737.0719995,2879,-24.15228787,-38.90132738,89.90371833,0,131.6401765,-31.36600928,-23.22913061,-34.88078251,24.81764137,7.08837139,-7.680969981,-130.056822,5.319662577,8.000240683,0,11.81509863,,,,
737.0799995,2879,26.98674263,15.05382272,41.7608596,0,-108.0660895,16.4421319,17.23096665,12.92816236,-9.787629658,-25.45088935,-37.38126667,89.21570118,-35.11873352,-27.6181903,0,-21.86747566,,,,
737.0879995,2879,33.47780059,24.45185292,50.14193868,0,28.54488081,20.24848325,23.28812239,14.92495909,57.37532019,44.51494262,18.65332735,-21.3764113,39.79659461,43.07199596,0,21.75115701,,,,
737.0959995,2879,-27.76717064,-40.89754187,70.66689207,0,43.4960729,-44.81423385,-49.41609109,-56.93538861,-12.75319362,-33.51977306,-41.76831829,-60.95804067,-41.78049212,-40.93575449,0,-29.73215782,,,,
737.1039995,2879,59.51347073,49.30218658,15.43636672,0,-120.8497032,44.1768328,44.01539586,37.35144998,29.32536764,10.33218641,-17.31043471,118.3931975,2.885408759,3.866601226,0,-28.6827125,,,,
737.1119995,2879,-9.072379003,-24.02692085,93.55061994,0,142.8553747,-25.37339839,-22.0552894,-37.91924017,46.00620206,28.32696523,10.5798846,-141.5619434,19.22499807,21.22861887,0,17.66011376,,,,
737.1199995,2879,19.38769616,6.074288853,34.22557436,0,-118.0607268,1.879800754,0.206122028,-11.20741192,-14.18501946,-37.02454205,-50.66940715,89.09143947,-46.1430389,-44.37959745,0,-46.72888321,,,,
737.1279995,2879,39.0603696,25.58710874,42.09988407,0,26.0633294,22.99347176,28.04326878,12.13076006,63.97509236,39.08769725,11.09820461,-19.81875687,34.03542156,36.808724,0,7.515840723,,,,
737.1359995,2879,-28.14125698,-45.98272302,48.13895642,0,49.32873576,-40.75776647,-36.46704019,-50.90088475,-9.602130229,-31.29956924,-40.5043828,-64.89382809,-35.05180493,-38.2521219,0,-25.14875136,,,,
737.1439995,2879,34.53494238,23.23196892,-20.06631944,0,-121.639889,28.79023314,41.38158002,27.90252286,14.31517123,-2.651677085,-32.35017788,117.7245948,-2.007942532,-6.578925305,0,-37.67778265,,,,
737.1519995,2879,-16.58343138,-31.43926951,60.69927858,0,143.1174606,-24.59798919,-16.57574805,-32.27193499,37.61031706,19.41004393,-3.689923683,-141.1680526,17.06639835,19.64562482,0,4.465766069,,,,
737.1599995,2879,12.38573435,-2.505440388,-17.68061014,0,-116.6234201,3.391875007,-3.077949598,-4.121167059,-23.53388577,-40.40735171,-60.97573115,77.79574497,-47.37967899,-40.8567443,0,-55.24143176,,,,
737.1679995,2879,24.64909691,9.759147915,3.676344156,0,25.36518255,14.00327171,21.45440619,14.31012401,50.3876732,31.41679402,-2.082003139,-31.26511199,29.22795193,33.03897291,0,-3.759184003,,,,
737.1759995,2879,-10.08544732,-27.59336995,47.42721395,0,59.82026707,-26.58533837,-11.47051229,-24.32648857,-6.250974904,-25.05499921,-37.29335314,-71.91172165,-28.72384538,-28.1709158,0,-22.38704574,,,,
737.1839995,2879,47.46916725,34.92501768,-34.03905604,0,-108.8886062,36.97901723,52.90540375,42.23419818,20.86751509,10.84431998,-21.42946942,97.37839062,-2.631970666,8.063362911,0,-18.7146404,,,,
737.1919995,2879,-22.60017153,-41.50678057,38.82791083,0,137.6523335,-32.60756902,-26.68255365,-37.48529735,34.27919877,13.2827538,-9.629106848,-154.5176551,6.658098243,10.60166633,0,10.74042892,,,,
737.1999995,2879,21.02185207,3.498778411,-23.09999898,0,-118.3960598,7.793227704,3.460620665,2.387586844,-16.13737229,-46.96644659,-57.70051026,76.19793796,-36.96852022,-49.1331733,0,-51.23638154,,,,
737.2079995,2879,23.25252196,7.47081931,-11.78109473,0,25.22179037,10.68101928,12.62158408,6.403009213,50.20311169,27.15747282,6.465652186,-35.94291791,32.90673601,30.03517501,0,2.132735287,,,,
737.2159995,2879,-31.55986839,-50.88242763,25.37176492,0,42.96877429,-45.45357099,-45.98271303,-52.5022397,-16.92291757,-40.45795937,-42.89714516,-69.04460828,-40.33893468,-39.87915448,0,-30.89135842,,,,
737.2239995,2879,37.12393714,25.07355797,-57.47166139,0,-125.1840673,26.645019,30.52526482,24.77483752,11.90049366,-4.96416588,-30.20622036,111.667257,-2.100187532,-4.195732873,0,-36.25625763,,,,
737.2319995,2879,-29.46287184,-43.61327487,12.31429041,0,126.2320178,-39.56504157,-42.90161334,-50.31148809,17.41335643,7.652298905,-13.77784994,-135.6569047,6.029612031,6.586000199,0,-1.169892049,,,,
737.2399995,2879,5.936507576,-4.372482047,-25.39233577,0,-125.0324204,1.984326886,-11.15917774,-11.79043971,-28.91873762,-42.90136725,-54.14480807,99.52998849,-39.67017325,-42.0460963,0,-53.88694914,,,,
737.2479995,2879,19.78945317,12.97717561,-7.097885902,0,24.67122481,18.31833908,17.67181191,7.820658966,35.90437793,28.64339802,1.446689947,-10.5294098,34.96822436,31.3884379,0,-7.787123062,,,,
737.2559995,2879,-39.51888822,-51.4786878,21.47757675,0,34.64969484,-48.078876,-45.98483805,-54.97372867,-27.75963963,-32.96705566,-46.06767497,-61.95780211,-31.30477744,-37.35128931,0,-38.91084669,,,,
737.2639995,2879,13.62253497,5.639712099,-41.57508599,0,-138.5400288,10.94283718,16.44191745,7.102173937,2.734613905,-3.849927873,-30.44473416,112.5911103,-0.300931989,-5.284050923,0,-46.47988324,,,,
737.2719995,2879,-35.14729106,-47.97615744,38.8765633,0,120.8250665,-35.81951193,-30.76348162,-46.32805283,1.447202478,0.006414313,-21.14816937,-120.6551783,3.095624551,-4.15318295,0,-18.90492459,,,,
737.2799995,2880,3.55349111,-8.655867923,-16.08568328,0,-124.7879763,9.674145745,17.06115447,6.138544106,-34.25264889,-34.23214721,-50.59252281,98.94767894,-32.04031802,-39.5435963,0,-51.75285356,,,,
737.2879995,2880,-2.766826899,-11.832923,-11.30208365,0,32.84834972,16.37047222,32.2687516,13.50498282,32.69886378,36.5331216,9.091733927,-31.30564356,40.28507338,42.14192738,0,9.296632653,,,,
737.2959995,2880,-53.22679085,-66.0793389,15.32755146,0,46.82317383,-34.60874916,-27.15573375,-40.50484296,-41.02073786,-34.28822182,-47.01559137,-81.22132045,-25.22860061,-28.46318686,0,-22.8211685,,,,
