Time:125Hz,Epoch,FP1,FP2,C3,C4,P7,P8,O1,O2,F7,F8,F3,F4,T7,T8,P3,P4,,,,
868.4479994,3392,0.014107512,0.031400976,-0.113954517,0.125037071,0.069691091,-0.010318105,0.049941455,0.066996345,0.046154085,-0.012023144,-0.015260587,-0.012740157,-0.156620781,0.095370471,0.017960287,-0.056594123,,,,
868.4559994,3392,0.154637415,0.13813013,-0.226740608,0.138645018,-0.030356341,0.017335758,-0.03601944,-0.092191733,-0.036183437,0.138126062,-0.056144192,-0.135078311,-0.0066117,0.112796829,-0.028775074,-0.059996185,,,,
868.4639994,3392,-0.007288487,0.042532706,0.11011787,0.074103989,-0.032181653,0.065117506,5.56E-05,0.05868899,-0.030160834,0.152214106,0.080071556,0.013216785,0.012299399,0.103125149,-0.055788493,-0.011199587,,,,
868.4719994,3392,-0.120094297,-0.077440866,0.106326242,-0.188338044,0.011905653,-0.016219245,0.110376164,0.169361781,0.064783949,0.012953325,-0.030329016,0.09586358,0.106946497,0.161341598,0.025072984,-0.004791357,,,,
868.4799994,3392,0.020094598,-0.039794702,-0.007974315,-0.068302276,0.03763301,0.023159068,-0.035978831,0.020091248,0.127470364,-0.091968066,-0.009717207,-0.007127192,0.173674102,0.059747222,-0.022214034,0.004214107,,,,
868.4879994,3392,0.077799445,-0.048703874,0.050397779,0.02394338,0.086885381,-0.045113861,-0.122251273,-0.094333443,-0.022684695,0.026180121,0.023060812,0.084195388,0.051270875,-0.020945697,-0.048700898,-0.090763348,,,,
868.4959994,3392,0.221603445,0.0243553,0.161433881,0.014502139,0.034358563,-0.176809021,-0.058020148,-0.012158074,0.00468148,0.13248132,-0.144804578,-0.050517296,-0.059799011,0.01035155,-0.051277568,-0.208260527,,,,
868.5039994,3392,0.195330391,0.022404507,0.129766995,0.076084552,-0.10161703,-0.08554449,0.002621356,0.040896702,0.074180576,-0.246946216,-0.042158303,-0.082919907,-0.012227766,-0.13110954,0.092026313,0.015741397,,,,
868.5119994,3392,0.068520099,0.064359978,0.092122361,0.023472419,0.002605297,0.046443648,0.180787864,0.029628848,-0.067412711,-0.2377109,0.041462133,-0.049912566,0.179534183,-0.061867695,0.133865365,0.171973601,,,,
868.5199994,3392,0.139333851,0.105067276,0.212299775,0.129298278,0.058409144,0.134002599,0.058526359,0.060737836,-0.068199442,-0.009464924,0.042253589,-0.078061401,0.081116463,0.020390224,-0.022132921,-0.089065752,,,,
868.5279994,3392,-0.004831036,-0.074427862,0.063775154,0.191283941,0.021327132,0.003510184,-0.096723595,0.131593086,0.000743925,-0.015307546,0.109118628,0.054435553,-0.134884278,-0.042173641,-0.001673403,-0.037794981,,,,
868.5359994,3392,-0.099681785,-0.040649178,0.055841822,-0.049758513,0.028277509,-0.165188194,0.032124607,0.013773923,0.007210611,0.147835305,0.041506241,0.012431032,0.061267951,0.103018085,-0.072064666,0.054003911,,,,
868.5439994,3392,-0.065499728,0.214616513,0.067045183,-0.099065212,-0.013272759,0.003835943,-0.011947579,0.03417121,-0.08966895,0.159710248,-0.002749898,-0.121173926,0.297424745,0.044437391,-0.324773642,-0.121564801,,,,
868.5519994,3392,-0.101519402,0.136226969,-0.035623434,-0.043609119,0.007937978,0.10835346,-0.008188761,0.143346995,-0.07068794,0.115573433,0.020463052,-0.109764721,0.190493114,-0.037866777,-0.24081911,0.079014104,,,,
868.5599994,3392,-0.113939363,-0.05496583,0.107554867,-0.153045787,-0.102451276,0.184575943,-0.001566781,-0.056790268,0.072985333,0.049341417,0.057448265,-0.034201476,0.017560299,-0.025586269,-0.095798747,0.328517031,,,,
868.5679994,3392,-0.124727,0.036112459,0.05001207,-0.120626873,-0.107047786,0.246408643,-0.041201659,0.006382214,0.014372605,0.023334803,0.051334376,-0.063985453,0.075631619,-0.081176784,-0.180340048,0.254704538,,,,
868.5759994,3392,-0.104259198,0.023508666,0.034222616,-0.100085611,-0.044263629,0.154413919,0.004570124,0.043852204,0.012012585,0.082040461,0.038969955,-0.070952669,0.087682531,-0.032234873,-0.146761262,0.236297399,,,,
868.5839994,3392,-0.114756831,-0.009665208,0.08734987,-0.137400827,-0.112196152,0.208771011,-0.027636543,-0.040079199,0.044507575,0.027522417,0.055301698,-0.041785466,0.042960217,-0.051869852,-0.136183584,0.272614404,,,,
868.5919994,3392,-0.178206649,0.066276661,-0.011678604,-0.147739902,0.021898123,0.128222361,0.004481893,0.099987665,-0.061718756,0.017292286,0.02229767,0.005386478,0.134002139,-0.067705461,-0.095318262,0.17924667,,,,
868.5999994,3392,-0.173136724,0.054634427,0.122858634,-0.207328857,0.099139522,0.088875593,0.040606711,0.111401624,-0.103808959,-0.124400809,-0.031752137,0.113116759,0.212365476,-0.031298834,0.07509554,0.019747628,,,,
868.6079994,3393,-0.006126343,0.047527248,0.273469239,-0.137894732,-0.015786453,0.217748605,0.050889848,0.09725212,-0.088456725,-0.190785173,-0.170486277,0.114735006,0.139605579,0.040667266,0.058873,-0.016040492,,,,
868.6159994,3393,0.054886867,0.062072114,0.008592551,-0.160671171,-0.082530224,0.017041174,0.173313469,0.061146013,-0.108237916,-0.016276651,-0.133927002,0.12945687,-0.047138872,0.087929669,0.006882796,0.057510545,,,,
868.6239994,3393,0.011444051,0.018856493,-0.126751179,-0.225908795,-0.075078385,-0.126553076,0.195107415,-0.098042877,-0.101494697,-0.019557621,0.191376664,0.123761134,-0.067270103,-0.063279427,-0.050193309,0.031930221,,,,
868.6319994,3393,-0.075055443,-0.069837431,0.152568932,-0.026797574,0.025754001,-0.101915887,0.130896723,-0.177835128,-0.071049652,-0.099640593,0.135069702,0.176876811,-0.059489325,-0.168973617,-0.108670987,0.150443805,,,,
868.6399994,3393,-0.266671104,0.013247976,0.04265083,0.091469192,0.018713584,-0.273884474,0.203396279,-0.049003901,-0.122268493,-0.05917747,-0.035351508,0.171467454,-0.078755981,-0.131094347,0.155079808,0.1893272,,,,
868.6479994,3393,-0.176253455,0.132853481,-0.143699668,0.038474507,-0.105293104,-0.20568268,0.023246325,0.070454443,-0.210150739,-0.022932952,0.104338733,0.061146134,-0.124475676,0.008457544,0.161715574,-0.019358797,,,,
868.6559994,3393,0.032834003,0.114735162,0.020832115,0.001614534,0.097327879,0.095014983,-0.157709819,-0.024396724,-0.21375161,0.032017239,0.016386208,0.103554604,-0.190322399,0.018085236,-0.14396691,0.09983745,,,,
868.6639994,3393,0.101569414,-0.01176586,0.039963975,-0.087653161,0.23886467,0.060174557,0.078088699,-0.05049256,-0.092867746,0.101150115,-0.00790076,-0.045164854,0.042161843,-0.159328689,-0.034264549,0.131652438,,,,
868.6719994,3393,0.193336128,-0.164448214,0.005940992,-0.113653926,-0.043383081,-0.009726271,0.124012215,-0.08231959,0.064849303,0.003986362,0.202648327,-0.084305144,0.138165198,-0.008296474,1.36E-05,-0.04347741,,,,
868.6799994,3393,0.155491378,-0.024864682,-0.096609031,0.033974654,-0.161342723,0.078325916,0.020881569,-0.13550445,0.126256878,-0.11923834,0.12126415,0.067180785,0.022380163,0.118236316,-0.135202459,0.050003151,,,,
868.6879994,3393,0.047566576,0.071651028,0.01992968,0.120407719,-0.008264981,-0.010984638,-0.050463363,-0.019154951,0.136150087,-0.158769039,-0.166786003,0.064651199,-0.036172255,-0.015831533,-0.014546738,0.095493212,,,,
868.6959994,3393,0.050214178,-0.039991887,0.303221829,0.043494816,0.078647244,-0.099166904,0.000617632,-0.135189498,-0.012133805,-0.070984495,-0.173604419,0.202652322,-0.086437422,0.093301549,0.038718903,0.137933589,,,,
868.7039994,3393,-0.00779016,0.03851699,0.012983644,0.073647501,0.006384002,-0.052717076,0.143678568,-0.184511391,-0.256870791,0.056057142,-0.009784753,0.242818003,0.09864694,-0.001505037,-0.119647171,0.138208801,,,,
868.7119994,3393,0.010936954,0.127076976,-0.096381748,0.045973352,-0.096480653,0.025524485,0.039528846,-0.008265041,-0.068922846,-0.010255572,-0.025022999,0.12701496,0.092221026,-0.156108127,-0.138839834,-0.123002451,,,,
868.7199994,3393,0.214470586,0.025630104,0.120490425,-0.129551084,-0.086475504,0.077000746,-0.003109428,-0.07553192,0.040938455,-0.008178473,0.057724336,0.127840538,-0.113861068,0.107873466,0.075181004,-0.124670878,,,,
868.7279994,3393,0.219430404,-0.053133183,0.003245516,-0.025209724,-0.060400013,0.050043524,-0.009676909,-0.039341871,-0.175990239,-0.058046004,0.114097344,0.05971214,-0.126341558,0.046574079,0.046078115,0.0313463,,,,
868.7359994,3393,0.028295451,-0.003073522,-0.158947529,0.005512004,-0.085565138,0.073508279,-0.123089524,0.004413497,-0.022787923,0.082843386,-0.082182394,-0.015209358,-0.175305128,-0.045546071,0.029304273,-0.074384701,,,,
868.7439994,3393,0.038577832,-0.022346401,-0.212121255,-0.047034299,-0.071644604,0.082870949,-0.138972346,-0.102232332,0.096700348,0.279130538,-0.161409478,-0.003773409,0.023083534,0.149480054,0.192225091,0.033374428,,,,
868.7519994,3393,0.212309826,-0.055715086,0.041395586,0.086201351,-0.165979094,0.114935,-0.020173903,-0.049388993,-0.04893318,-0.060362666,0.041774739,-0.02979485,0.141567067,0.075819213,-0.053423841,0.119936061,,,,
868.7599994,3393,0.250230425,0.042372438,0.131977096,0.06235853,-0.138144185,0.153415894,0.03719455,-0.148909991,-0.080610486,-0.079963959,0.148135762,0.000544076,-0.010769899,-0.001516184,-0.167414461,-0.186287318,,,,
868.7679994,3393,0.100654784,-0.070294793,-0.096882816,0.031495326,0.148223478,-0.026204105,0.016395481,-0.260386702,-0.004820271,-0.016696344,0.030530403,-0.037205746,0.152551204,-0.111899569,0.058766004,-0.189554616,,,,
868.7759994,3393,-0.081358998,-0.286999804,-0.032220267,-0.003678053,0.115364059,-0.090484841,-0.024508872,-0.05945822,0.071559919,-0.164949602,-0.090868026,-0.183668347,0.161536854,-0.209948529,0.009799305,-0.119600942,,,,
868.7839994,3393,-0.040504198,-0.065168258,-0.117015951,-0.006131757,-0.039111911,-0.073930099,-0.135896614,0.101331885,0.019021448,0.071570881,-0.136320332,-0.061090433,0.007608631,-0.026068794,-0.111453946,-0.028010125,,,,
868.7919994,3393,0.009732529,0.061643163,-0.155304805,0.020375169,0.051268839,-0.184272639,-0.033742209,-0.001191007,-0.10747785,0.114076841,0.022528471,0.019234813,-0.013570672,0.040294011,-0.098054605,0.241747854,,,,
868.7999994,3393,-0.008948034,-0.067909474,0.123175379,-0.003796725,0.054662925,-0.189172076,0.072401785,-0.154431017,0.074527014,0.044731997,0.004465988,-0.026185177,-0.125399731,0.012548175,-0.04629767,-0.025245736,,,,
868.8079994,3393,0.077601088,0.133171572,-0.046406668,0.087618898,-0.064678272,-0.118252489,0.088980573,-0.010020454,0.228406486,0.106070424,-0.166922295,0.114967171,-0.01701238,0.087991612,-0.07423261,-0.217809601,,,,
868.8159994,3393,0.116568541,0.205119418,-0.085478537,0.071134905,0.006253776,-0.00373979,0.1204853,0.09435334,-0.06013451,-0.176620612,-0.132815414,-0.001094072,0.193609475,-0.027279168,0.023423868,0.050960767,,,,
868.8239994,3393,0.236428452,0.03340951,0.162050581,0.069405802,0.073270599,-0.007403802,-0.061970537,0.015184297,-0.060821968,-0.337384042,-0.012014688,-0.070881114,0.182542603,-0.241993038,0.171028854,0.131786814,,,,
868.8319994,3393,0.200244626,6.01E-05,-0.043566193,0.062263485,0.018723949,-0.100199528,-0.16932187,0.04928287,0.052081477,-0.136619076,0.019257084,0.037665538,0.131239255,-0.04942726,0.087498097,-0.012968828,,,,
868.8399994,3393,0.111988436,0.114451386,0.028657199,0.029225177,0.072123595,-0.050378662,-0.001118448,0.107984678,-0.04378787,0.033230367,-0.070864219,0.028277387,-0.015289469,0.077156754,0.12974868,-0.068994809,,,,
868.8479994,3393,0.093172547,0.064045524,0.105543704,-0.030315106,0.040875057,0.003983295,0.126812346,0.055739999,0.036314345,0.116120106,-0.001443525,0.096665994,-0.01240055,-0.172084889,0.078927329,0.08639932,,,,
868.8559994,3393,-0.058327744,-0.124094794,-0.249406547,-0.240811612,-0.036297111,-0.040945775,0.037642902,-0.136389947,-0.039970531,-0.052106369,0.000130266,-0.147444836,0.157726074,-0.051746212,0.018521938,0.070426253,,,,
868.8639994,3394,0.110194655,-0.054042522,-0.114989512,-0.104117091,-0.043107239,-0.101783825,0.11091487,0.012587268,-0.040644318,-0.101466437,-0.023597996,-0.220673212,-0.072566462,0.036680448,0.137436553,-0.081013687,,,,
868.8719994,3394,0.152754422,-0.145259364,0.125591294,0.079534837,0.009483109,-0.070789987,0.192149021,0.216864213,0.101592644,0.102244802,-0.024587058,0.066609432,-0.255756768,-0.053005559,0.054634052,-0.140084987,,,,
868.8799994,3394,0.023733077,-0.22241293,0.006219229,-0.05394133,-0.002023339,-0.153160131,-0.051023801,0.024015361,-0.070824708,0.022375943,-0.16184869,-0.008607953,-0.044923773,0.118273901,-0.01464956,-0.026923436,,,,
868.8879994,3394,0.152492177,3.47E-05,-0.013461546,-0.079640399,-0.045561616,-0.228019122,-0.10778648,-0.079238881,-0.120321003,-0.031786839,-0.025596465,-0.077338225,0.098384026,0.006174682,0.039283348,0.124669609,,,,
868.8959994,3394,0.09130818,-0.136864326,0.009534141,-0.013108186,0.078076724,-0.071813533,-0.014517132,-0.098444054,-0.049842501,-0.01242082,0.155505523,-0.046254826,0.024804314,-0.039364583,0.086050535,-0.008033382,,,,
868.9039994,3394,0.049490783,-0.255457158,-0.07387771,-0.04932476,-0.054784787,-0.02956946,-0.034097232,-0.109665313,-0.210251242,-0.002859573,0.032651143,-0.115143376,-0.069104496,0.151824778,-0.082199832,0.028410855,,,,
868.9119994,3394,0.007994904,0.018872499,-0.029985873,-0.061047012,-0.104259983,0.02853499,0.030997481,-0.098413023,-0.158771664,0.117968282,-0.059978799,-0.076238783,0.0253906,0.137684954,-0.135314409,0.025612802,,,,
868.9199994,3394,-0.155519599,-0.038734571,0.050428014,0.133551799,0.140702888,0.052592182,0.086727121,0.045959642,0.066925819,0.029379376,-0.015607138,-0.041097539,0.11698119,-0.063650718,0.139848258,-0.078548845,,,,
868.9279994,3394,0.047253238,-0.106353188,-0.021187138,0.18893319,0.081033911,0.01917705,-0.039731254,0.181859449,0.033037275,-0.038327446,-0.021709586,-0.149856544,0.167766074,-0.321461235,0.091457636,0.072941166,,,,
868.9359994,3394,0.231902287,-0.015063711,-0.048477577,0.055411773,0.037515459,0.086932007,-0.138592243,0.027217325,0.034596468,0.011428955,0.158185961,0.024958552,0.122249925,-0.150013452,-0.015726545,-0.030171242,,,,
868.9439994,3394,0.06444806,-0.039984485,-0.074266298,0.098548965,-0.03473984,-0.035912017,-0.038485952,-0.012780848,0.054168626,0.09067996,0.217754022,0.315144529,-0.051002486,-0.002497705,0.11422063,-0.094023794,,,,
868.9519994,3394,-0.010723565,0.116998369,-0.223527272,0.017611103,-0.068940272,0.029621884,0.070812272,-0.072725802,0.043416778,0.105386082,-0.019806809,0.100690766,-0.087170776,-0.078184906,0.010920879,-0.084527365,,,,
868.9599994,3394,0.083841647,-0.114320854,-0.164894291,-0.075288539,0.109558821,0.110476939,0.00111112,-0.153610378,0.179141587,-0.098907729,-0.052161964,0.013901801,-0.200557012,0.022127335,-0.051722167,-0.125550359,,,,
868.9679994,3394,0.132634879,-0.188364484,0.133801779,-0.018834429,-0.159567302,-0.060518267,-0.086301479,-0.035921083,0.154531975,-0.130930905,-0.076145707,0.075928877,-0.296676576,0.017400094,0.091544934,0.013978615,,,,
868.9759994,3394,0.058618667,0.077486837,0.107845115,-0.071192508,-0.154340015,0.031505807,-0.054074487,-0.144699791,0.157204911,-0.064166039,-0.117144477,-0.168617027,-0.06939577,0.014094218,0.067491283,0.008153318,,,,
868.9839994,3394,0.000651249,-0.196784536,-0.033753516,0.000307959,0.085404864,0.099865916,-0.122725288,-0.130084303,0.227558993,-0.131205224,-0.033024743,-0.151582676,0.065403368,0.008421782,0.040083478,0.090505253,,,,
868.9919994,3394,0.071076368,-0.070396265,0.031857166,0.192450094,-0.142214196,0.003561513,-0.125649332,0.036512474,0.079354535,-0.122833892,0.161935885,-0.05529978,-0.048376428,0.062722795,0.017513942,0.133985404,,,,
868.9999994,3394,0.074947339,0.141869219,-0.020796073,0.327733729,0.016992768,0.053219168,-0.07503663,-0.087756183,0.052980154,-0.042180589,0.125308434,-0.105584653,-0.009278319,0.21895442,-0.024661167,-0.002343349,,,,
869.0079994,3394,-0.102048215,-0.080001982,0.056768014,0.237588341,0.021438589,0.093848723,-0.150746178,-0.022572141,0.14100186,-0.030971153,-0.129976464,-0.094543744,-0.031852338,0.233925056,0.15904049,0.068875233,,,,
869.0159994,3394,-0.189472998,-0.009008994,0.076246943,0.009084294,-0.28552242,0.034330902,-0.024139818,0.023707964,0.089216977,0.084374791,0.035553991,-0.071388527,-0.203478834,0.21107549,0.088779779,0.099220474,,,,
869.0239994,3394,-0.009343094,0.032361915,-0.118152555,-0.025980386,-0.161344262,-0.025455731,0.047857378,-0.084907411,0.084349843,0.201691842,0.023752732,0.054946137,-0.125471061,0.134262389,-0.270025976,0.059118958,,,,
869.0319994,3394,0.057288552,-0.023973935,0.030911983,-0.020037851,-0.029952182,-0.129281854,-0.002748843,0.07122878,0.051921647,0.011263341,-0.082142203,-0.02485116,-0.147208297,0.065127783,-0.147681398,-0.078434322,,,,
869.0399994,3394,0.0003146,-0.027098853,0.207901807,0.003284758,0.033794281,-0.055038098,0.092457462,0.134441769,-0.098625868,-0.113787175,0.129237828,-0.180687106,-0.241975845,0.076124916,0.082799928,-0.133615033,,,,
869.0479994,3394,0.031435016,0.026998384,0.095401693,0.052828702,-0.034482733,-0.036713212,0.170913167,0.093946756,-0.088653697,-0.085482128,-0.009099238,-0.088149914,-0.16619038,0.101752626,-0.007651859,0.101909651,,,,
869.0559994,3394,0.014212812,0.07548351,-0.146583907,-0.012626427,-0.064165314,-0.163238411,0.05864461,0.038218825,0.003589937,-0.038541202,-0.066389109,-0.119394364,-0.072900538,-0.04008731,0.040883794,0.009849726,,,,
869.0639994,3394,0.039677662,0.032844175,-0.265380933,0.039035145,-0.061302922,0.042137191,-0.100728658,-0.0313261,0.076003732,0.035284241,0.090067975,-0.165925599,0.169606591,-0.143343481,0.043014367,-0.164891956,,,,
869.0719994,3394,0.034830239,0.050275169,0.029109121,0.076691758,-0.234546374,0.071697482,0.044704688,0.029107187,0.019444372,-0.038088826,0.113009286,-0.174732403,0.104576095,0.091130613,-0.033213354,-0.083526144,,,,
869.0799994,3394,0.037008981,0.091814974,0.075362639,-0.075181687,-0.097192048,0.092429336,0.074553964,-0.003360264,-0.09480453,-0.020248282,0.022340993,-0.209539066,-0.079717284,0.104183582,0.145272257,-0.065055708,,,,
869.0879994,3394,0.056213659,0.225940729,-0.219807386,-0.010934851,0.010610008,0.154670094,-0.115255386,-0.03020395,0.029382703,0.089258871,-0.031860932,-0.036131916,0.113264759,-0.007007198,-0.008711589,-0.02115255,,,,
869.0959994,3394,0.042296216,0.160507043,-0.075358049,-0.015657085,-0.043318362,-0.117441519,-0.099248226,0.116404641,-0.0588766,0.063998599,0.162978151,-0.054169738,0.024595776,-0.025126206,-0.258692728,0.054362112,,,,
869.1039994,3394,0.170915344,-0.00483233,0.099869805,-0.19089605,-0.059834377,-0.198937937,0.024401339,0.094504847,-0.157083882,0.093813853,-0.036032664,-0.170189004,-0.123622708,-0.180630565,-0.050665143,-0.046707836,,,,
869.1119994,3394,0.142269443,0.069887429,0.053755029,-0.078961712,-0.147395531,-0.23368741,0.076610345,-0.065224067,-0.04612103,0.072871893,-0.184129577,0.046582496,0.002751537,-0.086794205,-0.07828915,-0.137485139,,,,
869.1199994,3395,0.079002587,-0.043891749,-0.001529975,-0.06329422,0.072318608,-0.061541277,0.024575429,-0.001295062,-0.225476673,-0.043195476,0.163131703,0.06528606,0.095849515,-0.017930657,-0.104103014,0.023008096,,,,
869.1279994,3395,0.209666997,-0.17665968,-0.189979762,-0.107019928,0.152549192,0.042018931,-0.031132508,0.03798827,-0.147812997,0.017439468,0.052436351,-0.071411583,0.017299587,-0.001492002,0.069766734,0.025966119,,,,
869.1359994,3395,0.185871336,-0.018910026,-0.234206189,0.056321827,-0.084462498,-0.105478906,-0.07112877,0.037650901,0.093804463,0.10832127,-0.053616121,0.128277463,-0.20526045,0.149010679,0.00308644,0.053478348,,,,
869.1439994,3395,0.162736279,0.037535001,-0.031647207,0.027203787,-0.052754909,0.104435396,0.043836158,0.073431946,-0.084077955,-0.016997717,0.055898574,0.169884617,-0.041172144,-0.047521182,0.015487693,0.145449797,,,,
869.1519994,3395,0.093542035,-0.119524145,-0.100183622,-0.140305212,0.003981287,0.049550278,0.049823116,-0.046869029,-0.08063657,-0.071715783,-0.090156177,-0.052253791,0.126736266,-0.069868641,0.135162561,-0.068591069,,,,
869.1599994,3395,-0.144516536,-0.043269766,-0.119964515,-0.108362268,-0.015607586,-0.122621868,-0.061856263,-0.017405837,0.009591862,0.065832343,-0.026945776,0.042022537,-0.020879639,0.110114578,0.118166218,-0.069687824,,,,
869.1679994,3395,-0.053303425,0.132537053,0.264604668,0.015675618,0.095095925,-0.042293965,0.141409801,0.095500068,-0.132306078,0.106989362,-0.036619297,0.015901937,0.059651285,-0.066663522,-0.066671708,-0.032587435,,,,
869.1759994,3395,0.032231472,0.092906366,0.187843511,-0.038295188,0.023420955,-0.082824185,0.215173322,0.063061979,-0.007976065,0.059541259,-0.136900146,-0.203861889,0.038449037,-0.100482144,-0.021914969,0.015294684,,,,
869.1839994,3395,-0.151223961,0.026123571,-0.087742151,-0.098426637,-0.142454301,-0.032989677,0.065050971,0.137354052,0.109025832,-0.245498921,0.022823034,0.042823872,-0.034181736,0.088397675,0.235293644,0.129033046,,,,
869.1919994,3395,-0.066583481,-0.091754847,-0.063382691,0.035959665,0.022592968,0.079070034,-0.031312984,0.127442651,-0.040588883,-0.291917021,0.141364636,0.126519589,0.04087384,0.123851509,0.141884962,-0.050658944,,,,
869.1999994,3395,0.046913378,-0.151473128,-0.094877626,0.134369867,0.177454628,0.046904137,-0.129369093,-0.06418481,-0.109192013,0.103155139,0.169230516,-0.161762911,-0.049295996,0.016561876,0.0562256,0.088963103,,,,
869.2079994,3395,-0.041603325,-0.068776972,-0.210817734,0.077683184,0.011324544,-0.104545133,-0.118709218,0.025373951,-0.121195201,0.022815471,0.108077187,-0.082846128,0.032763397,-0.019258499,0.098326341,0.127013224,,,,
869.2159994,3395,-0.029980165,0.134818543,-0.318697536,-0.083583837,-0.139572052,-0.088474347,-0.013192672,0.134167122,-0.138521102,-0.086172281,0.149121174,0.073580976,0.145245511,0.062616886,-0.022097961,-0.181154342,,,,
869.2239994,3395,0.062261298,0.120900232,-0.068331317,-0.041291209,-0.038350214,0.066114929,-0.052826107,0.092148548,-0.007265695,0.038774654,0.073125224,-0.060754069,0.114208754,-0.012428418,-0.088163284,-0.166673035,,,,
869.2319994,3395,0.01565497,-0.094915944,0.033223685,0.146727806,-0.050563948,-0.042043964,-0.112560713,0.126472692,0.152047434,0.112321119,-0.109783637,-0.119966377,0.130386875,-0.093325563,-0.134562395,-0.148182861,,,,
869.2399994,3395,-0.005931752,-0.035054935,-0.107442969,0.063190185,-0.137469462,-0.15782071,0.012781753,-0.045239899,-0.012906887,0.134171767,0.067576039,-0.123460942,-0.008715125,-0.029275392,-0.151914511,0.05393977,,,,
869.2479994,3395,0.120012895,0.058288433,0.149183821,0.077615143,-0.043080963,-0.093867651,0.015910909,-0.114539712,-0.145940416,-0.002229199,-0.001934209,-0.079463505,-0.031425105,-0.071911145,-0.112992165,0.161649836,,,,
869.2559994,3395,0.093893544,0.114125697,0.119095638,0.052655821,0.02153934,0.057046426,-0.05375276,-0.054289985,-0.074863237,-0.059194691,-0.145007099,0.143242115,-0.066221093,-0.140436693,-0.072157821,-0.071246979,,,,
869.2639994,3395,0.055038733,0.051092977,-0.055442717,-0.087188845,0.04751327,0.057345168,-0.092258035,-0.088523195,-0.007530343,-0.08261352,0.108438396,-0.012381681,-0.18155563,-0.118197551,-0.018093113,0.030031043,,,,
869.2719994,3395,0.130069518,0.073274263,0.005130773,0.125036271,0.00480269,-0.171598324,-0.123601757,-0.072788168,0.116522098,-0.052528531,0.046166599,-0.241634906,-0.089720035,-0.019170041,-0.096092991,0.125162611,,,,
869.2799994,3395,0.115934672,0.075402927,-0.061517172,0.149968019,0.016155022,-0.078606234,0.003134349,-0.246654074,0.072736387,0.020885948,-0.102199647,0.007090117,-0.095893337,0.187437841,0.102852865,0.108294674,,,,
869.2879994,3395,0.013673848,-0.150963844,0.002723718,0.045622349,-0.001822308,0.043417145,-0.038685736,-0.115117405,0.101372739,0.096279792,0.00876967,0.068124524,0.066059864,0.086418066,0.328402609,0.021983773,,,,
869.2959994,3395,-0.041007992,-0.017663626,0.024454737,0.096656419,-0.11038443,-0.039724604,-0.167617026,0.122884031,0.197196086,0.048444254,0.061049199,0.058711269,0.224899791,-0.207739375,0.017936948,-0.064080277,,,,
869.3039994,3395,0.013771809,-0.024659143,0.000817477,0.036351536,-0.074583594,0.170200957,-0.003108576,-0.05367461,0.014611305,-0.185186999,0.043200511,0.183376769,0.03007376,-0.095500792,-0.08018552,0.160605288,,,,
869.3119994,3395,-0.071840971,-0.178173009,0.115337507,-0.01407945,0.006685936,0.36283419,0.134381207,-0.037317942,-0.065492422,-0.058234084,-0.143916121,-0.003767223,-0.014531457,0.129545291,-0.000378643,0.16784974,,,,
869.3199994,3395,-0.157230315,-0.071948142,0.06410239,-0.130954674,0.075351241,0.168982069,-0.039596666,-0.085729095,0.011341887,0.019832141,-0.157859869,-0.030351955,-0.00034583,0.132569137,-0.092500184,0.04817364,,,,
869.3279994,3395,0.008462205,0.023322031,-0.033849167,-0.030179697,0.074696123,0.084245325,-0.134083122,-0.075285756,0.006043489,-0.148965407,0.044056472,0.158104046,-0.037409979,-0.064918785,-0.085920707,0.064098095,,,,
869.3359994,3395,0.016302866,0.108735208,-0.005824528,0.280951526,0.072338171,0.11637138,0.046976136,0.187686298,0.04784866,0.043735808,0.048101239,0.040676089,-0.00453423,-0.01213006,-0.101845399,0.021927882,,,,
869.3439994,3395,-0.004458764,0.058651183,0.031396292,0.097745477,0.034089482,-0.080607382,0.055017546,0.025069474,0.030336428,0.088046489,0.059700764,-0.009682706,-0.040240758,0.232074117,0.001238216,-0.018798402,,,,
869.3519994,3395,0.110548928,-0.055823477,0.106783066,-0.299117164,-0.051743817,-0.031941145,-0.113790895,-0.095783648,-0.082748396,-0.114537711,0.072458482,0.183210851,-0.050974487,0.14900504,0.167797509,-0.063989576,,,,
869.3599994,3395,0.04786371,-0.077385855,0.146710691,-0.269478126,-0.020969706,0.029021758,-0.097267425,0.005899781,-0.029216016,-0.072164345,0.047171878,0.176737119,-0.025617143,0.15718494,0.13023934,-0.034091369,,,,
869.3679994,3395,0.0530428,-0.031130698,0.087275924,-0.165320044,-0.018694213,-0.063302195,-0.054295388,-0.053542894,-0.025578003,-0.044211128,0.070162046,0.111262439,-0.0451488,0.192901618,0.108401515,-0.034688253,,,,
869.3759994,3396,0.025223329,-0.080598875,0.098132136,-0.183827573,-0.015471156,-0.007660514,-0.145812022,-0.015301079,-0.002467056,0.002151755,-0.022417955,0.066405257,-0.064683129,0.0578761,0.129377657,-0.09272415,,,,
869.3839994,3396,-0.043898694,-0.057972495,-0.057585839,-0.039916439,-0.014288145,-0.074073646,-0.102000307,-0.010542602,0.133554809,0.095290642,-0.104141539,-0.158397323,0.006073184,-0.020231036,0.070634719,-0.175580694,,,,
869.3919994,3396,0.0250502,0.099798335,-0.213112903,-0.091950113,-0.127551397,-0.062170035,0.053483406,-0.063212606,0.100317383,-0.095261921,-0.032529427,-0.177879193,0.162897835,0.014087431,0.008883041,-0.305487032,,,,
869.3999994,3396,-0.046040325,0.001191095,0.00635911,-0.040888449,-0.084312022,-0.01210933,0.112916429,-0.052081565,0.027673323,-0.096486889,0.103959306,-0.105369721,0.017677852,0.070947918,0.054473291,-0.271126731,,,,
869.4079994,3396,0.032682384,-0.05661516,0.111493146,0.250135083,0.059537525,-0.026471332,0.200941176,-0.089304683,-0.098432221,0.155691612,0.126346891,-0.04255763,-0.143456044,-0.038386346,0.171776426,-0.136869446,,,,
869.4159994,3396,0.125301042,0.061479385,0.072559509,0.019978948,-0.00666106,0.039767361,0.109712066,-0.014284866,-0.057933557,0.064624919,-0.111387587,0.052085115,-0.001677657,-0.079430213,0.003981851,0.042884238,,,,
869.4239994,3396,-0.003602568,-0.027898249,0.073873661,-0.128637632,-0.146998976,0.036108226,-0.086394407,0.071772409,0.117159859,-0.036558665,-0.087489841,-0.055745427,-0.069855769,-0.200150111,-0.201133617,0.252089053,,,,
869.4319994,3396,-0.024170031,0.001395245,-0.06405309,0.126189598,-0.232795617,-0.016402177,0.052767948,0.129758187,0.037507986,-0.048184646,0.107581049,0.05811799,-0.034373045,-0.181088613,0.047933962,0.214649435,,,,
869.4399994,3396,-0.061757234,0.13234749,-0.012054218,0.148750601,-0.04913454,-0.144182184,0.021679853,0.056612651,0.051886215,-0.200688158,-0.130510374,0.11979006,0.059367914,0.117615841,0.196669046,0.123279678,,,,
869.4479994,3396,-0.065562063,-0.000387807,0.131068114,0.096604384,0.213278156,-0.140552058,-0.215192138,-0.071970584,-0.003018632,-0.145624798,-0.148458863,-0.050793267,-0.148336178,0.011085158,0.09467802,0.126431028,,,,
869.4559994,3396,0.012824284,0.100595323,-0.039180288,-0.071325705,0.021478739,0.045683575,-0.113164997,0.099027624,-0.156083484,0.099086201,0.019321447,-0.084416633,-0.029890371,0.040200776,0.118373475,0.122018713,,,,
869.4639994,3396,0.009051298,0.194345927,-0.132512778,-0.122621038,-0.041582344,0.008762531,0.02444588,0.065596879,-0.040729455,0.199715921,-0.056027274,-0.091006739,0.174320647,0.118077256,0.017580544,0.166676619,,,,
869.4719994,3396,0.02374055,-0.13242222,0.052415077,0.0904297,0.129263813,-0.030561511,0.063868272,0.012060196,0.024015509,0.117505835,-0.069517302,0.01191658,0.062691673,-0.072792418,-0.006408656,-0.091494447,,,,
869.4799994,3396,0.070258548,-0.056676381,0.149417521,-0.009914309,0.000164691,0.16391988,0.132193408,0.152874679,0.060708768,0.024603061,-0.117242065,-0.027219496,-0.013269068,0.058455614,0.137909445,-0.281749768,,,,
869.4879994,3396,0.10628806,0.132196784,0.045955145,-0.033798725,-0.115487903,0.027570954,0.001290562,0.0475576,0.127963994,0.022624821,0.06287181,-0.096486294,0.008524361,0.078839017,-0.011670087,-0.088908499,,,,
869.4959994,3396,0.010091421,-0.13192117,0.057665182,-0.094929671,-0.107242498,-0.21851368,-0.150311283,0.066601774,0.060694305,-0.033434949,0.12809334,-0.031210249,0.150695871,-0.012712392,-0.046988099,-0.005890111,,,,
869.5039994,3396,-0.133009089,-0.122729315,0.067957181,-0.240716908,-0.049973321,0.095722993,-0.022087644,-0.00453496,-0.049748684,-0.016030871,-0.128060603,-0.075008714,0.178647838,0.031049928,0.040226971,0.053447268,,,,
869.5119994,3396,-0.014359491,0.065480772,-0.119559116,0.1046534,-0.04205849,0.194119575,0.172469125,-0.078705121,-0.12843762,0.236359427,-0.045946504,0.041424712,0.056056325,0.031568954,-0.098250785,0.048560927,,,,
869.5199994,3396,-0.010929303,0.040570404,-0.031451256,0.268829869,-0.125468627,-0.009285834,0.178790396,0.135308657,-0.137046811,0.223036472,-0.056133938,0.056695845,0.126696416,0.057149248,0.018220253,-0.11539744,,,,
869.5279994,3396,-0.100574323,0.025519889,0.143487467,0.064714581,-0.13649756,0.146575935,0.054027063,0.025739098,0.009329054,0.01912146,0.099288249,-0.001250337,0.079910552,0.049278133,0.143432639,-0.122752755,,,,
869.5359994,3396,-0.00907533,0.149509595,0.107251624,0.101474998,-0.14965478,0.259934137,0.085748893,0.034176128,0.007119142,-0.038259044,0.230318717,0.091278488,0.007305002,-0.139164999,-0.042487488,0.106616481,,,,
869.5439994,3396,-0.135600822,0.167058861,0.102273657,0.188219415,-0.02467658,0.162518169,0.034382267,0.177489729,-0.103451027,-0.203949674,-0.138443318,-0.100983759,0.064985618,-0.184907545,-0.125677092,0.132896957,,,,
869.5519994,3396,-0.091786645,0.02560389,0.017766216,-0.044999116,0.161088349,0.076641365,-0.111538055,0.081103413,0.082373047,-0.086028063,-0.062323048,-0.052221342,-0.036441252,0.039588834,-0.037563953,-0.047487048,,,,
869.5599994,3396,0.12135326,0.048900763,-0.013686802,-0.040222429,-0.018142283,0.168002654,0.032120551,0.193481167,0.135566934,0.047689198,0.028498625,0.144461613,0.037100583,0.02319078,0.113214331,-0.19607275,,,,
869.5679994,3396,0.118299784,0.118455684,-0.063533573,0.230088288,-0.230843784,0.179834112,0.011058116,0.189160428,0.100116255,-0.241739459,0.10151194,0.013342415,0.106173763,-0.022794335,0.072957248,-0.210648537,,,,
869.5759994,3396,0.129084188,0.184800121,-0.177474853,0.11206831,-0.118195315,-0.011587894,-0.154276504,0.049495474,0.120661674,-0.143305631,0.180800885,-0.09893378,-0.076291794,-0.055493244,-0.008824175,0.014089181,,,,
869.5839994,3396,-0.052014801,0.092492904,-0.027211572,-0.096951691,0.008877358,-0.071739815,-0.200827476,0.084440239,-0.031900823,0.08229701,-0.08760062,-0.237371768,-0.086580458,0.00731341,0.117611519,-0.013412925,,,,
869.5919994,3396,-0.124620957,0.012593398,0.004553566,-0.046445637,0.061552884,0.102367235,-0.253437107,0.076511003,-0.082316327,0.014479331,0.101356083,-0.052400832,-0.101786188,0.169338301,-0.088636245,-0.157336553,,,,
869.5999994,3396,0.011596243,0.140883022,-0.089370317,0.041828013,0.002304761,0.305368824,-0.020897621,0.039444947,-0.030855668,0.156749607,0.125309238,0.166929622,-0.1654386,0.018309168,-0.214921118,-0.087963655,,,,
869.6079994,3396,-0.046420761,0.004068718,0.032990667,-0.050151639,-0.085905746,0.226516804,0.175037994,-0.015390579,0.046977548,0.093200356,-0.026865076,0.039607444,-0.041166616,0.021987081,0.071034929,-0.012947586,,,,
869.6159994,3396,-0.118046794,-0.026018029,-0.011476308,-0.058884753,0.113135115,0.16984802,-0.06141058,-0.080825317,-0.026564171,-0.082110134,0.067351235,0.050052341,-0.131464961,-0.076564157,-0.026709923,0.014635971,,,,
869.6239994,3396,-0.140668422,0.007678478,-0.180446727,0.102243276,0.263864394,0.066022665,-0.256562993,-0.008809305,-0.267223573,0.048134669,-0.117802125,0.088222431,-0.192691175,-0.187449718,-0.067301229,-0.016141168,,,,
869.6319994,3397,0.045236537,-0.161117019,-0.112148006,0.100797993,0.07466918,-0.039088687,-0.043808951,0.116268049,-0.19058629,-0.153525562,-0.029679349,0.052483662,0.071784618,0.00347541,0.076604991,-0.107572347,,,,
869.6399994,3397,0.117476591,0.04870512,-0.024591203,-0.014113875,-0.126341861,0.080975432,0.114994546,0.109063579,0.048220943,-0.134151609,-0.059971688,0.047547194,0.024434132,-0.235980631,-0.061196106,-0.092271524,,,,
869.6479994,3397,-0.058078266,0.129367125,0.055995113,0.010686289,-0.043115967,-0.028260506,-0.004740396,0.135050487,0.039130957,0.053819814,-0.219960888,0.028087274,-0.052012667,-0.331279682,0.090834702,0.172139785,,,,
869.6559994,3397,0.161206503,-0.09380501,0.080208889,-0.036544502,0.077187348,0.003156274,0.043001867,0.148204555,-0.01895821,-0.115054021,0.073847266,-0.021847415,0.077909307,-0.054861185,0.241647633,0.125253282,,,,
869.6639994,3397,0.269891039,-0.076498895,-0.124064613,-0.140971984,-0.035120687,0.005296632,0.14162478,0.068807588,-0.018497184,0.056533106,-0.053704799,-0.126962209,0.004537049,0.004746178,0.059811558,-0.108449613,,,,
869.6719994,3397,-0.013819765,-0.137707862,-0.154494267,0.088067203,-0.009915147,-0.124975854,0.17827489,0.131591363,-0.063692044,0.006260385,-0.153077241,-0.123364726,0.004495422,0.085263357,0.103176525,0.02509833,,,,
869.6799994,3397,-0.072188463,-0.123222421,0.006745425,0.095196687,0.086075759,0.013097566,0.029445842,0.031750787,-0.074647702,-0.184544905,0.084736416,0.011194235,0.021134474,0.093555233,0.155227458,0.120758008,,,,
869.6879994,3397,0.068497074,-0.068305004,0.076995023,-0.092168791,0.107003285,-0.07559813,-0.075846425,-0.1793301,-0.092051457,-0.012768156,0.01016261,-0.004059924,-0.024155617,-0.028027794,0.113701496,0.030666018,,,,
869.6959994,3397,0.070387869,-0.130149692,0.074668385,0.004634056,0.076302432,-0.053967733,0.136604468,0.025593994,-0.076457119,0.009903159,-0.095875131,0.050845191,0.096283108,-0.100955988,0.088752694,-0.097768335,,,,
869.7039994,3397,-0.03019898,0.040823077,0.117971379,0.060624576,0.036136262,0.049745183,0.052890195,0.201026056,0.003409525,-0.051346995,-0.055562496,0.123590046,0.089299386,-0.038253035,-0.079548742,-0.022538143,,,,
869.7119994,3397,-0.060722715,0.03494376,0.237838296,-0.032812668,0.222277956,-0.04103508,-0.085314054,-0.061731924,-0.001477594,-0.052000095,-0.030639237,0.082697775,-0.026004583,-0.033159533,-0.067251146,0.221366874,,,,
869.7199994,3397,-0.082461819,-0.036753319,0.140862426,-0.182063273,0.057950233,-0.01342713,-0.031353968,-0.236684045,-0.067270971,0.105727087,-0.156340378,0.133827531,-0.071514465,-0.134306436,0.066463503,0.159233426,,,,
869.7279994,3397,-0.091501005,0.104748284,-0.023128948,-0.101603775,-0.060703298,0.037226459,0.055215053,-0.15936369,-0.137257169,0.161442073,-0.171183832,-0.073514834,-0.137107007,0.017204087,0.040190432,0.005994766,,,,
869.7359994,3397,-0.106387671,-0.138324219,-0.018764878,-0.035036766,0.08611787,0.121779744,0.08086727,-0.050377233,-0.092451492,-0.07577356,-0.079507541,-0.090495773,-0.009628756,0.139856191,-0.082042502,0.05663704,,,,
869.7439994,3397,-0.032424543,-0.360037607,0.048627815,-0.118282276,-0.112654648,0.039492922,-0.134767915,-0.086812785,-0.014934302,-0.054710244,0.042485224,0.122894713,0.09902513,0.221303726,-0.173639451,-0.12141965,,,,
869.7519994,3397,0.069959237,-0.082581134,0.000980929,-0.06646938,0.048608178,0.003302123,-0.093630326,-0.174882997,-0.033297689,0.199588816,0.053259497,-0.054813876,0.013136331,0.212610928,-0.033313266,-0.329763467,,,,
869.7599994,3397,0.034854517,-0.009286338,-0.093551024,-0.113329032,0.177094628,0.040086505,0.045961659,0.065458469,0.06372448,0.037447355,0.002904971,-0.040242731,0.053857982,0.045856541,0.189513796,-0.107033988,,,,
869.7679994,3397,0.104779614,-0.019113074,0.034462994,-0.058661854,0.01635986,-0.012081004,-0.094318685,0.091536283,0.088187717,-0.109720567,0.144373975,0.029303292,0.023784801,0.06668676,0.076620172,-0.056950306,,,,
869.7759994,3397,0.154964264,0.12245309,0.075953323,-0.015070551,0.105198928,0.077163333,-0.150516797,-0.096059177,-0.083516763,0.107135731,-0.014221094,0.009402008,0.038602837,-0.028997956,-0.189738955,-0.182742875,,,,
869.7839994,3397,-0.008537504,0.020207518,0.098456595,-0.025801988,0.025710039,-0.01952452,-0.130545928,0.089027642,-0.05445001,0.055970617,-0.071513307,0.069296446,0.196748447,-0.035919593,-0.014829975,-0.175123714,,,,
869.7919994,3397,-0.013966769,-0.069548039,0.155445106,0.142207219,-0.112532609,-0.144101937,-0.070674104,0.010931451,0.039356239,-0.082419749,0.069293935,-0.054609557,0.085371346,0.150833312,0.102360705,-0.119806854,,,,
869.7999994,3397,0.0946315,-0.057214541,0.046977987,0.030143345,-0.062221337,-0.152222453,0.164636489,-0.126861495,-0.040716922,-0.108185483,0.068426332,0.021142794,-0.025772982,0.05982432,-0.139742664,0.108049814,,,,
869.8079994,3397,-0.075848711,-0.14082532,0.00628903,-0.016938908,0.053421558,-0.071494577,0.099152032,0.124205353,-0.043545859,-0.04837205,0.066545596,0.002067237,0.095781562,0.0655048,-0.123648784,0.080669446,,,,
869.8159994,3397,-0.22424146,-0.100204095,-0.035515166,0.020042627,0.067575574,0.039718676,-0.108598407,0.070123596,0.037884205,0.079070244,-0.105076007,-0.045689998,0.060292723,0.04984858,-0.100089033,-0.01673156,,,,
869.8239994,3397,-0.184246186,0.145652076,-0.06890871,-0.105483787,0.066581941,-0.044232404,0.011478325,-0.012180027,0.056428234,-0.043283763,-0.009345732,0.191223682,-0.051582262,-0.180068126,-0.047582345,0.234336602,,,,
869.8319994,3397,-0.005503245,0.168973436,-0.069319334,-0.063112743,0.006758805,0.076557805,0.01010864,0.113363365,0.04565522,-0.056450618,0.174910133,0.111525084,-0.027264047,-0.081469846,0.022883785,0.171169087,,,,
869.8399994,3397,0.199929843,0.104536292,0.04530645,0.071169106,-0.121579927,0.06352857,0.045200792,0.012008748,0.086191094,0.151935637,0.103982026,0.003238604,-0.052947769,-0.062480857,-0.113623033,-0.124508465,,,,
869.8479994,3397,0.071044231,0.111863549,0.254288833,0.235694358,0.115296769,-0.101000398,0.070202556,-0.080208726,0.015924392,0.073276892,0.14862356,0.138257484,-0.133289405,-0.169648866,0.029862788,-0.073702359,,,,
869.8559994,3397,-0.115121848,-0.067198802,0.133413399,0.069203245,0.126182286,0.002376753,-0.045252183,-0.15989234,-0.175812617,-0.05396471,-0.080502502,0.130744951,-0.171851865,0.016399476,0.050407875,-0.071194319,,,,
869.8639994,3397,-0.131011701,0.022393224,-0.0404813,-0.133652756,-0.149512529,-0.09228041,-0.01313116,-0.113552181,-0.031915848,-0.032633448,-0.117088269,0.083270056,-0.036714002,0.148311117,-0.043483906,-0.117493967,,,,
869.8719994,3397,-0.063802786,0.159909822,-0.073313251,0.034615088,-0.078172186,-0.111406881,-0.115295131,0.028230077,0.133485676,-0.053882723,0.369269507,0.207429764,0.053445688,0.094416581,0.188478036,-0.0434911,,,,
869.8799994,3397,-0.063821566,0.034675311,-0.11590954,0.141917221,-0.059166047,0.012261394,-0.16422403,-0.054313846,0.072087589,-0.026355344,0.1026899,0.05328622,-0.101898825,-0.109890867,0.218594403,-0.126248517,,,,
869.8879994,3398,-0.091256361,0.073747561,-0.057378623,0.136578184,-0.004210613,-0.092692708,-0.047828794,0.092895223,0.228580008,-0.036851034,-0.190967489,-0.116366552,-0.093326993,-0.210142595,-0.042332086,-0.064969773,,,,
869.8959994,3398,0.03897326,0.036739298,-0.081261808,0.034256951,0.024673522,-0.106552409,0.141490316,0.192133701,0.157188521,0.00458433,0.069207846,0.051897888,0.148326913,-0.082503318,-0.058455049,-0.022896854,,,,
869.9039994,3398,-0.019999758,0.020754458,0.004096382,-0.019014618,-0.163138441,-0.039093169,0.269934004,0.019479944,-0.051629997,0.053194886,-0.034549947,-0.01770437,0.081133455,0.032906297,0.203601963,-0.107361193,,,,
869.9119994,3398,-0.081447977,0.075747066,0.078437746,0.052759344,-0.123026664,0.042141968,0.073869326,0.070479399,0.155731244,0.060976015,0.039735377,-0.080593246,-0.088642689,0.097694904,0.098232215,-0.105690755,,,,
869.9199994,3398,-0.005501915,-0.026336732,-0.076684293,-0.014103896,-0.049184414,0.097707434,0.027051069,0.016525763,0.08091169,0.11768806,0.088958632,-0.019509194,0.045072658,0.015814662,-0.13059105,-0.059822697,,,,
869.9279994,3398,-0.116833279,0.177774701,-0.072606838,-0.121694479,-0.105942079,0.036195232,0.043273228,-0.171308703,-0.127945432,-0.03070966,-0.119587785,0.007666585,-0.009191363,0.007219798,-0.104690353,0.204624411,,,,
869.9359994,3398,-0.072419483,0.161245838,-0.104911148,-0.094969382,-0.035114314,0.142832297,-0.086332603,-0.181142024,0.068510012,-0.111473792,-0.00032984,0.039055738,-0.180961045,0.189833551,-0.10314494,0.162477693,,,,
869.9439994,3398,0.124064365,-0.094107633,-0.133127535,0.007605729,-0.03450193,0.0382496,0.026617706,-0.03474205,0.039953529,0.06249823,-0.036815154,0.024134538,-0.120424708,-0.0483328,0.043577915,-0.10524129,,,,
869.9519994,3398,0.106607434,0.182347453,-0.073949334,0.065309639,-0.119353662,-0.221717557,0.003235249,0.225584074,-0.024868476,0.081496581,-0.087854516,0.090578868,0.086319291,-0.263537084,0.128877914,-0.025383518,,,,
869.9599994,3398,0.080444965,0.159448599,-0.000260121,0.022549817,-0.06509417,0.012323609,-0.086869977,0.225323924,0.055754138,-0.069271766,0.084435901,-0.015054703,0.097992763,0.02803473,-0.051644029,0.107071851,,,,
869.9679994,3398,0.144267437,0.01348914,0.097380831,-0.037785345,-0.177940012,0.133152766,0.106721886,-0.024988971,-0.107497921,-0.040866417,0.00759491,0.059534753,-0.01434299,-0.057473205,-0.036445699,0.109607002,,,,
869.9759994,3398,-0.059292942,0.121994969,-0.069869303,-0.118827132,-0.159290998,-0.070996074,0.188088276,-0.072145313,-0.082114911,0.005677072,-0.030577521,0.345579945,0.001947469,-0.144848786,0.062599809,0.009800801,,,,
869.9839994,3398,-0.152295714,-0.120945783,-0.190518874,-0.108004775,0.075621627,-0.123707502,0.191655035,0.033740074,0.080589851,-0.031480649,0.075982936,0.097245002,-0.013660696,0.181334475,-0.022876483,0.050503995,,,,
869.9919994,3398,0.244978288,-0.026445029,-0.016748309,0.005693574,0.162321845,-0.024927054,0.143614829,0.126167659,0.029687376,0.007717868,-0.009887982,-0.211278481,0.10098056,0.062919773,0.035807011,0.084153026,,,,
869.9999994,3398,0.242609428,0.245035075,0.05430706,-0.06023935,0.129205955,-0.027046068,0.026092385,0.065861147,-0.065929896,-0.032231594,-0.036443274,-0.145064795,0.070287597,-0.103115157,0.053885852,-0.02852979,,,,
870.0079994,3398,-0.039567566,0.033263558,-0.120207838,-0.033242435,-0.106068564,-0.151722345,0.037345378,0.002938393,-0.079944349,0.023249118,0.101493755,0.015837229,-0.045013384,-0.008171298,-0.064236029,0.045294031,,,,
870.0159994,3398,0.116109649,-0.151563486,-0.124232157,0.042573633,-0.1056101,-0.017640971,-0.060572908,0.033709171,-0.087703572,-0.000508835,0.080716113,0.006563759,-0.024943378,-0.055753542,-0.04640704,0.05572004,,,,
870.0239994,3398,0.087758603,-0.108668243,-0.073088297,0.014114272,0.089442412,0.048476033,-0.119341818,-0.120607983,-0.073622914,-0.123315755,-0.059798484,-0.060137468,-0.094450107,0.065478956,-0.103979391,-0.059092624,,,,
870.0319994,3398,-0.202199651,0.056476112,-0.217474156,0.158956248,0.17196259,-0.080176776,-0.020571971,-0.056716121,0.029177277,0.115955683,-0.148343091,0.008017677,-0.000443956,0.090134123,-0.085183357,-0.149187466,,,,
870.0399994,3398,-0.159560451,0.125151589,-0.022782562,0.110121578,0.077538584,0.013149044,0.054961536,0.083571935,-0.026730024,0.129305987,-0.08638831,0.021459046,0.144076873,-0.064375647,0.042530775,-0.15513819,,,,
870.0479994,3398,-0.016540442,0.101685033,0.154565307,0.06212942,-0.13142639,-0.023301161,0.183736308,0.023796548,-0.044476325,-0.092125099,0.01644165,0.078962785,0.010866128,-0.022206111,-0.028241823,0.04940012,,,,
870.0559994,3398,0.069384814,0.09134665,0.087325752,0.064280704,-0.028794286,-0.06671645,0.07041514,0.052850238,0.04830427,-0.110200833,0.046987381,-0.042292537,-0.154683668,-0.045898789,-0.113287727,0.030754776,,,,
870.0639994,3398,0.176834023,0.069152085,0.108400034,0.031864981,0.03556093,0.124818292,0.021656025,0.046221008,0.046952317,-0.152355409,0.106907019,-0.185697945,-0.087877038,0.062459906,0.020681688,-0.130190262,,,,
870.0719994,3398,-0.118426152,0.092516079,0.108187692,0.242996455,0.001869507,-0.004976071,0.048424913,0.104494003,0.048681102,-0.022760066,0.024368889,-0.011130166,-0.082431728,0.221033746,-0.00657038,0.004289422,,,,
870.0799994,3398,-0.221745393,0.078031709,0.175146622,0.181705533,0.114963633,-0.214715659,-0.255062664,0.053627747,0.038703214,0.155414434,0.017170814,-0.084318233,-0.071125475,0.088593063,-0.164457749,0.032181184,,,,
870.0879994,3398,0.183830834,0.029333207,-0.01221437,0.109427319,0.085836202,-0.063230524,-0.208011176,-0.022804579,0.07867398,0.082977693,0.191750387,-0.218963773,-0.016572246,0.107986162,0.064787143,-0.082772752,,,,
870.0959994,3398,0.057367571,-0.059242981,-0.111523824,0.074744991,0.113287733,0.140864465,0.035697094,-0.010511746,-0.035572823,0.048030732,0.097803605,-0.099419216,-0.087364109,0.07246636,0.058985788,-0.071655058,,,,
870.1039994,3398,-0.174346032,-0.112992952,0.001293909,-0.02062897,0.167870153,0.029243927,0.071311592,-0.225984345,-0.147170938,0.089482448,-0.028403655,-0.014436718,0.033122991,-0.029605823,-0.119747068,-0.095530769,,,,
870.1119994,3398,-0.06853836,-0.060755481,-0.214905663,0.046588551,0.118698577,-0.20288231,0.024274055,-0.275431308,-0.002927662,-0.01629816,-0.047599644,0.011848295,0.09629727,0.069876949,0.105717233,-0.020323678,,,,
870.1199994,3398,-0.020213542,-0.008665386,-0.115519573,-0.145076366,0.09280911,-0.052907773,-0.06830081,-0.166213445,0.061583912,-0.037009229,-0.107390464,-0.00379149,-0.016739109,-0.064089185,0.189146165,0.084197403,,,,
870.1279994,3398,0.078447937,0.048732637,0.155023292,-0.115556822,-0.123892054,0.020001908,0.020918877,-0.192720666,0.037120728,0.131202457,0.040834836,0.0847086,0.036991682,-0.03824716,0.079821192,-0.02255927,,,,
870.1359994,3398,0.159792087,0.068793894,0.095556487,0.054702671,-0.064527272,-0.044970375,0.057059747,-0.145717733,-0.001034726,0.162265166,0.118311435,0.088903753,0.050361472,0.066603126,-0.027888677,0.019112892,,,,
870.1439994,3399,0.089394469,-0.051022721,0.171854901,-0.096949787,0.149456847,-0.016517521,0.034996408,-0.005285639,-0.007445528,0.149999269,-0.02133043,-0.020699324,-0.01030861,-0.070554576,-0.090820569,0.243095771,,,,
870.1519994,3399,-0.071308207,-0.038991634,0.201947212,-0.036346382,-0.019423846,-0.180664301,0.030691361,0.007104376,-0.072822073,0.154579789,0.012891963,0.144611425,0.016686625,-0.086665251,-0.047287467,0.271579853,,,,
870.1599994,3399,-0.032723411,0.178349535,-0.074872682,0.046289261,0.092977258,-0.010299388,0.052997564,-0.085643944,-0.144146497,-0.029804854,-0.009863573,0.106471012,-0.124890387,-0.153067288,0.017102022,0.140329043,,,,
870.1679994,3399,0.103208819,0.200783516,-0.136706189,-0.092415538,0.158905068,0.127562862,0.263224329,-0.076067915,0.013554444,-0.078353092,-0.219004695,-0.143632204,-0.07787416,-0.107177225,0.047292912,0.008027927,,,,
870.1759994,3399,0.077396906,0.081850681,0.071292577,-0.085444804,-0.097172066,-0.075141335,0.215227193,0.013676966,0.018125495,0.033042854,-0.137420895,-0.072931181,0.231467214,-0.05901215,-0.022506326,-0.030351884,,,,
870.1839994,3399,-0.034271952,-0.084223705,0.106490246,0.093937574,0.080496626,0.004339589,0.085386352,0.071905391,-0.0903707,-0.116416208,0.075603569,0.050747267,0.065816208,-0.139348511,-0.012843621,0.058248016,,,,
870.1919994,3399,-0.094712738,-0.122985235,-0.032114931,0.161041978,0.195232991,0.058534869,0.242186316,0.024722693,0.026812442,-0.248075377,0.012896763,0.062341503,-0.072659516,-0.020705514,0.062517644,0.078728556,,,,
870.1999994,3399,0.000507813,0.060564081,0.033313968,0.045557847,-0.013997673,-0.056716685,0.108210248,0.058155939,0.017978552,-0.171773521,-0.035103202,0.088852985,0.037758546,0.00514091,-0.031839695,0.012477569,,,,
870.2079994,3399,-0.036075957,0.148357964,0.187092085,-0.005653017,0.174692744,-0.166859533,-0.027813219,0.208663752,-0.115185682,-0.118592243,0.034123026,0.036007912,-0.001245838,-0.095939787,-0.124212897,0.040891029,,,,
870.2159994,3399,-0.080544832,0.185465903,0.104950753,0.01069265,0.278787931,-0.093537885,0.239364501,0.21152865,-0.128902079,-0.0840372,0.01857249,-0.132235203,0.050924648,-0.071208772,-0.026270295,-0.021697082,,,,
870.2239994,3399,0.005609049,0.019494735,0.133266544,0.060189385,-0.082884732,0.048412486,0.128912297,0.213237231,-0.130650673,-0.032414405,-0.002489796,-0.114403717,-0.02558148,-0.066625979,0.103302367,-0.212668359,,,,
870.2319994,3399,-0.079810423,0.055396446,0.109400785,0.169818292,-0.072899641,0.014831999,-0.041174135,0.213808066,-0.105071252,0.051318924,0.068361322,-0.058496926,-0.128490189,-0.104494154,0.063727675,-0.083444883,,,,
870.2399994,3399,-0.027852294,0.271279445,-0.006819185,0.147534997,0.067948543,0.087677924,0.12872245,0.024354959,-0.03225706,0.029251077,0.097078364,-0.103524398,-0.157939741,-0.122282207,-0.03679159,0.100717648,,,,
870.2479994,3399,-0.079012981,-0.086159329,0.069397502,0.03492233,-0.014817791,0.068266925,0.081613796,0.049380785,0.098400204,-0.046799797,-0.015241606,0.11701826,-0.157270802,-0.090550384,0.057757969,-0.106601822,,,,
870.2559994,3399,-0.363733057,-0.253993072,-0.001555568,-0.091331184,0.181550288,-0.097987538,-0.122141429,0.185626162,0.177705176,0.086132056,-0.02371745,0.257921879,0.081821321,0.009713946,0.119873571,-0.090600264,,,,
870.2639994,3399,-0.137566294,-0.178937539,0.065341232,-0.017397472,0.195812508,-0.031475493,-0.192457209,-0.032279862,0.095866293,0.117724531,0.125042781,0.06436815,0.045783477,0.030072093,0.066390602,0.039239072,,,,
870.2719994,3399,0.123491487,-0.189308196,0.134159194,0.124474283,-0.192674642,0.029452333,0.147384292,-0.127587482,0.082766377,0.019005557,0.107078834,-0.065543164,-0.028212692,0.059716245,0.078455866,-0.127046374,,,,
870.2799994,3399,0.143643274,0.018723869,-0.156666373,-0.104042042,-0.217876608,-0.001028251,0.252803161,-0.07819381,0.023271384,0.087224633,-0.042188027,0.00082716,0.093011883,-0.025921429,-0.002960041,-0.055586235,,,,
870.2879994,3399,0.167134961,0.065685098,-0.12088747,-0.168288419,0.044226197,0.103844027,0.029252426,-0.170809021,-0.076596491,0.128611416,-0.094749561,-0.046126307,0.054602805,-0.069089777,-0.000748321,-0.042786249,,,,
870.2959994,3399,-0.057128062,0.007082171,0.01818808,0.042376373,-0.007613891,0.126288465,0.045757987,-0.117582637,-0.040171755,0.128196261,-0.076327851,-0.143752571,0.129279611,0.22406445,0.051689932,-0.110832051,,,,
870.3039994,3399,-0.072388924,0.090461399,-0.132669743,0.055170104,-0.08733407,0.057409453,-0.181573885,0.033993774,-0.077087797,0.058338811,-0.139796437,-0.007768511,0.027410978,0.145253195,-0.033883357,0.049589063,,,,
870.3119994,3399,0.095016553,0.168568618,0.022413466,-0.089580356,0.04854949,0.046232214,-0.13314865,0.072932717,0.154468994,-0.071459416,-0.198765464,-0.040600719,-0.018066389,-0.147417478,0.030769069,-0.041319653,,,,
870.3199994,3399,0.09191526,0.040352554,0.317143757,-0.178989928,0.090885002,-0.059278831,0.152579406,0.047289872,0.42590277,-0.057861071,-0.091708466,-0.101108754,0.238882081,-0.052368726,0.077037994,-0.153714686,,,,
870.3279994,3399,0.115647065,-0.017285869,0.276367428,-0.115694336,0.066937645,-0.075195279,0.01931376,0.067628607,0.292850752,-0.052749169,-0.082416569,-0.020008944,0.159976144,-0.026567031,0.021956175,-0.099410138,,,,
870.3359994,3399,0.051428466,0.119297901,0.062466216,-0.121978563,0.007892005,0.000729179,-0.026452399,-0.014367582,0.224288848,2.55E-05,0.005286303,-0.162406645,0.002268144,-0.105824614,0.086516596,-0.097391426,,,,
870.3439994,3399,-0.030580827,0.084178403,-0.185366985,-0.121629224,-0.046197991,-0.016269387,-0.029319094,-0.111065272,0.138380422,0.127790728,0.270957925,-0.165702114,-0.052182031,-0.056578942,0.024837698,-0.04457285,,,,
870.3519994,3399,-0.005569513,0.018368785,-0.233267297,-0.022537744,0.039627055,0.003197586,0.110444653,-0.00762011,0.04900485,0.109797451,0.132399349,0.050273981,0.075237811,-0.019834487,-0.077558899,-0.057706356,,,,
870.3599994,3399,0.052297641,-0.084876329,0.00634437,0.033683325,0.055504937,-0.021547572,0.194052564,-0.087368168,-0.025355198,0.05581501,-0.091341646,0.067209733,0.058897775,0.084214274,0.05522965,-0.135062259,,,,
870.3679994,3399,0.138856247,-0.063724831,0.063527483,0.022914959,0.096988113,-0.032403712,-0.023641355,-0.380532167,-0.161550944,0.025409666,-0.064887548,-0.003643901,-0.333117862,0.179242487,0.020839868,-0.00944798,,,,
870.3759994,3399,0.094490864,0.145565638,-0.059826592,-0.022453955,0.194122503,0.015042233,0.026881719,-0.312988603,-0.084510483,0.028148536,-0.044081682,0.061910162,-0.181642995,0.06537047,-0.123647674,0.094185234,,,,
870.3839994,3399,0.071862193,-0.044335185,-0.026054445,-0.008139448,-0.000507782,0.057180164,-0.028758544,-0.056818972,0.016120732,0.003941533,0.025801038,0.212395788,0.081399515,-0.010206323,0.014668699,0.020988378,,,,
870.3919994,3399,0.07015258,-0.187221503,0.036275421,0.014369939,-0.090794778,0.123013709,-0.053726846,-0.1071018,0.073714823,-0.039680126,-0.004354752,0.175121516,0.066385574,0.034611938,0.073810176,0.066528603,,,,
870.3999994,3400,-0.205532317,0.069450951,-0.030650661,-0.051701853,0.013794659,0.04871563,0.082595212,-0.078408359,0.067106428,0.073909983,-0.002180619,-0.082713439,0.211479174,-0.068868905,0.005379113,-0.018255952,,,,
870.4079994,3400,-0.181758128,-0.032207091,-0.181921116,-0.155880331,-0.079845843,0.108708353,-0.104635513,0.083670201,-0.075193451,0.046170843,0.131393923,-0.114610951,0.092726323,-0.126027263,-0.050396622,-0.156942993,,,,
870.4159994,3400,0.008357584,-0.232214073,-0.160971519,-0.126192165,-0.053114984,0.207153433,-0.074659663,-0.008756212,-0.121039429,0.013583868,0.319149433,0.008074963,-0.034147913,0.025633087,-0.03207154,-0.079648698,,,,
870.4239994,3400,-0.127275099,-0.107391015,0.023724465,-0.036951096,0.076887227,-0.012437951,0.082431925,-0.000614917,0.036803745,0.08853382,0.465989917,0.016587289,0.092800757,-0.03840747,0.192554067,-0.182260101,,,,
870.4319994,3400,0.012415171,-0.178744711,0.08531151,-0.032217267,0.047561665,-0.029997992,0.112834519,0.065649606,0.128135103,-0.095630008,0.101393747,-0.046723296,0.014151726,-0.153968337,0.19900112,-0.090244882,,,,
870.4399994,3400,0.076636619,-0.169826895,0.129394281,-0.053039061,-0.099713363,0.003026596,0.169209796,0.081128581,0.086367221,-0.006915639,-0.07431232,-0.219387996,0.001281422,-0.021503401,-0.053421985,0.06779735,,,,
870.4479994,3400,-0.085557208,0.010738762,0.094702763,0.062777228,-0.1640754,-0.150562274,0.103069634,0.272291715,0.092333004,0.098016103,0.101765472,-0.132545671,0.033295515,-0.090408991,-0.201436283,-0.109102358,,,,
870.4559994,3400,0.010262406,0.022006534,-0.176473761,0.18181297,0.010602176,-0.041718407,-0.011631846,0.195060686,0.013938701,-0.145878863,0.036763144,0.060447453,-0.12875866,-0.189260934,-0.059737677,-0.041847532,,,,
870.4639994,3400,0.075639019,0.195520472,-0.171052797,0.168870056,0.056504807,0.086945496,-0.095722151,-0.000808184,-0.014033481,-0.023028666,0.169235781,-0.036230853,0.055738221,0.113311194,0.102163466,-0.010354218,,,,
870.4719994,3400,0.080371125,0.162718041,0.224585439,0.161357337,0.037143078,-0.030911742,-0.000376247,-0.048315001,0.097690345,0.125444224,0.118148108,0.059548402,0.194908567,0.228197891,-0.100817898,-0.050464036,,,,
870.4799994,3400,0.037882746,-0.031302423,0.159298128,-0.077467767,0.053436103,-0.105810008,0.130408965,0.006545821,0.093447772,-0.011002355,-0.019957706,0.079206392,-0.118947838,-0.021110194,-0.180163529,0.024366179,,,,
870.4879994,3400,-0.059463113,-0.045950725,-0.25991838,-0.149908277,-0.054706708,-0.022897071,0.007705036,0.129102391,0.069190879,-0.144692393,0.059604228,-0.027815818,-0.173516277,-0.013974995,-0.061744217,-0.007031505,,,,
870.4959994,3400,-0.04851348,-0.237857776,-0.115980546,-0.054070879,-0.078231991,0.018671582,-0.064291228,-0.192123147,0.143847955,-0.153567077,-0.150108943,0.201028034,0.048358953,0.062647607,-0.091446396,0.018631939,,,,
870.5039994,3400,0.080386196,-0.1496915,0.04822933,-0.221505903,-0.084481049,-0.013303809,0.181725661,-0.37901527,0.096127509,0.010022499,-0.095178915,0.210295041,0.055252944,-0.070591145,-0.047904757,-0.011703027,,,,
870.5119994,3400,0.151106773,-0.014224213,-0.038592803,-0.156903161,-0.035638697,9.91E-05,0.231500788,-0.141896967,-0.021842049,0.135882796,0.236186735,0.173359852,-0.046379509,-0.144094594,0.046852008,0.048688612,,,,
870.5199994,3400,0.065629655,-0.137392989,0.094485209,0.001760233,0.076455741,0.059917644,-0.009760223,-0.052743998,-0.068437044,0.075340985,0.2465194,0.206697294,-0.054748432,-0.020497376,-0.042717795,0.098350312,,,,
870.5279994,3400,-0.0010779,-0.002601861,0.011396644,0.117619075,-0.086482404,-0.010919313,-0.043103978,0.088915877,-0.102526559,-0.034240927,0.105360901,0.010145577,0.055448959,0.074977554,-0.145147935,-0.009179694,,,,
870.5359994,3400,0.028374649,0.052748299,-0.079519071,0.079126164,-0.240545866,-0.145267258,-0.081680993,0.073733405,-0.141953199,0.052689736,0.139372282,0.075912826,0.161252938,-0.07069936,0.026961331,0.088004104,,,,
870.5439994,3400,-0.044506687,0.133097475,-0.037935023,0.008428988,-0.007195398,-0.016879436,-0.103235889,-0.056829782,-0.168496958,0.137123014,0.115625129,0.125743533,-0.020257309,-0.01383878,0.044062082,0.115581496,,,,
870.5519994,3400,-0.209779545,0.13786387,-0.092671378,0.125727842,0.06100578,0.076300192,0.043533829,0.032792616,-0.092041337,0.090156824,-0.146344499,0.049955208,-0.099322118,0.074682605,-0.179210412,-0.037168144,,,,
870.5599994,3400,-0.000498136,-0.090842381,-0.02024316,-0.130252418,-0.190814295,-0.00426125,0.065675747,0.062766579,-0.02498714,-0.032880072,-0.073074853,0.094404984,-0.079623119,-0.01524588,-0.098970036,-0.038382918,,,,
870.5679994,3400,0.225170948,0.050218713,-0.048169409,-0.160168193,-0.27317768,-0.043099765,-0.084450042,0.06853523,0.157671716,-0.119573753,0.061911352,-0.012850149,-0.125135796,-0.069645648,-0.018448079,-0.030092605,,,,
870.5759994,3400,0.014287857,-0.008159213,-0.123582416,0.095618369,-0.209072498,-0.042077819,-0.15399134,0.076458867,0.220798312,0.06593934,-0.112732919,-0.074978038,-0.015506323,-0.173820067,-0.134623376,-0.101304867,,,,
870.5839994,3400,-0.008744088,-0.234113676,-0.075736202,-0.092154908,-0.056164146,0.046231667,-0.018909936,0.039478997,0.021390835,0.208279614,-0.188379102,-0.069498655,-0.196811826,-0.0172601,-0.176016776,-0.00446072,,,,
870.5919994,3400,0.087545058,-0.088318915,-0.087901614,-0.002066229,0.055374256,0.036394539,-0.028662881,0.005447739,0.036945924,0.122735787,-0.100377864,-0.05197218,-0.189382067,-0.007848224,-0.110827797,-0.005374809,,,,
870.5999994,3400,-0.016415232,-0.000796497,-0.124902964,0.273578026,0.020847929,0.034252772,-0.067465809,0.033285167,-0.051268115,0.087464412,0.084208869,-0.053084167,-0.018105568,-0.006162138,-0.126586517,-0.063105286,,,,
870.6079994,3400,0.049612669,0.022564044,0.049790061,0.117053809,-0.027963643,0.023859429,-0.040834398,0.03320199,-0.096035196,0.105223134,0.046784079,-0.04990035,-0.200021192,0.123653575,-0.161311769,0.114876184,,,,
870.6159994,3400,0.101933184,0.016169748,0.18454904,-0.027147904,0.020094266,-0.119402291,-0.141917802,-0.057110565,0.006867002,0.005416311,-0.116128953,0.114158788,0.016899861,-0.064336277,-0.051882678,0.06073652,,,,
870.6239994,3400,0.019829996,0.071626686,-0.034686053,-0.200441707,0.023826568,-0.002885108,0.00584463,0.046798631,0.039068658,-0.003930235,-0.017196088,0.113534382,0.155380617,0.103164149,-0.021560724,0.009293605,,,,
870.6319994,3400,0.106368171,0.096302708,-0.124050099,-0.183796121,-0.087382449,-0.001315655,0.046807043,0.043220459,0.263703704,0.174546631,0.056241957,0.124681616,-0.087365545,0.125764228,0.020169543,0.181020782,,,,
870.6399994,3400,0.153358774,-0.042698763,-0.015363575,0.182487917,0.0389789,-0.15702405,-0.162780991,-0.0455323,0.227807764,0.197977577,0.085929002,0.073110326,-0.057045798,-0.040476391,0.055615005,0.01703429,,,,
870.6479994,3400,0.008058483,0.024808452,0.152049444,0.138246417,-0.01536344,0.029201761,-0.117765965,0.069986711,0.084950619,0.105487213,0.04163903,-0.138395106,-0.004418743,0.028621957,0.074218258,-0.059218145,,,,
870.6559994,3401,-0.051531053,0.138992728,0.266442162,0.064116937,-0.090517119,0.044627982,-0.123554827,-0.072347547,0.123456148,0.061576001,-0.040160153,0.080721856,-0.005060377,-0.12728029,0.06988171,0.170317614,,,,
870.6639994,3401,0.124310979,0.15083312,0.014032828,0.098023818,0.063464819,-0.140472473,-0.050247802,-0.196279103,0.018283701,-0.008286114,0.025807418,0.227901454,-0.050976816,0.089552053,-0.136776543,-0.02113859,,,,
870.6719994,3401,0.189719765,0.038970761,-0.121142915,-0.112336702,-0.14031622,-0.143499868,0.087966418,0.0562289,-0.08660025,-0.012009981,-0.044488996,0.112480274,-0.191660516,0.338624467,-0.030736553,-0.212128753,,,,
870.6799994,3401,-0.055955687,-0.095197403,0.016840221,-0.083760245,-0.104730581,-0.042916583,-0.002913307,0.072686375,-0.092751943,-0.031461459,0.056002509,0.133898354,-0.121614001,0.02866294,0.17095663,-0.14101362,,,,
870.6879994,3401,-0.056913049,0.019628131,0.102336173,-0.062163696,0.10021831,0.012910796,0.046622816,-0.128808831,0.049768834,-0.125849112,0.110649257,-0.040774702,0.067177173,-0.21694985,0.015440978,-0.066960609,,,,
870.6959994,3401,0.090338447,0.001169511,0.165428782,0.00175738,0.021284876,-0.057098578,0.091877788,0.030440352,0.131239268,-0.087388655,-0.074838734,-0.072573422,0.114789701,-0.162972616,0.073272088,0.168756465,,,,
870.7039994,3401,0.047962567,-0.065196385,0.107173236,0.112221556,-0.023810186,-0.045077539,-0.016928899,0.162194789,0.136359255,0.009320816,0.008710483,0.162239351,0.068955999,0.041127385,0.155022346,0.051091736,,,,
870.7119994,3401,0.094085968,0.041642531,-0.035786719,-0.06520368,0.031238805,-0.082520852,-0.01032196,-0.068258445,0.060796779,-0.006761291,-0.029146588,-0.015604828,-0.004354911,0.143486874,-0.080887288,0.018853725,,,,
870.7199994,3401,0.048692653,0.000488152,-0.048125318,0.102393277,0.076865713,-0.107919362,0.039659242,-0.055981467,-0.161827137,-0.134239338,-0.022181866,-0.140280012,-0.065671815,-0.001129213,-0.084677369,0.147739539,,,,
870.7279994,3401,0.032159636,-0.006436145,0.049828948,0.175896964,0.074426437,-0.012273823,-0.009504633,0.076095692,0.034618648,-0.131728388,0.094742348,0.006857499,0.036392086,-0.046930541,-0.012334872,-0.066711347,,,,
870.7359994,3401,0.111176194,-0.06114582,0.027140413,-0.100746424,0.170358371,-0.020776032,0.031373469,0.011961397,0.222233304,-0.087718357,0.010302133,-0.137186636,0.109733243,0.072759031,-0.120053523,0.069121736,,,,
870.7439994,3401,0.006102634,-0.197607317,-0.096537847,-0.237372303,0.026691656,0.028544446,0.183920268,0.07163925,0.015154484,-0.108734805,-0.07055984,-0.090246272,-0.000894567,-0.069585303,0.128089633,0.158119308,,,,
870.7519994,3401,-0.118258319,-0.063072103,-0.03494616,-0.29696283,-0.091459633,0.03952534,0.178546451,0.050481751,-0.021634363,-0.004605617,-0.04891482,0.007833895,0.040396368,-0.049846517,0.208921613,-0.024936281,,,,
870.7599994,3401,-0.143472437,-0.015990139,0.103209723,0.054605621,0.096319688,0.101628287,-0.042559613,-0.007597396,-0.06101303,-0.077865552,0.156627265,-0.181782531,0.14638862,0.135114555,-0.140880537,0.02661442,,,,
870.7679994,3401,-0.109219239,-0.091480698,0.106518899,0.291663507,0.103832258,0.163953385,-0.235003657,0.076700007,-0.123283626,-0.134758432,0.155734048,-0.060968046,0.186604188,0.000528,-0.168961913,0.107547522,,,,
870.7759994,3401,-0.12553953,0.033632853,0.052151248,0.116343204,0.078715446,0.027644897,-0.05493712,-0.018582598,-0.090852772,0.03139413,0.036835232,0.045467534,0.141982218,-0.104922516,-0.049576913,0.084437303,,,,
870.7839994,3401,-0.056773104,0.160010283,9.01E-05,0.03821347,0.015208608,-0.043209343,0.173598403,-0.068900592,-0.063046124,0.054760322,0.015166416,0.020215651,-0.005906044,-0.186741128,-0.01137973,0.118861629,,,,
870.7919994,3401,0.085659132,0.095280413,-0.036268719,-0.037155392,-0.086414673,-0.086183212,0.041579084,0.057980925,0.186018939,-0.048078283,0.028161052,0.091435795,0.075690551,-0.157110638,-0.052396897,0.141824326,,,,
870.7999994,3401,0.010401539,-0.079212903,-0.102657852,0.001437672,0.072247807,0.041514628,-0.071121991,-0.011163925,0.139101799,-0.128397884,0.227424933,0.143136165,0.169628892,-0.045123535,-0.080744446,-0.088743543,,,,
870.8079994,3401,-0.102986844,-0.033662986,0.022560729,-0.11140888,0.069458468,0.094937656,-0.134780859,-0.116833668,-0.162294073,-0.042596381,0.189263715,0.193956537,0.060058211,-0.001261321,-0.100752527,-0.106788238,,,,
870.8159994,3401,-0.034594878,0.075313281,0.133082174,-0.271054804,-0.087197311,0.078034297,-0.262262686,-0.117352754,-0.08384088,0.030164434,0.059080203,-0.05841456,-0.050966656,0.022624519,-0.117566772,0.061764044,,,,
870.8239994,3401,-0.061357882,0.006278251,-0.100277918,-0.026891425,0.187281548,0.229067307,-0.056311463,-0.076445566,-0.135904576,-0.067741421,0.115141561,-0.107709177,-0.165378895,-0.063266428,-0.003810838,-0.092652304,,,,
870.8319994,3401,-0.10375638,0.028381737,-0.030448179,-0.026673353,0.176615307,0.042401981,0.235491596,0.086008996,-0.10922763,-0.114468375,0.131005315,0.11220453,-0.155171528,0.02836497,-0.112014158,-0.147295364,,,,
870.8399994,3401,-0.014743876,0.02132546,0.164828866,-0.181197079,-0.169153561,-0.070319986,0.134132119,-0.029579855,0.029203714,-0.067905015,0.156491232,-0.056165201,-0.009902739,0.131184804,-0.079440055,-0.032191028,,,,
870.8479994,3401,0.0290728,0.019340765,0.111725241,-0.093660518,0.088680724,-0.084125891,0.058506669,-0.171768582,-0.12762909,0.026009691,-0.014078817,-0.036421019,0.043366063,0.077661654,0.177176842,0.065592634,,,,
870.8559994,3401,0.071820293,0.096778674,0.173977302,-0.010563805,0.175235239,-0.190739914,0.113805437,0.073696079,-0.029457747,0.029371564,0.015635606,0.084812854,0.050407191,-0.061519827,0.063029232,0.101948302,,,,
870.8639994,3401,-0.013969312,-0.080114988,0.179615313,0.126208261,-0.119416337,0.013120229,0.053729994,0.100197696,0.004635952,-0.088937935,0.284891415,-0.043359431,0.111994409,-0.143120988,-0.025076994,-0.062107308,,,,
870.8719994,3401,-0.022249015,-0.078337532,-0.029544609,0.136085138,-0.036119072,0.003963036,0.12789351,-0.067882521,-0.061646037,0.057774886,0.132149941,-0.018812679,0.045357691,-0.004577698,0.109439909,0.008604669,,,,
870.8799994,3401,0.112601509,0.208708418,-0.220832799,0.005019738,0.123011034,-0.036175779,0.181508083,-0.031505463,0.081680416,0.089062079,-0.004222888,0.049935528,0.018106346,-0.069022052,0.121286789,0.046531163,,,,
870.8879994,3401,0.028533059,0.217706911,-0.084485775,0.066722575,0.029727098,0.070385908,0.078190631,0.024009003,0.084328462,-0.181343553,-0.109906559,0.049240426,0.107158144,-0.042020934,0.074941639,-0.137396092,,,,
870.8959994,3401,-0.06191584,0.135655972,0.106193196,0.09347592,-0.037662969,-0.031001923,0.012899311,-0.09426098,0.069232085,-0.092044694,-0.140813437,-0.02407327,-0.102296158,0.118900503,0.160230575,0.090583308,,,,
870.9039994,3401,0.07882381,0.061490805,0.067870977,-0.00207921,0.178757949,0.015424775,0.016737958,-0.00399337,-0.033801963,-0.109256529,0.179605116,-0.014017929,-0.235505715,-0.078858888,0.20221877,0.164644881,,,,
870.9119994,3402,0.122869462,0.00492742,0.004834903,0.058001199,0.183525247,0.024526598,0.028717204,0.147896603,-0.172494435,-0.169488277,0.211118045,0.042182469,0.02681674,-0.095619317,-0.000627667,-0.083763814,,,,
870.9199994,3402,-0.015562655,-0.00696272,-0.045366798,0.149140178,-0.094794726,0.010432933,-0.126992591,0.021971722,-0.059693177,-2.30E-06,0.156735317,-0.045938223,0.176005083,0.025775198,-0.036221839,-0.146486889,,,,
870.9279994,3402,0.141733792,-0.093773604,0.076689317,0.13363206,-0.076212751,0.001165839,-0.106514011,0.104739158,0.045561316,-0.009597671,0.253735248,0.017314486,0.044476474,-0.050943856,0.02755328,-0.102782163,,,,
870.9359994,3402,0.212853356,-0.083604275,0.139315756,0.06806705,0.078745461,-0.146493758,0.059404852,0.017592215,-0.060261263,0.118295224,0.088285219,0.039841576,0.005995333,0.061908472,-0.11501666,0.067724976,,,,
870.9439994,3402,0.0503664,0.025406327,-0.01868822,0.06358402,0.172461511,-0.116597709,0.034595867,-0.156681884,-0.131097686,0.066218206,-0.007399804,-0.000148895,0.207704969,0.223362515,-0.038940921,0.019163779,,,,
870.9519994,3402,0.21580022,0.112898952,-0.078030554,0.012963225,0.121362933,-0.116025232,0.140521488,0.075472153,0.029576528,-0.063668131,0.074322991,-0.008256912,0.191898315,0.028459451,0.045474823,-0.185748323,,,,
870.9599994,3402,0.15021852,0.007849571,-0.058798344,-0.061448028,0.032010709,0.009105146,0.061169932,0.199811736,0.16112562,0.189072888,-0.094775125,-0.230547556,0.04836836,-0.092590717,-0.081305855,-0.024096373,,,,
870.9679994,3402,-0.076414096,-0.073737753,-0.012865167,0.03343315,0.135870368,0.129654312,-0.163329893,0.077672995,0.056109946,0.148919484,-0.157514188,-0.162786136,0.1102639,0.11964323,-0.083675059,0.235218436,,,,
870.9759994,3402,0.043829985,-0.020681645,-0.137438896,0.052913885,0.064682977,-0.025249872,-0.080581027,-0.119996505,-0.120030491,-0.046578788,0.047703493,-0.023186479,0.032090304,0.117132623,-0.056561748,0.195723242,,,,
870.9839994,3402,-0.049470565,-0.082285524,-0.154817386,-0.059039045,-0.066545744,-0.14805235,-0.000880304,-0.0693919,-0.189368681,0.076360661,0.087245339,-0.11743937,-0.078220648,0.004055279,-0.163759458,0.0698276,,,,
870.9919994,3402,-0.106098353,0.0322646,0.081735008,-0.186772941,-0.037236715,-0.246092139,0.057121821,0.075609473,-0.094676759,0.101453777,0.1101462,0.033399595,-0.101967831,0.003082447,-0.100750453,0.16175935,,,,
870.9999994,3402,0.008228803,0.050421549,0.018859344,-0.056447998,0.028481398,0.158242094,0.076260283,0.013622383,0.106015623,0.053427667,0.12196005,0.155035815,-0.026387575,-0.044614091,0.076851966,0.128349123,,,,
871.0079994,3402,-0.089794047,-0.132602158,-0.007454363,0.146910787,0.206413647,0.450910135,0.043764805,-0.045310013,0.171958313,0.068439116,0.068390272,0.160247846,0.177431682,0.025079216,-0.016543287,-0.011769676,,,,
871.0159994,3402,-0.049586923,0.026608691,0.059164597,0.100743936,0.17093269,0.062158579,0.032278707,0.008003827,-0.014389418,-0.036515695,0.098313293,0.161877883,0.009780167,0.079282731,-0.036157468,0.102356281,,,,
871.0239994,3402,-0.071057356,0.006775008,-0.114019653,0.180869157,0.017599253,-0.107868383,-0.13399867,0.047381496,-0.142100486,0.007496118,0.058494593,0.01685028,-0.104798259,-0.026170899,-0.114701838,0.012864564,,,,
871.0319994,3402,-0.121779196,-0.265350867,-0.117071691,0.089315325,-0.039036142,-0.195555953,-0.205662646,-0.027323245,-0.036863334,0.070282663,-0.042988144,-0.009857438,0.081208424,-0.055329397,-0.131198496,-0.10198612,,,,
871.0399994,3402,0.040416365,-0.096734067,-0.030927802,-0.00653528,-0.074928648,-0.145490041,-0.10101815,0.071060154,-0.013630074,-0.005905964,-0.150727893,0.061914602,0.024125247,-0.092598448,0.068539681,0.040175769,,,,
871.0479994,3402,-0.022187587,0.12546813,-0.041808947,0.124128553,0.018032869,0.142252171,-0.044706785,-0.012608756,-0.039305399,0.039429175,-0.133768926,-0.213784571,-0.071230725,-0.04501758,0.045996655,-0.063118922,,,,
871.0559994,3402,-0.033642438,-0.009164172,-0.019628851,-0.073111376,-0.049220118,0.122721775,0.022856692,-0.173487756,-0.046102356,0.070164513,-0.024747274,-0.256267552,0.014819292,0.185709155,0.096947504,-0.122797219,,,,
871.0639994,3402,0.171124317,-0.067142597,-0.13300346,-0.064874284,-0.065089397,-0.022308829,0.044529264,0.034307873,-0.086729771,0.044922121,-0.103370002,0.026365811,0.047356639,0.1046092,-0.093460159,0.065327113,,,,
871.0719994,3402,0.084058318,0.030296554,-0.108375733,0.047938707,-0.000506064,0.019593578,-0.097930458,-0.020479807,0.121101765,-0.147721415,0.004696682,-0.05193934,-0.194186866,-0.006115234,-0.217904206,0.180561685,,,,
871.0799994,3402,-0.068255471,0.064777969,0.032813627,-0.121833658,-0.080888374,0.083047361,-0.230549727,-0.065520515,0.191287792,-0.252165349,0.193329616,0.231239368,-0.191636148,-0.008777367,0.019994461,0.08301397,,,,
871.0879994,3402,-0.042876072,0.066706958,-0.120679476,-0.104860996,-0.037482459,-0.001182052,-0.081066278,-0.026891751,0.058233305,-0.012963558,0.040586588,0.415161339,0.105980459,-0.180574823,0.118061136,-0.031338195,,,,
871.0959994,3402,0.00301751,-0.053052413,-0.140309834,-0.119405016,-0.065264585,0.0025041,0.093485374,-0.174108887,0.17500501,0.00671395,0.053947036,0.026408878,-0.001021762,-0.000155509,0.191838092,-0.007526858,,,,
871.1039994,3402,0.129800084,-0.118654361,0.046952596,-0.104005473,0.042908404,-0.042701042,-0.011252559,0.072320326,0.054899812,-0.033133474,0.206539436,0.065544934,-0.196317769,0.046726627,-0.064141235,-0.049325381,,,,
871.1119994,3402,0.138777794,-0.038847579,0.050795838,0.126784847,0.129654039,-0.156283273,-0.077341988,0.169053088,-0.158560666,0.143635132,0.114058149,0.012758891,-0.172744495,-0.208907641,-0.042330496,0.017978213,,,,
871.1199994,3402,0.0352786,-0.068879684,-0.05955328,0.10020225,-0.143594392,-0.027213194,0.117462855,-0.066672915,0.118671371,0.145726334,-0.112051776,-0.143407293,-0.058465329,-0.020022913,0.302707372,0.049007793,,,,
871.1279994,3402,-0.073491239,-0.111670901,0.028209272,-0.107069686,-0.011738474,0.136812801,0.105816967,0.061488507,0.090058936,-0.10977755,-0.015633492,0.10016094,0.084515938,-0.040356351,0.140632134,0.061316494,,,,
871.1359994,3402,-0.047967692,-0.033274453,0.122652192,-0.017327928,0.223542713,0.11067422,-0.1076231,0.026616828,-0.158600404,-0.20398306,0.143089891,0.184828882,0.164809534,-0.267492147,0.08953868,0.192587685,,,,
871.1439994,3402,0.010117837,0.126228361,-0.074555613,-0.056334587,-0.022988482,-0.064793083,0.071984239,-0.064395375,0.128483238,-0.030280114,-0.229399484,-0.002055861,0.172249956,0.010956587,-0.025197763,0.060848657,,,,
871.1519994,3402,-0.155247938,0.151815245,-0.102355942,-0.109987152,-0.019761102,-0.003158016,0.121431397,0.178884692,0.050792808,0.005156861,-0.253789251,-0.113864813,0.009082461,0.237915166,-0.191539525,-0.064966006,,,,
871.1599994,3402,0.061436604,0.069017145,-0.100111318,0.112737805,0.157321854,0.115781594,-0.024904315,0.132374686,-0.103798942,-0.017237176,0.025359049,-0.007794423,-0.032813847,0.178972861,0.167188008,-0.082019737,,,,
871.1679994,3403,0.167238157,0.035435716,-0.114901141,-0.013864599,-0.021066179,0.004783255,-0.006004519,-0.126584499,0.185574742,-0.034025845,-0.04086866,-0.038956225,0.067368534,0.11283556,0.231096021,-0.09962313,,,,
871.1759994,3403,-0.112866087,-0.026535668,0.14346532,-0.050492145,-0.115570825,0.168805645,-0.149514658,-0.285302726,0.067870563,-0.154128922,-0.030104562,-0.082214359,0.027190192,0.033348965,0.16669642,-0.001347058,,,,
871.1839994,3403,0.047623463,0.01739537,0.055397936,0.025491132,-0.093300989,0.297800526,-0.055182367,-0.159871194,0.005717467,-0.078657769,-0.014221423,-0.022765957,0.020803363,0.006622145,0.23705254,0.007683892,,,,
871.1919994,3403,0.093515993,0.001701645,-0.09726749,-0.007872572,-0.126713134,0.100034798,0.11237272,0.022569958,0.057773228,0.126803841,0.0010455,-0.045612338,0.085814192,-0.076903272,-0.055746374,-0.013701335,,,,
871.1999994,3403,-0.035673393,-0.009134046,0.186139572,0.005148952,-0.017661808,0.015259081,-0.035012294,-0.11276025,-0.047786049,0.091926025,0.055927759,-0.043838281,0.02414992,-0.1271419,-0.145862759,-0.015838412,,,,
871.2079994,3403,0.006497113,0.09644257,0.14033258,-0.11907198,0.023289356,-0.027085371,-0.128029735,-0.161626919,0.139393046,-0.011683486,-0.022285643,-0.17977073,-0.056766737,-0.095786904,-0.004572705,-0.11389779,,,,
871.2159994,3403,-0.076819783,-0.03336949,-0.061944282,-0.016518976,0.045229076,-0.015754798,-0.041199481,-0.112650594,0.126711735,0.069730509,-0.051496747,-0.111725638,0.149311868,-0.059456802,0.043561056,0.021146765,,,,
871.2239994,3403,-0.0025394,-0.004468342,0.110653136,0.022826282,0.106326364,0.006736757,0.055967032,-0.024849355,-0.178495039,0.033707424,-0.006558254,0.024787492,0.167683944,0.099145379,0.027049352,0.168408848,,,,
871.2319994,3403,0.044619813,0.117967553,-0.014110862,-0.157433517,-0.042177159,-0.069647328,-0.006528757,0.030410181,-0.135965756,-0.110461845,-0.038978801,-0.139657038,-0.021436235,0.091758853,-0.098445234,0.005368427,,,,
871.2399994,3403,-0.214637297,-0.035478042,-0.226403089,-0.211557301,-0.253047833,-0.145511746,-0.071356711,-0.011788835,0.008708251,-0.012632816,-0.047077698,-0.094709382,0.067200018,-0.062566556,-0.137143841,-0.039291774,,,,
871.2479994,3403,-0.163483398,-0.049051679,-0.126078998,-0.124436758,-0.219511727,-0.128383622,-0.172169777,0.178936964,0.025527772,0.056404156,0.007990499,0.05899367,0.065713342,-0.117473117,-0.068722125,-0.116799503,,,,
871.2559994,3403,0.028653604,0.01128792,-0.092429462,-0.030759041,0.12146054,0.177054262,-0.271737941,0.114209558,0.093357322,-0.008376683,0.04009976,0.014922737,-0.00298594,-0.037437369,0.070350559,-0.166262885,,,,
871.2639994,3403,0.047546698,-0.064714913,-0.01054851,-0.101918437,0.122228812,0.139297248,-0.261221171,-0.049143449,-0.159355678,-0.070677513,0.092709682,0.029470846,0.023653498,0.001069056,0.087387012,0.079338683,,,,
871.2719994,3403,0.078465813,0.118648995,-0.001886928,-0.031273852,-0.065221975,-0.214183002,-0.122964873,0.133671951,-0.213794096,-0.103982896,0.037135378,0.070568081,-0.043318062,-0.154494309,-0.048914263,-0.011534334,,,,
871.2799994,3403,-0.164331995,0.406806017,-0.058592591,0.048786726,0.05474248,-0.090632257,-0.015111474,0.029165291,0.152516136,0.072378461,-0.040058239,-0.05434085,-0.057857253,-0.030852146,0.044871118,-0.207105454,,,,
871.2879994,3403,-0.12152181,0.122464942,-0.043524106,-0.03226881,-0.029118312,0.043216456,-0.1167206,-0.052186258,0.03922441,0.112357918,0.013671679,-0.064208162,0.078541662,0.092047154,0.044852094,0.046737405,,,,
871.2959994,3403,0.143091948,-0.189839456,-0.094328645,-0.05739555,-0.086529172,0.06619076,-0.01488128,0.025244158,0.079137331,0.00352341,0.1505988,0.010681997,0.048035896,-0.083657717,-0.070426432,0.116102148,,,,
871.3039994,3403,-0.095987451,0.00074502,-0.176559142,-0.090585428,-0.021636718,0.17896349,0.103903847,0.019246231,0.320451921,-0.043039453,0.118423147,-0.04542527,0.013906056,0.006000968,0.052551426,-0.063274211,,,,
871.3119994,3403,-0.138385074,0.15948473,-0.150052807,0.042101372,-0.032783589,0.11291665,0.011882919,0.075911579,0.026235457,-0.105088544,-0.180108808,-0.019432667,0.116630432,0.134279305,-0.142322851,-0.002457889,,,,
871.3199994,3403,0.019664737,0.063638401,0.193240335,0.089793605,0.075723204,-0.01215166,0.027436586,-0.053753664,-0.050397472,0.075789579,-0.049026372,0.167116366,-0.02687989,0.024771116,-0.196057419,-0.055951347,,,,
871.3279994,3403,0.066773107,-3.26E-05,0.183298128,-0.088412337,0.104121337,-0.061675968,0.198445234,0.007127957,0.069470166,0.162058562,0.032135545,0.200946252,0.015907162,-0.116353129,0.147122562,-0.162091903,,,,
871.3359994,3403,0.04832201,0.164436913,-0.07194707,-0.047185032,-0.045498937,-0.053974776,0.161722079,0.056228322,0.051440514,0.065018146,-0.195864133,0.031834706,0.111905903,-0.116394235,0.149897542,-0.072584114,,,,
871.3439994,3403,-0.00331629,0.055655718,0.027528033,-0.077463656,-0.04815116,-0.082079068,-0.176249747,-0.006901826,0.115074949,0.035269885,0.050537339,0.017310048,-0.066677231,0.111778523,0.175701831,-0.034491441,,,,
871.3519994,3403,0.146726695,-0.247287977,-0.042197305,-0.188339165,0.125184852,-0.020999472,-0.195601134,0.065833014,-0.099501393,-0.128841806,0.100969779,0.084868419,0.006700537,0.206744323,0.028330422,-0.047885123,,,,
871.3599994,3403,0.052055914,-0.104882517,0.028534203,-0.080339557,0.034258735,0.059019397,0.041611195,-0.197756832,-0.090999457,-0.12643413,0.033296371,-0.009227985,-0.028874618,0.05584175,-0.221054078,-0.124511796,,,,
871.3679994,3403,-0.114491252,0.089205188,0.091139765,0.011381786,-0.134368694,-0.115943704,0.191922974,-0.057917395,0.10176223,0.137485873,0.097602298,-0.158291813,-0.06909284,0.030922207,-0.070912306,0.036571628,,,,
871.3759994,3403,-0.018864726,0.149012185,-0.060810057,-0.017246888,-0.133708633,-0.127124714,0.074846144,0.200040909,-0.040792722,0.037161265,-0.099240007,-0.020984136,0.133330353,0.055773559,0.056480189,0.027237408,,,,
871.3839994,3403,-0.095392216,0.207893367,0.062014532,-0.067737169,-0.170428058,-0.057258056,-0.210091482,0.054006491,-0.009422731,-0.286801642,-0.06047087,0.138051958,-0.017376428,-0.012658682,0.090999664,-0.208084078,,,,
871.3919994,3403,-0.177645925,0.047630841,0.185808568,-0.016101647,-0.151362809,-0.116531194,-0.118030804,0.261073802,0.023224385,-0.026032666,0.055766724,0.007084259,-0.139311591,-0.011252748,-0.03779191,0.064404598,,,,
871.3999994,3403,0.045817307,-0.050252675,0.13775048,-0.064108787,0.045939475,-0.046516693,-0.012771528,0.339555687,0.075412622,0.313176291,-0.005545117,-0.004789578,-0.016551065,-0.062340478,0.043262365,0.120476629,,,,
871.4079994,3403,0.124152023,0.009584433,-0.067383305,-0.08518631,0.101661366,-0.07188888,-0.088070237,0.216135367,0.148832904,0.011818973,0.040955029,-0.110208718,0.040651055,-0.15527523,0.299010575,0.032274467,,,,
871.4159994,3403,-0.088730282,-0.047869139,-0.007962502,0.073150009,-0.045417986,-0.098376857,0.020807213,0.06642111,0.012327429,-0.191122333,0.1819357,-0.166493997,0.059998155,-0.157017301,0.101759382,0.095739694,,,,
871.4239994,3404,-0.05392299,0.103982942,0.127744882,-0.035901973,-0.021250403,0.091698024,0.052538335,-0.194823597,-0.026157419,-0.069092177,0.211389175,0.061571872,-0.023190422,-0.096579648,0.050079638,-0.005374172,,,,
871.4319994,3404,0.000991646,0.304707621,0.123090219,-0.14032324,-0.029412642,0.12464026,-0.099210509,-0.133891667,-0.018206562,-0.064148372,0.210063353,0.032781428,-0.08197525,-0.097372889,0.178224705,0.029617309,,,,
871.4399994,3404,-0.054525583,0.089537207,0.214184879,-0.00398479,-0.047007623,-0.091898572,0.008108414,0.125182791,-0.077578442,0.103287838,0.250753475,0.041907597,-0.032477876,-0.108687574,0.028987441,0.001436679,,,,
871.4479994,3404,0.091394852,-0.103305953,-0.010969465,0.023192079,0.01654967,-0.056405531,0.166130728,0.209994042,0.017850546,0.196763513,0.099997945,0.12602176,0.091553708,-0.037407696,0.063455631,-0.025953879,,,,
871.4559994,3404,0.119153711,-0.033989877,-0.105068033,-0.039664683,-0.059467158,0.13488808,-0.054313672,0.029322682,0.105264332,-0.066942358,0.003257936,0.00503082,0.223758156,-0.066653113,0.223485224,-0.039554775,,,,
871.4639994,3404,0.040653156,-0.007558273,0.046644765,-0.047541209,0.090303604,0.014488397,0.003087542,-0.117516808,0.05770183,-0.044238968,0.100911418,-0.017901866,0.241209147,0.049033807,0.12131442,0.012744494,,,,
871.4719994,3404,-0.025191492,-0.079850275,-0.019272809,-0.042333269,0.164007512,-0.170364409,0.099046593,-0.072712129,0.19366421,0.041860615,0.139390939,-0.00834162,0.096621003,0.119983807,-0.015826328,0.090688073,,,,
871.4799994,3404,0.000741687,-0.088748425,-0.128761848,-0.059351415,-0.053431951,-0.057740001,-0.234843591,0.000133741,0.0959239,-0.164987048,0.03121504,-0.097361062,0.007264398,0.02838718,0.062060923,-0.15706552,,,,
871.4879994,3404,0.148021774,-0.137549574,-0.183570869,-0.074737613,-0.004563303,0.15932209,-0.195661435,0.090978853,-0.039386562,-0.152842399,-0.039378575,-0.061123162,0.034361965,0.114128421,0.189280506,-0.08224074,,,,
871.4959994,3404,0.09064431,-0.171799573,-0.146755197,-0.09462823,0.030643791,0.115386066,-0.112745754,0.094288646,0.085964996,-0.10792,0.014398813,0.010159582,-0.018805384,0.087310056,0.15440374,0.032544317,,,,
871.5039994,3404,0.077111973,-0.116473663,-0.150270622,-0.075804735,-0.030094821,0.072702337,-0.217395006,0.05804533,0.011727795,-0.163591776,-0.009232593,-0.058351086,0.007962225,0.066986189,0.136726971,-0.112235132,,,,
871.5119994,3404,0.121910066,-0.149705934,-0.163591831,-0.077078104,0.019761869,0.132483085,-0.13582893,0.088442209,0.027419939,-0.115769662,-0.012635301,-0.029943984,0.015288971,0.105859028,0.165453903,-0.014270616,,,,
871.5199994,3404,0.061883438,-0.110811867,-0.090061237,-0.057864071,0.013330354,0.104647787,0.024311872,0.025213953,0.072450858,-0.136604798,0.054208667,0.050378215,-0.033685907,0.084451712,0.089990885,-0.013355279,,,,
871.5279994,3404,0.030672054,-0.039476535,0.09405922,0.014995056,-0.031330964,0.056294761,0.215693264,0.069159631,0.078163364,-0.11516775,0.138480736,0.048330902,-0.021328632,0.092554719,-0.054039862,-0.049484832,,,,
871.5359994,3404,-0.000533617,0.10321513,0.21327846,0.088979029,-0.126770762,-0.060091222,0.019973731,0.196415553,0.050488154,-0.000754005,0.076530201,0.033188929,-0.075263244,0.010167219,-0.150634407,-0.096720406,,,,
871.5439994,3404,0.013338796,0.293014574,0.141075915,0.177906566,-0.097501388,-0.006911948,-0.12077763,-0.075259572,-0.211650151,0.019595511,-0.049184226,0.116262474,-0.097437504,0.040792032,-0.082642117,-0.089686384,,,,
871.5519994,3404,-0.078287798,0.033682606,0.270835402,0.124087888,0.029536453,0.036736314,0.004043669,-0.181049348,-0.253367261,-0.017047783,0.01384687,0.101134765,-0.093353112,0.12977275,0.017350807,0.018060269,,,,
871.5599994,3404,-0.181115693,-0.186218563,0.156959882,0.011330498,0.005663589,-0.009876571,-0.075480294,0.044420913,-0.059695064,0.141083876,-0.068295222,-0.054374318,-0.221934955,0.101432515,-0.009464707,-0.103998949,,,,
871.5679994,3404,-0.219960171,-0.010777936,-0.125560759,-0.071177063,-0.050286385,0.176082131,-0.046005338,-0.064144403,0.066893433,0.134685371,-0.029666573,0.056715995,-0.14388976,0.034757212,-0.062605312,0.000235694,,,,
871.5759994,3404,-0.131183806,-0.014359732,0.103146611,-0.119167952,-0.031120717,0.120328527,-0.081937362,-0.112162642,0.106905908,-0.137710575,0.104271356,0.121721657,0.172846159,-0.051481855,0.086707309,0.155790286,,,,
871.5839994,3404,0.071760726,-0.019369944,0.121759947,-0.001947345,0.083086601,-0.1060983,-0.116029072,-0.056003304,0.016583678,-0.094316299,0.08035496,0.009347319,-0.008271231,0.064676854,0.116916668,0.050017468,,,,
871.5919994,3404,0.03517887,0.005995704,-0.078380908,0.040545175,0.148353462,-0.049435923,0.036962535,0.019905826,-0.015383081,-0.012001265,0.134589511,-0.034490166,-0.195467405,0.139009688,-0.067665192,-0.005901048,,,,
871.5999994,3404,-0.005956863,-0.09749532,0.025440427,-0.021284617,0.022801339,0.044180243,0.002414344,0.113960372,0.046499811,0.025614405,-0.046888258,0.015425735,-0.047372972,0.053650297,-0.053409035,-0.106170832,,,,
871.6079994,3404,0.002777895,-0.074754288,0.18683473,0.008948885,-0.116966352,-0.038888744,0.015718903,-0.034938991,0.108482242,-0.012328221,-0.144785787,0.056188659,-0.156174972,0.095748525,-0.096003597,-0.11037844,,,,
871.6159994,3404,-0.057921068,-0.149750468,0.182141428,-0.083198312,-0.091730818,-0.036363539,0.043051015,-0.030833529,0.13641185,-0.178573554,-0.135225284,-0.175029718,-0.087861752,-0.059142512,0.078021646,-0.083498944,,,,
871.6239994,3404,-0.056506398,-0.142346822,-0.010443521,-0.069254553,-0.063456731,0.118026716,-0.075979509,0.015951274,-0.022317049,-0.065530313,-0.168659389,-0.168393088,-0.07117626,-0.152352565,0.269033108,-0.061335798,,,,
871.6319994,3404,0.043433595,0.116635666,0.034575771,-0.021675829,-0.109218557,0.056342479,0.065883606,-0.021998327,-0.092435599,-0.004179931,0.035520008,0.103033588,-0.105598454,0.070915032,-0.026427513,0.086358777,,,,
871.6399994,3404,0.080461577,0.080278024,0.099378979,-0.137859879,0.016289512,-0.020336523,0.107196463,-0.149828216,0.031836257,-0.04674323,0.060459352,0.016519213,0.239555345,0.041491666,0.009425098,0.057105059,,,,
871.6479994,3404,0.050621867,-0.125047451,-0.199883959,0.18900044,0.054746625,0.020358567,-0.105275795,-0.17123484,0.006069677,-0.044316262,-0.010286818,-0.038675813,0.156728539,0.041020557,0.125964429,-0.108812256,,,,
871.6559994,3404,0.128677512,0.064896044,-0.173211906,0.220148193,-0.109159539,0.105023987,-0.078726425,0.09903952,-0.056305022,-0.099774352,0.004765258,0.14932599,-0.110388204,0.187910766,-0.029218091,-0.126506348,,,,
871.6639994,3404,0.160646791,0.186280106,0.028261817,-0.087297292,-0.078362782,0.149351306,0.08670114,-0.071378489,-0.060919363,-0.088597024,-0.165066188,0.225969238,-0.056575434,-0.050984942,0.015421994,0.035989797,,,,
871.6719994,3404,0.237430242,0.028035066,0.013337565,0.159555203,-0.017571449,0.034549448,0.158780449,-0.307740554,-0.042738202,-0.01207215,-0.226957969,0.167755523,-0.066639522,-0.124424842,0.155494505,0.013053309,,,,
871.6799994,3405,0.257378795,0.061022455,0.049495963,0.144768619,-0.063628694,0.117036597,-0.058460984,-0.117882667,-0.028311279,0.087200021,-0.029147823,0.062467445,-0.04056985,0.07846363,0.051329376,-0.081409863,,,,
871.6879994,3405,0.197453129,-0.138070953,-0.026017411,-0.023411684,-0.074090957,0.105512368,-0.261631124,-0.061407643,-0.015321557,0.034135891,-0.013255459,-0.048860403,-0.013646427,-0.064588278,-0.135886053,-0.08576261,,,,
871.6959994,3405,0.15725213,-0.24462792,-0.002534565,-0.013638984,0.009918357,-0.021813126,-0.155272135,-0.068885942,0.175752215,-0.161845047,-0.046584873,0.044397781,-0.075607786,-0.090280071,-0.034584941,-0.03257557,,,,
871.7039994,3405,0.124541532,-0.116694677,0.051263684,-0.155203647,-0.018973065,0.040505956,0.065515385,-0.076103438,0.194237735,-0.087362995,0.014656336,0.218649974,0.03448603,-0.021513263,-0.093017427,0.220599563,,,,
871.7119994,3405,0.13580371,-0.138256624,-0.058373635,-0.065731635,-0.161957338,-0.013830315,0.138988279,0.006098061,0.003281703,0.165135157,-0.086123674,0.146343382,0.02076128,-0.085393586,-0.139382129,0.137434243,,,,
871.7199994,3405,-0.150430931,0.090167384,-0.049707698,0.047668774,0.034232511,-0.020993977,0.046712491,0.177803801,0.074096026,0.001972907,-0.195580651,0.068165684,-0.149988268,0.032641881,0.089785433,-0.033456185,,,,
871.7279994,3405,-0.147699368,0.04377732,-0.030661243,0.052046829,0.091664094,0.039847449,0.144993319,-0.081422619,0.149909104,-0.091915774,-0.073923943,-0.004183261,-0.105611226,-0.019015376,0.145944582,-0.097141032,,,,
871.7359994,3405,0.146555768,-0.06365426,-0.016329703,0.135903555,-0.090730467,-0.023893233,0.064894741,-0.134707819,0.093902938,0.13110873,0.02342406,-0.136654534,-0.057522853,-0.046120942,0.091661735,-0.120426273,,,,
871.7439994,3405,0.074068673,0.100531201,-0.031705543,0.017456025,0.036296144,-0.102836894,-0.081746413,0.192992404,0.196750176,-0.112315638,-0.048122461,-0.042529997,-0.045350959,0.064479678,0.120641858,0.108399663,,,,
871.7519994,3405,0.144620545,0.110517277,-0.143668448,-0.044064501,0.038883895,0.005617979,0.097600677,0.235325519,0.133005739,-0.16080979,0.129121509,0.068324032,0.066397761,-0.054005029,0.248617288,-0.073013115,,,,
871.7599994,3405,0.144902293,0.173194977,-0.146013788,0.059995279,-0.11000764,0.066248359,-0.089459577,0.141494658,-0.084550009,0.111986313,0.220087309,-0.004349601,0.131419828,-0.039158147,0.153622516,-0.123277493,,,,
871.7679994,3405,0.030007062,0.005770767,-0.071798961,0.004788361,-0.162109988,-0.126114169,-0.22018825,-0.119941755,0.076426777,-0.075289004,0.029908608,-0.05599217,0.022054874,-0.065077449,0.10511592,0.047086854,,,,
871.7759994,3405,0.133424395,-0.099698629,-0.09179061,-0.077466138,-0.015982099,-0.131310761,0.055500878,-0.121573679,0.106992004,0.021957269,-0.02996663,-0.073061498,-0.091403876,-0.200419366,0.139842976,-0.058234863,,,,
871.7839994,3405,0.044331659,0.080831973,0.019069153,-0.142275824,0.152003112,-0.014919567,-0.05791853,0.038061357,-0.080205232,0.256669056,-0.144257467,-0.018486891,0.076744986,0.038894189,0.021099373,0.157548797,,,,
871.7919994,3405,-0.0444037,0.024213229,0.087653823,-0.141273867,0.050069637,0.015048384,-0.123676408,-0.047546948,0.05474421,0.07249586,-0.082350697,0.088979813,0.157996062,0.124983416,0.222713971,0.037730207,,,,
871.7999994,3405,-0.010227199,-0.028964858,-0.033281304,-0.032957991,0.16818136,-0.105822755,-0.044706285,0.101432823,0.103935286,0.064317635,0.052262063,0.084385115,0.021375986,-0.096774819,0.184249863,-0.217072979,,,,
871.8079994,3405,-0.015700042,0.047939979,0.037818756,-0.006260694,0.035576094,-0.180883106,-0.131831482,0.030285575,0.04766793,0.052207803,-0.099396536,0.069098234,0.196071628,0.001293602,-0.065440928,-0.074340997,,,,
871.8159994,3405,-0.038690078,0.139779674,-0.013217811,-0.119255363,-0.300120517,-0.041085898,-0.020733132,-0.182902605,0.032718326,-0.121983127,-0.024625403,-0.061151367,0.202333747,-0.123872483,0.066300528,-0.174046956,,,,
871.8239994,3405,-0.057211811,0.12665729,-0.05857868,-0.090255189,-0.115473612,-0.154969602,-0.012273167,-0.038804201,0.000737509,0.004225408,0.123021728,-0.179400709,-0.042464265,-0.276217129,0.076826977,-0.071783811,,,,
871.8319994,3405,0.060319416,0.070414186,0.143819691,0.088346907,-0.008412764,-0.212667843,-0.005746201,0.040036831,-0.005753429,0.211565568,0.024122306,-0.0605256,-0.004135575,0.147489927,-0.035049564,0.066275454,,,,
871.8399994,3405,-0.071488629,0.085771498,0.049975943,0.044104501,-0.00209896,-0.155983632,0.014208447,0.023932161,-0.13172842,0.096265821,-0.059539558,-0.046130989,-0.047090881,0.062059958,-0.149806809,-0.044831202,,,,
871.8479994,3405,-0.218033007,-0.014207767,-0.026350925,-0.080623003,0.090477776,-0.078060277,-0.077863903,0.020625316,-0.029864021,-0.013646111,-0.046314733,-0.01477286,-0.125050666,-0.065908566,-0.260743991,0.035027549,,,,
871.8559994,3405,-0.038556726,0.003308435,0.027511294,-0.099215534,0.084047392,0.163564921,0.008763504,-0.006192099,0.018836364,0.081213113,-0.048441869,0.049893956,-0.14050289,0.159258268,-0.03186323,0.006629066,,,,
871.8639994,3405,-0.134305512,0.137216257,-0.019103928,0.007496473,-0.059814071,0.004017655,0.033717229,-0.000824313,-0.14486329,0.063510293,-0.012874175,0.029743347,-0.061480784,0.005948569,0.125675406,-0.057683115,,,,
871.8719994,3405,-0.181763604,0.101483058,0.160018631,0.047499405,-0.097000679,-0.058803039,0.031401622,0.035894429,-0.054637723,0.116204929,-0.029757952,0.131967297,0.212857897,0.052352449,-0.05287563,0.155418003,,,,
871.8799994,3405,-0.008906298,0.054812439,0.183303088,0.040045466,0.042231833,0.10959622,-0.144556957,0.004189252,-0.136771145,0.178921235,-0.185256951,0.04140738,0.165106015,-0.084874502,0.03651616,0.150668995,,,,
871.8879994,3405,0.1437949,0.125633595,-0.014005053,0.105120595,-0.047196317,0.053506518,-0.255898378,0.080057322,-0.132935034,-0.127034645,-0.070570996,-0.111806917,-0.105716925,-0.404068673,0.084675309,-0.098906319,,,,
871.8959994,3405,0.262667287,0.052069682,0.141973253,-0.174931607,-0.070512625,0.024210195,0.043335995,0.182491097,-0.006270657,-0.173613361,0.035734661,0.04503993,-0.061305353,-0.152266546,0.006448532,0.015179464,,,,
871.9039994,3405,0.102680967,-0.070973889,0.123063393,-0.241276126,0.053045798,-0.101119277,-0.000342493,-0.050303497,-0.091226832,0.136354291,-0.057340439,0.03687983,0.022043468,0.03594228,0.015896118,0.111415352,,,,
871.9119994,3405,0.018812903,0.041704548,-0.151736795,0.010900683,0.008657291,-0.134593457,-0.094889977,-0.152763843,0.134422912,0.105190291,0.002241798,-0.156106288,-0.011287547,-0.036250275,-0.040821288,-0.040250198,,,,
871.9199994,3405,0.006522877,0.036475179,-0.023498057,-0.043039329,-0.082980804,0.028767573,0.015466373,-0.024451047,0.098764541,0.00310676,0.01162275,-0.007675604,-0.013892741,0.003173356,0.114545214,-0.007554832,,,,
871.9279994,3405,-0.026393701,-0.010221922,-0.076555409,-0.001503779,-0.043821068,0.045243243,-0.112093734,0.033813761,-0.082176739,-0.05243077,-0.136849251,0.16610571,-0.093808003,0.074559645,0.159668267,0.026446279,,,,
871.9359994,3406,0.00297534,-0.031615393,-0.11360209,-0.031634538,0.071235283,-0.059614204,-0.079230615,0.208256333,0.135714663,-0.164289865,-0.090924575,0.022039772,-0.050772185,-0.03924333,0.111543563,0.021994233,,,,
871.9439994,3406,-0.116200242,-0.109212023,0.18264227,-0.131009578,0.006589325,-0.063138922,-0.061694215,0.245713203,0.107172524,-0.057792669,0.060029538,-0.056154187,-0.003534461,-0.108379748,-0.022504723,0.140128571,,,,
871.9519994,3406,-0.055638583,0.081372233,0.054037482,-0.048484975,-0.025940343,0.063697521,-0.136316592,0.06250972,0.056264978,0.015548448,-0.089816277,-0.012351895,-0.097417248,-0.080621168,-0.208696124,0.066443031,,,,
871.9599994,3406,0.02679975,0.152551129,-0.058549938,0.044458365,0.165617323,0.082386837,-0.12879075,0.018171155,-0.007542922,-0.075390935,-0.081963435,0.077526988,-0.087943225,-0.115463904,-0.081225128,-0.00101835,,,,
871.9679994,3406,0.036760003,0.061626667,-0.064006368,0.104658398,0.243097431,-0.127079909,-0.172630338,0.001747928,-0.053137663,-0.143666117,0.052645375,0.142278989,-0.090616732,0.158510746,0.04981982,0.103449802,,,,
871.9759994,3406,0.12814825,-0.002452653,-0.240467704,-0.061208567,0.047697639,-0.174504216,0.019310371,0.02570515,0.124951147,-0.01617575,0.089006756,-0.042113928,0.105654004,0.271241923,0.20211213,0.034041021,,,,
871.9839994,3406,-0.135987371,-0.122495026,-0.228454787,-0.058220705,-0.128494519,0.035533051,0.047782072,0.086189182,-0.066822677,0.055127498,0.249687393,-0.113565559,0.274304372,0.080765732,0.150538103,0.085476142,,,,
871.9919994,3406,-0.222650505,0.093226886,-0.097258055,0.082786549,-0.088952716,-0.060691777,-0.019146841,-0.031009077,-0.205485751,-0.216905706,-8.29E-06,-0.018462423,0.091234961,0.178352201,-0.10596605,0.108274781,,,,
871.9999994,3406,0.016931141,0.139015517,0.084864902,0.021765804,0.030456488,-0.098290817,0.033692664,-0.06210297,-0.042673523,-0.170729298,-0.268324335,-0.037350094,0.060536021,0.173843623,-0.160615871,0.127018333,,,,
872.0079994,3406,-0.003733955,-0.195482099,0.122542408,-0.055516635,0.054875818,0.110991943,-0.138623274,0.088862501,0.001880865,0.076981239,-0.015611684,0.00783499,0.001669316,0.143196904,-0.144887522,0.124933657,,,,
872.0159994,3406,0.004179128,-0.100145253,-0.08395447,-0.02608376,-0.04642606,-0.011654223,0.001457724,0.108556901,0.037301965,-0.052779042,0.109214181,0.110892729,-0.039492831,0.173211877,0.077502649,-0.254672545,,,,
872.0239994,3406,-0.06619324,0.04512752,-0.132341085,0.06364183,-0.103832772,-0.05132243,0.201022216,-0.02268203,0.035831972,-0.115843375,-0.079906742,0.139225789,-0.002704136,0.010047184,0.18616121,-0.177846927,,,,
872.0319994,3406,-0.103640747,-0.062530345,-0.027298105,0.002002009,-0.041595867,-0.032471041,0.0475818,0.027421526,0.053015754,-0.026658023,-0.154656908,-0.080590889,-0.100443106,-0.027492137,0.005322813,0.031642213,,,,
872.0399994,3406,0.17488688,0.055070884,-0.02528145,0.019556118,0.048827755,-0.105891074,0.059257865,0.063680498,-0.032110601,0.014639109,0.023077885,-0.133324122,-0.099743163,-0.017873759,0.111701163,-0.105686131,,,,
872.0479994,3406,0.128304924,0.078296324,-0.033055861,-0.048508602,0.099688533,-0.041768206,0.083864668,0.023150381,-0.184881868,0.028809604,0.109580457,0.209228458,-0.132729689,-0.05893501,0.113310028,-0.053954537,,,,
872.0559994,3406,0.018157477,-0.037697005,0.123479833,-0.255235236,0.126919392,0.026650113,-0.115255887,0.100552845,-0.055183046,0.003658851,0.062252613,0.180247288,-0.087326614,-0.047195225,-0.099634371,0.066318817,,,,
872.0639994,3406,0.139761746,0.048932932,0.211104378,-0.072151106,-0.044120195,0.130902223,-0.188200585,-0.0116527,0.161615479,0.067458544,0.076527851,-0.0662858,-0.082416703,0.000518587,-0.049047876,0.002458175,,,,
872.0719994,3406,-0.049809208,0.025668173,0.067043604,0.050898233,-0.261310919,-0.078264747,-0.080519248,-0.018045411,0.146205807,0.086215924,0.136319283,-0.140519571,-0.107570817,0.029834939,0.059926365,-0.103697565,,,,
872.0799994,3406,-0.148673133,-0.05062407,0.108422502,-0.058222855,-0.131334223,-0.093815669,-0.058671062,0.045593914,-0.005938913,0.041079103,0.064044893,-0.133561077,0.022396967,-0.057116093,0.092737737,0.073417419,,,,
872.0879994,3406,-0.075635041,-0.0877204,0.229677116,-0.002798706,-0.090302802,0.024674643,0.033669341,0.012661931,0.091465364,0.067366301,-0.062475065,-0.015416621,-0.032639388,-0.124982815,-0.059461035,-0.005763273,,,,
872.0959994,3406,-0.203651019,-0.120167588,0.08581787,-0.014697045,-0.167087852,-0.217996974,0.180149288,-0.048725334,0.114161124,-0.02219733,0.033672224,0.062353324,-0.125374096,-0.11780202,-0.191045575,-0.083428544,,,,
872.1039994,3406,-0.016567125,0.075998238,-0.133394148,-0.06901202,-0.03058112,0.047742757,0.142908405,-0.287416588,0.0020259,-0.002342653,-0.012626201,0.145778452,-0.099631412,-0.048665738,0.062340428,0.194838984,,,,
872.1119994,3406,0.220605351,0.188816556,-0.118433058,0.01312792,-0.00383241,0.1140903,0.052128327,-0.186657583,0.173376325,0.138183329,-0.104275191,0.150602513,0.064437802,0.078602745,0.156150235,0.015501779,,,,
872.1199994,3406,0.082157132,0.10593855,0.039528501,0.035683892,-0.053455466,-0.113268416,-0.165934262,-0.048817124,0.141518061,0.031075978,0.008470996,0.007317831,0.037805946,0.108391575,-0.156499911,-0.100204432,,,,
872.1279994,3406,0.125287972,0.093452772,-0.115639591,0.09365638,-0.05692275,0.046126653,-0.126164543,-0.204086609,-0.025962395,-0.075954221,-0.099806723,0.011723688,-0.1518657,0.004816394,-0.146862434,-0.000841631,,,,
872.1359994,3406,0.085978796,0.158713642,-0.226943716,0.095327539,0.052945157,-0.041348848,0.148778997,-0.134789622,0.006633628,-0.045935445,-0.148944166,0.07425188,-0.020297032,-0.009382365,0.062245755,-0.071119442,,,,
872.1439994,3406,-0.080173252,0.012332107,-0.006700136,-0.134881447,0.234009785,-0.022903846,0.042147308,0.044126232,-0.090840277,0.017142559,-0.022301439,-0.005260378,-0.085218722,0.194381767,0.083118109,-0.109540569,,,,
872.1519994,3406,-0.036218212,-0.194899403,0.055847012,-0.172291546,0.117835929,0.050084087,0.071264852,0.051563808,-0.127817496,0.050906468,-0.03130221,-0.048197174,-0.169600351,0.218415924,0.100631752,-0.154380944,,,,
872.1599994,3406,-0.195853451,0.055519947,0.013665213,0.015812913,0.030980331,-0.102270037,0.081171091,-0.043291437,-0.062919966,0.056535576,-0.08030981,0.02481459,0.026852859,0.022689718,-0.042352655,-0.039442406,,,,
872.1679994,3406,-0.213473238,0.173515368,0.018767376,0.137613455,0.031219261,-0.114180531,-0.128429726,0.117238037,-0.084228084,0.094492268,-0.168901145,-0.053436822,-0.009058141,0.02277781,-0.138193351,-0.057521111,,,,
872.1759994,3406,0.057855068,-0.052859263,0.014607344,0.135540237,-0.073841324,-0.089110337,0.022534276,0.154064524,0.035700828,0.056528952,-0.142334703,-0.033293014,0.006826479,0.035869159,-0.104315786,-0.130469651,,,,
872.1839994,3406,0.156153319,0.068903611,-0.014176918,0.000258975,0.081503297,0.042694519,-0.03948223,-0.133322758,0.082228001,0.00354805,-0.091174632,0.253943293,0.093364909,0.123637469,-0.079791975,0.05619702,,,,
872.1919994,3407,0.165666018,0.24408593,-0.127179521,-0.018931256,0.10523254,-0.010452618,-0.337831918,-0.05957914,0.052888443,-0.010659258,-0.246191749,0.152001673,-0.033261527,0.166919433,0.015825308,0.056181447,,,,
872.1999994,3407,0.165165912,0.162020243,-0.057156869,0.015378812,-0.135890923,-0.162190701,-0.31245875,-0.052041599,0.043590138,-0.005594704,-0.188298528,-0.07440496,-0.01350625,-0.054871427,0.048397663,-0.042148063,,,,
872.2079994,3407,0.159483589,0.104313045,0.131992411,-0.053100617,-0.162008015,-0.003283914,-0.177691735,-0.045182998,-0.009775704,0.117563063,0.05649214,-0.090663815,0.040444733,-0.012669241,0.133580817,0.017323193,,,,
872.2159994,3407,0.06309692,0.017232774,0.111755339,0.095184219,-0.085750254,-0.078776813,-0.053354269,0.124506088,0.041465084,0.14685967,0.087063679,-0.008054051,-0.131667802,-0.013339007,0.074867933,0.155271046,,,,
872.2239994,3407,-0.085735027,0.03419156,0.06149703,0.12956446,0.002911143,-0.216305534,-0.168198779,-0.071505763,-0.058540178,0.007264115,0.04736971,0.132186159,-0.123567764,0.038270553,-0.061687543,0.129590218,,,,
872.2319994,3407,-0.118783789,0.197840818,0.161451178,-0.116799424,0.062113862,-0.020140405,-0.239304088,-0.056176272,-0.055654492,0.07523261,0.04977852,0.025593254,-0.088889387,0.250742913,0.035418532,-0.024868667,,,,
872.2399994,3407,-0.008055144,0.233054685,0.084963048,-0.183453372,0.038236391,0.104487932,0.051720218,0.19114107,0.116923665,0.158204166,0.071898193,-0.02763752,-0.077381918,-0.037787676,-0.066830444,0.053654171,,,,
872.2479994,3407,0.081218547,0.239594846,-0.119993178,-0.143180567,0.001669682,0.146335511,0.108526408,0.177687718,0.010483628,0.055944358,0.092717673,-0.09169561,0.126635285,-0.158892818,-0.019568245,0.124833259,,,,
872.2559994,3407,0.044291886,0.190585607,-0.031545487,-0.129359299,-0.045367443,0.172560257,-0.067364596,0.01815747,-0.00650835,-0.003817991,-0.076078332,-0.087071589,0.035706988,-0.020481555,0.029473011,-0.023280298,,,,
872.2639994,3407,0.01456073,0.06002231,-0.051987789,-0.183249097,0.027415797,0.163335024,-0.142868491,0.028935307,0.037388001,0.008529129,-0.127900882,0.033962691,-0.076579481,-0.042225043,-0.162788248,-0.058647356,,,,
872.2719994,3407,-0.170013143,-0.048081033,-0.166395198,-0.132420672,0.159538703,0.197683649,-0.112726413,-0.013714812,-0.016361826,-0.023537225,0.118893278,-0.02714234,-0.031511302,0.058398167,0.150556206,0.083581609,,,,
872.2799994,3407,-0.191146811,-0.046249734,-0.09866854,-0.030383974,0.135180721,0.10633094,0.094987201,-0.077899684,0.104115365,-0.105030612,0.100255028,0.049570428,-0.041772214,0.037974784,0.130748989,0.067634867,,,,
872.2879994,3407,-0.00667304,0.102964624,-0.076912887,-0.092110766,-0.015940916,-0.007323408,0.085676446,0.095777902,0.042533058,0.038556424,0.043648898,0.063652709,0.035918019,-0.054488678,-0.144647091,-0.044213444,,,,
872.2959994,3407,-0.04062436,0.114353172,0.041341844,-0.023599652,-0.168522713,-0.015213036,-0.186716327,0.088956727,-0.122109327,0.076853895,0.099409635,0.103927068,-0.003971727,-0.017558949,-0.005337382,-0.118731787,,,,
872.3039994,3407,0.062237721,0.04587693,0.11018232,0.106263273,-0.153501353,-0.043799277,-0.072013126,0.085528482,-0.074100126,0.008013806,-0.031653615,0.151530101,0.000528566,-0.07182611,-0.131812135,-0.173162449,,,,
872.3119994,3407,0.045772273,0.03664639,0.052556602,0.054819919,-0.052635245,-0.013962608,0.154997177,-0.066614582,-0.050508997,0.185856722,0.0533037,-0.043610632,-0.017336443,-0.041089202,-0.1164189,-0.013148784,,,,
872.3199994,3407,-0.115029513,-0.022115812,-0.006805449,-0.070281756,-0.032070642,0.070389642,0.049168863,-0.199382676,0.079478668,0.169703311,-0.002559563,0.014599608,-0.102079472,0.041173464,0.060823528,0.006889254,,,,
872.3279994,3407,-0.01154548,-0.055285818,-0.121085798,0.000427157,-0.053416309,0.112704764,-0.016965654,-0.036084543,0.191963226,0.055722908,-0.248961641,0.168821784,0.067694871,-0.075934052,-0.069362038,-0.148648459,,,,
872.3359994,3407,-0.049271508,0.084758136,-0.002940216,0.046288054,-0.0205019,-0.00972174,0.033090438,-0.081414547,-0.045623056,0.033737817,-0.07030288,0.120909815,0.084147576,-0.03865131,-0.236480456,-0.036973498,,,,
872.3439994,3407,-0.02382762,0.133962379,0.230811628,-0.121652078,0.009162918,-0.109638197,-0.039418924,0.02808122,-0.073498814,-0.002209927,-0.103467233,0.095178696,-0.004837467,-0.052671706,-0.27201171,0.023178944,,,,
872.3519994,3407,0.148018999,-0.099999496,0.093376169,0.034187352,-0.107505809,-0.037344507,0.018907078,0.107914741,0.135645429,0.089246222,-0.166847558,0.034715243,0.04977101,-0.167644704,-0.136862476,0.067449167,,,,
872.3599994,3407,0.105948102,-0.007696477,-0.020089111,0.129200684,-0.063623049,-0.094344565,0.037338766,-0.084716013,0.039084931,0.247868608,-0.081005295,0.056870399,-0.01307479,0.019284457,-0.012335003,0.150548593,,,,
872.3679994,3407,0.013602769,0.071118219,0.086943825,-0.094713822,0.077548041,-0.060179376,-0.2086206,-0.132466583,0.06727562,0.273606691,-0.221490874,0.12483084,-0.046472565,0.164230792,0.069977937,-0.07256793,,,,
872.3759994,3407,-0.085581388,-0.159031423,-0.030693366,-0.024084975,0.050252755,0.016326598,-0.079804064,-0.061107856,0.128706845,0.079367989,-0.021440567,-0.112089166,-0.094125387,0.120127954,0.025837742,-0.173920394,,,,
872.3839994,3407,0.004601423,-0.079433278,-0.030909027,0.024116157,0.003338435,-0.086514362,0.131373968,0.017443135,0.022217581,-0.029159567,0.003401099,-0.071577714,-0.133821566,-0.041810504,-0.033700728,-0.042182373,,,,
872.3919994,3407,0.125007658,-0.072408324,-0.00500407,-0.081097627,-0.050649914,0.025808254,0.009070493,0.029161187,0.036868058,0.107533889,-0.136985899,0.274802515,0.104345727,0.045534189,0.010768697,-0.114339125,,,,
872.3999994,3407,0.040701514,-0.10565204,-0.163048885,-0.04036246,0.088927219,0.076745453,-0.066528206,0.016694311,0.028354913,0.122414776,-0.127173228,0.154213455,0.232891977,0.178477371,-0.003578107,-0.128231511,,,,
872.4079994,3407,0.034806416,0.058326751,-0.024825864,0.055702409,0.099276562,-0.07444465,-0.131214774,-0.018992401,0.082509902,0.031931224,-0.141931241,0.064784686,0.148154587,-0.097591104,0.094695556,0.096352443,,,,
872.4159994,3407,0.07441004,0.124356529,0.030375175,0.137116187,-0.090208577,0.017615114,-0.172592549,0.018902238,0.07086259,0.091095697,0.254421873,0.159686381,0.05719078,-0.107287819,0.031097819,0.078943616,,,,
872.4239994,3407,0.2466496,0.141962786,-0.070437764,0.063480907,0.02922357,0.131710149,-0.083011735,-0.053980105,0.080239004,0.141080631,0.247044696,-0.030361716,0.092494749,-0.036976275,0.015414574,0.044737668,,,,
872.4319994,3407,0.35620399,0.13033397,-0.014826259,0.021941272,-0.095614095,0.018108239,-0.028436318,-0.129538477,0.119327456,0.096287153,-0.056840038,-0.029484309,0.177380513,-0.219119195,0.036908623,0.169374405,,,,
872.4399994,3407,0.131383996,0.131042079,-0.158624232,0.036377145,-0.291272167,-0.030295268,-0.048589147,0.082962704,-0.086738115,0.128807988,-0.025670158,0.011386605,0.015898289,0.013302109,-0.24958179,-0.01868281,,,,
872.4479994,3408,-0.041239541,0.016968232,-0.192300505,-0.045563246,-0.075382979,0.08038776,0.005059017,0.011884608,-0.250643861,0.225887007,-0.08636237,-0.204564911,0.066307907,0.21436883,-0.158331254,-0.040159411,,,,
872.4559994,3408,0.038445943,-0.091157123,0.035393083,0.017243394,-0.061505972,0.141164223,0.027844575,-0.051805463,-0.22522457,0.129442078,0.008891863,-0.135094132,0.206249734,-0.031104039,-0.069256236,0.076725532,,,,
872.4639994,3408,0.070842425,0.011134964,0.014074416,0.060445515,-0.082981155,0.059136221,0.007230178,0.015853231,-0.05014134,-0.021813304,0.018604485,0.077263029,0.115578925,-0.052921248,-0.113427838,-0.072288346,,,,
872.4719994,3408,-0.038535106,0.02321964,0.068442947,0.031170466,-0.044844076,-0.136640173,0.056665919,-0.172195818,0.08813,0.044817874,-0.038918839,0.199022275,0.078489936,0.027231121,0.042608387,0.088058297,,,,
872.4799994,3408,-0.01592224,0.07689224,0.16922473,0.101846571,-0.211608849,-0.111583444,0.038652761,-0.154376658,0.20641473,0.0633522,0.092628297,0.09852334,-0.129447089,0.059347129,0.00833145,0.135871406,,,,
872.4879994,3408,0.074003556,0.149906681,0.068185655,0.104554056,-0.108554113,0.051010421,0.087996038,-0.043068504,0.20490139,0.029395252,0.068249537,-0.190315379,-0.219739959,0.067731133,0.011705292,-0.128866996,,,,
872.4959994,3408,-0.016833297,0.055575873,0.041543368,0.02855606,0.035470085,-0.020724042,0.105140198,0.098909288,-0.023438456,0.079039493,-0.006850556,-0.026655727,-0.120338994,-0.062281139,0.051793121,0.060611283,,,,
872.5039994,3408,-0.208019849,0.004217721,-0.055788601,-0.027137372,-0.020193587,-0.030454525,-0.09328231,0.135034377,-0.104173692,0.070830708,-0.087191119,0.105476659,-0.064158315,-0.028450602,-0.055220471,0.171533716,,,,
872.5119994,3408,0.028950486,-0.077727152,-0.132678548,-0.095667103,0.042166893,0.050893716,0.005105458,-0.197649222,-0.085146914,0.040951551,-0.079380299,-0.068381304,-0.040472294,-0.03554711,-0.152419384,-0.068564006,,,,
872.5199994,3408,0.223282324,-0.047944068,-0.061901893,-0.138022537,0.092588342,0.099109437,0.231469201,-0.175357289,-0.133247493,-0.05548691,-0.094453411,0.072872388,-0.132298529,-0.085076297,-0.147905134,-0.016066565,,,,
872.5279994,3408,-0.046864799,-0.00023371,0.05212933,-0.031382738,0.203636771,0.183557999,0.075766565,0.134951429,-0.062671041,-0.089174385,-0.115770231,0.141129743,0.122741191,0.078759657,-0.070642834,0.019867242,,,,
872.5359994,3408,0.11587661,0.080123389,0.002181493,0.097249583,0.107163446,0.127211208,0.039953809,0.027596556,0.125683277,0.054937014,0.051920504,0.066100344,0.276594746,0.154715739,0.023000781,-0.030525812,,,,
872.5439994,3408,0.097636562,0.206113473,-0.076268863,0.060828031,-0.132356161,0.132175293,0.045791677,-0.123647011,0.040008772,0.007326883,0.033211095,0.08659908,0.055362405,0.108468992,-0.038216392,0.035510899,,,,
872.5519994,3408,-0.033965701,0.026016371,0.025007927,-0.01476754,-0.11248119,0.226100121,-0.09698604,0.075601607,-0.143192201,0.062835247,-0.051201688,0.046019685,0.05660823,-0.042735609,-0.15867034,-0.079677648,,,,
872.5599994,3408,0.248898384,0.153865876,0.028165264,0.089750499,-0.102782512,0.098448836,0.080739303,0.106350722,-0.070626301,0.230742921,-0.057400929,0.046640785,-0.051090393,-0.206767761,-0.061733456,0.040358913,,,,
872.5679994,3408,-0.049986513,0.166373958,0.062132252,0.220247035,0.02788375,-0.047113987,0.058078703,-0.083979019,-0.097411515,0.019846054,0.026739982,0.037748655,-0.226348519,-0.032126886,0.050877685,0.22387471,,,,
872.5759994,3408,-0.151881969,-0.110100285,0.073167496,0.134469673,-0.061849336,-0.07627858,-0.01599701,-0.089350253,-0.120158543,-0.024308267,0.15791545,0.051817315,-0.155215668,0.068551009,0.041480832,0.032485858,,,,
872.5839994,3408,0.021207749,0.164414508,0.019217344,0.053983171,-0.170928836,-0.077021643,0.106584023,-0.118256006,0.077524755,-0.07923918,0.0782265,-0.017159893,0.002382218,-0.068962661,-0.062558574,0.01703765,,,,
872.5919994,3408,-0.053731667,0.147917002,0.03225507,-0.005021996,0.121262266,-0.03003315,-0.053765729,-0.018642393,0.212108687,-0.311870167,0.091524508,-0.237263562,0.027136349,-0.204391428,0.029953569,0.071130881,,,,
872.5999994,3408,0.100987238,-0.022215748,0.075199778,-0.044441581,-0.003553431,0.115383746,-0.012348501,0.006443085,0.224268666,-0.031541208,-0.033363246,-0.088359175,-0.104296067,-0.393201038,0.088413412,0.054812624,,,,
872.6079994,3408,-0.034522956,0.114422593,0.032813101,0.129605313,-0.106283308,0.074319151,0.05770016,-0.19703853,0.035384386,0.180657196,-0.320978955,0.125651867,0.021255424,-0.061525395,-0.085886523,0.12252096,,,,
872.6159994,3408,-0.075717811,0.007252262,-0.137296702,0.067387325,0.012931077,0.013446199,0.086373812,0.056634012,-0.123033381,-0.052434743,-0.213468246,0.00662076,0.147396468,0.238518954,-0.022162532,0.056052487,,,,
872.6239994,3408,0.011079964,0.005530237,-0.041551039,-0.138504502,-0.088245228,0.238253727,0.052511204,0.090148487,-0.088521154,-0.088793564,0.012076407,-0.062063634,0.066740157,0.016614619,-0.050299054,-0.009768866,,,,
872.6319994,3408,-0.119826698,-0.128796766,0.020253055,-0.108992944,-0.114532652,0.008313022,-0.250196815,-0.15041561,-0.096812655,0.105024982,0.139262477,-0.12044647,0.112747591,0.158265711,-0.051332819,-0.10065128,,,,
872.6399994,3408,0.050527966,-0.306864456,-0.040553222,-0.1670293,-0.150588406,-0.25096635,-0.172094953,-0.010673117,0.032807368,0.17661643,0.111520565,-0.06414877,0.063930007,0.054816956,0.062785127,-0.109340634,,,,
872.6479994,3408,-0.016740041,-0.055544169,0.125031421,-0.071700584,-0.066114782,-0.018025967,0.034936652,-0.037836798,0.100613124,0.012735497,-0.002082565,0.065740708,0.144947946,-0.100084476,-0.068903787,0.044382472,,,,
872.6559994,3408,-0.186895053,0.040614918,0.155391057,0.086302748,-0.116911048,0.041628605,0.123978484,-0.063185805,-0.057502292,-0.027364914,-0.053784915,-0.014820224,0.263733041,0.26683944,-0.041693562,-0.002422487,,,,
872.6639994,3408,-0.01268842,0.137644401,0.113233966,-0.002405657,-0.187622521,0.039523173,0.106669203,-0.008063974,-0.034258057,0.030287625,-0.061283713,-0.104939497,-0.030181232,0.140995447,0.118825564,0.119472607,,,,
872.6719994,3408,-0.065429815,0.099646142,0.056565382,-0.004553473,0.101963096,-0.01996646,0.023154579,-0.043468285,0.054758143,-0.020370755,0.067451952,-0.016179406,-0.092797648,-0.03409459,0.102066455,0.114544402,,,,
872.6799994,3408,-0.079024496,-0.083885193,0.070469196,-0.065735274,0.087402712,0.065269623,0.073415242,0.122471544,-0.026427062,0.201890751,0.060110283,0.044478776,-0.018987583,0.033453821,-0.13035628,-0.120683812,,,,
872.6879994,3408,0.15828881,0.080125357,0.169778901,-0.120402347,-0.105517255,0.162231149,-0.010904887,0.202407567,-0.07305776,0.14003433,-0.068095723,-0.211767163,-0.117585569,-0.06908222,-0.20921456,0.073433026,,,,
872.6959994,3408,0.084155766,-0.030014318,0.096202248,0.077464659,-0.168089741,-0.071950659,-0.013309496,0.07568271,-0.025956937,-0.058496171,-0.017926247,-0.155912533,0.022281909,-0.055501665,0.005711796,0.042315958,,,,
872.7039994,3409,-0.144459493,-0.094521193,0.036333934,0.180105298,-0.052916224,-0.019049868,-0.043995587,-0.043785308,-0.111715977,0.09927539,0.037774354,0.086302534,0.059361229,-0.051124604,0.080322237,-0.036439332,,,,
872.7119994,3409,-0.11744798,0.145110102,-0.143740065,0.077187825,0.080475947,-0.032457748,-0.269969369,-0.071448453,-0.294257128,-0.038723599,-0.043425533,-0.109335154,-0.11577676,0.053833697,0.078308413,0.166207174,,,,
872.7199994,3409,-0.080475633,0.090481001,-0.168581658,0.070830335,-0.018392965,-0.125032601,-0.235410876,-0.025829942,-0.281202038,-0.051717097,-0.065367089,-0.096562348,-0.088510969,0.1100503,0.092705939,0.092988135,,,,
872.7279994,3409,-0.171722078,-0.076664633,-0.093357698,0.140796912,-0.027709846,-0.0470045,0.001826729,-0.002986178,-0.17574266,0.023908469,0.021653338,-0.051749178,0.006492874,-0.12072227,-0.022330661,-0.013161598,,,,
872.7359994,3409,-0.124092523,-0.137253958,-0.205153807,0.031951133,-0.074171811,-0.094858284,0.158541062,0.085927237,0.053191733,-0.104543935,0.069256859,-0.204025341,0.102518392,-0.222500774,-0.16569789,-0.057384611,,,,
872.7439994,3409,0.035869609,0.009993345,-0.022930392,-0.257676764,-0.083077717,0.049998483,0.022604263,0.06049765,0.266236346,-0.010457294,0.063840984,-0.156507406,0.112985673,-0.101137972,-0.075222242,-0.036302411,,,,
872.7519994,3409,-0.019311024,0.029698372,0.135229043,-0.355924354,0.029906492,0.103302439,-0.111723205,-0.042054864,0.036545276,-0.000840459,0.040011909,-0.100015349,0.006758096,0.04090481,0.099127622,-0.039414847,,,,
872.7599994,3409,-0.172496325,-0.057615424,0.122110783,-0.129625702,0.030478751,-0.033730409,-0.04704012,0.03439563,0.031493239,-0.126701863,0.057319947,0.089796115,0.098407523,0.016603977,0.011634049,-0.116109933,,,,
872.7679994,3409,-0.09735899,0.104237853,0.113671761,-0.102198754,-0.000559758,-0.027752894,-0.062021828,-0.005778956,0.124900377,-0.115061438,0.005946782,0.169285151,0.042965913,-0.032263891,-0.087639325,-0.051219186,,,,
872.7759994,3409,-0.002621849,0.036233607,0.040919725,-0.08024001,0.001662737,-0.012958532,0.073380173,-0.127667395,-0.081758308,-0.056310684,0.071449857,-0.084591137,-0.116533664,-0.042370208,0.033629492,0.084208318,,,,
872.7839994,3409,-0.068317045,-0.015520633,0.130298536,0.146220816,0.035606528,-0.148605874,0.14277608,-0.160236047,-0.023916512,-0.054840211,0.190942633,-0.075757899,-0.017721695,-0.117657215,0.152105924,0.074749817,,,,
872.7919994,3409,-0.119755068,0.038186027,0.079845646,0.090501881,-0.028017428,-0.175766775,0.033379487,-0.121336621,0.074303646,-0.021735949,-0.073373708,-0.074106611,0.024345625,-0.029953534,0.105653573,-0.068003284,,,,
872.7999994,3409,-0.119077498,-0.152698092,-0.052961753,0.025134711,-0.010946533,0.010103565,0.073154476,0.077005378,0.149153034,0.058703178,-0.097698197,-0.10267081,0.011380304,0.057440324,0.038371366,0.077166008,,,,
872.8079994,3409,-0.049636898,-0.075368117,0.127414542,0.002954415,0.165071495,-0.121665067,-0.026778446,0.229030415,0.104330491,0.01207235,0.103280626,0.101356993,-0.081001666,0.040109289,-0.06194596,0.065749655,,,,
872.8159994,3409,-0.016667759,0.091333365,0.144647106,-0.021845788,0.142475508,-0.215746077,-0.072440236,0.155922559,0.002075156,-0.070466841,-0.126361138,0.021598289,-0.116191715,0.194385234,-0.098848161,-0.102132819,,,,
