Time:125Hz,Epoch,FP1,FP2,C3,C4,P7,P8,O1,O2,F7,F8,F3,F4,T7,T8,P3,P4,,,,
1135.127999,4434,161.7101913,56.81316436,-4.05E-07,-1.607800888,-31.93699964,-2.41E-08,-501.184011,-1.80E-09,78.13096043,306.5796373,-153.8411752,-19.84961608,44.57401891,41.50651245,0,-7.95E-07,,,,
1135.135999,4434,-107.6135424,-139.9741066,-4.02E-07,-64.42921026,172.7437357,-2.34E-08,-503.4654362,-1.80E-09,73.07841701,286.8616776,-220.1830544,-115.2659186,77.07521339,3.222483131,0,-7.87E-07,,,,
1135.143999,4434,74.49991552,-18.59459648,-3.98E-07,-63.70234918,60.97817677,-2.27E-08,-505.725292,-1.80E-09,49.65969589,234.0516552,-130.6555489,-18.75252406,19.48802178,84.28605369,0,-7.80E-07,,,,
1135.151999,4434,27.91134278,-28.80126061,-3.94E-07,-1.999986069,30.76196799,-2.20E-08,-507.9636027,-1.80E-09,73.60435887,309.9982417,-192.1063921,-78.84575581,89.64388847,-33.03511205,0,-7.73E-07,,,,
1135.159999,4434,-81.48807002,-114.8174181,-3.90E-07,-74.56236429,187.0757422,-2.13E-08,-510.180397,-1.80E-09,70.41535729,233.5540431,-177.2402516,-86.01343923,73.07555041,51.98229193,0,-7.65E-07,,,,
1135.167999,4434,154.0193044,56.4998687,-3.87E-07,11.79186681,-35.21592722,-2.06E-08,-512.3757021,-1.80E-09,91.22435768,283.0845683,-147.4237639,-30.13386682,59.03417387,20.04204113,0,-7.58E-07,,,,
1135.175999,4434,-112.0190239,-143.2558228,-3.83E-07,-55.8639261,172.3452277,-1.99E-08,-514.5495431,-1.80E-09,99.31636021,280.0118542,-225.8460852,-126.0768024,107.7843258,-21.32580365,0,-7.51E-07,,,,
1135.183999,4434,65.21163229,-32.83070749,-3.79E-07,-68.80626247,59.49362842,-1.92E-08,-516.7019522,-1.80E-09,63.08240373,212.9988331,-133.6472861,-16.14741861,26.90619977,76.13075552,0,-7.44E-07,,,,
1135.191999,4434,28.98328573,-37.25689391,-3.76E-07,0.291161679,17.77616173,-1.85E-08,-518.8329576,-1.80E-09,88.91233567,287.9537112,-204.0646716,-78.75046423,78.50718948,-40.60217148,0,-7.37E-07,,,,
1135.199999,4434,-82.48577445,-125.088614,-3.72E-07,-69.87833484,200.2072431,-1.78E-08,-520.9425873,-1.80E-09,83.30775314,222.6024178,-194.840687,-83.90890403,62.6368825,50.3583736,0,-7.30E-07,,,,
1135.207999,4434,154.4271231,47.65217336,-3.69E-07,11.45538944,-17.4045436,-1.71E-08,-523.0308722,-1.70E-09,89.74110222,271.3040617,-157.7310582,-13.84387999,65.97425877,32.213782,0,-7.23E-07,,,,
1135.215999,4434,-109.998804,-151.7496621,-3.65E-07,-55.82128257,178.2196848,-1.64E-08,-525.0978417,-1.70E-09,91.95178903,262.3429592,-236.4265056,-110.9812363,117.1974424,-15.93933713,0,-7.16E-07,,,,
1135.223999,4434,64.04456018,-42.44236268,-3.62E-07,-68.83967491,79.85863597,-1.57E-08,-527.1435248,-1.70E-09,55.37387696,194.4360723,-142.6207264,-6.6657522,22.07591228,82.50383052,0,-7.09E-07,,,,
1135.231999,4434,29.99518118,-49.36346242,-3.58E-07,-6.644939761,34.14507033,-1.50E-08,-529.1679549,-1.70E-09,83.42814518,273.0954829,-205.7513873,-65.03250756,90.81008952,-35.26660788,0,-7.02E-07,,,,
1135.239999,4434,-91.00730265,-150.8267252,-3.55E-07,-86.86015635,197.0015807,-1.44E-08,-531.1711642,-1.70E-09,73.90016698,193.6301656,-191.3418646,-69.12620195,67.72605363,46.69731997,0,2.59E-07,,,,
1135.247999,4434,146.0772856,21.17035464,1.26E-07,-6.67428752,-28.92752661,-1.37E-08,-533.1531806,-1.70E-09,75.50741444,233.1011357,-155.3744022,-7.670652715,25.76209071,33.9144279,0,1.16E-06,,,,
1135.255999,4434,-119.6449232,-172.7894567,5.79E-07,-64.7313262,170.7200775,-1.30E-08,-535.1140404,-1.70E-09,90.08272568,241.7135587,-249.69742,-121.3126505,87.47373682,-18.81196967,0,8.74E-07,,,,
1135.263999,4434,53.81114465,-51.08144278,4.34E-07,-62.41455467,67.58051022,-1.23E-08,-537.053774,-1.70E-09,60.41024398,177.5753478,-161.7811246,-15.08962902,6.296258368,79.11398045,0,8.91E-07,,,,
1135.271999,4434,29.27751754,-46.83262782,4.42E-07,6.925705585,17.6376804,-1.17E-08,-538.972413,-1.70E-09,93.73443598,259.4395274,-222.474778,-64.70038425,77.22921644,-26.30607296,0,9.40E-07,,,,
1135.279999,4434,-108.2327434,-167.7397375,4.66E-07,-96.09485744,199.0935904,-1.10E-08,-540.8699929,-1.70E-09,86.6770421,187.0887454,-214.5406957,-74.37344187,75.58110587,54.48857746,0,8.65E-07,,,,
1135.287999,4434,128.6175797,4.686047931,4.29E-07,-28.1296209,-31.71970147,-1.03E-08,-542.7465454,-1.70E-09,57.91394668,200.7562227,-168.8190184,-0.93563292,10.08597518,35.60550903,0,9.10E-07,,,,
1135.295999,4434,-120.2663357,-161.5200022,4.52E-07,-57.09429416,160.34177,-9.70E-09,-544.6021084,-1.70E-09,74.52492005,207.0029627,-258.6652109,-116.3989543,54.4962357,-25.3870883,0,8.66E-07,,,,
1135.303999,4434,58.60609396,-31.11675675,4.29E-07,-36.5965987,80.35488563,-9.00E-09,-546.4367149,-1.70E-09,80.21900701,174.4487105,-177.1884302,-25.52155378,1.042176293,67.27999341,0,8.80E-07,,,,
1135.311999,4434,31.42492115,-32.48616654,4.36E-07,55.10881932,-4.513552937,-8.30E-09,-548.2503978,-1.70E-09,115.6833692,308.4485694,-264.9931979,-92.46237506,106.9646194,-102.7834722,0,8.60E-07,,,,
1135.319999,4434,-208.3805152,-215.3289645,4.26E-07,-33.69323014,216.7575637,-7.70E-09,-550.043194,-1.70E-09,113.9244996,266.1317162,-308.0605227,-160.7366664,136.5888203,-86.60553759,0,8.58E-07,,,,
1135.327999,4434,50.33288701,-40.44473823,4.26E-07,-24.99755096,75.79157096,-7.00E-09,-551.8151397,-1.70E-09,84.59534436,189.9773484,-180.9367069,-18.3322024,39.56512655,46.33713241,0,8.47E-07,,,,
1135.335999,4434,-0.416191131,-89.20082934,4.20E-07,-42.17985449,110.0804136,-6.40E-09,-553.5662709,-1.70E-09,80.11778166,184.2345829,-190.9737951,-22.81020804,68.03399105,39.62607424,0,8.41E-07,,,,
1135.343999,4434,11.04214175,-81.85928268,4.17E-07,-28.65441192,74.7555255,-5.70E-09,-555.2966217,-1.70E-09,72.48084077,189.7841942,-201.4794696,-31.1885769,51.90981046,17.82174264,0,8.33E-07,,,,
1135.351999,4434,-24.48507935,-101.4861438,4.13E-07,-26.10811921,112.3484885,-5.10E-09,-557.0062316,-1.70E-09,71.99857564,192.6539657,-217.4398805,-50.83065284,52.2635942,14.31094777,0,8.25E-07,,,,
1135.359999,4435,15.80096443,-76.97130081,4.09E-07,-38.93921306,98.40198727,-4.40E-09,-558.6951373,-1.70E-09,69.27948048,173.5588706,-189.9607096,-15.82044361,29.97954382,53.39412998,0,8.17E-07,,,,
1135.367999,4435,20.2668045,-63.64459473,4.05E-07,-0.956456906,44.8917001,-3.80E-09,-560.3633744,-1.70E-09,77.60613921,211.586006,-213.9643816,-33.18735067,30.7765883,-6.042321572,0,8.10E-07,,,,
1135.375999,4435,-72.65222021,-141.0361289,4.02E-07,-60.76801594,167.7034045,-3.10E-09,-562.0109848,-1.70E-09,69.45659707,161.8640772,-210.4911949,-42.74792951,32.83481009,50.97828818,0,8.02E-07,,,,
1135.383999,4435,94.79273975,-19.50935165,3.98E-07,-8.094573303,2.247369016,-2.50E-09,-563.6380064,-1.70E-09,70.77585039,180.5465188,-194.2107025,-8.631546404,28.16879222,28.08698661,0,7.95E-07,,,,
1135.391999,4435,-79.74599425,-135.9986004,3.94E-07,-20.89958098,145.4429362,-1.90E-09,-565.2444739,-1.70E-09,84.34394053,190.2365712,-261.9092684,-92.68995742,69.96986159,-18.09440755,0,7.87E-07,,,,
1135.399999,4435,44.71016929,-48.62734727,3.90E-07,-17.3723473,99.84184175,-1.20E-09,-566.8304281,-1.70E-09,80.43761224,162.7874332,-185.8541402,-9.029278724,23.9126565,80.34332191,0,7.80E-07,,,,
1135.407999,4435,43.75566388,-39.48255567,3.87E-07,27.50111247,31.35054739,-6.00E-10,-568.3959113,-1.70E-09,101.8420642,230.0468318,-217.0785616,-25.77653705,63.43043079,-0.131951262,0,7.73E-07,,,,
1135.415999,4435,-94.16696529,-154.6984731,3.83E-07,-54.62881666,210.8572737,0,-569.9409609,-1.60E-09,87.76900559,163.7104898,-212.9776483,-35.42837137,57.65912521,66.51469996,0,7.65E-07,,,,
1135.423999,4435,132.5248363,8.953867314,3.79E-07,14.96257479,-13.51146219,7.00E-10,-571.4656165,-1.60E-09,78.6875167,193.4372546,-170.5736525,33.81014934,36.50977522,60.9717403,0,7.58E-07,,,,
1135.431999,4435,-113.7861025,-170.4833375,3.76E-07,-47.43575924,140.9764535,1.30E-09,-572.9699191,-1.60E-09,78.45672869,191.3034728,-257.5099983,-68.23315806,64.28920599,-3.134643219,0,7.51E-07,,,,
1135.439999,4435,17.55001665,-87.72658833,3.72E-07,-66.83440385,92.12020132,1.90E-09,-574.4539108,-1.60E-09,44.89754899,118.9497443,-177.6429065,14.33382667,-18.14311334,84.5120432,0,7.44E-07,,,,
1135.447999,4435,33.20477203,-48.11750624,3.69E-07,21.03894461,9.72120692,2.50E-09,-575.9176323,-1.60E-09,65.70847809,194.151968,-212.3528936,-16.7582065,45.7651743,-16.70898272,0,7.37E-07,,,,
1135.455999,4435,-123.9926483,-168.3964075,3.65E-07,-65.42397477,197.3421638,3.10E-09,-577.361123,-1.60E-09,68.47014654,139.6530977,-213.7977454,-36.93273332,35.61799425,53.62535871,0,7.30E-07,,,,
1135.463999,4435,118.4061724,-2.139667008,3.62E-07,-2.483300892,-12.00280794,3.80E-09,-578.7844283,-1.60E-09,60.63440473,167.3756588,-165.8480679,37.88252381,4.787093334,43.88535783,0,7.23E-07,,,,
1135.471999,4435,-113.6153291,-157.5654371,3.58E-07,-21.32675803,167.9895296,4.40E-09,-580.1875897,-1.60E-09,74.1446148,186.8370543,-254.2077497,-69.78509839,76.62439399,-23.74879911,0,7.16E-07,,,,
1135.479999,4435,33.61889827,-55.48156892,3.55E-07,-25.4115719,116.6782482,5.00E-09,-581.5706475,-1.60E-09,61.85711737,138.7046407,-169.1812042,29.12290756,13.20352557,88.7766331,0,7.09E-07,,,,
1135.487999,4435,36.86503656,-41.92812965,-1.26E-07,30.10452676,30.33805066,5.60E-09,-582.9336468,-1.60E-09,75.02539156,207.0934144,-206.7633314,12.68070462,71.08728624,-10.45396667,0,7.02E-07,,,,
1135.495999,4435,-119.2137655,-157.9364486,-5.79E-07,-42.19361971,202.4309913,6.20E-09,-584.27663,-1.60E-09,72.00297439,142.7075388,-219.2552469,-18.37867332,65.70349025,50.87912924,0,-2.59E-07,,,,
1135.503999,4435,135.04938,20.76363253,-4.34E-07,34.40620678,-20.94112974,6.80E-09,-585.5996411,-1.60E-09,75.59716207,172.6970843,-167.8488227,55.14103238,31.26336797,47.95825714,0,-1.16E-06,,,,
1135.511999,4435,-121.9422767,-168.1831255,-4.42E-07,-29.22633032,160.5370223,7.40E-09,-586.9027227,-1.60E-09,75.66438923,173.3368511,-249.1499293,-45.07409551,89.03954538,-18.76366404,0,-8.74E-07,,,,
1135.519999,4435,11.62324369,-76.51446718,-4.66E-07,-54.28399799,98.22125194,8.00E-09,-588.1859205,-1.60E-09,38.3699481,103.2958388,-169.4535116,44.88668658,2.812867756,82.79107742,0,-8.91E-07,,,,
1135.527999,4435,17.42169683,-58.53021087,-4.29E-07,8.93248232,18.05473926,8.60E-09,-589.4492804,-1.60E-09,45.85535065,172.1495589,-214.4809652,14.21611394,40.85478234,-25.10113029,0,-9.40E-07,,,,
1135.535999,4435,-145.8308682,-181.0871629,-4.52E-07,-68.65069914,217.9251376,9.20E-09,-590.6928444,-1.60E-09,40.11627603,105.2759442,-225.5094884,-18.10527496,45.85921602,40.53960558,0,-8.65E-07,,,,
1135.543999,4435,123.4099255,25.87561799,-4.29E-07,15.45978689,-16.320121,9.80E-09,-591.9166608,-1.60E-09,45.85742632,144.981992,-174.3618561,60.57427393,22.32291614,37.18972658,0,-9.10E-07,,,,
1135.551999,4435,-113.3393276,-138.5568229,-4.36E-07,-21.13731752,160.1044273,1.04E-08,-593.1207726,-1.60E-09,66.58510308,175.7108485,-264.5871741,-46.19782302,81.75422604,-54.8826904,0,-8.66E-07,,,,
1135.559999,4435,35.56099764,-41.60668736,-4.26E-07,-15.72214178,114.5642895,1.09E-08,-594.3052267,-1.60E-09,58.38224082,126.5675977,-181.8203472,45.18872452,17.03453512,27.68608191,0,-8.80E-07,,,,
1135.567999,4435,53.97016802,-10.54049231,-4.26E-07,63.39701817,17.19070286,1.15E-08,-595.4700706,-1.60E-09,86.86664979,212.5648484,-214.5410971,33.00144165,74.98045037,-75.64017601,0,-8.60E-07,,,,
1135.575999,4435,-133.7612502,-166.9474364,-4.20E-07,-51.36428323,226.0198213,1.21E-08,-596.615348,-1.60E-09,69.14390127,136.3605138,-214.3800861,11.65744557,60.46618059,-10.99007937,0,-8.58E-07,,,,
1135.583999,4435,124.2282045,9.073296591,-4.17E-07,8.773025031,3.429150203,1.27E-08,-597.7411067,-1.60E-09,42.1576959,139.5665021,-151.2746933,91.04344083,7.971632927,-20.80288515,0,-8.47E-07,,,,
1135.591999,4435,-113.0946622,-154.1771843,-4.13E-07,-17.09511496,159.1884622,1.33E-08,-598.8473945,-1.60E-09,47.88595556,153.7067301,-240.3750412,-23.91698196,64.99832237,-98.3576415,0,-8.41E-07,,,,
1135.599999,4435,19.83060205,-70.54739582,-4.09E-07,-34.64830109,116.6777706,1.38E-08,-599.9342598,-1.60E-09,35.71353582,99.90196891,-155.9824543,57.10923747,-6.668492664,9.31454466,0,-8.33E-07,,,,
1135.607999,4435,49.42329513,-32.60046609,-4.05E-07,37.75023953,14.6526833,1.44E-08,-601.0017487,-1.60E-09,65.48381183,186.1391268,-189.8995861,29.64211171,52.35431214,-95.74771543,0,-8.25E-07,,,,
1135.615999,4436,-238.528274,-254.3448265,-4.02E-07,-100.40348,324.694528,1.50E-08,-602.0499096,-1.50E-09,55.35402734,80.55848592,-209.6195974,-26.28695532,59.38395075,0.704130562,0,-8.17E-07,,,,
1135.623999,4436,-2.061612028,-92.27212684,-3.98E-07,-68.06758639,163.3657793,1.55E-08,-603.0787921,-1.50E-09,36.04910874,52.0419907,-121.4700323,79.39482709,-10.04336608,70.80106361,0,-8.10E-07,,,,
1135.631999,4436,-108.6984898,-153.9878297,-3.94E-07,-34.95556399,180.5454464,1.61E-08,-604.0884432,-1.50E-09,58.63209175,122.2163457,-195.4904441,2.753099895,58.30886461,-43.40281408,0,-8.02E-07,,,,
1135.639999,4436,-12.4802461,-88.88155721,-3.90E-07,-30.75379316,126.8438302,1.66E-08,-605.0789112,-1.50E-09,48.38158606,91.08226039,-149.9359413,52.87852637,20.47128487,12.03866775,0,-7.95E-07,,,,
1135.647999,4436,98.09153654,2.816119053,-3.87E-07,56.16570458,-34.83772416,1.72E-08,-606.0502478,-1.50E-09,63.77223616,170.6770603,-169.0270023,49.32746681,56.13028584,-80.66832267,0,-7.87E-07,,,,
1135.655999,4436,-137.237376,-175.7364847,-3.83E-07,-37.62978335,207.5792997,1.78E-08,-607.0025027,-1.50E-09,65.31825903,121.5377708,-205.7695185,-22.85969115,86.38291896,-49.88319693,0,-7.80E-07,,,,
1135.663999,4436,94.54412195,-5.010670186,-3.79E-07,19.36098177,55.59914604,1.83E-08,-607.9357239,-1.50E-09,63.56801505,111.4169759,-121.9487521,69.19500119,31.15324631,4.881185711,0,-7.73E-07,,,,
1135.671999,4436,-9.74123712,-74.52445569,-3.76E-07,39.758634,65.582074,1.89E-08,-608.8499589,-1.50E-09,85.41018132,179.021347,-182.1909193,10.00504953,95.05060124,-106.5738445,0,-7.65E-07,,,,
1135.679999,4436,-99.69446982,-165.6925033,-3.72E-07,-62.38509815,187.5797227,1.94E-08,-609.7452621,-1.50E-09,39.52999086,79.30612942,-149.9099075,32.15035252,27.72784081,-9.480835351,0,-7.58E-07,,,,
1135.687999,4436,119.2652283,8.694456384,-3.69E-07,53.23629955,-26.51463584,1.99E-08,-610.6216855,-1.50E-09,36.55314557,123.427796,-127.2942418,76.92694419,20.99898478,-41.15759874,0,-7.51E-07,,,,
1135.695999,4436,-109.577037,-162.0793796,-3.65E-07,-1.464260284,163.5518767,2.05E-08,-611.4792779,-1.50E-09,68.70841804,132.7351376,-206.0403314,-21.41569102,115.2769439,-84.02304146,0,-7.44E-07,,,,
1135.703999,4436,32.41166363,-76.71600383,-3.62E-07,-27.01778212,79.31519003,2.10E-08,-612.3180892,-1.50E-09,38.17715121,73.56258892,-127.2928269,72.90419605,20.12216038,-4.804500398,0,-7.37E-07,,,,
1135.711999,4436,30.44917377,-53.92168213,-3.58E-07,48.49606783,2.150918055,2.16E-08,-613.1381711,-1.50E-09,46.65299467,137.247858,-159.6304099,48.12838239,58.36735259,-100.3324727,0,-7.30E-07,,,,
1135.719999,4436,-119.3745457,-176.267675,-3.55E-07,-39.45038394,183.5145768,2.21E-08,-613.9395759,-1.50E-09,57.64476974,79.67185915,-157.0098717,15.16418443,66.98030315,-36.51587322,0,-7.23E-07,,,,
1135.727999,4436,120.9473233,-9.58525963,1.26E-07,19.70691009,-34.26071222,2.26E-08,-614.7223576,-1.50E-09,50.95883861,102.0058116,-100.4180963,84.89401051,10.52825257,-41.91390795,0,-7.16E-07,,,,
1135.735999,4436,-99.31627599,-160.5948043,5.79E-07,-8.063554028,130.394858,2.32E-08,-615.4865674,-1.50E-09,52.14808623,108.1720515,-172.3917522,-11.52896078,69.86930504,-98.30289062,0,-7.09E-07,,,,
1135.743999,4436,28.33224599,-71.687303,4.34E-07,-14.05709018,98.04122154,2.37E-08,-616.2322548,-1.50E-09,49.37082755,54.0139886,-91.15577085,63.86167325,19.69437005,1.060443126,0,-7.02E-07,,,,
1135.751999,4436,60.04494828,-35.86365889,4.42E-07,56.71758976,-4.108140498,2.42E-08,-616.9594768,-1.50E-09,77.89108503,137.7932364,-120.45998,46.34025626,80.116531,-92.07337914,0,2.59E-07,,,,
1135.759999,4436,-130.5486594,-192.2270854,4.66E-07,-43.00138495,198.8406071,2.47E-08,-617.668285,-1.50E-09,54.35278809,71.39328834,-135.2927904,14.91736319,79.1995646,-26.1540886,0,1.16E-06,,,,
1135.767999,4436,117.7897793,-23.1551596,4.29E-07,17.19214531,-11.34407568,2.52E-08,-618.3587323,-1.50E-09,37.25170158,79.24151733,-77.1154743,99.54653454,21.76149086,-12.75477709,0,8.74E-07,,,,
1135.775999,4436,-114.1377935,-186.0572877,4.52E-07,-11.03219,139.3789677,2.58E-08,-619.0308718,-1.50E-09,49.08949911,92.06640361,-172.0425672,-16.67488708,89.43031871,-91.25578457,0,8.91E-07,,,,
1135.783999,4436,-0.791854484,-112.6585876,4.29E-07,-28.83305717,109.5784489,2.63E-08,-619.6847579,-1.50E-09,31.58453142,27.63012613,-109.9520238,42.19778986,24.53678143,4.868393026,0,9.40E-07,,,,
1135.791999,4436,55.36964593,-57.42528177,4.36E-07,55.03122543,-3.685518053,2.68E-08,-620.3204473,-1.50E-09,55.54644203,105.8442655,-134.6889648,30.35335089,56.02985328,-92.95924068,0,8.65E-07,,,,
1135.799999,4436,-129.541779,-193.1885782,4.26E-07,-21.24760179,208.0890141,2.73E-08,-620.937991,-1.50E-09,54.73140843,47.40025405,-140.5921355,-4.164543798,67.07545876,-29.75292194,0,9.10E-07,,,,
1135.807999,4436,141.9411647,-1.193162557,4.26E-07,49.53955954,-4.747756637,2.78E-08,-621.5374422,-1.50E-09,60.88475323,77.10259578,-74.74220458,82.5934013,50.60208038,-15.39114639,0,8.66E-07,,,,
1135.815999,4436,-95.5100021,-183.3301906,4.20E-07,2.183797906,141.4997538,2.83E-08,-622.1188592,-1.40E-09,64.46313283,90.96390804,-164.3121943,-22.08940107,103.5775868,-96.39240501,0,8.80E-07,,,,
1135.823999,4436,-3.593973804,-130.5553082,4.17E-07,-32.82869813,113.2872132,2.88E-08,-622.6822962,-1.40E-09,31.0941789,11.21487585,-95.26436527,46.4566255,20.04215987,17.61515323,0,8.60E-07,,,,
1135.831999,4436,56.87333666,-63.48478383,4.13E-07,56.0051382,-16.36621414,2.93E-08,-623.2278088,-1.40E-09,55.11090895,95.38785092,-123.182688,34.25639255,71.02599221,-83.03320237,0,8.58E-07,,,,
1135.839999,4436,-147.2473893,-218.5045734,4.09E-07,-35.37906081,196.9362844,2.98E-08,-623.7554514,-1.40E-09,47.17288795,32.19908443,-139.2292645,-5.227300436,67.0027782,-30.13266702,0,8.47E-07,,,,
1135.847999,4436,121.9888307,-20.5952643,4.05E-07,41.10025107,-16.45241862,3.03E-08,-624.2652792,-1.40E-09,46.59762427,50.3307314,-77.02928746,83.0333057,27.94827998,-8.392167806,0,8.41E-07,,,,
1135.855999,4436,-103.9961759,-178.9963632,4.02E-07,14.28504693,124.150731,3.08E-08,-624.7573525,-1.40E-09,57.50649905,80.1803288,-168.64585,-18.96457169,99.75827181,-90.71458763,0,8.33E-07,,,,
1135.863999,4436,-18.46695114,-136.3742043,3.98E-07,-32.82001494,99.79914813,3.13E-08,-625.2317229,-1.40E-09,21.54596532,2.260170415,-97.59928319,54.65858221,11.79985879,22.50115204,0,8.25E-07,,,,
1135.871999,4437,53.53155154,-61.05355236,3.94E-07,63.16349869,-35.58250929,3.17E-08,-625.6884464,-1.40E-09,43.1756425,79.48202997,-127.8018209,39.93153347,63.31011135,-85.07717134,0,8.17E-07,,,,
1135.879999,4437,-144.1701567,-212.2528074,3.90E-07,-22.17871025,188.1754973,3.22E-08,-626.1275828,-1.40E-09,46.33070533,27.69702911,-145.1907202,-1.593505305,90.3141757,-35.99934133,0,8.10E-07,,,,
1135.887999,4437,128.2850329,-19.26420436,3.87E-07,46.49753212,-28.16000308,3.27E-08,-626.5491884,-1.40E-09,47.06208698,43.65049471,-67.46202753,102.1974029,44.77737107,-0.67247688,0,8.02E-07,,,,
1135.895999,4437,-98.51517122,-177.7533761,3.83E-07,27.94889451,104.7321171,3.32E-08,-626.9533187,-1.40E-09,61.29233386,70.49601623,-158.8227597,-7.902779132,120.7404791,-88.46708088,0,7.95E-07,,,,
1135.903999,4437,-22.53007421,-138.296059,3.79E-07,-24.00719216,98.43276798,3.36E-08,-627.340033,-1.40E-09,23.68584825,-12.34303859,-90.64342895,57.29397274,32.64346171,23.40219342,0,7.87E-07,,,,
1135.911999,4437,50.04977157,-56.40652885,3.76E-07,67.49293307,-43.1119493,3.41E-08,-627.7093893,-1.40E-09,42.68583578,63.17844107,-111.6371774,55.20381823,57.10025091,-70.20769501,0,7.80E-07,,,,
1135.919999,4437,-165.6859071,-221.0518493,3.72E-07,-27.38612953,176.5050671,3.46E-08,-628.061442,9.52E-07,49.26652568,13.73108659,-137.1133479,2.212233219,87.54160581,-27.08354413,0,7.73E-07,,,,
1135.927999,4437,105.0634574,-32.08292741,3.69E-07,24.45926038,-38.25148505,3.51E-08,-628.3962513,1.85E-06,30.53849344,12.27496779,-65.55905274,99.43160286,29.25693282,-2.547604175,0,7.65E-07,,,,
1135.935999,4437,-96.98677324,-159.6837366,3.65E-07,29.11181454,89.97973714,3.55E-08,-628.7138758,1.55E-06,51.43038594,45.18518558,-161.2935962,-8.93784144,98.14035202,-96.71610394,0,7.58E-07,,,,
1135.943999,4437,-7.219695451,-98.92325349,3.62E-07,3.116073132,96.26235786,3.60E-08,-629.0143722,1.56E-06,54.05208193,-4.056899061,-95.95836486,53.57520799,54.69749328,20.73351968,0,7.51E-07,,,,
1135.951999,4437,69.39012879,-24.38836632,3.58E-07,79.97014032,-44.86199814,3.64E-08,-629.2978021,1.61E-06,71.65538506,84.80462846,-104.1624969,70.47958199,90.72719022,-61.67446038,0,7.44E-07,,,,
1135.959999,4437,-162.9715737,-209.4254806,3.55E-07,-26.82528463,172.1040367,3.69E-08,-629.5642222,1.53E-06,48.88117342,19.845616,-128.8105903,28.04272523,87.79407043,-22.90151505,0,7.37E-07,,,,
1135.967999,4437,102.3891205,-19.42387334,-1.26E-07,35.31893054,-42.16970872,3.73E-08,-629.8136899,1.56E-06,26.45138614,13.31127423,-63.49849566,119.395431,16.4044647,2.52851078,0,7.30E-07,,,,
1135.975999,4437,-101.9239411,-154.8438043,-5.79E-07,30.83676955,88.10765165,3.78E-08,-630.0462688,1.51E-06,50.0334166,57.9289305,-154.4683706,18.56210343,96.02458857,-82.73109899,0,7.23E-07,,,,
1135.983999,4437,-28.79386963,-122.2387245,-4.34E-07,-14.83345703,101.1469907,3.82E-08,-630.2620154,1.52E-06,32.09229686,-14.15327805,-84.64434368,88.74051364,54.29914981,28.52569381,0,7.16E-07,,,,
1135.991999,4437,51.72221683,-45.06054445,-4.42E-07,68.03716567,-51.02661156,3.87E-08,-630.4609887,1.49E-06,40.92884888,50.82404803,-107.1357718,83.81059664,75.09766869,-68.27342394,0,7.09E-07,,,,
1135.999999,4437,-173.3436196,-217.2451573,-4.66E-07,-35.35781627,162.3671149,3.91E-08,-630.6432497,1.49E-06,33.41608277,-3.508818613,-146.9021514,16.80433279,75.84403278,-30.25958598,0,7.02E-07,,,,
1136.007999,4437,102.4945851,-18.53570516,-4.29E-07,23.44574133,-53.49027502,3.96E-08,-630.8088582,1.47E-06,15.98810967,-9.622535579,-70.89503862,111.413266,26.78732322,-3.460616438,0,-2.59E-07,,,,
1136.015999,4437,-99.10960407,-144.9905257,-4.52E-07,24.72923833,71.89551549,4.00E-08,-630.9578754,1.46E-06,41.60876442,31.33734523,-156.6393158,3.072739442,109.4641549,-99.03464486,0,-1.16E-06,,,,
1136.023999,4437,-30.64395517,-116.4154801,-4.29E-07,-24.73226172,100.8184817,4.04E-08,-631.090359,1.44E-06,29.71262397,-35.48397097,-88.75129427,63.00196781,44.32220034,15.71481273,0,-8.74E-07,,,,
1136.031999,4437,59.02752197,-39.92886687,-4.36E-07,59.19688436,-42.74184568,4.09E-08,-631.2063706,1.43E-06,35.33386704,30.43203578,-100.4477302,70.90573742,61.82747355,-68.41787146,0,-8.91E-07,,,,
1136.039999,4437,-172.2328352,-206.5282982,-4.26E-07,-23.36286359,176.2907269,4.13E-08,-631.3059724,-4.93E-07,38.72427501,-10.25816557,-135.2964334,10.35243155,92.94525835,-27.17420238,0,-9.40E-07,,,,
1136.047999,4437,102.0467107,-6.524810609,-4.26E-07,46.1179063,-37.25323817,4.17E-08,-631.3892243,-2.31E-06,38.4842033,1.625285972,-59.62832351,111.8854094,38.74574867,3.20277755,0,-8.65E-07,,,,
1136.055999,4437,-102.3798568,-146.7460619,-4.20E-07,32.1351373,75.99691958,4.21E-08,-631.4561872,-1.73E-06,53.33514236,36.45134597,-150.0878207,9.051270197,110.4887621,-93.96212608,0,-9.10E-07,,,,
1136.063999,4437,-48.56101744,-131.9850252,-4.17E-07,-35.50139802,96.60634471,4.25E-08,-631.5069233,-1.76E-06,24.61983346,-40.44784866,-83.72025817,70.82023396,55.21414632,23.15599293,0,-8.66E-07,,,,
1136.071999,4437,48.03481429,-44.96586728,-4.13E-07,56.06789393,-57.30578198,4.30E-08,-631.5414944,-1.86E-06,18.11022737,21.42843409,-81.77472175,92.81749337,39.1526328,-60.68894337,0,-8.80E-07,,,,
1136.079999,4437,-182.9161934,-210.7806606,-4.09E-07,-22.35030712,168.6540762,4.34E-08,-631.5599602,-1.71E-06,20.9692311,-29.02379499,-116.9949391,26.36347304,68.0622072,-28.26840395,0,-8.60E-07,,,,
1136.087999,4437,92.38901499,-16.17658745,-4.05E-07,33.84312458,-32.58995509,4.38E-08,-631.5623825,-1.80E-06,27.73100142,-22.12603429,-44.30486907,124.1712532,43.41712574,15.50701024,0,-8.58E-07,,,,
1136.095999,4437,-101.5341855,-134.1081062,-4.02E-07,44.70560156,79.3837563,4.42E-08,-631.5488238,-1.71E-06,40.8214702,12.79882915,-130.1069518,27.78716699,88.46520325,-78.66532478,0,-8.47E-07,,,,
1136.103999,4437,-53.18785558,-116.4698385,-3.98E-07,-8.077859904,114.0168312,4.46E-08,-631.5193467,-1.74E-06,31.59688799,-61.28883331,-75.86507699,73.45922821,46.69909758,24.98438462,0,-8.41E-07,,,,
1136.111999,4437,39.68610602,-49.84341459,-3.94E-07,59.14045172,-34.79044963,4.50E-08,-631.4740133,-1.70E-06,35.7310295,0.756068174,-82.23344245,90.94713362,74.5493727,-53.96157205,0,-8.33E-07,,,,
1136.119999,4437,-340.3844263,-320.2160313,-3.90E-07,-66.98579927,313.073352,4.54E-08,-631.4128829,-1.69E-06,15.35310885,-82.07823624,-140.4669925,-13.63329311,88.80094439,-5.456148024,0,-8.25E-07,,,,
1136.127999,4438,-142.4220205,-187.0184123,-3.87E-07,-62.04396475,203.6711825,4.58E-08,-631.336023,-1.67E-06,8.859460417,-118.2072574,-59.7206325,76.01457987,33.94536538,83.35750661,0,-8.17E-07,,,,
1136.135999,4438,-167.7271682,-196.1146249,-3.83E-07,-7.861772356,151.5005344,4.62E-08,-631.2434969,-1.66E-06,22.92512243,-48.04332612,-109.0906788,38.48780408,81.28424993,-27.40375669,0,-8.10E-07,,,,
1136.143999,4438,-108.3636469,-155.9142388,-3.79E-07,-19.30819682,131.8594321,4.66E-08,-631.1353617,-1.64E-06,13.40972551,-77.84945961,-69.87076535,77.05427743,49.44530961,27.43012537,0,-8.02E-07,,,,
1136.151999,4438,74.11209339,-23.82969503,-3.76E-07,66.71985495,-87.15170526,4.70E-08,-631.0116818,-1.63E-06,23.87210139,-3.145728765,-56.16542686,120.6744251,58.60781528,-43.65667605,0,-7.95E-07,,,,
1136.159999,4438,-214.9214907,-243.7096568,-3.72E-07,-26.26971893,141.5782098,4.74E-08,-630.8725232,-1.61E-06,8.538404205,-56.27140865,-119.4102047,23.57342464,81.62758947,-52.97452662,0,-7.87E-07,,,,
1136.167999,4438,-32.66576229,-122.3914632,-3.69E-07,-16.23338845,26.34762681,4.78E-08,-630.7179513,-1.60E-06,-10.65387902,-116.8964088,-47.65182049,97.5691592,16.07553647,13.55630015,0,-7.80E-07,,,,
1136.175999,4438,-54.48472438,-113.528011,-3.65E-07,64.5586957,-30.99178656,4.81E-08,-630.5480253,-1.58E-06,11.25613997,-47.46435432,-94.93618023,59.69756723,66.10572509,-93.33137974,0,-7.73E-07,,,,
1136.183999,4438,-213.7516398,-224.232495,-3.62E-07,-3.626249704,160.5143509,4.85E-08,-630.3628069,-1.57E-06,13.0882681,-94.83811774,-100.6017158,33.75672166,74.84081489,-11.64504313,0,-7.65E-07,,,,
1136.191999,4438,28.79885678,-54.40795578,-3.58E-07,58.74078465,-42.55982382,4.89E-08,-630.1623643,-1.55E-06,16.38016605,-61.24527747,-44.35176952,125.8199097,70.03553919,-9.813697731,0,-7.58E-07,,,,
1136.199999,4438,-217.2496947,-246.2793014,-3.55E-07,2.787890537,101.2665435,4.93E-08,-629.9467604,-1.54E-06,-2.913011901,-75.81803657,-115.4913406,36.6242508,100.8485675,-69.59790624,0,-7.51E-07,,,,
1136.207999,4438,-154.6873255,-224.3796726,1.26E-07,-33.02244563,71.18109023,4.96E-08,-629.7160565,-1.52E-06,-48.96351927,-151.4800408,-68.85750024,71.57775336,11.11623039,17.10717612,0,-7.44E-07,,,,
1136.215999,4438,-89.15260809,-166.2201795,5.79E-07,48.75935414,-58.01639084,5.00E-08,-629.4703186,-1.51E-06,-40.3358141,-92.18845358,-93.45775309,63.2936345,46.23151228,-78.6512561,0,-7.37E-07,,,,
1136.223999,4438,-313.6088414,-337.8133016,4.34E-07,-39.75362743,148.833962,5.04E-08,-629.2096125,-1.50E-06,-46.1764509,-154.7209398,-121.5191028,7.161072914,53.78416967,-45.58241469,0,-7.30E-07,,,,
1136.231999,4438,-59.95438092,-159.7693778,4.42E-07,13.17601224,-53.95523709,5.07E-08,-628.9340014,-1.48E-06,-51.97083436,-146.7309418,-54.67197605,97.55505989,0.052976749,-21.88091914,0,-7.23E-07,,,,
1136.239999,4438,-243.6969584,-278.5252324,4.66E-07,17.05941018,66.33014694,5.11E-08,-628.6435489,-1.47E-06,-31.91124311,-118.851161,-142.5643908,-3.415995188,78.77569847,-119.4536552,0,-7.16E-07,,,,
1136.247999,4438,-188.5796566,-257.1824874,4.29E-07,-17.59832381,101.8999817,5.15E-08,-628.3383221,-1.45E-06,-50.27963879,-186.2632405,-90.72731299,41.92332322,24.07690547,-15.5580941,0,-7.09E-07,,,,
1136.255999,4438,-73.96533501,-166.4030207,4.52E-07,55.59119137,-52.71253642,5.18E-08,-628.0183837,-1.44E-06,-30.92026232,-96.29598375,-84.71757401,77.34443405,54.51256967,-75.95969181,0,-7.02E-07,,,,
1136.263999,4438,-319.2777686,-339.6937686,4.29E-07,-45.28596649,166.6419855,5.22E-08,-627.6837949,-1.43E-06,-31.76384214,-145.4494798,-129.1022856,6.317239548,86.56917943,-58.88449872,0,2.59E-07,,,,
1136.271999,4438,-49.08341525,-160.1583843,4.36E-07,-2.898899378,-41.92057868,5.25E-08,-627.334627,-1.41E-06,-58.8832554,-167.5042973,-49.7397072,113.729838,9.501472629,-16.23160958,0,1.16E-06,,,,
1136.279999,4438,-212.7854784,-272.215209,4.26E-07,8.482224563,37.94366422,5.29E-08,-626.9709441,-1.40E-06,-35.56909682,-109.6893274,-131.0184551,26.29194344,76.09030748,-107.7932813,0,8.74E-07,,,,
1136.287999,4438,-176.0628041,-249.5560777,4.26E-07,-39.88721549,83.57711955,5.32E-08,-626.5928077,-1.38E-06,-43.31435075,-174.364937,-92.46427091,53.18654954,23.91466423,-12.20594269,0,8.91E-07,,,,
1136.295999,4438,-33.77097392,-127.4038434,4.20E-07,47.51363362,-81.00937358,5.35E-08,-626.2002867,5.37E-07,-32.78076879,-106.4819587,-87.40014953,87.99891488,36.06767317,-83.07740427,0,9.40E-07,,,,
1136.303999,4438,-263.5989599,-283.157688,4.17E-07,-25.05300575,153.8052677,5.39E-08,-625.793446,2.35E-06,-12.42874802,-130.5915831,-134.1249045,11.19490272,92.70696204,-65.50704884,0,8.65E-07,,,,
1136.311999,4438,7.695626184,-100.1433926,4.13E-07,5.441100123,-31.43638764,5.42E-08,-625.3723501,1.77E-06,-10.87043371,-133.2248429,-45.58425822,124.4570302,43.98120371,-5.232669666,0,9.10E-07,,,,
1136.319999,4438,-166.0420352,-220.1838722,4.09E-07,-12.4216546,47.06812479,5.46E-08,-624.9370646,1.80E-06,-11.50362352,-94.90081644,-110.3066733,56.10524943,80.20111687,-90.11638333,0,8.66E-07,,,,
1136.327999,4438,-137.6258829,-204.0361369,4.05E-07,-61.42241088,99.7880984,5.49E-08,-624.4876562,1.90E-06,-43.32240324,-174.8705761,-66.41904848,78.79316775,15.40785277,3.088720969,0,8.80E-07,,,,
1136.335999,4438,13.64891066,-76.65119886,4.02E-07,44.20276322,-79.55414041,5.52E-08,-624.0241907,1.75E-06,-20.88277371,-96.91440516,-63.0250689,107.0773043,47.12616141,-66.3000079,0,8.60E-07,,,,
1136.343999,4438,-235.7337592,-250.2847169,3.98E-07,-36.58967458,132.5840852,5.55E-08,-623.5467319,1.84E-06,-9.18390697,-124.9613878,-116.3960509,32.54919419,77.22098657,-48.37635505,0,8.58E-07,,,,
1136.351999,4438,36.85065533,-49.66017113,3.94E-07,14.34557481,-58.25316112,5.59E-08,-623.0553471,1.75E-06,-17.16953188,-128.3246398,-41.15326259,134.4779625,7.432136007,-6.00536267,0,8.47E-07,,,,
1136.359999,4438,-110.7709309,-132.0602848,3.90E-07,45.79404654,34.30887636,5.62E-08,-622.5501059,1.78E-06,15.78213826,-58.32550945,-109.7340894,59.81936019,90.54381075,-98.79017827,0,8.41E-07,,,,
1136.367999,4438,-86.14539643,-133.9452636,3.87E-07,-10.82140798,110.5010111,5.65E-08,-622.031072,1.74E-06,3.389642197,-121.6756593,-52.31946934,105.1153944,52.31317357,18.63867206,0,8.33E-07,,,,
1136.375999,4438,63.38466133,-16.24408166,3.83E-07,75.80805414,-61.38591116,5.68E-08,-621.498308,1.73E-06,13.15048497,-48.0372837,-41.11985459,150.1260734,69.4925814,-43.74747837,0,8.25E-07,,,,
1136.383999,4439,-191.2362348,-182.2879669,3.79E-07,0.353301821,165.371657,5.71E-08,-620.9518864,1.71E-06,23.70078013,-75.15648107,-86.52352836,74.22132516,100.8026102,-28.28822403,0,8.17E-07,,,,
1136.391999,4439,67.97721561,-1.683164903,3.76E-07,34.48099195,-18.82447091,5.74E-08,-620.3918701,1.70E-06,2.703700159,-95.70334159,6.755652439,189.4577118,19.94523678,36.74432807,0,8.10E-07,,,,
1136.399999,4439,-93.29063429,-117.7219439,3.72E-07,37.75062762,64.04291096,5.78E-08,-619.8183238,1.68E-06,9.229368207,-50.55421861,-70.40110723,108.0453541,82.62425094,-59.00013825,0,8.02E-07,,,,
1136.407999,4439,-80.5899017,-124.901483,3.69E-07,-23.29062252,137.5303612,5.81E-08,-619.231322,1.67E-06,-3.513000225,-122.1775235,-27.16543269,126.2241326,48.43263369,40.14601721,0,7.95E-07,,,,
1136.415999,4439,71.1318399,-4.651990368,3.65E-07,57.60163045,-55.26828369,5.84E-08,-618.6309239,1.65E-06,6.060703881,-58.14279894,-9.936388963,169.7273109,61.86884886,-23.91476691,0,7.87E-07,,,,
1136.423999,4439,-190.2235938,-191.0707285,3.62E-07,-26.69538859,160.3324559,5.87E-08,-618.0171973,1.64E-06,1.519545162,-94.69763561,-66.57527392,83.11748285,76.57239484,-24.03487589,0,7.80E-07,,,,
1136.431999,4439,78.34351293,6.65450049,3.58E-07,33.043329,-22.13059193,5.90E-08,-617.3902135,1.62E-06,-2.193182632,-100.2566247,13.60865502,183.6893968,16.10903526,29.06453481,0,7.73E-07,,,,
1136.439999,4439,-80.07043674,-102.6243784,3.55E-07,35.27669228,46.85833161,5.92E-08,-616.750037,1.61E-06,21.26466572,-43.1013392,-58.27048642,113.894349,92.91470729,-64.31651994,0,7.65E-07,,,,
1136.447999,4439,-85.25540595,-130.8267418,-1.26E-07,-47.63971114,113.6405836,5.95E-08,-616.0967338,1.59E-06,-9.693422541,-125.7730703,-20.79917448,134.1895747,31.13353097,30.2797345,0,7.58E-07,,,,
1136.455999,4439,86.22152983,11.08420184,-5.79E-07,65.37167146,-81.19781945,5.98E-08,-615.4303696,1.58E-06,9.16968904,-51.99005592,-15.24303833,171.6533247,54.0301059,-37.6781682,0,7.51E-07,,,,
1136.463999,4439,-165.9149802,-169.8339493,-4.34E-07,-2.88538603,144.332535,6.01E-08,-614.7510162,1.56E-06,22.96134587,-75.52021911,-65.91826922,98.51673493,89.04214404,-25.47932768,0,7.44E-07,,,,
1136.471999,4439,98.05203432,20.85450029,-4.42E-07,44.98434178,-30.03424179,6.04E-08,-614.0587383,1.55E-06,19.14695464,-78.85159658,20.73522671,210.0267181,30.6928953,34.06741521,0,7.37E-07,,,,
1136.479999,4439,-56.650047,-81.26318794,-4.66E-07,58.091571,38.18926606,6.07E-08,-613.3536035,1.53E-06,43.39350351,-16.47582397,-55.40160069,138.0346411,122.6761403,-59.89666506,0,7.30E-07,,,,
1136.487999,4439,-74.29803995,-119.9087932,-4.29E-07,-30.45984978,119.3902228,6.10E-08,-612.6356798,1.52E-06,-1.476538711,-115.3111137,-18.23420835,158.9209673,29.95203344,46.34990307,0,7.23E-07,,,,
1136.495999,4439,96.55676218,23.68852799,-4.52E-07,75.07155904,-70.85013937,6.12E-08,-611.9050323,1.50E-06,9.65129143,-48.66750346,-16.18678761,187.4846512,26.93485046,-27.3172073,0,7.16E-07,,,,
1136.503999,4439,-162.8434637,-161.8491705,-4.29E-07,5.204962643,165.6135578,6.15E-08,-611.1617301,1.49E-06,25.8741869,-68.68656698,-69.38534972,104.8495112,105.3187326,-19.43678607,0,7.09E-07,,,,
1136.511999,4439,95.2844628,9.776088918,-4.36E-07,28.41712419,2.849807958,6.18E-08,-610.4058422,1.48E-06,11.04769807,-89.87247287,28.51347564,226.9787972,52.07067276,53.59805196,0,7.02E-07,,,,
1136.519999,4439,-48.46671678,-85.00470419,-4.26E-07,44.96251016,50.61850334,6.20E-08,-609.6374358,1.46E-06,32.89001558,-35.43119395,-44.56054743,155.4681626,111.0191329,-48.47281245,0,-2.59E-07,,,,
1136.527999,4439,-70.81436496,-117.0363715,-4.26E-07,-24.45567435,119.6881166,6.23E-08,-608.8565773,1.45E-06,-2.375190678,-126.6825134,-7.933658916,169.5260103,35.60606678,52.59582561,0,-1.16E-06,,,,
1136.535999,4439,98.58086995,15.43868317,-4.20E-07,69.79265961,-73.29656726,6.26E-08,-608.0633337,1.43E-06,4.181006547,-58.53867146,-0.65027971,203.295014,44.77752093,-15.60758243,0,-8.74E-07,,,,
1136.543999,4439,-158.5074049,-165.5919184,-4.17E-07,18.79034643,156.0760973,6.28E-08,-607.2577738,1.42E-06,26.19123965,-72.87550586,-70.49482071,105.4891124,104.1087413,-21.59415452,0,-8.91E-07,,,,
1136.551999,4439,97.97454594,15.22612199,-4.13E-07,66.46847139,-11.25770778,6.31E-08,-606.4399694,-5.01E-07,36.40451998,-76.34962477,7.564774544,213.7685757,57.60976471,48.917209,0,-9.40E-07,,,,
1136.559999,4439,-60.25118635,-104.2861773,-4.09E-07,51.51478922,35.97123034,6.33E-08,-605.6099821,-2.31E-06,49.34634448,-25.58854053,-68.05116194,148.5911703,116.132123,-45.67018865,0,-8.65E-07,,,,
1136.567999,4439,-101.2714851,-159.9388916,-4.05E-07,-45.1853511,112.1365339,6.36E-08,-604.7678806,-1.73E-06,-12.1028694,-145.3734081,-35.55189314,159.950312,20.80098573,54.00068981,0,-9.10E-07,,,,
1136.575999,4439,79.08171348,-15.25490209,-4.02E-07,48.29114072,-83.41379109,6.39E-08,-603.9137379,-1.77E-06,-8.216081073,-88.23946881,-26.69146242,195.3044488,21.95399005,-13.22509681,0,-8.66E-07,,,,
1136.583999,4439,-175.7923952,-190.2677808,-3.98E-07,-7.102986069,142.5468972,6.41E-08,-603.0476188,-1.86E-06,16.22878258,-98.84712933,-88.8349298,97.15955381,88.30887653,-23.40171727,0,-8.80E-07,,,,
1136.591999,4439,82.13109222,-0.770175023,-3.94E-07,45.91484663,-26.15796001,6.43E-08,-602.1695909,-1.71E-06,19.28314341,-98.54353444,-3.195985154,207.0762884,41.02707647,50.30103112,0,-8.60E-07,,,,
1136.599999,4439,-54.07599617,-88.96622945,-3.90E-07,58.46129441,22.9965786,6.46E-08,-601.2797213,-1.81E-06,35.17058346,-35.3223685,-77.14438071,151.2039506,99.18268065,-44.00927849,0,-8.58E-07,,,,
1136.607999,4439,-90.72195097,-140.2284127,-3.87E-07,-28.5647914,115.6917553,6.48E-08,-600.3780799,-1.72E-06,-3.188203765,-140.2131957,-49.31972906,163.4739741,38.60218178,49.06245557,0,-8.47E-07,,,,
1136.615999,4439,89.38889712,0.250503846,-3.83E-07,63.47688037,-82.80184605,6.51E-08,-599.464736,-1.75E-06,0.675233003,-80.31688799,-41.19080004,208.823861,26.86265209,-11.41154047,0,-8.41E-07,,,,
1136.623999,4439,-171.7366567,-173.3616632,-3.79E-07,10.08737474,142.414184,6.53E-08,-598.5397559,-1.70E-06,6.976223097,-93.60806152,-112.7486224,114.2615301,56.48898133,-21.18074574,0,-8.33E-07,,,,
1136.631999,4439,83.05939048,7.310055475,-3.76E-07,51.93607906,-16.90360442,6.55E-08,-597.6032084,-1.70E-06,8.868487515,-98.43788244,-28.44459343,223.156304,36.29425397,48.78600426,0,-8.25E-07,,,,
1136.639999,4440,-48.82992796,-79.0544599,-3.72E-07,67.2692119,17.24348025,6.58E-08,-596.6551628,-1.68E-06,29.77705189,-35.78847486,-95.76971567,167.2208217,103.3337481,-48.20355142,0,-8.17E-07,,,,
1136.647999,4440,-91.63068824,-127.612935,-3.69E-07,-19.1556736,106.325926,6.60E-08,-595.6956852,-1.67E-06,-7.89924385,-136.9240703,-69.76561641,167.479439,27.09119711,42.77638862,0,-8.10E-07,,,,
1136.655999,4440,95.31763092,13.59819968,-3.65E-07,62.01977079,-91.62541482,6.62E-08,-594.7248461,-1.65E-06,-7.997951807,-87.55113092,-51.80966977,216.5722478,32.63863305,-16.56925871,0,-8.02E-07,,,,
1136.663999,4440,-166.3792175,-163.7530987,-3.62E-07,6.575629577,127.8322845,6.64E-08,-593.7427125,-1.64E-06,-0.247652393,-110.0753062,-119.5635579,125.506947,66.79766911,-28.66448096,0,-7.95E-07,,,,
1136.671999,4440,88.22178365,16.65580169,-3.58E-07,43.74143725,-24.25894588,6.67E-08,-592.749351,-1.62E-06,9.072670923,-112.1740487,-37.49580568,228.1266392,24.5980719,40.69935547,0,-7.87E-07,,,,
1136.679999,4440,-38.95021812,-69.86037659,-3.55E-07,47.26328276,18.4420464,6.69E-08,-591.7448337,-1.61E-06,35.2561206,-45.77652927,-94.77294192,178.1965016,96.85955643,-53.26189663,0,-7.80E-07,,,,
1136.687999,4440,-89.81385871,-121.6759574,1.26E-07,-40.94738875,106.6623495,6.71E-08,-590.729228,-1.59E-06,-3.098905433,-147.0463049,-64.37354791,181.5673948,18.58017607,45.69217866,0,-7.73E-07,,,,
1136.695999,4440,109.5874922,37.28833166,5.79E-07,56.39414999,-100.7457618,6.73E-08,-589.7026019,-1.58E-06,8.041604221,-82.94777669,-47.27290264,224.6379733,30.6561551,-15.73567368,0,-7.65E-07,,,,
1136.703999,4440,-157.3216722,-148.0156059,4.34E-07,-2.283306311,129.4786254,6.75E-08,-588.6650215,-1.56E-06,26.56903195,-95.51432238,-104.9463908,132.021828,92.84626614,-28.68473512,0,-7.58E-07,,,,
1136.711999,4440,79.31699596,10.73081968,4.42E-07,27.71346875,-23.16695983,6.77E-08,-587.6165557,-1.55E-06,13.28274931,-124.0466292,-12.84746593,234.9320442,14.76609149,51.59877903,0,-7.51E-07,,,,
1136.719999,4440,-40.84466182,-68.20740429,4.66E-07,49.96166966,3.261500036,6.79E-08,-586.5572779,-1.53E-06,31.04943237,-64.510965,-82.56581297,171.4285913,83.05227784,-52.37193082,0,-7.44E-07,,,,
1136.727999,4440,-93.91150654,-118.6186131,4.29E-07,-33.13687157,103.6331617,6.81E-08,-585.4872533,-1.52E-06,7.22162426,-147.6483474,-63.55955831,165.616944,39.010814,39.09605997,0,-7.37E-07,,,,
1136.735999,4440,228.5732966,133.3522126,4.52E-07,114.0669172,-231.6454708,6.83E-08,-584.4065485,-1.50E-06,16.58507868,-50.00205764,-26.97847582,250.7086795,20.49678261,-43.14070762,0,-7.30E-07,,,,
1136.743999,4440,-5.532661654,-25.01926172,4.29E-07,93.45393892,-79.52743218,6.85E-08,-583.3152341,-1.49E-06,33.62992005,-25.63877607,-104.565381,156.799269,93.45260452,-116.1682396,0,-7.23E-07,,,,
1136.751999,4440,79.55424731,18.71962721,4.36E-07,48.34904328,-78.67486388,6.87E-08,-582.2133773,-1.47E-06,10.94710498,-99.96473609,-37.8556125,212.1579327,27.72482728,-5.552828654,0,-7.16E-07,,,,
1136.759999,4440,-10.00077234,-35.63708365,4.26E-07,58.73282599,-38.34104419,6.89E-08,-581.1010496,-1.46E-06,23.50197814,-68.02861999,-82.65754451,167.4635024,63.0793838,-59.70603385,0,-7.09E-07,,,,
1136.767999,4440,-144.4721962,-146.0698895,4.26E-07,-31.25170617,139.5379008,6.91E-08,-579.978317,-1.45E-06,13.41152762,-144.6513215,-85.84411464,139.5949951,40.26815484,23.9468651,0,-7.02E-07,,,,
1136.775999,4440,113.523951,37.51681223,4.20E-07,55.01672516,-81.75797328,6.93E-08,-578.8452474,-1.43E-06,17.49388854,-97.46036618,-35.98114534,230.9030633,22.03629247,6.71279566,0,2.59E-07,,,,
1136.783999,4440,-112.348032,-126.4239407,4.17E-07,21.91409073,78.52020729,6.95E-08,-577.7019113,-1.42E-06,25.34432337,-84.5531244,-107.9617159,150.5452079,101.9274965,-45.09095659,0,1.16E-06,,,,
1136.791999,4440,-39.95607751,-97.21234692,4.13E-07,-25.3488777,73.79635215,6.96E-08,-576.5483731,-1.40E-06,-8.723514244,-165.5212035,-61.76135943,193.0583039,24.05873843,54.84970586,0,8.74E-07,,,,
1136.799999,4440,69.15214078,-0.502251383,4.09E-07,72.07047025,-82.93430063,6.98E-08,-575.3847057,-1.39E-06,8.748486317,-87.50130709,-83.82760186,200.3848977,41.38403204,-43.74919841,0,8.91E-07,,,,
1136.807999,4440,-144.7416116,-149.1535913,4.05E-07,16.60627814,140.028128,7.00E-08,-574.2109769,5.30E-07,26.58386448,-111.4448939,-125.4075961,131.9249361,88.45665515,-10.49914694,0,9.40E-07,,,,
1136.815999,4440,98.67657004,18.2731703,4.02E-07,70.43923363,-25.36044798,7.02E-08,-573.0272517,2.34E-06,37.8961522,-91.50614047,-56.99204848,230.7232235,53.76574306,39.18102748,0,8.65E-07,,,,
1136.823999,4440,-47.57410124,-88.9773414,3.98E-07,57.18392635,32.67210429,7.03E-08,-571.8336035,1.76E-06,46.04525724,-53.94883683,-115.1618161,182.994739,95.16348046,-43.43094516,0,9.10E-07,,,,
1136.831999,4440,-77.83971367,-136.7477245,3.94E-07,-31.7287243,106.1606363,7.05E-08,-570.6300986,1.79E-06,-2.348415467,-155.0806205,-82.98348948,202.9662662,21.34066082,54.38823544,0,8.66E-07,,,,
1136.839999,4440,98.29736304,-1.744932653,3.90E-07,60.39320189,-86.61110834,7.07E-08,-569.4168016,1.89E-06,10.05460346,-94.29767971,-78.60081102,231.6754364,38.16437383,-9.739787692,0,8.80E-07,,,,
1136.847999,4440,-147.7214352,-172.756824,3.87E-07,4.222312874,126.4139827,7.09E-08,-568.193784,1.74E-06,29.14951977,-111.2345762,-141.6102428,133.678292,91.72633428,-23.10691296,0,8.60E-07,,,,
1136.855999,4440,77.25234991,-26.53261173,3.83E-07,29.99850969,-21.10569727,7.10E-08,-566.9611173,1.83E-06,19.64586736,-130.7199164,-58.80842709,239.2499818,33.05356929,50.82252708,0,8.58E-07,,,,
1136.863999,4440,-36.59111479,-108.1801348,3.79E-07,48.15953961,-6.017938015,7.12E-08,-565.7188682,1.74E-06,35.94634641,-69.77567326,-116.9274048,191.1457061,94.98062248,-42.6732305,0,8.47E-07,,,,
1136.871999,4440,-99.42346591,-167.1709139,3.76E-07,-22.45554212,93.16850077,7.13E-08,-564.4671007,1.77E-06,7.851153582,-155.6404614,-104.6529188,176.6065037,48.4600231,40.87362713,0,8.41E-07,,,,
1136.879999,4440,106.0184093,-12.83023325,3.72E-07,73.33012029,-117.1999851,7.15E-08,-563.2058869,1.73E-06,16.47506238,-104.6757622,-85.6151797,229.7423703,42.08348214,-3.348510025,0,8.33E-07,,,,
1136.887999,4440,-158.8515059,-195.0436728,3.69E-07,21.23496605,102.87678,7.16E-08,-561.9352961,1.73E-06,38.26914958,-109.1979217,-161.1428158,127.1355704,88.316934,-25.54938867,0,8.25E-07,,,,
1136.895999,4441,69.55903036,-31.33235314,3.65E-07,51.24247734,-25.25490847,7.18E-08,-560.6553915,1.71E-06,44.3391532,-117.6271241,-81.30055236,224.5802987,49.17712508,58.8533921,0,8.17E-07,,,,
1136.903999,4441,-36.16137661,-109.843732,3.62E-07,53.60238167,-21.45314669,7.19E-08,-559.3662463,1.69E-06,49.81350993,-55.67576586,-124.9579653,200.1472644,103.1098351,-27.64712787,0,8.10E-07,,,,
1136.911999,4441,-127.6886082,-204.888705,3.58E-07,-54.26234581,93.54192831,7.21E-08,-558.067928,1.68E-06,-9.856245822,-163.3788201,-110.0007418,190.2811249,14.89328883,55.79185185,0,8.02E-07,,,,
1136.919999,4441,91.70033872,-42.49343347,3.55E-07,31.06185697,-118.6917901,7.22E-08,-556.7605015,1.66E-06,-14.05252637,-123.6125361,-89.49373383,243.8077822,13.70406528,7.945489817,0,7.95E-07,,,,
1136.927999,4441,-178.2063711,-229.6086702,-1.26E-07,-27.7798373,100.1861308,7.24E-08,-555.4440369,1.65E-06,1.263356125,-139.0629426,-158.2948224,145.8514876,84.88930164,-26.52919638,0,7.87E-07,,,,
1136.935999,4441,51.5065892,-61.76233409,-5.79E-07,11.18927719,-26.26020651,7.25E-08,-554.1186025,1.63E-06,1.559476744,-160.3684503,-78.91353778,234.8496092,15.39495967,44.29763795,0,7.80E-07,,,,
1136.943999,4441,-27.49494318,-103.5926898,-4.34E-07,56.49762276,-30.25546209,7.26E-08,-552.784268,1.62E-06,31.48048573,-74.17233857,-136.5745032,198.6177896,80.97660737,-50.39701778,0,7.73E-07,,,,
1136.951999,4441,-110.0415393,-182.1509383,-4.42E-07,-24.61236749,96.11534073,7.28E-08,-551.4410994,1.60E-06,7.695266834,-151.909374,-117.4940027,198.1493533,54.14983833,49.19543119,0,7.65E-07,,,,
1136.959999,4441,122.8035505,-3.099022206,-4.66E-07,75.49630495,-115.7147596,7.29E-08,-550.0891641,1.59E-06,25.95311444,-85.38306293,-89.44008598,262.6213439,58.13869677,13.42460525,0,7.58E-07,,,,
1136.967999,4441,-163.6721492,-203.5149256,-4.29E-07,5.12645202,90.48940054,7.30E-08,-548.7285319,1.57E-06,36.29836705,-94.06767111,-170.9652374,157.7834429,98.99219026,-18.99884155,0,7.51E-07,,,,
1136.975999,4441,41.6523775,-74.82574958,-4.52E-07,5.496981475,-50.58086153,7.32E-08,-547.3592689,1.56E-06,-1.658817696,-154.7660984,-88.32333655,248.785777,6.175336286,59.32742255,0,7.44E-07,,,,
1136.983999,4441,-34.20436687,-112.9448978,-4.29E-07,55.31714528,-56.8215186,7.33E-08,-545.9814415,1.54E-06,14.04594773,-84.21455031,-144.7316199,203.3489489,74.34525008,-47.52719032,0,7.37E-07,,,,
1136.991999,4441,-128.7681394,-188.5748904,-4.36E-07,-25.40257134,95.33328886,7.34E-08,-544.5951207,1.53E-06,-4.022005196,-155.1770284,-132.4340926,186.9935886,44.37638472,46.45369439,0,7.30E-07,,,,
1136.999999,4441,103.4605597,-23.83562571,-4.26E-07,43.7863468,-107.0090491,7.35E-08,-543.2003744,1.51E-06,-8.723755759,-112.5935102,-83.6452286,267.880275,19.51189824,22.96474095,0,7.23E-07,,,,
1137.007999,4441,-177.0230998,-218.360627,-4.26E-07,-27.68109767,103.5947775,7.36E-08,-541.7972676,1.50E-06,-3.759212193,-130.4324301,-150.1057639,166.7411476,69.07258328,-12.70710707,0,7.16E-07,,,,
1137.015999,4441,26.27991814,-79.30948803,-4.20E-07,-24.02652294,-26.94836549,7.38E-08,-540.3858721,1.48E-06,-23.60458341,-174.0070544,-63.77670527,248.7174889,-2.478225619,63.45613859,0,7.09E-07,,,,
1137.023999,4441,-39.77660681,-115.1296014,-4.17E-07,28.78732311,-41.431232,7.39E-08,-538.9662515,1.47E-06,-8.696283594,-104.8647902,-116.5142499,207.3557245,60.10436178,-51.31703146,0,7.02E-07,,,,
1137.031999,4441,-130.6025001,-185.1158586,-4.13E-07,-31.1238641,110.1716354,7.40E-08,-537.5384721,1.46E-06,-8.058483033,-174.2692225,-117.5424822,176.5702387,44.667612,26.08948761,0,-2.59E-07,,,,
1137.039999,4441,105.3939165,-11.75320156,-4.09E-07,44.68083375,-101.2393603,7.41E-08,-536.1026086,1.44E-06,10.412476,-114.6477234,-74.25951388,250.1859278,42.04516694,2.67227902,0,-1.16E-06,,,,
1137.047999,4441,-178.4412762,-210.9327021,-4.05E-07,-28.76617371,99.74742015,7.42E-08,-534.6587211,1.43E-06,6.200206306,-132.6910987,-141.2988411,155.7944004,90.35656738,-34.07366905,0,-8.74E-07,,,,
1137.055999,4441,28.23850665,-62.67004058,-4.02E-07,-10.7726334,-27.92166958,7.43E-08,-533.2068766,1.41E-06,-9.814347033,-176.7709523,-60.0354506,237.9567474,5.665483549,48.43637894,0,-8.91E-07,,,,
1137.063999,4441,-25.30907268,-81.32291025,-3.98E-07,47.94648,-52.2133192,7.44E-08,-531.747149,-5.07E-07,21.94345566,-89.10673761,-111.640105,202.3469937,68.06328041,-49.4186257,0,-9.40E-07,,,,
1137.071999,4441,-121.6036551,-160.2065309,-3.94E-07,-28.35641269,97.82018446,7.45E-08,-530.2796019,-2.32E-06,17.5208722,-152.7902168,-113.4439456,180.5260243,55.49785061,32.05605868,0,-8.65E-07,,,,
1137.079999,4441,122.9897622,19.21585901,-3.90E-07,46.83733934,-116.8276126,7.46E-08,-528.8043008,-1.74E-06,22.5812543,-97.73548651,-71.57309605,265.5730855,27.79158466,8.717292545,0,-9.10E-07,,,,
1137.087999,4441,-162.3370967,-179.5225388,-3.87E-07,-21.62458722,91.26725523,7.47E-08,-527.321315,-1.77E-06,18.32536218,-106.3745137,-146.7681803,172.681007,78.42133738,-25.84254615,0,-8.66E-07,,,,
1137.095999,4441,25.5941292,-53.65531641,-3.83E-07,-15.95989262,-27.92082745,7.48E-08,-525.8307122,-1.87E-06,-11.74254552,-156.7353275,-70.49664756,255.3060142,9.530468485,60.51538286,0,-8.80E-07,,,,
1137.103999,4441,-22.88076251,-67.29896802,-3.79E-07,47.64073391,-59.02090776,7.49E-08,-524.3325578,-1.72E-06,3.959981119,-82.95879945,-118.9263995,218.7170813,59.61510098,-42.71580943,0,-8.60E-07,,,,
1137.111999,4441,-116.5642024,-136.6576806,-3.76E-07,-9.80202847,107.3648577,7.50E-08,-522.8269181,-1.81E-06,13.07576083,-142.718067,-115.7941254,185.9029672,65.49638833,31.90425406,0,-8.58E-07,,,,
1137.119999,4441,123.7674672,31.87788235,-3.72E-07,63.26138569,-108.7422869,7.51E-08,-521.3138619,-1.72E-06,21.18748228,-91.83987916,-57.9334115,276.1182921,51.60735951,11.73772365,0,-8.47E-07,,,,
1137.127999,4441,-166.5449182,-185.8894918,-3.69E-07,-19.36733349,87.14364755,7.51E-08,-519.7934559,-1.75E-06,3.701823562,-111.5284046,-114.1012483,187.0672547,75.59464523,-23.39893579,0,-8.41E-07,,,,
1137.135999,4441,27.37444471,-61.01102395,-3.65E-07,-11.37295886,-27.76125512,7.52E-08,-518.2657655,-1.71E-06,-26.16641112,-163.1361788,-14.01172708,270.6389952,-10.91883952,63.3452578,0,-8.33E-07,,,,
1137.143999,4441,-15.46525239,-69.07754161,-3.62E-07,52.88584068,-69.70547573,7.53E-08,-516.7308589,-1.71E-06,-8.592462668,-87.22654903,-36.88434072,242.6708387,32.16058211,-38.2670354,0,-8.25E-07,,,,
1137.151999,4442,-121.9255555,-145.147776,-3.58E-07,-9.073503637,91.34153259,7.54E-08,-515.1888008,-1.69E-06,-8.792576532,-151.8827359,-18.04862693,207.2650744,21.19344908,43.17313131,0,-8.17E-07,,,,
1137.159999,4442,132.3157022,39.94928643,-3.55E-07,87.69294436,-126.6517991,7.55E-08,-513.6396567,-1.67E-06,11.73324655,-89.65716887,43.34358185,291.1903032,25.50107843,25.60075405,0,-8.10E-07,,,,
1137.167999,4442,-150.4162077,-169.9898094,1.26E-07,11.87815221,81.87387785,7.55E-08,-512.083497,-1.66E-06,19.54311028,-90.1334578,-23.51106002,197.0478578,97.11630442,-18.4499954,0,-8.02E-07,,,,
1137.175999,4442,35.67295082,-48.36809862,5.79E-07,5.656068063,-11.65421943,7.56E-08,-510.5203839,-1.64E-06,-7.217740744,-150.2425977,66.91936331,278.2923549,12.07593171,71.77562828,0,-7.95E-07,,,,
1137.183999,4442,-16.50458061,-66.77622373,4.34E-07,56.90720942,-62.4162793,7.57E-08,-508.9503857,-1.63E-06,4.554963282,-88.74682648,31.70985204,248.8477819,42.911825,-31.41291302,0,-7.87E-07,,,,
1137.191999,4442,-159.5041469,-188.993187,4.42E-07,-51.27810914,95.40290314,7.57E-08,-507.3735723,-1.61E-06,-22.94315652,-178.6120402,33.1564905,204.8792911,13.10831199,37.37416405,0,-7.80E-07,,,,
1137.199999,4442,93.98817729,-3.970768329,4.66E-07,36.61068519,-132.0370943,7.58E-08,-505.7900032,-1.60E-06,-31.01508042,-145.6963255,83.5239666,273.9137398,-22.62666183,11.26394097,0,-7.73E-07,,,,
1137.207999,4442,-165.2238342,-172.3779419,4.29E-07,10.11522117,64.32747079,7.59E-08,-504.1997457,-1.58E-06,-10.71705485,-137.3876065,-2.960849873,161.8922216,53.50516221,-40.68297719,0,-7.65E-07,,,,
1137.215999,4442,32.10320321,-29.34138668,4.52E-07,28.50434471,-9.29317725,7.59E-08,-502.6028685,-1.57E-06,-6.863313197,-164.9635534,77.1205776,247.7885744,13.39253608,56.66071887,0,-7.58E-07,,,,
1137.223999,4442,-7.301456548,-40.73696296,4.29E-07,83.46570746,-55.04657507,7.60E-08,-500.9994354,-1.55E-06,22.95830029,-74.79780234,50.66896946,245.176277,72.25782346,-32.77793196,0,-7.51E-07,,,,
1137.231999,4442,-151.7558294,-171.9633837,4.36E-07,-27.14799809,97.07983582,7.60E-08,-499.389514,-1.54E-06,-10.84427909,-163.1663025,51.45577103,219.3764762,31.98053087,38.88541418,0,-7.44E-07,,,,
1137.239999,4442,108.0775945,17.42469337,4.26E-07,57.96297153,-124.4782497,7.61E-08,-497.7731692,-1.52E-06,-23.57313586,-141.9988966,104.2539165,299.4752659,-10.48670535,12.79761625,0,-7.37E-07,,,,
1137.247999,4442,-158.4332908,-157.8076675,4.26E-07,26.23755967,73.442517,7.61E-08,-496.1504646,-1.51E-06,1.394282443,-131.0238167,24.75806692,192.3826445,67.86547354,-33.53954027,0,-7.30E-07,,,,
1137.255999,4442,25.78750872,-36.48030111,4.20E-07,26.62986345,-9.905648805,7.62E-08,-494.5214698,-1.49E-06,-18.10126824,-172.2586749,105.9941069,279.3691952,1.016360578,70.38323161,0,-7.23E-07,,,,
1137.263999,4442,5.639430992,-28.37054726,4.17E-07,93.75756618,-57.65846024,7.62E-08,-492.8862474,-1.48E-06,6.116074129,-91.93923301,79.78612051,270.4302863,68.5819509,-26.31066168,0,-7.16E-07,,,,
1137.271999,4442,-136.6746026,-146.6116489,4.13E-07,10.30246992,109.7437056,7.63E-08,-491.2448598,-1.47E-06,5.186521758,-161.9597233,80.75877702,229.962544,71.01015351,42.16068536,0,-7.09E-07,,,,
1137.279999,4442,117.2633317,32.68299006,4.09E-07,103.1736969,-124.2176349,7.63E-08,-489.5973763,-1.45E-06,-12.45486888,-136.2687497,138.4217203,309.0298328,8.624521893,23.2166861,0,-7.02E-07,,,,
1137.287999,4442,-156.2367952,-153.3950787,4.05E-07,63.26016786,57.85881523,7.64E-08,-487.9438617,-1.44E-06,-7.459225892,-137.572107,57.62065159,195.2014235,64.1044306,-29.86477176,0,2.59E-07,,,,
1137.295999,4442,11.76075709,-49.20591129,4.02E-07,39.57409988,-28.29108732,7.64E-08,-486.2843788,-1.42E-06,-27.26427464,-192.5753557,133.6843501,266.6256695,11.89063899,64.17491144,0,1.16E-06,,,,
1137.303999,4442,-1.951746063,-32.54117557,3.98E-07,114.6070605,-91.17946344,7.64E-08,-484.6189937,-1.41E-06,-20.12990819,-119.6537056,100.9388341,251.097052,42.45045799,-38.58872938,0,8.74E-07,,,,
1137.311999,4442,-135.4521794,-127.7325801,3.94E-07,59.4249166,85.63654634,7.65E-08,-482.9477722,-1.40E-06,-14.61493421,-170.0745984,84.80561321,203.4303671,28.14086551,35.23185503,0,8.91E-07,,,,
1137.319999,4442,178.3333383,82.68890555,3.90E-07,126.0259176,-165.0350062,7.65E-08,-481.2707785,5.25E-07,-18.35622903,-154.215813,158.4649572,313.0302715,-19.85420582,63.732293,0,9.40E-07,,,,
1137.327999,4442,-59.66847496,-90.11429599,3.87E-07,85.31113598,-21.92463153,7.65E-08,-479.5880757,2.34E-06,-24.24443422,-154.9787973,83.57728756,221.8802698,36.92521529,-5.893680828,0,8.65E-07,,,,
1137.335999,4442,-39.61327557,-71.51660082,3.83E-07,85.08351578,16.1272946,7.66E-08,-477.8997301,1.76E-06,-10.67405512,-152.3863516,98.39866847,231.215031,36.11164444,34.4157669,0,9.10E-07,,,,
1137.343999,4442,-153.1141859,-130.8158476,3.79E-07,106.5424243,77.22807738,7.66E-08,-476.205806,1.79E-06,4.576012994,-110.6172052,50.83828191,187.6922973,68.86208844,-25.32393195,0,8.66E-07,,,,
1137.351999,4442,-349.1903782,-280.7425697,3.76E-07,17.67866041,259.244011,7.66E-08,-474.5063648,1.89E-06,-17.69034281,-188.6079316,24.60273473,124.7197631,61.69442389,12.48298887,0,8.80E-07,,,,
1137.359999,4442,-105.1921618,-104.810319,3.72E-07,90.66676496,58.79060397,7.66E-08,-472.8014744,1.74E-06,-5.587899414,-143.2093637,79.17026056,206.5731059,47.06720108,10.6288212,0,8.60E-07,,,,
1137.367999,4442,-98.76850361,-96.74008158,3.69E-07,90.11543417,65.11340347,7.66E-08,-471.0911975,1.83E-06,0.755308769,-147.6614274,82.29399503,206.3406157,56.6915888,16.57655775,0,8.58E-07,,,,
1137.375999,4442,92.89422532,33.35889431,3.65E-07,112.1876694,-69.50297903,7.67E-08,-469.3755955,1.74E-06,4.216252543,-147.4355485,145.5380295,282.4989403,43.66932665,55.96620184,0,8.47E-07,,,,
1137.383999,4442,-58.48833357,-69.90240788,3.62E-07,92.41973489,-20.01907494,7.67E-08,-467.6547363,1.77E-06,0.284352958,-120.1966113,104.6526077,241.2299892,63.2445732,-7.171817784,0,8.41E-07,,,,
1137.391999,4442,-113.0364271,-123.1910519,3.58E-07,22.33636601,50.33220431,7.67E-08,-465.9286823,1.73E-06,-38.32296025,-205.6243232,114.4136345,222.0259342,-8.466328987,53.08853389,0,8.33E-07,,,,
1137.399999,4442,102.968597,35.8334045,3.55E-07,116.8191067,-143.5147873,7.67E-08,-464.1974958,1.72E-06,-25.36523772,-146.8628109,133.9511266,271.2022953,-4.236902728,6.632267792,0,8.25E-07,,,,
1137.407999,4443,-160.1107313,-147.2744785,-1.26E-07,67.69114274,73.12802402,7.67E-08,-462.4612416,1.70E-06,-10.75219233,-159.7544376,63.83134711,169.6537041,65.104343,-21.97859427,0,8.17E-07,,,,
1137.415999,4443,47.29221531,4.44545828,-5.79E-07,98.79772057,-38.80009046,7.67E-08,-460.7199818,1.69E-06,-4.402454075,-179.310292,136.6153926,242.496251,27.89088667,49.9989779,0,8.10E-07,,,,
1137.423999,4443,5.835925851,-2.587968102,-4.34E-07,155.2934052,-57.09095572,7.67E-08,-458.9737816,1.67E-06,22.30245405,-107.3155035,110.2404459,232.6782052,70.28305237,-27.34098519,0,8.02E-07,,,,
1137.431999,4443,-125.7993047,-115.7858849,-4.42E-07,62.56485986,100.5299312,7.67E-08,-457.2227024,1.66E-06,8.51130153,-176.6566663,119.7984851,204.9289599,52.03919655,43.85889036,0,7.95E-07,,,,
1137.439999,4443,114.4716502,44.54126975,-4.66E-07,119.3044028,-118.0894656,7.67E-08,-455.4668076,1.64E-06,-1.880382842,-140.92404,172.3639689,280.7448155,18.64228439,37.8834858,0,7.87E-07,,,,
1137.447999,4443,-151.8764194,-144.6308703,-4.29E-07,67.11566873,50.56638096,7.67E-08,-453.7061598,1.63E-06,-12.45370822,-158.1427471,98.46698443,182.2110987,59.29117574,-8.262470971,0,7.80E-07,,,,
1137.455999,4443,10.32318986,-33.00636532,-4.52E-07,65.08697177,-42.87341122,7.67E-08,-451.9408215,1.61E-06,-23.01927491,-209.7377673,154.8536082,233.8041361,2.02003953,64.93086561,0,7.73E-07,,,,
1137.463999,4443,3.690127955,-19.5816975,-4.29E-07,127.3728863,-104.9830221,7.67E-08,-450.1708563,1.60E-06,4.789478546,-127.5211666,110.4040881,218.1498284,44.07711046,-36.35088037,0,7.65E-07,,,,
1137.471999,4443,-151.2967101,-146.1569584,-4.36E-07,35.22220755,74.39711351,7.67E-08,-448.3963257,1.58E-06,-10.45324393,-196.1379517,101.1587984,182.0902146,39.29446553,26.36052693,0,7.58E-07,,,,
1137.479999,4443,120.8039046,51.69395647,-4.26E-07,112.6674971,-137.9008267,7.67E-08,-446.6172939,1.57E-06,-9.465399897,-163.1998671,156.5641394,262.5023642,4.313734644,27.45184091,0,7.51E-07,,,,
1137.487999,4443,-124.4670708,-110.2808057,-4.26E-07,86.03440746,48.23776148,7.67E-08,-444.8338227,1.55E-06,15.40083862,-143.7205687,78.10364123,165.71591,74.71214381,-27.55348266,0,7.44E-07,,,,
1137.495999,4443,13.34278032,-33.28588266,-4.20E-07,49.22292392,-14.05833192,7.67E-08,-443.0459727,1.54E-06,-10.1159537,-206.5992616,152.4347739,239.3211884,20.37115241,74.83506415,0,7.37E-07,,,,
1137.503999,4443,10.853627,-27.31169932,-4.17E-07,93.00108569,-108.187539,7.67E-08,-441.2538063,1.52E-06,-15.1990692,-150.6560092,122.8133461,232.7816763,33.88226864,-23.96418481,0,7.30E-07,,,,
1137.511999,4443,-166.5537938,-157.4874119,-4.13E-07,3.661750652,62.92363077,7.67E-08,-439.4573861,1.51E-06,-32.21073575,-228.737906,99.80196732,175.7497232,27.31729127,22.84552254,0,7.23E-07,,,,
1137.519999,4443,106.9802776,47.16373417,-4.09E-07,86.62709007,-164.3387735,7.67E-08,-437.6567739,1.49E-06,-35.91872797,-201.2101348,147.1519393,250.9262895,-6.890745095,13.35261252,0,7.16E-07,,,,
1137.527999,4443,-128.1179184,-105.9889694,-4.05E-07,76.90830341,23.81922927,7.66E-08,-435.8520302,1.48E-06,-12.34486681,-170.7267445,62.21990885,146.5603028,52.52805709,-58.9955949,0,7.09E-07,,,,
1137.535999,4443,19.99111483,-7.322700713,-4.02E-07,67.61917549,-13.41528577,7.66E-08,-434.0432169,1.47E-06,-15.46321421,-211.6463497,143.0570914,227.2082542,13.27026674,52.16919642,0,7.02E-07,,,,
1137.543999,4443,43.08802833,34.06094659,-3.98E-07,140.6915735,-101.4398814,7.66E-08,-432.2303957,1.45E-06,6.610551091,-125.8866477,126.3369718,242.5732293,47.04022411,-34.44460331,0,-2.59E-07,,,,
1137.551999,4443,-133.4513109,-99.94709919,-3.94E-07,52.08434192,103.29303,7.66E-08,-430.4136289,1.44E-06,3.345592316,-184.1930009,115.664297,201.1006336,32.24392758,27.44224846,0,-1.16E-06,,,,
1137.559999,4443,133.3246415,82.25496012,-3.90E-07,114.2844909,-120.1110613,7.65E-08,-428.5929771,1.42E-06,-5.21222261,-162.9695025,181.2259908,294.6306658,7.965298377,43.79683803,0,-8.74E-07,,,,
1137.567999,4443,-128.2723804,-101.5288392,-3.87E-07,72.61194191,34.55983285,7.65E-08,-426.7684985,1.41E-06,-1.453504286,-154.8560692,90.06131577,178.1002527,64.18365308,-31.47584444,0,-8.91E-07,,,,
1137.575999,4443,-2.423763459,-28.51616006,-3.83E-07,35.92508639,-11.24328008,7.65E-08,-424.9402563,-5.11E-07,-25.49035885,-224.4204331,157.4280306,231.0259284,-19.45811043,66.26324495,0,-9.40E-07,,,,
1137.583999,4443,27.85909943,18.13093514,-3.79E-07,114.2470374,-110.300345,7.65E-08,-423.1083108,-2.32E-06,-12.81698614,-156.6638609,133.7252383,231.300955,15.73713019,-31.48050886,0,-8.65E-07,,,,
1137.591999,4443,-152.3633499,-109.1846148,-3.76E-07,37.99940277,94.31074444,7.64E-08,-421.2727227,-1.74E-06,-7.271247438,-210.8815811,107.8896764,170.7392169,24.60689171,12.48202254,0,-9.10E-07,,,,
1137.599999,4443,132.8486236,88.89662328,-3.72E-07,112.9207348,-117.7720062,7.64E-08,-419.4335522,-1.78E-06,7.876039048,-170.7483644,177.5802778,270.3604603,4.679936854,25.19474872,0,-8.66E-07,,,,
1137.607999,4443,-107.5323245,-77.7206681,-3.69E-07,88.52202852,46.76680806,7.63E-08,-417.5908596,-1.87E-06,28.10005947,-147.8299064,98.7966283,177.3079195,77.17359301,-41.60425357,0,-8.80E-07,,,,
1137.615999,4443,9.94435062,-13.57206346,-3.65E-07,41.94846787,9.719388991,7.63E-08,-415.7447051,-1.72E-06,0.566289398,-217.2127582,170.4762232,241.717487,-7.847151423,68.93149168,0,-8.60E-07,,,,
1137.623999,4443,32.97524899,13.7044569,-3.62E-07,98.04552448,-100.6198864,7.63E-08,-413.895148,-1.81E-06,-0.244954516,-151.9881681,159.1033931,253.222723,17.2248235,-18.11776875,0,-8.58E-07,,,,
1137.631999,4443,-166.0318599,-129.8798792,-3.58E-07,18.67120969,86.80607397,7.62E-08,-412.0422493,-1.73E-06,-12.39041745,-218.2165163,128.3179014,183.12546,22.73935008,19.87912864,0,-8.47E-07,,,,
1137.639999,4443,103.7560502,58.32760449,-3.55E-07,83.33122268,-140.117812,7.62E-08,-410.1860674,-1.75E-06,-21.05183923,-199.4316338,175.6612647,261.3241234,-32.57120478,22.35345538,0,-8.41E-07,,,,
1137.647999,4443,-138.0237536,-112.0591893,1.26E-07,56.20197347,27.16094574,7.61E-08,-408.3266609,-1.71E-06,-23.8206057,-186.6216966,90.40845813,162.7728877,23.86138738,-46.19201712,0,-8.33E-07,,,,
1137.655999,4443,-2.046040593,-17.36900007,5.79E-07,55.93125885,8.81107264,7.61E-08,-406.4640907,-1.71E-06,-30.08207352,-240.0238198,153.6834044,213.567764,-9.643920269,53.33091982,0,-8.25E-07,,,,
1137.663999,4444,41.77751513,26.92913137,4.34E-07,115.675475,-89.05521991,7.60E-08,-404.598417,-1.69E-06,13.06240363,-149.3610679,132.4698936,224.5469087,46.50412979,-38.24225761,0,-8.17E-07,,,,
1137.671999,4444,-174.7226903,-145.9854825,4.42E-07,-12.44916193,102.8912049,7.60E-08,-402.729698,-1.68E-06,-18.27041458,-234.9160969,118.185254,182.3980552,12.26883506,16.87272207,0,-8.10E-07,,,,
1137.679999,4444,100.7559337,61.37346215,4.66E-07,72.21898066,-138.7029883,7.59E-08,-400.8579931,-1.66E-06,-45.12998102,-226.0766604,172.7946896,260.6077101,-58.63169154,9.977384541,0,-8.02E-07,,,,
1137.687999,4444,-127.1322353,-81.74503256,4.29E-07,72.82389524,18.43736405,7.59E-08,-398.9833589,-1.64E-06,-7.530833326,-172.2529325,69.75599013,141.6552706,39.27469525,-86.56554628,0,-7.95E-07,,,,
1137.695999,4444,-7.26051457,-5.623160671,4.52E-07,51.41002035,3.773378519,7.58E-08,-397.1058536,-1.63E-06,-6.364873061,-223.9949555,134.1876376,200.3712275,15.98484132,18.02202843,0,-7.87E-07,,,,
1137.703999,4444,46.98105454,44.59704203,4.29E-07,128.2452765,-93.99023524,7.58E-08,-395.2255391,-1.61E-06,11.68680256,-150.0271719,123.1090447,224.8459407,45.70637631,-62.36831825,0,-7.80E-07,,,,
1137.711999,4444,-153.63349,-105.0145981,4.36E-07,46.71245405,113.7230061,7.57E-08,-393.3424737,-1.60E-06,-0.751173628,-205.5131811,104.7231715,176.1966848,31.61819405,-2.050974971,0,-7.73E-07,,,,
1137.719999,4444,123.5432308,101.5686334,4.26E-07,127.6975548,-116.3124298,7.56E-08,-391.4567117,-1.58E-06,0.244891142,-179.60956,169.9085607,262.0621029,-0.077120951,20.47671757,0,-7.65E-07,,,,
1137.727999,4444,-127.1949063,-81.79549002,4.26E-07,69.58598213,42.32405947,7.56E-08,-389.5683125,-1.57E-06,7.026809034,-161.8560858,86.15803798,165.0766655,51.43943064,-52.25435328,0,-7.58E-07,,,,
1137.735999,4444,-39.99788707,-38.66178163,4.20E-07,12.40987013,13.5694932,7.55E-08,-387.6773368,-1.55E-06,-40.91551607,-251.335069,148.1112516,218.2028701,-39.08737969,41.47044743,0,-7.51E-07,,,,
1137.743999,4444,17.85204729,27.60594601,4.17E-07,102.3461987,-124.1211257,7.55E-08,-385.7838394,-1.54E-06,-29.10966772,-182.2913953,120.5525153,215.424701,-4.738013527,-60.8563542,0,-7.44E-07,,,,
1137.751999,4444,-181.1373521,-114.0994954,4.13E-07,19.48115886,93.36135826,7.54E-08,-383.8878771,-1.53E-06,-25.7982305,-233.0602322,85.50661155,146.4432308,-0.658207078,-10.58156402,0,-7.37E-07,,,,
1137.759999,4444,98.0797095,86.82531068,4.09E-07,85.73765008,-114.5023023,7.53E-08,-381.9895099,-1.51E-06,-20.91236355,-207.779548,148.6425731,235.2885487,-31.13255858,4.406379262,0,-7.30E-07,,,,
1137.767999,4444,-139.684271,-87.42222303,4.05E-07,45.68852897,31.01169869,7.52E-08,-380.0887946,-1.50E-06,-7.221401749,-190.3385922,72.98452265,140.4573424,39.8239293,-78.26169767,0,-7.23E-07,,,,
1137.775999,4444,-40.08635304,-25.16743841,4.02E-07,20.26363938,17.53622182,7.52E-08,-378.1857857,-1.48E-06,-28.53046187,-269.5012261,135.4803979,180.9353999,-23.46108852,20.10306165,0,-7.16E-07,,,,
1137.783999,4444,27.7199011,42.21725859,3.98E-07,114.1676525,-106.7540375,7.51E-08,-376.2805426,-1.47E-06,-0.429192872,-183.8645923,112.5595939,185.4692274,21.14711538,-77.15581938,0,-7.09E-07,,,,
1137.791999,4444,-185.6839403,-125.5868432,3.94E-07,19.46826953,106.593194,7.50E-08,-374.3731221,-1.45E-06,-5.906289628,-238.4729158,88.46193379,128.0846235,25.06624086,-26.78502002,0,-7.02E-07,,,,
1137.799999,4444,92.77518942,76.75571305,3.90E-07,88.32869782,-108.7299502,7.49E-08,-372.4635783,-1.44E-06,-13.03523376,-221.9125848,157.0185612,218.8256086,-22.96103014,-4.306102428,0,2.59E-07,,,,
1137.807999,4444,-135.9252969,-79.30496891,3.87E-07,62.40253871,27.56149492,7.49E-08,-370.5519698,-1.43E-06,-5.83450739,-192.1646468,70.55996203,124.210253,36.08312369,-88.2347437,0,1.16E-06,,,,
1137.815999,4444,-89.12695039,-60.80458876,3.83E-07,-9.843502047,100.1708736,7.48E-08,-368.6383519,-1.41E-06,-41.72367481,-309.7173709,140.2299322,167.7430102,-51.27003203,71.87520841,0,8.74E-07,,,,
1137.823999,4444,84.58474774,73.9820958,3.79E-07,85.31892047,-107.0043262,7.47E-08,-366.722782,-1.40E-06,-19.20187893,-230.5885333,160.3946288,232.6863199,-26.23572627,-1.091360743,0,8.91E-07,,,,
1137.831999,4444,-123.6100069,-75.57856899,3.76E-07,54.39109249,5.981557335,7.46E-08,-364.8053142,5.22E-07,-1.694213124,-200.7573309,85.20382299,153.7056063,55.62721832,-86.40944613,0,9.40E-07,,,,
1137.839999,4444,-44.51279066,-16.55253361,3.72E-07,34.34614857,6.887116788,7.45E-08,-362.8860034,2.33E-06,-29.48210203,-264.5166368,130.6048204,179.7694234,-18.12560183,5.413765712,0,8.65E-07,,,,
1137.847999,4444,-16.52420364,15.26428451,3.69E-07,61.70787497,-44.54572523,7.44E-08,-360.9649074,1.75E-06,-31.92251661,-230.4916036,131.4338992,188.8361015,-25.33915738,-21.46512903,0,9.10E-07,,,,
1137.855999,4444,-60.29908298,-6.494830679,3.65E-07,71.28942741,-29.28054197,7.44E-08,-359.0420814,1.79E-06,-22.58613473,-207.793034,115.3792367,167.7200113,15.95511403,-54.55353082,0,8.66E-07,,,,
1137.863999,4444,-75.6191717,-11.09560857,3.62E-07,59.10400278,18.5807535,7.43E-08,-357.1175804,1.88E-06,-24.05031383,-245.4563221,134.0523612,165.4699393,4.966320212,-13.65840532,0,8.80E-07,,,,
1137.871999,4444,21.60925531,59.61141195,3.58E-07,101.4873893,-70.11143579,7.42E-08,-355.1914575,1.73E-06,-8.528928761,-205.185896,150.7119044,195.3399119,19.57519048,-24.00000652,0,8.60E-07,,,,
1137.879999,4444,-90.19779725,-19.23366072,3.55E-07,78.6741223,7.814565529,7.41E-08,-353.2637706,1.82E-06,-7.608241389,-191.8292212,116.7452194,153.3063292,36.09766977,-37.79473942,0,8.58E-07,,,,
1137.887999,4444,-42.72635188,8.567428738,-1.26E-07,51.56808982,2.635763362,7.40E-08,-351.3345739,1.74E-06,-38.09135348,-243.8150976,159.5104214,185.1107151,-28.2807556,14.26749537,0,8.47E-07,,,,
1137.895999,4444,14.50905427,56.22357396,-5.79E-07,108.1471903,-86.92037105,7.39E-08,-349.4039181,1.76E-06,-18.79475387,-180.0721681,162.4019354,197.1816611,18.20379086,-44.33590896,0,8.41E-07,,,,
1137.903999,4444,-148.6713067,-64.23126593,-4.34E-07,40.1486607,70.19555533,7.38E-08,-347.4718604,1.72E-06,-23.89778466,-232.0566152,154.8118068,153.8382349,23.35442189,-2.178202851,0,8.33E-07,,,,
1137.911999,4444,227.7455212,204.5817621,-4.42E-07,127.9724771,-216.6739923,7.37E-08,-345.538457,1.72E-06,-36.01449181,-235.0867003,258.4485779,286.6172456,-50.99325187,32.41309048,0,8.25E-07,,,,
1137.919999,4445,194.5066121,189.8498737,-4.66E-07,171.4209883,-244.6627874,7.36E-08,-343.6037602,1.70E-06,-11.83436891,-164.6933962,215.5804209,257.212839,7.742441412,-50.27132587,0,8.17E-07,,,,
1137.927999,4445,-110.4915145,-33.23477005,-4.29E-07,59.2666747,43.94992702,7.35E-08,-341.6678226,1.69E-06,-22.20683578,-235.7103895,163.1798972,159.1136803,16.08998449,-11.74284123,0,8.10E-07,,,,
1137.935999,4445,-65.51980302,4.113208419,-4.52E-07,89.5057774,25.22551814,7.34E-08,-339.7306985,1.67E-06,-15.08576584,-217.9552352,167.7420636,161.364184,18.79002727,-20.41178303,0,8.02E-07,,,,
1137.943999,4445,2.484624271,46.27285093,-4.29E-07,100.5983805,-16.60876761,7.33E-08,-337.7924403,1.65E-06,-21.49220581,-203.3006768,194.4269349,191.9154159,9.438982033,-2.578570206,0,7.95E-07,,,,
1137.951999,4445,-32.73277095,12.06605725,-4.36E-07,83.95214901,-3.026342707,7.32E-08,-335.8531035,1.64E-06,-32.46940096,-213.8899449,194.601912,194.6790777,1.231104645,-20.10656853,0,7.87E-07,,,,
1137.959999,4445,-103.4887792,-38.7667943,-4.26E-07,61.77689798,69.85795254,7.31E-08,-333.9127419,1.62E-06,-25.28568336,-237.7923594,181.9105538,164.9474168,5.640440456,-17.80653572,0,7.80E-07,,,,
1137.967999,4445,50.52239678,71.75249556,-4.26E-07,98.03195723,-45.35458455,7.30E-08,-331.9714051,1.61E-06,-20.94375074,-224.2058801,218.3635477,209.7857453,-4.881054817,-0.354521973,0,7.73E-07,,,,
1137.975999,4445,-102.0743896,-45.97399122,-4.20E-07,62.12296579,35.17145901,7.28E-08,-330.0291476,1.59E-06,-20.64856584,-211.1296725,159.639272,149.1363922,30.46504164,-61.13553172,0,7.65E-07,,,,
1137.983999,4445,-39.90951439,-9.153052999,-4.17E-07,34.72201029,28.79705534,7.27E-08,-328.0860226,1.58E-06,-43.48828947,-266.37835,200.5597433,175.5157333,-25.24266905,4.904312663,0,7.58E-07,,,,
1137.991999,4445,23.19596682,55.16600571,-4.13E-07,109.7934335,-63.8503998,7.26E-08,-326.1420831,1.56E-06,-32.91365805,-203.710701,198.4088315,188.0869077,-7.432472958,-45.243892,0,7.51E-07,,,,
1137.999999,4445,-167.4279561,-85.80503225,-4.09E-07,37.83853254,112.4247976,7.25E-08,-324.1973789,1.55E-06,-33.09807747,-240.0575288,160.4489362,128.3354948,8.049358035,-18.58765339,0,7.44E-07,,,,
1138.007999,4445,70.66822323,76.60973542,-4.05E-07,70.59198171,-60.36473996,7.24E-08,-322.2519629,1.53E-06,-33.41984738,-238.3249076,228.3754565,215.612839,-8.10389294,13.92241637,0,7.37E-07,,,,
1138.015999,4445,-115.0056713,-58.00937102,-4.02E-07,43.75421322,35.24238386,7.23E-08,-320.3058884,1.52E-06,-41.26231521,-218.3216428,168.4317372,147.6395275,23.11950018,-62.92411637,0,7.30E-07,,,,
1138.023999,4445,-63.40135556,-31.30761519,-3.98E-07,-1.244505623,47.6963428,7.22E-08,-318.3592055,1.51E-06,-71.779734,-297.443832,210.359193,162.0554438,-58.40584839,22.68552308,0,7.23E-07,,,,
1138.031999,4445,37.55092664,61.42594442,-3.94E-07,90.78000264,-95.93412973,7.20E-08,-316.4119663,1.49E-06,-43.04537579,-219.2640927,204.7173518,176.7118888,-12.44454321,-60.55904713,0,7.16E-07,,,,
1138.039999,4445,-187.1766363,-100.1328489,-3.90E-07,17.74405026,108.4521486,7.19E-08,-314.4642217,1.48E-06,-48.79968458,-259.8309133,166.3456201,113.6732869,2.085312964,-39.03324304,0,7.09E-07,,,,
1138.047999,4445,81.93684305,89.27760691,-3.87E-07,67.85368885,-78.18757021,7.18E-08,-312.5160232,1.46E-06,-43.98738636,-246.9484265,238.3680107,206.7586653,-24.68638325,8.741898992,0,7.02E-07,,,,
1138.055999,4445,-108.2685745,-36.18707116,-3.83E-07,64.66457536,26.76749807,7.17E-08,-310.5674217,1.45E-06,-25.85756027,-207.2883236,158.6312564,124.6866046,39.64694809,-79.57303167,0,-2.59E-07,,,,
1138.063999,4445,-56.9432361,-9.08019077,-3.79E-07,27.14760768,71.2095307,7.15E-08,-308.6184685,1.43E-06,-46.2131112,-282.2417063,199.6127171,148.1805131,-18.19604193,9.138130235,0,-1.16E-06,,,,
1138.071999,4445,56.443028,81.67416782,-3.76E-07,103.7006815,-65.60731439,7.14E-08,-306.6692137,1.42E-06,-20.19716103,-200.7404734,211.741054,188.591989,30.66279406,-46.93172897,0,-8.74E-07,,,,
1138.079999,4445,-183.8121913,-89.51183713,-3.72E-07,17.26165337,143.5452076,7.13E-08,-304.7197065,1.41E-06,-35.67966592,-258.6932017,176.9854213,125.8567649,16.33793075,-17.9073354,0,-8.91E-07,,,,
1138.087999,4445,92.039428,106.3351412,-3.69E-07,77.16657601,-55.97762208,7.11E-08,-302.769999,-5.14E-07,-35.91261539,-250.3493497,249.1849193,218.4366012,-39.25296069,12.27868572,0,-9.40E-07,,,,
1138.095999,4445,-104.6683354,-32.12340956,-3.65E-07,66.9842717,43.90992098,7.10E-08,-300.8201404,-2.33E-06,-19.90056606,-205.4901825,173.8404698,142.6191252,29.14702486,-66.09638536,0,-8.65E-07,,,,
1138.103999,4445,-62.02975597,-5.238491129,-3.62E-07,33.44552173,78.45005159,7.09E-08,-298.8701793,-1.75E-06,-50.09335805,-292.6007056,211.4094842,170.3553212,-39.75974204,34.06861231,0,-9.10E-07,,,,
1138.111999,4445,60.36090977,105.9885115,-3.58E-07,132.5251152,-76.78320337,7.08E-08,-296.9201666,-1.78E-06,-19.75435392,-205.9000561,208.902816,206.7148627,7.644598245,-40.77753906,0,-8.66E-07,,,,
1138.119999,4445,-187.2011876,-75.17229573,-3.55E-07,36.4825071,145.9466693,7.06E-08,-294.9701526,-1.88E-06,-21.68319892,-250.3201451,162.6865881,138.8123672,14.37985935,-19.28439535,0,-8.80E-07,,,,
1138.127999,4445,86.01039362,112.3717092,1.26E-07,79.85125893,-44.70444713,7.05E-08,-293.0201855,-1.73E-06,-32.60428139,-254.1640606,237.7963396,242.1324683,-40.06534072,21.27485724,0,-8.60E-07,,,,
1138.135999,4445,-107.408915,-19.21888046,5.79E-07,69.40650656,45.34834691,7.03E-08,-291.070314,-1.82E-06,-16.66168374,-210.0646558,160.1149799,162.9222833,51.48498983,-61.57675328,0,-8.58E-07,,,,
1138.143999,4445,-70.8601878,-4.697480752,4.34E-07,13.23440084,83.11799151,7.02E-08,-289.1205877,-1.73E-06,-39.41099261,-294.9375373,195.3538731,178.7655829,-17.19114894,32.47364285,0,-8.47E-07,,,,
1138.151999,4445,141.6997994,167.533216,4.42E-07,152.7623448,-182.5499563,7.01E-08,-287.1710541,-1.76E-06,-9.106275721,-173.8900157,193.4229436,230.0177505,22.94594693,-88.98691716,0,-8.41E-07,,,,
1138.159999,4445,-208.2914406,-79.42125061,4.66E-07,62.37518482,97.66021136,6.99E-08,-285.2217633,-1.72E-06,-6.521641376,-213.0060656,100.9548109,106.7264039,73.02223586,-84.68905491,0,-8.33E-07,,,,
1138.167999,4445,-30.09180275,24.35910371,4.29E-07,10.95112649,61.28244174,6.98E-08,-283.2727633,-1.71E-06,-46.36747956,-324.2148172,203.473555,200.5632101,-56.86161915,75.1105723,0,-8.25E-07,,,,
1138.175999,4446,41.32650005,90.35837865,4.52E-07,113.5702391,-81.86993017,6.96E-08,-281.3241005,-1.69E-06,-17.94069954,-213.0600636,181.3574588,211.1940296,4.518780397,-57.95376707,0,-8.17E-07,,,,
1138.183999,4446,-143.6991591,-34.21459895,4.29E-07,65.16331834,114.9626208,6.95E-08,-279.3758245,-1.68E-06,-9.245522135,-247.2715789,135.4786871,133.452794,35.66248055,-23.01403902,0,-8.10E-07,,,,
1138.191999,4446,46.2849465,97.40723698,4.36E-07,75.96391245,-12.26321442,6.93E-08,-277.4279829,-1.66E-06,-21.2073133,-260.465699,200.3619798,212.4463276,-21.87012258,39.60917759,0,-8.02E-07,,,,
1138.199999,4446,-25.87555422,61.3563111,4.26E-07,104.9273038,-41.10935131,6.92E-08,-275.4806223,-1.65E-06,-5.361288578,-194.0497686,148.5464444,178.9774793,27.40025044,-61.08774604,0,-7.95E-07,,,,
1138.207999,4446,-131.6677044,-21.77541505,4.26E-07,28.96574831,92.50636697,6.91E-08,-273.5337919,-1.63E-06,-21.48368041,-264.5803179,148.0952997,155.2611281,8.075181388,12.40006426,0,-7.87E-07,,,,
1138.215999,4446,40.48221016,89.55380333,4.20E-07,60.96931858,-79.2516442,6.89E-08,-271.5875374,-1.62E-06,-42.33845217,-250.6071419,191.5634461,222.1832524,-24.35283896,0.973738434,0,-7.80E-07,,,,
1138.223999,4446,-126.7902753,-20.46589224,4.17E-07,55.77508278,25.59086638,6.88E-08,-269.6419034,-1.60E-06,-43.48988253,-242.5663452,120.8843814,138.7656954,5.046551085,-58.62027722,0,-7.73E-07,,,,
1138.231999,4446,-51.20255556,24.37362314,4.13E-07,39.53357118,39.78668738,6.86E-08,-267.6969395,-1.59E-06,-41.75203104,-281.1136346,155.271384,165.0905057,-19.46976007,29.95596081,0,-7.65E-07,,,,
1138.239999,4446,16.77328164,63.42402355,4.09E-07,73.69270497,-77.70231071,6.84E-08,-265.7526922,-1.57E-06,-35.15663012,-219.3091246,153.8575476,196.4806598,-2.811773815,-29.51297755,0,-7.58E-07,,,,
1138.247999,4446,-189.325996,-86.02335883,4.05E-07,2.288835134,99.41933608,6.83E-08,-263.8092087,-1.56E-06,-61.3815256,-285.6284982,117.9604468,129.2331167,-24.49961336,-7.220269027,0,-7.51E-07,,,,
1138.255999,4446,49.65545109,88.92828245,4.02E-07,71.19173694,-81.49179294,6.81E-08,-261.8665335,-1.54E-06,-56.20141546,-273.2557332,172.3574767,195.6850152,-43.29770333,15.68821341,0,-7.44E-07,,,,
1138.263999,4446,-112.2800312,-25.79306357,3.98E-07,63.42368849,-6.112281241,6.80E-08,-259.9247126,-1.53E-06,-38.30962924,-229.4114922,99.73297322,123.1195392,15.7893064,-62.17578474,0,-7.37E-07,,,,
1138.271999,4446,-88.29235779,-19.05770812,3.94E-07,16.58712501,45.93243352,6.78E-08,-257.983792,-1.51E-06,-61.96091934,-306.3971914,129.0757804,136.1922962,-42.28178657,26.24568523,0,-7.30E-07,,,,
1138.279999,4446,53.6977242,95.75210634,3.90E-07,105.301266,-113.4004607,6.77E-08,-256.0438154,-1.50E-06,-39.35444883,-227.6891919,132.4338159,176.3226712,-1.34763833,-45.08268529,0,-7.23E-07,,,,
1138.287999,4446,-194.1262999,-89.20661404,3.87E-07,21.42595433,96.40779135,6.75E-08,-254.1048317,-1.48E-06,-43.45956851,-266.8436429,84.18676422,110.8365177,13.1112976,-37.58201974,0,-7.16E-07,,,,
1138.295999,4446,58.1525908,79.62087926,3.83E-07,60.41207524,-70.77444684,6.73E-08,-252.1668849,-1.47E-06,-49.10777315,-280.9106655,157.3412862,203.5246085,-41.87891746,2.782881286,0,-7.09E-07,,,,
1138.303999,4446,-191.9872573,-88.78677909,3.79E-07,56.17604938,63.96351237,6.72E-08,-250.2300186,-1.46E-06,-21.78609449,-226.2517583,55.65374837,97.89550412,41.04445857,-108.7726705,0,-7.02E-07,,,,
1138.311999,4446,-191.4031927,-104.7576317,3.76E-07,-20.32931597,143.5960435,6.70E-08,-248.2942772,-1.44E-06,-49.78854586,-324.7051873,90.73771724,117.9442421,-48.38133168,18.07476146,0,2.59E-07,,,,
1138.319999,4446,181.5272031,172.8907192,3.72E-07,112.8643578,-188.9262152,6.69E-08,-246.3597064,-1.43E-06,-30.61624133,-248.629627,155.4766468,239.3761047,-43.08228299,-21.98166149,0,1.16E-06,,,,
1138.327999,4446,-221.077195,-108.3886722,3.69E-07,36.97868254,95.56849527,6.67E-08,-244.426353,-1.42E-06,-14.56179146,-251.9395894,40.40350652,89.73741207,56.06847012,-82.19517533,0,8.74E-07,,,,
1138.335999,4446,-10.62580654,20.36001997,3.65E-07,29.70152104,-13.96824229,6.65E-08,-242.4942574,-1.40E-06,-45.46358955,-313.5871032,119.1990414,170.1256952,-53.58296979,29.13531411,0,8.91E-07,,,,
1138.343999,4446,39.95925233,69.35175371,3.62E-07,105.15804,-116.2571477,6.64E-08,-240.5634643,5.20E-07,-28.19046592,-232.9741861,95.87965715,176.6959637,-15.47150833,-69.6788874,0,9.40E-07,,,,
1138.351999,4446,-209.7331401,-113.3789477,3.58E-07,4.742537236,130.5016003,6.62E-08,-238.6340187,2.33E-06,-34.49392971,-295.6501661,63.95270516,102.8402486,-5.356974388,-18.01794823,0,8.65E-07,,,,
1138.359999,4446,114.5595788,120.1611469,3.55E-07,89.46749341,-119.1626799,6.60E-08,-236.705962,1.75E-06,-35.95011875,-264.2653946,153.9004593,214.7886106,-57.38263882,14.00522695,0,9.10E-07,,,,
1138.367999,4446,-112.8028721,-25.46053422,-1.26E-07,81.13124472,13.19941886,6.58E-08,-234.7793411,1.78E-06,-14.42649686,-224.9067981,75.29505972,121.7324143,23.11471569,-68.83553117,0,8.66E-07,,,,
1138.375999,4446,-53.80174877,4.767866248,-5.79E-07,34.89254848,29.33919414,6.57E-08,-232.8541962,1.88E-06,-20.53361541,-291.3616594,113.0129946,144.98743,-24.21630028,22.86727834,0,8.80E-07,,,,
1138.383999,4446,72.21763063,103.3957387,-4.34E-07,101.5331564,-125.8531934,6.55E-08,-230.9305681,1.73E-06,-7.112310626,-220.7697789,115.0552068,181.5437949,-17.29895914,-52.19997081,0,8.60E-07,,,,
1138.391999,4446,-193.5873489,-79.42083092,-4.42E-07,18.75555674,103.2059037,6.53E-08,-229.0085037,1.82E-06,-22.801086,-268.4781087,65.48862553,101.199568,9.484322883,-39.6248222,0,8.58E-07,,,,
1138.399999,4446,75.4989398,113.9549869,-4.66E-07,72.83060592,-82.06448327,6.52E-08,-227.088046,1.73E-06,-28.91094547,-269.8425088,138.02756,193.0096247,-27.30527516,12.41152266,0,8.47E-07,,,,
1138.407999,4446,-97.99130721,-11.20898724,-4.29E-07,56.56115756,0.201112468,6.50E-08,-225.1692355,1.76E-06,-16.81231425,-226.0578661,65.43217109,121.4799816,11.84958615,-72.51786069,0,8.41E-07,,,,
1138.415999,4446,-96.67731682,-23.89640361,-4.52E-07,1.842683328,59.14148395,6.48E-08,-223.2521135,1.72E-06,-46.24110408,-313.5406288,98.05303783,127.3289519,-62.25301767,16.93821869,0,8.33E-07,,,,
1138.423999,4446,68.02789316,103.4527704,-4.29E-07,91.38412496,-119.8366511,6.46E-08,-221.3367222,1.72E-06,-24.36177859,-241.4246698,110.9774414,166.8413073,-29.402856,-49.66059762,0,8.25E-07,,,,
1138.431999,4447,-206.0043749,-97.63474788,-4.36E-07,-0.921266856,104.97547,6.44E-08,-219.4231044,1.70E-06,-25.6133285,-275.4451251,57.21298057,79.62001282,11.2895848,-48.07437355,0,8.17E-07,,,,
1138.439999,4447,47.03420201,84.52179065,-4.26E-07,51.61380568,-65.27861886,6.43E-08,-217.5113011,1.68E-06,-39.10752872,-297.2694573,137.6735437,169.1805873,-61.25111089,7.195254997,0,8.10E-07,,,,
1138.447999,4447,-95.38619668,-9.855902563,-4.26E-07,70.65409803,-11.35468622,6.41E-08,-215.6013529,1.67E-06,-15.66171052,-236.7224492,65.9126019,100.2021287,-7.115073715,-89.23350767,0,8.02E-07,,,,
1138.455999,4447,-117.3897597,-39.28867659,-4.20E-07,5.36852079,72.34540318,6.39E-08,-213.6933023,1.65E-06,-36.6432248,-318.0825202,83.20476051,92.62886821,-46.89126819,2.24949034,0,7.95E-07,,,,
1138.463999,4447,54.25562258,92.574102,-4.17E-07,89.6767508,-117.2761496,6.37E-08,-211.787189,1.64E-06,-23.42246908,-255.7150223,99.36109106,146.9853485,-27.33309652,-60.49712462,0,7.87E-07,,,,
1138.471999,4447,-225.4774171,-114.789595,-4.13E-07,5.640151755,105.5054087,6.35E-08,-209.8830539,1.62E-06,-35.6916441,-291.2700258,45.24213803,69.50636162,-11.8547679,-61.07114942,0,7.80E-07,,,,
1138.479999,4447,33.20976308,70.18125664,-4.09E-07,58.90260762,-44.34960375,6.34E-08,-207.9809385,1.61E-06,-44.90421882,-308.3015184,123.6289771,156.2878725,-54.59016851,9.072828659,0,7.73E-07,,,,
1138.487999,4447,-100.9469068,-15.1291737,-4.05E-07,72.28820907,-6.436588982,6.32E-08,-206.0808819,1.59E-06,-12.69015057,-240.0891785,53.70086287,93.55392925,36.1509106,-91.92690107,0,7.65E-07,,,,
1138.495999,4447,-137.2046042,-51.86064868,-4.02E-07,-2.466143149,74.37856,6.30E-08,-204.1829225,1.58E-06,-50.23445593,-331.1838035,74.70857478,95.61229124,-55.00362386,-0.653458477,0,7.58E-07,,,,
1138.503999,4447,59.54164404,106.9857215,-3.98E-07,98.43732646,-114.6808678,6.28E-08,-202.2871031,1.56E-06,-36.83972126,-259.1790668,92.55994793,155.0320622,-51.25857089,-49.27473631,0,7.51E-07,,,,
1138.511999,4447,-219.1703912,-96.76167833,-3.94E-07,16.25596825,98.48954699,6.26E-08,-200.3934634,1.55E-06,-26.62580065,-274.1268239,25.85281641,70.57866402,4.243644519,-55.64847647,0,7.44E-07,,,,
1138.519999,4447,30.57349935,78.11571448,-3.90E-07,53.83023738,-68.56771893,6.24E-08,-198.5020411,1.53E-06,-41.96747517,-297.3702997,100.9472496,161.3674664,-73.52907947,10.9700577,0,7.37E-07,,,,
1138.527999,4447,-89.53109829,11.84318126,-3.87E-07,81.05679217,-39.47392759,6.22E-08,-196.612877,1.52E-06,-9.729850667,-227.804456,32.53043579,101.6837146,4.920569419,-91.79922082,0,7.30E-07,,,,
1138.535999,4447,-135.3491906,-35.91513808,-3.83E-07,1.419773015,65.41706312,6.20E-08,-194.7260087,1.50E-06,-32.60533295,-310.5690322,56.38542606,99.96466055,-40.09913881,-1.626998701,0,7.23E-07,,,,
1138.543999,4447,62.65784235,118.6107366,-3.79E-07,89.02120162,-123.6952,6.19E-08,-192.8414749,1.49E-06,-36.3918098,-249.9566614,95.98838878,165.0609317,-40.51307122,-47.36195618,0,7.16E-07,,,,
1138.551999,4447,-212.2756082,-57.76367143,-3.76E-07,29.2666462,82.62830189,6.17E-08,-190.9593149,1.48E-06,-29.57957924,-266.0443978,45.84442816,71.10990041,13.59225038,-57.60541183,0,7.09E-07,,,,
1138.559999,4447,27.89288386,110.7245588,-3.72E-07,61.7067902,-64.35209933,6.15E-08,-189.0795674,1.46E-06,-33.96543582,-280.1229648,140.0722286,159.9383706,-55.04506864,10.40986103,0,7.02E-07,,,,
1138.567999,4447,-97.82860698,17.33131813,-3.69E-07,59.36972779,-29.89169418,6.13E-08,-187.2022708,1.45E-06,-28.78417307,-227.1326964,106.5328579,121.398034,-6.855159841,-86.15046881,0,-2.59E-07,,,,
1138.575999,4447,-142.1846556,-18.11684527,-3.65E-07,-0.134982833,61.93515382,6.11E-08,-185.3274614,1.43E-06,-52.6519842,-319.4009699,146.9098895,116.1182342,-51.13947964,5.825115711,0,-1.16E-06,,,,
1138.583999,4447,69.0520475,151.5102723,-3.62E-07,108.7236015,-131.8732232,6.09E-08,-183.4551778,1.42E-06,-21.53802634,-236.7847592,180.4541259,166.3173677,-34.86665567,-45.94953118,0,-8.74E-07,,,,
1138.591999,4447,-215.3519581,-52.08575631,-3.58E-07,25.69873995,88.81742951,6.07E-08,-181.5854589,1.41E-06,-18.68904648,-250.4425565,124.642473,81.32693946,5.860516261,-56.82845585,0,-8.91E-07,,,,
1138.599999,4447,27.87930541,121.3742983,-3.55E-07,68.3993639,-66.67951391,6.05E-08,-179.7183404,-5.16E-07,-30.85134085,-277.1985635,213.7085636,176.3871037,-49.35546484,17.99218911,0,-9.40E-07,,,,
1138.607999,4447,-82.36110016,40.89972118,1.26E-07,84.31487322,-38.60747958,6.03E-08,-177.85386,-2.33E-06,-8.540838447,-211.7812467,168.24031,131.1810221,19.56265646,-78.19640118,0,-8.65E-07,,,,
1138.615999,4447,-143.7405231,-24.20527914,5.79E-07,-0.93271223,69.40753486,6.01E-08,-175.9920551,-1.75E-06,-43.26472771,-301.9826849,199.5227523,125.2057205,-48.56621935,20.78435843,0,-9.10E-07,,,,
1138.623999,4447,70.37618742,147.1277069,4.34E-07,109.3683074,-137.9621471,5.99E-08,-174.1329605,-1.78E-06,-29.41819739,-236.6792734,230.0692292,172.3286884,-55.96460496,-28.65941076,0,-8.66E-07,,,,
1138.631999,4447,-212.9898585,-54.77666849,4.42E-07,29.19277984,80.31581422,5.97E-08,-172.2766148,-1.88E-06,-21.84281986,-258.3418687,174.3343737,78.92547662,-8.173850146,-50.08909083,0,-8.80E-07,,,,
1138.639999,4447,15.13018768,103.5031659,4.66E-07,55.66825391,-66.59026487,5.95E-08,-170.4230543,-1.73E-06,-42.41802416,-292.1978556,267.5514284,173.726744,-70.6256924,27.05261466,0,-8.60E-07,,,,
1138.647999,4447,-95.72290137,37.58213975,4.29E-07,91.69336793,-44.25111799,5.93E-08,-168.5723145,-1.82E-06,-19.56323763,-217.7247241,209.8661201,119.7663441,0.82284599,-72.43977246,0,-8.58E-07,,,,
1138.655999,4447,-165.2941476,-24.71435454,4.52E-07,1.902615037,76.09005356,5.91E-08,-166.7244317,-1.73E-06,-43.79639108,-297.6249292,227.4620704,109.4433567,-28.89798707,21.06371041,0,-8.47E-07,,,,
1138.663999,4447,49.71241361,142.6989194,4.29E-07,83.71950107,-131.2393805,5.89E-08,-164.8794392,-1.76E-06,-38.95351281,-245.0758275,259.2085715,168.52064,-32.28999364,-23.76856343,0,-8.41E-07,,,,
1138.671999,4447,-227.3441809,-43.47251932,4.36E-07,21.36646629,80.84333569,5.87E-08,-163.0373754,-1.72E-06,-27.84081176,-261.8218,177.7632572,59.15563904,5.485484824,-53.14433383,0,-8.33E-07,,,,
1138.679999,4447,8.662511667,125.1955506,4.26E-07,55.34040836,-62.07984964,5.85E-08,-161.1982745,-1.72E-06,-35.62549575,-277.9767752,238.1481231,142.2739876,-51.76457935,19.87764354,0,-8.25E-07,,,,
1138.687999,4448,-88.34500864,59.09529409,4.26E-07,74.28257945,-43.56330139,5.83E-08,-159.3621711,-1.69E-06,-19.93614994,-210.076644,178.7953273,108.7838929,3.626502808,-76.7720484,0,-8.17E-07,,,,
1138.695999,4448,-162.8869129,-5.648722715,4.20E-07,-12.7522621,77.04872675,5.81E-08,-157.5291011,-1.68E-06,-54.20311566,-304.7647289,195.9092163,102.2963797,-48.11015839,17.62177149,0,-8.10E-07,,,,
1138.703999,4448,52.12801027,165.3401792,4.17E-07,83.19020412,-140.7904708,5.79E-08,-155.6990985,-1.66E-06,-45.53419578,-244.7996561,215.0217134,153.9100928,-50.8357108,-29.78706988,0,-8.02E-07,,,,
1138.711999,4448,-226.4166268,-27.77221262,4.13E-07,26.23682777,72.63590162,5.77E-08,-153.8721985,-1.65E-06,-29.65434025,-255.9506007,132.7617832,51.66456053,0.409184241,-59.79449306,0,-7.95E-07,,,,
1138.719999,4448,-2.27353563,124.2076103,4.09E-07,44.97832766,-58.12855831,5.75E-08,-152.0484331,-1.63E-06,-39.56634785,-284.6420239,210.6357977,150.4418657,-61.87292869,25.30356878,0,-7.87E-07,,,,
1138.727999,4448,-99.94215026,62.84217338,4.05E-07,67.33686437,-53.28764436,5.73E-08,-150.2278379,-1.62E-06,-25.95561668,-216.8148496,158.1752186,118.0324024,-13.15643559,-70.55795637,0,-7.80E-07,,,,
1138.735999,4448,-169.7335276,10.59584206,4.02E-07,4.541902725,67.49491357,5.71E-08,-148.4104467,-1.60E-06,-48.84772814,-299.5229062,166.9900208,101.5716161,-42.77750189,21.61019619,0,-7.73E-07,,,,
1138.743999,4448,57.04769502,179.4107749,3.98E-07,90.28920906,-144.5851196,5.68E-08,-146.5962926,-1.59E-06,-26.71433338,-228.301525,186.3333785,162.044606,-24.38827814,-19.23033618,0,-7.65E-07,,,,
1138.751999,4448,-228.2125413,-27.50587906,3.94E-07,10.75289388,68.42717138,5.66E-08,-144.7854096,-1.57E-06,-20.57574363,-241.0802108,104.2528525,60.74182407,10.24064641,-59.71146264,0,-7.58E-07,,,,
1138.759999,4448,-4.74968244,132.5233836,3.90E-07,38.2315631,-58.17310979,5.64E-08,-142.9778304,-1.56E-06,-42.88482481,-283.9826117,178.6222719,144.2395754,-71.67972464,16.90580424,0,-7.51E-07,,,,
1138.767999,4448,-90.94072055,79.83676566,3.87E-07,64.70712734,-56.36857095,5.62E-08,-141.1735885,-1.54E-06,-19.79417691,-215.7169402,119.5569912,105.0099107,-3.402557222,-79.62844408,0,-7.44E-07,,,,
1138.775999,4448,-172.9730113,14.44771213,3.83E-07,-7.313190538,72.208689,5.60E-08,-139.3727156,-1.53E-06,-36.26334322,-302.1287451,121.1408969,81.31146472,-32.37605954,2.627261892,0,-7.37E-07,,,,
1138.783999,4448,63.67891101,198.0409628,3.79E-07,97.35435275,-137.3771586,5.58E-08,-137.575244,-1.52E-06,-20.5818985,-241.378851,146.4223618,140.7741802,-33.47222106,-35.60465199,0,-7.30E-07,,,,
1138.791999,4448,-225.3688202,-17.97752641,3.76E-07,6.886001063,76.94877287,5.56E-08,-135.781207,-1.50E-06,-13.22651043,-249.9781521,69.51288319,46.57729693,11.32479515,-65.30189124,0,-7.23E-07,,,,
1138.799999,4448,-17.21530885,123.8942803,3.72E-07,12.62518114,-50.25061657,5.54E-08,-133.9906381,-1.49E-06,-45.12932295,-299.2303673,150.1324228,138.6501891,-71.85780328,14.00875333,0,-7.16E-07,,,,
1138.807999,4448,-87.24271183,99.29465146,3.69E-07,79.31112387,-57.16188785,5.52E-08,-132.2035669,-1.47E-06,-30.95552122,-222.6323109,91.05943445,97.93605205,-1.594101814,-86.00260394,0,-7.09E-07,,,,
1138.815999,4448,-181.8384527,19.19808136,3.65E-07,0.153470417,90.42875304,5.49E-08,-130.4200239,-1.46E-06,-42.52781398,-292.4562383,89.9415012,75.34481761,-30.02959718,1.799577943,0,-7.02E-07,,,,
1138.823999,4448,50.28530544,190.2688182,3.62E-07,83.26310923,-118.0091732,5.47E-08,-128.6400432,-1.44E-06,-32.70733595,-244.270488,128.9893576,148.0190859,-47.90770375,-24.10220756,0,2.59E-07,,,,
1138.831999,4448,-221.0607862,6.495268044,3.58E-07,41.14891812,83.05909762,5.45E-08,-126.8636558,-1.43E-06,-13.65561861,-246.6354692,52.09928939,42.8759529,22.95118903,-54.2878791,0,1.16E-06,,,,
1138.839999,4448,-11.85823179,146.4153108,3.55E-07,46.96840095,-36.30808947,5.43E-08,-125.0908917,-1.42E-06,-27.71701236,-283.1777871,136.3541802,132.2000358,-55.18500349,28.43830992,0,8.74E-07,,,,
1138.847999,4448,-80.22928088,107.9668725,-1.26E-07,82.13054613,-54.07111565,5.41E-08,-123.3217819,-1.40E-06,-13.13554976,-217.0592537,89.30721498,99.09711421,-10.81865206,-78.54576771,0,8.91E-07,,,,
1138.855999,4448,-174.3612987,33.46141114,-5.79E-07,13.38126073,80.03354284,5.39E-08,-121.5563577,5.18E-07,-20.74660539,-291.4183517,80.47461531,60.39126987,-18.79213686,-8.094494027,0,9.40E-07,,,,
1138.863999,4448,61.1011002,207.0926638,-4.34E-07,94.18055763,-127.9558496,5.36E-08,-119.7946489,2.33E-06,-23.2068605,-245.6429672,124.6778482,134.6151841,-42.01206429,-33.36590358,0,8.65E-07,,,,
1138.871999,4448,-216.6699416,15.77038309,-4.42E-07,37.54995305,82.31940695,5.34E-08,-118.0366859,1.75E-06,-22.77213104,-249.345925,51.62273948,34.53928461,-4.727653216,-64.78923289,0,9.10E-07,,,,
1138.879999,4448,-6.792489654,163.9754009,-4.66E-07,51.62283112,-30.46648349,5.32E-08,-116.2824989,1.78E-06,-28.79261133,-271.8666193,123.3321818,122.4572212,-56.41855265,20.02822702,0,8.66E-07,,,,
1138.887999,4448,-69.07326602,129.0064555,-4.29E-07,82.76120605,-48.02926705,5.30E-08,-114.5321164,1.88E-06,-13.94106464,-202.4347269,89.96854509,114.215936,10.61458091,-71.2001023,0,8.80E-07,,,,
1138.895999,4448,-174.2959928,41.97487412,-4.52E-07,3.95843442,97.10527985,5.28E-08,-112.7855694,1.73E-06,-35.48311313,-288.0104597,98.78966507,89.09134484,-22.13128989,9.721116457,0,8.60E-07,,,,
1138.903999,4448,69.99189831,221.9664616,-4.29E-07,95.28431679,-117.2298817,5.25E-08,-111.0428882,1.82E-06,-29.27828441,-234.5901604,136.621228,157.2320856,-40.02835044,-17.7239791,0,8.58E-07,,,,
1138.911999,4448,-206.1969593,25.59195488,-4.36E-07,41.89997042,82.7410298,5.23E-08,-109.3041002,1.73E-06,-20.61335392,-237.7816377,60.91100015,53.64511311,15.82457881,-54.49554405,0,8.47E-07,,,,
1138.919999,4448,-4.394944627,163.35903,-4.26E-07,57.7534189,-29.36547084,5.21E-08,-107.5692338,1.76E-06,-29.05260214,-270.376524,131.0588013,124.5086964,-52.68133158,28.8001423,0,8.41E-07,,,,
1138.927999,4448,-66.28005962,119.6340213,-4.26E-07,82.56550824,-53.34784738,5.19E-08,-105.8383179,1.72E-06,-19.28368261,-199.7869499,93.50925649,103.402204,-9.509261223,-64.24823881,0,8.33E-07,,,,
1138.935999,4448,-178.5339787,21.49037069,-4.20E-07,1.961462338,93.78524179,5.17E-08,-104.1113821,1.72E-06,-40.76964115,-286.2823407,100.3876686,71.61131031,-39.76150084,11.27141321,0,8.25E-07,,,,
1138.943999,4449,71.09364595,203.9738761,-4.17E-07,96.41747954,-120.7705449,5.14E-08,-102.3884552,1.70E-06,-22.96013097,-228.4373335,129.2464795,135.9246626,-46.213924,-25.67981809,0,8.17E-07,,,,
1138.951999,4449,-214.0748239,-9.397748353,-4.13E-07,14.21524691,83.20019664,5.12E-08,-100.6695642,1.68E-06,-29.55520671,-243.2776979,56.96596804,49.76362212,-3.609504814,-64.47595826,0,8.10E-07,,,,
1138.959999,4449,-14.84150863,137.1315906,-4.09E-07,44.79898814,-32.62340465,5.10E-08,-98.95473698,1.67E-06,-46.84020835,-290.9081927,133.5852956,122.5956334,-75.12147222,15.19888092,0,8.02E-07,,,,
1138.967999,4449,-62.05537164,123.2079273,-4.05E-07,110.4630065,-73.35450219,5.08E-08,-97.24400217,1.65E-06,-6.623535557,-194.7870457,74.22736023,82.41854405,1.792695695,-92.19737816,0,7.95E-07,,,,
1138.975999,4449,-189.3177803,10.6811077,-4.02E-07,3.947952431,79.19434852,5.05E-08,-95.53738694,1.64E-06,-29.08917937,-277.3238721,74.75557595,60.0212353,-17.35350439,-2.207756577,0,7.87E-07,,,,
1138.983999,4449,64.8678743,203.4300072,-3.98E-07,90.76557118,-150.1306591,5.03E-08,-93.8349165,1.62E-06,-33.39451003,-243.3815513,123.6512988,140.4952125,-63.7542598,-14.48449688,0,7.80E-07,,,,
1138.991999,4449,-208.5029418,19.71442906,-3.94E-07,43.98619157,45.55015021,5.01E-08,-92.13661965,1.61E-06,-16.51608203,-238.6330033,38.71793063,31.94631191,-7.35865049,-60.94412486,0,7.73E-07,,,,
1138.999999,4449,-17.83210131,161.1430208,-3.90E-07,60.28925925,-44.76141638,4.99E-08,-90.44252405,1.59E-06,-14.78330252,-273.0268809,106.1702913,101.611544,-21.76406631,22.5694481,0,7.65E-07,,,,
1139.007999,4449,-57.71551903,145.9510623,-3.87E-07,99.4878498,-85.66701393,4.96E-08,-88.75265472,1.58E-06,10.00113324,-199.4529905,63.23834672,81.23292323,22.26844167,-80.59685583,0,7.58E-07,,,,
1139.015999,4449,-185.0756625,31.26367866,-3.83E-07,-1.156464185,71.93244412,4.94E-08,-87.06703849,1.56E-06,-17.80209206,-287.5047499,61.86738946,47.05874907,-35.366429,-9.236421794,0,7.51E-07,,,,
1139.023999,4449,70.737408,217.301899,-3.79E-07,90.56390764,-144.0775822,4.92E-08,-85.38570264,1.55E-06,-21.74127205,-241.4634215,112.2388352,123.7185008,-43.08616867,-25.21344844,0,7.44E-07,,,,
1139.031999,4449,-198.6783378,30.88018093,-3.76E-07,44.37012498,45.0788861,4.90E-08,-83.70867261,1.53E-06,-12.46383385,-232.8232248,32.66057629,19.78136047,7.825742071,-75.94497512,0,7.37E-07,,,,
1139.039999,4449,-11.48812197,156.607634,-3.72E-07,55.44766552,-47.48762164,4.87E-08,-82.03597337,1.52E-06,-15.42484633,-268.9845582,98.73327262,89.74853187,-41.15279907,8.148274641,0,7.30E-07,,,,
1139.047999,4449,-52.84037097,123.9582677,-3.69E-07,90.34655139,-82.17431026,4.85E-08,-80.3676306,1.50E-06,-2.89017289,-197.2842357,68.68148659,84.01816552,19.52058105,-76.50920954,0,7.23E-07,,,,
1139.055999,4449,-287.1591544,-59.22803853,-3.65E-07,-17.95478081,138.8215636,4.83E-08,-78.70367049,1.49E-06,-31.31201129,-273.9586918,40.42274848,19.49489561,-10.23846602,-15.37930463,0,7.16E-07,,,,
1139.063999,4449,-21.11314164,138.5340902,-3.62E-07,69.54009167,-78.83820231,4.80E-08,-77.04411765,1.47E-06,-12.38864477,-218.4590807,82.98410991,98.65280855,-23.19630547,-9.5409646,0,7.09E-07,,,,
1139.071999,4449,-86.39488618,82.19595279,-3.58E-07,51.88031481,-40.93063819,4.78E-08,-75.38899739,1.46E-06,-16.13095394,-212.1412049,58.58250475,73.80904941,-4.570182904,-38.71085758,0,7.02E-07,,,,
1139.079999,4449,-66.89561633,82.53156687,-3.55E-07,31.08641094,-43.46682658,4.76E-08,-73.73833441,1.45E-06,-47.1767021,-257.7506349,67.65703785,73.67390521,-44.79241937,-12.23626793,0,-2.59E-07,,,,
1139.087999,4449,-119.722515,46.88224746,1.26E-07,54.71166349,-34.58424664,4.74E-08,-72.09215306,1.43E-06,-28.55084219,-220.6126581,25.52932601,36.32407907,-7.509240657,-63.75254117,0,-1.16E-06,,,,
1139.095999,4449,-65.94031069,73.10869512,5.79E-07,40.83558969,-29.89424023,4.71E-08,-70.45047792,1.42E-06,-36.36585997,-261.915212,64.92230002,67.38072767,-48.6416416,-5.14763232,0,-8.74E-07,,,,
1139.103999,4449,-56.71426923,80.86925685,4.34E-07,80.14926205,-71.54495443,4.69E-08,-68.81333215,1.40E-06,-23.10314938,-205.5986074,52.64156156,76.32024385,-5.838160747,-48.69111014,0,-8.91E-07,,,,
1139.111999,4449,-158.268558,-6.544242904,4.42E-07,29.34068562,41.13177542,4.67E-08,-67.18074192,-5.17E-07,-29.54349458,-237.5596926,42.34594453,50.62421852,-8.836580646,-8.817414622,0,-9.40E-07,,,,
1139.119999,4449,28.55341047,115.9886458,4.66E-07,69.58896384,-106.7540771,4.64E-08,-65.55272891,-2.33E-06,-30.85249475,-227.2102227,80.62697251,106.4813897,-52.04809972,-2.283555403,0,-8.65E-07,,,,
1139.127999,4449,-170.9535253,-30.41356974,4.29E-07,35.5541501,12.11144781,4.62E-08,-63.92931688,-1.75E-06,-17.27605353,-216.6427681,10.29109158,17.6482772,3.428324203,-64.791397,0,-9.10E-07,,,,
1139.135999,4449,-51.84691934,44.60798154,4.52E-07,28.95039247,-30.40892234,4.60E-08,-62.31052987,-1.78E-06,-38.94433735,-274.4888483,70.00960803,65.61432703,-63.80845823,16.85727797,0,-8.66E-07,,,,
1139.143999,4449,-53.52807863,47.8469617,4.29E-07,83.02387183,-87.38802045,4.57E-08,-60.69638929,-1.88E-06,-22.8077768,-199.8758267,43.14983777,62.41833411,-17.91124461,-58.69483903,0,-8.80E-07,,,,
1139.151999,4449,-200.7910859,-72.5350266,4.36E-07,2.460887597,69.18777847,4.55E-08,-59.08692034,-1.73E-06,-34.88325702,-264.8006586,28.61311727,12.31355291,-12.04213877,-10.25181518,0,-8.60E-07,,,,
1139.159999,4449,45.43312263,108.586011,4.26E-07,75.154468,-129.2384488,4.53E-08,-57.48214472,-1.82E-06,-35.32754681,-235.124155,77.36911831,88.318182,-48.34138841,-12.0486628,0,-8.58E-07,,,,
1139.167999,4449,-194.6751917,-58.37509721,4.26E-07,31.56286063,36.84170209,4.50E-08,-55.882084,-1.73E-06,-19.48424633,-214.8937302,1.280773969,-1.62560193,10.93337945,-65.13598736,0,-8.47E-07,,,,
1139.175999,4449,-50.72500103,33.05527443,4.20E-07,10.82842054,-21.95829224,4.48E-08,-54.28676254,-1.76E-06,-40.88900327,-273.528928,74.89243984,65.72747565,-62.08314866,25.76012518,0,-8.41E-07,,,,
1139.183999,4449,-43.99295536,55.16485276,4.17E-07,81.79640693,-95.78303589,4.46E-08,-52.69620058,-1.72E-06,-30.81789675,-195.8219553,50.64518352,67.73228058,-29.74506371,-65.57477091,0,-8.33E-07,,,,
1139.191999,4449,-195.7182112,-61.61886311,4.13E-07,11.65675755,82.74222779,4.44E-08,-51.11042012,-1.72E-06,-32.08814513,-252.3055825,32.21649335,10.12501905,-19.72595973,-3.65627464,0,-8.25E-07,,,,
1139.199999,4450,70.03903543,122.6045803,4.09E-07,84.77777473,-134.1235752,4.41E-08,-49.52944465,-1.69E-06,-18.39771913,-201.1105194,81.81465256,92.10991875,-37.03881385,-1.774990604,0,-8.17E-07,,,,
1139.207999,4450,-183.1427869,-56.07107716,4.05E-07,45.42038559,31.50671035,4.39E-08,-47.95329386,-1.68E-06,-21.48537281,-199.5257608,2.676412087,-5.442604308,4.878250712,-56.37368034,0,-8.10E-07,,,,
1139.215999,4450,-29.20130263,43.00052767,4.02E-07,39.04681413,-20.39234007,4.37E-08,-46.3819888,-1.66E-06,-31.69110714,-255.5602063,66.84540723,48.43442483,-46.36227847,41.92295135,0,-8.02E-07,,,,
1139.223999,4450,-28.50489805,50.26726647,3.98E-07,96.59077768,-87.09877136,4.34E-08,-44.81555138,-1.65E-06,-0.855898362,-156.8076078,38.89301393,54.44010373,25.04729334,-53.77113387,0,-7.95E-07,,,,
1139.231999,4450,-200.1258673,-87.16666817,3.94E-07,1.324270931,92.96046055,4.32E-08,-43.25400194,-1.63E-06,-39.68371179,-252.4978969,32.18046086,10.54430072,-17.00569648,2.316460634,0,-7.87E-07,,,,
1139.239999,4450,78.82661605,113.1330443,3.90E-07,84.22097343,-120.6136865,4.29E-08,-41.69736051,-1.62E-06,-36.50418348,-219.9464003,82.99596193,85.64891596,-55.23317305,3.030393317,0,-7.80E-07,,,,
1139.247999,4450,-168.1695224,-52.83437811,3.87E-07,60.35027425,56.11854009,4.27E-08,-40.14564908,-1.60E-06,-10.68111747,-181.4781209,3.113593028,-13.00394327,27.84097455,-57.05796506,0,-7.73E-07,,,,
1139.255999,4450,-19.36450227,41.08853374,3.83E-07,41.19821073,-5.927117291,4.25E-08,-38.59888837,-1.59E-06,-31.5201879,-240.8706437,87.48494175,63.59570081,-49.86649383,42.93105993,0,-7.65E-07,,,,
1139.263999,4450,-13.60918105,49.59463594,3.79E-07,92.92021555,-89.61957664,4.22E-08,-37.05709577,-1.57E-06,-5.620663412,-157.6563186,68.18882893,70.98248414,-1.688797672,-47.358607,0,-7.58E-07,,,,
1139.271999,4450,-199.4265124,-101.5025626,3.76E-07,-11.43523114,85.22530562,4.20E-08,-35.52029181,-1.56E-06,-31.24359969,-241.907651,54.81937517,16.73638831,-18.42881598,3.769955602,0,-7.51E-07,,,,
1139.279999,4450,65.32007469,82.99862837,3.72E-07,48.22776841,-147.4211551,4.18E-08,-33.98849925,-1.55E-06,-48.17281274,-225.7578224,108.820137,96.76895066,-72.76376747,-6.376825509,0,-7.44E-07,,,,
1139.287999,4450,-178.6942115,-78.43319438,3.69E-07,33.6408809,31.37819569,4.15E-08,-32.46173397,-1.53E-06,-27.80350267,-199.4043766,23.4166302,-13.83046246,7.225031461,-72.58510154,0,-7.37E-07,,,,
1139.295999,4450,-22.59077022,27.18586312,3.65E-07,38.26429514,-8.732495863,4.13E-08,-30.94001483,-1.52E-06,-32.61993301,-250.709531,105.987615,52.66817922,-52.30015787,34.8442896,0,-7.30E-07,,,,
1139.303999,4450,-1.776341284,55.93993488,3.62E-07,101.0429524,-97.83250027,4.11E-08,-29.42336415,-1.50E-06,-3.130335557,-165.0014465,91.0252573,64.87324709,-16.5412022,-53.78005479,0,-7.23E-07,,,,
1139.311999,4450,-180.605531,-83.74352969,3.58E-07,11.24527824,91.21606418,4.08E-08,-27.911799,-1.49E-06,-10.74396472,-229.7596526,67.72281292,4.913874189,-10.58492724,-2.697086678,0,-7.16E-07,,,,
1139.319999,4450,89.76300634,96.40318751,3.55E-07,74.4244384,-122.4033386,4.06E-08,-26.40533736,-1.47E-06,-13.85677059,-201.8096364,131.8501272,104.7275052,-34.35149513,7.483477461,0,-7.09E-07,,,,
1139.327999,4450,-166.819234,-85.49632719,-1.26E-07,38.92692989,42.29999911,4.04E-08,-24.90399806,-1.46E-06,-10.77296215,-193.5531532,60.18188884,17.08419846,17.09383886,-53.71549507,0,-7.02E-07,,,,
1139.335999,4450,-28.83209538,1.890218008,-5.79E-07,27.01485952,-11.16225013,4.01E-08,-23.40779998,-1.45E-06,-27.34969446,-259.7011977,129.2004622,64.11781429,-59.77952579,35.96078709,0,2.59E-07,,,,
1139.343999,4450,-3.933033747,26.64639239,-4.34E-07,79.99177094,-102.7780298,3.99E-08,-21.91676004,-1.43E-06,3.699530349,-177.9675837,107.7326554,62.76275971,-6.617187429,-56.98353736,0,1.16E-06,,,,
1139.351999,4450,-187.5544746,-113.3201118,-4.42E-07,-8.455464819,88.54292193,3.97E-08,-20.43089698,-1.42E-06,-20.30609978,-251.4366598,95.80027008,9.822174967,-22.03266163,4.265461854,0,8.74E-07,,,,
1139.359999,4450,89.23872796,85.68638542,-4.66E-07,77.75779825,-135.540621,3.94E-08,-18.95022893,-1.40E-06,-25.19485407,-209.4116182,160.9685009,100.0758347,-66.26334486,15.23095679,0,8.91E-07,,,,
1139.367999,4450,-167.8048038,-98.5014926,-4.29E-07,31.45190193,31.14263332,3.92E-08,-17.47477105,5.17E-07,-8.905615671,-184.4708955,78.0330605,0.04965655,7.554206728,-53.27866724,0,9.40E-07,,,,
1139.375999,4450,-42.6742139,-23.45394003,-4.52E-07,0.85618681,-9.589001319,3.89E-08,-16.00454208,2.33E-06,-45.57057772,-268.7106378,150.4354917,59.7386074,-68.22934287,43.92295439,0,8.65E-07,,,,
1139.383999,4450,-7.483121153,21.00600512,-4.29E-07,84.57343321,-115.3882995,3.87E-08,-14.5395591,1.75E-06,-20.00399335,-179.7089781,129.9920191,61.01596556,-24.78397333,-50.36354481,0,9.10E-07,,,,
1139.391999,4450,-191.501622,-117.6288722,-4.36E-07,1.426776139,82.04466956,3.85E-08,-13.07983919,1.78E-06,-20.07582588,-236.9233276,107.8960267,-3.398713308,-24.32303768,0.487602872,0,8.66E-07,,,,
1139.399999,4450,93.07228277,84.15550941,-4.26E-07,69.92243554,-134.8312617,3.82E-08,-11.62539971,1.88E-06,-26.06910855,-211.4383496,180.8248668,102.306981,-61.59657997,18.58377328,0,8.80E-07,,,,
1139.407999,4450,-155.1603022,-87.341968,-4.26E-07,35.7463001,19.92987364,3.80E-08,-10.1762556,1.73E-06,-12.37013746,-178.1164052,98.40874963,9.867433197,5.423888841,-51.36707152,0,8.60E-07,,,,
1139.415999,4450,-36.28298687,-18.33525061,-4.20E-07,5.420013515,-6.062434469,3.78E-08,-8.732421702,1.82E-06,-43.20461652,-251.959676,158.536452,63.34897372,-75.75379703,41.111287,0,8.58E-07,,,,
1139.423999,4450,10.89684185,30.34948202,-4.17E-07,91.52673428,-96.94748406,3.75E-08,-7.293916352,1.73E-06,-15.32285255,-169.664814,140.2276841,76.50564951,-11.76158603,-43.01512425,0,8.47E-07,,,,
1139.431999,4450,-186.4000935,-122.3637856,-4.13E-07,6.88208261,103.9156587,3.73E-08,-5.860755976,1.76E-06,-3.481263861,-217.1630942,119.5702934,13.47361143,12.37013196,15.04453362,0,8.41E-07,,,,
1139.439999,4450,76.57994307,51.92535764,-4.09E-07,46.29333911,-121.9164799,3.71E-08,-4.432954427,1.72E-06,-23.33316517,-211.9228406,186.3920432,105.4991225,-59.49920693,19.74361501,0,8.33E-07,,,,
1139.447999,4450,-170.6476876,-122.3485341,-4.05E-07,13.51693009,19.38029862,3.68E-08,-3.010527201,1.72E-06,-24.58991687,-198.2199388,95.37483152,-5.592480597,-6.485292389,-68.995664,0,8.25E-07,,,,
1139.455999,4451,-55.35358097,-50.90735091,-4.02E-07,-0.865972532,-23.90956423,3.66E-08,-1.593490582,1.69E-06,-43.68547236,-253.7342129,150.5935418,31.45567331,-78.62793849,25.07133759,0,8.17E-07,,,,
1139.463999,4451,-6.225293902,0.809031034,-3.98E-07,75.36357708,-137.8291339,3.63E-08,-0.181859847,1.68E-06,-28.35375774,-172.4761593,129.259399,43.09448343,-48.00913692,-66.99977622,0,8.10E-07,,,,
1139.471999,4451,-193.9130136,-134.2997283,-3.94E-07,3.476252724,79.4777501,3.61E-08,1.224351481,1.67E-06,-23.50627908,-220.9490147,102.3569062,-18.97907573,-13.12264243,-21.49808899,0,8.02E-07,,,,
1139.479999,4451,96.34359446,71.11777272,-3.90E-07,81.4537697,-128.436047,3.59E-08,2.625127429,1.65E-06,-16.47582374,-188.0124018,176.3741705,87.85389516,-43.98283515,6.954250135,0,7.95E-07,,,,
1139.487999,4451,-139.8906154,-97.10702543,-3.87E-07,50.52095304,22.5525563,3.56E-08,4.020453753,1.64E-06,-5.618470881,-161.0458612,99.14760398,7.589716802,21.0588718,-49.8160752,0,7.87E-07,,,,
1139.495999,4451,-38.46364836,-37.20405152,-3.83E-07,15.1679731,3.991676151,3.54E-08,5.410317204,1.62E-06,-24.23322765,-227.4291486,152.9836527,57.31702331,-25.26539209,51.75517247,0,7.80E-07,,,,
1139.503999,4451,8.055100734,4.59070597,-3.79E-07,81.04838412,-121.5613216,3.52E-08,6.794702653,1.60E-06,-12.66356572,-158.4195799,124.8124406,68.14012615,-5.709895187,-48.49473391,0,7.73E-07,,,,
1139.511999,4451,-193.7964012,-148.9171578,-3.76E-07,3.997167841,77.6755899,3.49E-08,8.173596315,1.59E-06,-24.566125,-224.13664,91.72190485,2.376229989,-16.15364004,-9.65403936,0,7.65E-07,,,,
1139.519999,4451,87.60648957,48.18121045,-3.72E-07,74.18837563,-127.7849723,3.47E-08,9.546985624,1.57E-06,-15.42726391,-196.7496276,155.8526844,96.67670611,-39.85752951,9.15752543,0,7.58E-07,,,,
1139.527999,4451,-153.3266677,-129.1800205,-3.69E-07,30.72950968,17.89759772,3.44E-08,10.914856,1.56E-06,-7.795184752,-177.428549,71.6907222,-0.672728448,5.606434867,-67.69767413,0,7.51E-07,,,,
1139.535999,4451,-42.76208979,-52.05120769,-3.65E-07,17.71268757,1.433108186,3.42E-08,12.27719381,1.55E-06,-35.21885648,-255.2167871,126.0906662,39.5649695,-69.90523645,28.57409069,0,7.44E-07,,,,
1139.543999,4451,31.73846586,23.92134603,-3.62E-07,112.7650719,-105.53314,3.40E-08,13.63398612,1.53E-06,7.335083492,-153.5332809,110.5737234,63.86084617,1.268173815,-54.75038738,0,7.37E-07,,,,
1139.551999,4451,-182.3920119,-143.5924579,-3.58E-07,13.59769473,107.7887313,3.37E-08,14.98522007,1.52E-06,7.332576086,-200.1078229,88.63902528,8.717687536,1.435475904,-3.427074444,0,7.30E-07,,,,
1139.559999,4451,93.22191456,46.64550529,-3.55E-07,69.48713871,-113.2714807,3.35E-08,16.33088315,1.50E-06,-8.710950243,-189.151489,150.6695891,99.12958812,-46.54225058,14.10748641,0,7.23E-07,,,,
1139.567999,4451,-148.4578964,-138.4135947,1.26E-07,20.99841828,19.4427626,3.33E-08,17.67096305,1.49E-06,-9.033313934,-172.6408555,64.64840047,5.867155196,21.61657338,-65.58059279,0,7.16E-07,,,,
1139.575999,4451,-65.13892093,-100.8048393,5.79E-07,-23.37643063,-4.75330922,3.30E-08,19.00544728,1.47E-06,-51.65594196,-264.1091631,121.2890707,45.10955832,-80.12421648,29.77282254,0,7.09E-07,,,,
1139.583999,4451,9.335683242,-23.99808728,4.34E-07,76.66030466,-136.1558739,3.28E-08,20.33432311,1.46E-06,-32.26752927,-172.9385473,94.80291463,48.56007699,-43.52476839,-64.38742158,0,7.02E-07,,,,
1139.591999,4451,-200.5965371,-173.6380226,4.42E-07,4.61142442,81.13403359,3.26E-08,21.65757873,1.45E-06,-28.2062364,-212.3237341,57.76745177,-21.85967393,-23.58385007,-19.86346025,0,-2.59E-07,,,,
1139.599999,4451,86.19290766,32.8417235,4.66E-07,78.46428469,-130.743678,3.23E-08,22.97520204,1.43E-06,-27.6865368,-195.5517773,123.7790255,76.23708795,-61.16370901,-1.738404659,0,-1.16E-06,,,,
1139.607999,4451,-131.846825,-120.9848482,4.29E-07,65.05286628,9.754619767,3.21E-08,24.28718203,1.42E-06,4.977928081,-144.9263966,36.61132063,-12.05781654,42.30219973,-83.34594219,0,-8.74E-07,,,,
1139.615999,4451,-43.3746109,-74.03998566,4.52E-07,22.95650892,15.3619093,3.18E-08,25.59350674,1.40E-06,-11.87891231,-211.9761064,98.38810578,39.95310254,-22.94808142,33.34661333,0,-8.91E-07,,,,
1139.623999,4451,31.08599555,-4.643848084,4.29E-07,92.45692953,-117.2013386,3.16E-08,26.89416548,-5.17E-07,-5.061876984,-146.724098,97.25975582,73.09011188,-2.647518505,-47.03356989,0,-9.40E-07,,,,
1139.631999,4451,-196.4275941,-175.2552755,4.36E-07,-3.611041116,90.13585585,3.14E-08,28.18914756,-2.33E-06,-16.94981167,-210.5086107,71.2333726,15.75975072,-6.380931082,-8.310250468,0,-8.65E-07,,,,
1139.639999,4451,83.0993884,26.65209816,4.26E-07,61.94533896,-115.3732591,3.11E-08,29.47844106,-1.75E-06,-26.30004333,-201.7638366,145.6098304,111.9736728,-65.94845953,21.53464661,0,-9.10E-07,,,,
1139.647999,4451,-125.119717,-99.61781494,4.26E-07,76.14480477,18.8572786,3.09E-08,30.76203592,-1.78E-06,6.845487249,-148.6282357,59.13627188,4.270229271,42.61230997,-65.64044704,0,-8.66E-07,,,,
1139.655999,4451,-46.36228779,-59.93511765,4.20E-07,32.08514769,15.80275901,3.07E-08,32.03992154,-1.88E-06,-3.012041638,-212.1187873,106.4041413,42.87960342,-12.72676567,35.73732598,0,-8.80E-07,,,,
1139.663999,4451,17.98689044,-17.70345675,4.17E-07,69.21104809,-128.842902,3.04E-08,33.31208696,-1.73E-06,-9.199162566,-158.3750805,96.89790575,80.29644321,-17.60435747,-46.98841586,0,-8.60E-07,,,,
1139.671999,4451,-220.4103742,-197.0340423,4.13E-07,-27.95739199,69.1892775,3.02E-08,34.5785228,-1.82E-06,-32.34960631,-231.5016088,57.18442001,0.304790027,-15.71742469,-21.45877703,0,-8.58E-07,,,,
1139.679999,4451,55.42647799,-6.920978117,4.09E-07,26.15820077,-151.0053335,3.00E-08,35.83921822,-1.73E-06,-46.11979511,-233.3997187,115.566752,81.09757442,-82.28436099,-1.597449666,0,-8.47E-07,,,,
1139.687999,4451,-154.2520407,-145.6795762,4.05E-07,22.83388741,-25.66173664,2.97E-08,37.09416399,-1.76E-06,-27.64011987,-196.3941586,19.58045937,-21.51539853,-12.83890378,-90.50628542,0,-8.41E-07,,,,
1139.695999,4451,-64.29054066,-70.22776722,4.02E-07,25.32100828,-12.39836908,2.95E-08,38.34335162,-1.72E-06,-27.87376193,-244.6860304,67.60430409,10.64766954,-40.26151843,16.20886057,0,-8.33E-07,,,,
1139.703999,4451,36.52691291,23.59060513,3.98E-07,124.5690873,-141.1934465,2.93E-08,39.58677,-1.72E-06,15.24623789,-136.6082083,58.78764482,46.19967184,16.25308918,-55.72705779,0,-8.25E-07,,,,
1139.711999,4452,-199.8931056,-165.597789,3.94E-07,19.20109968,85.99304864,2.90E-08,40.82441013,-1.69E-06,16.12730178,-183.7225718,20.66946762,-19.59371592,35.88455354,-15.19464403,0,-8.17E-07,,,,
1139.719999,4452,69.28170666,13.86057985,3.90E-07,56.45056147,-130.6585327,2.88E-08,42.05626453,-1.68E-06,-14.25887658,-195.6674008,100.7365367,86.07691468,-49.69354898,20.78552274,0,-8.10E-07,,,,
1139.727999,4452,-148.8303565,-136.7659315,3.87E-07,40.0041627,-21.90628274,2.86E-08,43.28232307,-1.67E-06,-11.12488573,-164.3819264,12.3869551,-14.27376198,-8.916870006,-76.71258208,0,-8.02E-07,,,,
1139.735999,4452,-80.60825115,-97.71850225,3.83E-07,5.837615444,6.799019731,2.83E-08,44.50257658,-1.65E-06,-32.7950469,-235.1907863,54.61117949,2.840295327,-58.51974835,21.99780707,0,-7.95E-07,,,,
1139.743999,4452,22.00844455,-6.793951356,3.79E-07,99.78068311,-135.5572425,2.81E-08,45.71701716,-1.64E-06,-13.98776356,-148.7981008,48.32188447,36.89414993,-13.96462267,-46.36159443,0,-7.87E-07,,,,
1139.751999,4452,-217.4594283,-189.0647361,3.76E-07,6.406899241,77.51777959,2.78E-08,46.92563582,-1.62E-06,-16.16221072,-195.8085881,4.656104786,-33.23378008,1.897674913,-12.2063728,0,-7.80E-07,,,,
1139.759999,4452,70.93670503,15.4496143,3.72E-07,68.56049696,-111.954573,2.76E-08,48.12842631,-1.60E-06,-24.6949278,-194.6356927,88.00328321,72.29796735,-53.21631836,28.59231878,0,-7.73E-07,,,,
1139.767999,4452,-124.3828288,-111.5270416,3.69E-07,74.67461856,8.689774077,2.74E-08,49.32537939,-1.59E-06,5.646851595,-140.5322697,11.46862876,-14.31793429,21.9688545,-54.32362152,0,-7.65E-07,,,,
1139.775999,4452,-69.00749511,-91.21579558,3.65E-07,16.53477711,26.73209095,2.71E-08,50.51648722,-1.58E-06,-6.498805468,-206.1750169,56.7000001,12.26304924,-36.70451409,46.83582182,0,-7.58E-07,,,,
1139.783999,4452,35.57576143,-6.077978996,3.62E-07,91.40909452,-123.3716139,2.69E-08,51.70174286,-1.56E-06,6.323693283,-130.5707009,52.79277807,47.82373054,-4.31404419,-35.89416724,0,-7.51E-07,,,,
1139.791999,4452,-213.9402145,-195.3039916,3.58E-07,-8.352234957,85.07786526,2.67E-08,52.88113613,-1.55E-06,-9.745053673,-189.1580274,4.985940004,-29.14515593,-1.167899064,-10.72351179,0,-7.44E-07,,,,
1139.799999,4452,55.05985676,-10.31890997,3.55E-07,32.36486408,-131.6145773,2.65E-08,54.05466338,-1.53E-06,-40.21589574,-208.366273,77.35517676,65.60702535,-81.8761045,25.92132685,0,-7.37E-07,,,,
1139.807999,4452,-143.825314,-140.8637591,-1.26E-07,37.70070606,-23.6657754,2.62E-08,55.22231654,-1.52E-06,-22.30029812,-167.9292253,-17.33959205,-40.27688695,1.385415281,-79.20943128,0,-7.30E-07,,,,
1139.815999,4452,-86.72639244,-116.8436864,-5.79E-07,-1.253118296,10.25064719,2.60E-08,56.38408783,-1.50E-06,-32.16872252,-232.862531,15.85718014,-27.23874655,-44.18280816,18.86068339,0,-7.23E-07,,,,
1139.823999,4452,39.72023339,-10.9704357,-4.34E-07,97.46839124,-137.5335195,2.58E-08,57.53997148,-1.49E-06,-5.445289773,-149.1629897,21.93280124,16.62045799,-5.074784409,-53.77975491,0,-7.16E-07,,,,
1139.831999,4452,-200.445906,-187.3802774,-4.42E-07,16.25773805,91.85862153,2.55E-08,58.68995859,-1.47E-06,9.698799494,-183.1832422,-14.92026939,-52.08729435,39.5559532,-25.23914901,0,-7.09E-07,,,,
1139.839999,4452,64.65438947,-13.29231095,-4.66E-07,46.13264688,-111.6858342,2.53E-08,59.83404584,-1.46E-06,-17.22700537,-185.9610218,69.87177128,63.37046265,-47.63784047,28.62991456,0,-7.02E-07,,,,
1139.847999,4452,-139.3641408,-150.6347049,-4.29E-07,35.62504243,-19.54694914,2.51E-08,60.97222643,-1.45E-06,-27.17830614,-159.6863282,-9.66076147,-20.24703993,-9.625260808,-75.67351144,0,2.59E-07,,,,
1139.855999,4452,-97.66816544,-135.5139946,-4.52E-07,-22.23620552,12.84242169,2.48E-08,62.10449315,-1.43E-06,-42.51017415,-239.0008235,27.71634043,-8.370967573,-51.81863713,16.56728129,0,1.16E-06,,,,
1139.863999,4452,21.57075411,-44.06312478,-4.29E-07,51.60929813,-146.5731129,2.46E-08,63.23084027,-1.42E-06,-26.91650111,-161.7757605,28.67764983,30.84432962,-35.60420641,-51.108675,0,8.74E-07,,,,
1139.871999,4452,-220.6761524,-211.0559603,-4.36E-07,-6.874800707,76.66837432,2.44E-08,64.35126208,-1.40E-06,-30.9017252,-207.041271,-22.42827564,-60.02368984,-22.72782056,-34.39867346,0,8.91E-07,,,,
1139.879999,4452,58.19826287,-14.14538725,-4.26E-07,51.26956783,-115.5328095,2.41E-08,65.46575383,5.17E-07,-26.12143327,-194.5815176,50.73325966,36.22662089,-65.38472182,21.44435889,0,9.40E-07,,,,
1139.887999,4452,-137.8738891,-152.3821016,-4.26E-07,34.09616519,-20.73299793,2.39E-08,66.57431023,2.33E-06,-12.68395855,-146.4630982,-30.36007832,-34.46633612,-1.210391434,-61.93322975,0,8.65E-07,,,,
1139.895999,4452,-94.48437264,-124.4685537,-4.20E-07,0.746132429,23.95956113,2.37E-08,67.67692531,1.75E-06,-35.08097159,-226.2348786,5.554176074,-17.05660141,-46.5031317,32.57224597,0,9.10E-07,,,,
1139.903999,4452,36.91602523,-21.37438829,-4.17E-07,83.73736276,-130.29161,2.35E-08,68.77359444,1.78E-06,-3.2254939,-139.0113336,7.333882117,27.01508007,-4.004604288,-36.81284729,0,8.66E-07,,,,
1139.911999,4452,-223.7819793,-214.9853616,-4.13E-07,-15.67782246,81.47859823,2.32E-08,69.86431272,1.88E-06,-15.19600305,-189.7089509,-40.72137209,-52.40404497,-0.731334351,-22.35199312,0,8.80E-07,,,,
1139.919999,4452,60.3217001,-1.57409938,-4.09E-07,50.4305113,-113.2829609,2.30E-08,70.94907561,1.73E-06,-31.21296473,-193.1357072,40.96654784,46.44967031,-66.77123154,22.7175942,0,8.60E-07,,,,
1139.927999,4452,-108.0649101,-103.2350506,-4.05E-07,71.76648275,-12.61413359,2.28E-08,72.02787919,1.82E-06,3.000452485,-121.7856741,-32.84122325,-23.91866027,23.26047701,-64.27385152,0,8.58E-07,,,,
1139.935999,4452,-80.19400599,-90.085073,-4.02E-07,18.85053523,29.50449896,2.25E-08,73.10071637,1.73E-06,-12.12072198,-189.3911342,-1.474717,-8.597541402,-19.83863964,36.76954337,0,8.47E-07,,,,
1139.943999,4452,37.99762497,-0.886960771,-3.98E-07,63.65610049,-138.7094277,2.23E-08,74.16758511,1.76E-06,-7.182716322,-127.2956233,3.203888783,41.03981849,-20.20713505,-33.28092401,0,8.41E-07,,,,
1139.951999,4452,-236.5753987,-209.3995691,-3.94E-07,-50.73939971,71.79162219,2.21E-08,75.22848279,1.72E-06,-32.84141778,-191.8199842,-42.90968444,-42.38561418,-29.01875231,-25.54937485,0,8.33E-07,,,,
1139.959999,4452,28.85125847,-24.11712682,-3.90E-07,-1.192897986,-130.6755987,2.19E-08,76.28340394,1.72E-06,-68.16586686,-212.4502137,33.52996248,39.8564564,-99.62187254,22.28776085,0,8.25E-07,,,,
1139.967999,4453,-141.5551589,-131.5438168,-3.87E-07,18.84227393,-39.68109436,2.16E-08,77.33234431,1.69E-06,-57.83490312,-163.2116631,-37.54547915,-45.29225451,-23.17826677,-71.70529504,0,8.17E-07,,,,
1139.975999,4453,-102.7373166,-100.7031758,-3.83E-07,-8.351066445,21.07433492,2.14E-08,78.37530156,1.68E-06,-57.19094468,-219.5008148,4.637794113,-38.64168613,-49.58784557,26.51539616,0,8.10E-07,,,,
1139.983999,4453,52.53917033,25.97685559,-3.79E-07,80.00032313,-133.3142331,2.12E-08,79.41227237,1.66E-06,-17.6565212,-124.8428707,26.73753668,21.64590831,-14.77547658,-28.45099877,0,8.02E-07,,,,
