Time:125Hz,Epoch,FP1,FP2,C3,C4,P7,P8,O1,O2,F7,F8,F3,F4,T7,T8,P3,P4,,,,
868.7839994,3393,-0.915538236,-82.902352,-304.9122985,-283.7332244,659.7920199,6.49519656,0,-124.4422654,-43.04587222,-119.349378,-526.8194699,-209.7356259,-111.9829981,52.44577812,1894.520557,-86.63789334,,,,
868.7919994,3393,-0.898278547,117.6249412,512.3032281,436.9613817,1959.012427,117.5640202,0,311.6200428,86.83288548,107.9491928,332.9276652,213.4842373,85.54749545,25.73895952,2583.988492,-86.11693579,,,,
868.7999994,3393,-0.881062461,-120.0247884,-356.1602109,-292.0733812,599.1853228,-74.23419984,0,-198.1533414,-55.9165449,-2.724555103,-2.520470563,171.475047,-29.90313507,-35.56477744,2659.747471,-85.59580476,,,,
868.8079994,3393,-0.863890245,59.47713791,184.7053678,113.501596,1301.218984,131.4254362,0,161.0982641,35.73215233,-71.74778065,-382.592657,-240.2522475,-62.36846781,99.9028216,1646.265148,-85.07451255,,,,
868.8159994,3393,-0.846762164,1.082324138,105.0344488,96.31322226,1287.356514,-8.023009401,0,41.20184537,25.62412416,136.8551563,536.8690153,426.9104762,88.63492631,-52.39349583,3028.624995,-84.55307229,,,,
868.8239994,3393,-0.829678481,-91.37102217,-367.4252739,-354.8556528,384.8682106,10.40672019,0,-155.5182169,-41.9283509,-130.7744703,-560.3778875,-252.0972664,-124.0242411,65.93998936,1643.550191,-84.0314989,,,,
868.8319994,3393,-0.812639456,110.7238059,460.0261883,374.3807449,1689.54893,124.8266141,0,288.3756776,81.15624624,92.43688952,301.7033575,182.3867019,76.61687576,33.37486789,2343.40722,-83.50980727,,,,
868.8399994,3393,-0.795645348,-123.3349764,-412.49109,-365.4416578,316.2464126,-70.89508999,0,-230.3353036,-55.70262359,-11.18049689,-21.64542304,140.4355985,-32.09618942,-26.95733985,2408.163037,-82.98800814,,,,
868.8479994,3393,-0.778696413,53.65354001,129.8069619,42.72939387,1013.263124,124.7445686,0,128.9262763,33.27466225,-81.67280185,-404.8355417,-270.5052086,-57.95995178,99.76239007,1378.320848,-82.46611728,,,,
868.8559994,3393,-0.761792906,-5.851424911,55.79706464,20.8422884,998.3123603,-21.57982513,0,-1.001236115,22.33035798,123.4434532,514.5425779,390.4193773,100.6974028,-58.98329703,2744.966261,-81.94414806,,,,
868.8639994,3394,-0.744935078,-96.97952649,-417.9681138,-435.2920857,93.19509649,-2.494272438,0,-197.574918,-45.80720671,-138.3834886,-579.6519987,-290.7523517,-113.0695418,58.00634137,1347.49206,-81.42211265,,,,
868.8719994,3394,-0.728123181,110.4223001,423.2682551,306.8938615,1421.095798,114.3286923,0,264.9445552,76.10245211,86.7297625,283.6749046,153.3434139,84.54504798,20.21922892,2057.123963,-80.90002634,,,,
868.8799994,3394,-0.71135746,-123.2272664,-435.4388309,-423.6176101,70.01128752,-78.33371237,0,-243.3895784,-55.68440864,-17.16088284,-34.29969202,114.6832558,-20.71589333,-36.30553145,2135.775104,-80.37790074,,,,
868.8879994,3394,-0.694638163,52.56825911,118.3444947,6.981714548,795.4910502,130.4537988,0,139.6814623,36.95641863,-78.55439206,-413.46992,-284.659487,-48.34841357,106.1484804,1121.023201,-79.85574963,,,,
868.8959994,3394,-0.677965533,-7.899680689,53.83537807,6.601522079,814.0919681,-9.686805637,0,25.95176427,23.47608561,133.7423274,520.3627175,401.1197682,103.3298563,-48.17580466,2539.317307,-79.33358627,,,,
868.9039994,3394,-0.661339811,-106.0657419,-438.4186407,-475.9605362,-112.2272908,-0.477637035,0,-197.7166959,-49.40516458,-138.878761,-585.4483405,-296.6936175,-119.227348,68.67602997,1147.409516,-78.81142403,,,,
868.9119994,3394,-0.644761237,103.0044596,400.7681976,255.8841978,1214.862253,113.9667606,0,254.1341598,74.01131831,80.32349939,269.1711188,131.7870239,76.13711744,34.48094312,1836.940957,-78.28927745,,,,
868.9199994,3394,-0.628230049,-125.6518125,-443.7108012,-459.62572,-108.8300246,-76.92780311,0,-246.0781908,-55.5422316,-19.29467596,-30.12411825,111.1202576,-26.23573555,-24.25463665,1944.60864,-77.76715759,,,,
868.9279994,3394,-0.611746481,50.80631655,113.8684976,-35.56480108,617.8255728,129.6716726,0,128.5966257,38.37076439,-81.56990459,-408.1091199,-292.6821733,-50.86757357,120.9088817,927.3417695,-77.24507712,,,,
868.9359994,3394,-0.595310766,-7.450527867,60.77319669,-30.82520578,657.4625652,-9.67959927,0,18.49437926,29.97009732,129.5543083,536.604175,394.2537999,105.2011302,-34.04031954,2338.701333,-76.72305111,,,,
868.9439994,3394,-0.578923137,-110.1189207,-417.0412793,-484.1973081,-227.693101,2.263582972,0,-178.6346836,-43.00809115,-143.646355,-552.1191841,-280.7084568,-115.1259305,74.1115767,979.5246933,-76.20109183,,,,
868.9519994,3394,-0.56258382,84.698251,425.7871917,258.5385274,1126.848654,112.9327353,0,281.3823327,72.38456171,76.92479961,302.4363983,156.9715401,82.00180477,33.57567016,1701.059419,-75.67921157,,,,
868.9599994,3394,-0.546293044,-155.5340788,-438.3539388,-481.640811,-203.8875308,-91.34747668,0,-243.5808872,-68.21858941,-30.35222176,-11.27219314,123.9949072,-27.85060356,-36.23858701,1821.516704,-75.15742457,,,,
868.9679994,3394,-0.530051034,23.78683311,117.3376738,-52.31541594,536.7379408,111.5254077,0,134.7984291,11.18000485,-106.4604217,-410.3458762,-292.590699,-63.30235172,94.96223878,805.8109253,-74.63574226,,,,
868.9759994,3394,-0.51385801,-24.63636891,82.89917188,-22.58502978,615.9162437,-24.60048371,0,43.6845784,-2.070544608,112.1114902,540.7623568,408.8047988,99.2954009,-64.07586642,2259.564992,-74.1141772,,,,
868.9839994,3394,-0.497714195,-115.101169,-407.6876457,-503.1988145,-291.7032245,-11.32415804,0,-176.4830415,-61.17882773,-148.6403076,-546.8518591,-269.2632479,-112.5575059,57.34288678,915.5873311,-73.59274323,,,,
868.9919994,3394,-0.481619807,97.11501891,441.3538521,235.6460094,1059.815521,113.3526734,0,281.096809,63.14547347,77.28433655,302.7340509,150.1138637,88.81430614,32.33937385,1606.507375,-73.0714527,,,,
868.9999994,3394,-0.465575062,-139.8978076,-401.9323385,-470.7405091,-233.6202008,-80.72669206,0,-216.5589486,-80.49838798,-17.98104426,8.058546318,137.2645101,-12.48413967,-35.88853972,1754.249401,-72.55031743,,,,
869.0079994,3394,-0.449580174,33.79093433,132.8648147,-62.3658557,482.0138484,119.577865,0,146.4046881,4.093910977,-89.55495996,-397.7058819,-275.2004158,-51.88652695,97.68442127,748.3797332,-72.02935044,,,,
869.0159994,3394,-0.433635356,-7.555402037,86.0067771,-65.39680127,530.1715423,-11.50811255,0,30.36326218,1.807897796,127.1903817,539.4136085,398.939264,102.8949114,-50.28806061,2154.363155,-71.50856575,,,,
869.0239994,3394,-0.417740817,-101.9582715,-399.7301003,-533.8032893,-367.6758245,4.784211753,0,-178.9556499,-62.35498151,-134.5656331,-545.6619632,-278.5850462,-108.7186638,65.80307079,794.6027136,-70.98797329,,,,
869.0319994,3394,-0.401896766,99.34500703,448.122775,221.1621878,996.0232822,122.4680839,0,291.4771687,49.94707642,81.85660001,300.5094641,158.3696895,87.92199703,20.80005882,1504.433731,-70.46758622,,,,
869.0399994,3394,-0.386103409,-134.4064391,-405.9927174,-508.7753271,-324.6690308,-76.8915035,0,-226.1008437,-87.5097704,-22.30345241,1.072242362,139.9657381,-16.33597931,-48.40373211,1646.650585,-69.94741813,,,,
869.0479994,3394,-0.370360949,27.93967315,123.1351308,-108.5625399,372.6601972,119.745908,0,132.1020421,5.856570817,-100.2888261,-412.5013694,-290.8330532,-51.71277149,89.80279428,598.7985914,-69.4274795,,,,
869.0559994,3394,-0.354669589,-35.83734546,90.97667378,-76.33110213,453.1668006,-16.77286322,0,47.57885071,-9.878339987,106.0660553,528.776626,395.8833006,106.1172486,-73.2665122,2019.853342,-68.90778363,,,,
869.0639994,3394,-0.339029528,-128.5479681,-409.7371205,-561.9897793,-473.5355973,-4.117188532,0,-175.3653459,-79.04655819,-163.1464007,-565.0334983,-280.853606,-108.3958139,43.35315982,678.1083299,-68.38834248,,,,
869.0719994,3394,-0.323440964,81.42411675,422.8583932,171.2982778,852.8637244,115.727378,0,273.4313295,54.86851471,62.82650444,271.0292632,130.1154608,86.13094157,25.3952294,1329.223815,-67.86916829,,,,
869.0799994,3394,-0.307904092,-152.3439912,-420.0045615,-529.0532219,-447.7560631,-81.65936681,0,-224.7572892,-82.38495573,-27.04527807,-11.99391505,125.8377809,-18.45670708,-39.68104418,1464.903507,-67.3502736,,,,
869.0879994,3394,-0.292419107,22.7260312,108.7441275,-122.0248958,242.0983337,118.4302669,0,134.8142952,-1.192903063,-100.4040462,-430.9469201,-290.8546586,-59.6927637,92.01700598,432.4137708,-66.83166981,,,,
869.0959994,3394,-0.276986199,-25.19284796,74.0262241,-97.64963148,304.8879392,-14.89088164,0,37.48701014,-7.833480487,120.2083869,513.1733919,395.5643727,96.89645567,-64.21052222,1836.007433,-66.3133677,,,,
869.1039994,3394,-0.261605559,-116.1360654,-433.9041787,-592.0955489,-643.7956891,-3.8751588,0,-195.0365823,-68.45999053,-137.2386912,-568.8277291,-279.9541326,-115.8207,52.16836188,478.4199722,-65.79538115,,,,
869.1119994,3394,-0.246277373,93.47696242,399.5237973,135.9973204,669.349855,114.7137373,0,252.1562653,61.92834655,82.4748021,261.7014884,123.3349079,75.28241006,25.26830181,1107.403894,-65.27772214,,,,
869.1199994,3395,-0.231001827,-139.4827368,-443.5703423,-571.157032,-637.6582255,-83.71482961,0,-247.497022,-76.88797688,-12.62632119,-14.40641183,119.7645893,-26.14070868,-42.16612933,1232.819591,-64.76040009,,,,
869.1279994,3395,-0.215779105,36.27468732,74.54392629,-184.0428717,25.83142397,119.8913427,0,100.3740595,16.95574634,-92.8727688,-433.8809274,-309.5119251,-56.72824499,102.0219228,167.248552,-64.24342883,,,,
869.1359994,3395,-0.200609388,-24.70650314,45.41933245,-152.5170412,96.89603112,-17.77251669,0,9.172185746,5.165090489,112.1974978,505.618703,371.3889209,102.0602031,-59.02873151,1553.954161,-63.72682045,,,,
869.1439994,3395,-0.185492855,-128.9625282,-458.8763243,-629.1058794,-834.2994674,-16.66510431,0,-211.5302652,-82.48668447,-158.3786939,-586.8551017,-294.8964736,-116.0765748,37.97908722,214.2255482,-63.21058534,,,,
869.1519994,3395,-0.170429683,88.01232931,375.32007,95.95366781,472.2081109,103.4998401,0,230.4098038,48.6062848,60.54945321,231.764385,107.1655754,75.36359581,13.52132989,843.2823587,-62.69473544,,,,
869.1599994,3395,-0.155420048,-144.3905731,-468.3926019,-622.2211012,-846.7590665,-95.19092297,0,-278.1393534,-75.32773089,-27.79771482,-38.63407032,98.69319709,-25.15846231,-46.97293157,962.0075972,-62.17928179,,,,
869.1679994,3395,-0.140464123,33.44768794,49.00776939,-236.336608,-186.6593158,112.8186205,0,72.48629472,19.16647709,-100.8813648,-457.8233923,-337.9843195,-59.62624669,96.91211739,-117.8235857,-61.6642366,,,,
869.1759994,3395,-0.125562079,-12.68111106,29.53931236,-199.6497592,-102.8080811,-14.70885903,0,-13.46228324,14.58383851,115.2708958,494.0840382,351.4453439,101.166777,-59.90312512,1272.104497,-61.14961179,,,,
869.1839994,3395,-0.110714085,-115.1874809,-477.3831042,-684.626493,-1040.636108,-15.15050935,0,-239.6347644,-65.70720146,-152.5193749,-589.2251491,-309.0617468,-115.7157224,41.40091288,-64.7941239,-60.63541656,,,,
869.1919994,3395,-0.095920309,100.4307103,360.6727529,41.89920155,271.8485058,105.1230021,0,209.0645945,60.90545416,64.2564215,229.255183,90.84043853,76.14827442,18.21861498,556.7430478,-60.1216647,,,,
869.1999994,3395,-0.081180915,-131.4542614,-470.5387101,-662.7466804,-1019.282295,-94.18725089,0,-283.6842907,-68.24922171,-25.46717475,-29.41681915,96.61750891,-18.01721287,-44.28309109,700.5894094,-59.60836716,,,,
869.2079994,3395,-0.066496067,40.62493838,46.80347915,-271.0343662,-350.3015527,102.4837542,0,71.76700618,19.81119946,-107.09227,-457.7373483,-335.0274886,-54.1029191,93.75514405,-366.6779853,-59.09553289,,,,
869.2159994,3395,-0.051865926,0.102281765,24.86440989,-237.3370835,-269.1274994,-26.78771454,0,-18.26706989,19.80523408,112.8167219,489.2914432,351.1805614,103.4049572,-59.00131536,1016.570688,-58.58317589,,,,
869.2239994,3395,-0.037290651,-94.97999427,-488.6912964,-728.1631304,-1215.187875,-17.91629973,0,-246.3301466,-49.11223312,-145.4416058,-585.9421562,-305.1066183,-111.213535,52.38315731,-321.4206548,-58.07130566,,,,
869.2319994,3395,-0.022770399,118.6061034,354.2300533,11.35990832,112.1956296,110.7990124,0,208.5903146,81.88394764,75.7146034,235.9077547,96.71563764,82.82283139,31.46057946,291.4484398,-57.55993275,,,,
869.2399994,3395,-0.008305326,-113.0942465,-479.1368651,-692.9206248,-1179.606556,-85.21742357,0,-297.0187489,-47.22161237,-6.340106167,-17.24441252,103.2508974,-16.14055631,-33.82731053,437.3678731,-57.04907007,,,,
869.2479994,3395,0.006104416,59.48011776,39.2757436,-297.4190077,-514.1108019,110.5518133,0,56.42865492,38.36343679,-84.20690278,-447.5953432,-325.1820247,-60.32366937,99.34840203,-628.5645077,-56.53872603,,,,
869.2559994,3395,0.020458675,15.64454732,36.36872809,-245.007723,-403.3929231,-23.30610033,0,-21.18681613,38.89818055,140.2970973,511.1133994,372.5218213,103.4735186,-58.07276635,768.6202899,-56.02891279,,,,
869.2639994,3395,0.034757302,-82.16166217,-489.3888739,-758.6510087,-1367.987898,-22.67194798,0,-270.3131171,-30.2317725,-121.1718323,-563.98007,-290.377203,-104.9648026,55.41578032,-571.1484661,-55.51964252,,,,
869.2719994,3395,0.04900015,130.047283,357.5929553,-15.64834788,-39.78237244,104.8806846,0,189.02661,97.40100809,91.03999468,250.2847981,103.2893847,89.71320559,34.51490894,26.56432263,-55.01092455,,,,
869.2799994,3395,0.063187073,-111.7509092,-463.0671982,-695.5380956,-1303.661838,-92.45571121,0,-294.2954606,-41.15579691,3.386828976,4.162256428,128.1455358,-6.533112294,-41.51071083,210.185275,-54.50277044,,,,
869.2879994,3395,0.077317928,56.74124997,37.07699423,-316.6857234,-657.9633151,106.1199422,0,49.56743443,38.04705257,-87.01517738,-443.3871989,-315.9500897,-53.50704904,96.34200938,-863.0122675,-53.99519,,,,
869.2959994,3395,0.091392574,20.84982466,40.58974948,-256.7081127,-541.7298424,-14.67135394,0,-23.38789347,38.20813964,135.7687541,518.6559143,371.5051404,108.9512453,-50.02573064,519.1940803,-53.48819299,,,,
869.3039994,3395,0.105410871,-80.05238109,-479.9625972,-753.5744198,-1496.562137,-7.996977841,0,-264.8395708,-32.06040168,-118.0546843,-544.1144694,-271.4364774,-101.176105,61.84555696,-789.9423153,-52.98179139,,,,
869.3119994,3395,0.119372683,128.5036669,361.513095,-11.25643519,-167.9876732,120.0204461,0,190.6130936,100.8731799,92.78193712,257.9808272,115.9476828,90.06931858,42.48497753,-203.2657371,-52.47599604,,,,
869.3199994,3395,0.133277873,-111.4739397,-457.9359364,-690.1935786,-1419.712081,-78.88099378,0,-293.1926605,-38.63940634,4.352472154,16.81647835,141.4375069,-7.125724869,-35.21082954,-14.32505153,-51.97081612,,,,
869.3279994,3395,0.147126308,56.56095542,37.55307852,-317.6720805,-776.876351,119.2045529,0,43.49582047,37.46658486,-79.47806942,-430.4068328,-295.3363303,-54.59131351,101.7207848,-1069.97655,-51.46626216,,,,
869.3359994,3395,0.160917856,18.75953155,40.91801572,-266.9176201,-658.8579349,-5.077877794,0,-37.82313584,43.31967643,145.9036266,524.0686369,382.1090764,108.1311833,-42.54692993,301.8784911,-50.96234542,,,,
869.3439994,3395,0.174652388,-80.55295487,-485.0615663,-776.2270906,-1614.688415,-5.356049933,0,-282.3568617,-31.56428267,-114.2929603,-549.039201,-271.28646,-106.750651,66.7805233,-1013.218538,-50.45907526,,,,
869.3519994,3395,0.188329777,142.0536402,361.770058,-37.97965815,-284.9375937,127.6515087,0,174.8541782,99.75889216,100.2902322,248.455393,113.5642761,86.09356375,55.62091062,-426.5285899,-49.95646254,,,,
869.3599994,3395,0.201949895,-89.31043581,-446.6867583,-713.9122115,-1531.76808,-69.81268011,0,-306.7198921,-27.32029676,20.80503501,19.26675208,139.0025897,-0.756138635,-14.414862,-237.0063409,-49.4545178,,,,
869.3679994,3395,0.215512621,69.21321406,52.91046965,-323.464168,-869.3980391,119.3702476,0,49.45316746,39.19765473,-73.25892422,-433.4840283,-294.0141894,-49.11162928,103.661512,-1276.77471,-48.95324978,,,,
869.3759994,3396,0.22901783,23.87552908,65.58289204,-248.5135918,-720.2289345,-10.04785949,0,-11.86586594,27.57162716,138.9490939,518.6536625,395.0462091,108.857378,-59.89709209,141.0317352,-48.45267038,,,,
869.3839994,3396,0.242465404,-85.19969828,-463.9283163,-750.6875682,-1671.430681,-16.41519307,0,-255.9334804,-47.58983752,-123.5763872,-550.8681919,-258.9325307,-110.389375,49.76257671,-1148.67802,-47.95278799,,,,
869.3919994,3396,0.255855225,125.8634895,376.9226333,-6.95879339,-329.5693664,113.7826679,0,202.7090141,75.77386573,84.65538325,240.7580736,120.2859714,70.98979893,30.08800105,-552.1876433,-47.45361156,,,,
869.3999994,3396,0.269187176,-103.9127031,-442.5059657,-699.3790971,-1584.283231,-80.63319375,0,-297.2582057,-49.83160843,1.859821244,16.9718225,137.645398,-19.40747729,-37.88589969,-358.6624105,-46.95515359,,,,
869.4079994,3396,0.282461143,54.78166825,40.33406329,-331.580695,-954.6197936,109.9233508,0,35.5454061,32.82510152,-84.40092198,-436.991138,-311.0924786,-62.83778573,104.0628024,-1434.552418,-46.45742292,,,,
869.4159994,3396,0.295677014,13.16689173,48.37400881,-264.4888039,-813.3792223,-12.83412594,0,-33.22367883,20.46095535,128.8987592,509.6068137,373.8498369,94.47925311,-57.43200347,-39.56076076,-45.96042804,,,,
869.4239994,3396,0.308834678,-78.31448853,-496.8733298,-800.8128941,-1812.697834,-3.200019662,0,-301.5920969,-37.01742309,-127.9679114,-561.9623335,-295.0233093,-116.1878433,62.76842556,-1367.757878,-45.46418056,,,,
869.4319994,3396,0.321934026,135.6757355,343.4867319,-63.67951145,-501.9879078,135.0341268,0,155.02881,111.509427,95.43045569,228.8808648,75.4475224,83.52826579,65.36103712,-829.4916614,-44.96869007,,,,
869.4399994,3396,0.334974953,-106.0553413,-451.0187263,-712.1205353,-1713.894273,-63.21753159,0,-308.5795006,-38.81268945,7.346786227,11.30614877,122.257834,-8.817892393,-22.49978666,-613.336822,-44.47396425,,,,
869.4479994,3396,0.347957352,62.16584137,32.2250329,-350.0286652,-1090.773982,128.3546754,0,21.38257719,40.21658666,-81.34973204,-441.2158173,-319.4688033,-60.27106639,110.2468097,-1676.43659,-43.98001456,,,,
869.4559994,3396,0.360881122,17.98066399,44.88657797,-290.2055218,-947.5039876,-4.065273624,0,-54.10516139,46.00252889,141.6841051,519.669233,360.9995596,99.96289039,-43.35141465,-301.6577386,-43.48685024,,,,
869.4639994,3396,0.373746161,-96.74573744,-480.8547036,-784.0830215,-1886.721782,-14.83796815,0,-290.7557101,-46.84859922,-132.7802012,-547.7122997,-284.9974205,-121.8306828,46.8610471,-1581.846869,-42.9944791,,,,
869.4719994,3396,0.38655237,129.4239853,357.5831251,-52.0167551,-566.9799739,121.4181266,0,161.8544186,90.49814801,83.05275099,233.9400291,91.23865104,68.76933885,38.89173924,-1003.928891,-42.50291182,,,,
869.4799994,3396,0.399299651,-97.38297179,-449.4957207,-737.0139916,-1802.389383,-75.86171527,0,-330.0928025,-33.46448082,14.69569845,24.99385358,126.0864765,-14.03099853,-28.34341483,-795.5305076,-42.01215766,,,,
869.4879994,3396,0.41198791,64.54336626,37.18399006,-363.3851166,-1171.268461,118.2236125,0,13.21082134,35.46790848,-76.53391333,-441.3176208,-319.8379464,-62.56772851,109.1288145,-1871.074934,-41.52222531,,,,
869.4959994,3396,0.424617052,27.07044441,67.37726849,-279.6216127,-1000.805428,2.725420503,0,-37.29886233,36.98704716,146.2699072,517.0905694,376.3645556,101.675156,-37.56725653,-478.7161607,-41.03312568,,,,
869.5039994,3396,0.437186986,-82.53594584,-462.9210849,-782.0771802,-1945.076346,-1.471965678,0,-279.4211039,-35.31372156,-112.4573144,-534.5565443,-260.9347284,-111.9249104,65.97404098,-1737.478036,-40.54486583,,,,
869.5119994,3396,0.449697622,130.9969261,375.4419083,-35.73932621,-611.2639627,128.2590236,0,183.2089471,90.61335787,93.59925618,233.914688,107.3784179,68.70419294,52.49170897,-1168.274113,-40.05745546,,,,
869.5199994,3396,0.462148871,-106.5640292,-425.8229453,-705.837722,-1816.281543,-75.21726796,0,-296.1616256,-53.60661272,9.046706198,23.38761503,153.1128986,-25.37258833,-28.98376906,-926.6889107,-39.5709048,,,,
869.5279994,3396,0.474540649,58.38094755,36.92797769,-362.467031,-1214.140779,111.1553043,0,21.39061101,29.37151765,-81.87808281,-443.8557539,-301.4502977,-72.64477804,105.6087657,-1990.903996,-39.08522105,,,,
869.5359994,3396,0.486872869,22.30776411,61.4495854,-284.648972,-1050.774543,-11.6683399,0,-42.33877008,43.5598486,138.7761362,507.0330692,370.9937047,93.11033395,-45.20230445,-634.76805,-38.60041465,,,,
869.5439994,3396,0.49914545,-90.71744923,-468.5674725,-786.5797691,-1992.751372,-15.99576902,0,-287.0151443,-39.24659665,-129.2659481,-545.3845476,-264.5419523,-122.3393332,49.68151785,-1890.168823,-38.1164938,,,,
869.5519994,3396,0.511358311,126.8127174,365.6592235,-49.61337724,-674.116611,122.0099121,0,173.8252058,89.36331486,79.41925585,221.9636803,102.2456997,64.35569145,44.35726357,-1329.724693,-37.63346735,,,,
869.5599994,3396,0.523511373,-111.892819,-420.7704199,-704.7643894,-1863.535561,-77.06232779,0,-293.6310388,-45.49363831,4.207319901,23.21831296,146.0201683,-17.02759793,-24.9834498,-1099.659048,-37.1513434,,,,
869.5679994,3396,0.535604559,49.64458535,50.76140349,-347.0661843,-1250.892458,113.2526576,0,32.79566204,21.07133158,-96.5077295,-449.9059745,-304.1862043,-68.70439269,105.896961,-2148.906291,-36.67013138,,,,
869.5759994,3396,0.547637793,24.53307705,86.84551211,-258.6167455,-1067.236253,0.533329087,0,-19.4147719,33.94183861,127.1320846,505.7693638,375.5980208,97.02252477,-34.63167592,-775.3361165,-36.18984025,,,,
869.5839994,3396,0.559611002,-87.67835482,-439.567296,-757.0574366,-1989.693054,-8.681146683,0,-260.9801039,-37.99278339,-126.1264403,-521.388794,-249.8160506,-109.0717797,69.03547189,-2005.353197,-35.71047786,,,,
869.5919994,3396,0.571524114,127.6038764,393.7210965,-22.89005721,-664.9335565,118.6883665,0,191.5487984,85.87188101,77.76572541,244.9965171,117.0800531,72.49655286,42.81999406,-1429.066566,-35.23205312,,,,
869.5999994,3396,0.58337706,-102.3039776,-388.1303833,-676.7956596,-1834.0982,-79.75463878,0,-276.9702192,-41.43005201,4.96788863,47.02721151,159.8583396,-10.14936234,-33.6066928,-1182.083295,-34.75457442,,,,
869.6079994,3396,0.595169771,48.75551665,71.01699351,-326.1606234,-1213.473079,100.1800958,0,47.01809301,27.02718191,-93.90559808,-430.3922395,-292.3864,-64.48798918,100.301081,-2215.252378,-34.27805012,,,,
869.6159994,3396,0.606902181,11.00126475,103.937655,-248.345694,-1019.63638,-24.05015517,0,-11.1039293,27.74792768,115.5952583,513.8975753,381.3098503,95.16174816,-55.01331583,-824.0653851,-33.80248852,,,,
869.6239994,3396,0.618574225,-94.07868459,-414.4281895,-747.2378131,-1924.320401,-21.24235471,0,-247.8161112,-42.59066503,-140.1047267,-514.6479848,-254.9586182,-107.2613226,54.90665519,-2039.867122,-33.32789825,,,,
869.6319994,3397,0.63018584,122.8245517,425.1980416,0.3626746,-575.2337715,111.4471681,0,217.384587,82.39142791,68.8350098,254.7560379,111.7788953,73.87451479,49.81206148,-1452.283008,-32.85428736,,,,
869.6399994,3397,0.641736966,-110.8310383,-352.6451632,-644.9003032,-1717.165489,-96.0040839,0,-247.5373312,-52.32646218,-10.29361526,68.47556428,165.9577704,-14.45080634,-36.99184291,-1163.820855,-32.38166369,,,,
869.6479994,3397,0.653227543,53.85872192,106.1317141,-293.9703021,-1089.588661,94.7967464,0,75.80189806,24.04410904,-102.0932609,-405.2957285,-292.3955778,-66.95997369,95.19462114,-2179.896149,-31.91003573,,,,
869.6559994,3397,0.664657513,20.92389525,152.3959305,-192.6065029,-862.7383232,-19.53981056,0,34.70430484,31.14347953,125.0548487,545.8116445,388.3456617,98.61710353,-44.48335412,-776.2058883,-31.43941302,,,,
869.6639994,3397,0.676026821,-101.4585174,-371.6782335,-681.2517184,-1747.568954,-33.26358802,0,-199.1129794,-57.57512347,-140.2970655,-493.1825201,-230.7832558,-112.1238972,47.20002599,-1942.913134,-30.96980117,,,,
869.6719994,3397,0.687335413,116.2361829,452.9250726,49.14985308,-412.925403,96.77260699,0,247.4065752,62.89456715,60.00263772,251.5195874,123.1348666,61.27885152,30.24141864,-1346.791654,-30.50120841,,,,
869.6799994,3397,0.698583237,-109.8422272,-307.9145905,-579.2482259,-1526.424128,-94.14569776,0,-205.9716759,-55.52536646,-4.198896741,84.54757823,176.4442288,-14.24921674,-38.34205688,-1054.800184,-30.03364451,,,,
869.6879994,3397,0.709770241,45.68893497,151.4261055,-213.3650647,-879.9883182,90.88167054,0,121.6523292,15.31045311,-97.73452356,-380.8719799,-264.5496708,-67.62815085,88.01330862,-2029.768786,-29.56711518,,,,
869.6959994,3397,0.720896377,17.67105938,177.7767959,-140.8981989,-677.6460066,-31.93926848,0,48.60618245,20.81325423,123.6402183,558.838078,408.9058551,88.12224391,-56.89177158,-621.0124004,-29.10162922,,,,
869.7039994,3397,0.731961598,-90.40787657,-346.8721422,-643.1640201,-1572.09406,-33.1521727,0,-193.2507335,-41.29207335,-125.5700418,-464.6071367,-224.6450828,-109.0879294,60.96534257,-1819.562358,-28.63719508,,,,
869.7119994,3397,0.742965859,124.9270849,490.4480576,107.0747145,-214.3121285,102.1510711,0,271.8030293,82.12699467,73.85783693,283.4116803,136.1464621,70.09779605,44.55499488,-1216.905041,-28.17381851,,,,
869.7199994,3397,0.753909116,-109.4451051,-279.3089085,-535.5358614,-1332.231876,-94.29594261,0,-192.8838372,-54.59009337,-9.546179173,102.5559099,195.4894433,-12.69624472,-35.68087227,-894.2849049,-27.71150844,,,,
869.7279994,3397,0.764791326,42.77219031,171.0670626,-188.0174447,-702.9035515,95.62766253,0,127.5961673,13.83236645,-109.9392796,-374.4500212,-263.1641351,-64.44049769,103.3936322,-1891.036148,-27.25027392,,,,
869.7359994,3397,0.77561245,13.03193106,220.0124845,-86.50576041,-461.5518881,-20.41437683,0,83.36566884,9.115464932,105.725572,565.8903155,409.6953229,90.81620161,-48.86882179,-474.7656077,-26.79012076,,,,
869.7439994,3397,0.786372449,-96.17980508,-307.2413706,-587.5704349,-1346.40749,-26.98975331,0,-157.5613373,-67.92803481,-151.0836359,-454.7944633,-208.0624837,-108.8107477,54.46621131,-1616.438502,-26.33105505,,,,
869.7519994,3397,0.797071286,125.8034336,512.9449979,138.8827604,-12.17352331,102.8584404,0,288.1195577,67.33757907,55.61259953,287.7128736,137.4347966,71.93476284,42.28917539,-1026.070689,-25.87308573,,,,
869.7599994,3397,0.807708926,-95.78987596,-245.6707594,-498.3319896,-1112.189592,-95.43877764,0,-172.2017197,-54.2446391,-11.21949763,114.3635816,187.2447996,-8.030104928,-44.90871014,-718.808344,-25.41622082,,,,
869.7679994,3397,0.818285335,60.5385438,224.1288766,-126.6732087,-445.0108695,86.9197055,0,167.9931153,15.05098298,-100.0063938,-352.3465014,-249.7058897,-51.51646857,81.2878503,-1676.062111,-24.96046631,,,,
869.7759994,3397,0.828800482,27.90551383,280.4547032,-18.40201873,-180.2685517,-41.24068837,0,122.1156147,11.78962867,116.1342747,591.9358033,433.0469392,109.4555089,-85.75031515,-223.6805484,-24.50583134,,,,
869.7839994,3397,0.839254336,-79.40857678,-247.4571776,-524.1480112,-1057.025574,-44.98620495,0,-128.4150315,-60.82409015,-141.7503329,-431.7879093,-196.1044562,-94.70866811,9.93474958,-1352.629336,-24.05232163,,,,
869.7919994,3397,0.84964687,147.9436947,593.0692244,232.0052607,317.2789256,100.5297485,0,339.4307998,77.06183708,76.52967891,319.8966209,161.2329672,89.68604792,12.49617147,-730.4662362,-23.5999439,,,,
869.7999994,3397,0.859978054,-82.79012168,-158.0815754,-382.7972726,-750.9330907,-96.83557841,0,-112.7376868,-57.77851218,10.40418032,157.0020514,234.5039475,7.213076776,-76.85542825,-359.9985363,-23.14870605,,,,
869.8079994,3397,0.870247866,66.5670828,287.0209603,-29.48766626,-104.1629578,89.67205089,0,207.23319,2.829817231,-86.236715,-332.953267,-216.7834487,-55.53477284,48.17261502,-1304.993172,-22.69861327,,,,
869.8159994,3397,0.880456281,40.31762895,331.1549192,61.16623762,145.7545568,-28.59444971,0,148.4529154,20.56418718,141.1775126,612.1717507,451.4305929,107.8737606,-88.38941639,130.3612115,-22.2496759,,,,
869.8239994,3397,0.890603277,-84.30718167,-201.3733787,-435.9777675,-724.7290356,-40.61931638,0,-97.00462976,-54.83379092,-121.8262264,-404.540055,-174.4181134,-93.1191293,5.206269924,-997.1559444,-21.80189945,,,,
869.8319994,3397,0.900688834,129.400617,621.3782666,318.4128967,642.8706465,96.34288631,0,366.2311991,58.94915582,76.55129833,321.5221023,175.7773408,76.56985546,-16.121749,-376.0456906,-21.35528843,,,,
869.8399994,3397,0.910712933,-90.48638139,-157.6945792,-336.9862597,-471.3871934,-99.23545592,0,-119.7431611,-58.65356886,15.74931294,153.7205207,229.7355669,-1.727012687,-83.14904144,-32.21997503,-20.90985204,,,,
869.8479994,3397,0.920675558,65.17114507,282.3477039,11.93269582,151.5168972,97.22724193,0,201.3211549,13.39150161,-73.85838943,-333.7654508,-232.1490079,-57.26959533,63.73931588,-1021.119301,-20.46559702,,,,
869.8559994,3397,0.930576692,41.68403471,332.5507273,125.8563661,406.2179757,-18.83720821,0,165.1081209,7.003601905,155.9571458,608.5033013,456.3799923,98.0756142,-86.01334046,423.6022632,-20.0225301,,,,
869.8639994,3397,0.940416322,-82.3026483,-221.5759231,-392.4958067,-509.6063594,-45.08382859,0,-96.52101587,-70.70810155,-101.7059031,-415.8402667,-169.6574171,-108.3623034,8.655503993,-711.2259418,-19.58065712,,,,
869.8719994,3397,0.950194436,130.7126827,593.844605,352.7142816,821.7000404,84.96162341,0,361.285956,52.09493199,92.03658314,301.9287934,165.7419269,61.29772582,-8.547474837,-136.3793509,-19.13998416,,,,
869.8799994,3397,0.959911023,-90.7456359,-190.4001929,-305.4862161,-324.2248826,-114.8771288,0,-124.6266213,-70.61718999,20.33198695,132.186321,225.7347308,-16.68684023,-90.26012568,189.0723139,-18.70051853,,,,
869.8879994,3398,0.969566074,68.32357193,218.9404534,-5.013154328,213.6777578,79.27286144,0,157.4329414,16.4678,-76.02587407,-365.3108353,-259.0834552,-65.25199769,65.62286197,-870.3959174,-18.26226693,,,,
869.8959994,3398,0.979159582,55.37960838,263.0770832,81.72216132,408.4943094,-19.62653163,0,101.1232109,36.44749178,157.3004916,586.3120452,407.6862403,101.4586893,-60.39523768,483.514894,-17.82523564,,,,
869.9039994,3398,0.988691541,-65.73321928,-284.8177831,-435.7434596,-540.9318995,-24.9314283,0,-149.4232531,-39.40309678,-94.96091502,-430.79649,-213.9143392,-104.356359,36.45846589,-702.3071801,-17.38942991,,,,
869.9119994,3398,0.998161946,144.0432776,528.6231672,301.6814008,753.3881269,112.5392814,0,308.3786766,79.174876,107.5615054,283.2743231,126.7066301,69.79739048,22.08373019,-169.0700321,-16.95485695,,,,
869.9199994,3398,1.007570795,-90.31523508,-252.7416617,-349.6812118,-410.4219339,-92.95964674,0,-170.8479186,-51.89547775,36.19393201,113.3661308,199.343762,-3.689168951,-62.57906539,132.9012692,-16.52152393,,,,
869.9279994,3398,1.016918086,56.98714037,167.1222254,-28.95317494,131.1430473,92.44630358,0,132.7763429,17.64267413,-75.99344109,-402.0721624,-283.7461388,-65.41477715,68.53072987,-943.4853153,-16.08943533,,,,
869.9359994,3398,1.026203821,47.24507855,226.2292174,73.83059114,339.9565096,-14.6238628,0,87.95259967,36.80256378,157.6267375,554.8435711,391.0878722,101.0702776,-68.07634806,417.8939085,-15.65859779,,,,
869.9439994,3398,1.035428001,-74.46218306,-320.5294281,-443.6654625,-615.0727563,-30.92454092,0,-168.3010962,-34.97988629,-91.21963641,-447.3874002,-214.8587785,-93.34908083,33.7025832,-758.1568654,-15.22901867,,,,
869.9519994,3398,1.044590629,133.1428119,511.758952,311.816697,701.0083903,106.1015407,0,304.9347,74.24139252,102.5478179,266.0889956,124.6760155,74.72209898,12.29919459,-226.36817,-14.80070181,,,,
869.9599994,3398,1.05369171,-94.12367245,-249.540925,-320.9934537,-436.1658138,-89.38420458,0,-155.0813573,-56.86061049,34.46317975,107.9545892,201.4783814,-3.776441558,-70.0328598,103.1304234,-14.37365432,,,,
869.9679994,3398,1.062731252,53.76250686,162.0523175,-8.635822361,96.29972424,100.4888985,0,143.7802646,21.00014154,-72.3293061,-404.2076385,-275.3716062,-59.19002525,82.09979426,-960.5697282,-13.9478836,,,,
869.9759994,3398,1.071709263,34.97723838,221.2692726,104.142323,314.0333353,-12.28648093,0,102.738565,24.94906933,150.8177663,544.5287183,398.062228,98.57572222,-58.66334818,401.7671324,-13.52339174,,,,
869.9839994,3398,1.080625751,-83.95234651,-339.1583127,-429.8522695,-664.6664187,-31.83960074,0,-169.6250903,-56.13412048,-112.7130834,-471.8239924,-224.068516,-110.8373658,31.7301982,-786.1797859,-13.10018802,,,,
869.9919994,3398,1.089480728,138.1795575,477.6190198,291.1116803,614.9528958,113.9719375,0,278.2779381,76.73422421,85.14667838,243.5179666,101.1141077,66.45796344,29.72086802,-296.0099416,-12.67827793,,,,
869.9999994,3398,1.098274206,-85.19441245,-283.1834253,-346.332604,-528.2805379,-81.76924208,0,-188.1688256,-50.60521955,28.03118093,101.2209615,185.3336971,-3.674429981,-49.90712223,16.15994664,-12.25766431,,,,
870.0079994,3398,1.107006201,62.42915355,120.6124729,-50.60673011,-16.31218074,98.7438523,0,92.76205831,18.46355527,-78.12791723,-414.2276234,-296.0035545,-65.1595358,88.17139028,-1063.743145,-11.83835515,,,,
870.0159994,3398,1.115676727,49.39043571,189.5387643,57.24911795,201.1194944,-6.737253582,0,51.76370016,41.7446656,153.8804411,543.3956523,368.5222268,101.9074464,-43.24199673,272.1684919,-11.42035504,,,,
870.0239994,3398,1.124285802,-73.65872965,-351.8764541,-444.6154419,-748.4956982,-21.48531644,0,-193.0133685,-40.97003416,-99.14585023,-463.7301154,-230.1177657,-99.18362607,44.03562479,-894.0579607,-11.0036709,,,,
870.0319994,3398,1.132833444,141.671067,457.0647318,283.8128698,529.7621758,110.3561134,0,253.198148,75.10114571,98.01112749,243.0042564,113.9860751,70.72280885,25.81137151,-372.7440365,-10.58830705,,,,
870.0399994,3398,1.141319673,-82.05554329,-316.8333155,-365.8874269,-641.3860104,-88.53333726,0,-221.7690502,-43.14887487,37.30622285,95.61839435,183.8572035,-2.316968999,-49.2599695,-85.52927339,-10.17426869,,,,
870.0479994,3398,1.149744511,60.95537905,90.33126968,-58.60847581,-134.3701741,96.97045873,0,77.08862651,22.03114088,-75.10712494,-429.0993536,-300.4328225,-64.40905488,88.45761949,-1187.381254,-9.761562118,,,,
870.0559994,3398,1.158107981,43.19211382,147.261614,36.39566521,61.24585919,-15.19269908,0,29.00887675,35.10290857,152.8050143,519.5727882,368.0602162,96.88631937,-52.07311316,147.7130999,-9.350191537,,,,
870.0639994,3398,1.166410108,-83.00474593,-409.4642259,-482.3015335,-920.85831,-31.23092806,0,-223.0483731,-43.56873536,-101.9027464,-497.3005755,-243.5983806,-112.3734565,35.86298294,-1052.569595,-8.940163781,,,,
870.0719994,3398,1.174650917,127.2292418,406.3549041,253.7928464,357.1643188,106.273973,0,234.3348372,74.45840003,91.78577465,205.3125784,95.98308343,51.12660216,19.50615157,-558.5755335,-8.531482873,,,,
870.0799994,3398,1.182830436,-95.91522585,-367.3039058,-408.389725,-832.6059824,-90.99731395,0,-250.557677,-39.85967545,29.9613895,62.31219913,163.9980219,-23.79897842,-50.09701469,-289.0650743,-8.124152902,,,,
870.0879994,3398,1.190948693,48.41102993,47.6366035,-89.44033733,-324.1646057,95.73714507,0,55.71726859,21.82882955,-78.75983915,-460.3107503,-316.0773093,-82.58873338,85.49389988,-1405.730488,-7.718180928,,,,
870.0959994,3398,1.19900572,30.8684396,109.8138415,14.01879083,-118.8261141,-19.00425337,0,8.061708838,28.67561494,151.4553488,494.979011,360.0270676,83.54692677,-63.21889662,-59.2130429,-7.313571634,,,,
870.1039994,3398,1.207001547,-89.25751778,-456.412647,-534.3993708,-1129.312515,-36.48344228,0,-267.1959145,-43.16070605,-105.9310562,-516.9914016,-268.212083,-120.6925241,36.92278168,-1280.905553,-6.910329207,,,,
870.1119994,3398,1.214936208,125.2338277,378.8769945,214.7447185,171.0741086,106.9175992,0,206.2580645,76.44241746,89.31921412,201.5588567,71.99865366,52.35963625,24.02470049,-792.2392889,-6.508459349,,,,
870.1199994,3398,1.222809738,-92.28677471,-387.4731883,-446.2547422,-1001.431073,-86.4222658,0,-274.2612187,-38.55076047,32.9741943,71.39174958,153.4654297,-18.67584966,-50.5716006,-489.1451976,-6.107966609,,,,
870.1279994,3398,1.230622171,59.33049108,26.85374488,-144.6196115,-498.0421133,106.3985334,0,27.05614637,36.19000182,-72.18336254,-452.4970722,-334.397993,-81.66519679,104.5100817,-1619.230489,-5.708855629,,,,
870.1359994,3398,1.238373547,39.88193554,121.2004771,0.415364824,-237.57798,2.313892213,0,19.28130705,45.37663742,159.5395366,522.0555062,362.4471243,86.60772091,-36.1121052,-250.4583243,-5.31113159,,,,
870.1439994,3399,1.246063902,-77.7308267,-447.4832377,-547.4249771,-1241.633789,-16.47026361,0,-255.7772035,-30.87985581,-98.46024777,-490.7099003,-248.8161471,-113.1771046,61.31602643,-1433.22683,-4.914798415,,,,
870.1519994,3399,1.253693279,139.4464307,376.356131,179.8977352,39.07336149,117.9988775,0,197.7679517,89.15175503,95.83841773,210.2532351,74.75711269,58.0555818,54.25022298,-966.586158,-4.519861482,,,,
870.1599994,3399,1.261261717,-85.768678,-381.0999368,-460.5446267,-1113.102667,-81.16352486,0,-270.847128,-37.20740301,33.99151719,85.98353401,158.948186,-13.54442945,-26.57438606,-657.0494926,-4.126325786,,,,
870.1679994,3399,1.26876926,64.29421363,30.50842262,-156.727281,-605.9715737,111.1334757,0,29.96958857,34.28054948,-78.18575633,-438.8838019,-327.7040057,-72.14434569,119.4802427,-1769.973412,-3.734194668,,,,
870.1759994,3399,1.276215953,40.80086991,133.0993032,-2.695896018,-329.3678893,7.503532212,0,27.30166621,44.35329642,155.8514756,536.8819615,368.33282,96.89532981,-31.59384892,-389.599118,-3.343473617,,,,
870.1839994,3399,1.28360184,-84.37145982,-432.293215,-538.4396146,-1314.932985,-13.33587928,0,-239.9086928,-42.27506533,-101.6966323,-480.7573011,-237.9259697,-107.4377227,54.55934417,-1547.547363,-2.95416666,,,,
870.1919994,3399,1.29092697,136.3546975,391.7889346,195.0138089,-12.65232094,122.9076141,0,217.9222143,79.51786243,90.3707849,211.8477347,83.91105587,63.62094644,46.07539883,-1060.718982,-2.566278058,,,,
870.1999994,3399,1.29819139,-90.96600518,-370.10757,-439.2147844,-1150.739215,-79.91790565,0,-247.7726359,-37.9340681,32.77313721,91.09872514,171.2408825,-8.433911569,-36.79890308,-731.0071478,-2.179812081,,,,
870.2079994,3399,1.30539515,58.40040855,32.38200568,-139.1016671,-647.5751798,111.4050804,0,49.25504118,33.37769348,-76.5936832,-444.8619935,-321.0485799,-73.1218311,108.4960584,-1844.242364,-1.794773701,,,,
870.2159994,3399,1.3125383,37.64355835,137.4064317,24.3981082,-359.7965306,9.732646904,0,48.61864783,39.16752504,159.2324384,532.1350048,381.858016,95.28130618,-39.66596608,-446.2639279,-1.411167445,,,,
870.2239994,3399,1.319620895,-95.31818227,-447.8920009,-528.27642,-1372.324213,-17.74139048,0,-236.0903956,-48.44429634,-105.233686,-486.1996547,-224.1517719,-111.2181736,50.78146302,-1603.653879,-1.028996479,,,,
870.2319994,3399,1.326642986,127.3867834,372.8484907,186.7759526,-87.95738355,122.6866698,0,213.391109,83.7978998,80.0818339,200.4643806,71.69065678,59.67411304,55.80759882,-1163.53118,-0.648264881,,,,
870.2399994,3399,1.33360463,-98.86563021,-367.6097658,-417.748745,-1191.71394,-79.43356741,0,-228.291253,-37.24992267,25.53200604,95.5043857,175.076428,-6.521622806,-31.71619736,-808.654211,-0.268976487,,,,
870.2479994,3399,1.340505882,46.33382528,16.73983805,-134.9699237,-709.2047997,94.64346624,0,46.86067706,24.09814327,-93.14764982,-448.612828,-313.4997208,-74.45261812,100.5098626,-1900.09566,0.108863146,,,,
870.2559994,3399,1.3473468,35.69190131,104.2077695,-19.31824909,-461.8041367,-8.644659346,0,7.41807327,50.22148298,135.921205,519.5475207,342.736542,96.1500565,-32.27822744,-568.0829003,0.485249901,,,,
870.2639994,3399,1.354127443,-91.19237355,-462.2042107,-540.2523803,-1440.035514,-24.23373833,0,-247.6271551,-33.91446909,-123.0421304,-485.1878438,-256.2053385,-106.8894454,56.62494564,-1730.194447,0.860182186,,,,
870.2719994,3399,1.360847871,132.3729635,361.4033698,193.8538913,-138.9806008,115.4146014,0,216.6836501,83.14960444,61.66507625,202.9091182,71.16877582,55.09838661,44.63250697,-1243.134985,1.233655017,,,,
870.2799994,3399,1.367508147,-89.50537145,-394.5361452,-451.9598673,-1282.365916,-81.85809819,0,-253.0802014,-31.21972123,6.831056411,93.24104156,159.9752255,-13.86797734,-31.20000857,-911.0849719,1.605662562,,,,
870.2879994,3399,1.374108332,50.68034068,-0.791606204,-164.9927485,-791.0065508,105.6712433,0,36.32665435,31.39330654,-105.8720266,-450.9644495,-333.4671992,-76.36263283,115.3733571,-2031.856018,1.976203933,,,,
870.2959994,3399,1.380648491,30.2792808,96.22062384,-31.85202011,-522.7450907,-1.800110298,0,16.2575164,42.80324735,125.4702569,516.0937617,338.853885,93.57568777,-24.14968763,-676.8951092,2.34527491,,,,
870.3039994,3399,1.387128688,-103.2660863,-473.1604799,-560.7158733,-1512.710685,-23.48331449,0,-242.4171346,-48.78283584,-133.7996142,-500.2585891,-267.8476535,-114.2616767,57.75102691,-1837.739961,2.71287059,,,,
870.3119994,3399,1.393548992,118.657797,359.6827119,184.8181812,-194.1044046,117.6240951,0,227.2809121,68.86831098,56.74154455,188.4930648,54.87844779,50.14366793,45.9080143,-1350.274353,3.078988426,,,,
870.3199994,3399,1.399909469,-103.1997561,-396.153871,-453.4555161,-1330.640172,-88.43425335,0,-244.0521436,-45.2242374,2.116722544,86.95235508,149.8348349,-14.85950324,-33.58376861,-994.7076058,3.443623773,,,,
870.3279994,3399,1.406210189,41.18293392,-0.199809038,-156.2855626,-838.1953296,97.21396053,0,52.67802364,19.56823425,-114.3886956,-463.434763,-343.4298651,-79.55904884,107.7722559,-2119.012068,3.806773653,,,,
870.3359994,3399,1.412451222,33.74469431,102.3169093,-13.04454644,-555.9338917,-2.005302352,0,37.31132413,30.72669605,126.8435823,513.6161898,351.1150335,88.07437744,-31.48295239,-743.2874839,4.168435563,,,,
870.3439994,3399,1.418632639,-91.78805335,-481.5145488,-565.4294676,-1572.907414,-22.21538149,0,-242.830323,-50.71564014,-124.3953038,-495.1413382,-249.3476386,-117.0034455,67.05646239,-1902.83849,4.528604732,,,,
870.3519994,3399,1.424754514,127.7491138,355.9477462,177.3773724,-260.122502,121.959681,0,230.0825833,81.89125719,63.25733437,189.43989,59.20407237,53.14450544,64.52043031,-1455.022874,4.887277835,,,,
870.3599994,3399,1.430816921,-94.20771854,-391.8890808,-449.2940494,-1381.423134,-81.99552675,0,-227.9847228,-37.37641947,10.17238462,91.08964184,164.0212603,-12.2706808,-24.94175742,-1092.067525,5.244453257,,,,
870.3679994,3399,1.436819934,55.16887311,0.864097373,-153.3131721,-891.8892661,102.1440473,0,66.49776646,28.14451863,-101.2656905,-461.1397146,-328.6417796,-76.78624749,119.0358446,-2212.094456,5.600125406,,,,
870.3759994,3399,1.442763631,39.37477023,113.8799484,8.263208201,-590.2494938,-5.348197796,0,59.10480766,42.86437179,133.0526652,523.1753178,366.267246,93.20598579,-29.43469285,-830.4002336,5.954292041,,,,
870.3839994,3399,1.448648088,-95.21203489,-475.0144683,-545.794219,-1608.077265,-37.7273061,0,-226.4107588,-52.21951301,-131.8589637,-491.4285947,-234.6846971,-121.1412101,49.60753308,-1978.095448,6.306951615,,,,
870.3919994,3399,1.454473385,133.5476624,355.1362352,178.8638754,-312.6392355,107.3852196,0,227.1591885,76.52561979,59.56340445,182.6119208,59.38945282,46.77229176,56.65024076,-1545.147087,6.658098141,,,,
870.3999994,3400,1.460239603,-96.30121336,-399.0077732,-456.1466488,-1443.296073,-100.195883,0,-246.8815493,-46.78406196,6.014440794,91.72996515,159.5787816,-17.06333697,-29.71452752,-1184.78828,7.007729768,,,,
870.4079994,3400,1.465946821,43.40151207,-20.0492263,-183.5247728,-975.670304,84.58721172,0,33.70977015,12.13574279,-118.9422964,-471.494536,-354.4359085,-91.53478387,111.118577,-2331.775226,7.355844178,,,,
870.4159994,3400,1.471595123,45.32293868,103.0479137,-25.54618894,-672.8523822,-5.887412587,0,30.61540657,39.72821874,123.9055226,518.6972146,332.8862479,85.41325998,-24.13633227,-968.7129865,7.702437512,,,,
870.4239994,3400,1.477184592,-87.82617155,-477.8353817,-562.4800143,-1678.76482,-39.32990016,0,-243.5189463,-45.96922393,-132.1570066,-480.7339718,-249.4718251,-114.3140325,56.42173044,-2104.021576,8.047507337,,,,
870.4319994,3400,1.482715313,132.620462,354.9867912,170.8756636,-370.7278191,101.2869548,0,221.2563322,75.84467563,49.95893168,184.374413,49.66229385,49.05537701,54.493635,-1666.66185,8.391050339,,,,
870.4399994,3400,1.488187372,-85.86180735,-389.8343383,-458.2016102,-1487.85178,-94.83287624,0,-240.6526465,-46.31380277,1.737569487,94.8278971,164.9092466,-14.59003938,-27.76235489,-1285.70185,8.73306434,,,,
870.4479994,3400,1.493600856,56.59839385,-11.0734299,-180.9694588,-1015.577049,88.79134837,0,45.0513221,17.79073897,-112.6904092,-468.9519976,-334.2592266,-79.71836382,118.4740707,-2421.139705,9.073547331,,,,
870.4559994,3400,1.498955853,43.35610688,104.6476678,-22.65533643,-705.8700104,-16.54194598,0,36.93634884,31.53548751,123.800646,512.5053516,347.3537072,90.33186288,-27.62013695,-1053.701548,9.412494547,,,,
870.4639994,3400,1.504252452,-92.52336657,-489.2279594,-570.7224665,-1720.624589,-49.79071698,0,-247.8217799,-59.4616245,-138.2567015,-493.3114483,-246.3278576,-117.40805,50.76591111,-2184.77173,9.749903744,,,,
870.4719994,3400,1.509490744,128.61536,340.8787716,165.4320288,-406.1169708,93.90570255,0,222.3336816,69.47487801,46.08938615,173.3699979,52.15011221,50.88519258,50.17807548,-1741.390329,10.08577388,,,,
870.4799994,3400,1.514670821,-101.9385942,-401.12903,-445.4064761,-1503.649542,-111.1086681,0,-233.8816052,-63.1391611,-4.860326016,84.50707648,168.0687656,-19.61167478,-47.29480486,-1341.079529,10.42010203,,,,
870.4879994,3400,1.519792775,44.48650857,-20.17080989,-163.5244117,-1031.02054,76.90691213,0,46.48979226,0.056540538,-122.9481151,-484.6833553,-338.9015467,-94.70535946,99.0670955,-2469.32616,10.75288417,,,,
870.4959994,3400,1.5248567,40.40407824,98.5016593,-22.19038509,-731.6812555,-20.18973095,0,30.4389622,36.83483344,120.2818929,509.1109987,340.144805,82.00636878,-28.11611429,-1105.357436,11.08411862,,,,
870.5039994,3400,1.529862692,-102.0782041,-490.1587732,-579.4441094,-1752.62778,-52.562855,0,-256.7503695,-54.72973194,-139.1388725,-492.8652527,-258.226049,-126.104022,53.98480583,-2251.989501,11.41380316,,,,
870.5119994,3400,1.534810845,127.4249827,357.3464341,170.5699781,-422.1474935,97.99481386,0,222.9470101,60.1057642,47.3157581,176.086224,45.67109435,40.8556922,50.22773718,-1811.010009,11.74193462,,,,
870.5199994,3400,1.539701257,-87.43416002,-388.4462373,-457.1867019,-1532.072409,-103.4750709,0,-242.9250761,-55.57350234,7.677674866,105.1716945,173.9037843,-15.08751317,-34.64627023,-1408.962418,12.06851257,,,,
870.5279994,3400,1.544534027,57.14489068,-6.464183551,-175.8712511,-1058.019953,84.84568825,0,44.88231389,15.50762137,-105.6596984,-462.0541176,-330.7434134,-81.25302402,115.7701939,-2556.747607,12.39353315,,,,
870.5359994,3400,1.549309253,54.2321885,133.7242322,7.580870999,-710.1568361,-13.79094526,0,64.79847979,24.76901413,137.1671549,529.7011735,371.8819948,91.90959068,-37.24419484,-1156.670144,12.71699353,,,,
870.5439994,3400,1.554027037,-78.5081496,-469.423544,-559.9572016,-1738.493894,-51.96586729,0,-228.1664432,-72.74666305,-120.8290612,-480.2593434,-213.0077666,-119.6120336,33.20592951,-2264.36425,13.03889336,,,,
870.5519994,3400,1.558687479,150.3136412,362.0114812,157.2660612,-436.7245931,96.53195538,0,229.0343327,73.89235147,66.59977504,181.9967986,63.67973675,54.60164066,54.30900129,-1863.254557,13.35923,,,,
870.5599994,3400,1.563290681,-74.94452909,-381.6579399,-479.4697387,-1552.79167,-108.8949562,0,-244.4335257,-36.62212865,16.61593383,113.9962688,174.2844861,3.385654172,-28.71476248,-1487.63077,13.67799973,,,,
870.5679994,3400,1.567836748,59.11162065,-0.020391869,-198.0623331,-1078.878351,75.95531877,0,40.2948241,13.71935021,-116.3282604,-463.9522813,-332.0328364,-70.05597599,95.38174667,-2627.362629,13.9952027,,,,
870.5759994,3400,1.572325785,53.91869298,144.3965012,-12.75509022,-725.5131431,-17.28282776,0,57.02831359,30.94971453,124.3904486,531.4545101,369.0938986,104.6574205,-51.09519238,-1223.578348,14.31083643,,,,
870.5839994,3400,1.576757895,-77.75498773,-457.2321795,-582.2709356,-1757.999366,-49.34165072,0,-240.5566724,-53.67088116,-125.6421974,-469.9813569,-220.4668925,-103.1160698,41.90802406,-2345.710408,14.6248973,,,,
870.5919994,3400,1.581133187,146.1414724,388.840088,167.9671744,-422.0052927,102.2700714,0,238.3928295,70.67384199,65.98869459,185.2795435,71.19883914,59.13446011,44.31750616,-1927.250525,14.93738572,,,,
870.5999994,3400,1.585451768,-79.46816128,-346.5669193,-440.1808163,-1504.97827,-102.549714,0,-215.7155276,-57.93619897,32.37196458,116.8283059,212.991197,-1.652522671,-56.9091129,-1489.102649,15.24829882,,,,
870.6079994,3400,1.589713747,59.46425218,20.69304052,-175.2247384,-1046.506911,76.17271136,0,55.45238411,5.280928806,-86.57066461,-464.8142995,-301.7935483,-74.89241062,87.00955386,-2627.896384,15.55763372,,,,
870.6159994,3400,1.593919232,50.78072769,163.435553,16.75764547,-682.6577171,-27.38686045,0,71.77141889,19.5958157,146.3201332,527.714802,385.8793032,92.37191685,-62.65784329,-1236.474935,15.86539059,,,,
870.6239994,3400,1.598068336,-89.15541914,-441.5239183,-537.9624989,-1701.198862,-64.10459124,0,-216.7232682,-77.90880699,-113.2294793,-474.8772329,-194.026249,-124.9599584,11.43365932,-2329.899393,16.17156651,,,,
870.6319994,3400,1.60216117,139.211158,392.7207425,194.8343369,-382.1039388,91.44207952,0,251.9002519,55.79895987,74.0343048,182.0248636,89.22157269,41.47857748,25.02777072,-1908.133819,16.47616008,,,,
870.6399994,3400,1.606197845,-82.49059906,-347.3091103,-419.0397753,-1472.171527,-111.0395958,0,-208.0880317,-63.89444263,32.75009334,121.330983,215.1277599,-13.02617871,-65.01418746,-1487.815977,16.77917079,,,,
870.6479994,3400,1.610178477,51.98458268,13.70926003,-152.3017283,-1017.905381,68.77516459,0,62.2416306,1.907381796,-89.41120262,-466.4961707,-304.2682752,-84.57946379,79.04003138,-2639.936533,17.08059447,,,,
870.6559994,3401,1.614103179,47.5240611,149.6684922,19.43843916,-678.3832481,-24.9690868,0,64.26466949,25.25077513,149.3091887,522.1923719,378.5930416,93.32488706,-61.00445299,-1258.986706,17.3804321,,,,
870.6639994,3401,1.617972068,-93.38174564,-458.9106072,-546.5665914,-1718.177094,-57.98459029,0,-234.4847913,-71.68379729,-108.8775041,-484.3307581,-208.7144382,-117.2989003,16.29950969,-2373.108184,17.67868143,,,,
870.6719994,3401,1.62178526,127.8799151,374.3680162,187.251991,-402.5591952,86.95602625,0,229.6050302,57.88963978,75.4252807,163.716795,73.00830082,42.91486702,20.83685,-1966.732004,17.97533933,,,,
870.6799994,3401,1.625542872,-94.70339185,-367.4294466,-434.3020412,-1505.168709,-121.991198,0,-238.4505154,-56.97596987,34.59809514,106.1071691,197.5553816,-14.01229319,-70.27379084,-1554.676561,18.27040707,,,,
870.6879994,3401,1.629245022,38.96624085,-8.950325429,-173.4703141,-1064.932503,58.0660762,0,27.54420336,3.635648107,-92.55672414,-480.3799792,-327.7891691,-88.02494585,74.55074179,-2724.531927,18.56388312,,,,
870.6959994,3401,1.632891831,36.86628887,125.7167384,-5.903078288,-727.7747597,-37.20773002,0,25.86726912,21.42806678,143.9598952,511.6806162,349.3100578,85.35938702,-63.97900368,-1356.89438,18.85576481,,,,
870.7039994,3401,1.636483419,-101.147886,-485.8955864,-578.1704387,-1775.408997,-69.39725522,0,-272.388374,-71.3164674,-108.6567226,-491.2753873,-244.1061079,-124.4433955,17.75812305,-2483.859556,19.14605069,,,,
870.7119994,3401,1.640019907,124.6877027,351.5734976,153.6220481,-463.208408,85.81373226,0,200.3175929,67.20451903,79.47276715,158.9372991,34.21955669,42.19964061,26.44601728,-2091.686987,19.43474041,,,,
870.7199994,3401,1.643501417,-89.95463022,-378.2698843,-461.2431857,-1557.84635,-110.4671213,0,-252.0082223,-42.98109388,36.60712288,108.3410339,167.2901304,-11.00102409,-64.3174537,-1675.977024,19.72183269,,,,
870.7279994,3401,1.646928073,49.61266793,-8.196572092,-185.3529475,-1105.52294,75.52711732,0,33.68649055,14.96057047,-90.40661242,-474.6324264,-340.4507727,-84.18317747,77.80610504,-2828.740892,20.00732655,,,,
870.7359994,3401,1.650299998,47.1724787,133.8462708,-3.974617415,-757.1282628,-21.48419795,0,44.38922893,41.98669743,154.1587723,525.1459422,349.2808631,97.8133843,-55.11667839,-1449.313725,20.29122013,,,,
870.7439994,3401,1.653617317,-94.39406488,-484.2296805,-576.0039345,-1811.046175,-62.56088546,0,-254.6141349,-58.81221905,-106.914257,-485.8937439,-239.1088935,-114.5411578,18.72751624,-2568.193701,20.57351252,,,,
870.7519994,3401,1.656880157,130.7169097,347.1692893,156.5551199,-502.2896699,85.37740193,0,212.6805619,59.35548736,70.07600707,149.2537104,37.9592976,39.96400819,16.73824439,-2175.227631,20.85420412,,,,
870.7599994,3401,1.660088643,-87.03671964,-392.7266342,-470.3296557,-1606.879295,-116.4106893,0,-257.5238836,-48.0779991,34.6233423,99.45587208,161.80781,-15.88410322,-63.89929794,-1770.084724,21.1332933,,,,
870.7679994,3401,1.663242905,47.75646877,-38.01138249,-222.34509,-1177.905456,66.17574691,0,5.198006147,9.425815628,-94.98628618,-493.7019779,-362.9313187,-93.55086741,81.39929356,-2945.984654,21.41077788,,,,
870.7759994,3401,1.666343069,42.44979011,114.8016467,-33.39820953,-815.4021918,-23.87562397,0,22.09980533,30.86848851,142.2511048,508.6973931,327.8223729,86.55299999,-59.83124428,-1568.874041,21.68665748,,,,
870.7839994,3401,1.669389266,-100.0085836,-492.8281677,-594.5796381,-1859.289624,-57.39459119,0,-270.7412488,-54.43980704,-115.5761815,-487.1825943,-253.9276328,-118.0119679,20.45307989,-2681.610122,21.96093298,,,,
870.7919994,3401,1.672381626,126.4884186,339.4122066,131.6596335,-552.5837996,90.33955557,0,191.6810764,73.63190017,62.36925177,151.2396573,18.54772998,42.98176558,27.96500683,-2296.068927,22.23360349,,,,
870.7999994,3401,1.67532028,-88.35034007,-392.45186,-485.5776934,-1639.514292,-111.6552216,0,-266.2017433,-41.04650105,28.17137915,111.3396132,156.8333219,-6.589781557,-58.0113677,-1865.150079,22.5046659,,,,
870.8079994,3401,1.67820536,53.60324959,-32.05299437,-222.7824923,-1199.570452,74.35909702,0,13.26637447,23.99313929,-93.94195545,-482.2342087,-360.0646187,-78.93311622,93.16079549,-3034.563712,22.77412103,,,,
870.8159994,3401,1.681036998,56.19202909,124.8520455,-30.13640392,-827.2301776,-17.36455023,0,32.59459245,47.27365519,153.9975016,516.16095,333.3612806,98.6088342,-40.45953992,-1658.534897,23.04196873,,,,
870.8239994,3401,1.683815329,-90.68972514,-481.574738,-591.5422455,-1858.239538,-57.51375884,0,-261.8753941,-52.77120674,-98.61288356,-477.1204688,-234.9914784,-108.4999923,28.60986691,-2740.772726,23.30820642,,,,
870.8319994,3401,1.686540486,129.8455556,356.0797028,149.2945845,-531.7391037,90.33485357,0,208.2343351,70.72165571,72.02687601,155.470436,39.6938994,50.94938559,24.01306892,-2344.572214,23.57283639,,,,
870.8399994,3401,1.689212606,-82.54397266,-376.0420751,-463.169367,-1609.704947,-108.6566511,0,-254.9932861,-39.85006058,33.80304979,114.4395526,174.659896,-5.208215426,-65.50256202,-1908.791057,23.83585759,,,,
870.8479994,3401,1.691831824,52.97947093,-18.04594546,-200.4935437,-1163.934769,77.71221835,0,20.123849,22.03570591,-89.99399407,-480.4799015,-346.5304688,-82.81350299,76.38593212,-3066.476521,24.09726683,,,,
870.8559994,3401,1.694398277,44.87964346,142.9722158,-1.14718381,-774.0448548,-15.09185573,0,45.61367266,35.21531017,146.8842417,515.1505488,345.5033655,92.4885817,-69.23917636,-1668.524837,24.35706524,,,,
870.8639994,3401,1.696912103,-100.816862,-469.7860359,-576.5705865,-1809.642125,-56.05925719,0,-254.7302793,-60.50660173,-108.5503989,-479.3376581,-232.1142984,-116.731288,13.74095909,-2746.222125,24.61525351,,,,
870.8719994,3401,1.699373441,123.3837334,378.4192671,171.0967483,-465.7010174,95.67016031,0,226.305265,73.27309718,73.22735282,159.1479296,39.68013877,44.819407,21.70106147,-2351.317964,24.8718311,,,,
870.8799994,3401,1.70178243,-93.73642438,-342.3175681,-425.519062,-1517.195893,-107.9367625,0,-228.1058369,-49.68845653,37.22809672,126.6151116,192.8063051,-12.70822365,-81.77632558,-1876.449021,25.1267971,,,,
870.8879994,3401,1.704139209,41.82807217,6.061706755,-176.7810342,-1080.665692,71.90732699,0,33.31695567,7.482807951,-90.80020637,-474.5328663,-327.7683414,-91.64992572,65.65619684,-3022.357997,25.3801505,,,,
870.8959994,3401,1.70644392,36.0419205,172.9838691,28.99603096,-676.0922062,-17.98313246,0,64.87553246,38.09327784,149.3189297,527.1833004,358.4338528,94.3868237,-65.16479232,-1633.412419,25.63189156,,,,
870.9039994,3401,1.708696705,-113.4753238,-442.7101151,-537.6925593,-1701.140345,-62.65299069,0,-234.9297226,-60.08631509,-109.4213252,-460.9051942,-212.0432701,-113.1635891,2.823109249,-2690.198497,25.88202078,,,,
870.9119994,3402,1.710897706,116.2200533,392.5815745,197.8212002,-371.5287061,89.15943378,0,232.2009998,68.23580635,70.77399704,170.8911719,55.45876435,44.99433687,9.180722177,-2292.089902,26.13053908,,,,
870.9199994,3402,1.713047066,-101.0935498,-327.6718983,-396.5031748,-1417.024512,-109.2360808,0,-215.9738102,-47.89479393,37.53592294,141.6670224,200.5050909,-5.114615512,-79.30854911,-1821.539693,26.37744362,,,,
870.9279994,3402,1.715144929,30.53405854,16.87630681,-141.2079492,-973.9561907,63.15929062,0,48.58564005,1.581194162,-96.98303701,-462.6725124,-318.786793,-88.13054628,58.93110488,-2952.103143,26.62273548,,,,
870.9359994,3402,1.717191439,41.60346936,178.2022007,57.77060841,-579.8348941,-29.6147882,0,66.133312,32.91900712,148.4144792,537.2129258,364.5287134,91.86084903,-75.33779188,-1561.504383,26.86641666,,,,
870.9439994,3402,1.719186743,-89.31729655,-436.6647863,-513.481545,-1619.396167,-55.64179686,0,-235.6903299,-48.25140082,-96.45051265,-444.4519621,-213.0822333,-107.9428032,16.60860412,-2637.641498,27.10848331,,,,
870.9519994,3402,1.721130987,138.0729918,405.9162439,233.2206072,-287.3759326,103.4489097,0,242.6500887,76.78572348,79.4001781,191.2522643,65.49849407,49.29636089,27.70036957,-2238.640327,27.34893802,,,,
870.9599994,3402,1.723024316,-90.30249819,-321.8797473,-366.5870173,-1345.863122,-108.677511,0,-215.3341703,-43.81553376,33.9950242,161.9613485,215.2546587,-4.386799501,-75.68825416,-1768.763239,27.58778132,,,,
870.9679994,3402,1.72486688,39.86524047,6.524066545,-139.0664262,-944.208424,67.35119968,0,30.09738164,15.60335227,-106.4766647,-458.46864,-332.5718245,-82.75131609,72.55936374,-2950.141393,27.82501265,,,,
870.9759994,3402,1.726658826,48.95045651,174.5570117,56.76335556,-555.7001695,-16.88181199,0,51.36729435,40.76197732,135.7698684,535.1699729,346.9062103,98.93647858,-54.11462507,-1582.711689,28.06063232,,,,
870.9839994,3402,1.728400303,-94.46093274,-443.2786759,-515.7442338,-1594.289268,-54.25025021,0,-250.1745609,-52.58455067,-110.6596311,-446.6585049,-214.4519389,-100.9515,24.50139981,-2642.74444,28.29463921,,,,
870.9919994,3402,1.730091462,133.493275,381.8519578,202.4388597,-289.5874121,101.481455,0,209.646786,78.99633608,67.53957814,172.9577167,42.34108201,57.05687066,37.4297822,-2274.607834,28.52703496,,,,
870.9999994,3402,1.731732452,-82.09174564,-330.8223471,-386.9587457,-1332.181918,-96.37842812,0,-235.5070292,-27.87069186,36.50166731,149.1801405,188.2639427,7.965093909,-53.79963355,-1820.558019,28.7578198,,,,
871.0079994,3402,1.733323424,44.86040073,21.44452983,-112.7535225,-882.9652653,79.15992071,0,44.73882146,20.96077682,-92.73895498,-456.1674309,-318.6675132,-72.29734063,81.00854019,-2943.580855,28.9869947,,,,
871.0159994,3402,1.734864531,46.31429817,190.2903961,94.88698058,-481.2096122,-20.83927435,0,68.46510066,27.70161847,141.3505894,536.8712545,371.7727683,99.85739077,-68.75088887,-1533.405193,29.21455938,,,,
871.0239994,3402,1.736355925,-98.41624153,-428.5671282,-477.4065161,-1520.007959,-66.67348672,0,-234.7909495,-62.2990279,-110.9502886,-449.1693608,-208.4068391,-99.33521741,8.321675033,-2596.980461,29.44051332,,,,
871.0319994,3402,1.737797759,125.3872344,403.3864501,259.9669367,-194.2811209,84.00271954,0,241.2256293,61.77078723,65.19254471,164.4473806,45.21052546,54.29806461,17.65773865,-2212.919853,29.66485816,,,,
871.0399994,3402,1.739190187,-94.44261337,-313.5857271,-330.7820174,-1233.149446,-115.8250247,0,-207.1559049,-63.9541213,27.42523132,136.062397,195.0031105,-7.028178077,-82.5282279,-1724.897726,29.88759438,,,,
871.0479994,3402,1.740533363,32.93141313,25.97368815,-78.48286497,-806.9722587,70.29961423,0,56.36616495,-2.865760423,-98.83194374,-476.3812659,-324.4725706,-81.16686842,67.85968843,-2861.479573,30.10872168,,,,
871.0559994,3402,1.741827443,31.79129222,183.3943782,110.3402133,-418.6188889,-21.97534114,0,67.74289278,24.51169813,139.6642214,516.7665919,347.382898,98.74864273,-62.73352678,-1491.010707,30.32824149,,,,
871.0639994,3402,1.743072582,-119.1823482,-440.9599367,-468.7030343,-1461.636952,-65.25246887,0,-238.2353471,-67.91845429,-119.7346605,-467.4120033,-231.938779,-107.2595234,13.25324866,-2567.43272,30.54615469,,,,
871.0719994,3402,1.744268937,101.6952581,417.6106111,308.6882017,-102.671932,93.2112756,0,269.9010518,54.98710926,63.39297554,154.9339156,48.61296612,52.27915695,22.86394685,-2164.557748,30.76246086,,,,
871.0799994,3402,1.745416664,-120.817429,-295.7007267,-268.9397896,-1134.631927,-115.9231905,0,-176.4822326,-77.35390565,36.53256387,137.4720266,213.0263439,-5.846118534,-81.42876554,-1647.68203,30.97716216,,,,
871.0879994,3402,1.746515922,15.42370899,31.14607111,-24.47811054,-725.8864956,68.26962107,0,73.67540993,-24.24822316,-89.85333083,-480.3800571,-317.936727,-90.12716519,59.96952598,-2789.215958,31.19025851,,,,
871.0959994,3402,1.747566868,31.21112469,226.1954579,237.7278026,-278.8181443,0.639175276,0,135.4484655,6.548443116,172.0624484,531.5857297,384.2799656,94.11773418,-65.86437111,-1383.809374,31.40175006,,,,
871.1039994,3402,1.748569663,-115.1918646,-390.059344,-290.8842999,-1298.346697,-38.03015876,0,-155.4242043,-93.85293379,-58.94331206,-439.887174,-156.2737151,-115.6870955,11.89590227,-2395.420739,31.61163888,,,,
871.1119994,3402,1.749524464,116.6934596,452.2115704,502.4723857,49.15065745,119.3291124,0,332.0224663,31.76055498,143.3133692,173.9363638,129.4304585,33.86199143,16.16100157,-1986.337586,31.81992409,,,,
871.1199994,3402,1.750431432,-84.76720478,-237.7849789,6.834661799,-926.9990062,-72.38689474,0,-79.02487137,-93.43735462,148.919471,174.7775929,334.8265052,-16.44133045,-89.5892956,-1431.458711,32.02660742,,,,
871.1279994,3402,1.751290728,58.12304382,105.603131,329.7601459,-471.5477421,112.6840691,0,202.7955745,-48.79918557,51.20086833,-435.0956331,-151.1844147,-98.24738128,54.25494518,-2512.242292,32.23169121,,,,
871.1359994,3402,1.752102513,65.0521879,290.6288434,610.1049376,-20.97948791,23.36345078,0,250.4450093,-24.66959501,319.5326898,563.5344889,558.5015214,77.20461524,-83.03835648,-1070.825643,32.43517596,,,,
871.1439994,3402,1.752866949,-86.27356651,-352.4410451,47.98107729,-1074.822523,-28.54028763,0,-74.23049866,-119.1821377,70.95957162,-425.1072641,-6.163737846,-132.6943532,-12.81955388,-2078.309768,32.63706113,,,,
871.1519994,3402,1.753584199,144.3800653,462.087922,761.4451171,209.6847733,128.719685,0,372.0888605,34.78162529,238.4492021,172.6363075,219.0951934,31.57763223,19.73212453,-1729.741928,32.83734741,,,,
871.1599994,3402,1.754254424,-90.50784305,-256.9754637,161.8845556,-826.4502579,-84.45284635,0,-77.39302388,-70.53379604,184.7513672,160.4957527,360.940579,-12.19361679,-72.40685867,-1234.182421,33.03603842,,,,
871.1679994,3403,1.75487779,7.474529894,43.99269182,355.4059693,-449.0004674,65.17176596,0,156.8324132,-28.58490955,-3.631043803,-486.5162833,-206.0438309,-105.2863283,56.26227534,-2390.803097,33.23313346,,,,
871.1759994,3403,1.75545446,12.60365761,210.8336397,516.3343319,-64.84697768,-29.72473588,0,163.3469786,6.134857871,191.1735148,493.530628,422.7424173,71.52831314,-76.04228114,-1045.794072,33.42863411,,,,
871.1839994,3403,1.755984598,-128.4268231,-425.1775735,-108.9359862,-1137.767032,-72.98943695,0,-167.9982065,-72.48940947,-87.97315663,-479.1320084,-172.3447254,-126.7010168,4.684095583,-2102.230644,33.62254234,,,,
871.1919994,3403,1.756468371,94.99777625,398.3563545,577.1841218,151.2021634,81.93327521,0,284.3433238,73.14647716,68.87158693,127.4059553,53.64404349,39.13739481,31.03806079,-1773.758779,33.81485722,,,,
871.1999994,3403,1.756905943,-134.9396106,-310.3638809,-47.11405789,-892.5544896,-127.2349037,0,-172.0456668,-42.1049309,21.5467898,126.9266722,198.6798147,-2.656531745,-59.93365417,-1298.973514,34.00558175,,,,
871.2079994,3403,1.757297481,-16.3759478,1.157035445,137.0896997,-524.8477393,42.10367573,0,56.07964519,2.413985027,-137.4365103,-504.0154462,-358.7810124,-91.29371109,77.11547813,-2480.89974,34.19471766,,,,
871.2159994,3403,1.757643151,1.957080639,186.5363566,330.8840192,-110.1717244,-34.73484,0,81.87550648,29.59806875,103.9884621,497.5125758,306.8487567,88.41737379,-50.79636,-1136.230653,34.38226499,,,,
871.2239994,3403,1.757943122,-135.1827288,-429.5108722,-235.99267,-1136.356146,-71.75650628,0,-215.1527754,-72.65024441,-132.8057293,-458.0182926,-238.6034461,-113.8793186,22.42609539,-2164.369404,34.56822599,,,,
871.2319994,3403,1.75819756,104.5432683,411.5620124,508.8249978,196.7312123,87.69839821,0,260.3078031,56.34511724,57.85464488,159.8418209,35.49639996,43.70706546,26.49499139,-1790.42329,34.75260212,,,,
871.2399994,3403,1.758406634,-95.4735161,-274.4743136,-51.07093971,-792.2785981,-111.7345282,0,-170.9800941,-51.8490638,49.71673591,180.2824096,225.8479365,3.858995299,-68.26458725,-1261.515003,34.93539316,,,,
871.2479994,3403,1.758570514,46.17383388,64.63457412,207.4114316,-359.6557642,65.28326681,0,100.0684335,1.692652636,-74.81891898,-435.534608,-285.2454463,-78.88039963,76.49801698,-2378.782274,35.11660144,,,,
871.2559994,3403,1.758689367,67.01973737,258.6127911,436.2600825,95.22584796,-18.98758971,0,136.7087054,34.1302066,180.3282999,573.8301123,416.7992208,102.642989,-57.61936136,-961.8275679,35.29622957,,,,
871.2639994,3403,1.758763365,-87.43146567,-363.7939601,-124.7954782,-914.0176968,-70.13924302,0,-166.6771213,-72.76748155,-73.74336782,-397.7069202,-135.555738,-105.3695152,7.116389028,-1958.935308,35.47427869,,,,
871.2719994,3403,1.758792677,145.4885747,482.8766352,637.5060787,445.806641,87.50404104,0,321.4605154,38.13472895,90.13796435,193.6649591,125.1931253,43.20772647,3.638530931,-1554.918414,35.65074906,,,,
871.2799994,3403,1.758777474,-53.14719502,-217.4404584,61.1801424,-550.2697077,-112.3257773,0,-129.1341326,-62.65317282,75.5222621,211.5181933,312.5798301,6.818662892,-86.91939451,-994.4206743,35.82564331,,,,
871.2879994,3403,1.758717927,69.86017069,101.381632,301.0219749,-128.4681222,59.06159651,0,122.0318907,-0.218365099,-61.30771545,-416.1475335,-224.6959446,-74.61249894,58.69003545,-2138.054863,35.99896336,,,,
871.2959994,3403,1.758614208,82.56661721,301.9035074,539.6795812,344.8569597,-21.96345897,0,168.1626621,18.83704854,177.7139748,581.9469703,466.8820335,100.2520447,-90.61350781,-717.7811524,36.17070978,,,,
871.3039994,3403,1.75846649,-63.46130243,-322.4663762,-36.89187821,-674.675173,-67.59618414,0,-142.2053021,-69.60698977,-64.46476442,-379.5596888,-82.29799038,-97.48427324,-10.89236709,-1696.979756,36.3408853,,,,
871.3119994,3403,1.758274944,165.5188649,523.024554,713.36878,684.0946304,88.9384432,0,342.0126996,62.18824686,108.0487225,219.8407179,161.9336189,60.78553323,9.792436011,-1317.345828,36.50949132,,,,
871.3199994,3403,1.758039744,-41.67747505,-162.1033225,154.2913014,-281.4900809,-110.589622,0,-89.21200472,-59.05725198,83.94476336,240.7140537,349.1802164,16.3978129,-88.65423394,-734.1146945,36.67652959,,,,
871.3279994,3403,1.757761063,81.58714027,169.5583223,406.9384709,164.8288283,61.40684674,0,178.6759052,-11.87020254,-58.13767383,-390.5028151,-176.3010281,-72.20945205,49.72588984,-1826.928422,36.84200193,,,,
871.3359994,3403,1.757439076,100.4723823,365.7817902,630.1491606,637.7783758,-22.44627841,0,213.1580183,12.84662761,180.3437577,609.9797839,509.9032891,103.2258595,-91.66196632,-383.2965033,37.00591003,,,,
871.3439994,3403,1.757073955,-44.71429586,-275.900246,30.64491474,-398.0403995,-66.45058326,0,-118.5110243,-70.2869514,-61.6795695,-354.2476895,-61.35929855,-93.54971527,-4.577763151,-1368.258148,37.16825623,,,,
871.3519994,3403,1.756665877,174.1209739,570.3757278,789.041012,983.6839136,86.71967121,0,369.120165,55.24306797,108.2679813,232.2606381,170.5441415,59.43224774,1.730365827,-985.6062389,37.3290418,,,,
871.3599994,3403,1.756215016,-38.51863163,-116.1199066,222.5346141,31.54983062,-122.0765394,0,-71.22354888,-70.86327004,78.66232669,250.9092307,358.6137119,10.74942125,-118.5378526,-369.8113902,37.48826899,,,,
871.3679994,3403,1.755721549,96.73475585,210.5608598,451.7996528,470.8801179,56.60922522,0,173.4896528,-9.911388747,-60.58321795,-372.9970895,-180.9258092,-70.36883324,30.64853028,-1463.470958,37.64593989,,,,
871.3759994,3403,1.755185649,124.9412993,435.6511512,702.5588669,1008.295821,-22.04553722,0,223.3673046,22.81100505,186.2471153,653.421984,505.9214911,114.6920032,-98.97507505,-3.299198383,37.80205602,,,,
871.3839994,3403,1.754607496,-12.01113505,-177.418212,131.1654823,41.24463775,-68.43905947,0,-87.943686,-68.4809672,-56.77237069,-290.0335001,-41.63266216,-85.17888664,-26.14932212,-916.5540495,37.95661911,,,,
871.3919994,3403,1.753987264,222.9607668,678.4981571,891.1068199,1454.16991,91.69942344,0,399.0297686,66.54374715,120.0996538,312.0204882,205.0309696,72.54515368,-14.73583852,-484.9933719,38.10963186,,,,
871.3999994,3403,1.753325131,-1.279393001,-6.269669424,337.0275006,542.0626413,-120.8320554,0,-33.50098529,-51.71052734,94.87320257,341.5679617,391.8003696,32.7839126,-125.5525813,152.4108653,38.26109786,,,,
871.4079994,3403,1.752621275,106.1122185,309.8223192,570.7630465,998.1273852,46.18871054,0,220.9675633,-15.06616616,-62.42472237,-308.656452,-151.2214899,-61.77399724,2.090188117,-913.5483714,38.41101709,,,,
871.4159994,3403,1.751875874,121.1914192,511.6636511,805.6965942,1509.141764,-36.4345629,0,270.3777777,7.372708775,177.822362,689.2987072,539.4247167,114.5915495,-137.5119417,565.4758889,38.55939169,,,,
871.4239994,3404,1.751089105,-38.19888108,-151.6197711,186.9842144,461.5138661,-95.0029243,0,-63.70051564,-76.75352829,-69.36620713,-288.494123,-34.02655854,-84.1804591,-53.83587078,-396.0121525,38.7062241,,,,
871.4319994,3404,1.750261148,183.1177279,652.3916444,879.4019022,1763.464971,57.51712474,0,385.8132684,50.00015052,88.46222649,265.3898912,163.6617366,63.63329205,-35.90372844,-63.12485224,38.85151679,,,,
871.4399994,3404,1.749392181,-23.72479,-59.49287853,280.9720688,760.5431363,-140.6093513,0,-66.46261855,-69.12197696,65.30589033,276.1686006,328.5861049,19.45713017,-129.7569317,494.4421838,38.99527264,,,,
871.4479994,3404,1.748482384,103.6526674,241.9585167,491.9060365,1150.607076,37.70504001,0,176.8066555,-16.02831815,-67.93238599,-370.3604817,-224.5719151,-64.60423236,25.60635583,-655.5976295,39.1374927,,,,
871.4559994,3404,1.747531936,130.8416292,446.5890646,716.9954756,1630.759899,-46.38588206,0,214.4899196,15.3209103,189.2937707,647.5711774,465.2486386,119.8440325,-107.8757711,756.5509403,39.27818032,,,,
871.4639994,3404,1.746541017,-22.40026514,-196.0756828,113.9878732,594.6866299,-98.97725665,0,-111.7796644,-72.63702674,-50.16734096,-305.4567503,-80.31009985,-79.26598052,-35.44839355,-204.0059932,39.41733799,,,,
871.4719994,3404,1.745509808,203.3645514,638.6669838,833.750983,1934.308719,64.9742108,0,355.1568027,58.37095607,117.1545599,266.1410514,144.8923188,75.56522629,-17.53459454,150.4808149,39.55496654,,,,
871.4799994,3404,1.74443849,-9.355253993,-47.76571282,253.9065118,971.1867024,-136.78581,0,-85.83454206,-55.02277665,98.36028454,296.9537491,324.8316904,39.78839358,-112.5493682,733.8610814,39.69106932,,,,
871.4879994,3404,1.743327242,104.8831883,279.9874147,502.4896149,1424.877437,35.72100477,0,186.1111991,-11.30402104,-45.04132939,-341.9968474,-208.1656808,-50.23044916,24.61341228,-355.7494607,39.8256495,,,,
871.4959994,3404,1.742176247,139.5068765,515.357044,771.49206,1986.65962,-46.30514809,0,249.0073523,8.649825359,206.7554419,683.2701291,506.8867202,126.0960489,-125.3525603,1147.721521,39.95870874,,,,
871.5039994,3404,1.740985686,1.295901145,-108.3290684,186.2923914,1011.916039,-102.6913652,0,-80.59124441,-81.00200736,-24.49955895,-250.9610945,-30.03926174,-75.57592803,-49.94058157,255.4029358,40.09024895,,,,
871.5119994,3404,1.739755741,231.8205134,768.7370299,964.6085171,2467.733623,60.73967559,0,419.1214192,49.80778337,154.7014442,353.8543052,222.8301947,81.52711428,-35.10785178,707.9729536,40.22027323,,,,
871.5199994,3404,1.738486595,20.92328528,117.8046617,440.1179554,1622.922524,-138.5145084,0,11.54310796,-70.55209083,144.5977187,415.8204399,455.6877991,47.58709498,-146.0181591,1458.257593,40.34878434,,,,
871.5279994,3404,1.737178429,127.1809892,433.4170599,657.7280106,2094.581926,34.84547,0,255.9862201,-14.26350051,-2.830796648,-233.1807382,-92.81998512,-40.25018531,10.30769645,437.4400289,40.47578413,,,,
871.5359994,3404,1.735831426,126.5351513,654.311822,904.7887722,2664.597215,-43.95917839,0,309.1471574,14.23043764,230.8507753,770.7427511,585.2414075,143.8235986,-114.7355852,1953.615639,40.60127554,,,,
871.5439994,3404,1.73444577,-53.88986887,-6.630807215,301.239861,1668.844821,-103.5214436,0,-22.64291513,-98.52922541,-35.17306789,-202.8061856,30.84788534,-64.71692576,-47.4943026,1099.723953,40.7252621,,,,
871.5519994,3404,1.733021643,153.1457755,808.8536435,1011.546516,3034.045954,53.34584954,0,436.9285655,33.15663314,103.1227467,338.8511002,212.9265473,74.99558794,-26.63224147,1498.348785,40.84774595,,,,
871.5599994,3404,1.73155923,-71.30678901,109.7001145,433.5536026,2094.371911,-152.0221369,0,-3.972821498,-79.32851183,69.5299447,362.8696059,384.4725611,31.21168858,-122.195398,2159.351567,40.96872815,,,,
871.5679994,3404,1.730058714,39.37639455,395.548768,628.6993345,2494.889177,25.43700186,0,230.6363326,-30.73457476,-78.25944262,-302.1310948,-180.1176387,-58.23199503,32.81608966,1076.709268,41.08821325,,,,
871.5759994,3404,1.728520279,64.67204951,615.6359834,868.5987801,3021.58264,-36.96052908,0,286.21599,14.24261685,167.6419969,707.6195168,481.8578887,134.3747389,-89.66149104,2530.51336,41.20620394,,,,
871.5839994,3404,1.72694411,-88.0460156,-31.83150482,272.1231189,2001.050234,-88.73308521,0,-35.37389745,-82.70697143,-82.42797057,-244.0222129,-58.16617732,-66.24425916,-18.0851187,1649.637207,41.32270241,,,,
871.5919994,3404,1.725330391,144.3414294,802.7089503,994.6362479,3370.648067,73.34648908,0,437.8140338,46.95431391,78.41729287,328.5545566,164.4483607,81.40158821,-1.592857764,2064.097864,41.43771147,,,,
871.5999994,3404,1.723679307,-64.56804358,127.9456273,436.169801,2450.907763,-119.0239206,0,13.23929574,-62.01142139,61.61466903,378.0316693,355.9730728,47.03551851,-100.5200897,2737.335366,41.55123347,,,,
871.6079994,3404,1.721991043,46.36114729,444.8885328,675.6349119,2896.716767,60.29987225,0,280.0668586,-20.59223297,-83.41584292,-279.1049168,-179.7046666,-43.55410122,45.55460185,1694.798485,41.66327203,,,,
871.6159994,3404,1.720265784,68.02739721,671.4164129,928.1311129,3453.60058,-18.33728282,0,343.6712808,6.207202652,158.0675751,734.3074085,512.3208009,137.6161251,-96.19207296,3229.364427,41.77383009,,,,
871.6239994,3404,1.718503717,-93.60912777,8.349362821,306.3259908,2422.520969,-76.02567286,0,5.098611499,-87.58590972,-97.25569073,-231.316658,-47.69361265,-69.47687435,-28.29287827,2358.078538,41.88291047,,,,
871.6319994,3404,1.716705025,125.9126567,855.1060552,1041.936174,3830.536929,91.93097149,0,489.1721611,45.28010169,65.24965875,341.3989327,165.5356245,83.64530428,-7.95669003,2784.037066,41.9905149,,,,
871.6399994,3404,1.714869897,-88.70526975,177.5596977,473.7135617,2933.857851,-106.0321827,0,54.75712339,-69.05207897,44.2499135,401.9593376,356.5205964,49.45364294,-109.7693222,3510.453327,42.09664728,,,,
871.6479994,3404,1.712998517,16.59534719,492.4561945,687.9201914,3397.766861,71.1491636,0,309.0999451,-15.01569507,-111.4384161,-252.1944269,-208.3270155,-40.84113794,42.98870682,2474.852167,42.20131197,,,,
871.6559994,3404,1.711091072,24.62818777,744.8345341,961.1829758,4036.343352,-3.935259783,0,398.2490576,14.13802737,130.2261994,788.8038325,486.6424666,148.5870849,-96.76575899,4066.55649,42.30450935,,,,
871.6639994,3404,1.709147748,-147.5659553,86.5418479,348.693946,3058.698202,-69.8894421,0,68.63339153,-96.0546664,-128.8801404,-170.8909438,-69.6100195,-60.20825747,-37.04526193,3274.950054,42.40624387,,,,
871.6719994,3404,1.707168733,72.16870863,926.982524,1074.666047,4482.960137,84.68218691,0,544.8680864,33.53973636,22.96577856,382.198243,122.3962386,86.86455012,-20.17695758,3726.22668,42.5065193,,,,
871.6799994,3405,1.705154213,-135.255843,224.2330503,484.770819,3557.290777,-120.9525118,0,94.76562844,-77.61126835,1.066984175,425.5475466,309.5574414,48.73098224,-125.1653656,4460.493197,42.60533606,,,,
871.6879994,3405,1.703104376,-16.46241621,499.9087028,663.4054044,3940.765083,61.2608758,0,319.2608031,-17.9372599,-146.7125387,-259.717997,-265.0128322,-44.74444254,35.28760985,3381.106683,42.70269928,,,,
871.6959994,3405,1.701019408,1.185866663,728.7639741,923.2773738,4500.454727,-4.478486331,0,394.5067292,20.93908646,104.4254922,752.2414258,408.9985182,145.6650841,-84.76483594,4881.275285,42.7986116,,,,
871.7039994,3405,1.698899497,-166.0962809,55.98794752,318.9867242,3462.891166,-68.28865271,0,69.75404848,-94.39723991,-156.4078425,-230.4591716,-141.263239,-68.55159307,-27.54479606,4014.703646,42.89307639,,,,
871.7119994,3405,1.69674483,69.36386977,888.4725681,1039.556125,4842.839508,93.00063338,0,538.4264177,40.67793128,1.678178687,330.6802397,72.19100646,78.64925247,-10.65424889,4428.964705,42.98609798,,,,
871.7199994,3405,1.694555596,-141.5425482,169.2168498,437.4734292,3863.205917,-109.9941197,0,77.59438376,-55.11664345,-5.058816251,389.6406205,252.7884081,47.26145093,-93.92366083,5099.918842,43.07767758,,,,
871.7279994,3405,1.692331982,-40.6116679,424.4193393,614.2599263,4193.465,61.7099772,0,299.5239542,-14.70486706,-163.4512171,-314.2822612,-326.5842484,-57.92457062,48.86075527,3951.409731,43.16781796,,,,
871.7359994,3405,1.690074177,-12.06183536,617.9903607,833.8012248,4650.257999,-0.829305589,0,341.408711,23.18917064,84.0332289,688.7344415,352.8219146,127.4603784,-81.60384623,5393.020268,43.25652409,,,,
871.7439994,3405,1.687782368,-173.6861653,-104.3015699,170.2155109,3452.811887,-55.94148622,0,-22.79988045,-62.6116594,-158.1554252,-306.1765143,-226.9375616,-77.71949427,16.98730235,4367.507955,43.3437996,,,,
871.7519994,3405,1.685456743,53.49666635,708.7038708,879.2061837,4717.870623,101.0114662,0,446.3435147,60.8998242,0.313162134,230.6367858,-25.00272731,64.23294684,32.8485793,4625.331151,43.42964649,,,,
871.7599994,3405,1.683097492,-140.6603102,-27.43208415,255.3344297,3615.77126,-101.6862999,0,-26.2102573,-45.00709462,-14.16480883,277.8018109,168.9018336,29.68946014,-69.39248578,5191.891605,43.51406794,,,,
871.7679994,3405,1.680704803,-20.43637486,222.9074864,410.5504358,3840.417061,71.30302697,0,182.1046979,16.76881946,-164.9417663,-419.2157644,-415.4905499,-63.76190652,91.91020557,3898.354083,43.59706877,,,,
871.7759994,3405,1.678278865,3.804242183,436.6804761,650.7196832,4263.446538,-5.124012947,0,238.5080776,45.53879633,85.51073041,608.3873507,280.2274809,126.5549526,-48.55321462,5257.19613,43.67865126,,,,
871.7839994,3405,1.675819866,-161.3204519,-284.517796,-17.83381777,3010.017435,-67.71484473,0,-132.167992,-65.04370856,-171.4562374,-388.0675922,-286.511377,-89.48086055,21.13868105,4188.434667,43.75881797,,,,
871.7919994,3405,1.673327995,76.67671242,537.4911004,680.8346741,4225.550546,106.2411076,0,330.1982291,72.00746284,-10.09237033,153.9497563,-92.64136407,53.28067853,50.96666028,4367.623007,43.8375729,,,,
871.7999994,3405,1.670803441,-125.1436709,-184.2720089,74.25763212,3102.090725,-89.9807516,0,-124.6294671,-21.05513977,-7.234637386,220.6775147,110.7020161,27.59268803,-31.42228886,4879.044323,43.91491989,,,,
871.8079994,3405,1.668246394,-28.05441384,72.96179205,248.3045633,3314.169995,69.42456137,0,102.1565975,9.138828296,-168.2836469,-493.8165861,-457.8745307,-83.32394544,100.3983402,3564.656919,43.99086302,,,,
871.8159994,3405,1.665657043,-2.69040885,302.7500851,501.3032794,3736.532681,-4.997682244,0,170.1278912,26.56990301,73.08041625,530.8450387,245.9012859,94.32974267,-63.19508695,4913.328499,44.0654052,,,,
871.8239994,3405,1.663035577,-158.3827091,-411.7833791,-172.1193434,2464.669894,-62.77437341,0,-200.2065467,-61.16055158,-174.3129298,-448.807067,-323.1742069,-109.7323134,26.54804746,3808.831885,44.13855003,,,,
871.8319994,3405,1.660382185,73.00010509,421.3492864,532.3319698,3684.005211,98.10036293,0,269.9149557,69.77989333,-15.63968675,97.94768047,-124.4240069,34.85879773,51.03869302,3966.020511,44.21029978,,,,
871.8399994,3405,1.657697057,-133.6588507,-285.482074,-57.06840881,2570.098017,-103.7631749,0,-171.2506369,-36.37203596,-19.30107186,169.7380166,90.30988617,3.548075196,-54.29144283,4486.687931,44.28065888,,,,
871.8479994,3405,1.654980382,-24.55140249,-36.10336974,89.94710505,2740.572466,59.66877437,0,36.08063993,10.27360828,-175.4128421,-539.8054513,-495.6024442,-101.2190809,98.92274716,3131.888645,44.34963134,,,,
871.8559994,3405,1.652232351,10.33754935,183.9855205,302.1035488,3117.933296,-16.205999,0,74.85031937,46.88635486,73.79521827,495.3740814,185.0732444,85.7991083,-35.36148354,4410.200479,44.41722048,,,,
871.8639994,3405,1.649453152,-144.0206034,-524.1827609,-376.1534498,1822.291217,-68.63495505,0,-296.1433646,-34.79949481,-166.47131,-477.2385835,-384.5533626,-111.1448149,59.10080615,3258.902075,44.48342953,,,,
871.8719994,3405,1.646642976,85.4181155,324.8546204,346.7696852,3042.054585,97.63062654,0,189.0406714,89.25490514,-6.187222146,72.35000272,-181.6964286,36.25976154,75.73552859,3388.5742,44.54826201,,,,
871.8799994,3405,1.643802012,-123.3885068,-370.3841203,-224.3186943,1943.669245,-106.2381426,0,-239.2567564,-34.01942359,-15.46107307,148.9701708,44.85786384,1.294335626,-51.25910093,3914.363205,44.61172309,,,,
871.8879994,3405,1.64093045,-6.944489195,-116.8133548,-69.40357931,2113.137179,62.57474136,0,-26.7695556,14.44120688,-168.4708423,-558.4025593,-527.3015143,-96.8818797,100.7634826,2561.792976,44.67381468,,,,
871.8959994,3405,1.63802848,21.19562474,110.2251247,167.8119977,2511.624947,-18.02472715,0,28.55228625,43.82595962,81.87698192,482.9774675,168.9656609,91.41964471,-37.78464531,3844.523233,44.73454114,,,,
871.9039994,3405,1.635096293,-150.1280409,-588.3687548,-468.9995967,1263.137497,-81.70725272,0,-312.6456165,-66.11515338,-170.0817025,-491.8018519,-380.2603265,-123.3002842,25.69750448,2736.0775,44.7939062,,,,
871.9119994,3405,1.632134077,78.98361306,268.2510001,263.7976403,2502.676625,83.27448684,0,178.9320443,60.95276697,-11.98288035,55.34416097,-172.2899971,23.23383014,45.60711836,2891.534387,44.85191209,,,,
871.9199994,3405,1.629142023,-126.2806095,-431.0830525,-329.2935507,1393.017201,-125.1035488,0,-271.5782655,-48.76930823,-17.27807828,139.9630036,46.65157696,-1.784671074,-60.59882417,3413.729923,44.90856567,,,,
871.9279994,3405,1.626120321,-7.789465146,-173.4792649,-176.6085992,1564.929823,51.61227039,0,-61.55150995,7.346778777,-166.4266092,-568.7874493,-538.6116964,-97.62601044,101.382693,2045.193189,44.96386889,,,,
871.9359994,3406,1.623069161,20.85220927,69.94568544,71.75428594,1976.1912,-13.78405002,0,3.089644954,42.26870518,90.91186635,472.578092,154.0719649,96.31143941,-25.50973,3315.909447,45.01782365,,,,
871.9439994,3406,1.619988733,-142.3133637,-633.232014,-583.0744369,699.7026828,-73.84806006,0,-360.2055319,-63.78579652,-159.2539847,-500.5518514,-395.0520966,-115.47223,45.36637723,2196.45401,45.07043721,,,,
871.9519994,3406,1.616879227,97.23370113,214.8558076,133.3256536,1911.549643,94.01593465,0,114.8046216,85.44537761,1.017210183,45.63342426,-192.8804934,33.01438335,76.67937669,2314.667355,45.12171265,,,,
871.9599994,3406,1.613740833,-115.8298389,-482.1239028,-449.3086731,809.7765327,-110.7021875,0,-325.4429281,-19.35883676,-4.872622428,133.2919286,27.95654125,7.513901641,-25.90705836,2808.403971,45.17165247,,,,
871.9679994,3406,1.610573741,-9.795107918,-214.3983861,-265.0433465,1008.170408,66.99513662,0,-92.26890787,14.23095336,-163.8144593,-579.5403826,-540.3252076,-98.56249843,116.8815404,1454.692473,45.22026054,,,,
871.9759994,3406,1.607378142,11.15190646,38.92983511,10.13416451,1447.697821,-8.125876433,0,-11.20302819,41.85362926,83.46154341,456.5523028,170.5176407,87.56538338,-25.4801435,2758.841591,45.26754043,,,,
871.9839994,3406,1.604154224,-155.4255286,-674.5996603,-651.8234465,166.1110964,-79.89383792,0,-383.4598316,-68.23932676,-178.2172257,-527.6568674,-388.8633639,-130.2268636,39.688506,1641.872051,45.31349849,,,,
871.9919994,3406,1.600902179,80.57662182,173.2736796,72.54576251,1381.399342,87.43604251,0,97.36463651,64.15472012,-23.3693344,6.808186102,-194.5019624,12.81137298,59.7410438,1749.667612,45.35813679,,,,
871.9999994,3406,1.597622197,-133.9802847,-518.152529,-497.2734789,283.6815844,-117.6436566,0,-334.899879,-40.52060715,-23.50247799,95.72554657,31.03496355,-8.356076935,-43.54592416,2246.284055,45.40145913,,,,
872.0079994,3406,1.594314467,-22.03228702,-268.3226978,-341.255481,437.3503533,58.87861468,0,-128.4971175,7.986309719,-180.061148,-619.2796605,-553.9379165,-106.9956532,111.6931795,862.1105618,45.44347117,,,,
872.0159994,3406,1.590979179,2.195885241,-22.53698953,-82.88765817,850.3197485,-9.98749566,0,-60.43890589,46.3665641,69.92661859,420.7715573,144.1717716,89.63542319,-20.80963514,2117.715698,45.4841737,,,,
872.0239994,3406,1.587616523,-163.4188558,-738.1761674,-750.1579346,-445.9431356,-75.62614766,0,-428.3461194,-49.0235818,-181.331402,-556.2719025,-420.1658632,-116.9127923,59.28879864,962.999122,45.52357302,,,,
872.0319994,3406,1.584226689,73.87583577,106.6856129,-33.25386371,750.858031,91.24480505,0,53.2462503,86.19326482,-23.51756711,-18.38911626,-233.1401876,22.08425591,85.50840573,1035.059756,45.56167348,,,,
872.0399994,3406,1.580809867,-142.6295638,-567.9635853,-574.063924,-317.1921367,-116.6552178,0,-356.9203683,-35.01488204,-27.55943789,86.97728928,10.93901937,-6.625915948,-33.6440487,1539.054033,45.5984779,,,,
872.0479994,3406,1.577366247,-27.31777607,-314.5213611,-406.529848,-152.1609169,55.20534438,0,-142.1185443,9.585985952,-185.7367728,-629.026683,-567.7124276,-112.2376127,116.9211109,166.0338624,45.63399127,,,,
872.0559994,3406,1.573896018,3.745445824,-69.98082333,-161.1010323,250.490532,-17.75494739,0,-84.04462031,52.9458859,61.95136498,406.2954061,116.1878226,73.4151907,-11.57775617,1408.914378,45.66821582,,,,
872.0639994,3406,1.570399371,-164.0287924,-763.2752545,-794.6462715,-1002.012732,-81.56451096,0,-425.4123047,-52.02051612,-189.6728113,-556.786033,-429.4005379,-130.2813574,56.28123952,287.1897486,45.70115745,,,,
872.0719994,3406,1.566876494,72.90613073,99.17635643,-42.2310711,242.1191998,88.6326073,0,82.87216275,74.29862608,-27.87935086,-19.1455487,-220.3101489,16.7274819,76.9636538,415.9841839,45.73282091,,,,
872.0799994,3406,1.563327577,-142.2984063,-581.231593,-595.1916591,-822.5929282,-127.6264461,0,-343.3837661,-46.9875264,-31.52581787,83.61222204,26.02698596,-15.78899631,-41.16603854,959.533745,45.76320818,,,,
872.0879994,3406,1.559752811,-21.2657374,-332.7945147,-447.7465702,-659.0418733,44.40688475,0,-147.6039477,6.450032922,-191.39674,-633.3578058,-566.18431,-122.2668827,109.6967599,-418.2339089,45.79232401,,,,
872.0959994,3406,1.556152383,18.31385798,-60.8949727,-176.9503921,-203.0097692,-13.52726126,0,-67.66187429,52.63532436,64.72826968,410.458684,123.6895879,71.35969408,-19.38422282,837.3573306,45.82017298,,,,
872.1039994,3406,1.552526484,-158.2840488,-733.1469316,-776.7746365,-1392.490593,-80.55218907,0,-388.3956604,-69.85658839,-185.7201227,-541.4823361,-386.3437329,-134.9996196,29.41019067,-202.8546746,45.84675899,,,,
872.1119994,3406,1.548875303,87.21975176,118.9184374,-49.12864915,-144.2216856,89.76674058,0,93.42777295,66.46718997,-32.88970268,-10.98742306,-190.317281,7.997494953,49.34602746,-56.01216408,45.87208717,,,,
872.1199994,3406,1.545199029,-109.7266991,-557.6673441,-621.1615609,-1195.864121,-111.0201903,0,-343.1986264,-31.89988804,-30.14362412,99.0424667,30.65959173,-15.2085808,-45.59550123,469.3339514,45.89616108,,,,
872.1279994,3406,1.541497851,-2.11318379,-286.9853352,-435.2594524,-966.0615076,63.35760644,0,-111.0026174,3.144593474,-181.3274317,-607.2308717,-539.4983459,-116.8476046,101.9557251,-853.6980523,45.91898313,,,,
872.1359994,3406,1.537771958,30.65878832,-14.21720169,-153.264956,-470.5309091,2.575373943,0,-26.06992604,37.24091785,73.90122603,436.7321933,158.2644518,74.84162214,-35.28920989,456.3407701,45.94056027,,,,
872.1439994,3406,1.534021539,-136.5142559,-702.443349,-787.2769309,-1667.718146,-64.86795588,0,-375.0591022,-68.14822345,-172.3999988,-509.74693,-374.92986,-128.2556719,34.74431941,-582.4148938,45.96089597,,,,
872.1519994,3406,1.530246782,98.96167148,166.3106264,-39.45355261,-368.6145447,102.0346118,0,126.6971985,69.44407455,-11.91502166,30.53503101,-172.6132806,20.68816896,62.55209177,-409.1179213,45.9799931,,,,
872.1599994,3406,1.526447877,-113.2817534,-490.783564,-575.5821225,-1346.958196,-107.4687198,0,-286.9081833,-37.81906327,-10.82304347,147.3107718,74.27805575,-4.5090341,-58.11740312,193.2678961,45.99785811,,,,
872.1679994,3406,1.522625012,-6.955277095,-228.6273212,-406.5532214,-1097.669969,52.73628427,0,-75.10011889,4.489421424,-169.222201,-564.4179985,-502.4325893,-109.8233037,75.96785878,-1083.31184,46.01449385,,,,
872.1759994,3406,1.518778375,32.0077655,59.40254343,-115.3881836,-552.9533694,-10.28944064,0,17.14699553,47.8602081,87.79641462,479.3911935,187.4719763,85.25359685,-57.91037579,260.6303596,46.02990393,,,,
872.1839994,3406,1.514908154,-135.1934629,-615.4837486,-727.6665145,-1692.141651,-74.21792298,0,-319.6313561,-65.47594343,-156.0492724,-464.1368432,-335.9759605,-121.40168,2.109385417,-719.9297388,46.04409365,,,,
872.1919994,3407,1.511014539,92.47893712,243.2227276,11.86971097,-369.8076232,91.77423783,0,165.2547275,63.32944848,4.573082865,74.32923379,-136.0456075,21.46632896,22.29307761,-503.6042729,46.05706823,,,,
872.1999994,3407,1.507097716,-111.5347771,-403.0807744,-509.5085846,-1306.518007,-103.9040299,0,-236.692243,-43.22489767,11.78799551,193.4861271,107.550201,-1.262508779,-85.04584253,135.6578216,46.06883148,,,,
872.2079994,3407,1.503157874,2.819564779,-126.9992577,-308.7556601,-1005.474652,66.10423357,0,-0.551921628,-11.39788881,-142.4341096,-517.3775753,-453.1414144,-106.9221368,55.71841404,-1084.14364,46.07938675,,,,
872.2159994,3407,1.4991952,32.48639723,154.4131234,-4.51826926,-433.3026402,-5.7369582,0,90.18714014,20.68148421,116.4371944,528.670254,254.5217933,85.63976171,-85.11077672,320.2556027,46.0887383,,,,
872.2239994,3407,1.495209882,-138.3307996,-526.9495432,-612.7579353,-1560.258455,-74.30684371,0,-248.8154078,-85.69755546,-128.9978115,-418.0416303,-270.6084232,-119.9147243,-20.72879782,-630.2558456,46.09689146,,,,
872.2319994,3407,1.491202108,87.53369846,332.4977679,134.1230687,-217.5299378,88.080414,0,238.9924863,44.08461664,20.12820069,110.4689211,-80.26742668,21.13853316,2.934885033,-394.2539263,46.10384966,,,,
872.2399994,3407,1.487172065,-122.5635084,-335.5329683,-407.524677,-1168.258973,-116.5041335,0,-184.5120137,-70.28127913,15.26892154,219.1389502,152.2349935,-9.008423272,-109.239211,262.8410133,46.10961799,,,,
872.2479994,3407,1.483119939,-7.659275817,-83.00530898,-238.2104257,-896.5285837,54.97571614,0,30.96672664,-16.9228173,-139.3958801,-495.959758,-429.0377864,-110.9872846,49.42462056,-982.4956966,46.11420272,,,,
872.2559994,3407,1.479045919,21.43733148,194.8042405,58.19026234,-328.4385506,-10.2447203,0,119.8339414,34.07170212,119.042086,552.4619373,264.4643645,90.72971847,-76.9443754,400.8008204,46.11760597,,,,
872.2639994,3407,1.474950191,-148.4855515,-504.685228,-572.289598,-1486.596234,-75.30988408,0,-239.5421893,-80.16804346,-132.0371594,-409.9046259,-272.3415946,-119.5378387,-19.13259269,-561.9952439,46.11983238,,,,
872.2719994,3407,1.470832941,91.19545407,343.3034096,150.4941635,-174.0239747,99.53691503,0,229.55217,61.92751515,24.40726319,113.5942401,-92.15721084,26.83771766,18.70676783,-363.6788921,46.12088661,,,,
872.2799994,3407,1.466694356,-117.5508466,-319.7294898,-383.9189399,-1131.646276,-98.63453937,0,-189.5135018,-44.99626596,25.94389709,232.8274348,148.6008762,6.972940106,-81.54104945,275.8377173,46.12077302,,,,
872.2879994,3407,1.462534623,-8.967884553,-65.22357048,-203.0696747,-868.4432862,70.75936921,0,27.94076061,-10.88271775,-136.7114568,-497.2372422,-427.3480929,-104.3490857,63.21801814,-977.6485073,46.11949623,,,,
872.2959994,3407,1.458353927,30.01543524,215.291538,95.21251659,-303.7790813,10.07095919,0,117.101824,32.21172626,122.1704959,548.0810672,277.2827909,97.8981046,-64.70221672,409.2964695,46.11706017,,,,
872.3039994,3407,1.454152454,-136.4941228,-483.0773848,-529.5006277,-1463.80687,-56.60249663,0,-232.7091165,-77.3088214,-123.4205607,-406.7511205,-244.0737226,-101.2460812,6.188758353,-545.7393883,46.11347083,,,,
872.3119994,3407,1.449930391,97.89124329,365.8739399,198.4980711,-152.1522328,107.9753964,0,237.8267892,64.37162741,31.03659585,109.9047392,-66.32003548,37.9752412,34.49769478,-355.3522103,46.10873222,,,,
872.3199994,3407,1.445687922,-118.3280635,-298.3034096,-323.192416,-1101.207662,-100.4067394,0,-176.1396823,-53.8116232,32.61210734,230.4751503,181.8970328,9.474897416,-87.0307535,298.5473378,46.10284785,,,,
872.3279994,3407,1.441425234,-13.79690148,-51.97029096,-139.4252698,-835.2594686,59.77988308,0,46.47737842,-35.84612941,-135.515176,-506.2817516,-388.6746811,-106.4622975,50.05584359,-936.8412347,46.09582233,,,,
872.3359994,3407,1.437142511,27.25279158,212.5842519,127.2569915,-301.9313002,-6.570186939,0,109.7388648,18.1386163,117.1257559,531.1544382,289.4391491,89.38344772,-73.21127242,424.7243161,46.08766115,,,,
872.3439994,3407,1.432839938,-145.2998477,-489.7655831,-499.6755386,-1477.098111,-73.34684203,0,-242.1697438,-74.73550094,-125.1090691,-420.6133858,-251.7734121,-109.3955128,1.667536083,-571.3093229,46.07836899,,,,
872.3519994,3407,1.4285177,83.30320479,361.6378057,245.1016707,-153.1753632,84.51827483,0,246.9748579,45.86815825,22.94551931,96.18197237,-59.92606137,26.40157379,15.60690485,-362.5086638,46.06795012,,,,
872.3599994,3407,1.424175982,-125.3133568,-322.1252296,-310.349973,-1143.74444,-127.954289,0,-195.0988882,-69.01296844,14.9382143,210.7500585,178.6105501,-4.948225354,-104.9494764,284.9752114,46.05640945,,,,
872.3679994,3407,1.419814967,-17.44912216,-80.26313506,-139.0430087,-913.0706046,46.93288121,0,15.54238249,-19.54177598,-143.8226917,-529.0243326,-414.8899568,-110.9583318,52.22763965,-1017.367374,46.04374988,,,,
872.3759994,3407,1.415434841,11.66433154,192.3006212,150.7492352,-370.1039797,-13.38433164,0,98.28226651,21.9896984,115.0412035,516.6435356,283.1731384,86.32856861,-77.34471739,346.1805095,46.02997715,,,,
872.3839994,3407,1.411035786,-157.0002328,-519.2673227,-492.927624,-1563.466167,-75.81217419,0,-267.2041306,-83.59351686,-136.02783,-441.693639,-256.0195226,-123.9635003,-7.607504219,-648.746357,46.01509651,,,,
872.3919994,3407,1.406617987,86.75057009,358.4980889,269.6951441,-208.7301912,102.8898829,0,239.9801404,55.74916083,24.75851436,86.7289882,-63.8043259,21.37143383,24.34413849,-450.9133992,45.99911189,,,,
872.3999994,3407,1.402181627,-124.6842877,-299.5483923,-254.3875608,-1142.363608,-108.2195683,0,-170.73734,-59.33512291,33.27238997,233.1956824,204.7895899,4.401256608,-93.29695612,254.9409243,45.98202774,,,,
872.4079994,3407,1.397726888,-18.68871528,-57.36424789,-94.30903752,-884.5158125,55.4293979,0,34.65139334,-16.90013045,-132.9247397,-503.8043307,-392.7969567,-108.165699,55.55529441,-1010.411491,45.96384927,,,,
872.4159994,3407,1.393253955,14.72387349,250.8829845,236.275949,-250.3819019,-7.973584799,0,149.6716308,18.12479099,121.082946,555.2625802,317.4714779,85.45864585,-85.05387688,422.2422348,45.94458168,,,,
872.4239994,3407,1.38876301,-157.8214371,-449.6224409,-386.2916795,-1386.224959,-82.29047821,0,-204.6594301,-99.63594179,-135.7637765,-393.5782588,-198.4955345,-125.4585661,-24.62212533,-468.4112093,45.92422753,,,,
872.4319994,3407,1.384254235,87.83498565,411.9191742,344.2667759,-35.93471488,93.4222468,0,271.292392,53.25377431,17.91711297,120.67042,-37.37879121,20.99875655,21.21623234,-261.7552999,45.90279305,,,,
872.4399994,3407,1.379727813,-120.3270223,-232.1830909,-161.1392136,-925.2145276,-108.7927029,0,-126.6666554,-58.81616916,28.3068358,271.5891151,226.7617093,8.458095101,-94.957839,471.0432345,45.8802833,,,,
872.4479994,3408,1.375183925,-18.62775522,11.1040844,15.97715832,-639.8943191,53.66272912,0,88.46976882,-31.96618363,-141.0525965,-465.2690962,-347.2102732,-107.6951527,45.40731665,-723.0261672,45.856702,,,,
872.4559994,3408,1.370622753,21.43486275,298.1706813,309.8347951,-39.47336866,-4.503422251,0,172.2982611,21.2068879,115.3481546,580.440689,339.2206269,89.12693683,-74.66668668,695.2265434,45.8320541,,,,
872.4639994,3408,1.366044478,-148.5320311,-409.5501532,-320.4318699,-1188.814365,-68.51733549,0,-183.3780869,-83.26893591,-129.3442171,-371.0151316,-195.2222061,-113.2229826,-5.594295904,-228.3354896,45.80634458,,,,
872.4719994,3408,1.361449282,86.74821965,449.0827149,429.7824009,168.2149609,102.3840794,0,305.3779632,50.51675569,25.23843134,139.4587095,-14.50280914,24.42559224,19.42817142,2.671482943,45.77957799,,,,
872.4799994,3408,1.356837346,-117.3916691,-216.828533,-106.2135663,-764.1938924,-103.0670333,0,-124.3549786,-58.47781169,34.63090883,277.332607,245.3905767,4.637047098,-98.13357316,732.3581357,45.75175831,,,,
872.4879994,3408,1.35220885,-5.923876663,21.7775631,52.51292257,-505.2480581,68.06249924,0,76.76105764,-9.940997536,-127.3736074,-461.595829,-347.867493,-98.17365128,58.32488834,-508.8201877,45.72289213,,,,
872.4959994,3408,1.347563974,27.21251009,327.0110635,373.5665268,125.1186388,6.884158881,0,181.084399,40.91643828,132.7016387,596.8367693,351.3304917,102.9676842,-67.66043326,912.5653463,45.69298296,,,,
872.5039994,3408,1.3429029,-149.3064202,-376.8340808,-245.8399097,-1005.050606,-66.06120604,0,-165.6937997,-84.46081826,-116.7446647,-357.7852712,-165.8975029,-115.8203571,-17.40520799,29.55713728,45.66203575,,,,
872.5119994,3408,1.338225806,92.28454594,485.1668657,504.9650704,369.396735,105.6727171,0,328.3520102,41.4592274,36.84859819,149.319825,16.50376999,17.50944805,9.080157638,283.0576325,45.63005528,,,,
872.5199994,3408,1.333532871,-115.2671972,-175.0528522,-26.05935423,-542.0649568,-104.2063671,0,-95.59921427,-63.5693608,46.18306747,295.3703063,274.4819017,2.099414522,-96.31000232,1025.861126,45.59704559,,,,
872.5279994,3408,1.328824276,-8.056269144,61.48329156,131.8851698,-273.8053483,61.17696525,0,109.1174996,-21.7324166,-127.4496583,-452.1052089,-324.5842032,-111.3085271,57.08243289,-205.0600595,45.56301294,,,,
872.5359994,3408,1.324100199,26.41119714,359.5038413,442.6929333,356.5795897,-2.436208241,0,211.9723128,28.81977672,130.8749253,605.4111761,372.6677755,89.00869784,-67.98301649,1230.521142,45.52796047,,,,
872.5439994,3408,1.319360819,-155.7525281,-349.4522697,-184.9114524,-777.0767022,-77.47368464,0,-136.1717509,-89.67754298,-118.1516108,-348.2553999,-150.3209128,-118.8367003,-10.77828591,344.1872608,45.49189388,,,,
872.5519994,3408,1.314606314,84.95869231,518.9996798,571.1640047,615.8120386,98.14184794,0,368.0504419,36.36148517,28.53021862,153.1827772,27.28253673,18.51933783,7.630587816,599.1875134,45.454819,,,,
872.5599994,3408,1.309836862,-125.2845481,-142.2176535,38.72288303,-279.3872177,-111.9170899,0,-50.55984126,-64.16411001,46.36421901,303.6044305,290.0715164,6.825364894,-101.831453,1366.473095,45.41673926,,,,
872.5679994,3408,1.30505264,-26.32024817,94.99604163,204.7791774,7.724491321,46.18566041,0,157.8766746,-30.42704113,-127.7838146,-449.7741573,-307.3478928,-109.4200318,42.05116911,156.8511269,45.3776591,,,,
872.5759994,3408,1.300253827,15.81846797,400.6874897,532.7178902,665.1412618,-17.04361314,0,264.2394489,13.50538278,121.3754341,607.8512392,394.7571974,85.44272569,-101.9215459,1629.440564,45.33758355,,,,
872.5839994,3408,1.2954406,-153.7680962,-317.1169527,-111.6421343,-478.82039,-87.39204394,0,-96.79463635,-83.27720468,-120.2197132,-337.2930337,-132.8930103,-118.250245,-31.49385154,753.3277267,45.29651808,,,,
872.5919994,3408,1.290613134,85.17886404,550.0602127,640.7096599,910.3491969,84.87075485,0,403.9350155,47.22441305,26.38980805,166.1312573,37.6236839,21.55707371,3.292167976,1004.521142,45.25446749,,,,
872.5999994,3408,1.285771607,-128.0992295,-105.9205724,133.0774493,27.09416884,-126.2322854,0,-2.554594123,-67.16750461,34.76621627,317.0353908,305.0367365,4.004769263,-114.4453178,1791.242834,45.21143711,,,,
872.6079994,3408,1.280916195,-21.85219444,116.3012585,277.7982913,286.548917,39.43220951,0,192.8014976,-27.04768156,-136.8919459,-440.6372792,-299.082218,-112.2782573,32.25553309,572.2560244,45.16743089,,,,
872.6159994,3408,1.276047073,31.15567897,413.1097693,578.4880995,912.9660419,-11.57052284,0,280.6350587,26.82948483,122.2210572,619.8350682,395.6982103,93.27264887,-95.29051078,2022.82656,45.12245355,,,,
872.6239994,3408,1.271164418,-142.7376201,-301.8197134,-46.47197567,-237.7528535,-75.70606209,0,-73.11165565,-73.65603047,-111.982553,-328.9952023,-129.1949322,-108.306323,-19.66379067,1129.637682,45.07651033,,,,
872.6319994,3408,1.266268403,90.27332054,552.8984246,699.0768117,1124.450238,92.92530971,0,416.6068908,49.48640378,35.52433484,160.6697059,40.8963784,22.1892856,5.501693066,1364.230168,45.02960564,,,,
872.6399994,3408,1.261359205,-117.8346461,-114.4386909,171.7700104,206.2139849,-118.840058,0,-6.809329811,-67.44168596,44.0849544,307.181961,307.7775509,1.537128044,-114.42873,2128.881826,44.98174553,,,,
872.6479994,3408,1.256436997,-18.84414252,113.0880001,332.8637619,462.0892196,41.27015559,0,197.2417476,-33.4005511,-124.9654741,-456.474528,-293.0501755,-115.8313963,35.63958255,884.8713979,44.93293357,,,,
872.6559994,3408,1.251501954,24.14443767,405.7420812,637.7165878,1077.631325,-18.81322493,0,283.5883511,7.688307934,131.5182165,598.6016712,406.8162876,82.65234968,-101.5331685,2339.200611,44.8831749,,,,
872.6639994,3408,1.24655425,-139.6395133,-321.5611287,-5.065404122,-110.746834,-80.09818372,0,-85.29049816,-87.6486824,-108.1756858,-352.8681599,-122.7863134,-117.4537773,-25.16782351,1425.516458,44.83247609,,,,
872.6719994,3408,1.241594057,107.6179791,532.672243,731.5621216,1220.262308,97.78195891,0,397.0470189,56.93725539,42.90720932,141.2230338,35.13622694,25.06204723,15.38785051,1604.871204,44.78083978,,,,
872.6799994,3408,1.236621549,-100.6330651,-142.26903,198.4816359,261.9193816,-106.7275901,0,-30.51438218,-55.57011686,55.1543957,289.5800653,299.0075928,8.346071246,-100.6302324,2331.231684,44.72827131,,,,
872.6879994,3408,1.231636899,-3.420611419,76.91916625,353.1288841,479.3526324,58.07939664,0,171.8513158,-23.14930292,-117.2383864,-484.6633152,-302.9283097,-111.2093116,51.74139796,1043.154504,44.67477671,,,,
872.6959994,3408,1.226640279,33.19189576,361.9280196,648.3309667,1061.126452,-8.478145914,0,254.1600169,13.67126938,135.0470601,562.8784283,392.1016343,81.69937894,-89.45795134,2449.027053,44.62035945,,,,
872.7039994,3409,1.221631862,-148.275037,-388.4698238,-22.78484547,-188.4458954,-83.90948774,0,-131.9147299,-93.11580822,-114.9842154,-404.7942846,-149.8883136,-129.8229223,-22.59401384,1478.035655,44.56502592,,,,
872.7119994,3409,1.216611818,91.18966648,464.4030492,701.1869887,1111.622607,87.82099706,0,349.8623899,59.05000013,29.99159639,87.51511753,-0.953700088,14.70453969,24.70972685,1598.635101,44.50877967,,,,
872.7199994,3409,1.21158032,-121.0034798,-214.9326443,154.7432529,120.6929648,-125.4120616,0,-82.47077108,-52.19563254,39.06809995,242.0571362,266.5740181,3.032607643,-94.55335739,2290.930751,44.45162537,,,,
872.7279994,3409,1.206537537,-20.1921814,-9.908314473,278.8901404,284.5607695,37.01527202,0,100.9048453,-19.45035827,-135.4037687,-538.0560624,-342.2914338,-116.1642934,57.93769697,944.3815088,44.39357064,,,,
872.7359994,3409,1.201483642,25.40503459,292.3352044,586.9569027,866.6042426,-23.3594656,0,198.7280568,34.54180075,125.0966995,526.5501508,351.5466102,86.94363346,-66.73672465,2296.629965,44.33461865,,,,
872.7439994,3409,1.196418803,-157.6071065,-449.7893545,-71.29166165,-380.3437316,-104.2677249,0,-178.2765527,-84.73518005,-123.5553404,-434.0719003,-171.8545366,-124.1027965,-13.77887784,1323.970788,44.27477296,,,,
872.7519994,3409,1.19134319,88.0807444,399.4460379,632.0448395,905.6544143,69.62136461,0,289.8609059,56.2241848,24.18644496,54.92213523,-21.55389483,14.78913565,20.82425049,1428.901448,44.21403993,,,,
872.7599994,3409,1.186256974,-114.2227578,-276.2602572,76.8197793,-91.16543496,-132.5318497,0,-142.4629514,-42.68714572,44.45082237,220.2475755,233.5667117,3.605372941,-84.42796711,2082.973435,44.15242472,,,,
872.7679994,3409,1.181160323,-12.88747934,-54.13224014,218.8966746,94.4318048,37.16938396,0,60.11478715,-13.99597347,-124.4641494,-551.1286315,-366.230691,-117.2798866,67.91573794,738.9856814,44.08993189,,,,
872.7759994,3409,1.176053406,36.75170399,261.112122,524.8961058,690.5162193,-16.35352722,0,161.2522837,41.90840862,140.5330541,529.0734677,339.4847037,90.5520181,-55.75620959,2114.8943,44.02656645,,,,
872.7839994,3409,1.170936392,-140.3407853,-482.47751,-157.4269947,-572.6407893,-91.52689569,0,-226.4467111,-62.14696558,-105.3129297,-426.8113938,-195.648331,-111.5933387,12.09139175,1120.156285,43.96233308,,,,
872.7919994,3409,1.165809447,95.54104482,392.4290522,576.4117409,761.1970384,81.85519831,0,272.3435873,70.95557141,40.16610069,65.42659521,-35.84775263,29.16288262,43.80472064,1232.777247,43.89723708,,,,
872.7999994,3409,1.160672739,-121.4938278,-270.9509409,48.73439875,-191.3898248,-134.032296,0,-143.9757711,-46.76226687,51.59518225,237.863916,248.0445192,13.72449529,-80.46382309,1952.900736,43.83128362,,,,
872.8079994,3409,1.155526436,-23.17908153,-48.53866442,191.5251501,9.011111639,30.35575348,0,53.82141782,-18.58986712,-126.3055359,-539.5324993,-356.4790526,-107.5903248,62.795243,627.4388959,43.76447634,,,,
872.8159994,3409,1.150370705,24.08001034,283.1663658,524.4538954,651.4681994,-17.01543813,0,178.2334861,34.21845473,136.7503076,542.5308772,348.3184656,100.3339102,-62.52903519,2023.627027,43.69682141,,,,
872.8239994,3409,1.145205711,-156.5174018,-466.6092364,-146.0221755,-591.8591123,-94.14445311,0,-203.8648188,-83.51656172,-113.4775726,-416.761059,-172.2534219,-111.7298825,1.512901756,1075.960337,43.62832372,,,,
872.8319994,3409,1.140031621,85.91613027,404.3381489,586.0440425,748.7941259,84.078766,0,288.1095662,52.6391676,32.397401,70.34819926,-17.6273059,23.48683888,38.09390425,1202.784505,43.55898773,,,,
872.8399994,3409,1.134848599,-125.6464234,-262.7407879,51.13978725,-208.847066,-122.1560192,0,-129.422111,-51.92111805,55.87439516,244.4558802,255.4340964,11.26282387,-68.71864048,1914.382512,43.48881913,,,,
872.8479994,3409,1.129656812,-29.31021919,-56.63402177,174.0291841,-28.5403177,41.28241617,0,57.22227181,-20.80657451,-121.3235473,-542.0030186,-360.3969996,-112.407027,84.62301882,567.5645724,43.41782146,,,,
872.8559994,3409,1.124456423,18.09701017,261.3144396,486.712845,591.798551,-15.04213939,0,160.085517,33.12729651,134.5616636,537.5415873,331.6855044,92.98070909,-48.56063026,1946.704991,43.346002,,,,
872.8639994,3409,1.119247598,-166.9275946,-503.0089499,-199.0066851,-685.2557152,-102.4095982,0,-235.4316576,-80.41126793,-117.4189637,-430.8613955,-204.9239427,-120.1839869,10.34136575,958.7963647,43.27336418,,,,
872.8719994,3409,1.114030499,77.2278034,366.9357131,532.8791813,645.4314127,77.98128368,0,258.966209,53.4737633,22.61893145,43.06337474,-59.15580712,11.99435253,43.74811659,1049.592986,43.19991241,,,,
872.8799994,3409,1.10880529,-123.824945,-303.7660718,-11.25189686,-328.2228497,-129.290691,0,-169.7828966,-53.72173139,42.29344215,218.9030988,218.9514295,1.855457195,-73.57312898,1758.823018,43.12565356,,,,
872.8879994,3409,1.103572135,-27.01361462,-96.36104343,98.37052559,-157.4062947,22.81600028,0,7.576341972,-18.04993831,-135.3179776,-566.7728864,-407.3554168,-119.896609,76.54639103,382.094843,43.05059058,,,,
872.8959994,3409,1.098331195,23.18096516,251.1296331,425.8530456,512.37044,-28.64159788,0,129.1029727,42.13450277,121.7330025,534.6862601,282.6325469,89.86440557,-53.89269179,1766.541341,42.97472928,,,,
872.9039994,3409,1.093082633,-157.0969841,-487.2483758,-234.7650298,-711.1705777,-106.9565907,0,-242.1487145,-72.35682989,-125.6754068,-406.166508,-230.002038,-112.7475895,3.774618957,845.331169,42.89807549,,,,
872.9119994,3409,1.087826611,89.88679776,385.036864,502.4734955,625.2225369,71.2050587,0,257.8223362,60.93339581,16.40300442,71.57878967,-69.30446129,25.97255207,36.89311096,978.9646289,42.82063315,,,,
872.9199994,3409,1.08256329,-108.370948,-304.2776138,-55.37199511,-387.4961645,-133.4313906,0,-184.48649,-34.54185835,37.6450192,236.3895088,205.10685,15.2093272,-69.93202386,1670.564262,42.7424081,,,,
872.9279994,3409,1.07729283,-13.07422675,-120.9167074,41.14109708,-270.254273,25.25204001,0,-16.94670198,-1.042114993,-142.7371549,-576.5435298,-428.5433317,-111.9814036,86.66930994,238.3253425,42.66340374,,,,
872.9359994,3409,1.072015393,37.66003269,198.0057566,348.7908316,317.8396429,-26.76789769,0,92.17282048,42.51664106,111.540075,496.8649264,261.522927,92.28863688,-45.71722128,1558.411033,42.58362589,,,,
872.9439994,3409,1.066731138,-142.9874724,-573.0218219,-344.746145,-1006.51425,-104.9357507,0,-307.1581864,-71.75867314,-133.8239436,-472.7269722,-263.1061993,-118.2409076,17.45254708,527.3704121,42.5030804,,,,
872.9519994,3409,1.061440224,102.272492,299.5767476,384.1077703,296.5177031,78.57276932,0,184.076696,64.52538856,9.335122888,-1.43486804,-114.0475201,17.6645019,53.03450313,562.0346481,42.4217704,,,,
872.9599994,3410,1.056142812,-92.4252304,-373.3663803,-165.8795375,-717.7976348,-124.5465587,0,-250.1982835,-34.37912362,36.7063112,187.9650384,174.5694506,16.09855457,-53.52542254,1230.675054,42.33970323,,,,
872.9679994,3410,1.050839058,4.756712514,-181.8396766,-67.00005606,-603.0226574,33.28973879,0,-78.744575,2.566570253,-136.8387253,-610.6651731,-446.4602602,-104.5726263,103.6224695,-213.3856823,42.25688208,,,,
872.9759994,3410,1.045529122,56.75175787,152.8948886,253.5350878,12.01126271,-14.80581344,0,42.37962688,47.73669928,120.1483314,473.3624689,250.9654602,101.1277687,-38.49429204,1105.686695,42.17331223,,,,
872.9839994,3410,1.040213161,-119.0859429,-608.7492465,-434.3610353,-1302.364839,-89.1066174,0,-345.5041135,-64.70926901,-119.1533815,-482.8273347,-263.414906,-103.1561081,21.09486512,89.43937835,42.08899983,,,,
872.9919994,3410,1.034891333,116.6183668,266.9318704,296.0946919,12.11039198,85.77965909,0,153.2827849,77.53754853,23.69035292,-1.889950056,-115.0989549,36.96850807,53.46431435,129.4517996,42.00394801,,,,
872.9999994,3410,1.029563795,-93.58881538,-400.3323118,-238.538836,-973.4203914,-126.7919771,0,-267.8516776,-34.05996337,35.79421108,184.2548329,167.3285029,22.68530839,-74.4977266,813.0909019,41.91816229,,,,
873.0079994,3410,1.024230702,1.594770024,-206.572995,-129.63746,-849.0518753,31.35394811,0,-88.30812697,-10.67222924,-142.779959,-626.5430904,-451.3844676,-110.194261,73.24949313,-607.3829848,41.8316484,,,,
873.0159994,3410,1.01889221,50.74395739,119.8107539,176.5380078,-244.780884,-24.33266945,0,17.1960145,43.77556042,122.4923843,457.8940572,240.2546954,94.82210388,-58.99680902,715.3818478,41.74441203,,,,
873.0239994,3410,1.013548476,-130.7723839,-645.2808342,-517.1168118,-1559.670387,-100.5489978,0,-378.01068,-62.8303255,-117.3806707,-498.9970473,-289.3878556,-112.3455055,7.059393303,-323.8793293,41.6564564,,,,
873.0319994,3410,1.008199654,107.2126317,247.8029487,235.6665674,-215.578028,83.64412548,0,136.9500191,72.14678435,22.80112566,-12.62644073,-129.1976807,23.81155483,36.66995278,-269.673569,41.56778632,,,,
873.0399994,3410,1.002845898,-92.64816055,-418.2632425,-310.316579,-1206.12305,-125.8830773,0,-296.5126252,-32.26764561,43.15485172,186.9565137,166.5105409,12.10023248,-86.62364739,438.2381831,41.47840846,,,,
873.0479994,3410,0.997487363,14.81498312,-221.9844249,-215.2404843,-1091.416861,44.16301945,0,-126.2404427,13.97667825,-123.3680064,-615.386919,-463.3650373,-106.1945195,86.8033718,-1011.226941,41.38832699,,,,
873.0559994,3410,0.992124203,69.29589031,132.9276035,124.0932794,-442.7460935,-0.161491043,0,4.349526173,62.87542822,140.3685242,483.5914192,240.3487334,107.6996785,-39.56770684,330.5692456,41.29754667,,,,
873.0639994,3410,0.986756569,-111.6811019,-638.4295224,-578.6439775,-1756.668476,-89.32615325,0,-402.8145405,-58.76432098,-109.032935,-474.7350789,-276.4420433,-103.4696964,14.10648145,-666.0826079,41.20607231,,,,
873.0719994,3410,0.981384616,127.1327633,236.0231014,139.6926143,-431.7296037,84.92503166,0,85.60487944,83.37837844,29.55424483,1.77798884,-138.2887345,34.22016163,50.36612742,-639.100201,41.11390891,,,,
873.0799994,3410,0.976008494,-76.2228421,-413.7074791,-381.1045161,-1381.374845,-116.3056798,0,-324.0612578,-25.94195627,49.40901511,208.2534466,155.1589809,24.8075837,-73.8811093,67.19695825,41.02106166,,,,
873.0879994,3410,0.970628357,22.53714255,-208.4321345,-263.1255615,-1232.434909,53.73111017,0,-134.0320434,12.18268317,-121.7071944,-596.5115172,-458.6926756,-96.7469018,86.89854408,-1340.217844,40.92753637,,,,
873.0959994,3410,0.965244354,71.41663241,146.6959205,77.16094794,-563.8204036,6.859827949,0,-2.990122992,62.07619016,141.8514833,501.0522411,248.0276049,114.5024447,-38.5987855,29.86406748,40.83333714,,,,
873.1039994,3410,0.959856637,-112.920808,-606.5077761,-590.0644357,-1831.302891,-72.7733537,0,-381.7852793,-66.53591783,-104.0166174,-451.0202709,-260.4666934,-99.79536849,18.42195731,-934.4400868,40.73846769,,,,
873.1119994,3410,0.954465356,126.3343848,284.7717806,161.0276002,-465.0811624,103.6789374,0,128.8433596,72.06397725,36.67238619,20.1458311,-109.6304807,37.15667308,50.0657508,-859.4466155,40.64293546,,,,
873.1199994,3410,0.949070661,-80.35096725,-375.3906694,-370.2841422,-1412.045504,-112.5062432,0,-299.2725949,-38.14415274,55.16677143,221.2958679,186.5441493,27.14102708,-78.43731669,-109.8630066,40.54674497,,,,
873.1279994,3410,0.943672701,12.51562774,-183.8471617,-264.13629,-1266.574124,46.2544688,0,-125.2880282,1.579349794,-123.4200411,-585.7984144,-438.6579125,-99.93819989,78.85803245,-1513.729699,40.44989927,,,,
873.1359994,3410,0.938271624,66.33784619,176.0419707,82.65768928,-581.937853,2.774762603,0,10.12230347,64.66909594,138.3293309,516.1410289,260.517259,115.8923491,-48.17010052,-149.2028838,40.35240473,,,,
873.1439994,3410,0.932867579,-118.2299234,-588.6723417,-594.0132362,-1854.972657,-77.29977923,0,-380.1174823,-57.37424398,-105.0087028,-437.10177,-248.4813264,-93.5728097,13.54450806,-1107.73208,40.25426653,,,,
873.1519994,3410,0.927460714,114.3353311,289.6721052,149.2036393,-493.1359999,99.09638055,0,118.6934983,75.82852513,33.24767877,26.4582125,-100.5154468,37.6786202,45.66024122,-1036.383093,40.15548859,,,,
873.1599994,3410,0.922051176,-87.57699301,-360.8214505,-370.0709464,-1418.928752,-108.400278,0,-295.3462988,-39.84078351,50.29967434,230.3545542,198.4045451,31.24750586,-83.19855456,-279.0546761,40.05607643,,,,
873.1679994,3410,0.916639112,11.1667647,-165.8498513,-260.1808413,-1263.350837,50.40184774,0,-111.5754582,-6.703172676,-133.1429081,-579.5166326,-419.0495937,-92.04670907,77.84648987,-1665.477443,39.95603516,,,,
873.1759994,3410,0.911224667,60.24089818,195.3058135,92.98153337,-566.8673205,-0.663211523,0,24.65904993,51.33980775,122.8661271,523.9463563,292.5754914,118.4982795,-53.84515235,-275.926121,39.85536883,,,,
873.1839994,3410,0.905807989,-123.2564448,-558.8078965,-567.9057342,-1818.097783,-80.9430271,0,-352.6630561,-73.6268473,-123.8194995,-425.4378116,-211.5919726,-94.6276431,-1.370323189,-1205.95508,39.75408312,,,,
873.1919994,3410,0.900389222,117.3263334,331.5729249,190.5497754,-430.9119983,98.73295503,0,164.859398,60.5751787,16.08378967,42.27055291,-60.42018424,37.90253404,29.73860545,-1104.688166,39.65218416,,,,
873.1999994,3410,0.89496851,-82.90214295,-323.5257625,-333.0253662,-1354.215088,-108.8554044,0,-257.1151036,-46.99045435,43.20953274,255.9258508,239.2882881,31.95612025,-94.99859614,-317.2938751,39.54967561,,,,
873.2079994,3410,0.889545999,21.93384117,-140.0385521,-243.7984767,-1214.269629,59.64930778,0,-92.45084026,-6.450997311,-127.2975687,-561.0010441,-402.8572853,-92.36615685,77.86181853,-1713.71426,39.44656112,,,,
873.2159994,3411,0.884121832,77.64724583,231.2457417,114.5703576,-495.8994284,18.94842119,0,56.35935152,56.49422086,142.3292614,544.1463885,296.2795036,125.2503489,-39.02944015,-331.1292557,39.34284742,,,,
873.2239994,3411,0.878696152,-110.4488551,-521.7353381,-544.9266642,-1735.470679,-69.90302629,0,-315.9593773,-65.21231109,-102.0777971,-399.0992157,-203.3924413,-83.77879653,12.44984943,-1239.712552,39.23853938,,,,
873.2319994,3411,0.873269102,128.1242062,356.9735651,191.809974,-362.4399261,102.1711066,0,185.7512777,72.18068997,30.42183343,61.45623322,-61.59841869,46.73490524,45.85319747,-1138.767218,39.13363995,,,,
873.2399994,3411,0.867840823,-80.92858214,-290.18131,-324.5242009,-1261.684766,-107.2483976,0,-224.1400157,-34.44275766,50.73142295,278.8019674,237.1706619,43.62848878,-76.01338257,-349.9547319,39.02815603,,,,
873.2479994,3411,0.862411459,4.486702011,-94.56068585,-204.4879339,-1082.489646,52.53873859,0,-37.35714544,-3.408649295,-132.6083301,-540.9880218,-393.8895072,-82.54163344,73.67491216,-1718.513423,38.92209326,,,,
873.2559994,3411,0.85698115,58.36772712,268.2838096,152.2412172,-358.6701432,1.40366676,0,96.20779741,44.01764398,125.6114246,552.9641186,316.4429797,126.0850742,-66.93794129,-290.390127,38.81545542,,,,
873.2639994,3411,0.851550037,-121.5714169,-494.2222876,-527.3072292,-1606.426341,-88.58793399,0,-299.9912561,-79.62524139,-116.7674435,-394.9646381,-188.1655218,-84.01579126,-12.44227391,-1184.567966,38.70824663,,,,
873.2719994,3411,0.846118259,122.2497502,405.1932492,228.7930108,-207.3980091,97.16692971,0,217.3788053,70.41841592,27.7264664,69.15729351,-55.8620294,53.95754049,34.18880836,-1092.70917,38.60047163,,,,
873.2799994,3411,0.840685957,-80.43085737,-232.3188861,-267.4066535,-1088.631594,-107.374224,0,-181.7393216,-36.83332964,56.34233341,295.4892193,259.1180838,47.8357155,-87.96744402,-267.3965987,38.49213627,,,,
873.2879994,3411,0.83525327,8.835673819,-45.07389311,-150.962422,-914.9884542,48.64371513,0,-4.627029748,-9.531398874,-124.5498365,-522.0179123,-364.1328589,-84.36617019,65.46937614,-1604.160112,38.38324591,,,,
873.2959994,3411,0.829820335,62.42762945,325.3782163,214.9263647,-175.7050623,3.635766848,0,137.7209311,55.31293961,140.6372464,579.7283244,338.2146077,132.27655,-59.79894089,-174.0050952,38.27380505,,,,
873.3039994,3411,0.824387292,-127.8871142,-448.6140114,-464.7929582,-1422.987549,-89.06822292,0,-257.4105696,-72.01160277,-104.7277865,-372.4315361,-169.2482127,-79.56982617,-8.802613719,-1058.84549,38.16381775,,,,
873.3119994,3411,0.818954278,104.3508076,430.9302448,286.7584845,-26.90648154,83.72867085,0,252.3663692,45.62314863,25.19285819,68.84220457,-42.34466242,42.43652876,21.1448742,-953.0539249,38.05328967,,,,
873.3199994,3411,0.81352143,-100.5626293,-217.2108718,-218.6452301,-908.0037832,-126.033902,0,-155.8185558,-64.96680489,47.3774048,283.2531035,264.2964064,32.05214643,-104.3065385,-124.7744697,37.94222579,,,,
873.3279994,3411,0.808088884,-3.358004144,-45.05947998,-127.3472301,-757.3693937,34.55141552,0,2.542861674,-25.37450251,-133.2684979,-542.8882528,-370.4383286,-99.47547089,52.32718355,-1481.242314,37.83063031,,,,
873.3359994,3411,0.802656776,54.97552746,324.441897,238.0723131,-23.45761596,-7.130126115,0,142.6917003,37.12900018,136.5237272,560.2531846,326.2879258,114.5239542,-71.55593561,-61.80678951,37.7185079,,,,
873.3439994,3411,0.797225242,-138.6887599,-445.1356409,-432.44121,-1267.972287,-100.0652886,0,-247.8337612,-81.76028833,-108.8231637,-382.7757191,-180.8608934,-95.65474178,-13.99748271,-948.849608,37.60586432,,,,
873.3519994,3411,0.791794417,103.398665,436.7752426,313.5079764,120.5836675,81.39756415,0,257.2186972,54.10016838,20.20302024,67.54420893,-52.01169657,32.2020188,23.14576032,-846.4822828,37.49270351,,,,
873.3599994,3411,0.786364434,-91.08663559,-204.024816,-189.8233434,-760.5936285,-115.2863617,0,-147.789546,-49.83263205,56.02314504,300.1515972,261.9283365,29.84662822,-93.34033782,-7.916368999,37.37903092,,,,
873.3679994,3411,0.780935428,-8.456149048,-30.48048336,-89.68908387,-602.9064477,43.23901927,0,22.90338932,-17.06887653,-123.5210204,-526.3543421,-371.3053461,-100.3473511,68.81784186,-1362.974308,37.26485278,,,,
873.3759994,3411,0.775507532,40.02488355,328.1017869,264.6826488,126.2113381,-10.37619569,0,158.7624644,31.12528295,129.1271901,561.2026443,323.5782166,106.349648,-65.7684255,59.38422059,37.15017109,,,,
