Time:125Hz,Epoch,FP1,FP2,C3,C4,P7,P8,O1,O2,F7,F8,F3,F4,T7,T8,P3,P4,,,,
734.6479995,2869,0,112.8025309,3.76E-06,-3.18E-06,0,0,0,0,0,-38.73306306,0,0,0,-3.13E-06,0,0,,,,
734.6559995,2869,0,-352.191601,3.46E-06,-3.15E-06,0,0,0,0,0,51.12709841,0,0,0,-3.10E-06,0,0,,,,
734.6639995,2869,0,130.5768569,3.64E-06,-3.12E-06,0,0,0,0,0,-92.39667278,0,0,0,-3.07E-06,0,0,,,,
734.6719995,2869,0,-128.2379941,3.46E-06,-3.09E-06,0,0,0,0,0,141.3588334,0,0,0,-3.04E-06,0,0,,,,
734.6799995,2869,0,-414.3479475,3.52E-06,-3.06E-06,0,0,0,0,0,-230.4199766,0,0,0,-3.01E-06,0,0,,,,
734.6879995,2869,0,412.3900039,3.44E-06,-3.03E-06,0,0,0,0,0,147.198073,0,0,0,-2.98E-06,0,0,,,,
734.6959995,2869,0,-673.3298905,3.43E-06,-3.00E-06,0,0,0,0,0,-29.37998494,0,0,0,-2.95E-06,0,0,,,,
734.7039995,2869,0,239.4558481,3.39E-06,-2.98E-06,0,0,0,0,0,-140.8210798,0,0,0,-2.92E-06,0,0,,,,
734.7119995,2869,0,-81.49270204,3.36E-06,-2.95E-06,0,0,0,0,0,248.4160187,0,0,0,-2.90E-06,0,0,,,,
734.7199995,2870,0,-445.4275392,3.33E-06,-2.92E-06,0,0,0,0,0,-301.5803122,0,0,0,-2.87E-06,0,0,,,,
734.7279995,2870,0,519.9227796,3.30E-06,-2.89E-06,0,0,0,0,0,194.0209742,0,0,0,9.74E-07,0,0,,,,
734.7359995,2870,0,-723.1650294,3.27E-06,-2.86E-06,0,0,0,0,0,-51.27600405,0,0,0,4.60E-06,0,0,,,,
734.7439995,2870,0,316.0638271,3.24E-06,-2.84E-06,0,0,0,0,0,-140.8887613,0,0,0,3.44E-06,0,0,,,,
734.7519995,2870,0,-102.8770335,3.21E-06,-2.81E-06,0,0,0,0,0,270.5833577,0,0,0,3.51E-06,0,0,,,,
734.7599995,2870,0,-502.0312324,3.18E-06,1.03E-06,0,0,0,0,0,-345.4056648,0,0,0,3.70E-06,0,0,,,,
734.7679995,2870,0,513.560559,3.15E-06,4.66E-06,0,0,0,0,0,206.3016585,0,0,0,3.40E-06,0,0,,,,
734.7759995,2870,0,-806.621684,3.12E-06,3.50E-06,0,0,0,0,0,-70.28890806,0,0,0,3.58E-06,0,0,,,,
734.7839995,2870,0,280.8606379,3.09E-06,3.56E-06,0,0,0,0,0,-161.2049921,0,0,0,3.41E-06,0,0,,,,
734.7919995,2870,0,-129.9524986,3.06E-06,3.76E-06,0,0,0,0,0,274.8636677,0,0,0,3.46E-06,0,0,,,,
734.7999995,2870,0,-547.9170816,3.03E-06,3.46E-06,0,0,0,0,0,-362.5175774,0,0,0,3.38E-06,0,0,,,,
734.8079995,2870,0,519.4037495,3.00E-06,3.64E-06,0,0,0,0,0,198.0399565,0,0,0,3.38E-06,0,0,,,,
734.8159995,2870,0,-823.5737234,2.98E-06,3.46E-06,0,0,0,0,0,-71.04479593,0,0,0,3.33E-06,0,0,,,,
734.8239995,2870,0,248.8098848,2.95E-06,3.52E-06,0,0,0,0,0,-174.7110577,0,0,0,3.31E-06,0,0,,,,
734.8319995,2870,0,-138.6987776,2.92E-06,3.44E-06,0,0,0,0,0,277.1394416,0,0,0,3.28E-06,0,0,,,,
734.8399995,2870,0,-581.8739268,2.89E-06,3.43E-06,0,0,0,0,0,-358.1857799,0,0,0,3.25E-06,0,0,,,,
734.8479995,2870,0,527.3635258,2.86E-06,3.39E-06,0,0,0,0,0,207.4405469,0,0,0,3.22E-06,0,0,,,,
734.8559995,2870,0,-835.878765,2.84E-06,3.36E-06,0,0,0,0,0,-49.06802331,0,0,0,3.19E-06,0,0,,,,
734.8639995,2870,0,190.0308176,2.81E-06,3.33E-06,0,0,0,0,0,-182.0209788,0,0,0,3.16E-06,0,0,,,,
734.8719995,2870,0,-156.3526433,-1.03E-06,3.30E-06,0,0,0,0,0,279.7080936,0,0,0,3.13E-06,0,0,,,,
734.8799995,2870,0,-615.1038241,-4.66E-06,3.27E-06,0,0,0,0,0,-347.9626707,0,0,0,3.10E-06,0,0,,,,
734.8879995,2870,0,528.192726,-3.50E-06,3.24E-06,0,0,0,0,0,208.1931918,0,0,0,3.07E-06,0,0,,,,
734.8959995,2870,0,-820.1969249,-3.56E-06,3.21E-06,0,0,0,0,0,-32.83722403,0,0,0,3.04E-06,0,0,,,,
734.9039995,2870,0,208.0539756,-3.76E-06,3.18E-06,0,0,0,0,0,-168.4727681,0,0,0,3.01E-06,0,0,,,,
734.9119995,2870,0,-97.64403244,-3.46E-06,3.15E-06,0,0,0,0,0,304.7730682,0,0,0,2.98E-06,0,0,,,,
734.9199995,2870,0,-623.3207923,-3.64E-06,3.12E-06,0,0,0,0,0,-340.4744233,0,0,0,2.95E-06,0,0,,,,
734.9279995,2870,0,495.8280291,-3.46E-06,3.09E-06,0,0,0,0,0,190.2096989,0,0,0,2.92E-06,0,0,,,,
734.9359995,2870,0,-877.3897341,-3.52E-06,3.06E-06,0,0,0,0,0,-46.54070372,0,0,0,2.90E-06,0,0,,,,
734.9439995,2870,0,154.2493651,-3.44E-06,3.03E-06,0,0,0,0,0,-183.8166054,0,0,0,2.87E-06,0,0,,,,
734.9519995,2870,0,-80.77941886,-3.43E-06,3.00E-06,0,0,0,0,0,321.4367602,0,0,0,-9.74E-07,0,0,,,,
734.9599995,2870,0,-642.2100189,-3.39E-06,2.98E-06,0,0,0,0,0,-325.9399608,0,0,0,-4.60E-06,0,0,,,,
734.9679995,2870,0,520.4797969,-3.36E-06,2.95E-06,0,0,0,0,0,207.5457496,0,0,0,-3.44E-06,0,0,,,,
734.9759995,2871,0,-831.508163,-3.33E-06,2.92E-06,0,0,0,0,0,-6.839806784,0,0,0,-3.51E-06,0,0,,,,
734.9839995,2871,0,-90.34312774,-3.30E-06,2.89E-06,0,0,0,0,0,-421.2048773,0,0,0,-3.70E-06,0,0,,,,
734.9919995,2871,0,-12.53806656,-3.27E-06,2.86E-06,0,0,0,0,0,126.8578235,0,0,0,-3.40E-06,0,0,,,,
734.9999995,2871,0,-387.9777211,-3.24E-06,2.84E-06,0,0,0,0,0,-30.41149218,0,0,0,-3.58E-06,0,0,,,,
735.0079995,2871,0,93.64015681,-3.21E-06,2.81E-06,0,0,0,0,0,86.4371522,0,0,0,-3.41E-06,0,0,,,,
735.0159995,2871,0,-521.0902669,-3.18E-06,-1.03E-06,0,0,0,0,0,-115.308823,0,0,0,-3.46E-06,0,0,,,,
735.0239995,2871,0,194.2369541,-3.15E-06,-4.66E-06,0,0,0,0,0,71.77612514,0,0,0,-3.38E-06,0,0,,,,
735.0319995,2871,0,-526.6744971,-3.12E-06,-3.50E-06,0,0,0,0,0,22.68589696,0,0,0,-3.38E-06,0,0,,,,
735.0399995,2871,0,-105.4451078,-3.09E-06,-3.56E-06,0,0,0,0,0,-148.4773928,0,0,0,-3.33E-06,0,0,,,,
735.0479995,2871,0,5.698653825,-3.06E-06,-3.76E-06,0,0,0,0,0,246.0092452,0,0,0,-3.31E-06,0,0,,,,
735.0559995,2871,0,-673.2816185,-3.03E-06,-3.46E-06,0,0,0,0,0,-256.1239256,0,0,0,-3.28E-06,0,0,,,,
735.0639995,2871,0,407.0172999,-3.00E-06,-3.64E-06,0,0,0,0,0,133.3085328,0,0,0,-3.25E-06,0,0,,,,
735.0719995,2871,0,-698.2604449,-2.98E-06,-3.46E-06,0,0,0,0,0,34.30475847,0,0,0,-3.22E-06,0,0,,,,
735.0799995,2871,0,4.118934257,-2.95E-06,-3.52E-06,0,0,0,0,0,-192.1779976,0,0,0,-3.19E-06,0,0,,,,
735.0879995,2871,0,-26.04064929,-2.92E-06,-3.44E-06,0,0,0,0,0,306.1057521,0,0,0,-3.16E-06,0,0,,,,
735.0959995,2871,0,-725.0893667,-2.89E-06,-3.43E-06,0,0,0,0,0,-293.2588031,0,0,0,-3.13E-06,0,0,,,,
735.1039995,2871,0,517.2065808,-2.86E-06,-3.39E-06,0,0,0,0,0,163.7076884,0,0,0,-3.10E-06,0,0,,,,
735.1119995,2871,0,-745.1721249,-2.84E-06,-3.36E-06,0,0,0,0,0,48.1665996,0,0,0,-3.07E-06,0,0,,,,
735.1199995,2871,0,84.34084308,-2.81E-06,-3.33E-06,0,0,0,0,0,-533.2462342,0,0,0,-3.04E-06,0,0,,,,
735.1279995,2871,0,525.1063301,1.03E-06,-3.30E-06,0,0,0,0,0,174.9042792,0,0,0,-3.01E-06,0,0,,,,
735.1359995,2871,0,-757.2428972,4.66E-06,-3.27E-06,0,0,0,0,0,105.315879,0,0,0,-2.98E-06,0,0,,,,
735.1439995,2871,0,-57.91310126,3.50E-06,-3.24E-06,0,0,0,0,0,-147.4463991,0,0,0,-2.95E-06,0,0,,,,
735.1519995,2871,0,-13.77407995,3.56E-06,-3.21E-06,0,0,0,0,0,82.23219979,0,0,0,-2.92E-06,0,0,,,,
735.1599995,2871,0,-317.7164656,3.76E-06,-3.18E-06,0,0,0,0,0,115.9424111,0,0,0,-2.90E-06,0,0,,,,
735.1679995,2871,0,-183.5801504,3.46E-06,-3.15E-06,0,0,0,0,0,-146.9653911,0,0,0,-2.87E-06,0,0,,,,
735.1759995,2871,0,96.32254229,3.64E-06,-3.12E-06,0,0,0,0,0,143.8657866,0,0,0,9.74E-07,0,0,,,,
735.1839995,2871,0,-481.4234982,3.46E-06,-3.09E-06,0,0,0,0,0,12.24244944,0,0,0,4.60E-06,0,0,,,,
735.1919995,2871,0,453.4594742,3.52E-06,-3.06E-06,0,0,0,0,0,-308.3654686,0,0,0,3.44E-06,0,0,,,,
735.1999995,2871,0,722.5498849,3.44E-06,-3.03E-06,0,0,0,0,0,328.408301,0,0,0,3.51E-06,0,0,,,,
735.2079995,2871,0,-1095.750981,3.43E-06,-3.00E-06,0,0,0,0,0,16.32236897,0,0,0,3.70E-06,0,0,,,,
735.2159995,2871,0,224.174581,3.39E-06,-2.98E-06,0,0,0,0,0,-172.4454757,0,0,0,3.40E-06,0,0,,,,
735.2239995,2871,0,289.4063895,3.36E-06,-2.95E-06,0,0,0,0,0,314.7112695,0,0,0,3.58E-06,0,0,,,,
735.2319995,2872,0,-754.3598464,3.33E-06,-2.92E-06,0,0,0,0,0,-107.3741495,0,0,0,3.41E-06,0,0,,,,
735.2399995,2872,0,490.7241102,3.30E-06,-2.89E-06,0,0,0,0,0,3.059300909,0,0,0,3.46E-06,0,0,,,,
735.2479995,2872,0,-271.8033262,3.27E-06,-2.86E-06,0,0,0,0,0,245.7087073,0,0,0,3.38E-06,0,0,,,,
735.2559995,2872,0,-317.5833455,3.24E-06,-2.84E-06,0,0,0,0,0,-218.0056588,0,0,0,3.38E-06,0,0,,,,
735.2639995,2872,0,550.255579,3.21E-06,-2.81E-06,0,0,0,0,0,210.8661511,0,0,0,3.33E-06,0,0,,,,
735.2719995,2872,0,-564.8076728,3.18E-06,1.03E-06,0,0,0,0,0,49.89520074,0,0,0,3.31E-06,0,0,,,,
735.2799995,2872,0,328.7002657,3.15E-06,4.66E-06,0,0,0,0,0,-113.1173945,0,0,0,3.28E-06,0,0,,,,
735.2879995,2872,0,144.6843255,3.12E-06,3.50E-06,0,0,0,0,0,351.407991,0,0,0,3.25E-06,0,0,,,,
735.2959995,2872,0,-438.4198983,3.09E-06,3.56E-06,0,0,0,0,0,-222.4676734,0,0,0,3.22E-06,0,0,,,,
735.3039995,2872,0,722.273708,3.06E-06,3.76E-06,0,0,0,0,0,176.9202501,0,0,0,3.19E-06,0,0,,,,
735.3119995,2872,0,-458.2523027,3.03E-06,3.46E-06,0,0,0,0,0,114.4502536,0,0,0,3.16E-06,0,0,,,,
735.3199995,2872,0,264.3763176,3.00E-06,3.64E-06,0,0,0,0,0,-169.2338239,0,0,0,3.13E-06,0,0,,,,
735.3279995,2872,0,277.7980067,2.98E-06,3.46E-06,0,0,0,0,0,380.0604758,0,0,0,3.10E-06,0,0,,,,
735.3359995,2872,0,-550.4782972,2.95E-06,3.52E-06,0,0,0,0,0,-235.5984873,0,0,0,3.07E-06,0,0,,,,
735.3439995,2872,0,743.1056642,2.92E-06,3.44E-06,0,0,0,0,0,163.4031449,0,0,0,3.04E-06,0,0,,,,
735.3519995,2872,0,-465.3353163,2.89E-06,3.43E-06,0,0,0,0,0,136.2348707,0,0,0,3.01E-06,0,0,,,,
735.3599995,2872,0,195.4879657,2.86E-06,3.39E-06,0,0,0,0,0,-193.9563958,0,0,0,2.98E-06,0,0,,,,
735.3679995,2872,0,348.1307723,2.84E-06,3.36E-06,0,0,0,0,0,396.0545458,0,0,0,2.95E-06,0,0,,,,
735.3759995,2872,0,-515.892996,2.81E-06,3.33E-06,0,0,0,0,0,-218.8454242,0,0,0,2.92E-06,0,0,,,,
735.3839995,2872,0,811.0290427,-1.03E-06,3.30E-06,0,0,0,0,0,172.8376846,0,0,0,2.90E-06,0,0,,,,
735.3919995,2872,0,-421.5748971,-4.66E-06,3.27E-06,0,0,0,0,0,146.3152026,0,0,0,2.87E-06,0,0,,,,
735.3999995,2872,0,210.5897627,-3.50E-06,3.24E-06,0,0,0,0,0,-212.415674,0,0,0,-9.74E-07,0,0,,,,
735.4079995,2872,0,425.7582208,-3.56E-06,3.21E-06,0,0,0,0,0,406.9874659,0,0,0,-4.60E-06,0,0,,,,
735.4159995,2872,0,-478.9161482,-3.76E-06,3.18E-06,0,0,0,0,0,-211.9243299,0,0,0,-3.44E-06,0,0,,,,
735.4239995,2872,0,872.6698473,-3.46E-06,3.15E-06,0,0,0,0,0,164.7243007,0,0,0,-3.51E-06,0,0,,,,
735.4319995,2872,0,-346.9867088,-3.64E-06,3.12E-06,0,0,0,0,0,160.7431343,0,0,0,-3.70E-06,0,0,,,,
735.4399995,2872,0,236.6455146,-3.46E-06,3.09E-06,0,0,0,0,0,-217.6142796,0,0,0,-3.40E-06,0,0,,,,
735.4479995,2872,0,958.3829992,-3.52E-06,3.06E-06,0,0,0,0,0,530.8706448,0,0,0,-3.58E-06,0,0,,,,
735.4559995,2872,0,184.6879557,-3.44E-06,3.03E-06,0,0,0,0,0,-244.4144246,0,0,0,-3.41E-06,0,0,,,,
735.4639995,2872,0,1253.549068,-3.43E-06,3.00E-06,0,0,0,0,0,-277.526494,0,0,0,-3.46E-06,0,0,,,,
735.4719995,2872,0,587.112197,-3.39E-06,2.98E-06,0,0,0,0,0,125.8376752,0,0,0,-3.38E-06,0,0,,,,
735.4799995,2872,0,350.7695583,-3.36E-06,2.95E-06,0,0,0,0,0,-63.8949659,0,0,0,-3.38E-06,0,0,,,,
735.4879995,2873,0,17.93797546,-3.33E-06,2.92E-06,0,0,0,0,0,271.5330794,0,0,0,-3.33E-06,0,0,,,,
735.4959995,2873,0,-70.96766462,-3.30E-06,2.89E-06,0,0,0,0,0,-126.2852824,0,0,0,-3.31E-06,0,0,,,,
735.5039995,2873,0,725.9238822,-3.27E-06,2.86E-06,0,0,0,0,0,157.8668161,0,0,0,-3.28E-06,0,0,,,,
735.5119995,2873,0,-379.9449313,-3.24E-06,2.84E-06,0,0,0,0,0,120.0583987,0,0,0,-3.25E-06,0,0,,,,
735.5199995,2873,0,387.6421004,-3.21E-06,2.81E-06,0,0,0,0,0,-174.9782306,0,0,0,-3.22E-06,0,0,,,,
735.5279995,2873,0,328.3414076,-3.18E-06,-1.03E-06,0,0,0,0,0,360.4753893,0,0,0,-3.19E-06,0,0,,,,
735.5359995,2873,0,-335.312292,-3.15E-06,-4.66E-06,0,0,0,0,0,-166.8734914,0,0,0,-3.16E-06,0,0,,,,
735.5439995,2873,0,830.6371456,-3.12E-06,-3.50E-06,0,0,0,0,0,134.7759129,0,0,0,-3.13E-06,0,0,,,,
735.5519995,2873,0,-306.933226,-3.09E-06,-3.56E-06,0,0,0,0,0,157.3848544,0,0,0,-3.10E-06,0,0,,,,
735.5599995,2873,0,259.7505411,-3.06E-06,-3.76E-06,0,0,0,0,0,-221.795742,0,0,0,-3.07E-06,0,0,,,,
735.5679995,2873,0,450.7515258,-3.03E-06,-3.46E-06,0,0,0,0,0,367.765357,0,0,0,-3.04E-06,0,0,,,,
735.5759995,2873,0,-439.8354479,-3.00E-06,-3.64E-06,0,0,0,0,0,-199.3709148,0,0,0,-3.01E-06,0,0,,,,
735.5839995,2873,0,872.3888088,-2.98E-06,-3.46E-06,0,0,0,0,0,120.4061436,0,0,0,-2.98E-06,0,0,,,,
735.5919995,2873,0,-250.4850177,-2.95E-06,-3.52E-06,0,0,0,0,0,183.9158199,0,0,0,-2.95E-06,0,0,,,,
735.5999995,2873,0,222.5209777,-2.92E-06,-3.44E-06,0,0,0,0,0,-237.3802858,0,0,0,-2.92E-06,0,0,,,,
735.6079995,2873,0,537.2757799,-2.89E-06,-3.43E-06,0,0,0,0,0,393.9944624,0,0,0,-2.90E-06,0,0,,,,
735.6159995,2873,0,-508.3111399,-2.86E-06,-3.39E-06,0,0,0,0,0,-191.6986025,0,0,0,-2.87E-06,0,0,,,,
735.6239995,2873,0,842.4883732,-2.84E-06,-3.36E-06,0,0,0,0,0,109.7904694,0,0,0,9.74E-07,0,0,,,,
735.6319995,2873,0,-235.8886597,-2.81E-06,-3.33E-06,0,0,0,0,0,211.7828351,0,0,0,4.60E-06,0,0,,,,
735.6399995,2873,0,211.6775073,1.03E-06,-3.30E-06,0,0,0,0,0,-220.8104123,0,0,0,3.44E-06,0,0,,,,
735.6479995,2873,0,601.3325915,4.66E-06,-3.27E-06,0,0,0,0,0,417.17356,0,0,0,3.51E-06,0,0,,,,
735.6559995,2873,0,-479.4876767,3.50E-06,-3.24E-06,0,0,0,0,0,-167.371803,0,0,0,3.70E-06,0,0,,,,
735.6639995,2873,0,882.8619363,3.56E-06,-3.21E-06,0,0,0,0,0,109.7525584,0,0,0,3.40E-06,0,0,,,,
735.6719995,2873,0,-206.8399617,3.76E-06,-3.18E-06,0,0,0,0,0,211.0370895,0,0,0,3.58E-06,0,0,,,,
735.6799995,2873,0,190.0520972,3.46E-06,-3.15E-06,0,0,0,0,0,-243.9412422,0,0,0,3.41E-06,0,0,,,,
735.6879995,2873,0,639.0863417,3.64E-06,-3.12E-06,0,0,0,0,0,404.1642022,0,0,0,3.46E-06,0,0,,,,
735.6959995,2873,0,-469.8266218,3.46E-06,-3.09E-06,0,0,0,0,0,-168.2776577,0,0,0,3.38E-06,0,0,,,,
735.7039995,2873,0,890.4948666,3.52E-06,-3.06E-06,0,0,0,0,0,91.1077043,0,0,0,3.38E-06,0,0,,,,
735.7119995,2873,0,-176.6953733,3.44E-06,-3.03E-06,0,0,0,0,0,207.6951436,0,0,0,3.33E-06,0,0,,,,
735.7199995,2873,0,163.3977814,3.43E-06,-3.00E-06,0,0,0,0,0,-265.1555531,0,0,0,3.31E-06,0,0,,,,
735.7279995,2873,0,635.6816379,3.39E-06,-2.98E-06,0,0,0,0,0,382.0806534,0,0,0,3.28E-06,0,0,,,,
735.7359995,2873,0,-474.670374,3.36E-06,-2.95E-06,0,0,0,0,0,-173.8587833,0,0,0,3.25E-06,0,0,,,,
735.7439995,2874,0,898.2591113,3.33E-06,-2.92E-06,0,0,0,0,0,81.10901317,0,0,0,3.22E-06,0,0,,,,
735.7519995,2874,0,-162.1967428,3.30E-06,-2.89E-06,0,0,0,0,0,216.24273,0,0,0,3.19E-06,0,0,,,,
735.7599995,2874,0,137.0523634,3.27E-06,-2.86E-06,0,0,0,0,0,-268.0606607,0,0,0,3.16E-06,0,0,,,,
735.7679995,2874,0,662.461278,3.24E-06,-2.84E-06,0,0,0,0,0,386.5603625,0,0,0,3.13E-06,0,0,,,,
735.7759995,2874,0,-470.3515885,3.21E-06,-2.81E-06,0,0,0,0,0,-164.1888696,0,0,0,3.10E-06,0,0,,,,
735.7839995,2874,0,900.3534238,3.18E-06,1.03E-06,0,0,0,0,0,76.42031874,0,0,0,3.07E-06,0,0,,,,
735.7919995,2874,0,-128.7382835,3.15E-06,4.66E-06,0,0,0,0,0,227.8736623,0,0,0,3.04E-06,0,0,,,,
735.7999995,2874,0,124.7620772,3.12E-06,3.50E-06,0,0,0,0,0,-277.2746232,0,0,0,3.01E-06,0,0,,,,
735.8079995,2874,0,693.5418574,3.09E-06,3.56E-06,0,0,0,0,0,385.5082178,0,0,0,2.98E-06,0,0,,,,
735.8159995,2874,0,-457.7936298,3.06E-06,3.76E-06,0,0,0,0,0,-152.989814,0,0,0,2.95E-06,0,0,,,,
735.8239995,2874,0,906.1935924,3.03E-06,3.46E-06,0,0,0,0,0,65.84075575,0,0,0,2.92E-06,0,0,,,,
735.8319995,2874,0,-61.25879876,3.00E-06,3.64E-06,0,0,0,0,0,245.6190166,0,0,0,2.90E-06,0,0,,,,
735.8399995,2874,0,149.8799464,2.98E-06,3.46E-06,0,0,0,0,0,-269.4719542,0,0,0,2.87E-06,0,0,,,,
735.8479995,2874,0,682.5336833,2.95E-06,3.52E-06,0,0,0,0,0,372.024821,0,0,0,-9.74E-07,0,0,,,,
735.8559995,2874,0,-503.3496097,2.92E-06,3.44E-06,0,0,0,0,0,-163.6711396,0,0,0,-4.60E-06,0,0,,,,
735.8639995,2874,0,871.7151995,2.89E-06,3.43E-06,0,0,0,0,0,42.22711915,0,0,0,-3.44E-06,0,0,,,,
735.8719995,2874,0,-87.96030696,2.86E-06,3.39E-06,0,0,0,0,0,238.9857501,0,0,0,-3.51E-06,0,0,,,,
735.8799995,2874,0,102.9978866,2.84E-06,3.36E-06,0,0,0,0,0,-279.570359,0,0,0,-3.70E-06,0,0,,,,
735.8879995,2874,0,705.1087827,2.81E-06,3.33E-06,0,0,0,0,0,369.0832824,0,0,0,-3.40E-06,0,0,,,,
735.8959995,2874,0,-498.4864324,-1.03E-06,3.30E-06,0,0,0,0,0,-148.0418025,0,0,0,-3.58E-06,0,0,,,,
735.9039995,2874,0,864.4798642,-4.66E-06,3.27E-06,0,0,0,0,0,48.3126225,0,0,0,-3.41E-06,0,0,,,,
735.9119995,2874,0,-69.70981793,-3.50E-06,3.24E-06,0,0,0,0,0,255.858713,0,0,0,-3.46E-06,0,0,,,,
735.9199995,2874,0,71.19543667,-3.56E-06,3.21E-06,0,0,0,0,0,-280.6065968,0,0,0,-3.38E-06,0,0,,,,
735.9279995,2874,0,1204.041931,-3.76E-06,3.18E-06,0,0,0,0,0,426.5465258,0,0,0,-3.38E-06,0,0,,,,
735.9359995,2874,0,64.09639508,-3.46E-06,3.15E-06,0,0,0,0,0,-282.9481509,0,0,0,-3.33E-06,0,0,,,,
735.9439995,2874,0,872.8486412,-3.64E-06,3.12E-06,0,0,0,0,0,-508.0237062,0,0,0,-3.31E-06,0,0,,,,
735.9519995,2874,0,639.4814267,-3.46E-06,3.09E-06,0,0,0,0,0,52.94174608,0,0,0,-3.28E-06,0,0,,,,
735.9599995,2874,0,319.433664,-3.52E-06,3.06E-06,0,0,0,0,0,-108.2185139,0,0,0,-3.25E-06,0,0,,,,
735.9679995,2874,0,254.3804662,-3.44E-06,3.03E-06,0,0,0,0,0,322.8510051,0,0,0,-3.22E-06,0,0,,,,
735.9759995,2874,0,-177.6191131,-3.43E-06,3.00E-06,0,0,0,0,0,-112.5121763,0,0,0,-3.19E-06,0,0,,,,
735.9839995,2874,0,699.4811435,-3.39E-06,2.98E-06,0,0,0,0,0,60.13811379,0,0,0,-3.16E-06,0,0,,,,
735.9919995,2874,0,-136.4087744,-3.36E-06,2.95E-06,0,0,0,0,0,226.0289765,0,0,0,-3.13E-06,0,0,,,,
735.9999995,2875,0,247.5099712,-3.33E-06,2.92E-06,0,0,0,0,0,-230.1047519,0,0,0,-3.10E-06,0,0,,,,
736.0079995,2875,0,585.5173816,-3.30E-06,2.89E-06,0,0,0,0,0,363.2235583,0,0,0,-3.07E-06,0,0,,,,
736.0159995,2875,0,-356.7791568,-3.27E-06,2.86E-06,0,0,0,0,0,-101.9718953,0,0,0,-3.04E-06,0,0,,,,
736.0239995,2875,0,805.6843729,-3.24E-06,2.84E-06,0,0,0,0,0,36.5797562,0,0,0,-3.01E-06,0,0,,,,
736.0319995,2875,0,-28.4273372,-3.21E-06,2.81E-06,0,0,0,0,0,256.6319364,0,0,0,-2.98E-06,0,0,,,,
736.0399995,2875,0,127.5569487,-3.18E-06,-1.03E-06,0,0,0,0,0,-264.3197257,0,0,0,-2.95E-06,0,0,,,,
736.0479995,2875,0,729.3563991,-3.15E-06,-4.66E-06,0,0,0,0,0,362.1654141,0,0,0,-2.92E-06,0,0,,,,
736.0559995,2875,0,-410.4163187,-3.12E-06,-3.50E-06,0,0,0,0,0,-94.78632494,0,0,0,-2.90E-06,0,0,,,,
736.0639995,2875,0,837.0533846,-3.09E-06,-3.56E-06,0,0,0,0,0,28.45186253,0,0,0,-2.87E-06,0,0,,,,
736.0719995,2875,0,28.20530877,-3.06E-06,-3.76E-06,0,0,0,0,0,274.6417552,0,0,0,9.74E-07,0,0,,,,
736.0799995,2875,0,93.70850732,-3.03E-06,-3.46E-06,0,0,0,0,0,-269.6441479,0,0,0,4.60E-06,0,0,,,,
736.0879995,2875,0,818.3050135,-3.00E-06,-3.64E-06,0,0,0,0,0,372.6139323,0,0,0,3.44E-06,0,0,,,,
736.0959995,2875,0,-434.987062,-2.98E-06,-3.46E-06,0,0,0,0,0,-99.02582175,0,0,0,3.51E-06,0,0,,,,
736.1039995,2875,0,870.4332289,-2.95E-06,-3.52E-06,0,0,0,0,0,15.0245462,0,0,0,3.70E-06,0,0,,,,
736.1119995,2875,0,97.75261488,-2.92E-06,-3.44E-06,0,0,0,0,0,299.6878126,0,0,0,3.40E-06,0,0,,,,
736.1199995,2875,0,88.22897942,-2.89E-06,-3.43E-06,0,0,0,0,0,-278.5696161,0,0,0,3.58E-06,0,0,,,,
736.1279995,2875,0,875.9269287,-2.86E-06,-3.39E-06,0,0,0,0,0,365.4169724,0,0,0,3.41E-06,0,0,,,,
736.1359995,2875,0,-404.3475285,-2.84E-06,-3.36E-06,0,0,0,0,0,-84.64183897,0,0,0,3.46E-06,0,0,,,,
736.1439995,2875,0,891.875988,-2.81E-06,-3.33E-06,0,0,0,0,0,0.020787524,0,0,0,3.38E-06,0,0,,,,
736.1519995,2875,0,134.107806,1.03E-06,-3.30E-06,0,0,0,0,0,298.5528002,0,0,0,3.38E-06,0,0,,,,
736.1599995,2875,0,81.53765026,4.66E-06,-3.27E-06,0,0,0,0,0,-289.5154053,0,0,0,3.33E-06,0,0,,,,
736.1679995,2875,0,917.779048,3.50E-06,-3.24E-06,0,0,0,0,0,352.9237451,0,0,0,3.31E-06,0,0,,,,
736.1759995,2875,0,-391.8217789,3.56E-06,-3.21E-06,0,0,0,0,0,-75.41043767,0,0,0,3.28E-06,0,0,,,,
736.1839995,2875,0,866.2516072,3.76E-06,-3.18E-06,0,0,0,0,0,-18.78038936,0,0,0,3.25E-06,0,0,,,,
736.1919995,2875,0,162.7469539,3.46E-06,-3.15E-06,0,0,0,0,0,298.1724183,0,0,0,3.22E-06,0,0,,,,
736.1999995,2875,0,82.12631752,3.64E-06,-3.12E-06,0,0,0,0,0,-280.6927988,0,0,0,3.19E-06,0,0,,,,
736.2079995,2875,0,901.6569214,3.46E-06,-3.09E-06,0,0,0,0,0,339.6744463,0,0,0,3.16E-06,0,0,,,,
736.2159995,2875,0,-404.4199573,3.52E-06,-3.06E-06,0,0,0,0,0,-75.84259188,0,0,0,3.13E-06,0,0,,,,
736.2239995,2875,0,878.7022603,3.44E-06,-3.03E-06,0,0,0,0,0,-12.85930438,0,0,0,3.10E-06,0,0,,,,
736.2319995,2875,0,189.0228623,3.43E-06,-3.00E-06,0,0,0,0,0,313.3667507,0,0,0,3.07E-06,0,0,,,,
736.2399995,2875,0,68.88436871,3.39E-06,-2.98E-06,0,0,0,0,0,-279.5819167,0,0,0,3.04E-06,0,0,,,,
736.2479995,2875,0,949.4656103,3.36E-06,-2.95E-06,0,0,0,0,0,347.364155,0,0,0,3.01E-06,0,0,,,,
736.2559995,2876,0,-358.399185,3.33E-06,-2.92E-06,0,0,0,0,0,-49.94297603,0,0,0,2.98E-06,0,0,,,,
736.2639995,2876,0,881.5201907,3.30E-06,-2.89E-06,0,0,0,0,0,-13.70641137,0,0,0,2.95E-06,0,0,,,,
736.2719995,2876,0,216.3729188,3.27E-06,-2.86E-06,0,0,0,0,0,319.7601732,0,0,0,2.92E-06,0,0,,,,
736.2799995,2876,0,71.14780067,3.24E-06,-2.84E-06,0,0,0,0,0,-273.0678637,0,0,0,2.90E-06,0,0,,,,
736.2879995,2876,0,985.7969106,3.21E-06,-2.81E-06,0,0,0,0,0,356.0938743,0,0,0,2.87E-06,0,0,,,,
736.2959995,2876,0,-326.0407293,3.18E-06,1.03E-06,0,0,0,0,0,-33.07690911,0,0,0,-9.74E-07,0,0,,,,
736.3039995,2876,0,891.8363424,3.15E-06,4.66E-06,0,0,0,0,0,-19.4498397,0,0,0,-4.60E-06,0,0,,,,
736.3119995,2876,0,262.3089083,3.12E-06,3.50E-06,0,0,0,0,0,329.171381,0,0,0,-3.44E-06,0,0,,,,
736.3199995,2876,0,77.92308311,3.09E-06,3.56E-06,0,0,0,0,0,-276.6767671,0,0,0,-3.51E-06,0,0,,,,
736.3279995,2876,0,992.8031815,3.06E-06,3.76E-06,0,0,0,0,0,334.1940798,0,0,0,-3.70E-06,0,0,,,,
736.3359995,2876,0,-328.4775549,3.03E-06,3.46E-06,0,0,0,0,0,-38.59357223,0,0,0,-3.40E-06,0,0,,,,
736.3439995,2876,0,879.8943371,3.00E-06,3.64E-06,0,0,0,0,0,-35.99366882,0,0,0,-3.58E-06,0,0,,,,
736.3519995,2876,0,267.2013747,2.98E-06,3.46E-06,0,0,0,0,0,314.2282572,0,0,0,-3.41E-06,0,0,,,,
736.3599995,2876,0,51.54188342,2.95E-06,3.52E-06,0,0,0,0,0,-296.1187842,0,0,0,-3.46E-06,0,0,,,,
736.3679995,2876,0,1011.281202,2.92E-06,3.44E-06,0,0,0,0,0,325.3329869,0,0,0,-3.38E-06,0,0,,,,
736.3759995,2876,0,-316.1897258,2.89E-06,3.43E-06,0,0,0,0,0,-37.35410477,0,0,0,-3.38E-06,0,0,,,,
736.3839995,2876,0,878.9302931,2.86E-06,3.39E-06,0,0,0,0,0,-52.40142819,0,0,0,-3.33E-06,0,0,,,,
736.3919995,2876,0,329.9115824,2.84E-06,3.36E-06,0,0,0,0,0,331.7660123,0,0,0,-3.31E-06,0,0,,,,
736.3999995,2876,0,89.85829391,2.81E-06,3.33E-06,0,0,0,0,0,-279.1095708,0,0,0,-3.28E-06,0,0,,,,
736.4079995,2876,0,1049.449282,-1.03E-06,3.30E-06,0,0,0,0,0,323.3806943,0,0,0,-3.25E-06,0,0,,,,
736.4159995,2876,0,-672.3887943,-4.66E-06,3.27E-06,0,0,0,0,0,-250.6179397,0,0,0,-3.22E-06,0,0,,,,
736.4239995,2876,0,750.1710607,-3.50E-06,3.24E-06,0,0,0,0,0,-301.3219009,0,0,0,-3.19E-06,0,0,,,,
736.4319995,2876,0,1406.089753,-3.56E-06,3.21E-06,0,0,0,0,0,946.3709574,0,0,0,-3.16E-06,0,0,,,,
736.4399995,2876,0,426.8960085,-3.76E-06,3.18E-06,0,0,0,0,0,390.8566617,0,0,0,-3.13E-06,0,0,,,,
736.4479995,2876,0,1230.603323,-3.46E-06,3.15E-06,0,0,0,0,0,428.3121605,0,0,0,-3.10E-06,0,0,,,,
736.4559995,2876,0,168.5040107,-3.64E-06,3.12E-06,0,0,0,0,0,311.434042,0,0,0,-3.07E-06,0,0,,,,
736.4639995,2876,0,29.78085209,-3.46E-06,3.09E-06,0,0,0,0,0,-362.4318308,0,0,0,-3.04E-06,0,0,,,,
736.4719995,2876,0,961.9460572,-3.52E-06,3.06E-06,0,0,0,0,0,292.1341663,0,0,0,-3.01E-06,0,0,,,,
736.4799995,2876,0,-31.57212858,-3.44E-06,3.03E-06,0,0,0,0,0,71.72001912,0,0,0,-2.98E-06,0,0,,,,
736.4879995,2876,0,429.1627403,-3.43E-06,3.00E-06,0,0,0,0,0,-211.8101394,0,0,0,-2.95E-06,0,0,,,,
736.4959995,2876,0,755.6495492,-3.39E-06,2.98E-06,0,0,0,0,0,346.2711119,0,0,0,-2.92E-06,0,0,,,,
736.5039995,2876,0,-163.314089,-3.36E-06,2.95E-06,0,0,0,0,0,-136.5647969,0,0,0,-2.90E-06,0,0,,,,
736.5119995,2877,0,866.877526,-3.33E-06,2.92E-06,0,0,0,0,0,44.36251576,0,0,0,-2.87E-06,0,0,,,,
736.5199995,2877,0,259.7146113,-3.30E-06,2.89E-06,0,0,0,0,0,246.081713,0,0,0,9.74E-07,0,0,,,,
736.5279995,2877,0,169.2132716,-3.27E-06,2.86E-06,0,0,0,0,0,-250.7447287,0,0,0,4.60E-06,0,0,,,,
736.5359995,2877,0,973.3568332,-3.24E-06,2.84E-06,0,0,0,0,0,305.9084493,0,0,0,3.44E-06,0,0,,,,
736.5439995,2877,0,-237.9901866,-3.21E-06,2.81E-06,0,0,0,0,0,-46.95909691,0,0,0,3.51E-06,0,0,,,,
736.5519995,2877,0,799.045867,-3.18E-06,-1.03E-06,0,0,0,0,0,-58.06043323,0,0,0,3.70E-06,0,0,,,,
736.5599995,2877,0,335.1892365,-3.15E-06,-4.66E-06,0,0,0,0,0,298.8133749,0,0,0,3.40E-06,0,0,,,,
736.5679995,2877,0,57.07230616,-3.12E-06,-3.50E-06,0,0,0,0,0,-271.13064,0,0,0,3.58E-06,0,0,,,,
736.5759995,2877,0,1068.108874,-3.09E-06,-3.56E-06,0,0,0,0,0,298.7769942,0,0,0,3.41E-06,0,0,,,,
736.5839995,2877,0,-278.8627046,-3.06E-06,-3.76E-06,0,0,0,0,0,-6.753124123,0,0,0,3.46E-06,0,0,,,,
736.5919995,2877,0,746.3647695,-3.03E-06,-3.46E-06,0,0,0,0,0,-97.32077678,0,0,0,3.38E-06,0,0,,,,
736.5999995,2877,0,349.7585665,-3.00E-06,-3.64E-06,0,0,0,0,0,322.408218,0,0,0,3.38E-06,0,0,,,,
736.6079995,2877,0,-36.54371274,-2.98E-06,-3.46E-06,0,0,0,0,0,-280.079647,0,0,0,3.33E-06,0,0,,,,
736.6159995,2877,0,1014.438523,-2.95E-06,-3.52E-06,0,0,0,0,0,277.2351543,0,0,0,3.31E-06,0,0,,,,
736.6239995,2877,0,-325.6900013,-2.92E-06,-3.44E-06,0,0,0,0,0,-3.001130603,0,0,0,3.28E-06,0,0,,,,
736.6319995,2877,0,738.7140663,-2.89E-06,-3.43E-06,0,0,0,0,0,-100.7472443,0,0,0,3.25E-06,0,0,,,,
736.6399995,2877,0,388.7772243,-2.86E-06,-3.39E-06,0,0,0,0,0,350.6560678,0,0,0,3.22E-06,0,0,,,,
736.6479995,2877,0,-35.73153497,-2.84E-06,-3.36E-06,0,0,0,0,0,-268.0414777,0,0,0,3.19E-06,0,0,,,,
736.6559995,2877,0,1027.004921,-2.81E-06,-3.33E-06,0,0,0,0,0,279.4074893,0,0,0,3.16E-06,0,0,,,,
736.6639995,2877,0,-311.2582657,1.03E-06,-3.30E-06,0,0,0,0,0,6.836757444,0,0,0,3.13E-06,0,0,,,,
736.6719995,2877,0,772.6729426,4.66E-06,-3.27E-06,0,0,0,0,0,-95.74971316,0,0,0,3.10E-06,0,0,,,,
736.6799995,2877,0,412.9281538,3.50E-06,-3.24E-06,0,0,0,0,0,362.8680055,0,0,0,3.07E-06,0,0,,,,
736.6879995,2877,0,-62.82606741,3.56E-06,-3.21E-06,0,0,0,0,0,-286.3341119,0,0,0,3.04E-06,0,0,,,,
736.6959995,2877,0,1058.354511,3.76E-06,-3.18E-06,0,0,0,0,0,267.5263592,0,0,0,3.01E-06,0,0,,,,
736.7039995,2877,0,-279.922427,3.46E-06,-3.15E-06,0,0,0,0,0,23.54112262,0,0,0,2.98E-06,0,0,,,,
736.7119995,2877,0,782.7562602,3.64E-06,-3.12E-06,0,0,0,0,0,-98.43318104,0,0,0,2.95E-06,0,0,,,,
736.7199995,2877,0,471.8294988,3.46E-06,-3.09E-06,0,0,0,0,0,372.3573311,0,0,0,2.92E-06,0,0,,,,
736.7279995,2877,0,-26.75496818,3.52E-06,-3.06E-06,0,0,0,0,0,-271.9074464,0,0,0,2.90E-06,0,0,,,,
736.7359995,2877,0,1107.860712,3.44E-06,-3.03E-06,0,0,0,0,0,275.7444685,0,0,0,2.87E-06,0,0,,,,
736.7439995,2877,0,-253.3306742,3.43E-06,-3.00E-06,0,0,0,0,0,33.67328668,0,0,0,-9.74E-07,0,0,,,,
736.7519995,2877,0,753.6446462,3.39E-06,-2.98E-06,0,0,0,0,0,-118.5480487,0,0,0,-4.60E-06,0,0,,,,
736.7599995,2877,0,473.200727,3.36E-06,-2.95E-06,0,0,0,0,0,362.4871404,0,0,0,-3.44E-06,0,0,,,,
736.7679995,2878,0,-39.48169261,3.33E-06,-2.92E-06,0,0,0,0,0,-272.5240456,0,0,0,-3.51E-06,0,0,,,,
736.7759995,2878,0,1110.120329,3.30E-06,-2.89E-06,0,0,0,0,0,268.8287184,0,0,0,-3.70E-06,0,0,,,,
736.7839995,2878,0,-235.4855646,3.27E-06,-2.86E-06,0,0,0,0,0,37.0560762,0,0,0,-3.40E-06,0,0,,,,
736.7919995,2878,0,777.724863,3.24E-06,-2.84E-06,0,0,0,0,0,-122.4750136,0,0,0,-3.58E-06,0,0,,,,
736.7999995,2878,0,512.4823731,3.21E-06,-2.81E-06,0,0,0,0,0,370.1382327,0,0,0,-3.41E-06,0,0,,,,
736.8079995,2878,0,-55.86687437,3.18E-06,1.03E-06,0,0,0,0,0,-291.4730635,0,0,0,-3.46E-06,0,0,,,,
736.8159995,2878,0,1128.822849,3.15E-06,4.66E-06,0,0,0,0,0,244.0009367,0,0,0,-3.38E-06,0,0,,,,
736.8239995,2878,0,-238.7461792,3.12E-06,3.50E-06,0,0,0,0,0,38.59047944,0,0,0,-3.38E-06,0,0,,,,
736.8319995,2878,0,720.5172595,3.09E-06,3.56E-06,0,0,0,0,0,-154.3333933,0,0,0,-3.33E-06,0,0,,,,
736.8399995,2878,0,537.2955773,3.06E-06,3.76E-06,0,0,0,0,0,364.9880486,0,0,0,-3.31E-06,0,0,,,,
736.8479995,2878,0,-53.67147154,3.03E-06,3.46E-06,0,0,0,0,0,-278.1868914,0,0,0,-3.28E-06,0,0,,,,
736.8559995,2878,0,1116.143489,3.00E-06,3.64E-06,0,0,0,0,0,229.6586772,0,0,0,-3.25E-06,0,0,,,,
736.8639995,2878,0,-222.3246305,2.98E-06,3.46E-06,0,0,0,0,0,40.62659374,0,0,0,-3.22E-06,0,0,,,,
736.8719995,2878,0,712.049111,2.95E-06,3.52E-06,0,0,0,0,0,-157.7485593,0,0,0,-3.19E-06,0,0,,,,
736.8799995,2878,0,510.0528235,2.92E-06,3.44E-06,0,0,0,0,0,356.8255426,0,0,0,-3.16E-06,0,0,,,,
736.8879995,2878,0,-95.43767999,2.89E-06,3.43E-06,0,0,0,0,0,-283.436823,0,0,0,-3.13E-06,0,0,,,,
736.8959995,2878,0,1137.655113,2.86E-06,3.39E-06,0,0,0,0,0,235.9522211,0,0,0,-3.10E-06,0,0,,,,
736.9039995,2878,0,-247.855804,2.84E-06,3.36E-06,0,0,0,0,0,254.2086724,0,0,0,-3.07E-06,0,0,,,,
736.9119995,2878,0,380.9016429,2.81E-06,3.33E-06,0,0,0,0,0,-87.15719075,0,0,0,-3.04E-06,0,0,,,,
736.9199995,2878,0,581.0362138,-1.03E-06,3.30E-06,0,0,0,0,0,110.8405937,0,0,0,-3.01E-06,0,0,,,,
736.9279995,2878,0,180.7198337,-4.66E-06,3.27E-06,0,0,0,0,0,-81.36283944,0,0,0,-2.98E-06,0,0,,,,
736.9359995,2878,0,638.0766037,-3.50E-06,3.24E-06,0,0,0,0,0,195.4547083,0,0,0,-2.95E-06,0,0,,,,
736.9439995,2878,0,85.08530239,-3.56E-06,3.21E-06,0,0,0,0,0,-132.6287076,0,0,0,-2.92E-06,0,0,,,,
736.9519995,2878,0,814.3088107,-3.76E-06,3.18E-06,0,0,0,0,0,113.125024,0,0,0,-2.90E-06,0,0,,,,
736.9599995,2878,0,95.65484714,-3.46E-06,3.15E-06,0,0,0,0,0,88.31721059,0,0,0,-2.87E-06,0,0,,,,
736.9679995,2878,0,473.11891,-3.64E-06,3.12E-06,0,0,0,0,0,-158.9125693,0,0,0,9.74E-07,0,0,,,,
736.9759995,2878,0,606.824293,-3.46E-06,3.09E-06,0,0,0,0,0,309.6108522,0,0,0,4.60E-06,0,0,,,,
736.9839995,2878,0,-53.64903676,-3.52E-06,3.06E-06,0,0,0,0,0,-223.300253,0,0,0,3.44E-06,0,0,,,,
736.9919995,2878,0,1051.689877,-3.44E-06,3.03E-06,0,0,0,0,0,174.1027916,0,0,0,3.51E-06,0,0,,,,
736.9999995,2878,0,-94.75727608,-3.43E-06,3.00E-06,0,0,0,0,0,87.68040737,0,0,0,3.70E-06,0,0,,,,
737.0079995,2878,0,573.0370849,-3.39E-06,2.98E-06,0,0,0,0,0,-188.9878769,0,0,0,3.40E-06,0,0,,,,
737.0159995,2878,0,623.0984498,-3.36E-06,2.95E-06,0,0,0,0,0,347.3608075,0,0,0,3.58E-06,0,0,,,,
737.0239995,2879,0,-150.1674699,-3.33E-06,2.92E-06,0,0,0,0,0,-266.7823896,0,0,0,3.41E-06,0,0,,,,
737.0319995,2879,0,1840.354013,-3.30E-06,2.89E-06,0,0,0,0,0,229.3084317,0,0,0,3.46E-06,0,0,,,,
737.0399995,2879,0,586.5112953,-3.27E-06,2.86E-06,0,0,0,0,0,352.9206955,0,0,0,3.38E-06,0,0,,,,
737.0479995,2879,0,-346.9273541,-3.24E-06,2.84E-06,0,0,0,0,0,-264.6007504,0,0,0,3.38E-06,0,0,,,,
737.0559995,2879,0,861.6975674,-3.21E-06,2.81E-06,0,0,0,0,0,121.6829898,0,0,0,3.33E-06,0,0,,,,
737.0639995,2879,0,382.3254844,-3.18E-06,-1.03E-06,0,0,0,0,0,103.2984562,0,0,0,3.31E-06,0,0,,,,
737.0719995,2879,0,28.37751351,-3.15E-06,-4.66E-06,0,0,0,0,0,-65.70508944,0,0,0,3.28E-06,0,0,,,,
737.0799995,2879,0,416.0872553,-3.12E-06,-3.50E-06,0,0,0,0,0,-188.6455861,0,0,0,3.25E-06,0,0,,,,
737.0879995,2879,0,277.3017921,-3.09E-06,-3.56E-06,0,0,0,0,0,-57.67222247,0,0,0,3.22E-06,0,0,,,,
737.0959995,2879,0,500.5648232,-3.06E-06,-3.76E-06,0,0,0,0,0,175.8879863,0,0,0,3.19E-06,0,0,,,,
737.1039995,2879,0,412.3492193,-3.03E-06,-3.46E-06,0,0,0,0,0,73.05962283,0,0,0,3.16E-06,0,0,,,,
737.1119995,2879,0,189.265834,-3.00E-06,-3.64E-06,0,0,0,0,0,-60.77500676,0,0,0,3.13E-06,0,0,,,,
737.1199995,2879,0,805.7065199,-2.98E-06,-3.46E-06,0,0,0,0,0,177.4224164,0,0,0,3.10E-06,0,0,,,,
737.1279995,2879,0,7.598672315,-2.95E-06,-3.52E-06,0,0,0,0,0,16.14743223,0,0,0,3.07E-06,0,0,,,,
737.1359995,2879,0,523.6578567,-2.92E-06,-3.44E-06,0,0,0,0,0,-65.03778832,0,0,0,3.04E-06,0,0,,,,
737.1439995,2879,0,575.0770207,-2.89E-06,-3.43E-06,0,0,0,0,0,281.3814963,0,0,0,3.01E-06,0,0,,,,
737.1519995,2879,0,-93.35652583,-2.86E-06,-3.39E-06,0,0,0,0,0,-170.915136,0,0,0,2.98E-06,0,0,,,,
737.1599995,2879,0,984.2038488,-2.84E-06,-3.36E-06,0,0,0,0,0,160.4090421,0,0,0,2.95E-06,0,0,,,,
737.1679995,2879,0,-85.20020359,-2.81E-06,-3.33E-06,0,0,0,0,0,102.1807832,0,0,0,2.92E-06,0,0,,,,
737.1759995,2879,0,509.8235911,1.03E-06,-3.30E-06,0,0,0,0,0,-157.8077332,0,0,0,2.90E-06,0,0,,,,
737.1839995,2879,0,643.5360192,4.66E-06,-3.27E-06,0,0,0,0,0,352.9060471,0,0,0,2.87E-06,0,0,,,,
737.1919995,2879,0,-167.5390733,3.50E-06,-3.24E-06,0,0,0,0,0,-199.9924589,0,0,0,-9.74E-07,0,0,,,,
737.1999995,2879,0,1067.586366,3.56E-06,-3.21E-06,0,0,0,0,0,166.2791058,0,0,0,-4.60E-06,0,0,,,,
737.2079995,2879,0,-120.9921883,3.76E-06,-3.18E-06,0,0,0,0,0,121.92978,0,0,0,-3.44E-06,0,0,,,,
737.2159995,2879,0,523.6217525,3.46E-06,-3.15E-06,0,0,0,0,0,-189.3250827,0,0,0,-3.51E-06,0,0,,,,
737.2239995,2879,0,668.3025047,3.64E-06,-3.12E-06,0,0,0,0,0,383.1658521,0,0,0,-3.70E-06,0,0,,,,
737.2319995,2879,0,-209.9558564,3.46E-06,-3.09E-06,0,0,0,0,0,-221.8106535,0,0,0,-3.40E-06,0,0,,,,
737.2399995,2879,0,1113.540113,3.52E-06,-3.06E-06,0,0,0,0,0,164.0724113,0,0,0,-3.58E-06,0,0,,,,
737.2479995,2879,0,-120.6487168,3.44E-06,-3.03E-06,0,0,0,0,0,131.4780344,0,0,0,-3.41E-06,0,0,,,,
737.2559995,2879,0,491.913446,3.43E-06,-3.00E-06,0,0,0,0,0,-218.0301245,0,0,0,-3.46E-06,0,0,,,,
737.2639995,2879,0,684.9530524,3.39E-06,-2.98E-06,0,0,0,0,0,387.5672585,0,0,0,-3.38E-06,0,0,,,,
737.2719995,2879,0,-245.7076899,3.36E-06,-2.95E-06,0,0,0,0,0,-231.929979,0,0,0,-3.38E-06,0,0,,,,
737.2799995,2880,0,1071.01094,3.33E-06,-2.92E-06,0,0,0,0,0,148.0581175,0,0,0,-3.33E-06,0,0,,,,
737.2879995,2880,0,-155.7594689,3.30E-06,-2.89E-06,0,0,0,0,0,145.1264665,0,0,0,-3.31E-06,0,0,,,,
737.2959995,2880,0,445.8125229,3.27E-06,-2.86E-06,0,0,0,0,0,-219.0941255,0,0,0,-3.28E-06,0,0,,,,
737.3039995,2880,0,690.5986242,3.24E-06,-2.84E-06,0,0,0,0,0,404.2202283,0,0,0,-3.25E-06,0,0,,,,
737.3119995,2880,0,-252.6745954,3.21E-06,-2.81E-06,0,0,0,0,0,-206.3976393,0,0,0,-3.22E-06,0,0,,,,
737.3199995,2880,0,1076.147945,3.18E-06,1.03E-06,0,0,0,0,0,152.6206797,0,0,0,-3.19E-06,0,0,,,,
737.3279995,2880,0,-124.5567684,3.15E-06,4.66E-06,0,0,0,0,0,159.0752727,0,0,0,-3.16E-06,0,0,,,,
737.3359995,2880,0,430.1150587,3.12E-06,3.50E-06,0,0,0,0,0,-221.3693488,0,0,0,-3.13E-06,0,0,,,,
737.3439995,2880,0,688.5659264,3.09E-06,3.56E-06,0,0,0,0,0,396.8362552,0,0,0,-3.10E-06,0,0,,,,
737.3519995,2880,0,-243.6992449,3.06E-06,3.76E-06,0,0,0,0,0,-200.6706681,0,0,0,-3.07E-06,0,0,,,,
737.3599995,2880,0,1070.816151,3.03E-06,3.46E-06,0,0,0,0,0,150.7522385,0,0,0,-3.04E-06,0,0,,,,
737.3679995,2880,0,-140.8119104,3.00E-06,3.64E-06,0,0,0,0,0,152.6765769,0,0,0,-3.01E-06,0,0,,,,
737.3759995,2880,0,428.2957049,2.98E-06,3.46E-06,0,0,0,0,0,-232.9780667,0,0,0,-2.98E-06,0,0,,,,
737.3839995,2880,0,697.255291,2.95E-06,3.52E-06,0,0,0,0,0,401.962507,0,0,0,-2.95E-06,0,0,,,,
737.3919995,2880,0,-300.5483151,2.92E-06,3.44E-06,0,0,0,0,0,-212.9878414,0,0,0,-2.92E-06,0,0,,,,
737.3999995,2880,0,1067.473316,2.89E-06,3.43E-06,0,0,0,0,0,123.8286753,0,0,0,-2.90E-06,0,0,,,,
737.4079995,2880,0,-114.0977168,2.86E-06,3.39E-06,0,0,0,0,0,159.6804653,0,0,0,-2.87E-06,0,0,,,,
737.4159995,2880,0,386.1679332,2.84E-06,3.36E-06,0,0,0,0,0,-249.5014252,0,0,0,9.74E-07,0,0,,,,
737.4239995,2880,0,710.4244441,2.81E-06,3.33E-06,0,0,0,0,0,382.2953041,0,0,0,4.60E-06,0,0,,,,
737.4319995,2880,0,-305.7084515,-1.03E-06,3.30E-06,0,0,0,0,0,-214.4547818,0,0,0,3.44E-06,0,0,,,,
737.4399995,2880,0,1023.577204,-4.66E-06,3.27E-06,0,0,0,0,0,109.2693479,0,0,0,3.51E-06,0,0,,,,
737.4479995,2880,0,-123.6310793,-3.50E-06,3.24E-06,0,0,0,0,0,161.1230339,0,0,0,3.70E-06,0,0,,,,
737.4559995,2880,0,356.4002782,-3.56E-06,3.21E-06,0,0,0,0,0,-254.092328,0,0,0,3.40E-06,0,0,,,,
737.4639995,2880,0,675.9843743,-3.76E-06,3.18E-06,0,0,0,0,0,379.0945239,0,0,0,3.58E-06,0,0,,,,
737.4719995,2880,0,-342.5068637,-3.46E-06,3.15E-06,0,0,0,0,0,-212.7189244,0,0,0,3.41E-06,0,0,,,,
737.4799995,2880,0,1018.332654,-3.64E-06,3.12E-06,0,0,0,0,0,95.01616355,0,0,0,3.46E-06,0,0,,,,
737.4879995,2880,0,-136.1930994,-3.46E-06,3.09E-06,0,0,0,0,0,164.2239175,0,0,0,3.38E-06,0,0,,,,
737.4959995,2880,0,312.9198208,-3.52E-06,3.06E-06,0,0,0,0,0,-264.4561672,0,0,0,3.38E-06,0,0,,,,
737.5039995,2880,0,678.0770694,-3.44E-06,3.03E-06,0,0,0,0,0,359.8343855,0,0,0,3.33E-06,0,0,,,,
737.5119995,2880,0,-386.4413719,-3.43E-06,3.00E-06,0,0,0,0,0,-218.9336536,0,0,0,3.31E-06,0,0,,,,
737.5199995,2880,0,969.8844326,-3.39E-06,2.98E-06,0,0,0,0,0,77.25875669,0,0,0,3.28E-06,0,0,,,,
737.5279995,2880,0,-149.5956824,-3.36E-06,2.95E-06,0,0,0,0,0,151.1681069,0,0,0,3.25E-06,0,0,,,,
737.5359995,2881,0,267.1655708,-3.33E-06,2.92E-06,0,0,0,0,0,-280.4892586,0,0,0,3.22E-06,0,0,,,,
737.5439995,2881,0,668.8845854,-3.30E-06,2.89E-06,0,0,0,0,0,355.2525848,0,0,0,3.19E-06,0,0,,,,
737.5519995,2881,0,-410.929425,-3.27E-06,2.86E-06,0,0,0,0,0,-221.2431774,0,0,0,3.16E-06,0,0,,,,
737.5599995,2881,0,947.2517656,-3.24E-06,2.84E-06,0,0,0,0,0,63.00075547,0,0,0,3.13E-06,0,0,,,,
737.5679995,2881,0,-136.0907785,-3.21E-06,2.81E-06,0,0,0,0,0,154.9387959,0,0,0,3.10E-06,0,0,,,,
737.5759995,2881,0,242.669401,-3.18E-06,-1.03E-06,0,0,0,0,0,-290.4048409,0,0,0,3.07E-06,0,0,,,,
737.5839995,2881,0,654.1011826,-3.15E-06,-4.66E-06,0,0,0,0,0,349.6165558,0,0,0,3.04E-06,0,0,,,,
737.5919995,2881,0,-430.5930391,-3.12E-06,-3.50E-06,0,0,0,0,0,-222.9605568,0,0,0,3.01E-06,0,0,,,,
737.5999995,2881,0,930.3421249,-3.09E-06,-3.56E-06,0,0,0,0,0,50.56341991,0,0,0,2.98E-06,0,0,,,,
737.6079995,2881,0,-157.8412855,-3.06E-06,-3.76E-06,0,0,0,0,0,167.4240421,0,0,0,2.95E-06,0,0,,,,
737.6159995,2881,0,204.0232739,-3.03E-06,-3.46E-06,0,0,0,0,0,-289.8638895,0,0,0,2.92E-06,0,0,,,,
737.6239995,2881,0,677.9733139,-3.00E-06,-3.64E-06,0,0,0,0,0,363.9630297,0,0,0,2.90E-06,0,0,,,,
737.6319995,2881,0,-438.3576557,-2.98E-06,-3.46E-06,0,0,0,0,0,-193.0764174,0,0,0,2.87E-06,0,0,,,,
737.6399995,2881,0,896.0620391,-2.95E-06,-3.52E-06,0,0,0,0,0,46.85340727,0,0,0,-9.74E-07,0,0,,,,
737.6479995,2881,0,-171.5066121,-2.92E-06,-3.44E-06,0,0,0,0,0,166.8787575,0,0,0,-4.60E-06,0,0,,,,
737.6559995,2881,0,348.3660674,-2.89E-06,-3.43E-06,0,0,0,0,0,-596.4623166,0,0,0,-3.44E-06,0,0,,,,
737.6639995,2881,0,1458.138727,-2.86E-06,-3.39E-06,0,0,0,0,0,-51.11659498,0,0,0,-3.51E-06,0,0,,,,
737.6719995,2881,0,-101.8118909,-2.84E-06,-3.36E-06,0,0,0,0,0,52.21084213,0,0,0,-3.70E-06,0,0,,,,
737.6799995,2881,0,141.8547116,-2.81E-06,-3.33E-06,0,0,0,0,0,72.84324759,0,0,0,-3.40E-06,0,0,,,,
737.6879995,2881,0,134.017338,1.03E-06,-3.30E-06,0,0,0,0,0,-42.62114378,0,0,0,-3.58E-06,0,0,,,,
737.6959995,2881,0,341.6987263,4.66E-06,-3.27E-06,0,0,0,0,0,34.10535873,0,0,0,-3.41E-06,0,0,,,,
737.7039995,2881,0,24.30639877,3.50E-06,-3.24E-06,0,0,0,0,0,117.2437903,0,0,0,-3.46E-06,0,0,,,,
737.7119995,2881,0,88.18697443,3.56E-06,-3.21E-06,0,0,0,0,0,-193.8446755,0,0,0,-3.38E-06,0,0,,,,
737.7199995,2881,0,430.2713389,3.76E-06,-3.18E-06,0,0,0,0,0,260.6303574,0,0,0,-3.38E-06,0,0,,,,
737.7279995,2881,0,-331.8462253,3.46E-06,-3.15E-06,0,0,0,0,0,-130.0938389,0,0,0,-3.33E-06,0,0,,,,
737.7359995,2881,0,629.3039409,3.64E-06,-3.12E-06,0,0,0,0,0,18.62618703,0,0,0,-3.31E-06,0,0,,,,
737.7439995,2881,0,-111.8898543,3.46E-06,-3.09E-06,0,0,0,0,0,172.184188,0,0,0,-3.28E-06,0,0,,,,
737.7519995,2881,0,55.80376755,3.52E-06,-3.06E-06,0,0,0,0,0,-261.9989513,0,0,0,-3.25E-06,0,0,,,,
737.7599995,2881,0,546.2226383,3.44E-06,-3.03E-06,0,0,0,0,0,309.0968259,0,0,0,-3.22E-06,0,0,,,,
737.7679995,2881,0,-506.941199,3.43E-06,-3.00E-06,0,0,0,0,0,-173.8391612,0,0,0,-3.19E-06,0,0,,,,
737.7759995,2881,0,715.6415587,3.39E-06,-2.98E-06,0,0,0,0,0,13.33934929,0,0,0,-3.16E-06,0,0,,,,
737.7839995,2881,0,-188.8114548,3.36E-06,-2.95E-06,0,0,0,0,0,179.6126187,0,0,0,-3.13E-06,0,0,,,,
737.7919995,2882,0,-7.088789978,3.33E-06,-2.92E-06,0,0,0,0,0,-304.1463806,0,0,0,-3.10E-06,0,0,,,,
737.7999995,2882,0,572.0305414,3.30E-06,-2.89E-06,0,0,0,0,0,328.7601875,0,0,0,-3.07E-06,0,0,,,,
737.8079995,2882,0,-579.4887006,3.27E-06,-2.86E-06,0,0,0,0,0,-178.7963468,0,0,0,-3.04E-06,0,0,,,,
737.8159995,2882,0,688.5091121,3.24E-06,-2.84E-06,0,0,0,0,0,1.333718893,0,0,0,-3.01E-06,0,0,,,,
737.8239995,2882,0,-241.470762,3.21E-06,-2.81E-06,0,0,0,0,0,181.433246,0,0,0,-2.98E-06,0,0,,,,
737.8319995,2882,0,-27.43260582,3.18E-06,1.03E-06,0,0,0,0,0,-311.5130427,0,0,0,-2.95E-06,0,0,,,,
737.8399995,2882,0,569.0048739,3.15E-06,4.66E-06,0,0,0,0,0,337.5538251,0,0,0,-2.92E-06,0,0,,,,
737.8479995,2882,0,-614.0424988,3.12E-06,3.50E-06,0,0,0,0,0,-173.8655086,0,0,0,-2.90E-06,0,0,,,,
737.8559995,2882,0,712.4691624,3.09E-06,3.56E-06,0,0,0,0,0,4.212148643,0,0,0,-2.87E-06,0,0,,,,
737.8639995,2882,0,-199.2442491,3.06E-06,3.76E-06,0,0,0,0,0,207.6857001,0,0,0,9.74E-07,0,0,,,,
737.8719995,2882,0,-21.34389838,3.03E-06,3.46E-06,0,0,0,0,0,-296.2465577,0,0,0,4.60E-06,0,0,,,,
737.8799995,2882,0,586.967188,3.00E-06,3.64E-06,0,0,0,0,0,347.7132413,0,0,0,3.44E-06,0,0,,,,
737.8879995,2882,0,-618.104855,2.98E-06,3.46E-06,0,0,0,0,0,-160.0087248,0,0,0,3.51E-06,0,0,,,,
737.8959995,2882,0,675.8447229,2.95E-06,3.52E-06,0,0,0,0,0,5.575300903,0,0,0,3.70E-06,0,0,,,,
737.9039995,2882,0,-252.5066805,2.92E-06,3.44E-06,0,0,0,0,0,209.0267167,0,0,0,3.40E-06,0,0,,,,
737.9119995,2882,0,-74.81021582,2.89E-06,3.43E-06,0,0,0,0,0,-306.796015,0,0,0,3.58E-06,0,0,,,,
737.9199995,2882,0,586.0235162,2.86E-06,3.39E-06,0,0,0,0,0,347.7223944,0,0,0,3.41E-06,0,0,,,,
737.9279995,2882,0,-638.8634178,2.84E-06,3.36E-06,0,0,0,0,0,-159.310162,0,0,0,3.46E-06,0,0,,,,
737.9359995,2882,0,679.1577513,2.81E-06,3.33E-06,0,0,0,0,0,-10.95533388,0,0,0,3.38E-06,0,0,,,,
737.9439995,2882,0,-206.4363568,-1.03E-06,3.30E-06,0,0,0,0,0,214.8747418,0,0,0,3.38E-06,0,0,,,,
737.9519995,2882,0,-83.35941153,-4.66E-06,3.27E-06,0,0,0,0,0,-314.1309106,0,0,0,3.33E-06,0,0,,,,
737.9599995,2882,0,582.84886,-3.50E-06,3.24E-06,0,0,0,0,0,328.3716108,0,0,0,3.31E-06,0,0,,,,
737.9679995,2882,0,-651.0716153,-3.56E-06,3.21E-06,0,0,0,0,0,-167.05577,0,0,0,3.28E-06,0,0,,,,
737.9759995,2882,0,1446.997994,-3.76E-06,3.18E-06,0,0,0,0,0,62.11418893,0,0,0,3.25E-06,0,0,,,,
737.9839995,2882,0,1324.22581,-3.46E-06,3.15E-06,0,0,0,0,0,593.692485,0,0,0,3.22E-06,0,0,,,,
737.9919995,2882,0,-280.2503685,-3.64E-06,3.12E-06,0,0,0,0,0,-126.4447949,0,0,0,3.19E-06,0,0,,,,
737.9999995,2882,0,-17.0406507,-3.46E-06,3.09E-06,0,0,0,0,0,1.00734668,0,0,0,3.16E-06,0,0,,,,
738.0079995,2882,0,169.5174697,-3.52E-06,3.06E-06,0,0,0,0,0,-11.52844925,0,0,0,3.13E-06,0,0,,,,
738.0159995,2882,0,122.9560975,-3.44E-06,3.03E-06,0,0,0,0,0,81.42804566,0,0,0,3.10E-06,0,0,,,,
738.0239995,2882,0,-322.6313393,-3.43E-06,3.00E-06,0,0,0,0,0,-50.14193306,0,0,0,3.07E-06,0,0,,,,
738.0319995,2882,0,403.4702573,-3.39E-06,2.98E-06,0,0,0,0,0,-15.41381789,0,0,0,3.04E-06,0,0,,,,
738.0399995,2882,0,-221.9111041,-3.36E-06,2.95E-06,0,0,0,0,0,133.1029204,0,0,0,3.01E-06,0,0,,,,
738.0479995,2883,0,-106.3353546,-3.33E-06,2.92E-06,0,0,0,0,0,-235.6115686,0,0,0,2.98E-06,0,0,,,,
738.0559995,2883,0,430.9977793,-3.30E-06,2.89E-06,0,0,0,0,0,244.4256458,0,0,0,2.95E-06,0,0,,,,
738.0639995,2883,0,-594.994284,-3.27E-06,2.86E-06,0,0,0,0,0,-112.1006081,0,0,0,2.92E-06,0,0,,,,
738.0719995,2883,0,481.8634516,-3.24E-06,2.84E-06,0,0,0,0,0,-60.58017558,0,0,0,2.90E-06,0,0,,,,
738.0799995,2883,0,-249.1757267,-3.21E-06,2.81E-06,0,0,0,0,0,187.4905349,0,0,0,2.87E-06,0,0,,,,
738.0879995,2883,0,-229.9274208,-3.18E-06,-1.03E-06,0,0,0,0,0,-316.360693,0,0,0,-9.74E-07,0,0,,,,
738.0959995,2883,0,471.6809555,-3.15E-06,-4.66E-06,0,0,0,0,0,264.6831653,0,0,0,-4.60E-06,0,0,,,,
738.1039995,2883,0,-725.8373784,-3.12E-06,-3.50E-06,0,0,0,0,0,-148.6691692,0,0,0,-3.44E-06,0,0,,,,
738.1119995,2883,0,483.3945557,-3.09E-06,-3.56E-06,0,0,0,0,0,-74.43128012,0,0,0,-3.51E-06,0,0,,,,
738.1199995,2883,0,-276.203614,-3.06E-06,-3.76E-06,0,0,0,0,0,202.551755,0,0,0,-3.70E-06,0,0,,,,
738.1279995,2883,0,-288.5626228,-3.03E-06,-3.46E-06,0,0,0,0,0,-346.3286887,0,0,0,-3.40E-06,0,0,,,,
738.1359995,2883,0,464.0196481,-3.00E-06,-3.64E-06,0,0,0,0,0,266.8215383,0,0,0,-3.58E-06,0,0,,,,
738.1439995,2883,0,-791.0889368,-2.98E-06,-3.46E-06,0,0,0,0,0,-158.8323653,0,0,0,-3.41E-06,0,0,,,,
738.1519995,2883,0,477.5222029,-2.95E-06,-3.52E-06,0,0,0,0,0,-72.30553212,0,0,0,-3.46E-06,0,0,,,,
738.1599995,2883,0,-294.4565853,-2.92E-06,-3.44E-06,0,0,0,0,0,215.385108,0,0,0,-3.38E-06,0,0,,,,
738.1679995,2883,0,-360.4345839,-2.89E-06,-3.43E-06,0,0,0,0,0,-356.437164,0,0,0,-3.38E-06,0,0,,,,
738.1759995,2883,0,419.9857274,-2.86E-06,-3.39E-06,0,0,0,0,0,264.7176583,0,0,0,-3.33E-06,0,0,,,,
738.1839995,2883,0,-848.5916996,-2.84E-06,-3.36E-06,0,0,0,0,0,-157.9570659,0,0,0,-3.31E-06,0,0,,,,
738.1919995,2883,0,416.352158,-2.81E-06,-3.33E-06,0,0,0,0,0,-83.63700765,0,0,0,-3.28E-06,0,0,,,,
738.1999995,2883,0,-328.794551,1.03E-06,-3.30E-06,0,0,0,0,0,211.0608638,0,0,0,-3.25E-06,0,0,,,,
738.2079995,2883,0,-385.468607,4.66E-06,-3.27E-06,0,0,0,0,0,-359.1923118,0,0,0,-3.22E-06,0,0,,,,
738.2159995,2883,0,413.0233718,3.50E-06,-3.24E-06,0,0,0,0,0,265.9142459,0,0,0,-3.19E-06,0,0,,,,
738.2239995,2883,0,-883.8561148,3.56E-06,-3.21E-06,0,0,0,0,0,-162.6731473,0,0,0,-3.16E-06,0,0,,,,
738.2319995,2883,0,410.4725383,3.76E-06,-3.18E-06,0,0,0,0,0,-85.50387152,0,0,0,-3.13E-06,0,0,,,,
738.2399995,2883,0,-289.164973,3.46E-06,-3.15E-06,0,0,0,0,0,238.1561373,0,0,0,-3.10E-06,0,0,,,,
738.2479995,2883,0,-395.6961201,3.64E-06,-3.12E-06,0,0,0,0,0,-357.1436606,0,0,0,-3.07E-06,0,0,,,,
738.2559995,2883,0,440.6182549,3.46E-06,-3.09E-06,0,0,0,0,0,263.1154498,0,0,0,-3.04E-06,0,0,,,,
738.2639995,2883,0,-849.9889308,3.52E-06,-3.06E-06,0,0,0,0,0,-143.7517333,0,0,0,-3.01E-06,0,0,,,,
738.2719995,2883,0,383.7835947,3.44E-06,-3.03E-06,0,0,0,0,0,-91.89566935,0,0,0,-2.98E-06,0,0,,,,
738.2799995,2883,0,-349.263435,3.43E-06,-3.00E-06,0,0,0,0,0,221.9369242,0,0,0,-2.95E-06,0,0,,,,
738.2879995,2883,0,-474.0064129,3.39E-06,-2.98E-06,0,0,0,0,0,-374.3052994,0,0,0,-2.92E-06,0,0,,,,
738.2959995,2883,0,415.3088764,3.36E-06,-2.95E-06,0,0,0,0,0,259.4637426,0,0,0,-2.90E-06,0,0,,,,
738.3039995,2884,0,-909.4226595,3.33E-06,-2.92E-06,0,0,0,0,0,-145.9045509,0,0,0,-2.87E-06,0,0,,,,
738.3119995,2884,0,332.9222047,3.30E-06,-2.89E-06,0,0,0,0,0,-111.514377,0,0,0,9.74E-07,0,0,,,,
738.3199995,2884,0,-318.4436669,3.27E-06,-2.86E-06,0,0,0,0,0,230.3092262,0,0,0,4.60E-06,0,0,,,,
738.3279995,2884,0,-500.984032,3.24E-06,-2.84E-06,0,0,0,0,0,-379.9915882,0,0,0,3.44E-06,0,0,,,,
738.3359995,2884,0,397.900121,3.21E-06,-2.81E-06,0,0,0,0,0,240.2903607,0,0,0,3.51E-06,0,0,,,,
738.3439995,2884,0,-876.415892,3.18E-06,1.03E-06,0,0,0,0,0,-131.9374946,0,0,0,3.70E-06,0,0,,,,
738.3519995,2884,0,371.9277818,3.15E-06,4.66E-06,0,0,0,0,0,-104.269899,0,0,0,3.40E-06,0,0,,,,
738.3599995,2884,0,-262.393227,3.12E-06,3.50E-06,0,0,0,0,0,242.928515,0,0,0,3.58E-06,0,0,,,,
738.3679995,2884,0,-456.2509012,3.09E-06,3.56E-06,0,0,0,0,0,-363.1180473,0,0,0,3.41E-06,0,0,,,,
738.3759995,2884,0,453.6981399,3.06E-06,3.76E-06,0,0,0,0,0,254.0568525,0,0,0,3.46E-06,0,0,,,,
738.3839995,2884,0,-867.5557409,3.03E-06,3.46E-06,0,0,0,0,0,-125.0692582,0,0,0,3.38E-06,0,0,,,,
738.3919995,2884,0,363.3213167,3.00E-06,3.64E-06,0,0,0,0,0,-113.7806757,0,0,0,3.38E-06,0,0,,,,
738.3999995,2884,0,-231.9849761,2.98E-06,3.46E-06,0,0,0,0,0,260.3571878,0,0,0,3.33E-06,0,0,,,,
738.4079995,2884,0,-443.7154972,2.95E-06,3.52E-06,0,0,0,0,0,-354.5344166,0,0,0,3.31E-06,0,0,,,,
738.4159995,2884,0,512.4358861,2.92E-06,3.44E-06,0,0,0,0,0,258.6405133,0,0,0,3.28E-06,0,0,,,,
738.4239995,2884,0,-844.3140884,2.89E-06,3.43E-06,0,0,0,0,0,-104.5435786,0,0,0,3.25E-06,0,0,,,,
738.4319995,2884,0,317.8221638,2.86E-06,3.39E-06,0,0,0,0,0,-134.5609009,0,0,0,3.22E-06,0,0,,,,
738.4399995,2884,0,125.9721351,2.84E-06,3.36E-06,0,0,0,0,0,468.9093125,0,0,0,3.19E-06,0,0,,,,
738.4479995,2884,0,311.3802637,2.81E-06,3.33E-06,0,0,0,0,0,-135.828296,0,0,0,3.16E-06,0,0,,,,
738.4559995,2884,0,1529.977511,-1.03E-06,3.30E-06,0,0,0,0,0,172.3903646,0,0,0,3.13E-06,0,0,,,,
738.4639995,2884,0,254.9005499,-4.66E-06,3.27E-06,0,0,0,0,0,164.4357901,0,0,0,3.10E-06,0,0,,,,
738.4719995,2884,0,252.5798812,-3.50E-06,3.24E-06,0,0,0,0,0,-5.621032422,0,0,0,3.07E-06,0,0,,,,
738.4799995,2884,0,-563.9681636,-3.56E-06,3.21E-06,0,0,0,0,0,32.50899617,0,0,0,3.04E-06,0,0,,,,
738.4879995,2884,0,-170.7999065,-3.76E-06,3.18E-06,0,0,0,0,0,-212.2049613,0,0,0,3.01E-06,0,0,,,,
738.4959995,2884,0,280.503245,-3.46E-06,3.15E-06,0,0,0,0,0,191.8357306,0,0,0,2.98E-06,0,0,,,,
738.5039995,2884,0,-854.752443,-3.64E-06,3.12E-06,0,0,0,0,0,-141.1881495,0,0,0,2.95E-06,0,0,,,,
738.5119995,2884,0,432.7389942,-3.46E-06,3.09E-06,0,0,0,0,0,-37.76445715,0,0,0,2.92E-06,0,0,,,,
738.5199995,2884,0,-338.3350974,-3.52E-06,3.06E-06,0,0,0,0,0,189.8343814,0,0,0,2.90E-06,0,0,,,,
738.5279995,2884,0,-383.5474644,-3.44E-06,3.03E-06,0,0,0,0,0,-301.517395,0,0,0,2.87E-06,0,0,,,,
738.5359995,2884,0,459.7623122,-3.43E-06,3.00E-06,0,0,0,0,0,226.9224325,0,0,0,-9.74E-07,0,0,,,,
738.5439995,2884,0,-794.7282969,-3.39E-06,2.98E-06,0,0,0,0,0,-86.81998828,0,0,0,-4.60E-06,0,0,,,,
738.5519995,2884,0,360.568078,-3.36E-06,2.95E-06,0,0,0,0,0,-97.04756735,0,0,0,-3.44E-06,0,0,,,,
738.5599995,2885,0,-221.0269349,-3.33E-06,2.92E-06,0,0,0,0,0,240.6208035,0,0,0,-3.51E-06,0,0,,,,
738.5679995,2885,0,-460.477841,-3.30E-06,2.89E-06,0,0,0,0,0,-328.8349116,0,0,0,-3.70E-06,0,0,,,,
738.5759995,2885,0,500.1982301,-3.27E-06,2.86E-06,0,0,0,0,0,236.2427658,0,0,0,-3.40E-06,0,0,,,,
738.5839995,2885,0,-799.358883,-3.24E-06,2.84E-06,0,0,0,0,0,-70.26048482,0,0,0,-3.58E-06,0,0,,,,
738.5919995,2885,0,288.8835351,-3.21E-06,2.81E-06,0,0,0,0,0,-138.4195171,0,0,0,-3.41E-06,0,0,,,,
738.5999995,2885,0,-187.0967009,-3.18E-06,-1.03E-06,0,0,0,0,0,253.6184431,0,0,0,-3.46E-06,0,0,,,,
738.6079995,2885,0,-488.326846,-3.15E-06,-4.66E-06,0,0,0,0,0,-339.5131973,0,0,0,-3.38E-06,0,0,,,,
738.6159995,2885,0,512.1764449,-3.12E-06,-3.50E-06,0,0,0,0,0,231.3492486,0,0,0,-3.38E-06,0,0,,,,
738.6239995,2885,0,-822.0612332,-3.09E-06,-3.56E-06,0,0,0,0,0,-77.51476942,0,0,0,-3.33E-06,0,0,,,,
738.6319995,2885,0,296.1512113,-3.06E-06,-3.76E-06,0,0,0,0,0,-145.9624961,0,0,0,-3.31E-06,0,0,,,,
738.6399995,2885,0,-144.9995078,-3.03E-06,-3.46E-06,0,0,0,0,0,278.6783929,0,0,0,-3.28E-06,0,0,,,,
738.6479995,2885,0,-522.1775685,-3.00E-06,-3.64E-06,0,0,0,0,0,-352.0407536,0,0,0,-3.25E-06,0,0,,,,
738.6559995,2885,0,549.2849098,-2.98E-06,-3.46E-06,0,0,0,0,0,222.492814,0,0,0,-3.22E-06,0,0,,,,
738.6639995,2885,0,-788.1210809,-2.95E-06,-3.52E-06,0,0,0,0,0,-58.0992273,0,0,0,-3.19E-06,0,0,,,,
738.6719995,2885,0,293.0924313,-2.92E-06,-3.44E-06,0,0,0,0,0,-155.9737146,0,0,0,-3.16E-06,0,0,,,,
738.6799995,2885,0,-106.9005955,-2.89E-06,-3.43E-06,0,0,0,0,0,281.9658889,0,0,0,-3.13E-06,0,0,,,,
738.6879995,2885,0,-522.083049,-2.86E-06,-3.39E-06,0,0,0,0,0,-347.2851812,0,0,0,-3.10E-06,0,0,,,,
738.6959995,2885,0,558.5776564,-2.84E-06,-3.36E-06,0,0,0,0,0,211.0837164,0,0,0,-3.07E-06,0,0,,,,
738.7039995,2885,0,-755.1428447,-2.81E-06,-3.33E-06,0,0,0,0,0,-52.85279603,0,0,0,-3.04E-06,0,0,,,,
738.7119995,2885,0,318.3138884,1.03E-06,-3.30E-06,0,0,0,0,0,-159.861633,0,0,0,-3.01E-06,0,0,,,,
738.7199995,2885,0,-96.7144326,4.66E-06,-3.27E-06,0,0,0,0,0,268.42047,0,0,0,-2.98E-06,0,0,,,,
738.7279995,2885,0,-539.4538202,3.50E-06,-3.24E-06,0,0,0,0,0,-368.8385414,0,0,0,-2.95E-06,0,0,,,,
738.7359995,2885,0,598.9773352,3.56E-06,-3.21E-06,0,0,0,0,0,201.1349911,0,0,0,-2.92E-06,0,0,,,,
738.7439995,2885,0,-734.8677057,3.76E-06,-3.18E-06,0,0,0,0,0,-54.40031972,0,0,0,-2.90E-06,0,0,,,,
738.7519995,2885,0,301.8136997,3.46E-06,-3.15E-06,0,0,0,0,0,-183.5878181,0,0,0,-2.87E-06,0,0,,,,
738.7599995,2885,0,-54.90143727,3.64E-06,-3.12E-06,0,0,0,0,0,267.0501595,0,0,0,9.74E-07,0,0,,,,
738.7679995,2885,0,-533.2622911,3.46E-06,-3.09E-06,0,0,0,0,0,-372.0011842,0,0,0,4.60E-06,0,0,,,,
738.7759995,2885,0,584.359975,3.52E-06,-3.06E-06,0,0,0,0,0,174.8732343,0,0,0,3.44E-06,0,0,,,,
738.7839995,2885,0,-765.5831716,3.44E-06,-3.03E-06,0,0,0,0,0,-71.8643123,0,0,0,3.51E-06,0,0,,,,
738.7919995,2885,0,261.9294861,3.43E-06,-3.00E-06,0,0,0,0,0,-209.4424012,0,0,0,3.70E-06,0,0,,,,
738.7999995,2885,0,-12.95850271,3.39E-06,-2.98E-06,0,0,0,0,0,266.9000663,0,0,0,3.40E-06,0,0,,,,
738.8079995,2885,0,-490.3424086,3.36E-06,-2.95E-06,0,0,0,0,0,-357.4940354,0,0,0,3.58E-06,0,0,,,,
738.8159995,2886,0,614.1442515,3.33E-06,-2.92E-06,0,0,0,0,0,172.65665,0,0,0,3.41E-06,0,0,,,,
738.8239995,2886,0,-725.0574018,3.30E-06,-2.89E-06,0,0,0,0,0,-62.69851852,0,0,0,3.46E-06,0,0,,,,
738.8319995,2886,0,305.5380497,3.27E-06,-2.86E-06,0,0,0,0,0,-204.8961858,0,0,0,3.38E-06,0,0,,,,
738.8399995,2886,0,15.20063057,3.24E-06,-2.84E-06,0,0,0,0,0,267.2633282,0,0,0,3.38E-06,0,0,,,,
738.8479995,2886,0,-510.3358577,3.21E-06,-2.81E-06,0,0,0,0,0,-371.1553371,0,0,0,3.33E-06,0,0,,,,
738.8559995,2886,0,648.8546827,3.18E-06,1.03E-06,0,0,0,0,0,169.3629524,0,0,0,3.31E-06,0,0,,,,
738.8639995,2886,0,-685.3683936,3.15E-06,4.66E-06,0,0,0,0,0,-40.90799453,0,0,0,3.28E-06,0,0,,,,
738.8719995,2886,0,322.3484721,3.12E-06,3.50E-06,0,0,0,0,0,-196.6235882,0,0,0,3.25E-06,0,0,,,,
738.8799995,2886,0,90.08532711,3.09E-06,3.56E-06,0,0,0,0,0,301.727834,0,0,0,3.22E-06,0,0,,,,
738.8879995,2886,0,-462.4756078,3.06E-06,3.76E-06,0,0,0,0,0,-341.4508235,0,0,0,3.19E-06,0,0,,,,
738.8959995,2886,0,707.3572249,3.03E-06,3.46E-06,0,0,0,0,0,179.630414,0,0,0,3.16E-06,0,0,,,,
738.9039995,2886,0,-627.0138969,3.00E-06,3.64E-06,0,0,0,0,0,-22.40098426,0,0,0,3.13E-06,0,0,,,,
738.9119995,2886,0,327.7670883,2.98E-06,3.46E-06,0,0,0,0,0,-213.9365606,0,0,0,3.10E-06,0,0,,,,
738.9199995,2886,0,522.701783,2.95E-06,3.52E-06,0,0,0,0,0,468.3975385,0,0,0,3.07E-06,0,0,,,,
738.9279995,2886,0,244.1985712,2.92E-06,3.44E-06,0,0,0,0,0,-247.2268232,0,0,0,3.04E-06,0,0,,,,
738.9359995,2886,0,1451.352836,2.89E-06,3.43E-06,0,0,0,0,0,-84.20858328,0,0,0,3.01E-06,0,0,,,,
738.9439995,2886,0,403.0420389,2.86E-06,3.39E-06,0,0,0,0,0,101.3626332,0,0,0,2.98E-06,0,0,,,,
738.9519995,2886,0,290.1626654,2.84E-06,3.36E-06,0,0,0,0,0,-88.76944558,0,0,0,2.95E-06,0,0,,,,
738.9599995,2886,0,-334.1604845,2.81E-06,3.33E-06,0,0,0,0,0,90.36218455,0,0,0,2.92E-06,0,0,,,,
738.9679995,2886,0,-173.9337676,-1.03E-06,3.30E-06,0,0,0,0,0,-244.6106485,0,0,0,2.90E-06,0,0,,,,
738.9759995,2886,0,452.2531941,-4.66E-06,3.27E-06,0,0,0,0,0,111.8670696,0,0,0,2.87E-06,0,0,,,,
738.9839995,2886,0,-705.6600586,-3.50E-06,3.24E-06,0,0,0,0,0,-81.55172621,0,0,0,-9.74E-07,0,0,,,,
738.9919995,2886,0,370.5260516,-3.56E-06,3.21E-06,0,0,0,0,0,-166.988794,0,0,0,-4.60E-06,0,0,,,,
738.9999995,2886,0,-85.23455274,-3.76E-06,3.18E-06,0,0,0,0,0,205.5932854,0,0,0,-3.44E-06,0,0,,,,
739.0079995,2886,0,-390.5988081,-3.46E-06,3.15E-06,0,0,0,0,0,-306.7887959,0,0,0,-3.51E-06,0,0,,,,
739.0159995,2886,0,606.1490552,-3.64E-06,3.12E-06,0,0,0,0,0,135.1882323,0,0,0,-3.70E-06,0,0,,,,
739.0239995,2886,0,-660.9793709,-3.46E-06,3.09E-06,0,0,0,0,0,-35.61062177,0,0,0,-3.40E-06,0,0,,,,
739.0319995,2886,0,264.3433632,-3.52E-06,3.06E-06,0,0,0,0,0,-218.6352748,0,0,0,-3.58E-06,0,0,,,,
739.0399995,2886,0,28.71486385,-3.44E-06,3.03E-06,0,0,0,0,0,255.314874,0,0,0,-3.41E-06,0,0,,,,
739.0479995,2886,0,-499.9288366,-3.43E-06,3.00E-06,0,0,0,0,0,-326.6395905,0,0,0,-3.46E-06,0,0,,,,
739.0559995,2886,0,618.2138491,-3.39E-06,2.98E-06,0,0,0,0,0,128.2597091,0,0,0,-3.38E-06,0,0,,,,
739.0639995,2886,0,-664.7461522,-3.36E-06,2.95E-06,0,0,0,0,0,-21.12574863,0,0,0,-3.38E-06,0,0,,,,
739.0719995,2887,0,225.2490449,-3.33E-06,2.92E-06,0,0,0,0,0,-237.1395662,0,0,0,-3.33E-06,0,0,,,,
739.0799995,2887,0,92.9042627,-3.30E-06,2.89E-06,0,0,0,0,0,280.0094429,0,0,0,-3.31E-06,0,0,,,,
739.0879995,2887,0,-576.1455064,-3.27E-06,2.86E-06,0,0,0,0,0,-345.8905847,0,0,0,-3.28E-06,0,0,,,,
739.0959995,2887,0,626.6656806,-3.24E-06,2.84E-06,0,0,0,0,0,114.3280629,0,0,0,-3.25E-06,0,0,,,,
739.1039995,2887,0,-652.8867792,-3.21E-06,2.81E-06,0,0,0,0,0,-9.089838063,0,0,0,-3.22E-06,0,0,,,,
739.1119995,2887,0,177.37036,-3.18E-06,-1.03E-06,0,0,0,0,0,-246.1993748,0,0,0,-3.19E-06,0,0,,,,
739.1199995,2887,0,96.90108954,-3.15E-06,-4.66E-06,0,0,0,0,0,281.5301916,0,0,0,-3.16E-06,0,0,,,,
739.1279995,2887,0,-601.3751197,-3.12E-06,-3.50E-06,0,0,0,0,0,-344.7591329,0,0,0,-3.13E-06,0,0,,,,
739.1359995,2887,0,629.9433072,-3.09E-06,-3.56E-06,0,0,0,0,0,113.6756784,0,0,0,-3.10E-06,0,0,,,,
739.1439995,2887,0,-660.8830729,-3.06E-06,-3.76E-06,0,0,0,0,0,-9.219379992,0,0,0,-3.07E-06,0,0,,,,
739.1519995,2887,0,150.4575238,-3.03E-06,-3.46E-06,0,0,0,0,0,-259.4426014,0,0,0,-3.04E-06,0,0,,,,
739.1599995,2887,0,120.8961903,-3.00E-06,-3.64E-06,0,0,0,0,0,288.02317,0,0,0,-3.01E-06,0,0,,,,
739.1679995,2887,0,-621.0481544,-2.98E-06,-3.46E-06,0,0,0,0,0,-345.7799409,0,0,0,-2.98E-06,0,0,,,,
739.1759995,2887,0,609.8775032,-2.95E-06,-3.52E-06,0,0,0,0,0,97.36484522,0,0,0,-2.95E-06,0,0,,,,
739.1839995,2887,0,-652.4468803,-2.92E-06,-3.44E-06,0,0,0,0,0,-3.591174035,0,0,0,-2.92E-06,0,0,,,,
739.1919995,2887,0,149.0678378,-2.89E-06,-3.43E-06,0,0,0,0,0,-258.1003318,0,0,0,-2.90E-06,0,0,,,,
739.1999995,2887,0,122.6930223,-2.86E-06,-3.39E-06,0,0,0,0,0,293.8493773,0,0,0,-2.87E-06,0,0,,,,
739.2079995,2887,0,-638.5550223,-2.84E-06,-3.36E-06,0,0,0,0,0,-330.481895,0,0,0,9.74E-07,0,0,,,,
739.2159995,2887,0,624.7100865,-2.81E-06,-3.33E-06,0,0,0,0,0,117.2496449,0,0,0,4.60E-06,0,0,,,,
739.2239995,2887,0,-645.2472286,1.03E-06,-3.30E-06,0,0,0,0,0,18.51520397,0,0,0,3.44E-06,0,0,,,,
739.2319995,2887,0,142.7876995,4.66E-06,-3.27E-06,0,0,0,0,0,-253.2714761,0,0,0,3.51E-06,0,0,,,,
739.2399995,2887,0,180.513286,3.50E-06,-3.24E-06,0,0,0,0,0,311.8151334,0,0,0,3.70E-06,0,0,,,,
739.2479995,2887,0,-614.7263105,3.56E-06,-3.21E-06,0,0,0,0,0,-323.2823499,0,0,0,3.40E-06,0,0,,,,
739.2559995,2887,0,617.883421,3.76E-06,-3.18E-06,0,0,0,0,0,102.223678,0,0,0,3.58E-06,0,0,,,,
739.2639995,2887,0,-659.0081244,3.46E-06,-3.15E-06,0,0,0,0,0,16.44950365,0,0,0,3.41E-06,0,0,,,,
739.2719995,2887,0,85.36398701,3.64E-06,-3.12E-06,0,0,0,0,0,-269.4550274,0,0,0,3.46E-06,0,0,,,,
739.2799995,2887,0,124.6159067,3.46E-06,-3.09E-06,0,0,0,0,0,305.258873,0,0,0,3.38E-06,0,0,,,,
739.2879995,2887,0,-678.6170533,3.52E-06,-3.06E-06,0,0,0,0,0,-318.544624,0,0,0,3.38E-06,0,0,,,,
739.2959995,2887,0,609.424449,3.44E-06,-3.03E-06,0,0,0,0,0,101.1845927,0,0,0,3.33E-06,0,0,,,,
739.3039995,2887,0,-631.9034249,3.43E-06,-3.00E-06,0,0,0,0,0,37.63716694,0,0,0,3.31E-06,0,0,,,,
739.3119995,2887,0,77.00265512,3.39E-06,-2.98E-06,0,0,0,0,0,-259.1637449,0,0,0,3.28E-06,0,0,,,,
739.3199995,2887,0,163.5197287,3.36E-06,-2.95E-06,0,0,0,0,0,316.4570502,0,0,0,3.25E-06,0,0,,,,
739.3279995,2888,0,-625.0301866,3.33E-06,-2.92E-06,0,0,0,0,0,-295.8812183,0,0,0,3.22E-06,0,0,,,,
739.3359995,2888,0,666.778735,3.30E-06,-2.89E-06,0,0,0,0,0,119.2204154,0,0,0,3.19E-06,0,0,,,,
739.3439995,2888,0,-573.4431156,3.27E-06,-2.86E-06,0,0,0,0,0,61.44202228,0,0,0,3.16E-06,0,0,,,,
739.3519995,2888,0,107.5397775,3.24E-06,-2.84E-06,0,0,0,0,0,-259.4351556,0,0,0,3.13E-06,0,0,,,,
739.3599995,2888,0,222.8507891,3.21E-06,-2.81E-06,0,0,0,0,0,318.6147664,0,0,0,3.10E-06,0,0,,,,
739.3679995,2888,0,-598.0597412,3.18E-06,1.03E-06,0,0,0,0,0,-293.6761809,0,0,0,3.07E-06,0,0,,,,
739.3759995,2888,0,664.8364111,3.15E-06,4.66E-06,0,0,0,0,0,95.77742154,0,0,0,3.04E-06,0,0,,,,
739.3839995,2888,0,-546.0486505,3.12E-06,3.50E-06,0,0,0,0,0,51.7503363,0,0,0,3.01E-06,0,0,,,,
739.3919995,2888,0,147.9149018,3.09E-06,3.56E-06,0,0,0,0,0,-262.1035602,0,0,0,2.98E-06,0,0,,,,
739.3999995,2888,0,721.3786865,3.06E-06,3.76E-06,0,0,0,0,0,464.8090253,0,0,0,2.95E-06,0,0,,,,
739.4079995,2888,0,-285.9709323,3.03E-06,3.46E-06,0,0,0,0,0,-68.26225188,0,0,0,2.92E-06,0,0,,,,
739.4159995,2888,0,200.4203161,3.00E-06,3.64E-06,0,0,0,0,0,284.9873135,0,0,0,2.90E-06,0,0,,,,
739.4239995,2888,0,-495.4009652,2.98E-06,3.46E-06,0,0,0,0,0,586.9278094,0,0,0,2.87E-06,0,0,,,,
739.4319995,2888,0,-157.4078288,2.95E-06,3.52E-06,0,0,0,0,0,91.48272666,0,0,0,-9.74E-07,0,0,,,,
739.4399995,2888,0,-150.7349963,2.92E-06,3.44E-06,0,0,0,0,0,126.5209555,0,0,0,-4.60E-06,0,0,,,,
739.4479995,2888,0,-140.2339363,2.89E-06,3.43E-06,0,0,0,0,0,-267.6442458,0,0,0,-3.44E-06,0,0,,,,
739.4559995,2888,0,455.5198585,2.86E-06,3.39E-06,0,0,0,0,0,140.8054146,0,0,0,-3.51E-06,0,0,,,,
739.4639995,2888,0,-540.3853632,2.84E-06,3.36E-06,0,0,0,0,0,-3.666042069,0,0,0,-3.70E-06,0,0,,,,
739.4719995,2888,0,264.4531841,2.81E-06,3.33E-06,0,0,0,0,0,-221.2599474,0,0,0,-3.40E-06,0,0,,,,
739.4799995,2888,0,55.58443101,-1.03E-06,3.30E-06,0,0,0,0,0,280.5696789,0,0,0,-3.58E-06,0,0,,,,
739.4879995,2888,0,-463.8599258,-4.66E-06,3.27E-06,0,0,0,0,0,-289.3597409,0,0,0,-3.41E-06,0,0,,,,
739.4959995,2888,0,605.0413024,-3.50E-06,3.24E-06,0,0,0,0,0,94.12783518,0,0,0,-3.46E-06,0,0,,,,
739.5039995,2888,0,-511.7478664,-3.56E-06,3.21E-06,0,0,0,0,0,52.78419853,0,0,0,-3.38E-06,0,0,,,,
739.5119995,2888,0,119.8358728,-3.76E-06,3.18E-06,0,0,0,0,0,-270.5756687,0,0,0,-3.38E-06,0,0,,,,
739.5199995,2888,0,210.6277962,-3.46E-06,3.15E-06,0,0,0,0,0,293.5354286,0,0,0,-3.33E-06,0,0,,,,
739.5279995,2888,0,-570.9621598,-3.64E-06,3.12E-06,0,0,0,0,0,-276.5691986,0,0,0,-3.31E-06,0,0,,,,
739.5359995,2888,0,646.0704044,-3.46E-06,3.09E-06,0,0,0,0,0,75.70813867,0,0,0,-3.28E-06,0,0,,,,
739.5439995,2888,0,-493.4034392,-3.52E-06,3.06E-06,0,0,0,0,0,67.24068883,0,0,0,-3.25E-06,0,0,,,,
739.5519995,2888,0,55.12452002,-3.44E-06,3.03E-06,0,0,0,0,0,-286.4754728,0,0,0,-3.22E-06,0,0,,,,
739.5599995,2888,0,245.8028755,-3.43E-06,3.00E-06,0,0,0,0,0,294.7199615,0,0,0,-3.19E-06,0,0,,,,
739.5679995,2888,0,-657.8237301,-3.39E-06,2.98E-06,0,0,0,0,0,-292.4907808,0,0,0,-3.16E-06,0,0,,,,
739.5759995,2888,0,662.6354272,-3.36E-06,2.95E-06,0,0,0,0,0,63.45814758,0,0,0,-3.13E-06,0,0,,,,
739.5839995,2889,0,-465.1908139,-3.33E-06,2.92E-06,0,0,0,0,0,89.95659886,0,0,0,-3.10E-06,0,0,,,,
739.5919995,2889,0,65.82080809,-3.30E-06,2.89E-06,0,0,0,0,0,-284.0848792,0,0,0,-3.07E-06,0,0,,,,
739.5999995,2889,0,297.1118244,-3.27E-06,2.86E-06,0,0,0,0,0,308.1335446,0,0,0,-3.04E-06,0,0,,,,
739.6079995,2889,0,-673.8067172,-3.24E-06,2.84E-06,0,0,0,0,0,-283.6025661,0,0,0,-3.01E-06,0,0,,,,
739.6159995,2889,0,664.3679438,-3.21E-06,2.81E-06,0,0,0,0,0,57.78458707,0,0,0,-2.98E-06,0,0,,,,
739.6239995,2889,0,-478.9635931,-3.18E-06,-1.03E-06,0,0,0,0,0,94.36074274,0,0,0,-2.95E-06,0,0,,,,
739.6319995,2889,0,4.391634621,-3.15E-06,-4.66E-06,0,0,0,0,0,-298.1989467,0,0,0,-2.92E-06,0,0,,,,
739.6399995,2889,0,275.6715054,-3.12E-06,-3.50E-06,0,0,0,0,0,305.004285,0,0,0,-2.90E-06,0,0,,,,
739.6479995,2889,0,-708.1181307,-3.09E-06,-3.56E-06,0,0,0,0,0,-279.8398103,0,0,0,-2.87E-06,0,0,,,,
739.6559995,2889,0,624.1814258,-3.06E-06,-3.76E-06,0,0,0,0,0,49.51918273,0,0,0,9.74E-07,0,0,,,,
739.6639995,2889,0,-509.4298008,-3.03E-06,-3.46E-06,0,0,0,0,0,97.39020313,0,0,0,4.60E-06,0,0,,,,
739.6719995,2889,0,-25.81005006,-3.00E-06,-3.64E-06,0,0,0,0,0,-304.9409815,0,0,0,3.44E-06,0,0,,,,
739.6799995,2889,0,282.6079309,-2.98E-06,-3.46E-06,0,0,0,0,0,309.4140435,0,0,0,3.51E-06,0,0,,,,
739.6879995,2889,0,-726.8982287,-2.95E-06,-3.52E-06,0,0,0,0,0,-271.259516,0,0,0,3.70E-06,0,0,,,,
739.6959995,2889,0,602.2294173,-2.92E-06,-3.44E-06,0,0,0,0,0,38.04634782,0,0,0,3.40E-06,0,0,,,,
739.7039995,2889,0,-538.1162381,-2.89E-06,-3.43E-06,0,0,0,0,0,93.00367515,0,0,0,3.58E-06,0,0,,,,
739.7119995,2889,0,-70.45778675,-2.86E-06,-3.39E-06,0,0,0,0,0,-311.2933664,0,0,0,3.41E-06,0,0,,,,
739.7199995,2889,0,286.6348604,-2.84E-06,-3.36E-06,0,0,0,0,0,316.9723404,0,0,0,3.46E-06,0,0,,,,
739.7279995,2889,0,-776.8791593,-2.81E-06,-3.33E-06,0,0,0,0,0,-266.5358704,0,0,0,3.38E-06,0,0,,,,
739.7359995,2889,0,546.0565725,1.03E-06,-3.30E-06,0,0,0,0,0,26.84985088,0,0,0,3.38E-06,0,0,,,,
739.7439995,2889,0,-552.8465167,4.66E-06,-3.27E-06,0,0,0,0,0,102.3198157,0,0,0,3.33E-06,0,0,,,,
739.7519995,2889,0,-125.8945478,3.50E-06,-3.24E-06,0,0,0,0,0,-315.7340945,0,0,0,3.31E-06,0,0,,,,
739.7599995,2889,0,265.9871843,3.56E-06,-3.21E-06,0,0,0,0,0,314.1686658,0,0,0,3.28E-06,0,0,,,,
739.7679995,2889,0,-775.4774819,3.76E-06,-3.18E-06,0,0,0,0,0,-257.9352257,0,0,0,3.25E-06,0,0,,,,
739.7759995,2889,0,555.9549973,3.46E-06,-3.15E-06,0,0,0,0,0,25.76271529,0,0,0,3.22E-06,0,0,,,,
739.7839995,2889,0,-535.7748036,3.64E-06,-3.12E-06,0,0,0,0,0,117.3298638,0,0,0,3.19E-06,0,0,,,,
739.7919995,2889,0,-137.143623,3.46E-06,-3.09E-06,0,0,0,0,0,-312.1789148,0,0,0,3.16E-06,0,0,,,,
739.7999995,2889,0,263.3158583,3.52E-06,-3.06E-06,0,0,0,0,0,317.1092281,0,0,0,3.13E-06,0,0,,,,
739.8079995,2889,0,-810.0918713,3.44E-06,-3.03E-06,0,0,0,0,0,-248.6105385,0,0,0,3.10E-06,0,0,,,,
739.8159995,2889,0,535.0885139,3.43E-06,-3.00E-06,0,0,0,0,0,25.23791599,0,0,0,3.07E-06,0,0,,,,
739.8239995,2889,0,-532.8946708,3.39E-06,-2.98E-06,0,0,0,0,0,127.8414638,0,0,0,3.04E-06,0,0,,,,
739.8319995,2889,0,-154.3201486,3.36E-06,-2.95E-06,0,0,0,0,0,-313.7689454,0,0,0,3.01E-06,0,0,,,,
739.8399995,2890,0,267.7408816,3.33E-06,-2.92E-06,0,0,0,0,0,315.9641106,0,0,0,2.98E-06,0,0,,,,
739.8479995,2890,0,-847.5379389,3.30E-06,-2.89E-06,0,0,0,0,0,-254.683794,0,0,0,2.95E-06,0,0,,,,
739.8559995,2890,0,510.3385537,3.27E-06,-2.86E-06,0,0,0,0,0,6.140092515,0,0,0,2.92E-06,0,0,,,,
739.8639995,2890,0,-520.8919442,3.24E-06,-2.84E-06,0,0,0,0,0,133.7779894,0,0,0,2.90E-06,0,0,,,,
739.8719995,2890,0,-181.8660048,3.21E-06,-2.81E-06,0,0,0,0,0,-317.4783702,0,0,0,2.87E-06,0,0,,,,
739.8799995,2890,0,279.971114,3.18E-06,1.03E-06,0,0,0,0,0,316.3075375,0,0,0,-9.74E-07,0,0,,,,
739.8879995,2890,0,-826.4242228,3.15E-06,4.66E-06,0,0,0,0,0,-236.0420649,0,0,0,-4.60E-06,0,0,,,,
739.8959995,2890,0,513.0273133,3.12E-06,3.50E-06,0,0,0,0,0,8.345940174,0,0,0,-3.44E-06,0,0,,,,
739.9039995,2890,0,-504.6158256,3.09E-06,3.56E-06,0,0,0,0,0,141.1860826,0,0,0,-3.51E-06,0,0,,,,
739.9119995,2890,0,-166.4814283,3.06E-06,3.76E-06,0,0,0,0,0,-315.71799,0,0,0,-3.70E-06,0,0,,,,
739.9199995,2890,0,630.8841489,3.03E-06,3.46E-06,0,0,0,0,0,693.3420966,0,0,0,-3.40E-06,0,0,,,,
739.9279995,2890,0,-999.1390248,3.00E-06,3.64E-06,0,0,0,0,0,58.41280019,0,0,0,-3.58E-06,0,0,,,,
739.9359995,2890,0,140.0041763,2.98E-06,3.46E-06,0,0,0,0,0,-454.0833763,0,0,0,-3.41E-06,0,0,,,,
739.9439995,2890,0,218.2271309,2.95E-06,3.52E-06,0,0,0,0,0,359.6933522,0,0,0,-3.46E-06,0,0,,,,
739.9519995,2890,0,-724.9873964,2.92E-06,3.44E-06,0,0,0,0,0,-214.5038657,0,0,0,-3.38E-06,0,0,,,,
739.9599995,2890,0,280.2534209,2.89E-06,3.43E-06,0,0,0,0,0,-162.3889175,0,0,0,-3.38E-06,0,0,,,,
739.9679995,2890,0,-178.1518263,2.86E-06,3.39E-06,0,0,0,0,0,254.5546247,0,0,0,-3.33E-06,0,0,,,,
739.9759995,2890,0,-508.0898536,2.84E-06,3.36E-06,0,0,0,0,0,-313.9395436,0,0,0,-3.31E-06,0,0,,,,
739.9839995,2890,0,344.925193,2.81E-06,3.33E-06,0,0,0,0,0,91.06069484,0,0,0,-3.28E-06,0,0,,,,
739.9919995,2890,0,-558.0715464,-1.03E-06,3.30E-06,0,0,0,0,0,27.55924002,0,0,0,-3.25E-06,0,0,,,,
739.9999995,2890,0,-97.18580446,-4.66E-06,3.27E-06,0,0,0,0,0,-270.8350328,0,0,0,-3.22E-06,0,0,,,,
740.0079995,2890,0,130.4031982,-3.50E-06,3.24E-06,0,0,0,0,0,271.6955839,0,0,0,-3.19E-06,0,0,,,,
740.0159995,2890,0,-692.8335544,-3.56E-06,3.21E-06,0,0,0,0,0,-236.6214997,0,0,0,-3.16E-06,0,0,,,,
740.0239995,2890,0,461.4026577,-3.76E-06,3.18E-06,0,0,0,0,0,28.60675449,0,0,0,-3.13E-06,0,0,,,,
740.0319995,2890,0,-479.4690651,-3.46E-06,3.15E-06,0,0,0,0,0,111.4570682,0,0,0,-3.10E-06,0,0,,,,
740.0399995,2890,0,-185.890221,-3.64E-06,3.12E-06,0,0,0,0,0,-313.9390011,0,0,0,-3.07E-06,0,0,,,,
740.0479995,2890,0,296.3274879,-3.46E-06,3.09E-06,0,0,0,0,0,305.5631781,0,0,0,-3.04E-06,0,0,,,,
740.0559995,2890,0,-802.3969855,-3.52E-06,3.06E-06,0,0,0,0,0,-217.2731648,0,0,0,-3.01E-06,0,0,,,,
740.0639995,2890,0,490.0990195,-3.44E-06,3.03E-06,0,0,0,0,0,-0.436797564,0,0,0,-2.98E-06,0,0,,,,
740.0719995,2890,0,-449.3043479,-3.43E-06,3.00E-06,0,0,0,0,0,162.6839259,0,0,0,-2.95E-06,0,0,,,,
740.0799995,2890,0,-224.9544552,-3.39E-06,2.98E-06,0,0,0,0,0,-327.735333,0,0,0,-2.92E-06,0,0,,,,
740.0879995,2890,0,374.5407169,-3.36E-06,2.95E-06,0,0,0,0,0,315.1222322,0,0,0,-2.90E-06,0,0,,,,
740.0959995,2891,0,-800.2218224,-3.33E-06,2.92E-06,0,0,0,0,0,-199.5201149,0,0,0,-2.87E-06,0,0,,,,
740.1039995,2891,0,528.064415,-3.30E-06,2.89E-06,0,0,0,0,0,-9.031294898,0,0,0,9.74E-07,0,0,,,,
740.1119995,2891,0,-396.9723568,-3.27E-06,2.86E-06,0,0,0,0,0,185.7376259,0,0,0,4.60E-06,0,0,,,,
740.1199995,2891,0,-230.5490928,-3.24E-06,2.84E-06,0,0,0,0,0,-327.0923199,0,0,0,3.44E-06,0,0,,,,
740.1279995,2891,0,398.5993316,-3.21E-06,2.81E-06,0,0,0,0,0,322.1546777,0,0,0,3.51E-06,0,0,,,,
740.1359995,2891,0,-805.4212578,-3.18E-06,-1.03E-06,0,0,0,0,0,-181.9555738,0,0,0,3.70E-06,0,0,,,,
740.1439995,2891,0,499.2660644,-3.15E-06,-4.66E-06,0,0,0,0,0,-14.80131292,0,0,0,3.40E-06,0,0,,,,
740.1519995,2891,0,-406.1910002,-3.12E-06,-3.50E-06,0,0,0,0,0,190.2584003,0,0,0,3.58E-06,0,0,,,,
740.1599995,2891,0,-234.4021246,-3.09E-06,-3.56E-06,0,0,0,0,0,-325.8276086,0,0,0,3.41E-06,0,0,,,,
740.1679995,2891,0,406.0264487,-3.06E-06,-3.76E-06,0,0,0,0,0,319.215761,0,0,0,3.46E-06,0,0,,,,
740.1759995,2891,0,-805.1301119,-3.03E-06,-3.46E-06,0,0,0,0,0,-180.0989654,0,0,0,3.38E-06,0,0,,,,
740.1839995,2891,0,547.3076078,-3.00E-06,-3.64E-06,0,0,0,0,0,-6.892998629,0,0,0,3.38E-06,0,0,,,,
740.1919995,2891,0,-336.8402918,-2.98E-06,-3.46E-06,0,0,0,0,0,214.2527884,0,0,0,3.33E-06,0,0,,,,
740.1999995,2891,0,-225.7261576,-2.95E-06,-3.52E-06,0,0,0,0,0,-329.2901019,0,0,0,3.31E-06,0,0,,,,
740.2079995,2891,0,418.3758591,-2.92E-06,-3.44E-06,0,0,0,0,0,306.3347145,0,0,0,3.28E-06,0,0,,,,
740.2159995,2891,0,-795.4089326,-2.89E-06,-3.43E-06,0,0,0,0,0,-181.2142176,0,0,0,3.25E-06,0,0,,,,
740.2239995,2891,0,566.7247411,-2.86E-06,-3.39E-06,0,0,0,0,0,-17.16895256,0,0,0,3.22E-06,0,0,,,,
740.2319995,2891,0,-333.3534446,-2.84E-06,-3.36E-06,0,0,0,0,0,210.3325494,0,0,0,3.19E-06,0,0,,,,
740.2399995,2891,0,-260.9059688,-2.81E-06,-3.33E-06,0,0,0,0,0,-342.9787583,0,0,0,3.16E-06,0,0,,,,
740.2479995,2891,0,468.9314851,1.03E-06,-3.30E-06,0,0,0,0,0,314.1303616,0,0,0,3.13E-06,0,0,,,,
740.2559995,2891,0,-763.0966775,4.66E-06,-3.27E-06,0,0,0,0,0,-160.0260701,0,0,0,3.10E-06,0,0,,,,
740.2639995,2891,0,545.2136799,3.50E-06,-3.24E-06,0,0,0,0,0,-25.88777694,0,0,0,3.07E-06,0,0,,,,
740.2719995,2891,0,-309.8088394,3.56E-06,-3.21E-06,0,0,0,0,0,218.8130742,0,0,0,3.04E-06,0,0,,,,
740.2799995,2891,0,-237.5801667,3.76E-06,-3.18E-06,0,0,0,0,0,-331.1400451,0,0,0,3.01E-06,0,0,,,,
740.2879995,2891,0,514.0948285,3.46E-06,-3.15E-06,0,0,0,0,0,328.7991155,0,0,0,2.98E-06,0,0,,,,
740.2959995,2891,0,-717.994141,3.64E-06,-3.12E-06,0,0,0,0,0,-132.3945438,0,0,0,2.95E-06,0,0,,,,
740.3039995,2891,0,601.9267616,3.46E-06,-3.09E-06,0,0,0,0,0,-9.42485409,0,0,0,2.92E-06,0,0,,,,
740.3119995,2891,0,-218.8027543,3.52E-06,-3.06E-06,0,0,0,0,0,252.653075,0,0,0,2.90E-06,0,0,,,,
740.3199995,2891,0,-174.2091998,3.44E-06,-3.03E-06,0,0,0,0,0,-304.2825959,0,0,0,2.87E-06,0,0,,,,
740.3279995,2891,0,578.1067459,3.43E-06,-3.00E-06,0,0,0,0,0,338.3330479,0,0,0,-9.74E-07,0,0,,,,
740.3359995,2891,0,-654.0539213,3.39E-06,-2.98E-06,0,0,0,0,0,-119.4425056,0,0,0,-4.60E-06,0,0,,,,
740.3439995,2891,0,666.7639923,3.36E-06,-2.95E-06,0,0,0,0,0,-2.660882246,0,0,0,-3.44E-06,0,0,,,,
740.3519995,2892,0,-175.4186872,3.33E-06,-2.92E-06,0,0,0,0,0,258.6080355,0,0,0,-3.51E-06,0,0,,,,
740.3599995,2892,0,-132.0265304,3.30E-06,-2.89E-06,0,0,0,0,0,-301.1955528,0,0,0,-3.70E-06,0,0,,,,
740.3679995,2892,0,649.8920427,3.27E-06,-2.86E-06,0,0,0,0,0,356.3569626,0,0,0,-3.40E-06,0,0,,,,
740.3759995,2892,0,-670.639648,3.24E-06,-2.84E-06,0,0,0,0,0,-116.7839872,0,0,0,-3.58E-06,0,0,,,,
740.3839995,2892,0,664.1260597,3.21E-06,-2.81E-06,0,0,0,0,0,-16.60017302,0,0,0,-3.41E-06,0,0,,,,
740.3919995,2892,0,-107.2438252,3.18E-06,1.03E-06,0,0,0,0,0,280.5526098,0,0,0,-3.46E-06,0,0,,,,
740.3999995,2892,0,-115.2305757,3.15E-06,4.66E-06,0,0,0,0,0,-293.9618361,0,0,0,-3.38E-06,0,0,,,,
740.4079995,2892,0,690.2483452,3.12E-06,3.50E-06,0,0,0,0,0,355.2324924,0,0,0,-3.38E-06,0,0,,,,
740.4159995,2892,0,-624.5613321,3.09E-06,3.56E-06,0,0,0,0,0,-100.4856621,0,0,0,-3.33E-06,0,0,,,,
740.4239995,2892,0,673.4730731,3.06E-06,3.76E-06,0,0,0,0,0,-19.37983145,0,0,0,-3.31E-06,0,0,,,,
740.4319995,2892,0,-113.682511,3.03E-06,3.46E-06,0,0,0,0,0,270.5186185,0,0,0,-3.28E-06,0,0,,,,
740.4399995,2892,0,-195.5849631,3.00E-06,3.64E-06,0,0,0,0,0,-680.0791023,0,0,0,-3.25E-06,0,0,,,,
740.4479995,2892,0,1095.128351,2.98E-06,3.46E-06,0,0,0,0,0,-231.433568,0,0,0,-3.22E-06,0,0,,,,
740.4559995,2892,0,-172.6819844,2.95E-06,3.52E-06,0,0,0,0,0,-244.7323194,0,0,0,-3.19E-06,0,0,,,,
740.4639995,2892,0,560.1994578,2.92E-06,3.44E-06,0,0,0,0,0,-104.0706117,0,0,0,-3.16E-06,0,0,,,,
740.4719995,2892,0,96.58211735,2.89E-06,3.43E-06,0,0,0,0,0,422.1753922,0,0,0,-3.13E-06,0,0,,,,
740.4799995,2892,0,-357.322008,2.86E-06,3.39E-06,0,0,0,0,0,-253.4827083,0,0,0,-3.10E-06,0,0,,,,
740.4879995,2892,0,802.8360578,2.84E-06,3.36E-06,0,0,0,0,0,174.5740561,0,0,0,-3.07E-06,0,0,,,,
740.4959995,2892,0,-362.2295859,2.81E-06,3.33E-06,0,0,0,0,0,172.392939,0,0,0,-3.04E-06,0,0,,,,
740.5039995,2892,0,195.0016257,-1.03E-06,3.30E-06,0,0,0,0,0,-252.0531968,0,0,0,-3.01E-06,0,0,,,,
740.5119995,2892,0,469.593392,-4.66E-06,3.27E-06,0,0,0,0,0,358.1657805,0,0,0,-2.98E-06,0,0,,,,
740.5199995,2892,0,-494.2567094,-3.50E-06,3.24E-06,0,0,0,0,0,-146.5613647,0,0,0,-2.95E-06,0,0,,,,
740.5279995,2892,0,694.7458123,-3.56E-06,3.21E-06,0,0,0,0,0,30.17897126,0,0,0,-2.92E-06,0,0,,,,
740.5359995,2892,0,-193.1921194,-3.76E-06,3.18E-06,0,0,0,0,0,225.2343104,0,0,0,-2.90E-06,0,0,,,,
740.5439995,2892,0,-79.62021727,-3.46E-06,3.15E-06,0,0,0,0,0,-305.1607854,0,0,0,-2.87E-06,0,0,,,,
740.5519995,2892,0,568.7257783,-3.64E-06,3.12E-06,0,0,0,0,0,317.8365847,0,0,0,9.74E-07,0,0,,,,
740.5599995,2892,0,-622.8261208,-3.46E-06,3.09E-06,0,0,0,0,0,-132.5433033,0,0,0,4.60E-06,0,0,,,,
740.5679995,2892,0,640.0470102,-3.52E-06,3.06E-06,0,0,0,0,0,-40.65104998,0,0,0,3.44E-06,0,0,,,,
740.5759995,2892,0,-72.77387543,-3.44E-06,3.03E-06,0,0,0,0,0,266.3144634,0,0,0,3.51E-06,0,0,,,,
740.5839995,2892,0,-144.0231677,-3.43E-06,3.00E-06,0,0,0,0,0,-321.0248257,0,0,0,3.70E-06,0,0,,,,
740.5919995,2892,0,644.2010514,-3.39E-06,2.98E-06,0,0,0,0,0,299.2569137,0,0,0,3.40E-06,0,0,,,,
740.5999995,2892,0,-670.6868082,-3.36E-06,2.95E-06,0,0,0,0,0,-126.1188937,0,0,0,3.58E-06,0,0,,,,
740.6079995,2893,0,601.0795271,-3.33E-06,2.92E-06,0,0,0,0,0,-72.42313682,0,0,0,3.41E-06,0,0,,,,
740.6159995,2893,0,-87.87299581,-3.30E-06,2.89E-06,0,0,0,0,0,261.6030559,0,0,0,3.46E-06,0,0,,,,
740.6239995,2893,0,-219.2983329,-3.27E-06,2.86E-06,0,0,0,0,0,-344.0562863,0,0,0,3.38E-06,0,0,,,,
740.6319995,2893,0,685.6619162,-3.24E-06,2.84E-06,0,0,0,0,0,300.3390005,0,0,0,3.38E-06,0,0,,,,
740.6399995,2893,0,-656.1101974,-3.21E-06,2.81E-06,0,0,0,0,0,-106.3703216,0,0,0,3.33E-06,0,0,,,,
740.6479995,2893,0,595.6784716,-3.18E-06,-1.03E-06,0,0,0,0,0,-81.42886275,0,0,0,3.31E-06,0,0,,,,
740.6559995,2893,0,-93.67018168,-3.15E-06,-4.66E-06,0,0,0,0,0,262.8439448,0,0,0,3.28E-06,0,0,,,,
740.6639995,2893,0,-278.6777309,-3.12E-06,-3.50E-06,0,0,0,0,0,-359.2532489,0,0,0,3.25E-06,0,0,,,,
740.6719995,2893,0,674.2734937,-3.09E-06,-3.56E-06,0,0,0,0,0,287.4431459,0,0,0,3.22E-06,0,0,,,,
740.6799995,2893,0,-683.0864932,-3.06E-06,-3.76E-06,0,0,0,0,0,-109.1446645,0,0,0,3.19E-06,0,0,,,,
740.6879995,2893,0,587.7454523,-3.03E-06,-3.46E-06,0,0,0,0,0,-91.31935443,0,0,0,3.16E-06,0,0,,,,
740.6959995,2893,0,-34.49365581,-3.00E-06,-3.64E-06,0,0,0,0,0,287.2365716,0,0,0,3.13E-06,0,0,,,,
740.7039995,2893,0,-269.0420275,-2.98E-06,-3.46E-06,0,0,0,0,0,-345.9992315,0,0,0,3.10E-06,0,0,,,,
740.7119995,2893,0,667.2298149,-2.95E-06,-3.52E-06,0,0,0,0,0,282.4069449,0,0,0,3.07E-06,0,0,,,,
740.7199995,2893,0,-710.3783076,-2.92E-06,-3.44E-06,0,0,0,0,0,-100.987476,0,0,0,3.04E-06,0,0,,,,
740.7279995,2893,0,534.1163242,-2.89E-06,-3.43E-06,0,0,0,0,0,-102.1680307,0,0,0,3.01E-06,0,0,,,,
740.7359995,2893,0,-60.69909319,-2.86E-06,-3.39E-06,0,0,0,0,0,280.9990881,0,0,0,2.98E-06,0,0,,,,
740.7439995,2893,0,-284.0886899,-2.84E-06,-3.36E-06,0,0,0,0,0,-341.3701959,0,0,0,2.95E-06,0,0,,,,
740.7519995,2893,0,701.1801818,-2.81E-06,-3.33E-06,0,0,0,0,0,294.1102688,0,0,0,2.92E-06,0,0,,,,
740.7599995,2893,0,-673.684046,1.03E-06,-3.30E-06,0,0,0,0,0,-87.08445326,0,0,0,2.90E-06,0,0,,,,
740.7679995,2893,0,534.3712095,4.66E-06,-3.27E-06,0,0,0,0,0,-106.2760656,0,0,0,2.87E-06,0,0,,,,
740.7759995,2893,0,-48.57917697,3.50E-06,-3.24E-06,0,0,0,0,0,285.1116778,0,0,0,-9.74E-07,0,0,,,,
740.7839995,2893,0,-288.6354102,3.56E-06,-3.21E-06,0,0,0,0,0,-347.7327302,0,0,0,-4.60E-06,0,0,,,,
740.7919995,2893,0,699.0033804,3.76E-06,-3.18E-06,0,0,0,0,0,285.1121101,0,0,0,-3.44E-06,0,0,,,,
740.7999995,2893,0,-687.9612366,3.46E-06,-3.15E-06,0,0,0,0,0,-82.70259013,0,0,0,-3.51E-06,0,0,,,,
740.8079995,2893,0,517.4778868,3.64E-06,-3.12E-06,0,0,0,0,0,-116.0006536,0,0,0,-3.70E-06,0,0,,,,
740.8159995,2893,0,-57.43979758,3.46E-06,-3.09E-06,0,0,0,0,0,279.3329119,0,0,0,-3.40E-06,0,0,,,,
740.8239995,2893,0,-316.8271691,3.52E-06,-3.06E-06,0,0,0,0,0,-358.0294459,0,0,0,-3.58E-06,0,0,,,,
740.8319995,2893,0,720.1708721,3.44E-06,-3.03E-06,0,0,0,0,0,283.5733076,0,0,0,-3.41E-06,0,0,,,,
740.8399995,2893,0,-698.6919002,3.43E-06,-3.00E-06,0,0,0,0,0,-81.48489398,0,0,0,-3.46E-06,0,0,,,,
740.8479995,2893,0,507.5133849,3.39E-06,-2.98E-06,0,0,0,0,0,-134.4023147,0,0,0,-3.38E-06,0,0,,,,
740.8559995,2893,0,19.46687472,3.36E-06,-2.95E-06,0,0,0,0,0,297.3431554,0,0,0,-3.38E-06,0,0,,,,
740.8639995,2894,0,-278.6732224,3.33E-06,-2.92E-06,0,0,0,0,0,-337.3028396,0,0,0,-3.33E-06,0,0,,,,
740.8719995,2894,0,761.1646501,3.30E-06,-2.89E-06,0,0,0,0,0,281.7496412,0,0,0,-3.31E-06,0,0,,,,
740.8799995,2894,0,-630.963954,3.27E-06,-2.86E-06,0,0,0,0,0,-66.23218434,0,0,0,-3.28E-06,0,0,,,,
740.8879995,2894,0,560.7666711,3.24E-06,-2.84E-06,0,0,0,0,0,-117.1861775,0,0,0,-3.25E-06,0,0,,,,
740.8959995,2894,0,44.7177691,3.21E-06,-2.81E-06,0,0,0,0,0,305.1235078,0,0,0,-3.22E-06,0,0,,,,
740.9039995,2894,0,-296.9504486,3.18E-06,1.03E-06,0,0,0,0,0,-351.8938992,0,0,0,-3.19E-06,0,0,,,,
740.9119995,2894,0,788.6304637,3.15E-06,4.66E-06,0,0,0,0,0,279.1173426,0,0,0,-3.16E-06,0,0,,,,
740.9199995,2894,0,-596.7841145,3.12E-06,3.50E-06,0,0,0,0,0,-47.57433303,0,0,0,-3.13E-06,0,0,,,,
740.9279995,2894,0,584.5503759,3.09E-06,3.56E-06,0,0,0,0,0,-111.3909687,0,0,0,-3.10E-06,0,0,,,,
740.9359995,2894,0,73.53594783,3.06E-06,3.76E-06,0,0,0,0,0,320.4754696,0,0,0,-3.07E-06,0,0,,,,
740.9439995,2894,0,-320.4302689,3.03E-06,3.46E-06,0,0,0,0,0,-358.8141991,0,0,0,-3.04E-06,0,0,,,,
740.9519995,2894,0,787.1115587,3.00E-06,3.64E-06,0,0,0,0,0,258.1285419,0,0,0,-3.01E-06,0,0,,,,
740.9599995,2894,0,-602.073837,2.98E-06,3.46E-06,0,0,0,0,0,-48.89340915,0,0,0,-2.98E-06,0,0,,,,
740.9679995,2894,0,563.1494309,2.95E-06,3.52E-06,0,0,0,0,0,-129.322843,0,0,0,-2.95E-06,0,0,,,,
740.9759995,2894,0,102.3519703,2.92E-06,3.44E-06,0,0,0,0,0,315.6598039,0,0,0,-2.92E-06,0,0,,,,
740.9839995,2894,0,-552.2662892,2.89E-06,3.43E-06,0,0,0,0,0,-742.9199788,0,0,0,-2.90E-06,0,0,,,,
740.9919995,2894,0,823.6570679,2.86E-06,3.39E-06,0,0,0,0,0,-419.3028874,0,0,0,-2.87E-06,0,0,,,,
740.9999995,2894,0,-265.9509473,2.84E-06,3.36E-06,0,0,0,0,0,-255.5732316,0,0,0,9.74E-07,0,0,,,,
741.0079995,2894,0,429.3966898,2.81E-06,3.33E-06,0,0,0,0,0,-212.6481246,0,0,0,4.60E-06,0,0,,,,
741.0159995,2894,0,338.1761029,-1.03E-06,3.30E-06,0,0,0,0,0,430.4096161,0,0,0,3.44E-06,0,0,,,,
741.0239995,2894,0,-480.3347829,-4.66E-06,3.27E-06,0,0,0,0,0,-257.7016829,0,0,0,3.51E-06,0,0,,,,
741.0319995,2894,0,760.3606298,-3.50E-06,3.24E-06,0,0,0,0,0,70.57447283,0,0,0,3.70E-06,0,0,,,,
741.0399995,2894,0,-234.0322266,-3.56E-06,3.21E-06,0,0,0,0,0,227.6652678,0,0,0,3.40E-06,0,0,,,,
741.0479995,2894,0,6.231721203,-3.76E-06,3.18E-06,0,0,0,0,0,-328.0279836,0,0,0,3.58E-06,0,0,,,,
741.0559995,2894,0,616.103517,-3.46E-06,3.15E-06,0,0,0,0,0,319.2257072,0,0,0,3.41E-06,0,0,,,,
741.0639995,2894,0,-550.5657366,-3.64E-06,3.12E-06,0,0,0,0,0,-107.6500391,0,0,0,3.46E-06,0,0,,,,
741.0719995,2894,0,599.7001099,-3.46E-06,3.09E-06,0,0,0,0,0,-63.0202745,0,0,0,3.38E-06,0,0,,,,
741.0799995,2894,0,17.32420737,-3.52E-06,3.06E-06,0,0,0,0,0,293.887294,0,0,0,3.38E-06,0,0,,,,
741.0879995,2894,0,-236.5983003,-3.44E-06,3.03E-06,0,0,0,0,0,-334.0140535,0,0,0,3.33E-06,0,0,,,,
741.0959995,2894,0,695.9739491,-3.43E-06,3.00E-06,0,0,0,0,0,251.5473593,0,0,0,3.31E-06,0,0,,,,
741.1039995,2894,0,-587.1631985,-3.39E-06,2.98E-06,0,0,0,0,0,-63.75558198,0,0,0,3.28E-06,0,0,,,,
741.1119995,2894,0,505.7800947,-3.36E-06,2.95E-06,0,0,0,0,0,-121.1134504,0,0,0,3.25E-06,0,0,,,,
741.1199995,2895,0,98.63506861,-3.33E-06,2.92E-06,0,0,0,0,0,317.8653729,0,0,0,3.22E-06,0,0,,,,
741.1279995,2895,0,-290.5710243,-3.30E-06,2.89E-06,0,0,0,0,0,-328.9468342,0,0,0,3.19E-06,0,0,,,,
741.1359995,2895,0,803.1551462,-3.27E-06,2.86E-06,0,0,0,0,0,261.1697236,0,0,0,3.16E-06,0,0,,,,
741.1439995,2895,0,-555.3370372,-3.24E-06,2.84E-06,0,0,0,0,0,-16.88414437,0,0,0,3.13E-06,0,0,,,,
741.1519995,2895,0,532.085404,-3.21E-06,2.81E-06,0,0,0,0,0,-127.9758951,0,0,0,3.10E-06,0,0,,,,
741.1599995,2895,0,156.2730349,-3.18E-06,-1.03E-06,0,0,0,0,0,339.8889514,0,0,0,3.07E-06,0,0,,,,
741.1679995,2895,0,-325.4645221,-3.15E-06,-4.66E-06,0,0,0,0,0,-327.9528233,0,0,0,3.04E-06,0,0,,,,
741.1759995,2895,0,846.6371212,-3.12E-06,-3.50E-06,0,0,0,0,0,252.8672575,0,0,0,3.01E-06,0,0,,,,
741.1839995,2895,0,-551.2566013,-3.09E-06,-3.56E-06,0,0,0,0,0,-10.25461574,0,0,0,2.98E-06,0,0,,,,
741.1919995,2895,0,495.7357423,-3.06E-06,-3.76E-06,0,0,0,0,0,-152.8922017,0,0,0,2.95E-06,0,0,,,,
741.1999995,2895,0,166.8620024,-3.03E-06,-3.46E-06,0,0,0,0,0,330.2337076,0,0,0,2.92E-06,0,0,,,,
741.2079995,2895,0,-374.7141285,-3.00E-06,-3.64E-06,0,0,0,0,0,-342.0599832,0,0,0,2.90E-06,0,0,,,,
741.2159995,2895,0,803.484918,-2.98E-06,-3.46E-06,0,0,0,0,0,233.6695923,0,0,0,2.87E-06,0,0,,,,
741.2239995,2895,0,-589.1062706,-2.95E-06,-3.52E-06,0,0,0,0,0,-11.64241573,0,0,0,-9.74E-07,0,0,,,,
741.2319995,2895,0,438.6133605,-2.92E-06,-3.44E-06,0,0,0,0,0,-169.3825058,0,0,0,-4.60E-06,0,0,,,,
741.2399995,2895,0,176.0908377,-2.89E-06,-3.43E-06,0,0,0,0,0,343.5016653,0,0,0,-3.44E-06,0,0,,,,
741.2479995,2895,0,-356.8468278,-2.86E-06,-3.39E-06,0,0,0,0,0,-313.9231167,0,0,0,-3.51E-06,0,0,,,,
741.2559995,2895,0,797.7099245,-2.84E-06,-3.36E-06,0,0,0,0,0,241.327965,0,0,0,-3.70E-06,0,0,,,,
741.2639995,2895,0,-612.7599376,-2.81E-06,-3.33E-06,0,0,0,0,0,-1.154734938,0,0,0,-3.40E-06,0,0,,,,
741.2719995,2895,0,431.4133832,1.03E-06,-3.30E-06,0,0,0,0,0,-162.7102035,0,0,0,-3.58E-06,0,0,,,,
741.2799995,2895,0,178.7315935,4.66E-06,-3.27E-06,0,0,0,0,0,360.2104468,0,0,0,-3.41E-06,0,0,,,,
741.2879995,2895,0,-395.3388358,3.50E-06,-3.24E-06,0,0,0,0,0,-309.3042419,0,0,0,-3.46E-06,0,0,,,,
741.2959995,2895,0,834.5116949,3.56E-06,-3.21E-06,0,0,0,0,0,248.036249,0,0,0,-3.38E-06,0,0,,,,
741.3039995,2895,0,-558.0097356,3.76E-06,-3.18E-06,0,0,0,0,0,25.62177274,0,0,0,-3.38E-06,0,0,,,,
741.3119995,2895,0,433.6611961,3.46E-06,-3.15E-06,0,0,0,0,0,-162.5545862,0,0,0,-3.33E-06,0,0,,,,
741.3199995,2895,0,218.2814124,3.64E-06,-3.12E-06,0,0,0,0,0,368.2247118,0,0,0,-3.31E-06,0,0,,,,
741.3279995,2895,0,-399.3435476,3.46E-06,-3.09E-06,0,0,0,0,0,-309.894658,0,0,0,-3.28E-06,0,0,,,,
741.3359995,2895,0,798.8910909,3.52E-06,-3.06E-06,0,0,0,0,0,214.8829474,0,0,0,-3.25E-06,0,0,,,,
741.3439995,2895,0,-574.1866388,3.44E-06,-3.03E-06,0,0,0,0,0,11.14032116,0,0,0,-3.22E-06,0,0,,,,
741.3519995,2895,0,399.035947,3.43E-06,-3.00E-06,0,0,0,0,0,-184.4533122,0,0,0,-3.19E-06,0,0,,,,
741.3599995,2895,0,187.7894677,3.39E-06,-2.98E-06,0,0,0,0,0,332.4253894,0,0,0,-3.16E-06,0,0,,,,
741.3679995,2895,0,-432.8703863,3.36E-06,-2.95E-06,0,0,0,0,0,-338.6736935,0,0,0,-3.13E-06,0,0,,,,
741.3759995,2896,0,765.2670521,3.33E-06,-2.92E-06,0,0,0,0,0,191.6819181,0,0,0,-3.10E-06,0,0,,,,
741.3839995,2896,0,-625.2229486,3.30E-06,-2.89E-06,0,0,0,0,0,-9.238295001,0,0,0,-3.07E-06,0,0,,,,
741.3919995,2896,0,873.7465546,3.27E-06,-2.86E-06,0,0,0,0,0,-141.7729278,0,0,0,-3.04E-06,0,0,,,,
741.3999995,2896,0,1422.629986,3.24E-06,-2.84E-06,0,0,0,0,0,838.0329352,0,0,0,-3.01E-06,0,0,,,,
741.4079995,2896,0,88.86878731,3.21E-06,-2.81E-06,0,0,0,0,0,297.0686162,0,0,0,-2.98E-06,0,0,,,,
741.4159995,2896,0,1223.957632,3.18E-06,1.03E-06,0,0,0,0,0,395.5833392,0,0,0,-2.95E-06,0,0,,,,
741.4239995,2896,0,-134.6055579,3.15E-06,4.66E-06,0,0,0,0,0,260.1929593,0,0,0,-2.92E-06,0,0,,,,
741.4319995,2896,0,-580.4114739,3.12E-06,3.50E-06,0,0,0,0,0,-441.4559865,0,0,0,-2.90E-06,0,0,,,,
741.4399995,2896,0,677.3974742,3.09E-06,3.56E-06,0,0,0,0,0,194.1523309,0,0,0,-2.87E-06,0,0,,,,
741.4479995,2896,0,-438.0425622,3.06E-06,3.76E-06,0,0,0,0,0,43.48733676,0,0,0,9.74E-07,0,0,,,,
741.4559995,2896,0,-79.44789074,3.03E-06,3.46E-06,0,0,0,0,0,-294.269987,0,0,0,4.60E-06,0,0,,,,
741.4639995,2896,0,446.9128351,3.00E-06,3.64E-06,0,0,0,0,0,241.4888084,0,0,0,3.44E-06,0,0,,,,
741.4719995,2896,0,-617.9812016,2.98E-06,3.46E-06,0,0,0,0,0,-152.849705,0,0,0,3.51E-06,0,0,,,,
741.4799995,2896,0,332.9702182,2.95E-06,3.52E-06,0,0,0,0,0,-106.2666237,0,0,0,3.70E-06,0,0,,,,
741.4879995,2896,0,-88.95614338,2.92E-06,3.44E-06,0,0,0,0,0,196.4363935,0,0,0,3.40E-06,0,0,,,,
741.4959995,2896,0,-427.6486744,2.89E-06,3.43E-06,0,0,0,0,0,-325.9338676,0,0,0,3.58E-06,0,0,,,,
741.5039995,2896,0,538.7607447,2.86E-06,3.39E-06,0,0,0,0,0,159.6305538,0,0,0,3.41E-06,0,0,,,,
741.5119995,2896,0,-711.183603,2.84E-06,3.36E-06,0,0,0,0,0,-61.33154482,0,0,0,3.46E-06,0,0,,,,
741.5199995,2896,0,164.5520282,2.81E-06,3.33E-06,0,0,0,0,0,-212.8623092,0,0,0,3.38E-06,0,0,,,,
741.5279995,2896,0,4.33781072,-1.03E-06,3.30E-06,0,0,0,0,0,265.2983383,0,0,0,3.38E-06,0,0,,,,
741.5359995,2896,0,-591.0423594,-4.66E-06,3.27E-06,0,0,0,0,0,-331.0633231,0,0,0,3.33E-06,0,0,,,,
741.5439995,2896,0,584.3185166,-3.50E-06,3.24E-06,0,0,0,0,0,148.213421,0,0,0,3.31E-06,0,0,,,,
741.5519995,2896,0,-731.6774606,-3.56E-06,3.21E-06,0,0,0,0,0,-13.21057242,0,0,0,3.28E-06,0,0,,,,
741.5599995,2896,0,136.5136931,-3.76E-06,3.18E-06,0,0,0,0,0,-234.8738068,0,0,0,3.25E-06,0,0,,,,
741.5679995,2896,0,74.50996117,-3.46E-06,3.15E-06,0,0,0,0,0,311.3665865,0,0,0,3.22E-06,0,0,,,,
741.5759995,2896,0,-626.6622142,-3.64E-06,3.12E-06,0,0,0,0,0,-326.184059,0,0,0,3.19E-06,0,0,,,,
741.5839995,2896,0,631.9553924,-3.46E-06,3.09E-06,0,0,0,0,0,154.2183215,0,0,0,3.16E-06,0,0,,,,
741.5919995,2896,0,-681.8557468,-3.52E-06,3.06E-06,0,0,0,0,0,24.32171222,0,0,0,3.13E-06,0,0,,,,
741.5999995,2896,0,161.7417226,-3.44E-06,3.03E-06,0,0,0,0,0,-236.7364732,0,0,0,3.10E-06,0,0,,,,
741.6079995,2896,0,124.0073702,-3.43E-06,3.00E-06,0,0,0,0,0,330.1640424,0,0,0,3.07E-06,0,0,,,,
741.6159995,2896,0,-619.0211272,-3.39E-06,2.98E-06,0,0,0,0,0,-317.3019706,0,0,0,3.04E-06,0,0,,,,
741.6239995,2896,0,669.2522716,-3.36E-06,2.95E-06,0,0,0,0,0,149.856044,0,0,0,3.01E-06,0,0,,,,
741.6319995,2897,0,-655.5020126,-3.33E-06,2.92E-06,0,0,0,0,0,32.80262004,0,0,0,2.98E-06,0,0,,,,
741.6399995,2897,0,143.4674794,-3.30E-06,2.89E-06,0,0,0,0,0,-248.1120281,0,0,0,2.95E-06,0,0,,,,
741.6479995,2897,0,102.1608871,-3.27E-06,2.86E-06,0,0,0,0,0,310.3814681,0,0,0,2.92E-06,0,0,,,,
741.6559995,2897,0,-684.4578169,-3.24E-06,2.84E-06,0,0,0,0,0,-348.5941742,0,0,0,2.90E-06,0,0,,,,
741.6639995,2897,0,601.9635914,-3.21E-06,2.81E-06,0,0,0,0,0,115.2456914,0,0,0,2.87E-06,0,0,,,,
741.6719995,2897,0,-741.8128135,-3.18E-06,-1.03E-06,0,0,0,0,0,3.540730733,0,0,0,-9.74E-07,0,0,,,,
741.6799995,2897,0,48.11229372,-3.15E-06,-4.66E-06,0,0,0,0,0,-288.4144637,0,0,0,-4.60E-06,0,0,,,,
741.6879995,2897,0,69.85771323,-3.12E-06,-3.50E-06,0,0,0,0,0,302.2953458,0,0,0,-3.44E-06,0,0,,,,
741.6959995,2897,0,-728.0043714,-3.09E-06,-3.56E-06,0,0,0,0,0,-341.7020035,0,0,0,-3.51E-06,0,0,,,,
741.7039995,2897,0,583.4443196,-3.06E-06,-3.76E-06,0,0,0,0,0,114.8992493,0,0,0,-3.70E-06,0,0,,,,
741.7119995,2897,0,-724.9545952,-3.03E-06,-3.46E-06,0,0,0,0,0,30.02003415,0,0,0,-3.40E-06,0,0,,,,
741.7199995,2897,0,48.36355063,-3.00E-06,-3.64E-06,0,0,0,0,0,-267.6859216,0,0,0,-3.58E-06,0,0,,,,
741.7279995,2897,0,82.31181984,-2.98E-06,-3.46E-06,0,0,0,0,0,314.6227004,0,0,0,-3.41E-06,0,0,,,,
741.7359995,2897,0,-748.2848528,-2.95E-06,-3.52E-06,0,0,0,0,0,-336.9916605,0,0,0,-3.46E-06,0,0,,,,
741.7439995,2897,0,564.2939507,-2.92E-06,-3.44E-06,0,0,0,0,0,102.5823171,0,0,0,-3.38E-06,0,0,,,,
741.7519995,2897,0,-747.0103887,-2.89E-06,-3.43E-06,0,0,0,0,0,16.52915755,0,0,0,-3.38E-06,0,0,,,,
741.7599995,2897,0,3.198171251,-2.86E-06,-3.39E-06,0,0,0,0,0,-293.0785318,0,0,0,-3.33E-06,0,0,,,,
741.7679995,2897,0,62.50781279,-2.84E-06,-3.36E-06,0,0,0,0,0,300.548555,0,0,0,-3.31E-06,0,0,,,,
741.7759995,2897,0,-803.1228378,-2.81E-06,-3.33E-06,0,0,0,0,0,-354.0344505,0,0,0,-3.28E-06,0,0,,,,
741.7839995,2897,0,513.550104,1.03E-06,-3.30E-06,0,0,0,0,0,76.8102781,0,0,0,-3.25E-06,0,0,,,,
741.7919995,2897,0,-778.9353937,4.66E-06,-3.27E-06,0,0,0,0,0,15.96019479,0,0,0,-3.22E-06,0,0,,,,
741.7999995,2897,0,-53.46227064,3.50E-06,-3.24E-06,0,0,0,0,0,-303.1852564,0,0,0,-3.19E-06,0,0,,,,
741.8079995,2897,0,24.73972835,3.56E-06,-3.21E-06,0,0,0,0,0,294.8877562,0,0,0,-3.16E-06,0,0,,,,
741.8159995,2897,0,-864.522605,3.76E-06,-3.18E-06,0,0,0,0,0,-351.2076135,0,0,0,-3.13E-06,0,0,,,,
741.8239995,2897,0,462.1804475,3.46E-06,-3.15E-06,0,0,0,0,0,69.3499234,0,0,0,-3.10E-06,0,0,,,,
741.8319995,2897,0,-805.1975381,3.64E-06,-3.12E-06,0,0,0,0,0,27.79627835,0,0,0,-3.07E-06,0,0,,,,
741.8399995,2897,0,-112.6541084,3.46E-06,-3.09E-06,0,0,0,0,0,-301.2771049,0,0,0,-3.04E-06,0,0,,,,
741.8479995,2897,0,-10.13301526,3.52E-06,-3.06E-06,0,0,0,0,0,292.1763349,0,0,0,-3.01E-06,0,0,,,,
741.8559995,2897,0,-887.406636,3.44E-06,-3.03E-06,0,0,0,0,0,-339.5318157,0,0,0,-2.98E-06,0,0,,,,
741.8639995,2897,0,441.3274538,3.43E-06,-3.00E-06,0,0,0,0,0,73.43956145,0,0,0,-2.95E-06,0,0,,,,
741.8719995,2897,0,-763.0452458,3.39E-06,-2.98E-06,0,0,0,0,0,256.262644,0,0,0,-2.92E-06,0,0,,,,
741.8799995,2897,0,-381.5390264,3.36E-06,-2.95E-06,0,0,0,0,0,-170.3379628,0,0,0,-2.90E-06,0,0,,,,
741.8879995,2898,0,-111.1700553,3.33E-06,-2.92E-06,0,0,0,0,0,14.37761057,0,0,0,-2.87E-06,0,0,,,,
741.8959995,2898,0,-574.2970708,3.30E-06,-2.89E-06,0,0,0,0,0,-158.1940055,0,0,0,9.74E-07,0,0,,,,
741.9039995,2898,0,-32.39313529,3.27E-06,-2.86E-06,0,0,0,0,0,113.6099634,0,0,0,4.60E-06,0,0,,,,
741.9119995,2898,0,-689.2838539,3.24E-06,-2.84E-06,0,0,0,0,0,-182.7173233,0,0,0,3.44E-06,0,0,,,,
741.9199995,2898,0,67.06177149,3.21E-06,-2.81E-06,0,0,0,0,0,-6.163359128,0,0,0,3.51E-06,0,0,,,,
741.9279995,2898,0,-574.2054682,3.18E-06,1.03E-06,0,0,0,0,0,39.66431687,0,0,0,3.70E-06,0,0,,,,
741.9359995,2898,0,-355.1739763,3.15E-06,4.66E-06,0,0,0,0,0,-272.7594652,0,0,0,3.40E-06,0,0,,,,
741.9439995,2898,0,-17.4948417,3.12E-06,3.50E-06,0,0,0,0,0,234.1200119,0,0,0,3.58E-06,0,0,,,,
741.9519995,2898,0,-905.0001572,3.09E-06,3.56E-06,0,0,0,0,0,-286.2907258,0,0,0,3.41E-06,0,0,,,,
741.9599995,2898,0,1073.759098,3.06E-06,3.76E-06,0,0,0,0,0,235.907605,0,0,0,3.46E-06,0,0,,,,
741.9679995,2898,0,648.1938149,3.03E-06,3.46E-06,0,0,0,0,0,636.5950885,0,0,0,3.38E-06,0,0,,,,
741.9759995,2898,0,-682.0573636,3.00E-06,3.64E-06,0,0,0,0,0,-227.3955671,0,0,0,3.38E-06,0,0,,,,
741.9839995,2898,0,-472.8233423,2.98E-06,3.46E-06,0,0,0,0,0,-115.1035206,0,0,0,3.33E-06,0,0,,,,
741.9919995,2898,0,-223.805161,2.95E-06,3.52E-06,0,0,0,0,0,-32.64629836,0,0,0,3.31E-06,0,0,,,,
741.9999995,2898,0,-328.5821694,2.92E-06,3.44E-06,0,0,0,0,0,22.87038825,0,0,0,3.28E-06,0,0,,,,
742.0079995,2898,0,-621.4727427,2.89E-06,3.43E-06,0,0,0,0,0,-155.4758912,0,0,0,3.25E-06,0,0,,,,
742.0159995,2898,0,122.7207348,2.86E-06,3.39E-06,0,0,0,0,0,12.48762393,0,0,0,3.22E-06,0,0,,,,
742.0239995,2898,0,-707.6038783,2.84E-06,3.36E-06,0,0,0,0,0,-0.745055045,0,0,0,3.19E-06,0,0,,,,
742.0319995,2898,0,-288.4353857,2.81E-06,3.33E-06,0,0,0,0,0,-234.1238881,0,0,0,3.16E-06,0,0,,,,
742.0399995,2898,0,-149.6385555,-1.03E-06,3.30E-06,0,0,0,0,0,194.0136233,0,0,0,3.13E-06,0,0,,,,
742.0479995,2898,0,-901.6180824,-4.66E-06,3.27E-06,0,0,0,0,0,-263.0122107,0,0,0,3.10E-06,0,0,,,,
742.0559995,2898,0,274.8310552,-3.50E-06,3.24E-06,0,0,0,0,0,23.16632151,0,0,0,3.07E-06,0,0,,,,
742.0639995,2898,0,-796.8618106,-3.56E-06,3.21E-06,0,0,0,0,0,46.09745916,0,0,0,3.04E-06,0,0,,,,
742.0719995,2898,0,-309.7474532,-3.76E-06,3.18E-06,0,0,0,0,0,-310.5952481,0,0,0,3.01E-06,0,0,,,,
742.0799995,2898,0,-61.14099406,-3.46E-06,3.15E-06,0,0,0,0,0,250.3965725,0,0,0,2.98E-06,0,0,,,,
742.0879995,2898,0,-989.8427315,-3.64E-06,3.12E-06,0,0,0,0,0,-297.4886245,0,0,0,2.95E-06,0,0,,,,
742.0959995,2898,0,318.9153116,-3.46E-06,3.09E-06,0,0,0,0,0,28.38319871,0,0,0,2.92E-06,0,0,,,,
742.1039995,2898,0,-816.9755731,-3.52E-06,3.06E-06,0,0,0,0,0,75.64028187,0,0,0,2.90E-06,0,0,,,,
742.1119995,2898,0,-310.3365491,-3.44E-06,3.03E-06,0,0,0,0,0,-306.0439258,0,0,0,2.87E-06,0,0,,,,
742.1199995,2898,0,-24.53268218,-3.43E-06,3.00E-06,0,0,0,0,0,308.625682,0,0,0,-9.74E-07,0,0,,,,
742.1279995,2898,0,-1000.347387,-3.39E-06,2.98E-06,0,0,0,0,0,-269.2707683,0,0,0,-4.60E-06,0,0,,,,
742.1359995,2898,0,370.4273019,-3.36E-06,2.95E-06,0,0,0,0,0,60.60453259,0,0,0,-3.44E-06,0,0,,,,
742.1439995,2899,0,-800.6222607,-3.33E-06,2.92E-06,0,0,0,0,0,103.2706184,0,0,0,-3.51E-06,0,0,,,,
742.1519995,2899,0,-315.4797979,-3.30E-06,2.89E-06,0,0,0,0,0,-307.1643915,0,0,0,-3.70E-06,0,0,,,,
742.1599995,2899,0,7.242163179,-3.27E-06,2.86E-06,0,0,0,0,0,314.0426545,0,0,0,-3.40E-06,0,0,,,,
742.1679995,2899,0,-1014.693906,-3.24E-06,2.84E-06,0,0,0,0,0,-277.0049899,0,0,0,-3.58E-06,0,0,,,,
742.1759995,2899,0,364.1435603,-3.21E-06,2.81E-06,0,0,0,0,0,55.73830432,0,0,0,-3.41E-06,0,0,,,,
742.1839995,2899,0,-795.9295989,-3.18E-06,-1.03E-06,0,0,0,0,0,109.2673741,0,0,0,-3.46E-06,0,0,,,,
742.1919995,2899,0,-334.774926,-3.15E-06,-4.66E-06,0,0,0,0,0,-315.7819409,0,0,0,-3.38E-06,0,0,,,,
742.1999995,2899,0,40.36063118,-3.12E-06,-3.50E-06,0,0,0,0,0,326.6720572,0,0,0,-3.38E-06,0,0,,,,
742.2079995,2899,0,-989.4864734,-3.09E-06,-3.56E-06,0,0,0,0,0,-252.9942442,0,0,0,-3.33E-06,0,0,,,,
742.2159995,2899,0,373.7746376,-3.06E-06,-3.76E-06,0,0,0,0,0,63.63236858,0,0,0,-3.31E-06,0,0,,,,
742.2239995,2899,0,-789.3277738,-3.03E-06,-3.46E-06,0,0,0,0,0,121.2458355,0,0,0,-3.28E-06,0,0,,,,
742.2319995,2899,0,-360.6505425,-3.00E-06,-3.64E-06,0,0,0,0,0,-323.6096199,0,0,0,-3.25E-06,0,0,,,,
742.2399995,2899,0,62.71192014,-2.98E-06,-3.46E-06,0,0,0,0,0,321.7221074,0,0,0,-3.22E-06,0,0,,,,
742.2479995,2899,0,-975.8706154,-2.95E-06,-3.52E-06,0,0,0,0,0,-250.461192,0,0,0,-3.19E-06,0,0,,,,
742.2559995,2899,0,370.0361677,-2.92E-06,-3.44E-06,0,0,0,0,0,37.48684746,0,0,0,-3.16E-06,0,0,,,,
742.2639995,2899,0,-739.8199169,-2.89E-06,-3.43E-06,0,0,0,0,0,117.7431198,0,0,0,-3.13E-06,0,0,,,,
742.2719995,2899,0,-312.7510667,-2.86E-06,-3.39E-06,0,0,0,0,0,-306.8004255,0,0,0,-3.10E-06,0,0,,,,
742.2799995,2899,0,77.87027212,-2.84E-06,-3.36E-06,0,0,0,0,0,326.8552358,0,0,0,-3.07E-06,0,0,,,,
742.2879995,2899,0,-998.0023514,-2.81E-06,-3.33E-06,0,0,0,0,0,-251.7310625,0,0,0,-3.04E-06,0,0,,,,
742.2959995,2899,0,359.7087674,1.03E-06,-3.30E-06,0,0,0,0,0,35.71525468,0,0,0,-3.01E-06,0,0,,,,
742.3039995,2899,0,-740.5041548,4.66E-06,-3.27E-06,0,0,0,0,0,128.0383773,0,0,0,-2.98E-06,0,0,,,,
742.3119995,2899,0,-322.997366,3.50E-06,-3.24E-06,0,0,0,0,0,-299.5568114,0,0,0,-2.95E-06,0,0,,,,
742.3199995,2899,0,117.2323531,3.56E-06,-3.21E-06,0,0,0,0,0,345.0886035,0,0,0,-2.92E-06,0,0,,,,
742.3279995,2899,0,-961.5792736,3.76E-06,-3.18E-06,0,0,0,0,0,-231.8595501,0,0,0,-2.90E-06,0,0,,,,
742.3359995,2899,0,395.0085912,3.46E-06,-3.15E-06,0,0,0,0,0,41.86132431,0,0,0,-2.87E-06,0,0,,,,
742.3439995,2899,0,-513.0409786,3.64E-06,-3.12E-06,0,0,0,0,0,367.9948381,0,0,0,9.74E-07,0,0,,,,
742.3519995,2899,0,374.0010579,3.46E-06,-3.09E-06,0,0,0,0,0,0.518670471,0,0,0,4.60E-06,0,0,,,,
742.3599995,2899,0,1421.605696,3.52E-06,-3.06E-06,0,0,0,0,0,512.0047419,0,0,0,3.44E-06,0,0,,,,
742.3679995,2899,0,-22.2956018,3.44E-06,-3.03E-06,0,0,0,0,0,189.4928418,0,0,0,3.51E-06,0,0,,,,
742.3759995,2899,0,165.0384875,3.43E-06,-3.00E-06,0,0,0,0,0,71.24437545,0,0,0,3.70E-06,0,0,,,,
742.3839995,2899,0,-821.3296496,3.39E-06,-2.98E-06,0,0,0,0,0,-99.6216829,0,0,0,3.40E-06,0,0,,,,
742.3919995,2899,0,-104.2629339,3.36E-06,-2.95E-06,0,0,0,0,0,-140.9168805,0,0,0,3.58E-06,0,0,,,,
742.3999995,2900,0,-4.306827179,3.33E-06,-2.92E-06,0,0,0,0,0,245.0695106,0,0,0,3.41E-06,0,0,,,,
742.4079995,2900,0,-902.7025423,3.30E-06,-2.89E-06,0,0,0,0,0,-266.5633493,0,0,0,3.46E-06,0,0,,,,
742.4159995,2900,0,436.0929322,3.27E-06,-2.86E-06,0,0,0,0,0,101.9705684,0,0,0,3.38E-06,0,0,,,,
742.4239995,2900,0,-686.0989653,3.24E-06,-2.84E-06,0,0,0,0,0,63.75990298,0,0,0,3.38E-06,0,0,,,,
742.4319995,2900,0,-193.6479319,3.21E-06,-2.81E-06,0,0,0,0,0,-236.9821806,0,0,0,3.33E-06,0,0,,,,
742.4399995,2900,0,126.6084804,3.18E-06,1.03E-06,0,0,0,0,0,298.8990446,0,0,0,3.31E-06,0,0,,,,
742.4479995,2900,0,-934.6448306,3.15E-06,4.66E-06,0,0,0,0,0,-257.2549159,0,0,0,3.28E-06,0,0,,,,
742.4559995,2900,0,439.0382017,3.12E-06,3.50E-06,0,0,0,0,0,31.49191408,0,0,0,3.25E-06,0,0,,,,
742.4639995,2900,0,-615.3364398,3.09E-06,3.56E-06,0,0,0,0,0,110.6474576,0,0,0,3.22E-06,0,0,,,,
742.4719995,2900,0,-239.1281547,3.06E-06,3.76E-06,0,0,0,0,0,-314.1318524,0,0,0,3.19E-06,0,0,,,,
742.4799995,2900,0,251.8270685,3.03E-06,3.46E-06,0,0,0,0,0,303.8115898,0,0,0,3.16E-06,0,0,,,,
742.4879995,2900,0,-861.4120612,3.00E-06,3.64E-06,0,0,0,0,0,-226.0839329,0,0,0,3.13E-06,0,0,,,,
742.4959995,2900,0,475.4694379,2.98E-06,3.46E-06,0,0,0,0,0,10.15396613,0,0,0,3.10E-06,0,0,,,,
742.5039995,2900,0,-543.6321462,2.95E-06,3.52E-06,0,0,0,0,0,143.612901,0,0,0,3.07E-06,0,0,,,,
742.5119995,2900,0,-237.0788241,2.92E-06,3.44E-06,0,0,0,0,0,-321.073404,0,0,0,3.04E-06,0,0,,,,
742.5199995,2900,0,305.3811564,2.89E-06,3.43E-06,0,0,0,0,0,320.5467822,0,0,0,3.01E-06,0,0,,,,
742.5279995,2900,0,-832.5542224,2.86E-06,3.39E-06,0,0,0,0,0,-211.0991017,0,0,0,2.98E-06,0,0,,,,
742.5359995,2900,0,521.7509181,2.84E-06,3.36E-06,0,0,0,0,0,5.981496119,0,0,0,2.95E-06,0,0,,,,
742.5439995,2900,0,-464.9280242,2.81E-06,3.33E-06,0,0,0,0,0,161.8515321,0,0,0,2.92E-06,0,0,,,,
742.5519995,2900,0,-203.1543535,-1.03E-06,3.30E-06,0,0,0,0,0,-323.48906,0,0,0,2.90E-06,0,0,,,,
742.5599995,2900,0,349.7998974,-4.66E-06,3.27E-06,0,0,0,0,0,315.4309728,0,0,0,2.87E-06,0,0,,,,
742.5679995,2900,0,-824.4000301,-3.50E-06,3.24E-06,0,0,0,0,0,-219.4906866,0,0,0,-9.74E-07,0,0,,,,
742.5759995,2900,0,529.9638585,-3.56E-06,3.21E-06,0,0,0,0,0,-10.19968121,0,0,0,-4.60E-06,0,0,,,,
742.5839995,2900,0,-416.9294459,-3.76E-06,3.18E-06,0,0,0,0,0,166.4844462,0,0,0,-3.44E-06,0,0,,,,
742.5919995,2900,0,-164.3437043,-3.46E-06,3.15E-06,0,0,0,0,0,-320.0968211,0,0,0,-3.51E-06,0,0,,,,
742.5999995,2900,0,415.0816372,-3.64E-06,3.12E-06,0,0,0,0,0,326.3729861,0,0,0,-3.70E-06,0,0,,,,
742.6079995,2900,0,-770.1377752,-3.46E-06,3.09E-06,0,0,0,0,0,-204.9915192,0,0,0,-3.40E-06,0,0,,,,
742.6159995,2900,0,566.3367963,-3.52E-06,3.06E-06,0,0,0,0,0,-11.35141089,0,0,0,-3.58E-06,0,0,,,,
742.6239995,2900,0,-394.6926148,-3.44E-06,3.03E-06,0,0,0,0,0,166.8812088,0,0,0,-3.41E-06,0,0,,,,
742.6319995,2900,0,-199.4094356,-3.43E-06,3.00E-06,0,0,0,0,0,-346.9438355,0,0,0,-3.46E-06,0,0,,,,
742.6399995,2900,0,397.2715901,-3.39E-06,2.98E-06,0,0,0,0,0,294.4991718,0,0,0,-3.38E-06,0,0,,,,
742.6479995,2900,0,-772.4337192,-3.36E-06,2.95E-06,0,0,0,0,0,-211.4514105,0,0,0,-3.38E-06,0,0,,,,
742.6559995,2901,0,554.5031415,-3.33E-06,2.92E-06,0,0,0,0,0,-26.3104097,0,0,0,-3.33E-06,0,0,,,,
742.6639995,2901,0,-384.0962767,-3.30E-06,2.89E-06,0,0,0,0,0,157.3569031,0,0,0,-3.31E-06,0,0,,,,
742.6719995,2901,0,-162.7000297,-3.27E-06,2.86E-06,0,0,0,0,0,-336.0281007,0,0,0,-3.28E-06,0,0,,,,
742.6799995,2901,0,457.2995771,-3.24E-06,2.84E-06,0,0,0,0,0,315.3002454,0,0,0,-3.25E-06,0,0,,,,
742.6879995,2901,0,-737.379001,-3.21E-06,2.81E-06,0,0,0,0,0,-197.7171972,0,0,0,-3.22E-06,0,0,,,,
742.6959995,2901,0,614.46948,-3.18E-06,-1.03E-06,0,0,0,0,0,-9.68074956,0,0,0,-3.19E-06,0,0,,,,
742.7039995,2901,0,-293.178741,-3.15E-06,-4.66E-06,0,0,0,0,0,193.4396391,0,0,0,-3.16E-06,0,0,,,,
742.7119995,2901,0,-110.2245917,-3.12E-06,-3.50E-06,0,0,0,0,0,-317.0718208,0,0,0,-3.13E-06,0,0,,,,
742.7199995,2901,0,513.1011431,-3.09E-06,-3.56E-06,0,0,0,0,0,334.4013893,0,0,0,-3.10E-06,0,0,,,,
742.7279995,2901,0,-681.7860639,-3.06E-06,-3.76E-06,0,0,0,0,0,-162.0799868,0,0,0,-3.07E-06,0,0,,,,
742.7359995,2901,0,689.6613855,-3.03E-06,-3.46E-06,0,0,0,0,0,23.0935103,0,0,0,-3.04E-06,0,0,,,,
742.7439995,2901,0,-210.6654695,-3.00E-06,-3.64E-06,0,0,0,0,0,241.395856,0,0,0,-3.01E-06,0,0,,,,
742.7519995,2901,0,-55.41986154,-2.98E-06,-3.46E-06,0,0,0,0,0,-282.72565,0,0,0,-2.98E-06,0,0,,,,
742.7599995,2901,0,618.2177297,-2.95E-06,-3.52E-06,0,0,0,0,0,359.535799,0,0,0,-2.95E-06,0,0,,,,
742.7679995,2901,0,-572.8363764,-2.92E-06,-3.44E-06,0,0,0,0,0,-132.3653833,0,0,0,-2.92E-06,0,0,,,,
742.7759995,2901,0,778.1397835,-2.89E-06,-3.43E-06,0,0,0,0,0,28.10454592,0,0,0,-2.90E-06,0,0,,,,
742.7839995,2901,0,-97.56111254,-2.86E-06,-3.39E-06,0,0,0,0,0,245.0217324,0,0,0,-2.87E-06,0,0,,,,
742.7919995,2901,0,68.40445484,-2.84E-06,-3.36E-06,0,0,0,0,0,-276.7462207,0,0,0,9.74E-07,0,0,,,,
742.7999995,2901,0,760.6955652,-2.81E-06,-3.33E-06,0,0,0,0,0,371.099232,0,0,0,4.60E-06,0,0,,,,
742.8079995,2901,0,-477.3344606,1.03E-06,-3.30E-06,0,0,0,0,0,-126.6500532,0,0,0,3.44E-06,0,0,,,,
742.8159995,2901,0,852.7195955,4.66E-06,-3.27E-06,0,0,0,0,0,16.26763158,0,0,0,3.51E-06,0,0,,,,
742.8239995,2901,0,323.2448561,3.50E-06,-3.24E-06,0,0,0,0,0,497.5213179,0,0,0,3.70E-06,0,0,,,,
742.8319995,2901,0,234.1817269,3.56E-06,-3.21E-06,0,0,0,0,0,-56.64195334,0,0,0,3.40E-06,0,0,,,,
742.8399995,2901,0,586.1649696,3.76E-06,-3.18E-06,0,0,0,0,0,53.89431148,0,0,0,3.58E-06,0,0,,,,
742.8479995,2901,0,66.33845851,3.46E-06,-3.15E-06,0,0,0,0,0,-56.306017,0,0,0,3.41E-06,0,0,,,,
742.8559995,2901,0,693.7231587,3.64E-06,-3.12E-06,0,0,0,0,0,127.8264405,0,0,0,3.46E-06,0,0,,,,
742.8639995,2901,0,-79.95749571,3.46E-06,-3.09E-06,0,0,0,0,0,-51.81282966,0,0,0,3.38E-06,0,0,,,,
742.8719995,2901,0,599.6061186,3.52E-06,-3.06E-06,0,0,0,0,0,-37.98074593,0,0,0,3.38E-06,0,0,,,,
742.8799995,2901,0,193.1879999,3.44E-06,-3.03E-06,0,0,0,0,0,145.669533,0,0,0,3.33E-06,0,0,,,,
742.8879995,2901,0,-19.33048365,3.43E-06,-3.00E-06,0,0,0,0,0,-269.4793568,0,0,0,3.31E-06,0,0,,,,
742.8959995,2901,0,699.523065,3.39E-06,-2.98E-06,0,0,0,0,0,214.6594812,0,0,0,3.28E-06,0,0,,,,
742.9039995,2901,0,-409.5082312,3.36E-06,-2.95E-06,0,0,0,0,0,-137.2584097,0,0,0,3.25E-06,0,0,,,,
742.9119995,2902,0,709.1386236,3.33E-06,-2.92E-06,0,0,0,0,0,-60.95003036,0,0,0,3.22E-06,0,0,,,,
742.9199995,2902,0,22.36371009,3.30E-06,-2.89E-06,0,0,0,0,0,189.1922301,0,0,0,3.19E-06,0,0,,,,
742.9279995,2902,0,-83.63958907,3.27E-06,-2.86E-06,0,0,0,0,0,-338.976925,0,0,0,3.16E-06,0,0,,,,
742.9359995,2902,0,691.0558339,3.24E-06,-2.84E-06,0,0,0,0,0,254.9805235,0,0,0,3.13E-06,0,0,,,,
742.9439995,2902,0,-586.117834,3.21E-06,-2.81E-06,0,0,0,0,0,-164.8657292,0,0,0,3.10E-06,0,0,,,,
742.9519995,2902,0,638.4507559,3.18E-06,1.03E-06,0,0,0,0,0,-88.1757112,0,0,0,3.07E-06,0,0,,,,
742.9599995,2902,0,-97.55674456,3.15E-06,4.66E-06,0,0,0,0,0,195.3429187,0,0,0,3.04E-06,0,0,,,,
742.9679995,2902,0,-137.2813601,3.12E-06,3.50E-06,0,0,0,0,0,-694.702733,0,0,0,3.01E-06,0,0,,,,
742.9759995,2902,0,1133.28732,3.09E-06,3.56E-06,0,0,0,0,0,-255.8433666,0,0,0,2.98E-06,0,0,,,,
742.9839995,2902,0,-131.6704978,3.06E-06,3.76E-06,0,0,0,0,0,66.25714158,0,0,0,2.95E-06,0,0,,,,
742.9919995,2902,0,42.03615956,3.03E-06,3.46E-06,0,0,0,0,0,36.3242438,0,0,0,2.92E-06,0,0,,,,
742.9999995,2902,0,-34.88888554,3.00E-06,3.64E-06,0,0,0,0,0,-84.24144873,0,0,0,2.90E-06,0,0,,,,
743.0079995,2902,0,180.9795208,2.98E-06,3.46E-06,0,0,0,0,0,-12.34044464,0,0,0,2.87E-06,0,0,,,,
743.0159995,2902,0,-9.682559963,2.95E-06,3.52E-06,0,0,0,0,0,117.4185762,0,0,0,-9.74E-07,0,0,,,,
743.0239995,2902,0,-149.4671173,2.92E-06,3.44E-06,0,0,0,0,0,-241.6587624,0,0,0,-4.60E-06,0,0,,,,
743.0319995,2902,0,361.2684482,2.89E-06,3.43E-06,0,0,0,0,0,191.5009052,0,0,0,-3.44E-06,0,0,,,,
743.0399995,2902,0,-500.8872346,2.86E-06,3.39E-06,0,0,0,0,0,-119.9103097,0,0,0,-3.51E-06,0,0,,,,
743.0479995,2902,0,415.0029585,2.84E-06,3.36E-06,0,0,0,0,0,-57.97017405,0,0,0,-3.70E-06,0,0,,,,
743.0559995,2902,0,-129.0895348,2.81E-06,3.33E-06,0,0,0,0,0,189.2295808,0,0,0,-3.40E-06,0,0,,,,
743.0639995,2902,0,-245.7884304,-1.03E-06,3.30E-06,0,0,0,0,0,-317.2756138,0,0,0,-3.58E-06,0,0,,,,
743.0719995,2902,0,485.9414534,-4.66E-06,3.27E-06,0,0,0,0,0,245.4048864,0,0,0,-3.41E-06,0,0,,,,
743.0799995,2902,0,-717.6034722,-3.50E-06,3.24E-06,0,0,0,0,0,-148.5360472,0,0,0,-3.46E-06,0,0,,,,
743.0879995,2902,0,405.8203314,-3.56E-06,3.21E-06,0,0,0,0,0,-99.12395426,0,0,0,-3.38E-06,0,0,,,,
743.0959995,2902,0,-219.9465094,-3.76E-06,3.18E-06,0,0,0,0,0,203.9083486,0,0,0,-3.38E-06,0,0,,,,
743.1039995,2902,0,-321.676227,-3.46E-06,3.15E-06,0,0,0,0,0,-342.9251851,0,0,0,-3.33E-06,0,0,,,,
743.1119995,2902,0,469.7063687,-3.64E-06,3.12E-06,0,0,0,0,0,259.7038318,0,0,0,-3.31E-06,0,0,,,,
743.1199995,2902,0,-793.6531077,-3.46E-06,3.09E-06,0,0,0,0,0,-145.58151,0,0,0,-3.28E-06,0,0,,,,
743.1279995,2902,0,449.7196337,-3.52E-06,3.06E-06,0,0,0,0,0,-80.91452282,0,0,0,-3.25E-06,0,0,,,,
743.1359995,2902,0,-248.2685896,-3.44E-06,3.03E-06,0,0,0,0,0,230.8682399,0,0,0,-3.22E-06,0,0,,,,
743.1439995,2902,0,-386.1343302,-3.43E-06,3.00E-06,0,0,0,0,0,-357.3411227,0,0,0,-3.19E-06,0,0,,,,
743.1519995,2902,0,474.6522212,-3.39E-06,2.98E-06,0,0,0,0,0,263.5195149,0,0,0,-3.16E-06,0,0,,,,
743.1599995,2902,0,-825.2017109,-3.36E-06,2.95E-06,0,0,0,0,0,-133.970609,0,0,0,-3.13E-06,0,0,,,,
743.1679995,2903,0,391.6594983,-3.33E-06,2.92E-06,0,0,0,0,0,-98.53061815,0,0,0,-3.10E-06,0,0,,,,
743.1759995,2903,0,-278.6195628,-3.30E-06,2.89E-06,0,0,0,0,0,219.6327662,0,0,0,-3.07E-06,0,0,,,,
743.1839995,2903,0,-391.9278004,-3.27E-06,2.86E-06,0,0,0,0,0,-348.2632396,0,0,0,-3.04E-06,0,0,,,,
743.1919995,2903,0,473.2572679,-3.24E-06,2.84E-06,0,0,0,0,0,279.3754186,0,0,0,-3.01E-06,0,0,,,,
743.1999995,2903,0,-848.3419877,-3.21E-06,2.81E-06,0,0,0,0,0,-129.9386227,0,0,0,-2.98E-06,0,0,,,,
743.2079995,2903,0,397.5946113,-3.18E-06,-1.03E-06,0,0,0,0,0,-92.86507277,0,0,0,-2.95E-06,0,0,,,,
743.2159995,2903,0,-251.1714138,-3.15E-06,-4.66E-06,0,0,0,0,0,248.028615,0,0,0,-2.92E-06,0,0,,,,
743.2239995,2903,0,-424.6574247,-3.12E-06,-3.50E-06,0,0,0,0,0,-350.0962308,0,0,0,-2.90E-06,0,0,,,,
743.2319995,2903,0,451.9305375,-3.09E-06,-3.56E-06,0,0,0,0,0,259.1725615,0,0,0,-2.87E-06,0,0,,,,
743.2399995,2903,0,-835.2872288,-3.06E-06,-3.76E-06,0,0,0,0,0,-124.6085783,0,0,0,9.74E-07,0,0,,,,
743.2479995,2903,0,405.883993,-3.03E-06,-3.46E-06,0,0,0,0,0,-91.92552035,0,0,0,4.60E-06,0,0,,,,
743.2559995,2903,0,-244.6719137,-3.00E-06,-3.64E-06,0,0,0,0,0,244.2627379,0,0,0,3.44E-06,0,0,,,,
743.2639995,2903,0,-442.8502869,-2.98E-06,-3.46E-06,0,0,0,0,0,-360.8317309,0,0,0,3.51E-06,0,0,,,,
743.2719995,2903,0,445.1023913,-2.95E-06,-3.52E-06,0,0,0,0,0,250.4411146,0,0,0,3.70E-06,0,0,,,,
743.2799995,2903,0,-860.4264282,-2.92E-06,-3.44E-06,0,0,0,0,0,-124.3794603,0,0,0,3.40E-06,0,0,,,,
743.2879995,2903,0,358.7088199,-2.89E-06,-3.43E-06,0,0,0,0,0,-101.3118862,0,0,0,3.58E-06,0,0,,,,
743.2959995,2903,0,84.27089756,-2.86E-06,-3.39E-06,0,0,0,0,0,480.3658583,0,0,0,3.41E-06,0,0,,,,
743.3039995,2903,0,310.2824649,-2.84E-06,-3.36E-06,0,0,0,0,0,-115.7588417,0,0,0,3.46E-06,0,0,,,,
743.3119995,2903,0,1522.250868,-2.81E-06,-3.33E-06,0,0,0,0,0,215.6957233,0,0,0,3.38E-06,0,0,,,,
743.3199995,2903,0,229.5495609,1.03E-06,-3.30E-06,0,0,0,0,0,179.4865209,0,0,0,3.38E-06,0,0,,,,
743.3279995,2903,0,228.7848478,4.66E-06,-3.27E-06,0,0,0,0,0,9.804764806,0,0,0,3.33E-06,0,0,,,,
743.3359995,2903,0,-608.170275,3.50E-06,-3.24E-06,0,0,0,0,0,31.99669531,0,0,0,3.31E-06,0,0,,,,
743.3439995,2903,0,-159.8288578,3.56E-06,-3.21E-06,0,0,0,0,0,-190.3880018,0,0,0,3.28E-06,0,0,,,,
743.3519995,2903,0,256.2401646,3.76E-06,-3.18E-06,0,0,0,0,0,213.9972117,0,0,0,3.25E-06,0,0,,,,
743.3599995,2903,0,-877.8952165,3.46E-06,-3.15E-06,0,0,0,0,0,-143.557023,0,0,0,3.22E-06,0,0,,,,
743.3679995,2903,0,413.2887479,3.64E-06,-3.12E-06,0,0,0,0,0,-27.87127106,0,0,0,3.19E-06,0,0,,,,
743.3759995,2903,0,-382.7128252,3.46E-06,-3.09E-06,0,0,0,0,0,178.3758251,0,0,0,3.16E-06,0,0,,,,
743.3839995,2903,0,-362.6975261,3.52E-06,-3.06E-06,0,0,0,0,0,-288.1026753,0,0,0,3.13E-06,0,0,,,,
743.3919995,2903,0,378.7561594,3.44E-06,-3.03E-06,0,0,0,0,0,234.2255073,0,0,0,3.10E-06,0,0,,,,
743.3999995,2903,0,-889.6736752,3.43E-06,-3.00E-06,0,0,0,0,0,-117.1757677,0,0,0,3.07E-06,0,0,,,,
743.4079995,2903,0,338.6858276,3.39E-06,-2.98E-06,0,0,0,0,0,-95.79312382,0,0,0,3.04E-06,0,0,,,,
743.4159995,2903,0,-284.1873912,3.36E-06,-2.95E-06,0,0,0,0,0,236.833347,0,0,0,3.01E-06,0,0,,,,
743.4239995,2904,0,-484.1919867,3.33E-06,-2.92E-06,0,0,0,0,0,-328.5656182,0,0,0,2.98E-06,0,0,,,,
743.4319995,2904,0,407.9608013,3.30E-06,-2.89E-06,0,0,0,0,0,222.4748544,0,0,0,2.95E-06,0,0,,,,
743.4399995,2904,0,-868.1457278,3.27E-06,-2.86E-06,0,0,0,0,0,-99.03226849,0,0,0,2.92E-06,0,0,,,,
743.4479995,2904,0,277.6593245,3.24E-06,-2.84E-06,0,0,0,0,0,-119.9036929,0,0,0,2.90E-06,0,0,,,,
743.4559995,2904,0,-282.2262838,3.21E-06,-2.81E-06,0,0,0,0,0,247.4107571,0,0,0,2.87E-06,0,0,,,,
743.4639995,2904,0,-508.2058131,3.18E-06,1.03E-06,0,0,0,0,0,-339.3912382,0,0,0,-9.74E-07,0,0,,,,
743.4719995,2904,0,486.709346,3.15E-06,4.66E-06,0,0,0,0,0,259.8033997,0,0,0,-4.60E-06,0,0,,,,
743.4799995,2904,0,-837.2680365,3.12E-06,3.50E-06,0,0,0,0,0,-65.55752513,0,0,0,-3.44E-06,0,0,,,,
743.4879995,2904,0,300.2133993,3.09E-06,3.56E-06,0,0,0,0,0,-122.9166942,0,0,0,-3.51E-06,0,0,,,,
743.4959995,2904,0,-194.7910298,3.06E-06,3.76E-06,0,0,0,0,0,271.0541671,0,0,0,-3.70E-06,0,0,,,,
743.5039995,2904,0,-505.6984834,3.03E-06,3.46E-06,0,0,0,0,0,-334.4466313,0,0,0,-3.40E-06,0,0,,,,
743.5119995,2904,0,464.7497876,3.00E-06,3.64E-06,0,0,0,0,0,240.1459316,0,0,0,-3.58E-06,0,0,,,,
743.5199995,2904,0,-845.658248,2.98E-06,3.46E-06,0,0,0,0,0,-77.12760461,0,0,0,-3.41E-06,0,0,,,,
743.5279995,2904,0,305.4991601,2.95E-06,3.52E-06,0,0,0,0,0,-120.5416084,0,0,0,-3.46E-06,0,0,,,,
743.5359995,2904,0,-185.0550562,2.92E-06,3.44E-06,0,0,0,0,0,273.8177703,0,0,0,-3.38E-06,0,0,,,,
743.5439995,2904,0,-516.8138072,2.89E-06,3.43E-06,0,0,0,0,0,-350.8189913,0,0,0,-3.38E-06,0,0,,,,
743.5519995,2904,0,471.1622404,2.86E-06,3.39E-06,0,0,0,0,0,224.9395134,0,0,0,-3.33E-06,0,0,,,,
743.5599995,2904,0,-875.886224,2.84E-06,3.36E-06,0,0,0,0,0,-99.41177653,0,0,0,-3.31E-06,0,0,,,,
743.5679995,2904,0,257.5072997,2.81E-06,3.33E-06,0,0,0,0,0,-158.0120863,0,0,0,-3.28E-06,0,0,,,,
743.5759995,2904,0,-215.7749903,-1.03E-06,3.30E-06,0,0,0,0,0,251.1881973,0,0,0,-3.25E-06,0,0,,,,
743.5839995,2904,0,-571.7916036,-4.66E-06,3.27E-06,0,0,0,0,0,-384.6302529,0,0,0,-3.22E-06,0,0,,,,
743.5919995,2904,0,460.7529381,-3.50E-06,3.24E-06,0,0,0,0,0,197.5796427,0,0,0,-3.19E-06,0,0,,,,
743.5999995,2904,0,-889.996265,-3.56E-06,3.21E-06,0,0,0,0,0,-104.5635522,0,0,0,-3.16E-06,0,0,,,,
743.6079995,2904,0,197.7651316,-3.76E-06,3.18E-06,0,0,0,0,0,-191.6805566,0,0,0,-3.13E-06,0,0,,,,
743.6159995,2904,0,-242.201052,-3.46E-06,3.15E-06,0,0,0,0,0,231.4143155,0,0,0,-3.10E-06,0,0,,,,
743.6239995,2904,0,-591.278097,-3.64E-06,3.12E-06,0,0,0,0,0,-381.5872634,0,0,0,-3.07E-06,0,0,,,,
743.6319995,2904,0,470.3841752,-3.46E-06,3.09E-06,0,0,0,0,0,196.245984,0,0,0,-3.04E-06,0,0,,,,
743.6399995,2904,0,-865.4209449,-3.52E-06,3.06E-06,0,0,0,0,0,-89.11451911,0,0,0,-3.01E-06,0,0,,,,
743.6479995,2904,0,223.0165926,-3.44E-06,3.03E-06,0,0,0,0,0,-174.8743076,0,0,0,-2.98E-06,0,0,,,,
743.6559995,2904,0,-176.6989722,-3.43E-06,3.00E-06,0,0,0,0,0,256.3024141,0,0,0,-2.95E-06,0,0,,,,
743.6639995,2904,0,-535.7283204,-3.39E-06,2.98E-06,0,0,0,0,0,-354.3758047,0,0,0,-2.92E-06,0,0,,,,
743.6719995,2904,0,516.7274341,-3.36E-06,2.95E-06,0,0,0,0,0,213.57966,0,0,0,-2.90E-06,0,0,,,,
743.6799995,2905,0,-844.9587931,-3.33E-06,2.92E-06,0,0,0,0,0,-77.44829657,0,0,0,-2.87E-06,0,0,,,,
743.6879995,2905,0,247.0176448,-3.30E-06,2.89E-06,0,0,0,0,0,-172.4999683,0,0,0,9.74E-07,0,0,,,,
743.6959995,2905,0,-132.1917612,-3.27E-06,2.86E-06,0,0,0,0,0,271.4850508,0,0,0,4.60E-06,0,0,,,,
743.7039995,2905,0,-549.389174,-3.24E-06,2.84E-06,0,0,0,0,0,-347.1549655,0,0,0,3.44E-06,0,0,,,,
743.7119995,2905,0,501.2327523,-3.21E-06,2.81E-06,0,0,0,0,0,209.9500796,0,0,0,3.51E-06,0,0,,,,
743.7199995,2905,0,-856.3676822,-3.18E-06,-1.03E-06,0,0,0,0,0,-67.0361516,0,0,0,3.70E-06,0,0,,,,
743.7279995,2905,0,215.7484236,-3.15E-06,-4.66E-06,0,0,0,0,0,-162.8457795,0,0,0,3.40E-06,0,0,,,,
743.7359995,2905,0,-159.4029659,-3.12E-06,-3.50E-06,0,0,0,0,0,285.203829,0,0,0,3.58E-06,0,0,,,,
743.7439995,2905,0,-587.2458144,-3.09E-06,-3.56E-06,0,0,0,0,0,-337.4500029,0,0,0,3.41E-06,0,0,,,,
743.7519995,2905,0,519.1318957,-3.06E-06,-3.76E-06,0,0,0,0,0,231.2603128,0,0,0,3.46E-06,0,0,,,,
743.7599995,2905,0,-828.8526752,-3.03E-06,-3.46E-06,0,0,0,0,0,-26.5848287,0,0,0,3.38E-06,0,0,,,,
743.7679995,2905,0,213.5123571,-3.00E-06,-3.64E-06,0,0,0,0,0,-140.1295406,0,0,0,3.38E-06,0,0,,,,
743.7759995,2905,0,282.4851379,-2.98E-06,-3.46E-06,0,0,0,0,0,520.6396013,0,0,0,3.33E-06,0,0,,,,
743.7839995,2905,0,-408.5253848,-2.95E-06,-3.52E-06,0,0,0,0,0,-64.36084135,0,0,0,3.31E-06,0,0,,,,
743.7919995,2905,0,11.15410774,-2.92E-06,-3.44E-06,0,0,0,0,0,-2.747386294,0,0,0,3.28E-06,0,0,,,,
743.7999995,2905,0,-701.4768925,-2.89E-06,-3.43E-06,0,0,0,0,0,-395.1966889,0,0,0,3.25E-06,0,0,,,,
743.8079995,2905,0,55.601381,-2.86E-06,-3.39E-06,0,0,0,0,0,-634.7249364,0,0,0,3.22E-06,0,0,,,,
743.8159995,2905,0,-230.0335373,-2.84E-06,-3.36E-06,0,0,0,0,0,-195.4991872,0,0,0,3.19E-06,0,0,,,,
743.8239995,2905,0,-111.628516,-2.81E-06,-3.33E-06,0,0,0,0,0,-157.2011776,0,0,0,3.16E-06,0,0,,,,
743.8319995,2905,0,164.3295006,1.03E-06,-3.30E-06,0,0,0,0,0,308.6314828,0,0,0,3.13E-06,0,0,,,,
743.8399995,2905,0,-686.3599302,4.66E-06,-3.27E-06,0,0,0,0,0,-115.7801442,0,0,0,3.10E-06,0,0,,,,
743.8479995,2905,0,350.1560915,3.50E-06,-3.24E-06,0,0,0,0,0,-8.876756273,0,0,0,3.07E-06,0,0,,,,
743.8559995,2905,0,-327.5701728,3.56E-06,-3.21E-06,0,0,0,0,0,272.4447358,0,0,0,3.04E-06,0,0,,,,
743.8639995,2905,0,-392.4257671,3.76E-06,-3.18E-06,0,0,0,0,0,-300.6624434,0,0,0,3.01E-06,0,0,,,,
743.8719995,2905,0,396.2875105,3.46E-06,-3.15E-06,0,0,0,0,0,271.5800828,0,0,0,2.98E-06,0,0,,,,
743.8799995,2905,0,-770.473108,3.64E-06,-3.12E-06,0,0,0,0,0,-37.08577315,0,0,0,2.95E-06,0,0,,,,
743.8879995,2905,0,246.548709,3.46E-06,-3.09E-06,0,0,0,0,0,-106.4461147,0,0,0,2.92E-06,0,0,,,,
743.8959995,2905,0,-139.1557725,3.52E-06,-3.06E-06,0,0,0,0,0,317.6786322,0,0,0,2.90E-06,0,0,,,,
743.9039995,2905,0,-498.0964862,3.44E-06,-3.03E-06,0,0,0,0,0,-293.7715813,0,0,0,2.87E-06,0,0,,,,
743.9119995,2905,0,498.5562214,3.43E-06,-3.00E-06,0,0,0,0,0,239.5955612,0,0,0,-9.74E-07,0,0,,,,
743.9199995,2905,0,-771.8462024,3.39E-06,-2.98E-06,0,0,0,0,0,-6.803405545,0,0,0,-4.60E-06,0,0,,,,
743.9279995,2905,0,205.7758011,3.36E-06,-2.95E-06,0,0,0,0,0,-139.6277045,0,0,0,-3.44E-06,0,0,,,,
743.9359995,2906,0,-86.22276636,3.33E-06,-2.92E-06,0,0,0,0,0,330.4710241,0,0,0,-3.51E-06,0,0,,,,
743.9439995,2906,0,-600.899293,3.30E-06,-2.89E-06,0,0,0,0,0,-298.8507638,0,0,0,-3.70E-06,0,0,,,,
743.9519995,2906,0,511.7480646,3.27E-06,-2.86E-06,0,0,0,0,0,226.5974553,0,0,0,-3.40E-06,0,0,,,,
743.9599995,2906,0,-765.9876574,3.24E-06,-2.84E-06,0,0,0,0,0,27.62437444,0,0,0,-3.58E-06,0,0,,,,
743.9679995,2906,0,215.084673,3.21E-06,-2.81E-06,0,0,0,0,0,-122.178763,0,0,0,-3.41E-06,0,0,,,,
743.9759995,2906,0,-22.92117597,3.18E-06,1.03E-06,0,0,0,0,0,366.3976625,0,0,0,-3.46E-06,0,0,,,,
743.9839995,2906,0,-555.9189806,3.15E-06,4.66E-06,0,0,0,0,0,-256.8447522,0,0,0,-3.38E-06,0,0,,,,
743.9919995,2906,0,591.2158484,3.12E-06,3.50E-06,0,0,0,0,0,260.8002084,0,0,0,-3.38E-06,0,0,,,,
743.9999995,2906,0,-693.8646088,3.09E-06,3.56E-06,0,0,0,0,0,69.52162624,0,0,0,-3.33E-06,0,0,,,,
744.0079995,2906,0,295.3510403,3.06E-06,3.76E-06,0,0,0,0,0,-85.16056944,0,0,0,-3.31E-06,0,0,,,,
744.0159995,2906,0,22.20042692,3.03E-06,3.46E-06,0,0,0,0,0,393.523901,0,0,0,-3.28E-06,0,0,,,,
744.0239995,2906,0,-628.5143609,3.00E-06,3.64E-06,0,0,0,0,0,-260.9073044,0,0,0,-3.25E-06,0,0,,,,
744.0319995,2906,0,411.8216695,2.98E-06,3.46E-06,0,0,0,0,0,226.8578666,0,0,0,-3.22E-06,0,0,,,,
744.0399995,2906,0,-1111.537744,2.95E-06,3.52E-06,0,0,0,0,0,-17.106079,0,0,0,-3.19E-06,0,0,,,,
744.0479995,2906,0,-394.5583123,2.92E-06,3.44E-06,0,0,0,0,0,-253.4237778,0,0,0,-3.16E-06,0,0,,,,
744.0559995,2906,0,-873.7759679,2.89E-06,3.43E-06,0,0,0,0,0,187.3459802,0,0,0,-3.13E-06,0,0,,,,
744.0639995,2906,0,-1732.232364,2.86E-06,3.39E-06,0,0,0,0,0,-506.7736889,0,0,0,-3.10E-06,0,0,,,,
744.0719995,2906,0,-692.7797128,2.84E-06,3.36E-06,0,0,0,0,0,-21.14132648,0,0,0,-3.07E-06,0,0,,,,
744.0799995,2906,0,-2105.67121,2.81E-06,3.33E-06,0,0,0,0,0,-191.7565959,0,0,0,-3.04E-06,0,0,,,,
744.0879995,2906,0,-1257.081285,-1.03E-06,3.30E-06,0,0,0,0,0,-377.4038876,0,0,0,-3.01E-06,0,0,,,,
744.0959995,2906,0,-1417.88729,-4.66E-06,3.27E-06,0,0,0,0,0,149.7594761,0,0,0,-2.98E-06,0,0,,,,
744.1039995,2906,0,-1993.241387,-3.50E-06,3.24E-06,0,0,0,0,0,-444.0611112,0,0,0,-2.95E-06,0,0,,,,
744.1119995,2906,0,-789.758889,-3.56E-06,3.21E-06,0,0,0,0,0,77.45948969,0,0,0,-2.92E-06,0,0,,,,
744.1199995,2906,0,-2063.261645,-3.76E-06,3.18E-06,0,0,0,0,0,-74.48675319,0,0,0,-2.90E-06,0,0,,,,
744.1279995,2906,0,-1136.845918,-3.46E-06,3.15E-06,0,0,0,0,0,-254.2356016,0,0,0,-2.87E-06,0,0,,,,
744.1359995,2906,0,-1260.858254,-3.64E-06,3.12E-06,0,0,0,0,0,268.8434413,0,0,0,9.74E-07,0,0,,,,
744.1439995,2906,0,-1788.052944,-3.46E-06,3.09E-06,0,0,0,0,0,-341.370759,0,0,0,4.60E-06,0,0,,,,
744.1519995,2906,0,-442.9631442,-3.52E-06,3.06E-06,0,0,0,0,0,191.5184437,0,0,0,3.44E-06,0,0,,,,
744.1599995,2906,0,-1496.548936,-3.44E-06,3.03E-06,0,0,0,0,0,71.97825713,0,0,0,3.51E-06,0,0,,,,
744.1679995,2906,0,-173.3880026,-3.43E-06,3.00E-06,0,0,0,0,0,-58.96315481,0,0,0,3.70E-06,0,0,,,,
744.1759995,2906,0,585.9680376,-3.39E-06,2.98E-06,0,0,0,0,0,614.7952613,0,0,0,3.40E-06,0,0,,,,
744.1839995,2906,0,2265.95227,-3.36E-06,2.95E-06,0,0,0,0,0,442.022484,0,0,0,3.58E-06,0,0,,,,
744.1919995,2907,0,5719.648822,-3.33E-06,2.92E-06,0,0,0,0,0,1601.824179,0,0,0,3.41E-06,0,0,,,,
744.1999995,2907,0,2985.338046,-3.30E-06,2.89E-06,0,0,0,0,0,1275.584796,0,0,0,3.46E-06,0,0,,,,
744.2079995,2907,0,37.53080666,-3.27E-06,2.86E-06,0,0,0,0,0,-109.3131029,0,0,0,3.38E-06,0,0,,,,
744.2159995,2907,0,-3354.611079,-3.24E-06,2.84E-06,0,0,0,0,0,-652.9196194,0,0,0,3.38E-06,0,0,,,,
744.2239995,2907,0,-5873.258361,-3.21E-06,2.81E-06,0,0,0,0,0,-1772.039256,0,0,0,3.33E-06,0,0,,,,
744.2319995,2907,0,-4612.094456,-3.18E-06,-1.03E-06,0,0,0,0,0,-1133.892305,0,0,0,3.31E-06,0,0,,,,
744.2399995,2907,0,-5469.451267,-3.15E-06,-4.66E-06,0,0,0,0,0,-884.5087788,0,0,0,3.28E-06,0,0,,,,
744.2479995,2907,0,-4093.464962,-3.12E-06,-3.50E-06,0,0,0,0,0,-853.0145184,0,0,0,3.25E-06,0,0,,,,
744.2559995,2907,0,-3102.965925,-3.09E-06,-3.56E-06,0,0,0,0,0,22.06052379,0,0,0,3.22E-06,0,0,,,,
744.2639995,2907,0,-3615.662478,-3.06E-06,-3.76E-06,0,0,0,0,0,-410.5207549,0,0,0,3.19E-06,0,0,,,,
744.2719995,2907,0,-2805.386452,-3.03E-06,-3.46E-06,0,0,0,0,0,-186.7270048,0,0,0,3.16E-06,0,0,,,,
744.2799995,2907,0,-4167.624376,-3.00E-06,-3.64E-06,0,0,0,0,0,-420.5606544,0,0,0,3.13E-06,0,0,,,,
744.2879995,2907,0,-4628.137825,-2.98E-06,-3.46E-06,0,0,0,0,0,-741.309379,0,0,0,3.10E-06,0,0,,,,
744.2959995,2907,0,-5033.507069,-2.95E-06,-3.52E-06,0,0,0,0,0,-536.588859,0,0,0,3.07E-06,0,0,,,,
744.3039995,2907,0,-4471.901524,-2.92E-06,-3.44E-06,0,0,0,0,0,-933.8556346,0,0,0,3.04E-06,0,0,,,,
744.3119995,2907,0,-3497.039818,-2.89E-06,-3.43E-06,0,0,0,0,0,-532.0469465,0,0,0,3.01E-06,0,0,,,,
744.3199995,2907,0,-4512.196027,-2.86E-06,-3.39E-06,0,0,0,0,0,-663.6970726,0,0,0,2.98E-06,0,0,,,,
744.3279995,2907,0,-4243.766326,-2.84E-06,-3.36E-06,0,0,0,0,0,-566.3337372,0,0,0,2.95E-06,0,0,,,,
744.3359995,2907,0,-4815.361396,-2.81E-06,-3.33E-06,0,0,0,0,0,-269.2566008,0,0,0,2.92E-06,0,0,,,,
744.3439995,2907,0,-4101.759559,1.03E-06,-3.30E-06,0,0,0,0,0,-554.660754,0,0,0,2.90E-06,0,0,,,,
744.3519995,2907,0,-2972.023552,4.66E-06,-3.27E-06,0,0,0,0,0,71.84994525,0,0,0,2.87E-06,0,0,,,,
744.3599995,2907,0,-3695.201474,3.50E-06,-3.24E-06,0,0,0,0,0,-87.05977746,0,0,0,-9.74E-07,0,0,,,,
744.3679995,2907,0,-2336.208943,3.56E-06,-3.21E-06,0,0,0,0,0,-66.18393842,0,0,0,-4.60E-06,0,0,,,,
744.3759995,2907,0,-2810.257467,3.76E-06,-3.18E-06,0,0,0,0,0,301.3380361,0,0,0,-3.44E-06,0,0,,,,
744.3839995,2907,0,-3292.227041,3.46E-06,-3.15E-06,0,0,0,0,0,-318.6544302,0,0,0,-3.51E-06,0,0,,,,
744.3919995,2907,0,-2353.047983,3.64E-06,-3.12E-06,0,0,0,0,0,75.6265493,0,0,0,-3.70E-06,0,0,,,,
744.3999995,2907,0,-3646.475549,3.46E-06,-3.09E-06,0,0,0,0,0,-109.5934062,0,0,0,-3.40E-06,0,0,,,,
744.4079995,2907,0,-2958.960919,3.52E-06,-3.06E-06,0,0,0,0,0,-352.6192692,0,0,0,-3.58E-06,0,0,,,,
744.4159995,2907,0,-3211.979103,3.44E-06,-3.03E-06,0,0,0,0,0,80.95253346,0,0,0,-3.41E-06,0,0,,,,
744.4239995,2907,0,-3856.089707,3.43E-06,-3.00E-06,0,0,0,0,0,-501.85337,0,0,0,-3.46E-06,0,0,,,,
744.4319995,2907,0,-2756.221751,3.39E-06,-2.98E-06,0,0,0,0,0,-87.12026609,0,0,0,-3.38E-06,0,0,,,,
744.4399995,2907,0,-3923.718096,3.36E-06,-2.95E-06,0,0,0,0,0,-178.6090482,0,0,0,-3.38E-06,0,0,,,,
744.4479995,2908,0,-3128.464284,3.33E-06,-2.92E-06,0,0,0,0,0,-405.7037847,0,0,0,-3.33E-06,0,0,,,,
744.4559995,2908,0,-3075.523936,3.30E-06,-2.89E-06,0,0,0,0,0,135.8000791,0,0,0,-3.31E-06,0,0,,,,
744.4639995,2908,0,-3649.363194,3.27E-06,-2.86E-06,0,0,0,0,0,-418.0233188,0,0,0,-3.28E-06,0,0,,,,
744.4719995,2908,0,-2363.902958,3.24E-06,-2.84E-06,0,0,0,0,0,25.56437267,0,0,0,-3.25E-06,0,0,,,,
744.4799995,2908,0,-3427.189528,3.21E-06,-2.81E-06,0,0,0,0,0,-26.6136679,0,0,0,-3.22E-06,0,0,,,,
744.4879995,2908,0,-2512.412027,3.18E-06,1.03E-06,0,0,0,0,0,-246.2635482,0,0,0,-3.19E-06,0,0,,,,
744.4959995,2908,0,-2330.778515,3.15E-06,4.66E-06,0,0,0,0,0,329.2908682,0,0,0,-3.16E-06,0,0,,,,
744.5039995,2908,0,-2908.773322,3.12E-06,3.50E-06,0,0,0,0,0,-238.4399895,0,0,0,-3.13E-06,0,0,,,,
744.5119995,2908,0,-1523.476919,3.09E-06,3.56E-06,0,0,0,0,0,201.3812799,0,0,0,-3.10E-06,0,0,,,,
744.5199995,2908,0,-2572.04267,3.06E-06,3.76E-06,0,0,0,0,0,153.4039618,0,0,0,-3.07E-06,0,0,,,,
744.5279995,2908,0,-1701.744187,3.03E-06,3.46E-06,0,0,0,0,0,-110.7418934,0,0,0,-3.04E-06,0,0,,,,
744.5359995,2908,0,-1476.139393,3.00E-06,3.64E-06,0,0,0,0,0,461.412046,0,0,0,-3.01E-06,0,0,,,,
744.5439995,2908,0,-2067.064057,2.98E-06,3.46E-06,0,0,0,0,0,-101.4565786,0,0,0,-2.98E-06,0,0,,,,
744.5519995,2908,0,-665.45787,2.95E-06,3.52E-06,0,0,0,0,0,317.2107987,0,0,0,-2.95E-06,0,0,,,,
744.5599995,2908,0,-1667.330002,2.92E-06,3.44E-06,0,0,0,0,0,284.2048528,0,0,0,-2.92E-06,0,0,,,,
744.5679995,2908,0,-803.3118043,2.89E-06,3.43E-06,0,0,0,0,0,18.54892271,0,0,0,-2.90E-06,0,0,,,,
744.5759995,2908,0,-592.815973,2.86E-06,3.39E-06,0,0,0,0,0,567.8858111,0,0,0,-2.87E-06,0,0,,,,
744.5839995,2908,0,-1212.98033,2.84E-06,3.36E-06,0,0,0,0,0,-5.933381478,0,0,0,9.74E-07,0,0,,,,
744.5919995,2908,0,206.9788623,2.81E-06,3.33E-06,0,0,0,0,0,413.2197171,0,0,0,4.60E-06,0,0,,,,
744.5999995,2908,0,-780.2068166,-1.03E-06,3.30E-06,0,0,0,0,0,393.449643,0,0,0,3.44E-06,0,0,,,,
