Time:125Hz,Epoch,FP1,FP2,C3,C4,P7,P8,O1,O2,F7,F8,F3,F4,T7,T8,P3,P4,,,,
921.6479993,3600,58.77658232,-9.58875008,44.41744975,-15.81887138,-0.195602872,-28.79184379,1291.288841,-1.72E-06,123.8214566,135.3603909,1243.232525,23.07689619,115.4429023,51.19351816,-2.70E-09,2041.926593,,,,
921.6559993,3600,28.87319589,84.57453306,-16.02547734,-41.49811398,-0.193208027,-76.09520026,1437.700514,-1.72E-06,-30.08771078,-15.5468337,1964.205368,-132.3557049,-50.15477699,-93.19793283,-2.70E-09,2007.554839,,,,
921.6639993,3600,143.8571774,-25.66231402,100.7264999,92.05711978,-0.190817493,59.75367316,1099.028455,-1.69E-06,115.1389393,129.9225355,1588.692752,10.54429864,95.39724218,18.87091936,-2.70E-09,1973.240211,,,,
921.6719993,3600,-19.44131999,62.2420022,-28.94464111,-97.80966049,-0.188431312,-121.3333014,1436.180757,-1.68E-06,42.08243916,48.59646743,1300.422228,-61.53413165,36.90468547,-5.810705598,-2.70E-09,1938.983628,,,,
921.6799993,3600,121.0456066,33.36833304,58.2349745,59.95899789,-0.18604953,10.608168,1173.873955,-1.67E-06,6.627935764,11.02005397,1997.849607,-106.0293922,-1.967947346,-84.08901981,-2.70E-09,1904.786011,,,,
921.6879993,3600,86.34596182,13.96203711,75.51007187,16.67650832,-0.183672188,2.905948061,1204.105004,-1.65E-06,147.2713113,158.8206969,1019.52654,41.67404651,137.98953,75.10299095,-2.70E-09,1870.648274,,,,
921.6959993,3600,37.68135599,110.6715054,-1.496064751,-31.34785929,-0.18129933,-64.1450058,1345.516457,-1.63E-06,-11.905187,2.995369306,1726.174628,-108.5123065,-16.63244323,-71.5210624,-2.80E-09,1836.571317,,,,
921.7039993,3600,159.0779468,-5.866508598,120.7101136,101.595619,-0.178930999,74.71660467,1013.087214,-1.62E-06,136.1345688,143.3440705,1335.912633,32.28626205,127.6738405,40.99270532,-2.80E-09,1802.556041,,,,
921.7119993,3600,-27.40656452,70.98216018,-30.01118882,-102.6621168,-0.176567236,-115.3837924,1361.819897,-1.60E-06,45.87951769,47.94340106,1070.588691,-57.34155075,33.9005592,12.33428818,-2.80E-09,1768.603333,,,,
921.7199993,3600,100.9803571,26.25373701,43.99133459,46.02065729,-0.174208085,0.354448382,1092.064377,-1.59E-06,-12.33894551,-8.976823581,1767.902281,-114.7056247,-19.89292908,-93.58663238,-2.80E-09,1734.71408,,,,
921.7279993,3600,89.95250061,17.01172297,79.26082561,18.61561797,-0.171853586,-0.223262541,1114.024945,-1.57E-06,146.2453152,145.9890123,778.7519182,45.96537456,148.285444,67.75538799,-2.80E-09,1700.889161,,,,
921.7359993,3600,18.50523182,125.4266222,-17.55023199,-46.5397631,-0.169503782,-85.61584581,1270.701588,-1.56E-06,-19.60061875,-12.92708351,1499.427209,-114.8726378,-25.42843911,-70.76433352,-2.80E-09,1667.129441,,,,
921.7439993,3600,146.8676923,7.816098532,117.0562649,102.3635064,-0.167158714,62.47998779,933.9738082,-1.55E-06,120.4946369,133.5421394,1110.193032,23.89551251,116.1319036,30.77132989,-2.80E-09,1633.435785,,,,
921.7519993,3600,25.75109256,101.2553128,27.52226051,-39.13253292,-0.164818423,-66.57560679,1244.491952,-1.53E-06,74.54174464,79.58729187,829.5614765,-17.90273853,78.72395628,29.17542003,-2.80E-09,1599.809048,,,,
921.7599993,3600,144.6660916,71.24217935,93.26464164,97.59647827,-0.162482948,48.20939004,968.2653027,-1.52E-06,46.15419497,43.99765808,1485.806896,-48.01430863,34.70084664,-40.85918475,-2.80E-09,1566.250081,,,,
921.7679993,3600,75.40927659,44.38659898,77.45537488,16.07024631,-0.160152332,-4.166309993,1015.183573,-1.50E-06,169.832606,168.8349688,504.5902254,77.07675178,162.0893487,89.22998166,-2.80E-09,1532.759726,,,,
921.7759993,3600,4.395758881,118.473534,-26.40389996,-50.98952747,-0.157826614,-95.98601125,1175.417458,-1.49E-06,-30.95893909,-29.86576267,1260.469636,-120.6819645,-33.34344964,-90.4525127,-2.80E-09,1499.338818,,,,
921.7839993,3600,119.2820281,-12.74435116,89.68456788,78.97890603,-0.155505834,39.18764812,856.2980631,-1.47E-06,112.2345045,110.984011,864.8543332,17.66914187,104.5645964,14.64264255,-2.80E-09,1465.988188,,,,
921.7919993,3600,-46.78860125,64.4391116,-36.94838867,-101.5263139,-0.153190031,-126.5761711,1202.392566,-1.46E-06,32.47385753,38.37982524,621.0259801,-52.5474866,33.45093366,-10.35224565,-2.80E-09,1432.708657,,,,
921.7999993,3600,91.17411459,10.04406173,41.65781472,54.10617258,-0.150879245,0.027819219,934.1719939,-1.45E-06,-25.51909519,-16.40903005,1306.281854,-110.4045844,-34.69252156,-103.5043404,-2.80E-09,1399.50104,,,,
921.8079993,3600,84.49795597,1.995532167,79.26496233,26.6786946,-0.148573516,3.075224042,946.1321368,-1.43E-06,157.9610597,159.863954,295.8133828,69.35108749,139.742705,80.90255421,-2.80E-09,1366.366147,,,,
921.8159993,3600,13.79849392,111.2195969,-10.19799817,-34.12490356,-0.146272881,-74.2106437,1077.591115,-1.42E-06,-6.297641851,-5.393100529,1008.111523,-89.99935257,-20.05375553,-63.55762072,-2.90E-09,1333.304778,,,,
921.8239993,3600,113.6834039,-4.348736759,96.28614016,85.07976215,-0.143977379,48.16180001,770.1560318,-1.40E-06,107.0754186,109.0363695,598.1649884,24.89215573,94.6744256,9.607524836,-2.90E-09,1300.317729,,,,
921.8319993,3600,-11.89741526,91.77128467,-1.504796188,-63.12438935,-0.141687049,-91.31016616,1094.226409,5.17E-07,55.26599414,50.5628634,357.1851401,-24.20635975,51.69408806,-0.033680199,-2.90E-09,1267.405789,,,,
921.8399993,3600,107.2225897,46.54896751,63.13129795,72.60611217,-0.139401928,20.5634341,814.4842328,2.33E-06,20.09709516,16.75721244,1006.702193,-63.52561948,14.76758407,-64.62526433,-2.90E-09,1234.569738,,,,
921.8479993,3600,52.68263071,23.4501022,55.21843922,-1.99127714,-0.137122054,-25.4456771,872.2573338,1.75E-06,143.8057998,156.7969525,23.54171785,66.65745754,128.8071907,74.48229833,-2.90E-09,1201.810354,,,,
921.8559993,3601,0.616433118,117.7595409,-22.06623469,-48.76703864,-0.134847465,-95.14809207,1016.790629,1.78E-06,-30.86660723,-27.72976244,777.7046273,-106.9126716,-44.40734407,-82.0491967,-2.90E-09,1169.128405,,,,
921.8639993,3601,115.502278,-12.77133988,100.3791557,85.22564596,-0.132578197,47.34536647,699.5868195,1.88E-06,106.0788447,93.97595145,352.2170725,19.82610537,93.94237584,17.52005358,-2.90E-09,1136.52465,,,,
921.8719993,3601,-11.54582891,74.54844001,0.003332591,-62.64468828,-0.130314288,-91.06486116,1019.537117,1.73E-06,50.99460703,49.18760785,111.9691567,-28.93194125,39.96995668,6.387390283,-2.90E-09,1103.999846,,,,
921.8799993,3601,111.7597344,43.55025747,71.61279797,78.09714426,-0.128055774,21.76173569,744.9272626,1.82E-06,20.53232802,20.51217302,749.5406244,-55.06856493,11.53022816,-53.93755975,-2.90E-09,1071.554742,,,,
921.8879993,3601,57.55982244,17.11494077,65.27907142,7.994732134,-0.125802691,-19.04452686,808.628496,1.73E-06,137.8914247,135.0361704,-226.5616652,64.94513208,121.4502363,77.69654003,-2.90E-09,1039.19008,,,,
921.8959993,3601,16.85255907,100.5351246,-5.037620007,-25.01857833,-0.123555075,-70.95860383,929.6076371,1.76E-06,-19.70045236,-19.52707272,517.3860385,-94.39957982,-37.74063983,-77.40580562,-2.90E-09,1006.906596,,,,
921.9039993,3601,136.4013942,3.361244486,125.6840237,108.1548442,-0.121312963,71.61443434,615.3640584,1.72E-06,135.9673749,140.924072,66.80218355,60.58849648,127.8482517,43.97195862,-2.90E-09,974.705018,,,,
921.9119993,3601,-18.98977744,103.8004655,-0.015557209,-72.74608618,-0.119076389,-102.534357,954.5436914,1.72E-06,53.18489791,53.3988725,-139.9107522,-18.25364469,49.05883017,15.04885854,-2.90E-09,942.5860687,,,,
921.9199993,3601,90.33594437,51.7452392,54.99425473,53.7162785,-0.116845389,-1.236802035,676.1850832,1.69E-06,8.515674999,-7.788269881,502.1774613,-72.54917691,2.606949828,-72.36176798,-2.90E-09,910.5504637,,,,
921.9279993,3601,52.36336024,37.38325879,61.99197341,-2.706411288,-0.114619997,-25.31893919,745.0866022,1.68E-06,133.0749319,114.2601237,-471.9606144,52.15495105,121.199873,68.14598676,-2.90E-09,878.5989132,,,,
921.9359993,3601,-1.86224683,117.9363759,-23.20058767,-50.08324561,-0.112400249,-92.6169243,868.2547215,1.67E-06,-31.96184519,-45.57622933,285.897678,-111.0080722,-48.35825749,-76.45616838,-2.90E-09,846.7321194,,,,
921.9439993,3601,89.02309174,-17.08295335,79.7692594,61.60008366,-0.110186179,26.11904322,553.988905,1.65E-06,99.55161022,91.9541946,-167.0512585,19.21433839,86.86942747,26.65270993,-2.90E-09,814.9507798,,,,
921.9519993,3601,-57.79394982,70.6993633,-38.64012483,-104.3131557,-0.107977819,-134.9320899,890.8053084,1.63E-06,10.45633495,1.263619406,-358.4885996,-67.16815305,6.080015923,-16.6703083,-2.90E-09,783.2555818,,,,
921.9599993,3601,71.95916356,30.32083682,37.53521349,36.72418482,-0.105775206,-21.45486436,604.0141835,1.62E-06,-5.752299427,-26.02469303,266.9602878,-89.34391745,-5.356059272,-88.38071211,-2.90E-09,751.6472095,,,,
921.9679993,3601,45.43605799,30.36566154,58.79459218,-13.45984223,-0.103578372,-43.78253421,670.2281411,1.60E-06,135.3587897,116.5950181,-710.6083838,54.77786793,133.1159757,59.66228548,-2.90E-09,720.126344,,,,
921.9759993,3601,6.081525136,123.3405355,-17.49417906,-45.6101334,-0.10138735,-97.28640684,792.5976217,1.59E-06,-35.74939167,-51.31770266,67.09321155,-113.7448771,-46.85117193,-92.45759383,-3.00E-09,688.6936532,,,,
921.9839993,3601,110.8320522,-5.092854464,91.93971073,72.5539088,-0.099202173,27.83259219,477.6670097,1.57E-06,115.9648293,102.0685171,-392.7052752,36.52911597,98.35321025,22.505063,-3.00E-09,657.3498001,,,,
921.9919993,3601,-33.21628251,83.20711816,-20.30126434,-88.61222053,-0.097022874,-123.3442806,806.994774,1.56E-06,50.65917918,29.53645302,-581.4845621,-28.07848823,31.98624362,-2.783410728,-3.00E-09,626.0954426,,,,
921.9999993,3601,79.01474233,22.57021594,44.91944834,52.37069074,-0.094849486,0.014024666,523.1281743,1.55E-06,3.30941556,-22.10203995,49.31701429,-75.37295087,-15.8313314,-75.14693303,-3.00E-09,594.9312362,,,,
922.0079993,3601,27.15393571,-13.10127556,42.01408394,-16.43173585,-0.09268204,-40.07557599,594.2087712,1.53E-06,116.7477064,106.4421833,-919.0990119,46.5669299,114.0952865,70.99586772,-3.00E-09,563.857824,,,,
922.0159993,3601,-11.44286519,73.43692957,-33.06749966,-51.14305295,-0.090520569,-97.62206055,705.230127,1.52E-06,-39.82465485,-52.62174156,-155.4857525,-113.8210356,-41.3191973,-80.18875004,-3.00E-09,532.8758413,,,,
922.0239993,3601,111.3404701,-34.02163622,93.69712201,81.17001622,-0.088365104,40.99303468,383.569245,1.50E-06,115.1992377,91.69968551,-633.5855562,33.14179854,96.65721376,30.19452991,-3.00E-09,501.9859245,,,,
922.0319993,3601,-25.21066666,70.09835666,-17.43534102,-83.13120404,-0.086215676,-119.2027424,703.7516662,1.49E-06,48.59593514,13.85799528,-815.1969137,-34.10622317,44.89580041,5.089884259,-3.00E-09,471.1887034,,,,
922.0399993,3601,94.03762638,32.46843268,51.74357952,54.56627272,-0.084072317,-2.447217616,408.7469986,1.47E-06,24.24560093,-17.37065179,-207.9071619,-62.59904585,15.13980037,-65.75239676,-3.00E-09,440.4847923,,,,
922.0479993,3601,42.38998861,22.15684504,46.0965358,-18.41919984,-0.081935058,-50.15686285,477.7506614,1.46E-06,138.2067512,106.8003191,-1169.424954,55.79677736,110.3384231,61.11687779,-3.00E-09,409.8748047,,,,
922.0559993,3601,4.333626152,110.0118868,-37.30208431,-56.14264851,-0.079803928,-116.7504841,585.5668222,1.45E-06,-36.50423434,-65.53707286,-383.6810974,-114.6367099,-47.09745832,-104.415603,-3.00E-09,379.359355,,,,
922.0639993,3601,132.2069929,11.79124533,95.12975285,85.9069656,-0.077678958,32.95682244,279.8371785,1.43E-06,127.0273671,105.6396931,-866.8037534,57.6898178,116.0630781,24.42928648,-3.00E-09,348.9390398,,,,
922.0719993,3601,3.233833237,124.076285,-6.142594246,-59.28340777,-0.075560179,-106.6966742,613.9747105,1.42E-06,61.22432481,36.71277498,-1022.533122,-1.028568877,35.03599437,6.729841836,-3.00E-09,318.6144526,,,,
922.0799993,3601,114.7587191,71.1936677,56.25068874,76.31446158,-0.073447619,9.121421339,323.5623306,1.40E-06,29.25996822,-5.342889542,-410.736324,-40.37357583,-0.760814417,-57.55381798,-3.00E-09,288.3861863,,,,
922.0879993,3601,36.45045466,50.51568288,39.74563673,-13.11735993,-0.071341309,-45.04208486,416.9350638,-5.17E-07,138.6972242,112.3283937,-1370.183891,74.14413426,113.0580401,81.72743609,-3.00E-09,258.2548216,,,,
922.0959993,3601,-1.861183408,122.3185054,-27.87487837,-39.82457864,-0.069241277,-95.37316698,533.7205651,-2.33E-06,-42.37171502,-69.20491818,-573.3029239,-104.2114277,-55.207049,-84.22992918,-3.00E-09,228.2209364,,,,
922.1039993,3601,119.7557787,-2.47231261,98.28079098,90.1809895,-0.067147552,39.6719766,223.4368211,-1.75E-06,110.5112328,87.43939234,-1058.020085,49.91031458,100.5261691,38.61858923,-3.00E-09,198.2851018,,,,
922.1119993,3602,-14.68707854,103.0831016,-9.911745596,-68.64596305,-0.065060163,-116.0848292,545.7978263,-1.78E-06,45.81061466,14.31399736,-1217.249902,-10.34866303,36.56487063,14.16100262,-3.00E-09,168.4478794,,,,
922.1199993,3602,115.8397349,64.63205054,72.74929298,81.34199816,-0.062979139,8.546784652,251.2726216,-1.88E-06,30.86728976,-10.92506984,-632.9879982,-32.59922652,13.56840282,-52.5605142,-3.00E-09,138.7098314,,,,
922.1279993,3602,51.82765714,47.22084547,59.10535227,-4.1370752,-0.060904508,-49.70928329,343.5390863,-1.73E-06,146.8593247,112.5466062,-1579.015869,85.76825293,119.7548291,74.01341658,-3.00E-09,109.0715089,,,,
922.1359993,3602,15.5209089,120.5129929,-15.40677023,-35.12520528,-0.058836296,-108.7411329,437.1527672,-1.82E-06,-21.90746921,-56.52378214,-786.1122707,-80.92513912,-37.75146655,-96.66241349,-3.00E-09,79.53345738,,,,
922.1439993,3602,127.5550759,9.689654264,102.617749,92.35113351,-0.056774532,29.01195228,131.228444,-1.73E-06,123.7823981,103.4348255,-1293.826744,71.22954823,119.253052,21.54805161,-3.00E-09,50.09621847,,,,
922.1519993,3602,-13.30879811,112.2056887,-12.99937497,-64.92642288,-0.054719244,-115.6305575,463.1742158,-1.76E-06,43.9316008,22.3960175,-1418.198836,0.813650756,35.80394471,-3.105017735,-3.00E-09,20.7603246,,,,
922.1599993,3602,124.9609026,68.01979837,77.15479382,91.99381918,-0.052670457,18.5831413,159.284913,-1.72E-06,38.83612333,9.035386719,-834.9023209,-12.54185688,12.98998083,-48.38451527,-3.00E-09,-8.473694846,,,,
922.1679993,3602,72.84924692,61.06816972,78.06894627,18.97982953,-0.0506282,-20.62174783,251.2321684,-1.72E-06,164.2256058,136.4262576,-1787.440794,108.9478481,142.6834293,97.06226027,-3.00E-09,-37.60531545,,,,
922.1759993,3602,15.62324758,122.6121041,-11.50814616,-28.8953439,-0.048592498,-86.80359118,351.5702643,-1.69E-06,-13.19953618,-58.8731829,-978.564088,-72.83331307,-15.58743689,-64.45565322,-3.00E-09,-66.63402224,,,,
922.1839993,3602,114.6744132,-9.563253404,91.70121864,77.77454642,-0.046563377,24.70340323,63.46494006,-1.68E-06,108.9222599,81.62932776,-1474.216905,53.73695603,104.1549575,41.96499157,-3.00E-09,-95.55930717,,,,
922.1919993,3602,-1.504711691,95.32697047,-8.372323579,-75.16254712,-0.044540864,-119.5063035,405.3828958,-1.67E-06,35.52344145,29.04149667,-1581.657719,-12.0652851,23.57773875,7.103513239,-3.00E-09,-124.3806646,,,,
922.1999993,3602,111.3344642,43.36120819,58.2473222,47.38329101,-0.042524985,-16.10532719,116.0582636,-1.65E-06,31.85443985,3.447892216,-1002.64118,-30.78756949,10.42486281,-55.45838338,-3.00E-09,-153.0975949,,,,
922.2079993,3602,28.27487892,11.87554364,25.09376847,-57.44762542,-0.040515764,-98.85984305,236.8436575,-1.63E-06,111.0001844,75.7501325,-1923.307193,44.50868846,95.03067228,37.23460869,-3.00E-09,-181.7096065,,,,
922.2159993,3602,28.73592055,85.73386678,-21.82125084,-57.6104744,-0.038513226,-127.5688561,334.3825268,-1.62E-06,-48.28356206,-85.67561603,-1099.259425,-116.9536124,-60.6546761,-131.1323897,-3.00E-09,-210.2162098,,,,
922.2239993,3602,151.2828089,-8.256931306,108.3194093,74.68650801,-0.036517398,14.65496806,34.00631393,-1.60E-06,134.9441101,93.53476825,-1623.45237,59.62137862,108.6125356,14.7445976,-3.00E-09,-238.6169247,,,,
922.2319993,3602,7.319675307,97.369129,-13.2527155,-86.20324536,-0.034528302,-140.6683158,369.8971678,-1.59E-06,43.40848922,16.40314655,-1718.038247,-23.34665655,22.58419533,-22.36019876,-3.00E-09,-266.9112794,,,,
922.2399993,3602,162.4421558,47.7817906,87.55646441,89.87795815,-0.032545965,14.00893012,51.61270937,-1.57E-06,45.10938437,37.87102119,-1164.765598,-17.65055955,29.08049583,-60.37282824,-3.00E-09,-295.0988014,,,,
922.2479993,3602,81.82493257,49.85415712,64.23102962,-6.183596646,-0.030570409,-45.35767842,157.5558677,-1.56E-06,162.5131993,151.1689482,-2122.653996,98.92629844,139.9430735,86.27528196,-3.00E-09,-323.1790263,,,,
922.2559993,3602,21.0714201,113.7333559,-34.3236747,-61.26414576,-0.028601659,-121.6434511,269.4427859,-1.55E-06,-34.2899847,-59.10287182,-1285.562429,-104.6401628,-56.37017697,-99.15528383,-3.00E-09,-351.1515,,,,
922.2639993,3602,144.5372736,-20.99375752,87.5490018,67.04982895,-0.026639738,12.15921539,-34.66059066,-1.53E-06,118.8434103,101.2482062,-1806.122602,45.26922074,106.1465379,24.57233589,-3.00E-09,-379.0157686,,,,
922.2719993,3602,2.104337422,73.74112034,-29.86506391,-89.09558456,-0.024684669,-134.3633934,293.3147735,-1.52E-06,31.24572975,15.16315187,-1904.600676,-38.3583735,21.15303282,-5.13388081,-3.00E-09,-406.7713844,,,,
922.2799993,3602,137.4679912,28.91802294,68.21359869,79.18231349,-0.022736476,14.18041074,-0.874085799,-1.50E-06,17.35533841,8.224256004,-1352.301215,-51.14498008,1.980157471,-52.67902571,-3.00E-09,-434.4179105,,,,
922.2879993,3602,88.30561563,35.23555713,79.72437398,10.12130634,-0.020795182,-31.60509914,97.30419539,-1.49E-06,154.4189669,153.1982352,-2303.578938,93.71629125,144.7057643,108.6130535,-3.00E-09,-461.9549091,,,,
922.2959993,3602,38.90174186,110.4373661,-2.949666889,-36.98394058,-0.018860808,-107.0707881,189.7927275,-1.47E-06,-15.37074303,-23.71544152,-1487.923713,-77.84843323,-26.68391545,-63.59714648,-3.00E-09,-489.3819492,,,,
922.3039993,3602,139.8390612,-9.173296203,103.3488271,72.33921773,-0.016933377,8.166478898,-82.86840194,-1.46E-06,115.4985716,111.4099075,-2015.638377,50.48831126,101.935142,24.19312201,-3.00E-09,-516.6986119,,,,
922.3119993,3602,11.62713477,90.84737579,-9.202466349,-81.59505205,-0.015012911,-140.5899595,241.5763808,-1.45E-06,39.29431698,40.1209233,-2092.169331,-22.74156493,24.89969565,-11.23636283,-3.00E-09,-543.9044765,,,,
922.3199993,3602,122.2777573,37.00623797,57.95423465,53.38586302,-0.013099432,-22.37600511,-52.52210113,-1.43E-06,26.74191544,24.61482128,-1549.188655,-42.00128083,11.11812288,-62.66939772,-3.00E-09,-570.9991314,,,,
922.3279993,3602,45.78508056,23.4272707,37.64968195,-32.95003482,-0.011192962,-80.06868002,77.5408965,-1.42E-06,111.3052097,113.064326,-2460.050782,49.97583569,106.2864016,58.55613077,-3.00E-09,-597.9821727,,,,
922.3359993,3602,34.20471545,88.27499838,-15.76702057,-35.57555426,-0.009293521,-107.8565757,147.5986234,-1.40E-06,-46.58048992,-37.02709612,-1624.445583,-102.5568016,-60.94991895,-89.77018321,-3.00E-09,-624.8531935,,,,
922.3439993,3602,143.1554063,-17.65241273,102.5898363,84.41419629,-0.007401131,27.82963059,-141.8080159,5.17E-07,123.4885018,132.223604,-2184.858089,63.90091728,104.1108419,48.69822933,-3.00E-09,-651.6118003,,,,
922.3519993,3602,3.375802244,88.59686987,-12.20514669,-75.67998443,-0.005515811,-124.1671787,189.0750791,2.33E-06,38.89113192,52.07752985,-2241.321448,-13.31404433,28.24451803,24.43783306,-3.00E-09,-678.2576065,,,,
922.3599993,3602,126.933312,25.64171359,66.44320668,63.77854803,-0.003637584,-7.203164207,-114.0529462,1.75E-06,16.7884921,38.70653842,-1697.208221,-37.1752561,-1.146349191,-30.65455798,-3.00E-09,-704.7902266,,,,
922.3679993,3603,57.24154404,15.1321674,47.23331562,-29.75123195,-0.001766468,-71.70222014,9.977010328,1.78E-06,112.9028256,130.4877249,-2620.868632,55.36716786,98.38380873,81.65431385,-3.00E-09,-731.2092814,,,,
922.3759993,3603,39.91367837,79.07249925,-13.99400243,-44.94959687,9.75E-05,-112.1692708,73.07971289,1.88E-06,-36.58093218,-22.09691937,-1789.878238,-96.29137855,-48.13051207,-71.81212901,-3.00E-09,-757.514395,,,,
922.3839993,3603,155.3656554,-33.25820215,108.2502829,75.34842563,0.001954349,16.49243753,-219.1308396,1.73E-06,118.9103232,138.6159052,-2355.209281,59.69624891,106.7993035,47.6515689,-3.00E-09,-783.7051999,,,,
922.3919993,3603,33.60645679,82.60189264,12.19581117,-62.9357441,0.003804011,-115.5783389,102.5027524,1.82E-06,38.14723837,55.01111381,-2412.137517,-16.51025503,29.97795327,11.29821401,-3.00E-09,-809.7813377,,,,
922.3999993,3603,139.9599336,33.85573424,81.84672461,72.73324529,0.005646483,0.52778791,-211.2017574,1.73E-06,39.87176639,53.98321723,-1907.308497,-20.31794446,25.05044998,-26.49106394,-3.00E-09,-835.7424488,,,,
922.4079993,3603,48.47699892,29.57559915,44.28360319,-33.74545045,0.007481745,-77.97323819,-77.54350273,1.76E-06,118.3831293,142.2858567,-2832.707804,64.38471157,115.0279082,78.80402294,-3.00E-09,-861.5881819,,,,
922.4159993,3603,53.2610629,95.86068171,-1.765057183,-24.25628478,0.009309781,-91.95309945,-17.52826733,1.72E-06,-39.00810163,-18.36740813,-1993.535704,-88.61323481,-46.73797006,-73.27711962,-3.00E-09,-887.318192,,,,
922.4239993,3603,148.0500072,-17.25205377,100.4634774,80.23370793,0.01113057,25.29728454,-306.9716662,1.72E-06,126.7952212,140.8065464,-2580.482935,79.11961405,104.1048924,71.46683368,-3.00E-09,-912.9321346,,,,
922.4319993,3603,-16.06721393,76.80489911,-33.43961516,-95.82859437,0.012944095,-145.595466,37.54873116,1.69E-06,12.43165879,29.12930664,-2611.598968,-26.79609684,16.81092988,5.774547684,-3.00E-09,-938.4296772,,,,
922.4399993,3603,122.9898552,13.48462739,65.51804895,69.01404104,0.014750338,-1.002731869,-269.0407853,1.68E-06,8.50806845,22.95065577,-2089.8055,-36.11591755,16.27359218,-50.39355284,-3.00E-09,-963.8104916,,,,
922.4479993,3603,45.75670818,18.60211237,41.86067666,-30.00449118,0.016549281,-70.42323435,-133.2501122,1.67E-06,106.8461592,120.6938413,-3003.578335,66.42008378,103.9481179,78.09442641,-3.00E-09,-989.0742481,,,,
922.4559993,3603,22.97290421,81.31608404,-27.85825301,-55.88160445,0.018340908,-122.7340816,-61.98251091,1.65E-06,-59.15206824,-55.88442383,-2152.128593,-103.96974,-66.11055608,-89.37882912,-3.00E-09,-1014.220631,,,,
922.4639993,3603,140.0067888,-28.37466211,95.64717954,64.22424283,0.0201252,6.303916226,-349.4751016,1.63E-06,115.1494128,109.7267145,-2738.462448,65.17961846,100.1188905,46.28121841,-3.00E-09,-1039.249327,,,,
922.4719993,3603,5.48273573,78.68108008,-13.93680257,-86.00218501,0.021902141,-137.340944,-30.34117256,1.62E-06,18.57429505,23.64158655,-2756.274483,-18.67025634,11.60679901,4.574064507,-3.00E-09,-1064.160021,,,,
922.4799993,3603,139.435245,21.31079172,79.51421046,73.88296343,0.023671714,5.199901818,-342.8242106,1.60E-06,20.06448254,40.64650997,-2253.237943,-19.39399772,11.29390768,-43.09038742,-3.00E-09,-1088.952416,,,,
922.4879993,3603,70.0534691,25.63645604,64.812108,-8.800023203,0.025433903,-50.41659291,-199.7906367,1.59E-06,129.4219281,152.636943,-3166.063447,94.7009234,126.6876732,94.81073201,-3.00E-09,-1113.626212,,,,
922.4959993,3603,54.03227126,77.62502846,2.988998465,-18.98575923,0.027188692,-87.55952043,-146.5427497,1.57E-06,-26.55000211,-18.90824006,-2312.994106,-64.08660542,-35.52580225,-55.55030587,-3.00E-09,-1138.181114,,,,
922.5039993,3603,155.8732797,-31.42273939,114.6418727,90.93920658,0.028936065,35.3976424,-422.7934471,1.56E-06,136.9774016,148.3704121,-2912.391596,95.91438048,120.9276477,70.76109279,-3.00E-09,-1162.616836,,,,
922.5119993,3603,9.590564537,78.32787118,-7.106951688,-68.32105373,0.030676006,-119.0718553,-83.82041068,1.55E-06,28.04910793,47.57356041,-2918.002716,-2.512506172,23.29430127,18.60908097,-3.00E-09,-1186.933092,,,,
922.5199993,3603,126.3843635,9.145927695,65.16478187,69.37192204,0.0324085,-1.894022374,-399.542496,1.53E-06,17.73961317,31.34034298,-2423.059178,-22.04880043,7.317335435,-35.13748228,-3.00E-09,-1211.129607,,,,
922.5279993,3603,46.40440335,11.30706027,40.38537679,-26.57351139,0.034133531,-70.43246197,-255.2885838,1.52E-06,111.8298444,126.1882445,-3322.974606,71.98206815,105.1344735,86.01563048,-3.00E-09,-1235.206109,,,,
922.5359993,3603,32.94104787,72.20619744,-13.36528358,-33.1387817,0.035851086,-103.8072881,-194.7519213,1.50E-06,-46.15988714,-37.30588211,-2463.791194,-85.39069332,-58.84249199,-65.6748388,-3.00E-09,-1259.162329,,,,
922.5439993,3603,132.8688974,-41.60254758,91.8246727,68.9301203,0.037561148,9.963299575,-467.0072217,1.49E-06,112.3102091,125.1314381,-3063.250477,71.91224351,100.4586555,58.60771945,-3.00E-09,-1282.998006,,,,
922.5519993,3603,-13.56717058,63.82281708,-32.09909898,-90.82756938,0.039263704,-145.7549586,-132.5314812,1.47E-06,10.61892726,18.27463509,-3043.698024,-25.1958968,11.31794574,6.376799783,-3.00E-09,-1306.712883,,,,
922.5599993,3603,91.20297278,-7.343245203,33.35413937,34.72046868,0.04095874,-39.81388954,-431.5585032,1.46E-06,-1.649212947,-1.388348863,-2552.565133,-44.52481047,-4.803923347,-54.07893986,-3.00E-09,-1330.306703,,,,
922.5679993,3603,18.80196459,-17.24547187,5.321429177,-57.59162515,0.042646241,-102.6591652,-289.1781155,1.45E-06,72.8852473,89.10539162,-3441.967031,38.30326434,70.84166113,46.649948,-3.00E-09,-1353.779221,,,,
922.5759993,3603,39.36073433,56.24276537,-8.944000094,-15.66609079,0.044326194,-85.03074985,-256.9207625,1.43E-06,-57.2648762,-46.01829141,-2586.692547,-87.05187199,-68.9706423,-69.46785612,-3.00E-09,-1377.1302,,,,
922.5839993,3603,134.1289058,-29.63659572,111.7297728,91.12651527,0.045998586,31.44110621,-511.6241298,1.42E-06,129.7548823,142.7106057,-3196.351416,101.1407308,121.28169,91.12362073,-3.00E-09,-1400.359399,,,,
922.5919993,3603,-5.485864928,77.58281241,-21.56700501,-75.08716599,0.047663403,-134.1462957,-178.660956,1.40E-06,19.39309082,41.01871631,-3155.325835,-0.939978108,14.07993022,19.76527859,-3.00E-09,-1423.466586,,,,
922.5999993,3603,136.6213501,15.5494725,76.35166922,90.27037254,0.049320632,13.85122834,-505.1295891,-5.17E-07,22.6542851,40.61945015,-2683.996404,2.289216685,11.25448361,-19.86019681,-3.00E-09,-1446.451532,,,,
922.6079993,3603,46.23996742,22.06766182,55.60065762,-6.553374787,0.050970261,-51.65350924,-348.892492,-2.33E-06,115.7770562,139.8483887,-3580.546253,104.5120608,123.7798609,109.0490354,-3.00E-09,-1469.314015,,,,
922.6159993,3603,11.55542334,71.3448901,-22.89241206,-29.50397824,0.052612278,-99.5970587,-299.5283559,-1.75E-06,-56.47224997,-30.63878147,-2709.455022,-64.07488522,-54.63131691,-57.82051891,-3.00E-09,-1492.05382,,,,
922.6239993,3604,87.63052363,-44.52505519,59.59422343,47.16891124,0.054246669,-9.623602335,-544.9930121,-1.78E-06,78.54107749,107.7199891,-3310.900204,71.73458282,75.17729312,52.04116568,-3.00E-09,-1514.670736,,,,
922.6319993,3604,-31.660138,56.50121884,-48.91289939,-95.01416007,0.055873423,-146.0422702,-213.2369856,-1.88E-06,-23.78380427,2.362215948,-3254.74849,-29.52075261,-11.40385325,-5.012115014,-3.00E-09,-1537.164551,,,,
922.6399993,3604,106.6584619,-12.79828826,42.54885465,63.72495869,0.057492528,-1.036324565,-547.9969228,-1.73E-06,-6.177884804,20.16631747,-2798.911861,-18.90151431,-3.916450606,-27.04579387,-3.00E-09,-1559.535062,,,,
922.6479993,3604,10.82625108,-7.273295937,6.315512391,-49.98002162,0.059103973,-83.28051891,-393.1820894,-1.82E-06,81.06615052,111.4833441,-3696.131114,71.12211548,83.65974803,93.77083722,-3.00E-09,-1581.782073,,,,
922.6559993,3604,21.10688181,54.93686069,-24.65388863,-33.42787347,0.060707746,-96.85011085,-360.2394347,-1.73E-06,-64.15691666,-45.66672969,-2829.232997,-77.77334506,-58.64603703,-58.93319281,-3.00E-09,-1603.905392,,,,
922.6639993,3604,119.1235007,-36.53879728,85.48155282,64.52571379,0.062303837,11.64916541,-612.8006878,-1.76E-06,103.8902813,125.008154,-3455.576804,87.96983115,103.144382,72.07547775,-3.00E-09,-1625.904829,,,,
922.6719993,3604,-18.99782949,83.60787474,-35.29019966,-91.80099492,0.063892234,-142.4211236,-265.2265664,-1.72E-06,1.270789173,23.72069045,-3391.586821,-8.991531391,-0.698917882,5.930993896,-3.00E-09,-1647.780201,,,,
922.6799993,3604,119.1410626,6.974777636,62.00868012,73.32993649,0.065472928,-0.33340629,-590.7933318,-1.72E-06,13.5839793,31.30238881,-2932.308191,3.958647352,7.676070934,-31.04078595,-3.00E-09,-1669.531331,,,,
922.6879993,3604,19.97567928,0.840224662,19.60980479,-42.670393,0.067045907,-85.62269454,-433.2863104,-1.69E-06,94.99788404,117.5526274,-3819.731264,90.87840993,96.88829376,78.53007676,-3.00E-09,-1691.158042,,,,
922.6959993,3604,15.19601659,58.13552749,-31.34684325,-41.78873452,0.068611161,-105.5688883,-395.5443337,-1.68E-06,-65.73860488,-47.70567387,-2951.97814,-69.53892211,-61.85471122,-78.75117097,-3.00E-09,-1712.660163,,,,
922.7039993,3604,105.6122497,-44.60524609,70.29929163,53.33632974,0.070168682,0.96785712,-647.5032145,-1.67E-06,92.50456951,109.4886271,-3586.028506,90.1504541,95.19719857,55.71167982,-3.00E-09,-1734.037535,,,,
922.7119993,3604,-52.93055358,61.72103959,-69.09380916,-115.0847511,0.071718458,-165.923701,-301.1338659,-1.65E-06,-21.4296866,-1.315529026,-3511.991034,-20.70783832,-27.02933377,-16.1123205,-3.00E-09,-1755.289998,,,,
922.7199993,3604,77.9873837,-10.95533199,16.68924962,40.61170751,0.073260481,-26.95625761,-617.744279,-1.63E-06,-23.86758951,0.894220282,-3061.204588,-23.97072898,-45.4698116,-52.00759387,-3.00E-09,-1776.417393,,,,
922.7279993,3604,7.901317457,1.159878205,-2.723170902,-52.13450394,0.074794741,-92.83057424,-458.7263417,-1.62E-06,64.83689691,96.98045903,-3932.008609,72.07690321,59.08744895,75.36700588,-3.00E-09,-1797.419567,,,,
922.7359993,3604,8.816529454,68.24861884,-41.31752895,-42.04328354,0.076321231,-110.0845358,-423.269365,-1.60E-06,-76.47539108,-42.24035221,-3057.918456,-66.42934832,-78.56907727,-68.14906753,-3.00E-09,-1818.296377,,,,
922.7439993,3604,95.46877913,-25.71343749,61.29136848,48.03746604,0.07783994,-6.685464838,-670.9623757,-1.59E-06,82.21190022,122.8874023,-3696.013642,93.18242971,68.03940296,63.45919854,-3.00E-09,-1839.047686,,,,
922.7519993,3604,-22.96188076,89.8846422,-41.18595258,-88.63815141,0.07935086,-140.2941604,-351.5901692,-1.57E-06,-14.77172305,23.72690932,-3608.669339,-8.457376084,-25.47140458,-1.951636109,-3.00E-09,-1859.673351,,,,
922.7599993,3604,103.6285147,18.87254185,50.3971028,62.11304445,0.080853983,-5.248781269,-680.6188255,-1.56E-06,8.9511248,37.26785081,-3187.750075,3.506105346,-8.897087893,-29.3588037,-3.00E-09,-1880.173243,,,,
922.7679993,3604,-4.980275116,18.47370501,-2.857818335,-66.40181074,0.082349302,-108.9123536,-517.4996514,-1.55E-06,74.13328265,105.0573514,-4054.794363,69.13094405,60.94495038,66.52403116,-3.00E-09,-1900.547232,,,,
922.7759993,3604,21.9654895,68.67208027,-22.12158184,-29.49205414,0.083836808,-97.10618881,-530.8305708,-1.53E-06,-58.86012994,-23.97334978,-3191.101852,-67.88977789,-73.36805491,-76.61012648,-2.90E-09,-1920.795195,,,,
922.7839993,3604,99.11492045,-29.03515493,79.9958356,56.41019968,0.085316493,7.842288829,-799.7465574,-1.52E-06,115.7160901,145.8233424,-3866.917835,104.4324549,93.13473667,77.98192873,-2.90E-09,-1940.917017,,,,
922.7919993,3604,-71.61407184,72.80234233,-67.65658056,-126.5181383,0.086788352,-174.8265016,-471.4645098,-1.50E-06,-31.28942949,-0.300720985,-3758.918025,-38.45554637,-44.20642118,-15.59784888,-2.90E-09,-1960.912581,,,,
922.7999993,3604,65.15761573,-8.401294418,30.24614364,38.41452061,0.088252375,-23.32569828,-827.0223041,-1.49E-06,-17.69487925,21.9866316,-3349.762385,-29.77678206,-35.84828273,-44.5893318,-2.90E-09,-1980.781775,,,,
922.8079993,3604,-32.32713229,2.66608086,-10.94506635,-71.73266942,0.089708557,-104.2716249,-680.3010588,-1.47E-06,61.54949756,96.34298069,-4224.967137,50.30289185,52.8367828,72.02387227,-2.90E-09,-2000.524498,,,,
922.8159993,3604,-29.19697017,63.06144432,-45.68613284,-50.14079893,0.09115689,-111.4161199,-691.8861525,-1.46E-06,-77.63685702,-50.31326093,-3359.600063,-87.05459129,-82.72035317,-72.72851764,-2.90E-09,-2020.140646,,,,
922.8239993,3604,57.90166633,-22.09607422,71.91460083,50.83217685,0.092597369,5.017120909,-955.4167804,-1.45E-06,102.1126666,138.746443,-4043.670392,98.92716284,82.50839307,80.09872547,-2.90E-09,-2039.630124,,,,
922.8319993,3604,-69.68570623,97.89146364,-37.27847178,-86.97605286,0.094029987,-139.2337224,-637.9767206,-1.43E-06,-22.92120211,18.47587559,-3923.017784,-19.15832827,-37.24940285,-1.326819941,-2.90E-09,-2058.992838,,,,
922.8399993,3604,75.82985797,30.18816587,69.02232057,84.53578002,0.095454738,12.41325065,-1004.85942,-1.42E-06,22.8207564,59.74464743,-3544.584857,26.80959682,5.419722994,-7.430439733,-2.90E-09,-2078.228702,,,,
922.8479993,3604,-20.80252142,44.71713399,32.43396982,-29.58197669,0.096871617,-74.71106788,-846.3105851,-1.40E-06,103.5059282,140.2284855,-4422.990876,117.302534,94.76689058,96.66850845,-2.90E-09,-2097.337635,,,,
922.8559993,3604,0.012650203,104.2944292,10.57126707,4.424469486,0.098280617,-71.62414473,-848.1529451,5.17E-07,-55.41598938,-11.00470045,-3534.88868,-32.96594975,-55.124284,-70.43027788,-2.90E-09,-2116.319554,,,,
922.8639993,3604,73.5136873,14.92454377,101.1723026,79.41795865,0.099681733,23.28559614,-1095.882817,2.33E-06,117.4771852,170.0799218,-4219.784631,148.5703,107.9386018,86.59411165,-2.90E-09,-2135.174385,,,,
922.8719993,3604,-83.50718866,107.5350384,-42.83646117,-98.22666477,0.101074961,-150.4183781,-756.4931983,1.75E-06,-20.40216214,24.7883071,-4079.006661,9.911700237,-27.90110823,-10.6284793,-2.90E-09,-2153.902057,,,,
922.8799993,3605,48.3023895,10.26442029,53.34153439,64.76391319,0.102460296,-2.098931123,-1097.94599,1.78E-06,-14.99708636,31.07124013,-3674.442044,11.92057946,-22.0281378,-48.8893153,-2.90E-09,-2172.502507,,,,
922.8879993,3605,-45.20607926,20.09729833,11.57071758,-39.52863637,0.103837732,-74.71340365,-935.0066498,1.88E-06,63.47035682,119.2743047,-4529.35506,100.8471709,59.63942147,82.05715709,-2.90E-09,-2190.97567,,,,
922.8959993,3605,-41.21619667,73.58975667,-31.81304172,-19.40634496,0.105207265,-77.1598932,-940.0512539,1.73E-06,-74.05415903,-21.62621719,-3648.962349,-39.13941108,-69.77032254,-45.17001741,-2.90E-09,-2209.321488,,,,
922.9039993,3605,18.99797454,-37.05098975,50.40022806,51.90018911,0.106568891,12.53294798,-1182.498305,1.82E-06,67.03509312,125.5209512,-4329.629861,102.5702134,70.56623646,88.2020162,-2.90E-09,-2227.53991,,,,
922.9119993,3605,-96.35463957,58.22097639,-51.15464679,-80.09682339,0.107922607,-122.5013154,-878.5697064,1.73E-06,-53.1883678,1.476046518,-4190.606346,-19.58195131,-54.46337494,7.659874836,-2.90E-09,-2245.630885,,,,
922.9199993,3605,55.8916198,-4.264009181,69.57664876,90.76661564,0.109268408,32.21681896,-1238.06584,1.76E-06,18.4804628,61.37451106,-3841.727832,39.64789147,13.75212951,19.69752595,-2.90E-09,-2263.594368,,,,
922.9279993,3605,-68.95850376,12.48366065,4.053999339,-50.31506709,0.11060629,-83.78169704,-1049.536806,1.72E-06,73.5645577,120.9000479,-4688.248174,100.8488859,67.8001455,109.8735734,-2.90E-09,-2281.430317,,,,
922.9359993,3605,-68.46400067,41.77068809,-33.37381333,-28.51277547,0.11193625,-94.8378052,-1050.63134,1.72E-06,-96.9375875,-52.22498899,-3787.505628,-68.46389975,-96.25573623,-70.48005914,-2.90E-09,-2299.138697,,,,
922.9439993,3605,12.11327462,-65.19726782,79.34584102,63.03037493,0.113258286,13.96785335,-1300.828945,1.69E-06,86.32917702,132.2624099,-4493.466025,115.9621952,99.15305234,77.9126833,-2.90E-09,-2316.719474,,,,
922.9519993,3605,-130.698655,41.79572237,-49.36415626,-92.4465926,0.114572394,-142.3314824,-976.7311629,1.68E-06,-49.08159641,1.198801281,-4341.713675,-7.139640752,-32.02933059,-10.70805551,-2.90E-09,-2334.172619,,,,
922.9599993,3605,-0.157236952,-37.34285648,44.17613907,63.34391276,0.115878571,-4.163868637,-1311.012325,1.67E-06,-35.07167271,12.01800523,-3971.889483,9.153189978,-14.73792246,-32.65564765,-2.90E-09,-2351.498108,,,,
922.9679993,3605,-88.60323192,-20.50077685,14.06254539,-42.59506637,0.117176814,-81.15487004,-1136.622107,1.65E-06,47.68695983,97.81747124,-4818.161752,96.19639969,71.55884122,82.37836232,-2.80E-09,-2368.695921,,,,
922.9759993,3605,-81.92998948,26.80371363,-24.21478446,-23.41498045,0.118467123,-84.63103497,-1138.406952,1.63E-06,-103.7154943,-48.41108008,-3928.105197,-53.29344338,-79.99055977,-68.18054224,-2.80E-09,-2385.766039,,,,
922.9839993,3605,-29.13778399,-76.83905936,46.13648241,29.57166855,0.119749493,-8.443085075,-1352.791642,1.62E-06,42.40509132,92.94220507,-4614.314686,88.58017114,65.4819374,68.8912346,-2.80E-09,-2402.708452,,,,
922.9919993,3605,-142.8348914,28.82776961,-65.27075895,-106.0714891,0.121023924,-143.9400623,-1038.65181,1.60E-06,-80.94837166,-38.41483899,-4438.286711,-37.13113721,-70.29999803,-10.83968675,-2.80E-09,-2419.523151,,,,
922.9999993,3605,15.61482074,-41.95526009,50.51427476,72.51537031,0.122290414,18.57654207,-1394.477544,1.59E-06,-28.77732527,24.89348441,-4095.126488,10.56677999,-23.17184333,-6.489622726,-2.80E-09,-2436.210129,,,,
923.0079993,3605,-94.71452009,-16.14667491,-3.170724529,-56.24227036,0.123548961,-83.64730629,-1200.496182,1.57E-06,45.28686658,102.109728,-4928.712406,89.12073441,69.66406313,104.5109733,-2.80E-09,-2452.769386,,,,
923.0159993,3605,-42.35992113,29.08969572,-1.959671955,1.920295535,0.124799564,-61.39672357,-1210.956753,1.56E-06,-100.0070431,-59.29139721,-4019.526517,-55.49534369,-78.13527928,-57.28342891,-2.80E-09,-2469.200926,,,,
923.0239993,3605,59.9456341,-55.71598181,115.6429288,95.55387874,0.126042222,46.12834976,-1444.633569,1.55E-06,104.1460349,142.3138407,-4733.931273,141.4106972,107.34708,98.65803343,-2.80E-09,-2485.504758,,,,
923.0319993,3605,-98.15741934,67.65993653,-35.01685306,-87.96115711,0.127276934,-136.6425561,-1111.928139,1.53E-06,-11.7529075,34.01078106,-4558.380176,28.16084365,-8.236646628,11.91100495,-2.80E-09,-2501.680892,,,,
923.0399993,3605,35.94740889,-25.48609646,52.26378383,60.57937696,0.128503699,-8.671402833,-1437.377419,1.52E-06,-18.57260763,28.67368134,-4188.570088,22.15019024,-19.75661269,-43.72264736,-2.80E-09,-2517.729342,,,,
923.0479993,3605,-59.79187245,-10.12410084,6.48547013,-58.45769187,0.129722518,-102.6778847,-1238.216411,1.50E-06,52.18222056,87.64685763,-5000.210246,88.92094348,49.98509349,52.94101839,-2.80E-09,-2533.650124,,,,
923.0559993,3605,-29.33981089,41.54278723,-8.604535251,-16.37082995,0.130933388,-86.11228598,-1256.228687,1.49E-06,-70.38352037,-35.98339905,-4101.879058,-36.33635245,-66.26678258,-76.37532282,-2.80E-09,-2549.443265,,,,
923.0639993,3605,38.1340332,-59.61909313,75.30041743,50.28168365,0.132136311,2.883406106,-1466.78891,1.47E-06,85.6150187,127.4816704,-4804.530052,118.937909,85.92960282,68.56032028,-2.80E-09,-2565.108792,,,,
923.0719993,3605,-100.9838618,50.0820908,-58.61730453,-105.6016322,0.133331287,-148.8167787,-1135.272732,1.46E-06,-43.78984135,-5.782225026,-4606.529512,-13.41286836,-47.03248276,-13.24462046,-2.80E-09,-2580.646731,,,,
923.0799993,3605,49.49234138,-30.43032499,54.57525593,69.68955009,0.134518316,11.45765687,-1479.311056,1.45E-06,-10.59040445,22.35954644,-4273.904587,14.34175916,-13.38821234,-17.66458782,-2.80E-09,-2596.057118,,,,
923.0879993,3605,-68.24312068,-5.085058764,-10.63643887,-68.97193348,0.135697398,-98.11367038,-1262.342157,1.43E-06,43.3993672,75.35585785,-5086.276948,70.58702781,43.57985651,82.82106664,-2.80E-09,-2611.339991,,,,
923.0959993,3605,-35.32740669,52.79966349,-26.12584789,-26.41452901,0.136868535,-82.86946165,-1263.261466,1.42E-06,-91.24471432,-42.29123725,-4177.58865,-63.72779183,-97.02931425,-60.985517,-2.80E-09,-2626.495391,,,,
923.1039993,3605,53.51271377,-33.45306872,81.60575259,58.65492348,0.138031727,13.46242194,-1471.61186,1.40E-06,83.90254113,137.2642438,-4894.438861,108.3618919,80.28023494,84.61630768,-2.80E-09,-2641.523362,,,,
923.1119993,3605,-76.59233807,92.02118806,-45.63844613,-94.53161681,0.139186975,-150.0374499,-1144.047945,-5.17E-07,-44.00017313,-8.61788369,-4691.989807,-20.11208744,-43.44201955,-14.44519719,-2.70E-09,-2656.423954,,,,
923.1199993,3605,88.12247948,27.84620766,77.51870787,89.36398648,0.14033428,12.40285362,-1496.600103,-2.33E-06,14.81007921,50.62384078,-4380.030699,39.69106753,7.7773397,-19.7616146,-2.70E-09,-2671.197221,,,,
923.1279993,3605,-7.163491464,54.05561177,29.97001104,-27.51518223,0.141473645,-81.47848882,-1299.518663,-1.75E-06,92.40043335,128.5039825,-5207.218464,121.0809791,86.69450312,84.36271317,-2.70E-09,-2685.843215,,,,
923.1359993,3606,5.558612814,99.9367717,-8.224944745,-2.463432248,0.14260507,-85.4819206,-1306.208372,-1.78E-06,-66.23541329,-27.28718556,-4307.379427,-33.95026818,-71.47089764,-73.28995899,-2.70E-09,-2700.361998,,,,
923.1439993,3606,67.12166864,0.941190038,71.21059139,61.32058104,0.143728559,-0.548786884,-1505.580713,-1.88E-06,87.23650152,139.2059645,-5026.938229,129.0145356,88.53923373,73.45549453,-2.70E-09,-2714.753636,,,,
923.1519993,3606,-53.73690392,101.9797262,-46.92682622,-72.21872581,0.144844112,-137.5694939,-1190.637738,-1.73E-06,-38.47196089,7.576450052,-4815.906451,4.554886829,-44.65577755,-11.72566678,-2.70E-09,-2729.01819,,,,
923.1599993,3606,102.4629382,29.57671765,81.246899,110.6567909,0.145951732,29.8245236,-1533.050139,-1.82E-06,15.81985356,62.48596058,-4516.069434,57.51200627,6.353629152,-4.144917118,-2.70E-09,-2743.155735,,,,
923.1679993,3606,-26.89369313,61.97952908,9.404575861,-40.53636856,0.147051422,-85.90001674,-1297.857143,-1.73E-06,72.02278487,123.0807754,-5317.56572,123.6458326,85.4100111,103.6352272,-2.70E-09,-2757.166347,,,,
923.1759993,3606,-23.53309901,81.44812285,-37.86785412,-23.15397257,0.148143184,-94.05701701,-1295.101991,-1.76E-06,-98.53527199,-61.37529059,-4390.865196,-54.06899687,-98.79989152,-63.08004068,-2.70E-09,-2771.050096,,,,
923.1839993,3606,59.06408136,-36.07357688,70.86228789,63.86530568,0.149227021,5.617129814,-1496.612877,-1.72E-06,62.49623672,99.88762926,-5111.270246,103.1558224,51.71210821,73.1806032,-2.70E-09,-2784.807067,,,,
923.1919993,3606,-57.55680886,78.41485704,-45.969029,-77.15956016,0.150302936,-139.43643,-1177.840802,-1.72E-06,-43.06660281,0.16182672,-4901.662667,2.460138261,-42.8511663,-6.650334883,-2.70E-09,-2798.437347,,,,
923.1999993,3606,79.86347302,-4.801472957,45.71190133,71.81263138,0.151370933,-5.318556522,-1512.245386,-1.69E-06,5.585998268,45.10681792,-4609.371977,44.49574621,5.650235363,-17.60090521,-2.70E-09,-2811.941022,,,,
923.2079993,3606,-39.58539528,3.569827618,-21.72679314,-71.88922296,0.152431015,-126.0726559,-1280.317419,-1.68E-06,38.88591131,73.07690482,-5394.631488,77.24254215,37.21459786,43.37800988,-2.70E-09,-2825.318184,,,,
923.2159993,3606,2.285719369,47.51408505,-25.89235801,-15.82981607,0.153483185,-97.60890279,-1308.290214,-1.67E-06,-92.22846994,-64.58999627,-4494.261031,-58.92340412,-99.89646441,-104.0280397,-2.70E-09,-2838.568926,,,,
923.2239993,3606,81.88288052,-28.87884309,82.05301515,69.58762988,0.154527447,9.182159238,-1518.996739,-1.65E-06,98.67809954,133.2278953,-5249.663266,134.8837122,98.07176059,69.8653112,-2.70E-09,-2851.693347,,,,
923.2319993,3606,-66.42865083,80.84335987,-57.75028127,-90.99026934,0.155563806,-156.2407323,-1187.08598,-1.63E-06,-46.55485524,-2.501117576,-5014.643372,-2.800361245,-51.14417626,-31.89477047,-2.70E-09,-2864.69155,,,,
923.2399993,3606,90.47205897,-3.765984227,65.9494295,88.49723844,0.156592265,10.02700765,-1534.428432,-1.62E-06,5.365803123,48.98247409,-4724.504024,41.34020578,-2.557464256,-33.38953972,-2.60E-09,-2877.563641,,,,
923.2479993,3606,-10.76767235,33.38727919,21.9390504,-33.05397174,0.157612829,-80.6141062,-1322.659628,-1.60E-06,81.86476183,118.7542643,-5527.03484,118.559719,92.56338768,85.47665465,-2.60E-09,-2890.309728,,,,
923.2559993,3606,1.191831672,65.73675819,-14.38348936,-6.25708797,0.158625502,-78.72978629,-1341.825549,-1.59E-06,-65.21367462,-38.5883367,-4619.355101,-31.23636538,-61.10718824,-58.49431317,-2.60E-09,-2902.92992,,,,
923.2639993,3606,87.01958459,-40.95715763,94.3783197,83.3721009,0.159630289,31.04342431,-1547.875622,-1.57E-06,103.0229049,133.3163746,-5353.901126,137.8460697,101.6202,95.23883063,-2.60E-09,-2915.424333,,,,
923.2719993,3606,-64.73929845,71.88135349,-47.23680916,-80.44572651,0.160627195,-135.2265093,-1215.772215,-1.56E-06,-36.28130591,5.293881375,-5110.036422,6.591640292,-34.9130624,9.22864995,-2.60E-09,-2927.793087,,,,
923.2799993,3606,51.35265846,-20.90036955,36.01025472,59.66167424,0.161616224,-8.226134428,-1529.843252,-1.55E-06,-19.48892818,19.74023643,-4803.868351,18.03438869,-30.44336279,-17.36351428,-2.60E-09,-2940.036304,,,,
923.2879993,3606,-36.84196994,1.455550375,-1.535740677,-49.46515446,0.162597384,-91.36533379,-1309.795793,-1.53E-06,42.37310265,73.42616485,-5562.777558,79.25736041,36.43460714,68.26644478,-2.60E-09,-2952.154104,,,,
923.2959993,3606,-36.24043233,43.77049405,-48.6668808,-38.32752685,0.163570677,-105.3361316,-1328.549092,-1.52E-06,-91.87074323,-59.94038817,-4658.071936,-57.24801534,-91.53768261,-75.72280625,-2.60E-09,-2964.146622,,,,
923.3039993,3606,18.90876483,-69.89512248,24.40337575,9.745951209,0.164536111,-38.17757806,-1506.203618,-1.50E-06,45.97044144,79.54527758,-5379.513776,79.14161813,44.03532836,40.23114277,-2.60E-09,-2976.013986,,,,
923.3119993,3606,-73.45549626,31.85670692,-70.62195019,-105.8364191,0.165493691,-160.2617614,-1207.656816,-1.49E-06,-64.6889718,-36.71137317,-5118.621833,-32.24989104,-70.48806577,-48.46356665,-2.60E-09,-2987.756331,,,,
923.3199993,3606,58.00383937,-43.884033,37.66726564,51.27505004,0.166443423,-17.11002386,-1553.808038,-1.47E-06,2.170580668,36.62585292,-4863.54108,30.65557995,-10.10634579,-32.65145868,-2.60E-09,-2999.373796,,,,
923.3279993,3606,-59.70430731,-17.85038187,-15.2068398,-78.41518471,0.167385314,-123.381814,-1311.471622,-1.46E-06,35.35704755,75.58307602,-5621.338167,73.61212227,30.42400192,45.96141105,-2.60E-09,-3010.866518,,,,
923.3359993,3606,-6.238887499,26.52986128,-13.40646515,-9.134828889,0.168319368,-81.39963865,-1347.794796,-1.45E-06,-84.14134645,-51.38424651,-4715.706928,-45.38211008,-88.74259697,-80.91118148,-2.60E-09,-3022.234642,,,,
923.3439993,3606,56.13544634,-57.91926918,69.39720484,51.85058264,0.169245594,1.768803045,-1538.607569,-1.43E-06,88.8886355,126.6388196,-5465.316594,126.7238209,83.64153399,77.43785152,-2.60E-09,-3033.478318,,,,
923.3519993,3606,-75.57406061,58.90087596,-59.85236416,-100.0226598,0.170163997,-153.7559882,-1220.915325,-1.42E-06,-53.75979073,-15.17025627,-5186.299069,-11.25612759,-58.03257178,-24.876146,-2.60E-09,-3044.597695,,,,
923.3599993,3606,77.38962899,-20.0279196,57.10636473,74.79134429,0.171074585,7.872911194,-1570.63621,-1.40E-06,2.15193453,32.82192746,-4928.085138,41.99992121,-1.513751549,-18.02044618,-2.50E-09,-3055.592928,,,,
923.3679993,3606,-32.06968216,0.84947797,-3.899967838,-50.18107882,0.171977364,-93.57948224,-1343.552857,5.17E-07,49.23906945,78.54002958,-5680.786831,94.00842786,49.05447968,68.96064532,-2.50E-09,-3066.464169,,,,
923.3759993,3606,-12.67414901,38.66364837,-34.5774538,-15.72417237,0.172872342,-87.55306582,-1368.769986,2.33E-06,-79.84652584,-44.02160366,-4767.759807,-33.12184966,-98.13118282,-74.1847894,-2.50E-09,-3077.21158,,,,
923.3839993,3606,51.24173589,-43.67546282,52.98540267,50.80381586,0.173759525,-3.382185581,-1539.698705,1.75E-06,77.51371818,127.2155252,-5503.123597,130.6364731,60.12490938,65.09938352,-2.50E-09,-3087.835324,,,,
923.3919993,3607,-61.21783894,66.03304296,-59.65604302,-79.3826641,0.174638923,-140.5124584,-1229.432446,1.78E-06,-62.36777991,-16.99488268,-5203.869345,-5.966988556,-63.44470321,-33.84358183,-2.50E-09,-3098.335566,,,,
923.3999993,3607,69.840927,-21.95922109,43.13962177,66.80197052,0.175510541,-5.09809075,-1566.644325,1.88E-06,3.210429629,37.44193305,-4956.879058,48.37602549,-5.191478169,-21.90360087,-2.50E-09,-3108.712472,,,,
923.4079993,3607,-42.93043051,-0.426509121,-14.88363155,-61.86508649,0.176374388,-110.4057599,-1327.057251,1.73E-06,44.51009048,75.40561161,-5694.068579,90.31523003,35.9797415,50.51359133,-2.50E-09,-3118.966217,,,,
923.4159993,3607,3.105888454,28.24594509,-16.05204752,4.755178494,0.177230472,-72.38696008,-1380.278354,1.82E-06,-77.85100017,-52.99931112,-4781.658465,-32.11487768,-84.73057902,-86.31956519,-2.50E-09,-3129.096975,,,,
923.4239993,3607,55.20721158,-60.8511426,66.48447156,53.99734101,0.178078802,1.309378407,-1558.799038,1.73E-06,96.47996158,124.5500495,-5541.256767,144.6756421,86.09899753,78.2601122,-2.50E-09,-3139.10492,,,,
923.4319993,3607,-94.77782636,41.69907772,-83.42576365,-115.8125009,0.178919385,-170.8942076,-1225.38709,1.76E-06,-64.07722848,-33.70967636,-5223.719819,-12.48744654,-67.47730532,-36.73053608,-2.50E-09,-3148.990236,,,,
923.4399993,3607,40.49823862,-63.86097057,15.67012088,42.26460311,0.17975223,-27.04014944,-1548.148733,1.72E-06,-33.17659463,-8.015626168,-4941.672696,11.9146891,-37.37885326,-60.45451898,-2.50E-09,-3158.753105,,,,
923.4479993,3607,-44.94623078,-34.19934015,-18.12351113,-60.17769646,0.180577345,-105.4790405,-1322.747845,1.72E-06,29.05549766,50.36744345,-5664.515556,76.86521204,22.80166316,33.53921238,-2.50E-09,-3168.393709,,,,
923.4559993,3607,2.843057253,21.63288167,-13.90685259,7.374012699,0.18139474,-62.90735896,-1394.645181,1.69E-06,-65.78098912,-45.47289202,-4775.748494,-17.85196939,-64.0366277,-67.35361936,-2.50E-09,-3177.912243,,,,
923.4639993,3607,46.54167595,-53.28652104,63.15218667,55.77035175,0.182204424,6.92026832,-1571.957996,1.68E-06,95.16127307,126.3059624,-5541.034732,145.7095127,100.0297018,86.43840342,-2.40E-09,-3187.308895,,,,
923.4719993,3607,-92.96178714,57.20873754,-71.05989732,-99.01434748,0.183006405,-152.1550904,-1252.154607,1.67E-06,-58.96891634,-22.3203374,-5220.770177,-4.975157239,-60.96333803,-28.68913999,-2.40E-09,-3196.583856,,,,
923.4799993,3607,50.56066735,-31.41679369,42.0409946,64.74301006,0.183800693,-1.869874894,-1596.370364,1.65E-06,-1.663525565,24.18535002,-4970.8215,46.12881732,-8.292788447,-25.33652551,-2.40E-09,-3205.737332,,,,
923.4879993,3607,-74.35328599,0.19680377,-30.59907416,-80.93911413,0.184587298,-125.6096808,-1354.424055,1.63E-06,33.75110183,53.08487698,-5682.763257,83.19853204,36.69413143,45.43491772,-2.40E-09,-3214.769517,,,,
923.4959993,3607,-41.14637325,22.9016388,-43.29488435,-29.19789311,0.185366229,-103.2701001,-1400.944573,1.62E-06,-105.7386889,-89.85596552,-4756.083972,-57.29763708,-98.77477719,-107.8669342,-2.40E-09,-3223.680613,,,,
923.5039993,3607,46.79647091,-66.53825719,73.69818144,57.91255519,0.186137495,3.603201749,-1584.476476,1.60E-06,84.58413434,93.937724,-5511.01859,132.660624,89.2527302,60.88924416,-2.40E-09,-3232.470829,,,,
923.5119993,3607,-72.68112381,61.81043799,-42.55788282,-75.59527209,0.186901107,-133.289224,-1279.271802,1.59E-06,-34.63698608,-22.67107723,-5195.838222,19.88360163,-28.10214998,-19.86671277,-2.40E-09,-3241.140369,,,,
923.5199993,3607,52.75358852,-15.60461061,55.06469222,78.6782199,0.187657075,7.707158651,-1611.312492,1.57E-06,4.333850126,21.83762001,-4960.421648,63.17703476,10.04622092,-21.32670372,-2.40E-09,-3249.689446,,,,
923.5279993,3607,-65.42530637,19.52077021,-14.83993863,-61.78518109,0.188405409,-109.7930705,-1361.142319,1.56E-06,33.50056171,34.10115965,-5665.816831,93.32229771,37.61574242,49.52364811,-2.40E-09,-3258.118275,,,,
923.5359993,3607,0.8084536,48.79268913,-3.970248487,17.27443867,0.18914612,-59.34327367,-1427.811309,1.55E-06,-80.32137618,-89.44839424,-4746.696106,-25.10607157,-81.42271195,-82.56969469,-2.40E-09,-3266.427072,,,,
923.5439993,3607,80.37738263,-34.22852471,98.31107322,92.94469781,0.189879218,37.08660806,-1622.830795,1.53E-06,118.6208907,130.7360657,-5522.03895,177.4322322,116.6322946,96.13430278,-2.40E-09,-3274.616053,,,,
923.5519993,3607,-71.00411775,87.83933271,-52.89630284,-78.15279806,0.190604713,-133.3124436,-1323.324956,1.52E-06,-25.55718727,-18.39621696,-5206.815405,32.4573786,-29.3328894,-1.239947096,-2.40E-09,-3282.68544,,,,
923.5599993,3607,62.16256699,-0.331257969,54.71539282,79.02553707,0.191322617,16.0812127,-1666.805026,1.50E-06,8.768710382,-2.163406247,-4984.807845,60.93202524,3.22056167,-9.461044441,-2.40E-09,-3290.63546,,,,
923.5679993,3607,-26.66864523,35.31613284,13.29207437,-31.21852554,0.19203294,-73.43162388,-1431.022685,1.49E-06,66.64586232,54.69876851,-5700.718269,124.825009,69.2308083,72.71198799,-2.30E-09,-3298.466337,,,,
923.5759993,3607,14.95927171,67.2159739,5.547501048,31.77241732,0.192735695,-43.93539217,-1488.952289,1.47E-06,-52.2170328,-67.59772737,-4796.718146,9.110791444,-47.59049757,-68.99194444,-2.30E-09,-3306.178301,,,,
923.5839993,3607,65.47606124,-19.17211698,102.026679,97.75437242,0.193430891,39.57158084,-1641.413858,1.46E-06,114.0815985,97.64455744,-5572.981853,182.341814,117.9447335,88.49706595,-2.30E-09,-3313.771583,,,,
923.5919993,3607,-50.76651462,99.96567674,-14.14780197,-30.98510849,0.194118541,-101.0240981,-1329.058938,1.45E-06,-19.93565716,-44.4126775,-5244.324018,56.39445915,-21.34934265,-5.500898293,-2.30E-09,-3321.246419,,,,
923.5999993,3607,84.7609377,15.80331918,78.63880541,125.0171554,0.194798656,40.18614627,-1670.170465,1.43E-06,29.32873544,5.217875665,-5042.022637,114.4822755,27.83963075,0.919196609,-2.30E-09,-3328.603042,,,,
923.6079993,3607,-44.28128786,41.74438439,2.611473309,-20.92641863,0.195471248,-83.32794151,-1407.602649,1.42E-06,59.19153339,36.53941446,-5749.000135,154.9728565,68.50816493,74.64108562,-2.30E-09,-3335.841696,,,,
923.6159993,3607,-12.05910771,42.69239728,-15.78687136,24.88579718,0.196136328,-72.49433708,-1457.060428,1.40E-06,-84.45353016,-111.9288269,-4826.581451,5.690220726,-82.50676205,-87.57591232,-2.30E-09,-3342.962619,,,,
923.6239993,3607,47.25885165,-62.05023353,71.18212678,88.52499076,0.196793909,17.52047964,-1620.130381,-5.17E-07,77.4950153,56.41985598,-5612.109077,167.6367781,79.94473543,60.78968847,-2.30E-09,-3349.966058,,,,
923.6319993,3607,-59.48649034,58.26070673,-32.16059716,-31.28434912,0.197444003,-100.0793495,-1324.2274,-2.33E-06,-40.9640582,-67.09787834,-5298.807784,51.18179672,-33.69710953,-18.8900176,-2.30E-09,-3356.852257,,,,
923.6399993,3607,65.21016601,-32.73991124,68.80708526,111.8360796,0.198086623,33.63651488,-1670.408668,-1.75E-06,19.99856154,-5.597023835,-5124.829242,104.692922,17.07115666,1.807532589,-2.30E-09,-3363.621465,,,,
923.6479993,3608,-68.66934849,-9.239313052,-9.376894017,-39.16737814,0.19872178,-91.43320119,-1410.423443,-1.78E-06,34.97118238,13.67150997,-5843.694165,122.5272996,44.69205884,69.75903847,-2.30E-09,-3370.273937,,,,
923.6559993,3608,-13.15206327,20.45661868,-6.991416366,26.26076349,0.199349487,-56.24706664,-1469.572455,-1.88E-06,-90.95723423,-119.6814963,-4940.508007,-5.718189367,-79.43473963,-69.89937063,-2.30E-09,-3376.809922,,,,
923.6639993,3608,31.98934244,-65.71023634,69.3674368,68.073099,0.199969757,7.668939797,-1616.266627,-1.73E-06,85.11473445,63.18914358,-5726.528182,164.2495372,84.7188813,82.55040164,-2.20E-09,-3383.229681,,,,
923.6719993,3608,-76.58441104,45.14190973,-44.39509019,-56.99283027,0.200582603,-126.677779,-1310.061669,-1.82E-06,-55.7894818,-78.63006769,-5385.778697,23.44545781,-54.81934043,-30.86234427,-2.20E-09,-3389.53347,,,,
923.6799993,3608,76.94798448,-30.21612997,70.135429,108.1763086,0.201188038,27.59165656,-1657.48337,-1.73E-06,22.0229145,-9.074124725,-5216.875374,97.01172709,14.01114112,-2.467756824,-2.20E-09,-3395.721548,,,,
923.6879993,3608,-62.78473941,7.573436823,-20.60398986,-51.4219769,0.201786075,-103.8364344,-1400.589473,-1.76E-06,50.10474652,24.32305175,-5926.660248,123.8960107,45.20086429,62.59361318,-2.20E-09,-3401.79418,,,,
923.6959993,3608,10.66485628,27.04771908,4.14471499,39.61626091,0.202376728,-45.1488114,-1492.79915,-1.72E-06,-81.90027375,-110.6402151,-5029.295222,-6.664729248,-75.45430218,-86.81620118,-2.20E-09,-3407.751629,,,,
923.7039993,3608,71.86201897,-44.84355624,105.5297932,100.8831551,0.202960009,41.92905138,-1655.937405,-1.72E-06,120.2878615,89.18532295,-5841.349936,198.5960399,124.1293655,104.3956877,-2.20E-09,-3413.594167,,,,
923.7119993,3608,-80.22793594,66.93928918,-49.13062504,-67.25296826,0.203535932,-129.0199789,-1334.768602,-1.69E-06,-29.92438555,-69.08074301,-5484.332946,44.56808791,-38.4857863,-4.462135384,-2.20E-09,-3419.322063,,,,
923.7199993,3608,57.45289531,-42.82903352,52.99497278,86.92563606,0.204104512,13.17603432,-1672.894376,-1.68E-06,1.416760843,-49.29112056,-5286.769304,67.80394506,0.714370802,-15.436757,-2.20E-09,-3424.935586,,,,
923.7279993,3608,-63.96029087,-15.76705138,-18.31106349,-51.43259485,0.204665761,-97.81923937,-1409.733442,-1.67E-06,39.89055043,-1.347291732,-5975.754217,112.9629406,59.88296577,56.84768825,-2.20E-09,-3430.435011,,,,
923.7359993,3608,-23.70216149,6.63870585,-38.53845133,3.582178614,0.205219694,-70.39851737,-1471.811264,-1.65E-06,-90.48371817,-125.0499901,-5068.708769,-12.24896313,-82.4033205,-86.77051208,-2.20E-09,-3435.820617,,,,
923.7439993,3608,26.5236723,-88.38045388,46.58760761,52.72794078,0.205766325,-0.640516978,-1615.056843,-1.63E-06,62.14607281,21.68702986,-5846.052657,141.0069534,64.19232544,65.14853892,-2.20E-09,-3441.092681,,,,
923.7519993,3608,-75.34109109,13.12491597,-46.31856555,-61.67729462,0.206305668,-124.0281709,-1324.790048,-1.62E-06,-55.60195274,-107.3714582,-5484.017847,20.66994633,-48.47676114,-23.47348393,-2.20E-09,-3446.251483,,,,
923.7599993,3608,61.5857173,-72.29940214,57.25135212,89.94118091,0.206837738,18.92817089,-1671.710505,-1.60E-06,18.09266888,-30.69578914,-5323.837658,89.75770139,29.241365,-4.802345238,-2.10E-09,-3451.297309,,,,
923.7679993,3608,-91.34515676,-45.24843307,-39.55766354,-76.67332794,0.207362548,-118.3622493,-1393.07004,-1.59E-06,20.45482952,-21.08881568,-5986.765534,97.57309351,40.61992724,43.74182029,-2.10E-09,-3456.230441,,,,
923.7759993,3608,-50.0178908,-35.81333138,-36.79361924,-11.53086452,0.207880114,-79.18397617,-1465.765741,-1.57E-06,-100.8713481,-153.9040194,-5066.52106,-26.98428183,-81.77817776,-89.32786585,-2.10E-09,-3461.051168,,,,
923.7839993,3608,2.318730179,-112.8695273,41.24097763,31.33888781,0.20839045,-17.02740628,-1609.977631,-1.56E-06,66.20766039,15.93812757,-5846.538731,137.019255,87.52333632,63.105947,-2.10E-09,-3465.759778,,,,
923.7919993,3608,-118.4267627,-2.17756742,-88.6110809,-108.4735059,0.208893571,-166.2980765,-1303.793858,-1.55E-06,-86.06816451,-136.4921783,-5456.200973,-15.43593515,-76.37086797,-58.47837495,-2.10E-09,-3470.356563,,,,
923.7999993,3608,37.53952201,-87.23902084,39.05480719,70.1372379,0.209389492,3.519293787,-1657.938764,-1.53E-06,-2.876062241,-60.32915747,-5296.338113,61.75432908,-5.26487146,-22.94607478,-2.10E-09,-3474.841818,,,,
923.8079993,3608,-67.41740957,-32.56971584,-18.1423323,-53.35720897,0.209878228,-97.26073617,-1408.185919,-1.52E-06,38.03982963,-4.9887884,-5970.723601,111.0272886,41.26370088,62.51605251,-2.10E-09,-3479.215835,,,,
923.8159993,3608,-29.60988739,1.305835467,-27.09418103,0.749546586,0.210359795,-71.18275253,-1483.224612,-1.50E-06,-83.13153723,-128.8624784,-5062.467674,-8.333564237,-77.80482293,-74.06670313,-2.10E-09,-3483.478913,,,,
923.8239993,3608,29.772833,-66.41084231,70.12433516,61.82189568,0.210834207,11.73238218,-1623.038213,-1.49E-06,87.7471902,34.87962091,-5840.206029,160.8220333,97.68304821,85.91874612,-2.10E-09,-3487.631351,,,,
923.8319993,3608,-71.93863007,49.68971715,-36.23799148,-51.26742217,0.21130148,-108.5048401,-1329.146669,-1.47E-06,-48.32119849,-93.1213306,-5444.927479,33.42118726,-42.35156604,-6.395175423,-2.10E-09,-3491.673451,,,,
923.8399993,3608,43.87156294,-54.74396751,53.92805755,83.0239206,0.211761631,21.7898874,-1665.783057,-1.46E-06,13.18431768,-36.68130183,-5285.079189,93.10192307,23.28764936,7.934659012,-2.10E-09,-3495.605518,,,,
923.8479993,3608,-68.91398498,-22.71131452,-5.542199831,-49.78238123,0.212214673,-86.92091485,-1407.707549,-1.45E-06,37.3495163,-15.27220461,-5937.458077,117.0361462,57.62984774,64.11441768,-2.10E-09,-3499.427856,,,,
923.8559993,3608,-7.612506633,-3.075056234,2.190096645,26.89147604,0.212660625,-42.06869513,-1499.21359,-1.43E-06,-74.97140568,-127.829384,-5039.662986,5.297566649,-72.07773728,-63.2778024,-2.00E-09,-3503.14077,,,,
923.8639993,3608,7.275833966,-98.51884404,51.47560953,39.84859241,0.2130995,-8.536892155,-1621.347484,-1.42E-06,82.73654636,27.09263233,-5825.238246,160.7117273,83.60007708,79.24222148,-2.00E-09,-3506.744571,,,,
923.8719993,3608,-109.9546715,-4.095467124,-73.62609201,-91.0737689,0.213531316,-150.5130675,-1319.198233,-1.40E-06,-79.35830598,-131.7920406,-5409.956764,1.644430902,-66.61203215,-52.34003462,-2.00E-09,-3510.239572,,,,
923.8799993,3608,52.04015144,-96.48637339,48.34724307,85.15083808,0.213956088,13.38340277,-1674.171927,5.17E-07,-2.693834435,-56.674259,-5265.186658,78.74354271,-1.692482273,-20.16474885,-2.00E-09,-3513.626083,,,,
923.8879993,3608,-66.2760466,-44.91714343,-23.16531089,-57.59974427,0.214373833,-105.0393568,-1414.327617,2.33E-06,42.00602089,-12.99591461,-5919.266227,122.1453276,39.44125604,60.82083582,-2.00E-09,-3516.90442,,,,
923.8959993,3608,-25.25531359,-24.50924998,-23.24358001,7.961056486,0.214784567,-67.07657688,-1487.135022,1.75E-06,-95.79662006,-147.787563,-5002.45227,-13.55509437,-89.30921621,-86.54028419,-2.00E-09,-3520.0749,,,,
923.9039993,3609,21.27747177,-107.5666865,68.37955505,60.46038719,0.215188307,7.423479664,-1610.538703,1.78E-06,71.1323219,23.71184789,-5784.957332,162.268804,81.27464947,76.46131612,-2.00E-09,-3523.137839,,,,
923.9119993,3609,-86.7887722,7.079224787,-38.93979745,-56.45078486,0.215585069,-115.2774947,-1320.894127,1.88E-06,-58.47349222,-109.271472,-5382.360818,33.24452017,-43.52921019,-19.06444394,-2.00E-09,-3526.093558,,,,
923.9199993,3609,24.82933241,-96.40512378,57.2994943,91.01356396,0.215974871,22.93035195,-1648.056704,1.73E-06,-10.89571235,-59.62094628,-5239.358091,82.65515615,7.271041151,-1.142657947,-2.00E-09,-3528.942381,,,,
923.9279993,3609,-120.112277,-69.93575943,-32.0671926,-70.46539334,0.216357728,-114.5695845,-1370.879147,1.82E-06,8.234934665,-27.04389182,-5869.302318,113.8815512,29.4702339,65.23505012,-2.00E-09,-3531.684631,,,,
923.9359993,3609,-73.02618342,-62.01824234,-41.91425198,-12.1200634,0.216733659,-80.01740131,-1464.733603,1.73E-06,-126.8461902,-164.3246786,-4964.327181,-22.57218398,-102.602708,-89.78054809,-2.00E-09,-3534.320632,,,,
923.9439993,3609,-38.80944632,-154.4343944,26.98100079,23.19022366,0.217102679,-24.01156918,-1585.765961,1.76E-06,12.79345797,-20.87162251,-5747.259131,122.4210172,49.48987359,50.54902438,-1.90E-09,-3536.850714,,,,
923.9519993,3609,-148.0409439,-39.69811396,-87.5348924,-104.4009939,0.217464807,-160.7024446,-1290.376415,1.72E-06,-118.4613724,-149.4293342,-5329.526503,-7.456469036,-69.83641358,-49.58150726,-1.90E-09,-3539.275203,,,,
923.9599993,3609,-10.79933334,-129.8559043,22.0395527,48.24548229,0.21782006,-13.23883293,-1626.642598,1.72E-06,-42.72300259,-79.20346908,-5202.815722,54.66977373,-4.568159279,-34.20276145,-1.90E-09,-3541.594428,,,,
923.9679993,3609,-129.2188053,-92.27230917,-53.42245009,-96.17913648,0.218168454,-136.7814786,-1351.252263,1.69E-06,-29.43549862,-60.6912792,-5818.958874,69.36401039,3.929285243,15.95920376,-1.90E-09,-3543.808727,,,,
923.9759993,3609,-53.5872902,-54.07085704,-35.26350972,-13.38007497,0.218510008,-82.31813075,-1444.370398,1.68E-06,-132.791327,-162.7921877,-4925.22873,-37.57341025,-98.25716257,-109.8123072,-1.90E-09,-3545.918432,,,,
923.9839993,3609,-17.86600157,-108.1386366,40.61476529,18.90713007,0.218844739,-21.69518551,-1549.292988,1.67E-06,47.26415758,23.05544572,-5721.141663,136.3540774,74.04288149,56.38536786,-1.90E-09,-3547.923874,,,,
923.9919993,3609,-139.7779533,-5.143168528,-92.97632287,-120.4498096,0.219172664,-170.364663,-1237.680121,1.65E-06,-117.5399686,-139.6599937,-5262.610734,-30.74486283,-99.08635469,-70.28933845,-1.90E-09,-3549.825396,,,,
923.9999993,3609,13.11430509,-111.0187583,21.89969451,44.20667344,0.219493802,-14.43106116,-1574.922767,1.63E-06,-46.56902662,-65.21596552,-5136.32876,33.36509383,-29.19588584,-42.27587098,-1.90E-09,-3551.623335,,,,
924.0079993,3609,-109.6763306,-63.60743343,-51.57922647,-102.7903723,0.219808171,-132.3451668,-1292.101041,1.62E-06,-10.09219015,-16.95677462,-5761.965476,73.10228444,7.0299306,41.09055068,-1.90E-09,-3553.318028,,,,
924.0159993,3609,-59.74333178,-43.75158185,-55.15688649,-39.10722356,0.220115789,-96.2835653,-1372.152504,1.60E-06,-144.8380938,-147.2589319,-4855.62191,-63.11219861,-136.544948,-103.2827287,-1.90E-09,-3554.909823,,,,
924.0239993,3609,-19.49265624,-114.2804324,19.29829324,-4.538401833,0.220416673,-39.20875629,-1482.243515,1.59E-06,15.62207902,19.19066426,-5650.896362,94.30058287,27.58602484,48.40058527,-1.90E-09,-3556.399062,,,,
924.0319993,3609,-125.6387476,8.290688247,-91.99371071,-127.7095272,0.220710842,-171.5852048,-1186.230921,1.57E-06,-121.3302121,-119.1494421,-5217.786611,-45.95489828,-108.6245381,-64.31901509,-1.80E-09,-3557.786086,,,,
924.0399993,3609,19.83250459,-77.64461991,20.76868407,31.58569576,0.220998314,-24.52781348,-1519.039382,1.56E-06,-40.35650953,-39.7996306,-5116.20305,25.21879718,-27.95818984,-41.14826481,-1.80E-09,-3559.071245,,,,
924.0479993,3609,-97.68634132,-25.74066335,-49.26830444,-107.6068812,0.221279109,-141.8263765,-1244.794316,1.55E-06,-12.87432244,-5.754411113,-5722.931546,57.45790274,7.457565887,30.23565083,-1.80E-09,-3560.254887,,,,
924.0559993,3609,-38.96025461,-7.146497537,-43.74649497,-37.61398717,0.221553243,-100.2768776,-1345.578242,1.53E-06,-134.5124336,-117.9015816,-4830.377917,-58.99981527,-120.0606961,-107.3342963,-1.80E-09,-3561.33736,,,,
924.0639993,3609,-8.123964094,-88.31412551,12.9727144,-18.99029684,0.221820736,-61.60242882,-1453.869904,1.52E-06,25.2137272,43.14984115,-5632.392707,99.63089216,41.31441146,31.80828453,-1.80E-09,-3562.319015,,,,
924.0719993,3609,-90.66812263,28.56013535,-78.64264908,-116.3529101,0.222081607,-169.6117711,-1173.210593,1.50E-06,-107.8954645,-97.881917,-5182.676088,-36.63678496,-100.6043311,-75.74365827,-1.80E-09,-3563.200208,,,,
924.0799993,3609,65.39008796,-46.24119218,46.66423309,50.47758522,0.222335875,-8.208611456,-1513.372886,1.49E-06,-12.8842726,8.284971322,-5101.527461,54.46593349,-18.45686681,-24.23665681,-1.80E-09,-3563.981293,,,,
924.0879993,3609,-49.97516001,2.137951973,-30.18197381,-89.59678417,0.222583557,-127.6844451,-1239.317362,1.47E-06,9.353103775,35.16959379,-5706.11716,80.99784274,13.1633745,41.77909162,-1.80E-09,-3564.66262,,,,
924.0959993,3609,28.56429534,16.13866878,4.424707943,13.34188102,0.222824674,-54.66466812,-1353.089045,1.46E-06,-84.07550148,-68.96530423,-4841.958477,-15.91094966,-84.97417,-69.41852146,-1.80E-09,-3565.244547,,,,
924.1039993,3609,30.6393248,-59.12651331,50.52359299,14.62633997,0.223059245,-25.47591549,-1447.830505,1.45E-06,79.65686411,100.0832801,-5669.405531,146.4707097,82.46849063,92.59930475,-1.80E-09,-3565.727438,,,,
924.1119993,3609,-71.53396607,43.95755992,-64.12208925,-97.1412797,0.223287288,-147.1150218,-1170.599606,1.43E-06,-93.43951861,-60.36374967,-5207.198922,-17.72490497,-78.95505236,-42.88164571,-1.80E-09,-3566.111647,,,,
924.1199993,3609,79.75094054,-42.9124701,63.82417299,77.40013791,0.223508823,18.62101213,-1519.705639,1.42E-06,-2.657951893,31.01442955,-5154.252463,74.06635975,2.895568863,2.903997107,-1.70E-09,-3566.397536,,,,
924.1279993,3609,-74.51850893,-0.183037351,-40.3152497,-95.41277283,0.223723869,-131.6701167,-1227.072405,1.40E-06,8.575055672,34.34150433,-5750.287225,85.32323261,11.7502612,55.75333403,-1.70E-09,-3566.585471,,,,
924.1359993,3609,-11.76220953,1.910104235,-30.42966541,-16.19020418,0.223932446,-83.60148902,-1328.154804,-5.17E-07,-119.5265626,-90.36482382,-4852.77536,-43.46907447,-119.1459157,-97.59893866,-1.70E-09,-3566.675812,,,,
924.1439993,3609,8.51938793,-73.09958742,25.49779745,-5.460671779,0.224134573,-55.04867909,-1420.556504,-2.33E-06,48.10656473,75.47935914,-5666.393277,121.1786846,50.31468929,49.28112094,-1.70E-09,-3566.668925,,,,
924.1519993,3609,-86.93613725,23.77343373,-88.18671825,-122.0236567,0.22433027,-186.1156742,-1152.783443,-1.75E-06,-104.6128611,-85.49946457,-5195.284867,-35.04672288,-95.99985268,-86.75570873,-1.70E-09,-3566.565175,,,,
924.1599993,3610,67.76470472,-72.92348211,33.91599614,42.1536308,0.224519557,-26.41333801,-1505.104224,-1.78E-06,-18.69788795,0.638243871,-5149.704982,46.05724094,-15.39420547,-54.33258707,-1.70E-09,-3566.364927,,,,
924.1679993,3610,-59.27268593,-15.67526669,-47.65713264,-107.0587505,0.224702453,-152.8146832,-1226.307329,-1.88E-06,5.360754327,20.95816016,-5740.981735,72.9966955,5.282884362,14.95638283,-1.70E-09,-3566.068557,,,,
924.1759993,3610,23.9478516,4.365748752,-15.87580228,-1.141996273,0.224878979,-74.80550732,-1360.642119,-1.73E-06,-95.63888956,-70.18922915,-4867.895194,-27.21120574,-104.2171412,-99.81216984,-1.70E-09,-3565.676431,,,,
924.1839993,3610,36.31991681,-58.64090884,41.57488718,13.02861125,0.225049154,-33.09364729,-1458.120891,-1.82E-06,70.55058508,105.5475751,-5708.781503,143.3359906,68.54232515,61.64855278,-1.70E-09,-3565.18892,,,,
924.1919993,3610,-77.23940259,47.58700329,-79.19392617,-105.148855,0.225212998,-162.9621086,-1176.156194,-1.73E-06,-94.35202475,-67.77602528,-5225.731767,-14.3428697,-89.9249429,-66.3344362,-1.70E-09,-3564.606396,,,,
924.1999993,3610,85.02416574,-44.85653826,51.70156309,78.82097302,0.225370532,12.9926408,-1525.71205,-1.76E-06,-11.86205125,18.70521619,-5173.322756,63.55924541,-21.75514867,-25.30349502,-1.70E-09,-3563.929234,,,,
924.2079993,3610,-39.36104983,13.98881277,-24.35182644,-65.73313166,0.225521776,-110.5720184,-1245.680381,-1.72E-06,22.42137624,50.02982879,-5756.969408,95.51968472,18.72677973,47.06380937,-1.60E-09,-3563.157809,,,,
924.2159993,3610,17.29663952,27.01658606,-13.37046301,12.36241049,0.22566675,-65.69122364,-1369.390542,-1.72E-06,-82.56475432,-65.59112186,-4886.013843,-8.703161015,-81.07556227,-79.69826685,-1.60E-09,-3562.292494,,,,
924.2239993,3610,39.58455667,-42.74940625,49.35540351,32.08899227,0.225805474,-27.55374311,-1466.442552,-1.69E-06,62.3125294,87.05215753,-5715.042066,144.7214467,59.47242674,55.68493825,-1.60E-09,-3561.33367,,,,
924.2319993,3610,-61.75567205,63.30739017,-59.41721416,-82.35306594,0.225937969,-152.0405338,-1191.714872,-1.68E-06,-88.28351657,-57.55908342,-5219.286489,0.807065466,-85.3024776,-68.35984974,-1.60E-09,-3560.281716,,,,
924.2399993,3610,72.94296868,-41.23725945,50.03853847,66.99213451,0.226064256,-3.597881111,-1533.416226,-1.67E-06,2.753005562,29.92348721,-5181.837019,84.49128875,4.848344707,-19.19020447,-1.60E-09,-3559.137006,,,,
924.2479993,3610,-65.71184605,4.662800322,-42.22838194,-94.31146559,0.226184355,-145.3623583,-1244.255993,-1.65E-06,2.746104561,13.62301919,-5746.380849,79.19189019,3.86565146,23.08362456,-1.60E-09,-3557.899924,,,,
924.2559993,3610,-6.047615322,16.02855837,-28.06534659,-9.768721068,0.226298286,-93.82425293,-1360.518838,-1.63E-06,-106.3177749,-103.4467205,-4859.389436,-29.7370489,-104.3912939,-110.4714652,-1.60E-09,-3556.570851,,,,
924.2639993,3610,13.16284399,-66.4609635,33.19149565,15.70097372,0.226406071,-45.3989379,-1452.428122,-1.62E-06,47.53156041,69.63807684,-5689.41827,137.3424959,46.24787407,44.6200138,-1.60E-09,-3555.150169,,,,
924.2719993,3610,-94.24278791,30.39130624,-81.94175373,-97.13986009,0.226507731,-168.4835134,-1184.260862,-1.60E-06,-114.0586899,-85.79714863,-5191.760857,-17.29744791,-109.7742865,-76.63974714,-1.60E-09,-3553.638264,,,,
924.2799993,3610,41.82434104,-58.82655062,36.73990334,64.42775217,0.226603286,-12.09185419,-1517.137229,-1.59E-06,-20.9126588,-0.233827864,-5163.934861,71.06981807,-11.65446554,-27.96741081,-1.60E-09,-3552.035518,,,,
924.2879993,3610,-81.10202543,-2.352789066,-36.15866185,-68.46892416,0.226692757,-129.8514663,-1216.132302,-1.57E-06,-16.15248623,8.243471576,-5713.363204,85.51481926,-12.95949922,19.97137296,-1.50E-09,-3550.34232,,,,
924.2959993,3610,-15.3547226,14.28501564,-21.93820475,16.78398816,0.226776166,-75.31385621,-1330.237607,-1.56E-06,-119.0466712,-96.74574204,-4821.634641,-10.04160418,-112.9726114,-98.84545158,-1.50E-09,-3548.559053,,,,
924.3039993,3610,0.846236495,-55.29835605,29.26086162,28.28411989,0.226853534,-35.42562518,-1410.400666,-1.55E-06,39.68108891,57.68582611,-5646.611757,153.5458892,47.54701229,53.66997412,-1.50E-09,-3546.686105,,,,
924.3119993,3610,-81.44556685,36.0176356,-76.27535059,-69.07894353,0.226924881,-143.2399465,-1152.216615,-1.53E-06,-111.4167332,-90.45947333,-5133.335573,2.269679624,-116.6693862,-76.66751412,-1.50E-09,-3544.723871,,,,
924.3199993,3610,62.76372533,-67.9445887,39.23376422,85.95928706,0.226990229,4.29310692,-1499.124759,-1.52E-06,-9.853176774,4.639068237,-5115.148459,96.70006655,-9.197855701,-21.17908365,-1.50E-09,-3542.672733,,,,
924.3279993,3610,-74.77783153,-21.1851265,-43.26682261,-60.32949214,0.2270496,-126.5049247,-1202.570414,-1.50E-06,-15.30481378,-5.968643451,-5655.438176,97.61461317,-4.082282082,22.99936315,-1.50E-09,-3540.533083,,,,
924.3359993,3610,20.11993608,-14.11503243,-0.31056105,54.90749606,0.227103015,-40.44842286,-1347.32507,-1.49E-06,-102.9224441,-88.14588341,-4773.526084,12.77183612,-98.16071433,-88.16874738,-1.50E-09,-3538.305315,,,,
924.3439993,3610,56.01344455,-68.95393096,68.37138011,76.52040722,0.227150495,11.64506537,-1456.34053,-1.47E-06,84.62758746,91.14699579,-5629.748251,203.0972628,96.65950006,89.91607028,-1.50E-09,-3535.989822,,,,
924.3519993,3610,-56.21884068,48.7059024,-48.98471303,-35.62000935,0.227192062,-105.0238785,-1201.014419,-1.46E-06,-76.00557502,-77.26492569,-5125.776692,44.25361434,-61.2348284,-33.36435159,-1.50E-09,-3533.586996,,,,
924.3599993,3610,62.58817877,-45.16005983,51.99533092,109.46223,0.227227738,40.94784163,-1529.357084,-1.45E-06,-2.070859523,17.61162476,-5107.708603,121.0161765,9.275210745,15.0467022,-1.50E-09,-3531.097231,,,,
924.3679993,3610,-74.83877023,1.569277795,-47.33430584,-54.01675788,0.227257544,-101.0694138,-1220.622169,-1.43E-06,-17.27534433,2.313160549,-5634.162321,113.2006617,3.24442047,49.61714421,-1.50E-09,-3528.52092,,,,
924.3759993,3610,5.737760791,6.908560959,-21.75323343,38.10435888,0.227281502,-34.35683493,-1349.058273,-1.42E-06,-109.522453,-108.6659901,-4750.912669,8.754198049,-96.78016402,-72.79027676,-1.40E-09,-3525.858463,,,,
924.3839993,3610,6.340286152,-56.44073319,17.53078325,30.31202418,0.227299634,-14.30982638,-1406.633045,-1.40E-06,53.22549795,66.41056633,-5576.724751,170.1807268,58.62330595,81.44703055,-1.40E-09,-3523.110254,,,,
924.3919993,3610,-95.27873348,33.06296445,-104.1344121,-82.60754392,0.227311961,-143.0896902,-1128.480883,5.17E-07,-127.9045057,-118.3409404,-5023.955885,-8.143348789,-124.8564475,-72.61689055,-1.40E-09,-3520.276694,,,,
924.3999993,3610,69.20054675,-69.97173637,41.63098448,100.823423,0.227318507,33.9458399,-1479.680865,2.33E-06,-22.03947597,-18.35444109,-5010.567413,93.02030209,-19.44620166,-12.45781144,-1.40E-09,-3517.358179,,,,
924.4079993,3610,-62.17982875,1.304795977,-30.08687942,-44.66649996,0.227319292,-90.76282807,-1186.822837,1.75E-06,6.886206973,25.81045444,-5543.718698,128.1010382,27.78121609,54.22133762,-1.40E-09,-3514.355109,,,,
924.4159993,3611,1.014062093,7.382125322,-11.73334287,38.77943978,0.227314339,-34.27083343,-1316.797526,1.78E-06,-98.20293537,-89.45161116,-4659.742665,15.55193785,-80.10117426,-79.37358397,-1.40E-09,-3511.267883,,,,
924.4239993,3611,17.90356253,-63.49667872,47.68249425,53.78392963,0.227303669,12.32564635,-1385.448381,1.88E-06,57.07426868,57.8085304,-5490.847548,168.1373061,72.75223336,77.21763868,-1.40E-09,-3508.096901,,,,
924.4319993,3611,-78.21569347,46.9508549,-56.83930479,-42.97718064,0.227287306,-90.9919762,-1115.660565,1.73E-06,-92.44725086,-81.41968976,-4950.89618,26.77534492,-65.06059254,-24.96297477,-1.40E-09,-3504.842566,,,,
924.4399993,3611,57.34559067,-52.74322951,48.70016708,107.2323276,0.227265271,54.07693934,-1451.46848,1.82E-06,-7.316847783,9.648094493,-4938.042324,114.6625247,10.80655493,24.65593585,-1.40E-09,-3501.505282,,,,
924.4479993,3611,-74.81507559,4.384698956,-43.50992754,-47.03155343,0.227237587,-80.18377543,-1154.75601,1.73E-06,-11.6485151,-0.13640874,-5445.856839,113.2771795,2.455877968,50.83780101,-1.40E-09,-3498.08545,,,,
924.4559993,3611,-4.53989756,14.21987876,-13.57476273,43.97479605,0.227204276,-15.89117342,-1279.889625,1.76E-06,-104.9366416,-96.13903564,-4564.134992,15.95905386,-87.11197695,-63.71961528,-1.40E-09,-3494.583474,,,,
924.4639993,3611,5.183933369,-57.38926561,27.61880232,39.53597574,0.227165361,-1.27849654,-1335.97219,1.72E-06,39.69550227,50.26208985,-5378.748359,159.7590224,61.87885938,74.23229877,-1.30E-09,-3490.999757,,,,
924.4719993,3611,-83.86247109,41.61832215,-84.03232675,-61.19822636,0.227120863,-118.9741678,-1078.879478,1.72E-06,-113.3599695,-116.1155774,-4823.486241,4.556446409,-91.53278161,-70.78616085,-1.30E-09,-3487.334708,,,,
924.4799993,3611,56.24254985,-51.43826176,39.09550865,94.12906076,0.227070806,33.92999028,-1410.455576,1.69E-06,-4.486591637,-2.353227459,-4831.340499,112.4480465,10.70882653,-7.491939601,-1.30E-09,-3483.588731,,,,
924.4879993,3611,-79.44743263,3.678730209,-60.7901117,-72.16308025,0.227015211,-112.0507206,-1105.757605,1.68E-06,-15.51108625,-5.381969701,-5321.75719,105.9220818,1.629198367,21.86762393,-1.30E-09,-3479.762229,,,,
924.4959993,3611,-0.522819995,-13.84026858,-35.60376868,24.47588979,0.226954103,-40.90658324,-1254.675692,1.67E-06,-119.169864,-123.427904,-4441.499312,-5.926112969,-108.6396515,-112.6810628,-1.30E-09,-3475.855612,,,,
924.5039993,3611,6.820630252,-83.78392339,18.29815461,28.51718868,0.226887503,-5.682497336,-1310.632288,1.65E-06,39.09087653,37.75282263,-5274.46979,155.2489822,50.34133371,52.79670195,-1.30E-09,-3471.869288,,,,
924.5119993,3611,-103.5844495,25.35379434,-111.1985642,-97.83737206,0.226815434,-139.9775151,-1033.584787,1.63E-06,-118.8395144,-122.7009346,-4708.221508,-0.967367071,-100.154839,-72.02368796,-1.30E-09,-3467.803667,,,,
924.5199993,3611,42.48632146,-84.70323427,4.599087266,58.17800294,0.226737919,8.84949025,-1373.960405,1.62E-06,-31.9069293,-38.45758298,-4714.587622,74.50514045,-24.64826889,-40.41834486,-1.30E-09,-3463.659152,,,,
924.5279993,3611,-66.13299042,-15.97630445,-54.35543569,-63.13360443,0.226654981,-92.59447423,-1078.4411,1.60E-06,-20.85246692,-16.46705379,-5206.278842,88.06715871,-17.22096696,18.41251418,-1.30E-09,-3459.436157,,,,
924.5359993,3611,11.38202296,1.373568479,-20.49838552,40.98543522,0.226566642,-8.268047495,-1203.262363,1.59E-06,-94.1656316,-96.69741239,-4330.201446,14.08736296,-78.23553258,-57.71646599,-1.30E-09,-3455.135093,,,,
924.5439993,3611,7.994331637,-69.22441075,9.382435843,29.32350326,0.226472926,1.985333824,-1257.01816,1.57E-06,40.0163971,44.27059641,-5151.326049,153.3210904,61.34903979,73.89323702,-1.20E-09,-3450.756368,,,,
924.5519993,3611,-78.95657166,45.20747441,-87.21155385,-62.58495081,0.226373856,-106.3583721,-1016.313075,1.56E-06,-115.3640362,-107.1772418,-4597.831874,0.875369842,-102.2521766,-61.97938201,-1.20E-09,-3446.300394,,,,
924.5599993,3611,76.63745027,-40.62865199,54.01297908,103.8978648,0.226269454,58.99582866,-1355.164969,1.55E-06,8.943862302,6.381074997,-4639.328903,115.3549697,20.62052515,20.22238293,-1.20E-09,-3441.767582,,,,
924.5679993,3611,-62.60690638,5.787839853,-47.02734286,-67.89669831,0.226159744,-95.0406544,-1047.620211,1.53E-06,-4.414446713,-5.464575209,-5109.515533,102.729666,11.46344239,39.7603314,-1.20E-09,-3437.158343,,,,
924.5759993,3611,6.334266473,-5.276794183,-26.45247839,22.73885645,0.226044748,-29.48883559,-1188.937434,1.52E-06,-104.7419067,-108.7288183,-4243.042512,-3.127930174,-93.24276239,-94.36930834,-1.20E-09,-3432.473093,,,,
924.5839993,3611,11.51058535,-61.82723867,15.13761855,16.57705356,0.225924491,-7.11175842,-1237.196025,1.50E-06,50.77991696,51.36691403,-5078.898656,149.0176406,56.5576186,62.48060231,-1.20E-09,-3427.712242,,,,
924.5919993,3611,-81.33268894,41.39238551,-96.21092208,-88.90861891,0.225798995,-124.6246498,-988.6932473,1.49E-06,-108.3827677,-108.5903148,-4493.507514,-13.86543635,-107.8926362,-73.9259087,-1.20E-09,-3422.876204,,,,
924.5999993,3611,66.95401723,-62.83257065,38.19801466,80.01797089,0.225668283,45.2247403,-1333.231997,1.47E-06,-3.553486343,-5.335891511,-4535.235884,82.5012779,-6.88986934,-14.37701938,-1.20E-09,-3417.965395,,,,
924.6079993,3611,-68.28595188,5.67687487,-55.48669628,-82.82961138,0.225532379,-95.410614,-1036.689564,1.46E-06,-2.955729329,3.14520841,-5004.421799,83.42414753,-8.799922545,34.10230389,-1.20E-09,-3412.980229,,,,
924.6159993,3611,-8.133353103,2.337355875,-42.97272204,-7.665465904,0.225391307,-47.19332467,-1190.887833,1.45E-06,-94.2084492,-93.26001341,-4143.409904,-17.39073136,-91.69746704,-88.17334076,-1.20E-09,-3407.921118,,,,
924.6239993,3611,-26.1506192,-80.578218,-15.95685527,-30.39419411,0.225245089,-44.68072426,-1235.305161,1.43E-06,31.44090734,33.47482305,-4970.187867,104.9556603,40.33488454,35.86891083,-1.20E-09,-3402.788481,,,,
924.6319993,3611,-99.26161134,15.95807753,-108.8605212,-114.5697014,0.225093748,-141.6983544,-999.4374081,1.42E-06,-132.1335649,-134.6244445,-4373.227433,-58.73477195,-136.0589876,-95.35052337,-1.10E-09,-3397.582733,,,,
924.6399993,3611,66.33062283,-61.54862914,38.5748493,62.67290928,0.224937309,34.74439133,-1349.445333,1.40E-06,3.85670511,-6.896689284,-4444.589396,69.12489919,-5.174791302,-3.436898162,-1.10E-09,-3392.304289,,,,
924.6479993,3611,-91.35995537,9.207374562,-77.22694221,-115.9642105,0.224775795,-124.3113683,-1036.605631,-5.17E-07,-10.28889377,-17.79964268,-4894.272049,54.14663913,-14.59301307,29.57587757,-1.10E-09,-3386.953565,,,,
924.6559993,3611,-11.75013741,-6.53481683,-53.8561421,-18.98405788,0.22460923,-54.33096945,-1206.770116,-2.33E-06,-110.848914,-121.5906678,-4031.124375,-51.94553126,-119.6372599,-94.87499679,-1.10E-09,-3381.530979,,,,
924.6639993,3611,8.289125999,-64.22684129,6.078840605,-13.95535321,0.224437636,-22.0223906,-1273.197246,-1.75E-06,52.88094992,46.36513933,-4892.59118,112.580596,44.62662508,69.58952933,-1.10E-09,-3376.036947,,,,
924.6719993,3612,-81.42201565,43.30011633,-95.37265428,-110.9279767,0.224261038,-135.7828575,-1025.496906,-1.78E-06,-111.6897132,-113.0417788,-4294.627367,-48.86051497,-114.7182149,-63.97760776,-1.10E-09,-3370.471888,,,,
924.6799993,3612,72.68613796,-56.04910625,36.9238194,57.50421589,0.224079459,24.38303598,-1363.905126,-1.88E-06,2.260776629,-8.484079695,-4365.801877,57.15812345,-6.048014274,3.386536507,-1.10E-09,-3364.836221,,,,
924.6879993,3612,-66.80642422,14.49504353,-65.2991042,-107.0494418,0.223892924,-123.5302377,-1065.664893,-1.73E-06,4.934236685,-10.16019211,-4821.141604,58.23669475,-9.832845529,47.99756844,-1.10E-09,-3359.130359,,,,
924.6959993,3612,-1.119498131,7.93077021,-37.96382596,-14.21752225,0.223701454,-59.39338221,-1218.501102,-1.82E-06,-97.20705663,-112.3720388,-3971.726911,-44.39814898,-104.9947526,-76.51440036,-1.10E-09,-3353.354723,,,,
924.7039993,3612,18.9987802,-53.37047442,20.53642431,-3.752505452,0.223505076,-26.23111183,-1266.182778,-1.73E-06,54.18623806,36.1075507,-4825.996864,110.1937673,61.09958542,76.87554386,-1.10E-09,-3347.509736,,,,
924.7119993,3612,-67.36807894,50.83646845,-85.37273032,-96.04242524,0.223303811,-132.1151537,-1049.701314,-1.76E-06,-89.92110132,-103.093326,-4240.28397,-28.73166003,-93.08582428,-36.46505119,-1.10E-09,-3341.595814,,,,
924.7199993,3612,47.38316526,-55.33117043,20.86247977,45.26228157,0.223097685,9.771121486,-1382.18632,-1.72E-06,-0.427087752,-10.57689543,-4339.653831,61.50653967,-9.226744702,20.5915991,-1.00E-09,-3335.613371,,,,
924.7279993,3612,-72.29270434,5.928561804,-71.60966225,-99.44266269,0.22288672,-116.9673008,-1069.516982,-1.72E-06,-17.15764515,-33.62897331,-4767.28033,48.88192376,-16.84733073,57.81730803,-1.00E-09,-3329.562833,,,,
924.7359993,3612,15.75938263,-0.070231291,-34.30220131,10.28287212,0.222670942,-33.49805015,-1236.715041,-1.69E-06,-88.09850701,-103.5322625,-3918.919477,-21.00541056,-98.04554591,-32.19761997,-1.00E-09,-3323.444619,,,,
924.7439993,3612,-4.596044676,-55.85152882,-3.290365147,-8.093894741,0.222450372,-26.65583809,-1266.781701,-1.68E-06,41.18048308,36.37376107,-4760.373458,116.7935347,34.82527052,108.1913794,-1.00E-09,-3317.259146,,,,
924.7519993,3612,-82.49123987,55.01716614,-99.79046444,-88.50149151,0.222225037,-120.95658,-1039.770182,-1.67E-06,-115.1524685,-111.9071502,-4135.530945,-31.78770532,-119.1143576,-9.998279743,-1.00E-09,-3311.006836,,,,
924.7599993,3612,55.13141353,-44.74780307,31.29151112,64.98026607,0.221994959,35.08157283,-1372.195396,-1.65E-06,2.488882352,3.008765409,-4248.386381,80.97379447,-5.132657159,72.23315865,-1.00E-09,-3304.68811,,,,
924.7679993,3612,-80.56210975,13.2933559,-62.99448728,-97.48852862,0.221760162,-113.7952854,-1050.503665,-1.63E-06,-17.17588194,-26.97924658,-4678.213557,55.92119963,-24.21056307,88.11338038,-1.00E-09,-3298.303386,,,,
924.7759993,3612,-0.361285718,-4.137635948,-35.54315414,2.320867056,0.221520672,-43.64580595,-1230.801638,-1.62E-06,-92.69235824,-101.9398386,-3857.521756,-25.70237123,-105.4863468,-20.24098415,-1.00E-09,-3291.853089,,,,
924.7839993,3612,-3.224934304,-71.92006267,10.76677461,-5.890475662,0.22127651,-22.17167165,-1267.888378,-1.60E-06,42.22121798,38.68125853,-4743.119452,110.9934996,40.95880662,121.0904398,-1.00E-09,-3285.337638,,,,
924.7919993,3612,-66.46464804,33.33016704,-69.16683839,-77.22932469,0.221027703,-105.0987481,-1046.199747,-1.59E-06,-91.86670142,-107.6537242,-4146.815529,-28.28180957,-93.07608666,1.951962432,-1.00E-09,-3278.75745,,,,
924.7999993,3612,41.27503057,-65.87026245,26.17459439,45.4107151,0.220774273,19.59187419,-1384.407792,-1.57E-06,21.4122828,-0.961682595,-4289.597575,77.40852409,18.37784732,73.35413007,-1.00E-09,-3272.112949,,,,
924.8079993,3612,-104.8747519,-14.50087567,-83.92304592,-121.4483839,0.220516245,-132.6513028,-1063.772021,-1.56E-06,-34.92986237,-60.27435145,-4703.056577,20.06585563,-32.19041524,65.87886069,-9.00E-10,-3265.404557,,,,
924.8159993,3612,5.673117112,-22.36796814,-28.28803634,9.021027949,0.220253643,-29.18089261,-1261.778781,-1.55E-06,-89.14489676,-123.1820701,-3893.847661,-41.77356973,-93.08173551,-23.38548697,-9.00E-10,-3258.632694,,,,
924.8239993,3612,-18.44462839,-66.02355971,-6.608753409,-28.56892183,0.219986492,-38.37786335,-1288.671093,-1.53E-06,54.88192343,33.36096248,-4786.419199,110.4909187,58.42392652,137.8152756,-9.00E-10,-3251.797783,,,,
924.8319993,3612,-105.5033203,25.13134976,-121.4998412,-124.7838261,0.219714815,-154.083726,-1040.846117,-1.52E-06,-128.5553422,-146.1320095,-4144.747381,-71.01655425,-134.7776706,-26.63582652,-9.00E-10,-3244.900245,,,,
924.8399993,3612,41.53424785,-86.87484026,9.165695702,41.21485788,0.219438636,12.28372255,-1393.29027,-1.50E-06,1.941311253,-20.78053799,-4289.619084,54.31898794,-16.99402606,38.25252766,-9.00E-10,-3237.9405,,,,
924.8479993,3612,-83.60937209,-18.5682439,-75.48417492,-107.8668004,0.21915798,-118.199975,-1095.89799,-1.49E-06,-13.17862883,-36.35089589,-4716.966037,44.61571534,-23.042478,77.6474906,-9.00E-10,-3230.91897,,,,
924.8559993,3612,20.75347655,-28.97383647,-26.59470225,11.00724878,0.218872872,-30.634226,-1280.743423,-1.47E-06,-91.27066407,-116.0574982,-3905.846377,-38.47250576,-106.3635178,-24.31221582,-9.00E-10,-3223.836081,,,,
924.8639993,3612,8.291943208,-73.91011049,12.03266604,-12.76055132,0.218583335,-29.63646817,-1299.567288,-1.46E-06,59.94622467,42.78929385,-4798.155916,115.8237759,57.84930112,118.7747414,-9.00E-10,-3216.692249,,,,
924.8719993,3612,-81.29512039,32.81112074,-94.9372196,-106.8246936,0.218289393,-142.4760352,-1067.003822,-1.45E-06,-97.81913784,-122.6602445,-4167.070004,-41.67158765,-95.0534346,-21.8603366,-9.00E-10,-3209.487898,,,,
924.8799993,3612,61.47061361,-73.49781329,31.15613549,55.81642971,0.217991071,18.0159467,-1406.984334,-1.43E-06,9.622400379,-13.92333903,-4318.872833,67.46388837,-6.390109959,44.42286454,-9.00E-10,-3202.22345,,,,
924.8879993,3612,-58.84993686,-10.50784853,-55.30709463,-90.03121074,0.217688394,-110.1423646,-1099.566101,-1.42E-06,-8.532389512,-22.00362062,-4731.040011,60.12796771,-22.24705689,82.07087978,-9.00E-10,-3194.899324,,,,
924.8959993,3612,17.56807111,-22.84214267,-28.80180698,1.398215367,0.217381386,-46.74040054,-1289.462151,-1.40E-06,-69.00494578,-91.19195207,-3943.892947,-8.747653072,-78.95102608,-18.65594333,-8.00E-10,-3187.515945,,,,
924.9039993,3612,-9.873597923,-76.82884327,4.382047654,-27.35979618,0.21707007,-47.03470603,-1290.658905,5.17E-07,56.23472329,39.70573069,-4831.77312,119.4344515,54.05197869,103.1429199,-8.00E-10,-3180.073733,,,,
924.9119993,3612,-67.54078643,6.6564245,-80.86548506,-89.70211157,0.216754472,-124.9891125,-1047.856147,2.33E-06,-115.5979796,-129.2288596,-4167.6028,-46.32558597,-127.61948,-25.23176585,-8.00E-10,-3172.573113,,,,
924.9199993,3612,65.35498497,-100.5332609,26.97213376,49.33573468,0.216434615,13.86047393,-1378.899312,1.75E-06,14.63319673,-2.372372832,-4337.121225,75.68548125,-3.912125095,53.30972056,-8.00E-10,-3165.014501,,,,
924.9279993,3613,-80.74786478,-20.15117064,-77.17080819,-121.6451788,0.216110525,-140.940387,-1043.663083,1.78E-06,-19.53707101,-24.33083004,-4735.045754,45.28895018,-19.08071547,53.63356676,-8.00E-10,-3157.398322,,,,
924.9359993,3613,37.4649232,-18.9922133,-16.65450919,11.85000804,0.215782226,-38.22810274,-1225.176478,1.88E-06,-85.22143638,-84.76471281,-3926.72385,-21.86947032,-104.3137163,-38.52761819,-8.00E-10,-3149.724996,,,,
924.9439993,3613,20.82885315,-58.66376593,9.369441305,-21.59033703,0.215449741,-44.00380355,-1241.000129,1.73E-06,74.51401065,72.68784653,-4845.481661,132.3782465,45.173462,113.3772513,-8.00E-10,-3141.994945,,,,
924.9519993,3613,-53.44471368,36.02077844,-93.25204641,-110.4762652,0.215113096,-152.4880601,-1010.923902,1.82E-06,-100.4385138,-95.62348072,-4253.701889,-43.24808176,-124.7149416,-40.06313652,-8.00E-10,-3134.208591,,,,
924.9599993,3613,119.8864542,-52.69642954,61.11497361,73.67977983,0.214772314,19.82613551,-1358.46353,1.73E-06,31.92556347,38.87298317,-4513.135153,87.88748916,-6.134806118,47.98451497,-8.00E-10,-3126.366354,,,,
924.9679993,3613,-7.909438391,44.73078733,-22.78532539,-77.15013797,0.214427421,-123.5280551,-1067.327017,1.76E-06,34.56330772,34.91325663,-4986.047305,92.65604551,15.8417728,91.69820725,-8.00E-10,-3118.468655,,,,
924.9759993,3613,92.95267374,36.53029824,22.33191556,34.25176187,0.214078441,-43.09588023,-1295.596341,1.72E-06,-30.44091002,-26.45711834,-4267.450844,22.71944643,-37.94529828,-9.942046354,-8.00E-10,-3110.515916,,,,
924.9839993,3613,79.16325058,-11.96889129,51.00350521,8.373959083,0.213725398,-46.47521028,-1345.714483,1.72E-06,111.1835659,116.0709062,-5226.094142,164.6200453,92.76960674,125.29774,-7.00E-10,-3102.508558,,,,
924.9919993,3613,-13.48509783,79.94989685,-65.13176743,-86.8607734,0.213368317,-164.6850365,-1154.475753,1.69E-06,-60.77665712,-58.32410927,-4628.521811,-4.532229817,-79.05016135,-19.788004,-7.00E-10,-3094.446999,,,,
924.9999993,3613,127.8770311,-30.98768195,59.49974179,67.05172702,0.213007223,-13.17785896,-1518.779316,1.68E-06,52.80273173,61.59982643,-4881.464197,108.2750885,20.8655392,61.1338173,-7.00E-10,-3086.331661,,,,
925.0079993,3613,5.1638795,40.80419732,-30.67254627,-82.02639478,0.212642139,-150.2746421,-1234.955791,1.67E-06,27.25340621,34.76289152,-5306.24216,88.42010018,-5.247609849,90.49187233,-7.00E-10,-3078.162967,,,,
925.0159993,3613,81.81735729,18.17184017,-9.68925702,7.878562001,0.21227309,-87.31585552,-1456.52113,1.65E-06,-46.27188895,-39.5155226,-4565.501599,9.65782549,-53.08366129,-21.88154374,-7.00E-10,-3069.941332,,,,
925.0239993,3613,42.93251284,-36.01243437,0.882073958,-42.89376432,0.211900101,-105.4973311,-1479.117587,1.63E-06,77.38222355,83.69529924,-5487.561698,126.7006458,76.66416116,93.30662875,-7.00E-10,-3061.66718,,,,
925.0319993,3613,-28.99336743,56.15775976,-89.82480598,-112.6276895,0.211523197,-198.3187945,-1281.768909,1.62E-06,-94.09652403,-89.80195648,-4848.544014,-43.94558399,-108.7346695,-49.37340552,-7.00E-10,-3053.340929,,,,
925.0399993,3613,93.9110173,-53.13482585,22.51422353,29.95438386,0.211142401,-60.3404601,-1632.39074,1.60E-06,28.65900207,50.95752966,-5118.609046,85.17973173,13.01335077,33.03780289,-7.00E-10,-3044.963,,,,
925.0479993,3613,-40.47641509,17.63915361,-78.64475556,-126.6025344,0.210757739,-201.8720382,-1329.340419,1.59E-06,-8.484100547,19.91121024,-5498.881414,51.74270882,-23.25491387,38.51713153,-7.00E-10,-3036.53381,,,,
925.0559993,3613,64.82144571,-8.366202172,-22.91541686,4.444589487,0.210369235,-99.82042161,-1551.27014,1.57E-06,-73.27402403,-47.15423798,-4663.634477,-17.5446313,-89.89029855,-50.50870968,-7.00E-10,-3028.053779,,,,
925.0639993,3613,24.54912803,-53.7859299,-9.303933581,-37.52695137,0.209976913,-115.089274,-1567.956287,1.56E-06,58.53776102,104.3279114,-5473.698886,127.1013607,46.26009317,97.82150452,-7.00E-10,-3019.523327,,,,
925.0719993,3613,-51.72359454,48.60545472,-107.4230694,-106.6995474,0.209580799,-213.9807792,-1363.577568,1.55E-06,-123.6493773,-71.30646403,-4694.42048,-47.72097157,-141.1732742,-57.33292395,-6.00E-10,-3010.942869,,,,
925.0799993,3613,101.3083107,-58.29595319,35.55756989,68.03016449,0.209180916,-50.21059594,-1732.099286,1.53E-06,7.823632336,63.39827384,-4820.989932,84.14259896,-7.404587447,30.4456396,-6.00E-10,-3002.312826,,,,
925.0879993,3613,-24.52981283,18.9665895,-53.68323795,-84.93414485,0.208777289,-184.5243233,-1460.619137,1.52E-06,-4.762587348,52.48551673,-5088.684872,77.16095704,-12.79265772,59.39660503,-6.00E-10,-2993.633614,,,,
925.0959993,3613,56.10350546,-2.840982116,-18.09510901,18.63538012,0.208369942,-99.34785211,-1686.349621,1.50E-06,-70.78333293,-23.40009955,-4266.316999,3.730189503,-76.8061004,-36.55266187,-6.00E-10,-2984.905653,,,,
925.1039993,3613,29.62376924,-58.9917624,4.989181814,-14.21991225,0.207958901,-98.84670152,-1726.651678,1.49E-06,47.11110261,99.63394617,-5194.757244,127.203153,49.02125783,92.70395842,-6.00E-10,-2976.12936,,,,
925.1119993,3613,-14.35265372,41.02534777,-66.56851467,-65.0895792,0.20754419,-165.7131207,-1590.985012,1.47E-06,-98.10556003,-49.18159091,-4630.73549,-16.34008358,-97.66793966,-37.95000458,-6.00E-10,-2967.305152,,,,
925.1199993,3613,110.7176791,-49.45132786,59.10953702,79.61434277,0.207125832,-14.76411862,-1973.204097,1.46E-06,46.27024772,94.84363817,-4977.714295,124.3633695,51.22972061,67.90057917,-6.00E-10,-2958.433447,,,,
925.1279993,3613,-41.03268877,22.05488391,-55.69421959,-93.36264581,0.206703854,-170.104503,-1693.949069,1.45E-06,-18.00735014,40.0813144,-5327.964921,67.95698629,-11.8549263,58.04646213,-6.00E-10,-2949.514655,,,,
925.1359993,3613,69.05425509,-0.378290857,-3.837089106,31.75249762,0.206278279,-71.45515295,-1952.716293,1.43E-06,-71.18670953,-22.18131337,-4581.028474,4.541214755,-81.62607937,-38.67789773,-6.00E-10,-2940.549199,,,,
925.1439993,3613,31.79378527,-34.25676601,13.05351268,-14.81685925,0.205849132,-84.54097803,-1985.725769,1.42E-06,67.35531436,117.8802867,-5543.050769,141.335369,64.7255994,104.6080624,-6.00E-10,-2931.537491,,,,
925.1519993,3613,-52.48982862,48.50631281,-98.42006646,-106.2948431,0.205416437,-190.9146532,-1810.989396,1.40E-06,-127.403098,-77.29264342,-4896.003732,-50.87787199,-125.0473723,-67.04407391,-6.00E-10,-2922.479949,,,,
925.1599993,3613,87.11341006,-67.75253318,27.66208267,47.26377947,0.204980219,-35.88027921,-2181.466083,-5.17E-07,0.866844372,51.90309624,-5198.105378,79.17151508,-9.248467219,19.34239524,-6.00E-10,-2913.376987,,,,
925.1679993,3613,-36.80486979,20.32486641,-55.94446301,-91.37819389,0.204540503,-161.2173739,-1901.838136,-2.33E-06,-26.61734667,35.98751387,-5566.381928,62.18291655,-25.21534565,43.28505697,-5.00E-10,-2904.229018,,,,
925.1759993,3613,62.5662853,5.58268885,-6.282268647,29.11006244,0.204097313,-67.67017443,-2140.759953,-1.75E-06,-71.58513378,-21.92113429,-4843.792914,10.8231458,-62.15891688,-37.1170974,-5.00E-10,-2895.036457,,,,
925.1839993,3614,12.21991371,-45.95973529,-8.04909216,-30.39600446,0.203650673,-99.72694757,-2148.95693,-1.78E-06,44.48683865,92.61721045,-5774.158881,134.691821,43.16415979,88.76615029,-5.00E-10,-2885.79972,,,,
925.1919993,3614,-51.30100904,38.58121197,-94.83562075,-93.71694728,0.203200608,-180.2261439,-1975.047481,-1.88E-06,-135.2045665,-75.64928784,-5074.489186,-36.46274063,-139.9659589,-73.42323265,-5.00E-10,-2876.519218,,,,
925.1999993,3614,88.66194928,-63.03949504,46.22079554,66.98584257,0.202747142,-9.852016384,-2329.731866,-1.73E-06,9.449276481,67.24748728,-5354.259186,106.7113551,15.80242663,33.30394959,-5.00E-10,-2867.195364,,,,
925.2079993,3614,-70.75677454,10.0519886,-67.82996438,-107.2016811,0.2022903,-168.8712928,-2014.87815,-1.82E-06,-48.83080503,4.692623294,-5677.724886,55.05923705,-29.39309706,43.14224406,-5.00E-10,-2857.828572,,,,
925.2159993,3614,34.6237308,-30.9125534,-13.4552751,19.76433255,0.201830107,-68.73571793,-2238.713017,-1.73E-06,-110.5070441,-60.82319797,-4912.259242,-13.48645266,-93.97835193,-53.06224872,-5.00E-10,-2848.419253,,,,
925.2239993,3614,11.26653364,-79.15840899,11.42279927,-8.46114437,0.201366587,-63.32793349,-2239.697483,-1.76E-06,33.45115488,86.77846699,-5770.572541,132.3236427,46.15996508,96.0497113,-5.00E-10,-2838.967817,,,,
925.2319993,3614,-58.94634592,12.74491651,-83.81719687,-78.84707948,0.200899764,-154.6382003,-2052.832712,-1.72E-06,-131.5082564,-80.86791873,-4947.667163,-31.48871879,-114.2498791,-41.77280161,-5.00E-10,-2829.474678,,,,
925.2399993,3614,73.55349317,-96.74398718,40.47031487,64.21006517,0.200429663,-12.01251756,-2387.699844,-1.72E-06,5.1542289,47.95348436,-5104.801909,100.5757193,24.43803286,48.35658495,-5.00E-10,-2819.940245,,,,
925.2479993,3614,-82.14800387,-26.3715105,-82.10443067,-113.6336839,0.199956308,-174.6963157,-2060.820649,-1.69E-06,-54.71248417,-11.598401,-5289.979486,49.78384861,-38.06535681,32.55393371,-5.00E-10,-2810.36493,,,,
925.2559993,3614,25.96551845,-63.16160966,-26.25707563,14.73292858,0.199479723,-71.2200794,-2277.246795,-1.68E-06,-123.3825344,-75.42796809,-4403.868087,-18.49605864,-117.435774,-67.85229787,-5.00E-10,-2800.74914,,,,
925.2639993,3614,1.972486743,-99.45129967,0.781321157,-18.59801728,0.198999934,-74.20127473,-2265.261594,-1.67E-06,15.60054194,63.63622516,-5193.324668,121.9063769,16.18708066,78.03936452,-4.00E-10,-2791.093287,,,,
925.2719993,3614,-80.64073855,7.023523129,-108.1068716,-105.8898314,0.198516964,-179.207852,-2064.460062,-1.65E-06,-144.2290988,-104.6065304,-4347.188924,-39.5070503,-135.8584039,-73.71877837,-4.00E-10,-2781.397779,,,,
925.2799993,3614,41.1413903,-97.22817231,7.029522741,27.33839089,0.198030838,-39.29392681,-2375.951097,-1.63E-06,-21.99363312,15.98444458,-4474.641667,78.19582581,-10.49172405,2.788953084,-4.00E-10,-2771.663023,,,,
925.2879993,3614,-112.0037872,-27.2213156,-111.2990127,-141.9565306,0.19754158,-193.6535203,-2034.557835,-1.62E-06,-96.79331348,-54.64237473,-4600.377061,8.708157488,-94.84561303,-16.17768431,-4.00E-10,-2761.889429,,,,
925.2959993,3614,2.953567416,-56.13419556,-48.85305063,-3.603197621,0.197049214,-81.24256164,-2244.716439,-1.60E-06,-138.7211797,-93.36213331,-3690.920169,-33.07870961,-137.78203,-91.52969527,-4.00E-10,-2752.0774,,,,
925.3039993,3614,-1.744088862,-85.37529159,-4.643153978,-19.95839067,0.196553766,-63.57171817,-2224.234034,-1.59E-06,16.27435445,59.74906247,-4449.879226,127.5765882,30.7094836,74.33990726,-4.00E-10,-2742.227346,,,,
925.3119993,3614,-77.6601057,8.878498893,-108.796306,-98.52474285,0.196055259,-157.6185523,-2028.276906,-1.57E-06,-154.8995958,-118.9483558,-3569.773627,-47.38087927,-143.7955934,-77.02742456,-4.00E-10,-2732.339672,,,,
925.3199993,3614,43.53406571,-101.4144578,2.912590973,34.54394397,0.195553717,-22.27326206,-2346.099555,-1.56E-06,-16.92857242,21.80800374,-3705.597357,82.61050205,-14.30753743,11.19354384,-4.00E-10,-2722.414785,,,,
925.3279993,3614,-95.51049149,-20.11325557,-101.3052674,-124.8511632,0.195049165,-166.2223924,-2005.620951,-1.55E-06,-72.35297146,-29.8128688,-3841.931774,37.7306091,-59.93523382,4.845161875,-4.00E-10,-2712.453088,,,,
925.3359993,3614,-3.097232306,-56.16264576,-51.05931316,-4.083414927,0.194541627,-66.13239044,-2206.093754,-1.53E-06,-140.3795727,-103.9283663,-2949.691192,-29.16973974,-122.8959004,-84.90839701,-4.00E-10,-2702.454988,,,,
925.3439993,3614,-24.72300153,-99.559321,-19.98067459,-27.89000754,0.194031127,-61.76341045,-2189.013513,-1.52E-06,-3.333821409,37.5395773,-3729.66142,110.3363459,15.17242168,65.00738664,-4.00E-10,-2692.420886,,,,
925.3519993,3614,-90.62788409,3.364742987,-114.9940986,-92.0166732,0.19351769,-143.9650074,-2001.878292,-1.50E-06,-163.5253856,-117.8456725,-2886.468087,-46.46590154,-140.9783504,-76.1861447,-4.00E-10,-2682.351186,,,,
925.3599993,3614,21.92215309,-101.8700436,-11.43373085,33.91428715,0.19300134,-10.76330448,-2300.599055,-1.49E-06,-39.89790518,-2.912586438,-3045.980642,74.65062321,-21.35035397,10.78655669,-3.00E-10,-2672.246291,,,,
925.3679993,3614,-101.9323122,-24.29835157,-109.9070159,-116.141841,0.192482101,-148.2986666,-1977.745255,-1.47E-06,-86.19446777,-50.58343621,-3182.187246,32.99410848,-70.92373956,8.153788231,-3.00E-10,-2662.106602,,,,
925.3759993,3614,5.438025015,-48.87900486,-50.89887278,6.123853296,0.191959997,-45.49295356,-2214.834278,-1.46E-06,-121.9869939,-86.88681535,-2335.446219,-5.717726043,-102.9722829,-64.95941364,-3.00E-10,-2651.932522,,,,
925.3839993,3614,-40.11355587,-87.78500825,-45.94967909,-51.40217585,0.191435052,-70.35519271,-2185.931897,-1.45E-06,-8.889427328,21.09319878,-3131.387484,109.8993851,20.06658644,59.83087636,-3.00E-10,-2641.724449,,,,
925.3919993,3614,-97.05499919,-4.300407395,-135.6992592,-112.4611764,0.190907291,-153.4248001,-2001.596054,-1.43E-06,-183.380329,-156.2369966,-2277.004741,-64.0544045,-148.1729965,-98.24089599,-3.00E-10,-2631.482784,,,,
925.3999993,3614,38.39264369,-113.6653587,3.540402929,35.71042535,0.190376738,3.455638514,-2323.329571,-1.42E-06,-25.99783827,-4.753406336,-2478.400165,85.98948816,5.020292616,17.09225849,-3.00E-10,-2621.207932,,,,
925.4079993,3614,-105.3821156,-33.28503949,-103.667857,-125.8942149,0.189843416,-143.1966499,-1987.106528,-1.40E-06,-80.49795367,-68.11746029,-2639.459387,26.95344777,-56.86687108,9.878882671,-3.00E-10,-2610.900284,,,,
925.4159993,3614,7.610775483,-69.99107077,-48.27622049,3.876218161,0.18930735,-37.39075128,-2207.410921,5.17E-07,-128.3790814,-121.4853463,-1809.017454,-32.08218466,-109.6899543,-74.0437346,-3.00E-10,-2600.560241,,,,
925.4239993,3614,-15.80079482,-98.35506875,-23.00635205,-35.34818222,0.188768563,-43.5316567,-2175.070923,2.33E-06,17.55366717,32.53133175,-2634.945672,110.3976101,42.45364761,78.27592714,-3.00E-10,-2590.1882,,,,
925.4319993,3614,-106.3997254,5.083983424,-142.2412235,-125.6778627,0.188227081,-155.4261092,-1965.285846,1.75E-06,-168.021102,-144.3105194,-1802.54653,-77.49686379,-152.3946289,-95.78332961,-3.00E-10,-2579.784559,,,,
925.4399993,3615,4.026075825,-108.5422177,-37.27506923,-0.187292977,0.187682926,-25.34571649,-2258.708968,1.78E-06,-55.5637253,-31.10891186,-2021.649011,35.268534,-52.52613219,-30.25757704,-3.00E-10,-2569.349714,,,,
925.4479993,3615,-108.5450473,-29.03021831,-117.3004176,-130.6424038,0.187136124,-142.4865467,-1938.258571,1.88E-06,-98.71424053,-76.32544001,-2221.45301,-8.060699103,-84.95471949,-34.07163268,-3.00E-10,-2558.88406,,,,
925.4559993,3615,17.27786695,-40.89734317,-40.08540694,15.10883521,0.186586696,-23.36827331,-2177.003568,1.73E-06,-117.2995709,-99.80082256,-1528.83195,-38.84290244,-111.6973917,-93.46999464,-3.00E-10,-2548.387991,,,,
925.4639993,3615,2.025927524,-49.22661748,-4.062839583,-17.31600709,0.186034669,-26.31446495,-2159.430306,1.82E-06,35.27286393,50.88591359,-2536.437402,114.5720493,42.17020741,68.73922108,-2.00E-10,-2537.861901,,,,
925.4719993,3615,-64.25912823,33.97264424,-99.18191165,-82.31404956,0.185480066,-113.2236481,-1995.954701,1.73E-06,-141.1499938,-115.6775365,-1881.17357,-56.88955741,-113.1091038,-82.27352122,-2.00E-10,-2527.306183,,,,
925.4799993,3615,27.55020587,-97.17221271,-7.586330509,25.34672954,0.184922909,-0.568242436,-2311.598333,1.76E-06,-23.39317448,14.16266653,-2320.236865,62.65585066,-2.501553702,0.95113951,-2.00E-10,-2516.721231,,,,
925.4879993,3615,-95.03460272,-11.25438522,-93.34704735,-118.5717463,0.184363224,-129.2880516,-2000.394726,1.72E-06,-60.86834296,-31.39696548,-2657.235966,25.20051133,-49.24038138,-2.339590298,-2.00E-10,-2506.107438,,,,
925.4959993,3615,20.3434809,-41.94546045,-21.38028118,23.69604252,0.183801035,-10.66224329,-2254.532049,1.72E-06,-104.7571414,-75.5638481,-1953.108185,-19.53732365,-84.63867751,-80.16959943,-2.00E-10,-2495.465191,,,,
925.5039993,3615,-41.28741942,-71.27705987,-29.01620453,-48.0441232,0.183236364,-47.00637942,-2235.452864,1.69E-06,11.64253203,44.34953958,-2959.229407,105.7683624,41.16542843,59.04188551,-2.00E-10,-2484.794882,,,,
925.5119993,3615,-94.69707472,18.12005045,-114.7412517,-104.4583791,0.182669236,-121.6992542,-2081.005708,1.68E-06,-155.6161497,-131.0507101,-2321.103229,-59.81126719,-132.3582517,-94.05549736,-2.00E-10,-2474.096902,,,,
925.5199993,3615,37.07966035,-104.5509455,15.3019208,41.75922931,0.182099674,26.15141637,-2404.480244,1.67E-06,-24.70753808,11.62209029,-2710.819125,67.36834418,-5.463433052,-7.241083638,-2.00E-10,-2463.37164,,,,
925.5279993,3615,-91.16873736,-9.637279729,-81.68133632,-107.7606371,0.181527702,-107.8607206,-2094.449573,1.65E-06,-52.70322616,-22.86429507,-3050.05823,35.62613977,-24.04335489,0.683331998,-2.00E-10,-2452.619482,,,,
925.5359993,3615,24.12626775,-31.1055686,-23.22943401,28.66282466,0.180953344,3.791453833,-2341.769971,1.63E-06,-88.68204357,-66.50434048,-2414.37233,1.853583374,-71.16588254,-74.06340352,-2.00E-10,-2441.840814,,,,
925.5439993,3615,-21.3086298,-56.06395871,-17.81851876,-27.2511358,0.180376624,-23.74493233,-2294.158898,1.62E-06,16.82956936,56.32588274,-3383.299688,121.3066386,27.23067923,51.86570614,-2.00E-10,-2431.036026,,,,
925.5519993,3615,-69.20583636,47.2228028,-92.00398584,-72.99779976,0.179797565,-84.40486013,-2126.976559,1.60E-06,-134.6420413,-102.4713006,-2689.974243,-29.22013299,-111.8206665,-79.514437,-2.00E-10,-2420.205503,,,,
925.5599993,3615,37.27198089,-65.94543569,13.71771627,51.8607281,0.17921619,49.62687975,-2436.096988,1.59E-06,3.709989535,32.40426145,-3067.45553,106.0520858,20.69996614,23.35795141,-2.00E-10,-2409.349627,,,,
925.5679993,3615,-127.5352484,0.86715222,-115.6145889,-125.7800612,0.178632524,-118.1392079,-2091.666189,1.57E-06,-80.14081893,-45.95955706,-3313.884528,26.81635085,-70.52813178,-8.857344563,-2.00E-10,-2398.468785,,,,
925.5759993,3615,-6.609362786,-48.34307561,-41.5507451,18.81646651,0.178046589,-1.499108769,-2324.950417,1.56E-06,-124.0853064,-88.60443427,-2593.696056,-12.96679779,-107.2141657,-83.59385835,-1.00E-10,-2387.56336,,,,
925.5839993,3615,-47.23559879,-77.20884202,-30.41132226,-39.72732438,0.177458409,-27.60944371,-2260.681694,1.55E-06,5.745006556,39.15403154,-3488.765446,118.8706569,33.13746022,54.28808332,-1.00E-10,-2376.633731,,,,
925.5919993,3615,-93.69928329,12.43397484,-108.982699,-85.17319869,0.176868008,-94.59072169,-2078.579638,1.53E-06,-160.9878466,-142.3530431,-2690.928418,-52.38649532,-126.818034,-104.4940768,-1.00E-10,-2365.680285,,,,
925.5999993,3615,51.8429716,-98.14797836,32.26734151,74.95493131,0.176275409,65.74827866,-2403.294092,1.52E-06,6.063474845,29.52051204,-3009.847583,119.1028221,22.45398651,19.60932331,-1.00E-10,-2354.703399,,,,
925.6079993,3615,-106.5893026,-7.487775213,-95.97364715,-108.5207835,0.175680636,-107.306821,-2057.054582,1.50E-06,-50.17830309,-23.6298546,-3215.759227,66.26657827,-40.53866716,-0.224317738,-1.00E-10,-2343.703451,,,,
925.6159993,3615,-8.535048448,-53.42829076,-50.16264916,10.36640919,0.175083711,-14.48529664,-2273.2197,1.49E-06,-117.2540102,-103.6430125,-2467.07361,-5.973549598,-89.51288614,-106.7303774,-1.00E-10,-2332.680826,,,,
925.6239993,3615,-47.34390833,-89.37256206,-37.31319992,-42.04308038,0.174484659,-32.98921464,-2219.531881,1.47E-06,6.313274155,17.00768226,-3348.551873,121.0018471,28.70653462,32.34339415,-1.00E-10,-2321.635899,,,,
925.6319993,3615,-111.929466,-3.63685854,-126.0698118,-102.2288932,0.173883501,-108.8044608,-2039.520182,1.46E-06,-167.4611713,-151.1580575,-2568.699297,-52.62997434,-137.7975535,-117.2457311,-1.00E-10,-2310.569045,,,,
925.6399993,3615,5.465680777,-121.5847693,-1.379303678,39.80287834,0.173280263,36.69310368,-2335.443861,1.45E-06,-31.51951746,-7.015058579,-2903.868796,86.23981749,8.0893664,-3.696573098,-1.00E-10,-2299.480646,,,,
925.6479993,3615,-132.9883707,-33.25111832,-109.4623752,-119.27031,0.172674966,-112.862526,-1981.993682,1.43E-06,-88.64530212,-70.32503499,-3080.949739,30.10326432,-75.80139697,-14.56709194,-1.00E-10,-2288.371072,,,,
925.6559993,3615,-1.507140913,-70.72243886,-35.64354521,26.74016789,0.172067634,8.842570245,-2210.930813,1.42E-06,-118.3825715,-100.4055818,-2337.853404,-5.164774601,-103.2488423,-84.53496868,-1.00E-10,-2277.240699,,,,
925.6639993,3615,-40.86827157,-95.10578668,-23.8672291,-24.82649594,0.17145829,-9.680788138,-2154.732449,1.40E-06,17.48196395,46.12180093,-3219.915595,136.2765727,53.40032385,67.5330641,-1.00E-10,-2266.089904,,,,
925.6719993,3615,-112.7785924,-9.120866867,-126.6997314,-94.89302163,0.170846957,-97.88956995,-1966.607612,-5.17E-07,-169.2735173,-146.5007396,-2407.303951,-51.90383202,-142.7352461,-102.8859146,-1.00E-10,-2254.919057,,,,
925.6799993,3615,17.11905819,-125.820212,2.318306151,47.1168235,0.170233659,49.18754656,-2262.388899,-2.33E-06,-26.91610992,-6.231282668,-2730.803314,89.03073444,-3.292647023,0.853002956,-1.00E-10,-2243.72853,,,,
925.6879993,3615,-114.2932555,-25.54164055,-101.4197722,-110.2714749,0.169618418,-96.60468669,-1926.789374,-1.75E-06,-76.05452648,-52.11551828,-2905.138246,41.43513856,-53.0855362,-10.61486755,0,-2232.518697,,,,
925.6959993,3616,9.227579151,-56.1748796,-35.56462312,28.80906085,0.169001257,17.12185797,-2167.714679,-1.78E-06,-118.0186175,-93.85921608,-2177.618094,-4.36049581,-112.7101217,-90.76399035,0,-2221.289924,,,,
925.7039993,3616,-23.69171719,-74.48964045,-8.609232998,-11.86901743,0.168382199,4.301206929,-2117.03452,-1.88E-06,19.53088913,45.1104606,-3070.205257,138.4679669,29.23345147,62.79696974,0,-2210.042582,,,,
925.7119993,3616,-83.51864939,21.05193659,-94.9324968,-66.89695729,0.167761268,-70.56096833,-1947.886687,-1.73E-06,-138.2659332,-114.7416292,-2267.626316,-23.91793445,-123.0425343,-91.45379,0,-2198.777039,,,,
925.7199993,3616,39.75440701,-95.26017329,21.34074034,69.85671038,0.167138485,73.0011622,-2245.705275,-1.82E-06,8.021000379,33.02993575,-2607.894944,121.3486646,15.40542168,16.91462757,0,-2187.493664,,,,
925.7279993,3616,-91.28877113,-0.317368573,-75.52228491,-74.14952344,0.166513874,-61.58892925,-1913.715056,-1.73E-06,-51.67979853,-31.38720286,-2776.005048,72.66322072,-33.75017025,14.13567123,0,-2176.192821,,,,
925.7359993,3616,18.88143331,-40.26787572,-14.39583073,60.42022687,0.165887457,49.27035927,-2148.117953,-1.76E-06,-98.69082101,-79.22388948,-2045.503481,27.02038545,-83.29795358,-60.27821032,0,-2164.874879,,,,
925.7439993,3616,-39.38089571,-78.46788231,-23.53950962,-13.43033433,0.165259258,6.716145412,-2067.491156,-1.72E-06,15.94404041,38.08950176,-2913.856433,143.4983782,25.09764513,73.21047162,0,-2153.540198,,,,
925.7519993,3616,-87.43931294,10.8037119,-102.1727153,-62.96029989,0.164629298,-67.18588574,-1899.88758,-1.72E-06,-144.6734732,-135.3211619,-2085.184403,-28.55627858,-128.6821856,-90.89856205,0,-2142.189142,,,,
925.7599993,3616,29.32530114,-93.91304567,13.42405672,59.57106491,0.163997601,58.41310365,-2188.105548,-1.69E-06,1.140106379,16.53600233,-2410.593338,110.8190709,15.30482754,2.970028306,0,-2130.822081,,,,
925.7679993,3616,-120.9163498,-3.95351389,-106.6911648,-110.8528266,0.163364189,-98.579082,-1828.756243,-1.68E-06,-77.11425306,-58.74685504,-2533.305514,41.07068796,-56.82214776,-27.196047,0,-2119.43937,,,,
925.7759993,3616,1.093197571,-44.16705445,-35.1693348,35.51697304,0.162729085,26.24200532,-2054.762826,-1.67E-06,-113.2901414,-106.2670908,-1773.774562,1.076007194,-90.29937243,-94.99104557,0,-2108.041366,,,,
925.7839993,3616,-52.30263976,-63.37337056,-37.6924485,-35.74754311,0.162092312,-15.95935454,-1967.502465,-1.65E-06,15.51497815,29.45438724,-2618.540226,132.4393626,27.76459355,50.96514484,0,-2096.628435,,,,
925.7919993,3616,-91.29781326,26.80381296,-106.5772252,-70.62539548,0.16145389,-70.02962415,-1800.843244,-1.63E-06,-150.3962708,-136.4633171,-1776.875224,-36.86606621,-149.5349283,-109.9972078,0,-2085.200937,,,,
925.7999993,3616,39.28934833,-75.61929024,23.44760787,74.40941868,0.160813844,87.37335335,-2080.747511,-1.62E-06,4.174518329,20.38532314,-2120.892153,114.0826595,7.986080592,16.32353139,1.00E-10,-2073.759224,,,,
925.8079993,3616,-115.1858972,24.19388726,-103.3511585,-104.3833229,0.160172196,-78.61104159,-1709.786934,-1.60E-06,-67.02085149,-53.28858351,-2253.165727,46.7775237,-48.70735428,2.487906016,1.00E-10,-2062.303653,,,,
925.8159993,3616,10.21148912,-18.67396405,-24.9031886,42.40346304,0.159528967,43.91891545,-1937.631906,-1.59E-06,-108.3104282,-94.04329168,-1529.302563,-2.889733715,-94.12238939,-85.68740539,1.00E-10,-2050.834587,,,,
925.8239993,3616,-33.71666199,-40.57967372,-16.09853656,-20.61526167,0.15888418,12.2717563,-1841.961056,-1.57E-06,25.28793034,54.20296459,-2413.135993,137.2166686,39.08320713,66.20819692,1.00E-10,-2039.352376,,,,
925.8319993,3616,-84.07088588,29.35498741,-99.32030224,-75.30168088,0.158237858,-68.73243506,-1656.596637,-1.56E-06,-147.6111656,-132.005777,-1585.487217,-37.73435489,-125.6642748,-96.41802137,1.00E-10,-2027.85737,,,,
925.8399993,3616,38.69406087,-106.9691591,25.09607081,59.4145006,0.157590023,69.27367587,-1930.273213,-1.55E-06,0.496793853,3.312107941,-1947.704313,93.19883889,16.05763622,-3.366533791,1.00E-10,-2016.349926,,,,
925.8479993,3616,-102.5029718,-15.54110639,-91.19165174,-106.623091,0.156940696,-85.54194323,-1569.074695,-1.53E-06,-56.83842919,-53.69035731,-2099.624065,35.78328465,-39.47876872,-16.73974771,1.00E-10,-2004.830393,,,,
925.8559993,3616,21.73793022,-57.61932077,-17.81572861,35.22034366,0.156289899,27.75670171,-1793.14933,-1.52E-06,-105.2750818,-92.54881468,-1403.068775,-8.94954147,-75.77964615,-99.41034002,1.00E-10,-1993.299125,,,,
925.8639993,3616,-24.17258143,-85.5213999,-13.00702546,-27.31816708,0.155637656,-0.261598236,-1695.164571,-1.50E-06,20.41759287,32.14807355,-2296.904365,114.9273448,44.72134039,34.61590376,1.00E-10,-1981.75647,,,,
925.8719993,3616,-60.17564425,-1.248395754,-89.94804988,-66.21977366,0.154983988,-55.67961801,-1532.840646,-1.49E-06,-131.0685085,-140.2121397,-1492.042132,-45.70200108,-114.5779755,-106.8677629,1.00E-10,-1970.202775,,,,
925.8799993,3616,54.17869836,-111.8691305,25.62742289,62.86873126,0.154328916,78.62781354,-1805.644709,-1.47E-06,11.75329906,16.55342729,-1881.937022,99.41300956,37.21511768,12.7615786,1.00E-10,-1958.638391,,,,
925.8879993,3616,-91.50375772,-16.71666024,-91.46769164,-99.65825511,0.153672463,-69.61647275,-1436.638135,-1.46E-06,-60.5064239,-52.25009655,-2025.168046,26.90344093,-40.27857499,-6.414284637,1.00E-10,-1947.063659,,,,
925.8959993,3616,59.28673059,-50.84040271,3.403435597,70.92908619,0.153014651,75.21285774,-1683.674948,-1.45E-06,-81.82459239,-83.87396783,-1358.997024,-1.539762422,-72.9901461,-67.09368628,1.00E-10,-1935.478926,,,,
925.9039993,3616,14.01236044,-49.2094059,10.01116911,13.30593721,0.152355501,44.29867769,-1594.952539,-1.43E-06,57.01702151,74.08281828,-2303.587203,148.2599399,69.87241492,89.19029141,1.00E-10,-1923.884539,,,,
925.9119993,3616,-69.90769105,38.23340134,-101.5915317,-63.30571268,0.151695035,-50.29516122,-1417.84719,-1.42E-06,-126.3341062,-107.8473905,-1539.434985,-32.64263018,-99.21460802,-78.69495594,1.00E-10,-1912.280842,,,,
925.9199993,3616,24.77910628,-94.32238482,-0.414522817,48.09082984,0.151033275,67.28605157,-1687.097424,-1.40E-06,-15.79218407,0.308007603,-1983.190546,80.40222394,20.89470849,2.901878768,1.00E-10,-1900.668172,,,,
925.9279993,3616,-92.88106903,4.470852511,-91.15760086,-90.07424563,0.150370243,-65.39418572,-1329.353307,5.17E-07,-76.24438187,-62.04365795,-2196.41083,22.79349231,-51.3923671,-12.1305424,2.00E-10,-1889.046874,,,,
925.9359993,3616,45.24903011,-24.14717565,-5.452775938,65.41831483,0.14970596,65.6210069,-1562.777919,2.33E-06,-83.50535567,-76.13158812,-1604.30025,8.966820732,-61.75180461,-61.17807392,2.00E-10,-1877.417286,,,,
925.9439993,3616,-11.41704399,-54.61161901,-16.46962638,-9.509075179,0.149040447,20.64507604,-1471.116047,1.75E-06,33.44698124,54.92539941,-2579.856018,131.8156719,54.5014872,65.05460613,2.00E-10,-1865.779748,,,,
925.9519993,3617,-51.80115671,18.77831446,-94.48624972,-51.50239799,0.148373727,-43.9902008,-1326.28168,1.78E-06,-132.6030424,-108.3274862,-1868.418365,-34.95555668,-106.9260481,-95.26744172,2.00E-10,-1854.134597,,,,
925.9599993,3617,61.39200527,-88.92474308,20.10060828,71.53193426,0.147705821,86.39097059,-1602.657969,1.88E-06,16.8003257,28.10339864,-2367.271197,108.3569196,53.57663744,21.66479716,2.00E-10,-1842.482169,,,,
925.9679993,3617,-68.09032246,12.30501101,-91.11752159,-80.09348642,0.147036749,-57.61253534,-1255.418903,1.73E-06,-52.7674959,-48.07514245,-2580.709607,38.16315926,-37.53982955,-6.188939737,2.00E-10,-1830.822801,,,,
925.9759993,3617,66.51497199,-24.33890671,-6.33925134,75.69786206,0.146366534,74.1987085,-1512.213109,1.82E-06,-73.30531469,-65.79236492,-2021.810708,14.89873853,-67.92736954,-62.26061291,2.00E-10,-1819.156828,,,,
925.9839993,3617,20.53685111,-29.94817583,3.765243201,17.79339519,0.145695197,48.85640237,-1427.946458,1.73E-06,59.21446885,67.49762523,-3022.975088,149.1505705,77.09924293,94.57301773,2.00E-10,-1807.484581,,,,
925.9919993,3617,-13.24176211,65.71082297,-65.58099619,-14.00778059,0.145022758,-3.417226673,-1288.192173,1.76E-06,-100.7784406,-95.28377642,-2304.353338,-10.5893234,-76.4840504,-51.50179983,2.00E-10,-1795.806392,,,,
925.9999993,3617,86.28530349,-45.6653509,35.57369283,92.41514366,0.14434924,113.0893245,-1562.078921,1.72E-06,42.76870999,55.82002477,-2811.143763,131.1002393,72.60854591,58.45012877,2.00E-10,-1784.122595,,,,
926.0079993,3617,-67.05085261,40.20399409,-96.30762512,-83.35719554,0.143674663,-51.97056626,-1205.791303,1.72E-06,-33.42338973,-22.40249839,-3014.021413,51.74068433,-9.518730271,23.6080598,2.00E-10,-1772.433519,,,,
926.0159993,3617,54.4720122,-28.59201063,-28.05832556,64.33679918,0.142999048,69.32104631,-1447.656825,1.69E-06,-86.5568421,-79.15070959,-2423.691018,-3.028529925,-67.70554828,-64.59686446,2.00E-10,-1760.739492,,,,
926.0239993,3617,39.65116775,-52.23810168,8.633079579,36.5885712,0.142322417,69.6825085,-1368.657165,1.68E-06,55.43342839,60.40513552,-3402.755193,143.5425089,82.76574362,92.42971513,2.00E-10,-1749.04084,,,,
926.0319993,3617,32.17689893,61.31615607,-24.40760997,31.17166478,0.141644789,43.4985437,-1251.858285,1.67E-06,-44.19295668,-53.55840517,-2683.333104,38.64619693,-21.58173367,-3.278852288,2.00E-10,-1737.337893,,,,
926.0399993,3617,106.7480206,-44.09813646,60.71356236,121.683058,0.140966188,144.2065235,-1514.793866,1.65E-06,87.21759463,89.81267462,-3161.204025,170.2984631,97.52303594,97.81079595,2.00E-10,-1725.630976,,,,
926.0479993,3617,-65.67424493,30.26108739,-90.53952894,-67.93382744,0.140286632,-32.74677007,-1135.745131,1.63E-06,-32.13495188,-18.40456993,-3305.233395,59.41423225,-6.641830448,30.57466043,2.00E-10,-1713.920411,,,,
926.0559993,3617,59.93335284,-30.46319597,-14.91157891,79.51006404,0.139606143,89.9153105,-1368.311444,1.62E-06,-73.28800422,-68.25084903,-2685.923227,16.78216071,-42.23916004,-43.3357627,2.00E-10,-1702.206521,,,,
926.0639993,3617,14.31971128,-48.51942011,-10.66169586,14.68245421,0.138924742,50.80517717,-1258.888406,1.60E-06,49.8234058,58.0651241,-3609.33863,144.40756,68.08592751,89.00438514,3.00E-10,-1690.489633,,,,
926.0719993,3617,-21.53078956,41.29158991,-85.3514978,-25.52398462,0.13824245,-12.19976576,-1110.311377,1.59E-06,-102.0425734,-100.1145748,-2810.58721,-8.314796976,-83.93641982,-62.88537382,3.00E-10,-1678.770062,,,,
926.0799993,3617,66.06757036,-69.5166046,10.41933357,73.48232179,0.137559286,98.27661721,-1360.322275,1.57E-06,33.41683379,38.62568462,-3237.867855,124.6277149,42.66306244,40.48745211,3.00E-10,-1667.048129,,,,
926.0879993,3617,-88.35808081,20.15549143,-113.4499245,-96.96923336,0.136875272,-60.4192702,-977.4733862,1.56E-06,-60.55576651,-50.02903122,-3317.188021,33.82178336,-49.19851073,-9.731357401,3.00E-10,-1655.324153,,,,
926.0959993,3617,65.15652431,-33.29827397,-5.468311336,79.72517281,0.136190428,88.91919091,-1226.784062,1.55E-06,-69.58027234,-66.62203001,-2645.884349,19.65634462,-40.54905957,-64.020396,3.00E-10,-1643.598453,,,,
926.1039993,3617,13.36994697,-40.33602122,-4.943282865,10.668202,0.135504774,49.96383482,-1113.644784,1.53E-06,67.6249019,71.52986987,-3509.515461,157.0204263,90.75839712,86.05091577,3.00E-10,-1631.871342,,,,
