Time:125Hz,Epoch,FP1,FP2,C3,C4,P7,P8,O1,O2,F7,F8,F3,F4,T7,T8,P3,P4,Event Id,,,
524.8879996,2050,55.38344465,14.50802944,59.3049297,-224.8243718,0,-214.2514786,348.1897411,1831.637036,-16.93040486,20.95599691,-21.28982945,-115.6755297,93.1043886,-141.653736,-114.2961269,0,1111,,,
524.8959996,2050,-127.4280279,-68.75770094,-132.0566601,38.46598352,0,189.2330345,310.349946,2787.622212,48.16928913,-90.73596696,-31.66696301,-818.0015529,56.94197556,-311.5093379,297.9141475,0,,,,
524.9039996,2050,153.9128492,187.3036303,39.00535016,72.29114053,0,211.8914184,9.538036143,2362.355706,-121.68386,109.2273191,-111.8939641,325.0419706,-73.53965832,203.3541083,16.13219798,0,,,,
524.9119996,2050,-55.7046781,-77.17585384,-2.059123895,-261.2537641,0,-272.2338361,522.6147289,1934.7307,136.2818068,-45.28699596,79.44914962,-683.8031769,205.2146461,-343.7944556,6.595248423,0,,,,
524.9199996,2050,-18.29624772,87.5182533,-159.4276716,250.0422864,0,514.9086784,-43.42655659,3116.180666,-87.59603787,-38.44196385,-119.1766629,-275.9393344,-132.9015247,14.21284606,365.8222427,0,,,,
524.9279996,2050,181.4174759,158.1324948,123.5410628,-234.2840407,0,-258.1955059,319.9946541,1627.434933,-6.440958371,93.76202199,5.611227166,132.2817311,94.54502251,-26.46615599,-198.180227,0,,,,
524.9359996,2050,-183.7658634,-124.6882341,-173.9285021,8.182583755,0,170.9126366,326.1544531,2809.703438,97.56091273,-110.1513573,6.108186575,-969.2256022,91.05175958,-357.8212494,333.7486812,0,,,,
524.9439996,2050,128.1820589,170.8775916,-22.40430617,63.50339106,0,265.7498519,-110.7690061,2447.968546,-192.8638594,70.96848644,-150.7887725,430.4201088,-138.9969796,193.599723,45.94344802,0,,,,
524.9519996,2050,-34.62166208,-62.66881375,-16.62845806,-335.7133976,0,-343.8461397,516.7451902,1841.774486,112.92063,-81.00464922,60.18914601,-649.8436983,188.591623,-435.3933096,-19.06994446,0,,,,
524.9599996,2050,-29.63559042,69.62683957,-188.5778129,253.4755858,0,552.360777,-84.47951271,3220.813623,-73.45514177,-57.71866264,-139.8846752,-323.7014788,-138.94232,-34.63305051,406.5163571,0,,,,
524.9679996,2050,209.8361592,169.5505449,135.9163477,-265.6970447,0,-276.4957929,265.4442304,1572.542674,-14.66188452,94.98645767,-17.56606513,237.3603808,86.56838753,-36.76685333,-230.0782341,0,,,,
524.9759996,2050,-172.4335792,-104.7875167,-170.46439,-0.980266481,0,161.9536973,326.7085944,2823.155693,123.7417572,-123.412201,6.499067474,-1019.951886,84.555747,-393.0421381,342.0326881,0,,,,
524.9839996,2050,177.8353915,220.6343605,-6.04459334,95.6106077,0,294.5979472,-137.0558341,2467.289268,-177.3791718,93.24752396,-140.7931483,473.4401773,-150.2726064,258.166591,47.92627478,0,,,,
524.9919996,2050,31.09308746,-5.94637112,18.94885374,-321.3338541,0,-359.2292388,530.5413011,1785.87823,137.3341432,-54.41773014,79.78031789,-629.2404061,219.3386633,-406.0476178,-38.55100216,0,,,,
524.9999996,2050,-17.39905134,97.10650009,-171.7706605,278.6504026,0,566.0123238,-84.96803967,3240.111081,-46.82556246,-31.93709512,-127.2357014,-350.7787382,-118.9075803,-11.08584665,404.250149,0,,,,
525.0079996,2050,220.7363609,168.4291313,140.2705596,-255.5240075,0,-267.0589212,239.5964115,1560.819338,-20.24335434,103.2788631,-14.03650092,276.0966417,72.96829432,-1.752972335,-240.5287128,0,,,,
525.0159996,2050,-131.0288277,-72.02431197,-154.2618843,21.37687239,0,181.2494797,345.7499157,2804.446682,132.1306738,-130.7770473,7.014767265,-1032.201572,90.32564117,-394.907371,345.2111892,0,,,,
525.0239996,2050,219.0589242,277.1638621,42.81788616,136.2045496,0,342.5492034,-109.2079956,2446.367175,-136.2881519,136.2672861,-133.3678474,474.992796,-112.0840301,314.6500859,33.68158069,0,,,,
525.0319996,2050,55.56899988,-0.373293759,60.88474981,-303.6698137,0,-340.0285896,544.3543383,1731.700533,170.2815889,-11.23296627,100.2230093,-621.69242,255.0969573,-344.6388186,-56.09750151,0,,,,
525.0399996,2050,-3.676721133,88.83580756,-173.502325,296.193441,0,588.3045786,-91.82996518,3225.084559,-47.78960047,-32.19362395,-114.135304,-358.8400902,-112.1587224,11.68546565,415.0998656,0,,,,
525.0479996,2050,239.5080634,194.1189398,144.991235,-240.7696798,0,-248.1472119,236.3311506,1533.141844,-26.16145659,110.2693516,-9.315686141,304.2598566,83.58802114,36.49355046,-242.5827639,0,,,,
525.0559996,2051,-115.2016488,-51.20648262,-137.312351,18.10264602,0,153.5291095,356.3602192,2749.458946,141.4688054,-113.8575651,15.33224613,-1037.817418,117.8493344,-388.977441,337.2522848,0,,,,
525.0639996,2051,210.6453161,263.43177,26.32275308,129.9260298,0,306.3802455,-141.3163792,2422.644661,-142.8244127,134.8006962,-130.2499239,470.467263,-119.8911028,290.6458837,24.48295815,0,,,,
525.0719996,2051,18.83829995,-30.48977991,19.77230592,-326.3253695,0,-373.3594915,496.436881,1708.999555,149.321567,-34.54988912,97.93012538,-596.0234086,221.7155789,-373.5340802,-76.13961473,0,,,,
525.0799996,2051,-43.99868111,63.78408881,-207.4486163,277.8929249,0,569.9819562,-128.0870081,3227.376114,-70.38836787,-58.87319401,-128.6642087,-353.0960964,-141.0950284,-38.29994045,414.6962268,0,,,,
525.0879996,2051,253.6574415,186.8401249,137.4016955,-247.1415797,0,-268.2964224,205.8429471,1519.03548,-41.9969817,100.9423627,-27.8242062,321.2637455,64.31606,8.878879471,-255.8026426,0,,,,
525.0959996,2051,-94.03516633,-66.17353348,-146.4443481,4.744733527,0,123.4611492,340.9506697,2722.634799,150.7534295,-120.6552819,13.73834558,-1036.031114,110.3069397,-410.8500026,317.4459498,0,,,,
525.1039996,2051,195.7805482,246.3549751,13.95621477,131.4396813,0,308.7275956,-166.541974,2437.551149,-160.4291177,125.2718201,-134.0380256,490.0475173,-140.5098264,257.4509432,32.28514602,0,,,,
525.1119996,2051,29.16124576,-28.69021665,27.89458501,-328.2041987,0,-381.9143736,489.0308485,1686.2889,120.9853311,-34.19840035,99.15453379,-558.9197755,215.7567758,-389.9739534,-73.05905863,0,,,,
525.1199996,2051,-17.56627598,82.14194781,-198.0006951,276.1315731,0,554.0579801,-115.0187466,3204.231976,-65.32177296,-59.27323389,-115.1210494,-355.8494484,-137.2821807,-34.23204767,417.1841516,0,,,,
525.1279996,2051,272.3063407,218.8041782,156.6008212,-240.078012,0,-277.4617547,203.0137536,1493.608046,-49.33028775,110.9182787,-12.36990595,342.6831049,51.25012469,45.29127425,-272.8154105,0,,,,
525.1359996,2051,-71.24686043,-50.13566977,-131.6639805,1.001020949,0,99.75980134,331.0984219,2688.229198,149.3887765,-108.4367718,36.37205106,-1025.378978,105.7988725,-379.0971901,295.8364682,0,,,,
525.1439996,2051,237.2728974,277.1735902,24.78222802,137.380681,0,290.1443366,-169.781884,2420.94204,-136.8747077,126.6687774,-127.2494851,491.1627252,-147.070401,285.5232345,18.11967552,0,,,,
525.1519996,2051,63.45344465,2.575953624,66.70935341,-320.2188857,0,-416.1668552,513.5006632,1618.813811,143.049512,-14.91102358,105.5021068,-547.9939618,229.4648572,-340.6576622,-122.4586915,0,,,,
525.1599996,2051,-11.89105541,81.24248587,-165.5513192,295.7662401,0,538.0651487,-100.3757705,3172.043567,-42.27455642,-35.80840465,-85.74008979,-359.7617768,-88.7681561,11.95539936,391.7299991,0,,,,
525.1679996,2051,274.4631085,216.5668507,165.4466723,-222.8231601,0,-281.4472733,194.8002735,1476.05792,-24.73763456,114.8237395,10.71966335,380.6977209,80.26030018,61.95115363,-276.658011,0,,,,
525.1759996,2051,-93.24114582,-76.81484477,-141.094066,-8.230564894,0,76.29977258,338.5585407,2644.709912,147.2280556,-125.0535267,41.81580128,-1011.09226,107.3253998,-395.6346597,284.702993,0,,,,
525.1839996,2051,209.7754394,254.2887252,4.473052375,138.5250735,0,294.4277515,-176.4155663,2424.391755,-161.2180353,101.1032603,-131.4901824,505.3413739,-143.9441478,295.602481,29.65126039,0,,,,
525.1919996,2051,62.06448437,2.56929791,41.42966123,-334.3513593,0,-427.271525,507.7386324,1596.386985,135.9286334,-42.86159755,94.47848856,-502.6543179,225.1063904,-340.5700956,-113.8587912,0,,,,
525.1999996,2051,-34.19680981,43.59438627,-216.4729927,269.1414131,0,516.3161519,-100.3025397,3162.36057,-65.33001775,-67.84671036,-117.6051526,-363.3886571,-125.3969466,-13.65599827,398.3135103,0,,,,
525.2079996,2051,210.0547632,142.3096178,112.0609517,-238.7425239,0,-287.264774,178.1318106,1486.841292,-77.60613643,83.31326546,-33.94214643,398.6419031,45.30691285,84.71707683,-273.6140041,0,,,,
525.2159996,2051,-173.170707,-166.321496,-170.7370731,-21.16329658,0,74.47936554,342.9354451,2642.703062,111.6851755,-169.3344909,8.675099909,-1000.307538,102.7281102,-373.9277715,293.2823536,0,,,,
525.2239996,2051,132.8799024,136.8860523,-2.054032802,147.0559498,0,313.1647939,-165.2812379,2433.947502,-188.3797585,69.16841142,-162.3160201,489.6392896,-149.9211856,325.7462439,38.58766318,0,,,,
525.2319996,2051,-54.47400335,-181.4195882,58.17414111,-331.6440261,0,-438.1093576,523.910911,1546.885095,114.4714085,-62.15070375,71.31830342,-517.7287866,241.4272423,-279.7277898,-139.5903865,0,,,,
525.2399996,2051,-221.3716347,-214.9275635,-205.9179233,266.7731513,0,502.9769428,-80.3564515,3117.435674,-83.64700357,-119.8836129,-137.6295477,-422.0712601,-93.43242138,30.05020141,380.6574245,0,,,,
525.2479996,2051,-4.176515357,-133.2900341,112.7340924,-241.5828802,0,-298.93835,186.2125258,1432.213862,-118.7084786,15.3066908,-66.844942,350.5896955,46.79934693,104.6084409,-295.0956273,0,,,,
525.2559996,2051,-508.4021924,-470.858302,-309.1659375,138.6047832,0,318.8664056,259.7918022,3185.229898,62.10445111,-305.6578839,-60.22535396,-1390.254345,41.31069056,-457.14874,507.950021,0,,,,
525.2639996,2051,-167.3643732,20.38488048,-286.5962719,719.7579844,0,1214.088846,-747.1513346,3980.688662,-435.1147809,-45.12206061,-405.3175599,456.8139206,-492.3046563,538.5541848,547.4182984,0,,,,
525.2719996,2051,-43.82922625,-23.11393195,-18.25170632,86.11114747,0,214.6496049,-143.1113351,2283.043203,-256.4553703,-5.925962867,-202.6572399,411.0796998,-157.8535417,236.0455528,-20.61988049,0,,,,
525.2799996,2051,-247.5089781,-223.5020397,-155.6377661,111.9281715,0,265.6603738,51.56408276,2711.366359,-87.48815562,-143.2739148,-127.1994841,-460.330124,-45.58655119,-104.5761963,234.1289197,0,,,,
525.2879996,2051,-28.75964967,-116.7429234,78.78695344,-288.8429125,0,-363.9566179,321.9178212,1469.249898,-31.77491405,-30.17709137,-27.74081912,-42.72954419,126.2037057,-109.1037005,-238.712455,0,,,,
525.2959996,2051,-225.7021218,-220.9133571,-171.781729,18.18648497,0,131.105163,191.3954933,2601.727926,7.808808845,-162.2667574,-65.23984713,-713.8536559,22.83814236,-227.5085938,229.802928,0,,,,
525.3039996,2051,8.296216766,13.3842596,-56.65512118,32.50199164,0,154.1054616,-84.23486408,2285.258891,-175.3904514,-13.14506882,-152.6947078,240.0213797,-118.1842511,183.2915066,4.897727892,0,,,,
525.3119996,2052,-57.72084044,-120.5510044,10.4265108,-338.1293485,0,-435.6216135,468.1360775,1574.336529,76.40132284,-93.27606976,41.08455263,-527.1619439,194.6991733,-299.1228755,-136.9267755,0,,,,
525.3199996,2052,-104.6543022,-39.68497536,-196.1928323,252.5700824,0,466.0316003,-103.4670317,3021.971241,-82.2518868,-84.10227874,-126.5794445,-353.8800476,-101.4368103,9.110361457,332.0013588,0,,,,
525.3279996,2052,138.9004173,51.78324383,95.20699177,-264.7149735,0,-337.2176058,202.8474075,1423.874874,-43.61691331,48.19700701,-10.87379531,225.6887851,89.42022596,2.974176141,-288.5754109,0,,,,
525.3359996,2052,-166.1273322,-166.0222419,-191.6584837,-45.65507725,0,32.62827477,267.9272554,2536.422967,90.47226473,-163.4346913,4.933193773,-921.2551262,85.2509774,-359.643199,228.9781532,0,,,,
525.3439996,2052,113.7852826,131.7211281,-67.81643731,97.93794871,0,237.9860892,-182.9842625,2385.204969,-177.0125655,32.72784203,-145.3663049,376.8274799,-145.4818096,231.6966251,20.56020411,0,,,,
525.3519996,2052,9.871840525,-51.0719889,20.64168002,-360.3778515,0,-481.8921983,466.5038685,1489.252409,115.8589351,-70.64095304,71.93226693,-481.9202676,222.2043343,-298.5151305,-175.5370502,0,,,,
525.3599996,2052,-85.99241843,2.784477799,-222.383992,241.4410619,0,454.518427,-101.7912649,3049.582462,-46.57065472,-87.15279682,-112.2647383,-428.6121182,-85.88643514,10.98161356,338.841376,0,,,,
525.3679996,2052,182.2284297,116.2544858,90.76815718,-249.5164749,0,-305.050791,130.9726577,1435.066273,-74.85770505,64.05313653,-27.97418084,360.0661874,51.47824553,82.04651765,-304.3660905,0,,,,
525.3759996,2052,-148.5785719,-138.0774027,-172.7119934,-76.97552876,0,-11.86625954,302.7998432,2483.348084,107.9228185,-190.2863765,18.56752495,-984.6194295,101.5617413,-401.1752852,228.5729332,0,,,,
525.3839996,2052,142.0033435,161.8231429,-56.63279768,103.9813343,0,265.7182506,-227.716586,2418.179745,-182.5445828,34.76576087,-153.0511392,406.3874203,-150.8203924,274.5775943,30.82280245,0,,,,
525.3919996,2052,16.9223544,-70.60733428,22.85134905,-390.5786878,0,-496.1044787,430.8300405,1457.4362,99.72010779,-71.99265632,62.45926142,-453.2851531,211.9502799,-312.3819544,-191.3148967,0,,,,
525.3999996,2052,-65.67653488,2.505564174,-219.5428636,225.8853061,0,444.4854323,-111.640397,3058.978854,-42.97489447,-119.9145031,-128.1814722,-465.0755457,-101.08625,-66.73447613,350.4657812,0,,,,
525.4079996,2052,233.5061199,148.3069586,96.46451155,-243.9289711,0,-291.7520415,89.09741837,1446.66418,-63.90244449,61.70761136,-46.08770434,412.2938958,42.66635998,90.65574745,-310.4640142,0,,,,
525.4159996,2052,-118.8324569,-123.2817534,-164.6736745,-82.46171463,0,-15.55027742,312.053628,2460.842587,126.0030521,-180.3773185,18.65873806,-1004.520337,108.8411629,-406.1718572,214.6041211,0,,,,
525.4239996,2052,227.0085303,248.4036768,-4.733162014,149.9322315,0,314.2661426,-207.5252312,2415.904752,-157.410101,77.52324266,-147.7227635,422.1344383,-137.0025313,322.7935702,19.33858403,0,,,,
525.4319996,2052,111.081958,10.27563412,86.78699152,-351.770109,0,-474.545211,465.4380591,1396.153408,163.2694573,-2.37501481,104.9799323,-437.8653546,276.8111114,-240.4623709,-225.5393815,0,,,,
525.4399996,2052,-18.87195831,44.6818171,-184.2578557,259.8738118,0,467.7751539,-91.43656802,3028.798369,-10.40958195,-70.69453704,-84.92487272,-477.3070732,-69.54545289,-20.75794788,342.4326445,0,,,,
525.4479996,2052,325.733154,232.1724354,161.1981834,-198.3893198,0,-263.6548495,116.4825768,1394.934915,-46.99002779,119.8737057,-23.03439731,440.424986,62.60369611,160.0326802,-328.9288292,0,,,,
525.4559996,2052,-39.12352345,-83.8413169,-103.9213431,-63.62260805,0,-34.91180251,358.778663,2362.432866,194.8010129,-120.1336074,50.89597646,-1017.76095,176.4103583,-360.6920952,171.3145824,0,,,,
525.4639996,2052,212.7049108,213.9915133,-12.30124388,156.3073569,0,311.55866,-234.7186202,2395.927088,-139.201093,83.46383271,-137.0331646,427.5629586,-135.705277,312.8402562,9.809903352,0,,,,
525.4719996,2052,90.32723249,-9.918059859,62.36412475,-367.2757293,0,-477.355261,420.5488225,1373.142318,124.162068,-36.78670187,94.5616031,-392.8681412,226.2580521,-281.0926098,-229.2048962,0,,,,
525.4799996,2052,-27.6263037,27.87778615,-196.8303119,242.2044369,0,463.8094761,-104.9441338,3008.564441,-21.80673115,-102.1914044,-93.35569336,-474.5917561,-81.74167405,-49.08691826,335.3115316,0,,,,
525.4879996,2052,289.3250797,180.3876113,140.5797159,-220.0433752,0,-262.1602543,79.83449873,1393.572707,-77.14754314,85.85053938,-32.46996097,461.7492981,52.32376593,149.8933863,-332.0613132,0,,,,
525.4959996,2052,-69.90250285,-130.5290373,-136.0764464,-105.5580486,0,-45.31272756,315.1126761,2356.131875,138.5457538,-185.3930735,33.92196707,-1002.431105,131.0881237,-403.0516768,183.8297627,0,,,,
525.5039996,2052,212.7725778,216.8640848,-19.39403777,144.3088906,0,321.820647,-257.6242888,2404.798155,-166.9249485,37.4572743,-168.8710592,420.6345605,-180.5030248,284.4830371,27.81024593,0,,,,
525.5119996,2052,105.6083875,0.844285908,91.7880029,-373.808146,0,-485.4357173,424.9712419,1334.371266,124.391949,-27.36460236,77.56650278,-388.6394535,224.0839498,-279.6588062,-240.7154804,0,,,,
525.5199996,2052,-21.74709594,9.649642925,-186.666692,230.4438284,0,456.0205299,-121.3065988,2995.312711,-19.87040314,-100.7935322,-94.86564241,-489.9072037,-72.51600509,-60.6182872,343.6856794,0,,,,
525.5279996,2052,294.2350853,176.908584,143.0281876,-213.8343492,0,-253.3285711,44.50384906,1386.047437,-77.58090335,75.94837674,-41.9440346,477.1419644,44.22997804,148.9533601,-322.7993142,0,,,,
525.5359996,2052,-51.97241976,-116.6586558,-115.669042,-96.27082584,0,-60.81030915,330.448961,2303.310616,164.5100732,-164.9644892,41.41631458,-1001.202992,158.3362203,-402.567538,165.627659,0,,,,
525.5439996,2052,245.2821596,224.0516667,-8.639310194,163.1046938,0,318.9909962,-242.6176313,2389.484469,-141.875185,59.27581302,-150.417594,407.8660966,-135.2209795,291.0506975,23.18990562,0,,,,
525.5519996,2052,145.1701479,14.81723251,101.9834727,-360.9953308,0,-494.3487566,444.4221786,1278.754775,128.0201238,-20.37054702,85.4383997,-368.9806102,242.5518457,-261.6258447,-257.1362766,0,,,,
525.5599996,2052,-4.312361853,22.10438593,-184.120852,246.3395627,0,454.1832427,-81.08014734,2944.102826,-2.044425715,-83.76769439,-89.18561611,-504.7586368,-69.3526858,-52.04165249,325.4375023,0,,,,
525.5679996,2053,299.7702478,190.2330945,137.5573027,-195.832126,0,-233.5132441,59.58336157,1366.971599,-69.96326296,92.46643958,-38.06959258,491.5917154,38.54189451,154.3068438,-328.7419642,0,,,,
525.5759996,2053,-64.49179187,-123.0856236,-127.8495948,-95.19297464,0,-55.56648469,343.1315468,2266.020464,147.0437476,-162.5484437,40.30615286,-979.0622319,165.5886326,-408.2696224,166.0524309,0,,,,
525.5839996,2053,228.0096775,184.5449444,-36.57064215,173.0363694,0,337.4754249,-257.9889073,2397.654593,-160.3120713,56.85239106,-160.8602875,411.6563509,-142.9889728,293.0724961,38.18558537,0,,,,
525.5919996,2053,152.447338,-12.59164592,90.6302404,-367.1467474,0,-494.3200892,426.027005,1260.83246,120.9263491,-37.50130673,78.40035975,-335.2639883,223.95924,-244.3543751,-256.3929094,0,,,,
525.5999996,2053,-11.67212644,5.149465335,-201.5551522,227.8783927,0,446.6170875,-84.61188495,2932.383225,-9.737278707,-119.3716847,-98.55255624,-500.6624447,-80.65575945,-43.69661595,332.0790592,0,,,,
525.6079996,2053,295.077575,177.8516826,116.4377546,-202.6772223,0,-234.0672297,34.58391191,1362.449402,-84.97796717,77.01750215,-59.42325363,503.5331384,8.145444007,165.720758,-329.3001269,0,,,,
525.6159996,2053,-85.60025435,-149.4631773,-137.9394725,-115.8967569,0,-70.41400377,328.2918502,2230.842399,137.4779807,-173.2727238,36.41468264,-973.0954789,145.7304918,-419.5932511,148.1308227,0,,,,
525.6239996,2053,186.6166256,160.239496,-62.22094046,156.783751,0,353.2574242,-280.3726429,2417.436791,-189.6242511,19.07293235,-164.6338802,413.0701178,-173.5753669,255.1224396,45.75955626,0,,,,
525.6319996,2053,162.764897,-6.205327911,80.41217207,-379.0545421,0,-479.7680021,412.7722019,1256.806101,97.90231228,-50.11331643,68.57247961,-311.2303017,195.6678429,-273.6664948,-256.3497432,0,,,,
525.6399996,2053,17.00909451,8.01620534,-183.4244399,231.0438055,0,480.0933204,-68.19109479,2932.849215,1.565352936,-102.316246,-89.1873997,-507.4072281,-60.28929032,-50.09591959,341.6457002,0,,,,
525.6479996,2053,328.5791943,193.8325964,157.4837795,-176.2072795,0,-180.7662391,54.48022495,1366.776036,-59.6366851,97.11535571,-37.04990277,530.1192988,42.31417161,209.0700799,-309.2876002,0,,,,
525.6559996,2053,-33.49572206,-119.7961358,-96.72989548,-100.3030623,0,-60.75891487,364.4641364,2179.176809,179.1741912,-143.7977445,66.02154348,-960.7683125,183.2538615,-363.5907701,145.1256748,0,,,,
525.6639996,2053,225.3781391,189.3627328,-39.1906273,177.4333834,0,368.4618122,-254.4304103,2385.928648,-157.8638354,53.55626893,-143.4712363,399.7086681,-133.7814025,313.5616484,43.45206133,0,,,,
525.6719996,2053,177.7777197,15.6780165,103.5783349,-366.179163,0,-486.9339856,434.7380413,1185.612003,122.1160243,-21.41073921,91.37967853,-291.5198616,229.3338528,-209.5137723,-276.891041,0,,,,
525.6799996,2053,21.43070899,10.14722673,-188.0061002,239.4131425,0,447.7048959,-45.99053981,2863.968285,18.50341109,-89.38499348,-65.02347932,-515.5849851,-41.25476525,-34.78869183,318.2720755,0,,,,
525.6879996,2053,328.6598612,191.1235206,123.0039271,-167.7699761,0,-196.0481977,45.55194977,1334.114142,-81.91378595,99.00961686,-33.37789573,547.7728949,34.51386061,174.8637247,-323.5218247,0,,,,
525.6959996,2053,-37.84883989,-118.652309,-109.8508673,-102.469248,0,-77.98479958,371.6336872,2132.033273,157.3901904,-157.1300977,67.74593444,-934.1692407,156.35657,-415.2855452,138.8032519,0,,,,
525.7039996,2053,230.4194627,187.0068291,-23.76874138,202.4234082,0,379.5120184,-234.7004954,2371.578834,-151.8075335,58.17170764,-135.5293204,422.1152706,-150.8226236,306.3528976,54.5972729,0,,,,
525.7119996,2053,163.2242098,-14.24790604,112.9835728,-356.7780743,0,-480.6213381,437.625587,1160.644234,124.8546098,-5.559462812,98.20985298,-238.5014603,222.9938863,-202.1514262,-273.7159739,0,,,,
525.7199996,2053,-10.79512558,-23.37821819,-186.197896,229.562517,0,449.3207738,-52.32111869,2864.375803,2.521647399,-113.9332281,-71.02720545,-480.7998114,-65.36473263,-35.96036091,336.3509001,0,,,,
525.7279996,2053,336.2838021,185.4832324,149.0930287,-165.4401807,0,-188.5028642,31.56338812,1329.630092,-107.484424,82.52621743,-52.410637,593.556226,22.58902072,220.5889969,-315.1526288,0,,,,
525.7359996,2053,-39.04988516,-136.6654236,-95.35805074,-114.0570952,0,-92.25212338,360.6810637,2091.154843,145.5949256,-162.3533359,54.58494142,-923.6421865,161.4907418,-408.6692198,125.4126868,0,,,,
525.7439996,2053,205.4852188,161.6902041,-53.46851583,186.2295106,0,381.1213618,-276.0964119,2389.636099,-170.4660433,24.49357071,-156.5392276,428.5231671,-182.1588571,264.8377714,64.62391287,0,,,,
525.7519996,2053,183.4655428,-6.307230018,98.85928166,-374.4565282,0,-500.8761906,405.3049234,1136.533612,96.15443303,-34.90150357,66.26802468,-209.8431475,196.8900579,-233.9215212,-276.0285578,0,,,,
525.7599996,2053,3.913427551,-22.66379944,-185.2393897,231.6620937,0,431.3071464,-54.36404182,2837.83839,4.190333712,-122.6494408,-89.59067836,-506.039167,-67.22554812,-85.235749,328.7748838,0,,,,
525.7679996,2053,324.5045676,161.2363977,142.6119763,-159.8322942,0,-183.1704519,14.12232508,1337.950904,-103.8536058,76.13629728,-60.24422322,601.2484236,6.458962812,172.0087689,-311.7656474,0,,,,
525.7759996,2053,-33.78973813,-149.6698698,-85.44663066,-123.544645,0,-116.1205818,369.0859385,2060.345389,146.3605147,-172.3547703,52.03288558,-920.2846097,163.7264331,-429.0485001,127.9546774,0,,,,
525.7839996,2053,210.090011,167.8698786,-31.88246372,197.8237025,0,367.1683288,-265.8323218,2380.002513,-166.8981702,17.51759223,-157.7243636,412.2479964,-174.2573223,270.9701843,71.93849915,0,,,,
525.7919996,2053,177.4189518,-17.61541196,125.3022888,-375.4488565,0,-518.9366833,401.5898783,1104.172751,88.19690212,-42.71979269,69.73445207,-205.2105327,201.2571852,-243.4342279,-288.0094582,0,,,,
525.7999996,2053,-8.261082726,-46.8639739,-174.1012563,220.7956653,0,418.0039639,-55.29798687,2823.716107,0.168622274,-135.0623496,-84.2002785,-531.0922457,-68.62196117,-112.4401472,328.9413765,0,,,,
525.8079996,2053,328.8549861,172.4460623,153.1145661,-162.6505243,0,-193.6551445,-3.196577514,1330.23029,-107.8189445,66.0114473,-62.70805722,604.1824721,-13.2582264,173.2061681,-305.7651955,0,,,,
525.8159996,2053,-21.82162531,-146.6420383,-66.56184472,-134.3407769,0,-147.5030397,366.8349034,2014.448325,150.0628402,-181.3629476,57.52701574,-938.7663627,168.4716327,-427.4228658,114.7445146,0,,,,
525.8239996,2054,207.8748999,149.9300899,-34.98673304,203.6205454,0,375.7807535,-267.5451159,2392.323074,-164.3139176,15.0304453,-150.9860029,388.3726167,-170.3706583,274.7698076,76.85126508,0,,,,
525.8319996,2054,182.061238,-21.85547007,129.9304034,-366.7037569,0,-508.3691922,408.3836264,1091.620736,80.30614571,-41.01909156,74.46982086,-194.0656126,192.9187091,-228.8216764,-282.0684413,0,,,,
525.8399996,2054,13.13039578,-26.27929387,-146.2841539,246.7618713,0,435.8394136,-12.49727482,2796.484681,3.940725034,-123.4399623,-68.23017593,-561.0832404,-55.72598397,-89.74238556,332.4873771,0,,,,
525.8479996,2054,381.1982305,219.6690652,188.2470856,-125.0572721,0,-157.1873042,43.34330595,1298.127065,-77.91096993,112.6356359,-34.75607573,606.4757551,16.68054738,243.3282903,-313.8429713,0,,,,
525.8559996,2054,27.76258443,-119.2504411,-34.43649296,-117.0160065,0,-138.3162456,412.6290953,1938.611323,195.5811923,-139.2277172,94.49691383,-943.9395823,212.9889752,-377.8976415,96.24440038,0,,,,
525.8639996,2054,229.0925765,183.7349166,-13.36199304,236.8170523,0,400.6517233,-243.6191797,2349.038663,-131.9694488,42.0135478,-120.9655056,363.2924604,-136.2482881,304.6656364,68.44459032,0,,,,
525.8719996,2054,209.4400062,-61.25808048,244.735626,-709.737879,0,-1061.343821,809.7649505,192.8691364,255.7150888,-32.64137972,233.5705386,-499.0662516,429.0557141,-471.4494652,-543.6961983,0,,,,
525.8799996,2054,-114.1893396,-288.4046528,-71.10324468,-343.8643442,0,-484.789254,769.5960634,1623.069336,364.5823096,-250.5309615,215.5827167,-1668.394663,382.4595414,-786.3199316,85.16379073,0,,,,
525.8879996,2054,220.9238553,52.58179347,124.3425425,-274.4467615,0,-391.0094289,315.4266817,1152.401173,72.64922328,1.13371131,68.28352903,-87.68627468,164.0749304,-112.2638775,-267.4087608,0,,,,
525.8959996,2054,27.03465004,-115.2136032,-22.06300969,-195.233159,0,-261.0436741,423.8701993,1677.561832,181.8486269,-131.7802904,102.8101623,-855.8302876,208.5449501,-383.5205338,3.547865658,0,,,,
525.9039996,2054,173.1009289,139.7158167,-86.33179777,335.6162643,0,557.9828343,-354.6702809,2640.608525,-158.0211541,0.694725222,-159.5765704,282.2226792,-201.3130661,318.989539,184.6899476,0,,,,
525.9119996,2054,264.6937286,54.83399863,156.4586738,-316.5665321,0,-451.863452,243.4865343,972.3861431,33.61311342,18.01523787,39.27268338,162.1922664,137.0832715,-16.7925997,-349.3106735,0,,,,
525.9199996,2054,-39.99359666,-131.2162739,-153.8900933,45.8440475,0,118.3672027,159.2385723,2344.697759,107.6165041,-172.8517384,1.799861459,-847.3853926,54.84867788,-283.295174,242.3625482,0,,,,
525.9279996,2054,266.9060411,190.5261182,16.09758363,118.1432482,0,220.6481545,-289.7142095,1951.954166,-186.6461792,58.47175936,-147.6342189,660.3059796,-165.5076338,331.6246557,-75.52489875,0,,,,
525.9359996,2054,108.3508051,-77.82216312,43.49061417,-338.4792877,0,-488.9890691,406.4173122,1201.076151,135.0250878,-88.07053157,84.3474203,-485.9600435,208.9015186,-325.1282775,-187.1231865,0,,,,
525.9439996,2054,65.07989471,39.24006322,-152.0625223,268.8052286,0,425.209485,-177.6595439,2646.369369,-63.64537364,-76.82286234,-109.7675627,-223.9851937,-120.9441323,63.88716481,258.2040436,0,,,,
525.9519996,2054,291.7153797,141.7124053,140.3721936,-175.8911842,0,-270.728752,35.50086591,1167.10134,-72.04422654,62.72701899,-20.52047219,499.5322205,41.52239591,148.3709252,-319.8728312,0,,,,
525.9599996,2054,-45.09283643,-166.2299788,-120.3167199,-82.18978481,0,-87.15907246,239.2707836,2004.474745,123.4424625,-177.6202659,47.46742418,-837.8395273,131.7507922,-346.0155258,137.1799553,0,,,,
525.9679996,2054,212.4718681,138.4883815,-56.6551879,188.1617116,0,324.4705407,-330.0718864,2208.515147,-198.0960185,0.125344814,-162.3540391,484.2065789,-195.6982942,304.2680489,49.33211096,0,,,,
525.9759996,2054,177.2442032,-30.82511419,98.22903429,-347.7659509,0,-522.7654873,353.6409674,1024.727707,84.9200764,-50.53400621,60.05425982,-206.3714435,192.5708739,-206.7288068,-263.3068138,0,,,,
525.9839996,2054,6.734636216,-44.8558679,-165.7015133,228.1291293,0,366.9705453,-108.3118225,2621.640113,-1.428301232,-105.7379161,-81.57258727,-450.9706254,-49.71625346,-13.44127407,287.267796,0,,,,
525.9919996,2054,297.4249556,146.9251266,130.7209451,-142.8679685,0,-205.5746194,-62.41476426,1238.302358,-108.0369453,65.69345859,-58.64149759,616.3055251,-6.388151332,256.9144869,-302.66408,0,,,,
525.9999996,2054,-14.47616961,-158.3249332,-69.80376101,-135.4620202,0,-184.2225814,297.62847,1824.628118,142.8641705,-170.2172239,53.19232425,-844.4545849,165.909661,-363.3670298,84.92980637,0,,,,
526.0079996,2054,216.5618736,141.8923724,-38.19175987,233.2253214,0,365.2061788,-319.1266564,2262.142236,-161.2709257,18.70110267,-150.5142897,398.0180977,-155.9737625,285.9501095,74.82233617,0,,,,
526.0159996,2054,187.7312548,-4.855725406,131.5364593,-351.1822967,0,-541.366035,326.8273791,923.3982587,69.34529349,-33.86525105,64.83908052,-91.40727465,186.9609846,-156.1533236,-312.7112753,0,,,,
526.0239996,2054,-34.84391499,-88.24122962,-180.2833901,215.6693302,0,344.5329343,-94.21811997,2606.971385,-15.69942256,-140.9863147,-79.30753607,-529.4387326,-69.41112176,-71.26458852,298.0256033,0,,,,
526.0319996,2054,303.7547764,129.6900753,116.3592512,-115.7957353,0,-174.7853674,-108.3048837,1243.94362,-148.1477175,69.54874258,-82.73316987,682.9861716,-49.46114453,273.1399136,-306.6314177,0,,,,
526.0399996,2054,-16.2817626,-162.5942285,-62.70561842,-144.8473374,0,-223.9576411,316.711912,1740.2655,142.3350164,-183.8109971,49.24949377,-845.1649713,159.2779191,-343.780447,64.38321074,0,,,,
526.0479996,2054,200.9470016,136.2430211,-44.29104429,252.2454481,0,371.1288956,-322.8911914,2270.070981,-159.860007,4.047728069,-159.0740893,375.6484769,-172.9566915,333.3497821,92.1674417,0,,,,
526.0559996,2054,204.2577498,-4.645348347,120.2613896,-355.5752647,0,-556.7474573,311.5960768,862.7382943,64.50210174,-20.3905821,54.61402467,-55.22348717,190.3992689,-101.8234931,-331.7971938,0,,,,
526.0639996,2054,-8.810170556,-60.20762474,-200.7303714,213.3700287,0,325.9182971,-74.64390803,2564.84486,-1.836414033,-143.9711253,-81.22833529,-585.3545695,-40.47421393,-48.19139299,301.8675058,0,,,,
526.0719996,2054,350.7883072,180.4009578,109.8207395,-95.21567737,0,-177.4805082,-103.1320634,1192.671449,-125.3526043,94.80286744,-81.59452044,692.4674961,-30.27886139,318.439896,-312.0324831,0,,,,
526.0799996,2055,6.070436276,-153.6853682,-72.67666625,-142.9625829,0,-257.4479713,333.1647095,1643.360946,188.7385359,-150.3369207,67.4482884,-859.670853,208.7720378,-354.5506641,38.94195345,0,,,,
526.0879996,2055,190.8792746,136.6100055,-78.8063757,265.9783074,0,376.1202272,-339.993605,2244.11908,-147.5245629,12.63728925,-144.1541952,354.1760816,-152.8558891,317.5916205,92.3782753,0,,,,
526.0959996,2055,209.0254427,2.614124514,93.66151136,-354.8663591,0,-553.5223136,288.2313163,800.6206162,54.83661289,-8.246477588,70.25460943,-15.03546628,169.5244587,-107.2352944,-347.2087651,0,,,,
526.1039996,2055,9.85917644,-51.78419732,-198.5024972,226.5869958,0,342.5787675,-59.49265914,2514.455467,21.73458158,-131.6555105,-60.72355897,-589.0024102,-41.6033207,-82.19068787,298.3582074,0,,,,
526.1119996,2055,373.2340366,204.8929166,138.1120972,-59.15811077,0,-124.9595152,-96.71467671,1168.167864,-117.058697,119.5430142,-58.17489392,715.8716667,-20.8328702,336.1850629,-310.4963455,0,,,,
526.1199996,2055,6.111209463,-153.1502847,-69.016044,-142.8996989,0,-225.5817557,328.3338418,1593.732243,163.9603795,-131.032716,97.53935041,-840.1108377,201.6117394,-330.8219668,31.76146241,0,,,,
526.1279996,2055,187.7952587,125.4147311,-86.75082114,269.7145036,0,422.731883,-356.6896386,2244.889085,-162.2388037,11.35241248,-138.2118678,351.2896339,-172.6705253,333.4493219,102.9771114,0,,,,
526.1359996,2055,223.8497811,2.702435902,116.7813957,-350.8667,0,-530.968091,278.8966393,761.7634969,50.09373189,-7.480336542,67.7062507,6.860125836,170.7636633,-76.74041776,-354.5393448,0,,,,
526.1439996,2055,-1.539436459,-68.62564363,-200.5229789,213.8715841,0,335.0266705,-78.44548421,2468.709145,12.6319416,-141.2643761,-55.49762091,-601.3689672,-30.13659704,-87.99716818,289.9676203,0,,,,
526.1519996,2055,339.714052,187.8056115,111.98064,-75.27459906,0,-131.5834812,-155.4040366,1149.141723,-127.4516598,106.0876599,-73.99203784,729.9361059,-26.38357794,316.2137349,-324.759171,0,,,,
526.1599996,2055,-26.03551003,-173.8132216,-94.17747197,-180.56115,0,-254.8957437,277.5581608,1547.999201,144.242464,-158.5039698,69.99147716,-830.3873794,180.4737006,-371.0586827,10.14022478,0,,,,
526.1679996,2055,170.8800037,93.29376117,-118.7040656,248.9915578,0,420.2814849,-408.5023644,2245.909456,-186.3503754,-28.32427177,-169.4996346,335.7572294,-197.2249386,288.2255421,110.2124796,0,,,,
526.1759996,2055,220.8351601,-13.52512485,103.8673073,-366.6168973,0,-542.8920857,239.5773041,733.450732,42.89494709,-23.570918,35.36404055,18.37197647,158.8829343,-111.0447721,-363.594515,0,,,,
526.1839996,2055,-6.213029288,-81.27753769,-208.8390242,193.8322146,0,313.3895887,-91.64618397,2433.323492,8.395618173,-152.871755,-82.28117992,-636.9780066,-52.13519328,-127.5895401,283.1260837,0,,,,
526.1919996,2055,363.2688165,186.7007392,112.9580387,-77.24936994,0,-127.6569954,-172.1479405,1134.966933,-141.9182823,98.62992625,-95.98910153,704.5666807,-44.80712149,326.8493955,-321.204684,0,,,,
526.1999996,2055,11.75727895,-146.5748578,-60.83243232,-181.503991,0,-280.195697,303.9454235,1475.563866,157.3036515,-148.600159,73.61565806,-850.1069255,203.1363551,-341.1176806,-1.705937419,0,,,,
526.2079996,2055,208.4034014,138.3618835,-81.93057188,273.4803519,0,409.0714537,-365.3224471,2188.583955,-156.7290153,-2.453336617,-147.2975,295.4256345,-172.9718772,307.5315987,110.4224433,0,,,,
526.2159996,2055,250.7133153,13.57065668,125.9304225,-348.6969585,0,-550.8058427,256.4898097,660.7403863,64.21109051,10.08178943,62.85497161,14.60968705,198.282461,-85.84582471,-377.4693557,0,,,,
526.2239996,2055,-33.30043985,-96.0029242,-222.3068415,189.6198701,0,295.6725523,-94.20221633,2376.748307,21.07222682,-149.481821,-57.94656762,-657.061694,-9.797240514,-135.4682381,275.6727886,0,,,,
526.2319996,2055,356.6295201,186.5698462,88.64446022,-69.27383562,0,-125.7707668,-192.4292201,1100.907771,-151.3610526,81.95277283,-95.44424509,717.5069223,-54.74812675,298.9811767,-317.4958397,0,,,,
526.2399996,2055,36.78910942,-142.3222726,-77.24131256,-185.5034266,0,-299.4298952,291.2455432,1396.956502,160.2391008,-156.5288313,72.10630808,-837.7458918,204.2342715,-381.124987,-18.9556095,0,,,,
526.2479996,2055,189.2590475,115.5333129,-122.8128843,264.7554714,0,400.2003339,-411.6872463,2163.889065,-158.6618536,-9.905706693,-147.7394845,283.5110967,-173.5305645,298.12636,103.5821699,0,,,,
526.2559996,2055,249.3601566,13.04436301,102.6433877,-359.4679709,0,-560.2903082,207.215032,622.340295,40.22650943,-5.756297476,51.03989382,52.29433688,151.9421238,-44.02077456,-386.5113857,0,,,,
526.2639996,2055,-170.3796928,-141.3161303,-412.9938593,505.164676,0,779.3948957,-275.5115111,3342.997175,17.40037961,-261.8567941,-122.8429847,-1102.417053,-156.601015,-141.8037821,677.0720542,0,,,,
526.2719996,2055,157.1247672,187.7332453,-248.2912752,627.9679276,0,954.9804972,-756.4396278,3036.515263,-275.4276012,-22.80792937,-276.862784,409.429243,-396.9153,527.0700792,392.254812,0,,,,
526.2799996,2055,23.14123753,-71.50406671,-174.0778386,105.4353175,0,157.2021258,-49.53456408,2053.262271,30.74785266,-145.1508079,-41.22800172,-577.4646647,-11.69070836,-101.6388698,185.2906168,0,,,,
526.2879996,2055,148.5035237,87.62050273,-146.3111556,290.8229167,0,435.2008739,-383.2624403,2232.712164,-132.9407671,-37.85976654,-150.1989953,120.8211653,-177.6093998,249.3176702,158.3974141,0,,,,
526.2959996,2055,329.971128,66.49992296,181.6322405,-382.9133565,0,-614.9354271,183.7580865,333.5935006,13.96624861,58.07089598,44.29940076,317.7035368,171.2661232,17.45068722,-507.7308249,0,,,,
526.3039996,2055,-8.443852838,-129.2330933,-151.9536626,70.62153225,0,90.66016122,60.04670917,1960.046441,92.30733793,-171.6258603,0.565650448,-822.9642366,76.87234155,-261.2956091,192.5882131,0,,,,
526.3119996,2055,279.7516275,159.6211697,7.760270247,139.778913,0,192.876883,-361.3647549,1588.918744,-164.3318013,39.88075912,-132.4569769,578.0319013,-142.8342674,331.0637848,-97.58294051,0,,,,
526.3199996,2055,140.7346825,-98.44570927,72.78713606,-376.4763635,0,-573.8349344,294.6087477,645.3274454,107.9240368,-70.23626151,89.06506688,-307.0648284,207.4732802,-259.0344126,-305.910467,0,,,,
526.3279996,2055,10.61367873,-55.95527384,-209.3771652,247.4494911,0,416.1506078,-284.3453369,2347.080443,-75.58142492,-137.5409783,-108.3764612,-330.6915925,-128.9960351,3.390677598,279.1267967,0,,,,
526.3359996,2056,299.4001467,101.0690698,102.1241998,-211.208686,0,-292.2697349,-119.3511075,763.2069166,-113.5359258,26.20347631,-62.82830465,588.6855359,0.413926012,158.4078448,-367.5789342,0,,,,
526.3439996,2056,-2.119074561,-171.7722755,-100.031299,-138.5868616,0,-166.9137132,169.7720763,1468.764795,110.8050372,-189.447079,15.67304608,-784.9147768,141.9241125,-353.5624207,41.30733792,0,,,,
526.3519996,2056,228.0025896,118.2817609,-58.15791837,210.1456728,0,365.3165564,-388.4880169,1880.325767,-173.829865,4.745831473,-164.2764617,356.9262052,-160.8984122,291.3669522,47.90086388,0,,,,
526.3599996,2056,212.8465754,-20.48035436,106.6294417,-357.0408486,0,-515.7754419,212.0589299,537.904046,50.25121794,-15.00313821,49.53930531,-23.87495466,178.7027935,-138.8921399,-358.9184459,0,,,,
526.3679996,2056,-5.930072554,-92.52439574,-207.93119,183.892062,0,321.4476982,-160.4231411,2192.747619,0.502136336,-149.9623681,-76.06466835,-541.5185682,-54.77409429,-115.1369542,266.7180224,0,,,,
526.3759996,2056,373.6436025,190.7731885,122.9320764,-96.72677664,0,-144.0261302,-177.1898705,888.8833916,-130.1672832,89.78711468,-89.31076298,691.0665269,-43.84868729,273.549264,-321.5236444,0,,,,
526.3839996,2056,52.5221533,-128.079596,-25.57227097,-169.1566826,0,-269.1100903,270.2850812,1222.622734,158.4966075,-119.6705908,62.78988309,-747.2278449,207.7965119,-359.6432895,-30.89181083,0,,,,
526.3919996,2056,203.8114321,88.14376907,-82.98297191,257.4294884,0,396.8683644,-396.2719505,1962.474152,-141.5127011,0.450706116,-144.2248724,294.6554588,-147.9329892,246.66811,107.3855922,0,,,,
526.3999996,2056,255.7698701,8.879833194,130.2205942,-354.3312502,0,-531.9382969,177.5068118,451.4563802,31.1744803,0.610423657,38.6278479,107.3662853,154.1661297,-78.53801459,-379.7927962,0,,,,
526.4079996,2056,-30.14201174,-121.1831149,-193.0561366,161.5740564,0,272.4174975,-116.6051698,2113.871486,24.25273471,-149.2929971,-62.98524039,-622.0492097,-22.35799983,-136.9896548,267.2003689,0,,,,
526.4159996,2056,346.609996,164.4499052,104.3111965,-60.58085985,0,-95.40762929,-259.0720582,942.563015,-153.7686273,86.00237084,-101.3606619,755.779307,-65.35216164,292.1628473,-284.5570153,0,,,,
526.4239996,2056,23.29302971,-156.9633232,-40.59462328,-213.2061614,0,-318.1276922,247.1807753,1133.488888,137.5530323,-147.5842377,64.91105148,-732.7937503,184.846817,-386.8639502,-34.20288088,0,,,,
526.4319996,2056,163.5906898,68.07734099,-109.7977148,264.1840064,0,419.5960392,-423.711858,2000.303719,-169.0773377,-32.4022457,-162.8336991,268.0336533,-187.3525735,235.5159726,149.8805982,0,,,,
526.4399996,2056,273.9774499,23.95639598,143.0055805,-348.1906282,0,-541.3867326,175.3589236,391.4613559,28.43715952,2.274298963,27.58149699,149.1138567,154.3320751,-67.82475959,-387.1643176,0,,,,
526.4479996,2056,-22.81944704,-121.4900703,-196.2685519,153.9532918,0,250.0464279,-87.52135644,2061.998629,42.07661303,-149.9658291,-53.2507761,-667.3515346,-3.361762795,-146.4286974,253.1244866,0,,,,
526.4559996,2056,354.1142982,174.3497832,100.0346536,-38.43920493,0,-73.71228562,-265.2409998,933.6325999,-171.9107933,82.84136833,-112.2607726,774.7257999,-77.0072873,328.6644174,-289.2651749,0,,,,
526.4639996,2056,67.83810416,-114.2646425,-2.412413894,-205.0899197,0,-347.8510228,287.8686191,1013.312295,166.5612741,-132.4083102,67.96395649,-738.944502,219.7867146,-363.239426,-73.95919746,0,,,,
526.4719996,2056,203.3584843,117.6348142,-87.59692296,292.7997255,0,421.0295074,-404.1336753,1946.083532,-116.3799626,-1.65562876,-148.1932022,224.9226807,-153.9928498,233.1655685,116.9394679,0,,,,
526.4799996,2056,304.5267257,53.9020789,173.1440803,-326.624015,0,-545.3893754,181.5258873,311.0645854,47.32424893,35.28880911,39.32262989,167.8602622,173.1012995,-66.41830663,-427.6920974,0,,,,
526.4879996,2056,-12.13145494,-114.8717664,-157.0197326,173.6170844,0,242.6580528,-61.20548558,1974.628875,67.11043649,-119.9338,-30.19227192,-678.5051847,38.07783201,-122.3973826,234.6296811,0,,,,
526.4959996,2056,345.4501584,165.2425082,87.12024917,-20.09185806,0,-49.68944845,-295.7695975,904.4993311,-158.1941341,108.8833373,-87.0833069,804.1697428,-66.13029401,374.1975694,-291.7399509,0,,,,
526.5039996,2056,52.20243317,-150.413136,-39.18191079,-228.8946382,0,-359.6989683,245.442464,952.3389052,157.5178052,-138.8259641,82.10099535,-698.3307796,205.7271883,-358.6417926,-82.99256622,0,,,,
526.5119996,2056,158.8723766,63.43055801,-120.1459072,269.3902053,0,422.0398372,-467.552923,1941.709389,-138.8640077,-35.6959819,-151.500237,246.1411253,-177.0422108,242.0592554,136.576597,0,,,,
526.5199996,2056,247.8483095,17.15999337,129.9828378,-358.3622921,0,-550.7753286,88.99123091,303.1305377,4.01954069,-10.30749651,24.73748255,230.3734138,120.695409,-76.84354184,-418.3369843,0,,,,
526.5279996,2056,-40.42159764,-116.2106453,-185.5705842,147.9107215,0,218.3743692,-106.829608,1943.216398,38.01708789,-163.8096,-48.37074644,-667.4785618,-15.36191813,-191.5459945,234.2366416,0,,,,
526.5359996,2056,343.6906782,163.9193289,90.46830408,-27.37590643,0,-53.35078404,-328.3997627,894.8323646,-171.5735436,99.04377709,-106.4561696,817.9137023,-84.60555549,362.7694529,-295.2491071,0,,,,
526.5439996,2056,43.59742599,-163.3876564,-33.1944836,-247.8427483,0,-359.8950501,228.6348239,912.899508,143.2549924,-137.1701886,70.78819628,-677.8715562,197.1305798,-358.5752026,-97.42631228,0,,,,
526.5519996,2056,165.6636692,76.84874353,-115.0746027,284.7329075,0,471.3157389,-453.0905323,1930.548788,-142.1181888,-24.89676777,-154.3469135,239.0152213,-189.6189345,250.6776996,145.4687447,0,,,,
526.5599996,2056,276.9934721,21.93225277,135.8729294,-355.7790444,0,-519.3087125,103.6982769,264.9461613,3.496336437,10.83740128,26.90283934,251.9061076,134.5536455,-28.73078279,-426.5054486,0,,,,
526.5679996,2056,-39.00866653,-130.1045441,-194.0720244,124.5064553,0,217.2628485,-87.13281836,1903.972773,40.72985808,-178.4286434,-48.97646595,-684.4244444,-8.911833499,-213.0507907,229.8842319,0,,,,
526.5759996,2056,358.1759961,180.6654467,110.1784486,-13.15887261,0,-22.17784562,-304.3660667,875.516275,-155.2212379,81.50766968,-105.2645645,821.4388006,-86.35518229,329.3744096,-276.5091484,0,,,,
526.5839996,2056,52.70790869,-172.9849116,-13.32730745,-247.6394558,0,-374.2654572,249.6735829,841.1046273,170.7645176,-142.8934308,90.09848583,-666.8218839,226.4050179,-381.0925172,-101.4761903,0,,,,
526.5919996,2057,131.4861973,37.54561899,-142.2378273,278.908056,0,447.1961911,-461.0381151,1911.597604,-127.3659049,-50.9433274,-140.5622893,218.3382698,-187.743108,225.7019094,156.0177826,0,,,,
526.5999996,2057,276.9627199,14.91361221,129.7772317,-350.1103404,0,-526.441123,96.45336729,229.2498882,14.52850624,0.905226204,35.15606369,275.8721399,127.7768634,0.651073493,-415.5077997,0,,,,
526.6079996,2057,-29.78103185,-134.2036173,-190.1489412,125.1924303,0,203.7138669,-82.2613548,1848.873845,58.52392522,-163.8286296,-32.33599546,-682.941415,8.588442964,-177.9176783,228.0443534,0,,,,
526.6159996,2057,343.7334191,179.7144294,96.46346643,-8.4852185,0,-23.83990369,-326.590804,854.8267389,-162.8179624,101.6691432,-101.8017662,836.9548492,-102.7283555,360.6896081,-285.1342534,0,,,,
526.6239996,2057,65.11441809,-146.5307845,0.725598941,-249.1758917,0,-400.371802,258.7269675,756.1731102,170.1122328,-123.1183586,91.68890577,-658.268263,219.6420947,-354.3838101,-135.4908236,0,,,,
526.6319996,2057,170.9201259,83.30078962,-97.998377,307.4684235,0,436.3152581,-424.0639015,1835.092243,-103.8342546,-21.45024573,-129.3840348,186.359367,-152.7262083,237.0666196,125.4363509,0,,,,
526.6399996,2057,312.1275619,44.72013645,178.2171273,-318.7084064,0,-534.7085373,119.1661366,135.4261039,30.90516225,46.15761976,52.74860251,287.8624088,160.8529416,-8.112475415,-454.0723052,0,,,,
526.6479996,2057,-27.86949689,-143.2270378,-177.4509447,138.940369,0,190.278537,-64.94503061,1764.412758,73.17353122,-151.5453473,-12.36465905,-694.418661,29.9764696,-211.6458353,207.1951603,0,,,,
526.6559996,2057,321.0056247,161.0855854,78.80845093,13.55703617,0,-1.025284955,-343.2263998,839.7960508,-166.1548636,84.80502652,-96.03024273,850.4084448,-98.43977355,354.2707155,-274.6053671,0,,,,
526.6639996,2057,42.79255235,-162.5181401,-10.97096748,-250.6922874,0,-397.8505224,245.4473498,712.5674954,143.1506692,-137.9506864,87.34097892,-617.9749,201.3256205,-361.1830198,-123.2617847,0,,,,
526.6719996,2057,151.377091,79.99607429,-116.6377909,308.4523723,0,443.4049103,-428.6135877,1822.720001,-127.6938796,-24.87454647,-144.1473295,197.3116091,-187.5546023,239.3368309,151.848372,0,,,,
526.6799996,2057,316.5952123,63.35126739,174.405499,-317.0063933,0,-530.9953772,108.8915542,100.5300489,10.71592438,54.67567107,31.37996631,321.5287445,136.6276266,23.0043543,-453.2600127,0,,,,
526.6879996,2057,-15.2592108,-136.8956247,-162.0368915,132.6671045,0,174.4865424,-59.03319434,1705.798984,64.0047764,-147.2276495,-24.67714576,-703.225388,24.97263281,-192.4181733,200.9236653,0,,,,
526.6959996,2057,338.8311276,174.9835341,89.11338552,26.82275926,0,-1.668277703,-351.0139555,809.1182706,-156.7980885,100.3505887,-106.462776,857.1487499,-109.4190626,397.4449625,-272.4719118,0,,,,
526.7039996,2057,89.86974507,-117.9399619,9.672589049,-241.0009458,0,-428.6220472,256.7882517,623.141275,163.2536436,-119.0318863,88.8600339,-597.1179315,208.6548265,-338.907444,-149.1384121,0,,,,
526.7119996,2057,172.6041787,95.678532,-105.3721092,329.4656413,0,423.7917865,-419.9062362,1774.944559,-109.04612,-15.72663599,-128.3490501,183.4279513,-167.0068928,233.4427269,142.7344462,0,,,,
526.7199996,2057,293.3838528,29.44474672,172.7635583,-300.2548144,0,-537.9752303,90.10363893,67.76705496,23.29841606,62.99446248,45.40274151,361.4473241,133.8152015,43.76628886,-451.7030235,0,,,,
526.7279996,2057,-18.86368221,-155.8171576,-159.733245,141.1149065,0,153.6790635,-51.96551469,1662.624091,79.82041359,-145.2368872,-10.53195684,-678.157338,28.26213306,-191.7369931,210.1223243,0,,,,
526.7359996,2057,367.7859609,198.6234854,89.55163114,42.52998634,0,-11.95206529,-353.0541799,791.0353508,-153.2751213,112.7695182,-101.6735716,881.5166724,-102.6585406,392.3254789,-256.7022534,0,,,,
526.7439996,2057,58.28200924,-158.4784033,-3.523301907,-260.6232882,0,-451.9903569,238.9197362,577.4290741,157.9596249,-108.6031673,88.10969246,-570.0539589,206.7061631,-343.3159099,-150.9524382,0,,,,
526.7519996,2057,108.9715892,24.78384644,-134.4753956,313.1956054,0,431.1097027,-448.4198871,1790.006138,-128.5722725,-44.64176963,-134.2812647,189.605261,-183.3953872,215.7027571,171.4686279,0,,,,
526.7599996,2057,314.0649658,59.19280159,157.3166554,-311.6389013,0,-541.6255134,66.76595648,50.90417746,-12.44205793,24.81730187,26.75815887,399.5271946,110.5233209,44.43111055,-431.8898611,0,,,,
526.7679996,2057,0.026214573,-127.234402,-173.0435944,118.7986574,0,122.1439244,-43.94772206,1603.323796,71.66375678,-163.3979508,-24.95802439,-698.7764157,25.96842217,-179.055346,203.0733201,0,,,,
526.7759996,2057,347.769495,180.0467082,67.20575887,38.94612213,0,-5.556399723,-367.1607569,776.7013076,-155.3816239,105.6963808,-110.5309663,874.4307232,-114.9360632,427.830965,-251.6717701,0,,,,
526.7839996,2057,55.15172774,-168.8891753,-26.25296874,-280.601738,0,-462.1314208,218.8824138,525.8793882,144.0347639,-117.099662,81.20175797,-548.9379831,198.5679939,-310.30672,-154.1907069,0,,,,
526.7919996,2057,88.42462018,18.9183165,-169.0728948,293.5864655,0,424.9546061,-469.1402188,1768.086355,-140.0800986,-62.8113527,-148.8757603,176.3444445,-190.1870766,226.819662,180.3402511,0,,,,
526.7999996,2057,295.7840701,66.58435065,146.2592281,-324.4150416,0,-540.0779393,45.14496379,8.013088509,-7.539599296,17.51710187,12.66458325,424.777477,91.90684694,68.45337728,-436.3894236,0,,,,
526.8079996,2057,-9.76682348,-133.3733278,-166.1252029,108.4100771,0,135.0441767,-37.84845909,1546.906196,96.06881562,-155.1749418,-14.44861891,-702.3974901,40.03330541,-172.1642556,192.93216,0,,,,
526.8159996,2057,367.5302848,205.5245133,81.3630221,54.94430031,0,38.40831753,-362.4861508,755.0768927,-148.4811719,112.9190509,-96.49587478,888.3868951,-94.43201528,449.1602353,-240.4105174,0,,,,
526.8239996,2057,117.3438607,-103.4874806,20.16189543,-263.4015755,0,-461.9921172,252.0490261,430.0428705,170.8765526,-95.23038192,100.867677,-528.7729941,228.6951968,-263.585618,-174.30219,0,,,,
526.8319996,2057,105.2183571,32.3623267,-144.0039307,316.9606759,0,441.4114678,-453.5322432,1721.23413,-99.9294725,-19.47808326,-116.2984244,155.7789039,-150.6682102,247.1024864,168.6099407,0,,,,
526.8399996,2057,284.6049606,56.16759297,143.4123018,-317.5233714,0,-520.2841482,16.44197741,-15.83213876,-15.97634937,39.38877757,30.2290927,461.1168665,100.1838799,80.22727385,-432.1062038,0,,,,
526.8479996,2058,-13.59830711,-128.7106315,-168.7742544,100.917381,0,106.3832131,-41.44928787,1497.005485,76.68207727,-167.1768876,-15.86516762,-696.6199862,28.12240975,-177.568115,190.0931496,0,,,,
526.8559996,2058,350.4036116,198.170953,71.40753433,62.51687185,0,21.48321166,-373.5029484,742.0655434,-156.3510744,114.9775667,-104.4998745,894.9612452,-99.34491261,455.1053131,-241.2176013,0,,,,
526.8639996,2058,103.6203573,-131.3441686,3.467453842,-276.4369855,0,-494.2004075,248.1188966,381.2234584,157.3458491,-101.4074577,96.00578428,-501.2990385,223.851563,-252.0218958,-189.2234355,0,,,,
526.8719996,2058,117.3992967,28.0708053,-164.1085307,317.653031,0,423.7125799,-439.5747771,1706.671157,-122.8203088,-52.93652345,-127.6936029,149.0853871,-188.729098,261.0527903,172.1476555,0,,,,
526.8799996,2058,288.5483874,78.88516763,147.0967718,-303.9575753,0,-527.731907,34.22430632,-50.94402491,-19.08934912,45.12961988,20.99507481,483.2707656,96.38288343,127.6947294,-441.3344152,0,,,,
526.8879996,2058,-49.28075044,-135.4669255,-172.8435484,97.34794349,0,88.62035194,-19.6406731,1434.809835,83.503871,-158.9171835,-12.17658532,-712.4969249,56.75975167,-156.4887431,174.7985945,0,,,,
526.8959996,2058,322.8612992,187.5466109,48.5209468,62.04527352,0,29.5470935,-386.6342279,725.8988462,-186.3740322,85.36870875,-111.2223003,886.6778647,-120.2931337,464.4618862,-230.5449708,0,,,,
526.9039996,2058,83.77182901,-121.566039,12.3977348,-284.9058971,0,-507.9919495,255.5689375,300.4588872,137.408498,-115.2438218,88.73482203,-504.2893104,218.0775304,-244.6320403,-205.4207112,0,,,,
526.9119996,2058,114.6148168,43.88736762,-141.6641555,335.9310003,0,421.9268853,-408.6879362,1634.937614,-103.5108059,-37.82226795,-115.4890275,99.2569312,-158.1471829,282.1641219,154.4259407,0,,,,
526.9199996,2058,316.0063474,81.84265817,156.7507715,-285.7260717,0,-527.6200855,45.34753041,-121.4727189,-5.497302841,66.10074567,44.00859899,482.7428055,119.8267394,173.9816893,-462.4990602,0,,,,
526.9279996,2058,-49.67867425,-156.8404112,-175.9255553,98.89603061,0,72.61366455,-6.577803364,1356.694534,83.47430038,-156.4841993,0.773090997,-732.4632599,70.7175675,-149.3442696,154.7507738,0,,,,
526.9359996,2058,317.6976614,186.1643881,47.34138453,91.33845014,0,50.2049765,-396.916753,692.8403654,-182.0246582,95.89252945,-106.7036872,884.2527522,-122.0391476,479.0138931,-230.3149469,0,,,,
526.9439996,2058,85.79175622,-110.6035677,14.51386214,-274.5463231,0,-506.9110712,243.5866002,227.2771615,144.9141271,-95.76268244,99.55208432,-476.8029089,224.0797308,-247.3298904,-214.9317162,0,,,,
526.9519996,2058,99.64434193,49.66801304,-148.7279306,348.4692701,0,433.421818,-418.3819967,1601.985578,-106.0132014,-39.4557205,-118.0385003,89.25659652,-149.7075646,233.8134872,171.9329628,0,,,,
526.9599996,2058,324.7910272,100.6082713,164.458367,-267.4058287,0,-508.2667426,26.21237698,-168.6559677,-7.182649198,70.73942333,34.4709129,513.0046725,116.203269,161.0305549,-445.5615073,0,,,,
526.9679996,2058,-41.02055878,-158.7001611,-162.143801,99.49154027,0,67.66825778,0.129758861,1287.886388,97.03454842,-152.9238952,1.071711209,-737.6971736,70.70815845,-163.53362,157.1613296,0,,,,
526.9759996,2058,313.917184,174.2658747,62.79322309,105.5261264,0,69.15892801,-391.3301704,680.980861,-174.9216152,94.43509976,-113.7667097,879.3907496,-122.8820012,481.6569557,-216.687029,0,,,,
526.9839996,2058,101.0937233,-110.8113806,38.64641515,-283.2893228,0,-516.4493416,261.880166,160.0635947,140.5710037,-90.42183609,86.96651039,-460.7859804,224.4945142,-215.6017313,-228.4969618,0,,,,
526.9919996,2058,98.93656493,37.78759248,-136.7908691,339.7281255,0,424.8330068,-391.0659186,1569.96539,-110.7130707,-47.55040284,-135.5043753,60.72215125,-165.4714526,219.7915519,162.4987697,0,,,,
526.9999996,2058,328.1760219,105.4665027,206.5401171,-262.1304266,0,-510.2057574,63.30010405,-215.0641875,0.241370857,66.81326472,27.13516617,522.0292306,121.0998722,150.2510456,-464.7999386,0,,,,
527.0079996,2058,-26.81098684,-141.6518872,-120.4266545,91.98413923,0,44.33650197,56.80998365,1200.693358,112.5537389,-141.8605009,16.85380843,-758.9038156,106.6876184,-152.3995228,120.2280077,0,,,,
527.0159996,2058,319.1024569,186.542552,57.80710663,105.848333,0,66.57864147,-370.8909072,652.6030864,-180.7403857,99.08288366,-107.2953444,870.0125458,-137.2679556,476.3506446,-231.9334889,0,,,,
527.0239996,2058,117.5573155,-89.87105196,44.87536692,-294.2595374,0,-540.2580312,298.2656887,70.28544017,144.9379869,-96.67161372,88.06999282,-444.3222513,220.0689973,-222.3414768,-262.3003138,0,,,,
527.0319996,2058,88.92263228,32.76077516,-159.2156664,329.2322815,0,423.2261872,-368.3540732,1517.456379,-98.61026396,-55.86406604,-133.1359383,34.79668464,-150.7066132,245.0838938,139.7173921,0,,,,
527.0399996,2058,298.650313,71.8577599,133.9382023,-284.6452712,0,-500.1421429,24.10449588,-238.1204442,-27.75175096,48.6132687,3.106122016,550.6739799,75.75449484,164.0400474,-467.0469495,0,,,,
527.0479996,2058,-44.30386676,-161.5423411,-165.724585,61.40428106,0,25.10719283,51.02770363,1135.392549,90.65757024,-174.1257194,-24.2711868,-766.3618905,69.57914216,-201.7742791,110.0872516,0,,,,
527.0559996,2058,304.9635008,183.0438351,39.08563459,102.7595891,0,76.78371167,-375.3187292,631.2439133,-178.6776098,89.19784093,-137.6085589,846.5058874,-143.7462571,447.470395,-228.1636577,0,,,,
527.0639996,2058,105.4444544,-107.3560354,17.21336942,-321.0759328,0,-550.2134963,272.4333517,15.00091056,136.9304305,-102.399748,66.9151676,-437.564313,208.4567535,-251.8045666,-259.4007025,0,,,,
527.0719996,2058,94.32169212,38.18527863,-156.7448316,321.2540418,0,411.6551399,-369.7961789,1461.195524,-95.36662354,-66.41514499,-151.418669,-8.660350295,-140.5458032,194.1153728,140.9260298,0,,,,
527.0799996,2058,329.9070564,116.3573392,174.9302873,-268.3766831,0,-500.4245456,22.26125669,-308.4677343,-3.49400855,72.65510176,8.463947329,543.5180444,107.1421148,160.3953715,-473.6225342,0,,,,
527.0879996,2058,-16.85669295,-143.4921688,-148.9843612,49.52715069,0,9.435622364,39.1829962,1043.530343,106.4636099,-166.5079446,-7.422187973,-787.1864906,81.14338972,-191.8405713,107.854316,0,,,,
527.0959996,2058,332.0515004,194.0571926,55.74143952,111.8716738,0,91.72951953,-396.7356889,583.0224303,-167.6547824,84.58711604,-125.0973991,826.6184996,-144.8251942,480.6025719,-219.1959994,0,,,,
527.1039996,2059,123.1125649,-92.6059084,61.52328068,-309.6657111,0,-546.0257767,265.2716068,-68.2713775,169.4909304,-74.28118823,100.5040503,-426.1085356,225.5533613,-227.3992732,-266.0229305,0,,,,
527.1119996,2059,95.55912581,34.41496183,-144.1606115,330.0810278,0,428.2175485,-387.2051122,1424.694305,-76.72660173,-58.06191928,-118.4927205,-31.21074574,-145.9739672,208.3417872,162.2147022,0,,,,
527.1199996,2059,333.280407,118.4099542,171.4897963,-256.984618,0,-460.3743713,-14.382214,-319.7984055,-13.74599432,66.08131802,22.32608392,575.2351622,79.18077812,207.0690221,-442.7379641,0,,,,
527.1279996,2059,-26.86286646,-145.3252659,-132.8659094,48.11055482,0,49.50004206,42.92535596,1007.59505,108.3482374,-155.4684084,3.60595841,-772.2159365,81.83151863,-197.0092045,127.7579068,0,,,,
527.1359996,2059,327.0549161,200.7916712,57.60988081,122.3257047,0,164.0259603,-407.7927716,594.1590666,-173.9479835,89.57908064,-124.7067553,837.1565641,-134.1889131,470.9604338,-180.8669942,0,,,,
527.1439996,2059,125.6145928,-92.28946242,50.3903907,-324.0946017,0,-512.6723084,243.3080812,-104.1158982,153.417662,-84.70294873,92.88201199,-377.3789877,225.8056325,-205.4705398,-254.2658849,0,,,,
527.1519996,2059,90.4043647,3.861024238,-153.9564488,309.7093092,0,452.6701032,-396.3010535,1404.669225,-82.83673379,-74.99692495,-129.9223417,-26.36107278,-162.1751912,198.963255,169.8990338,0,,,,
527.1599996,2059,341.9606516,109.3654369,165.2847907,-263.6303342,0,-429.0168341,-49.70899365,-327.7881865,-25.63805434,52.1469514,13.45567673,614.5829522,60.45899227,208.0742843,-428.1521162,0,,,,
527.1679996,2059,-20.30192408,-148.5283598,-140.6966239,33.61918521,0,26.35473091,25.68076832,947.1401522,109.5582546,-168.2426306,6.66736449,-757.1978099,76.99636072,-178.2734792,118.4254604,0,,,,
527.1759996,2059,320.6539756,184.3464629,46.63245079,135.0052306,0,153.6472169,-423.610293,571.8696672,-162.5944203,90.35132216,-115.5149392,838.9058297,-150.4740474,484.0253934,-187.8249159,0,,,,
527.1839996,2059,116.8428303,-95.18624425,44.64736199,-308.7275578,0,-511.8704859,221.9276961,-140.1275813,152.3806691,-75.76816187,112.6568989,-330.9370364,217.5980386,-216.436065,-255.033161,0,,,,
527.1919996,2059,83.73005383,12.17174887,-173.7064742,327.9195577,0,458.0202731,-402.1863105,1384.811603,-86.4087411,-70.08591805,-109.4027251,-15.16026751,-152.3976753,177.9383158,184.700198,0,,,,
527.1999996,2059,352.8745938,128.5843642,145.8125746,-241.6559954,0,-425.3106492,-56.94540033,-347.834362,-23.2869737,67.78029279,28.25224284,641.3348667,64.17300905,207.358494,-419.6227327,0,,,,
527.2079996,2059,-20.3778784,-150.9891442,-143.95903,43.2204222,0,16.96691945,37.13843589,900.0715882,117.7357918,-166.1001258,23.56982873,-752.542488,80.62764068,-178.0299831,122.8809166,0,,,,
527.2159996,2059,322.0579007,177.2179603,54.02603832,163.8708142,0,166.6195527,-411.7513497,561.3478088,-160.0256099,77.51681258,-102.9097796,844.2595207,-146.5075407,512.9988799,-158.9333702,0,,,,
527.2239996,2059,150.0217173,-61.18260334,65.11595212,-296.149989,0,-526.3351255,243.0370135,-198.8250039,163.1036005,-83.83758636,130.4059235,-302.590998,238.2135746,-158.2505045,-239.4068081,0,,,,
527.2319996,2059,103.4394915,34.68810995,-152.4721813,342.839354,0,451.0158329,-367.9028062,1340.179096,-59.53925616,-69.69721509,-87.38832473,-25.67349086,-124.7974787,241.5272287,197.0317503,0,,,,
527.2399996,2059,360.1238656,130.6788009,179.9545545,-212.9080622,0,-418.4503681,-32.34437785,-390.7704088,-6.724199368,75.28048889,42.33176455,679.5655942,73.72772106,237.4399168,-409.1805725,0,,,,
527.2479996,2059,-251.1752331,-303.3546589,-301.3324211,195.5076518,0,240.4753307,127.1780141,1543.267039,217.5217163,-319.2062302,37.58037981,-1595.730055,103.9276061,-498.7421469,443.455203,0,,,,
527.2559996,2059,-81.46532232,-51.33870991,-325.3030194,652.2515025,0,931.1474187,-527.7492528,2285.859893,-92.12563996,-162.4801402,-178.3471256,-474.9268943,-259.7427041,166.4182513,533.0057885,0,,,,
527.2639996,2059,25.49931062,-108.0284686,-78.81295132,2.013209618,0,-70.75264424,55.62265448,611.8968463,114.6818904,-138.1174821,40.00936566,-551.0276205,91.07990345,-164.8985302,46.10062626,0,,,,
527.2719996,2059,39.07086053,-27.13414855,-163.2999989,306.7169527,0,405.9941819,-299.5265755,1288.443695,-30.89704574,-103.7376231,-83.22989143,-207.0109319,-109.062482,123.6431586,210.2850534,0,,,,
527.2799996,2059,411.2262237,183.2132139,195.0111673,-202.0994299,0,-374.9849492,-147.3371503,-468.37473,-65.19951409,114.7209689,5.96730868,1002.954437,12.68053444,399.6558897,-451.034702,0,,,,
527.2879996,2059,29.92916165,-123.0171843,-51.10691962,-110.5169467,0,-226.6778932,157.0515252,365.5371176,167.6650123,-158.2321021,73.72220699,-636.492935,151.6344895,-209.915866,7.441196343,0,,,,
527.2959996,2059,196.3124211,107.1250259,-36.7064636,297.8797935,0,370.9088103,-426.0523874,960.6751207,-114.139746,-0.156418925,-114.2332966,447.3391869,-146.1155858,386.8665397,53.84456204,0,,,,
527.3039996,2059,307.409988,49.98657044,192.6317798,-318.2279429,0,-572.9164443,118.6269666,-638.634763,74.05229506,41.0824168,88.07209245,425.012441,182.6088271,94.33149264,-413.1405492,0,,,,
527.3119996,2059,-4.404929807,-111.9820953,-159.9463983,173.3647717,0,197.0119935,-87.32671315,1012.282062,74.45232733,-140.6289211,-27.61053194,-555.2541784,4.35063554,-47.43998946,192.8064172,0,,,,
527.3199996,2059,348.53656,162.6804022,75.96941986,27.10632084,0,-38.96409446,-315.171813,85.06870583,-121.5251368,87.2084297,-71.38004001,933.8044905,-107.1856104,454.3884358,-263.5543152,0,,,,
527.3279996,2059,92.76819703,-110.9875642,4.723283013,-238.9732193,0,-434.6324087,208.627685,-147.5751318,148.4770295,-111.1102225,91.807139,-328.9447616,179.953257,-187.48042,-168.8611477,0,,,,
527.3359996,2059,99.51874493,30.15157172,-115.4431938,314.7691212,0,391.8267902,-350.8559424,1065.034458,-86.50486812,-61.15656401,-107.1286976,135.5839386,-138.6460928,284.0716115,135.5611653,0,,,,
527.3439996,2059,343.4044492,106.4794192,179.3434121,-242.7153258,0,-473.9921136,11.23764632,-572.6463841,-0.976715817,50.93417966,48.8299911,649.3652641,83.66437664,237.7546634,-403.4817215,0,,,,
527.3519996,2059,-18.82008805,-153.1671582,-124.6195831,64.47207336,0,18.61082877,29.16687975,696.8094461,108.5583347,-164.1225073,11.89912747,-640.0247801,71.28179117,-153.0368778,111.9653432,0,,,,
527.3599996,2060,297.4269384,138.0846702,67.94434933,128.5091551,0,103.1966776,-374.7356863,291.9982078,-150.3472009,65.8832049,-99.74408877,883.1219847,-136.7015243,458.4468575,-187.772771,0,,,,
527.3679996,2060,148.9293965,-84.20668307,97.73111872,-286.4472892,0,-532.3670296,236.3367918,-397.0043036,148.4124035,-82.75320101,108.392206,-198.2988117,202.5724059,-174.2351531,-241.8070271,0,,,,
527.3759996,2060,80.81297427,-14.05790819,-105.2313455,314.5163793,0,387.22018,-340.3636908,1057.40623,-55.93575244,-70.02119051,-94.97548311,15.9211023,-108.8733185,169.1800031,147.8892589,0,,,,
527.3839996,2060,331.5054307,87.57072329,190.6360539,-226.304957,0,-427.4495935,-74.37261907,-568.9515395,-29.28621089,47.02493037,26.36443129,764.0194615,58.136509,201.9261893,-402.0278066,0,,,,
527.3919996,2060,-34.82670905,-166.4616829,-77.83989745,11.19586487,0,-51.55141266,63.08680944,535.3142559,133.1224464,-187.6540048,18.9242568,-660.1211494,97.2455484,-232.4492354,78.32279681,0,,,,
527.3999996,2060,288.6106,158.3405548,86.29015525,162.4645863,0,170.0079094,-410.2806393,330.6409553,-140.3567294,67.19333495,-108.3768449,879.9306371,-140.9362274,474.7423176,-171.782559,0,,,,
527.4079996,2060,163.782753,-62.57054887,121.6269549,-326.3161437,0,-560.6278366,215.0454925,-543.6931204,145.5271775,-74.5946151,116.6920973,-141.1415533,216.0445516,-144.8979147,-275.1759608,0,,,,
527.4159996,2060,63.84410083,-27.85115107,-113.8260334,313.0690109,0,405.314856,-357.6575011,1015.184556,-48.31667153,-83.66474534,-97.13815738,-35.12422976,-109.8821701,144.3697851,143.1389686,0,,,,
527.4239996,2060,335.1366125,73.86622072,190.8407908,-224.3829374,0,-390.7177699,-117.790354,-610.1189798,-29.36981235,53.2972141,17.38710343,806.852061,43.27325404,201.4569653,-410.8094666,0,,,,
527.4319996,2060,-46.40958395,-188.3700229,-83.22201919,-39.52594493,0,-66.05256677,30.63944434,446.3067653,116.5834527,-197.1841789,13.33550585,-669.6310345,83.73307645,-263.0858019,73.14129351,0,,,,
527.4399996,2060,266.9355847,143.5926581,66.79461328,152.7974349,0,198.1349303,-463.9127295,336.53563,-168.8035066,55.66706624,-131.6885243,877.1961754,-173.4306762,436.1134313,-165.1948735,0,,,,
527.4479996,2060,172.2300913,-63.7987726,133.232246,-344.5433176,0,-574.161626,204.6364455,-618.1163221,152.1983929,-71.857843,104.5310121,-123.480994,218.0941626,-190.6174843,-296.9001427,0,,,,
527.4559996,2060,38.69328973,-32.15913607,-115.8969029,304.8590609,0,405.8600412,-367.7699228,973.6754715,-43.19221555,-84.34975357,-98.36369095,-71.97200793,-119.766013,123.4338918,138.6926872,0,,,,
527.4639996,2060,307.4965613,55.61684482,162.9744913,-223.7851513,0,-378.0913633,-160.1892511,-629.8434656,-50.03925408,58.29438371,21.7244465,829.1908471,6.821382247,234.0478674,-414.4667046,0,,,,
527.4719996,2060,-31.59981357,-194.5381244,-107.181824,-34.81954939,0,-63.29551809,25.82796689,393.327806,109.6954609,-200.354855,24.65219409,-685.0849142,69.68982392,-242.6963667,70.37536712,0,,,,
527.4799996,2060,268.8878532,154.3230206,51.96755727,187.8275899,0,250.2125025,-450.2419399,332.1057034,-162.7184463,57.13067602,-113.2014372,865.6064634,-180.8361668,466.8615419,-147.5929068,0,,,,
527.4879996,2060,140.2384861,-86.39527134,115.3205994,-341.5320149,0,-546.4163305,217.7428713,-635.3221184,158.9541934,-66.02945875,133.5012688,-98.86219691,209.4291518,-138.7158293,-279.4293796,0,,,,
527.4959996,2060,28.94803278,-35.75690022,-139.4857835,305.4667553,0,421.5111467,-338.0289794,968.4812174,-44.45777806,-94.83040681,-85.24873036,-80.82128734,-120.8620766,172.2611629,174.4472837,0,,,,
527.5039996,2060,336.9867164,101.3345389,164.1384398,-199.503743,0,-355.4738166,-99.97010925,-637.9988129,-29.18115142,63.17510004,27.8935082,854.7788447,40.11109824,262.6380659,-379.9188906,0,,,,
527.5119996,2060,-45.48181835,-195.0975061,-118.0678204,-33.97310709,0,-77.79969157,87.71260872,375.4958036,142.8280113,-191.996508,42.03599861,-687.5734276,107.0578854,-252.0743922,102.7207719,0,,,,
527.5199996,2060,211.4173622,116.5631522,-3.729838072,180.1360097,0,247.8661904,-446.3316745,382.133106,-182.6816847,37.23931926,-117.2311268,885.3938889,-210.417542,476.6509241,-86.5026311,0,,,,
527.5279996,2060,119.7055654,-110.0986053,71.49573295,-357.5925711,0,-544.6609277,201.6011639,-590.7024233,128.8290684,-102.6786165,113.0335091,-40.645748,155.4860522,-132.5145464,-216.8173439,0,,,,
527.5359996,2060,6.749468857,-66.64113355,-151.5270355,299.4470703,0,428.1037255,-347.9023725,1017.101776,-46.05731289,-119.7837456,-96.0135425,-73.83629482,-142.9674004,174.5514429,236.1065596,0,,,,
527.5439996,2060,285.6079695,83.79756355,169.6622924,-199.5606428,0,-346.724476,-123.3125172,-586.0826069,-49.99907264,59.37626672,20.62099684,891.2367994,24.39254937,293.4548065,-327.598578,0,,,,
527.5519996,2060,-67.17966883,-203.0040899,-114.4164655,-46.57735187,0,-97.67742428,65.52001935,389.507405,125.2160448,-197.1680006,38.18259573,-678.0501883,100.6599696,-250.17429,135.7238766,0,,,,
527.5599996,2060,215.706108,108.3116304,-11.19042699,186.107584,0,236.3895037,-490.19776,412.4972672,-181.4371888,38.49951516,-122.7889722,877.7267535,-200.0149596,483.7005953,-56.93969373,0,,,,
527.5679996,2060,112.1282273,-98.44776004,78.74319874,-356.4700251,0,-576.0361298,164.6437301,-595.7768723,129.0307053,-94.56435339,107.6326369,-34.88925478,176.6149651,-137.8064186,-206.4861252,0,,,,
527.5759996,2060,-19.46204874,-75.21563885,-164.309066,298.116301,0,409.5238047,-384.8586859,1031.482065,-45.42408281,-128.662051,-98.39400202,-96.71205389,-127.9756315,143.0601355,245.0068498,0,,,,
527.5839996,2060,258.7952624,56.58612815,122.9995372,-209.2155147,0,-328.3576356,-213.9546396,-520.1596257,-73.16486674,31.6905864,6.079786156,927.7736571,-1.893495703,302.1235921,-305.5250289,0,,,,
527.5919996,2060,-105.7206594,-230.1872277,-141.2803799,-67.30543202,0,-93.59779045,-9.401693001,439.6766999,106.4360232,-228.8834839,21.78575345,-662.2329563,67.94291017,-260.6310454,160.5975414,0,,,,
527.5999996,2060,191.7948711,98.5682122,-14.44439999,198.2116437,0,257.3249607,-533.9792672,479.9821662,-178.7786934,22.82711636,-130.6417306,886.3093214,-220.1976758,459.1901987,-28.57082206,0,,,,
527.6079996,2060,138.6862707,-78.94588018,80.91083527,-356.5544788,0,-580.5175747,129.0844367,-573.4545438,130.6572315,-88.09498223,109.953371,-3.334135429,171.8362925,-126.7906427,-199.6012808,0,,,,
527.6159996,2061,-13.98653824,-80.84667814,-183.3398647,287.0720873,0,385.5148673,-421.787646,1047.824381,-51.47471888,-119.3733644,-97.33652789,-124.4530451,-135.3735604,146.8050401,241.1462386,0,,,,
527.6239996,2061,251.4709964,47.28636641,103.0929613,-205.6817551,0,-334.5891802,-256.2540719,-491.2152452,-78.90768127,28.17989906,-3.967447944,932.0901261,-29.47857595,298.2541267,-314.5005467,0,,,,
527.6319996,2061,-79.38287353,-218.8263343,-135.1225567,-71.00416908,0,-99.3242906,-11.91541148,433.3822394,118.6850556,-233.328593,22.98826305,-673.3727934,82.8176348,-250.8754503,143.7256025,0,,,,
527.6399996,2061,194.9920258,95.53422193,-11.89482898,201.055862,0,294.2432898,-532.3133064,517.3800097,-183.1007623,26.02009654,-130.8166037,875.7380695,-196.0580336,480.4301576,-33.44839756,0,,,,
527.6479996,2061,100.781251,-97.65095498,85.82627597,-365.1803404,0,-549.0824549,129.2351043,-546.00792,120.8094561,-85.80981975,99.6518567,24.40596709,179.5846138,-127.088251,-206.8347518,0,,,,
527.6559996,2061,-35.75989136,-84.70070992,-169.9204168,290.2554498,0,407.736863,-394.6463307,1072.569615,-48.13781003,-110.161,-107.9572668,-135.4459,-115.9575883,152.7468715,240.2546355,0,,,,
527.6639996,2061,272.3927471,84.82797947,133.7634211,-182.1390872,0,-313.0310296,-226.5523955,-481.7256807,-80.5611001,57.58484342,-15.76767939,952.6281786,-13.49582412,337.1978946,-321.5047893,0,,,,
527.6719996,2061,-69.79356852,-185.9777964,-107.6423374,-63.11802731,0,-133.3059026,13.77675203,388.7025271,139.8045616,-194.8146711,21.2690402,-692.9665879,116.5073936,-238.168042,119.296965,0,,,,
527.6799996,2061,191.8145984,94.32320656,-27.55622894,212.6011287,0,256.9788762,-552.6809172,510.061812,-177.5877815,53.25111463,-147.1205056,829.6269349,-182.050017,498.3599662,-58.73114631,0,,,,
527.6879996,2061,116.3613538,-104.626858,66.85928816,-369.6522984,0,-589.8238049,85.87074733,-571.4003712,101.0379384,-92.98391915,71.12886002,7.948720149,156.5433016,-112.6579238,-238.3097264,0,,,,
527.6959996,2061,-37.53540008,-95.17243948,-174.4743144,289.0484235,0,375.2193702,-419.2420742,1061.868105,-35.67080613,-125.6039337,-118.4114617,-194.1047129,-126.8212371,138.2218476,225.2336644,0,,,,
527.7039996,2061,277.7205282,76.12819587,131.9498744,-168.8269317,0,-324.5839959,-259.9745174,-467.447991,-68.75033906,64.64753774,-16.7131501,938.9663327,-16.20944786,341.8675751,-333.803221,0,,,,
527.7119996,2061,-62.41588465,-198.0378457,-97.81363819,-60.72366755,0,-148.7119558,-11.51729757,386.4664814,147.8865226,-192.1193524,32.96468845,-707.3851735,118.6461489,-230.9663622,111.5118185,0,,,,
527.7199996,2061,154.5766517,64.60887207,-17.75644416,224.6481025,0,276.6580935,-595.2786158,567.1563264,-169.7537636,50.3524009,-131.0064754,824.5185042,-186.834955,518.9771471,-40.3715055,0,,,,
527.7279996,2061,97.62013651,-118.0503761,67.98855161,-378.77356,0,-589.9996693,30.05451301,-542.6087999,82.2040255,-103.5242972,77.95797108,40.61275017,145.1425607,-102.7192278,-232.0257729,0,,,,
527.7359996,2061,-18.55981097,-78.63990056,-171.7885197,289.3975189,0,367.7970111,-453.7519326,1084.153651,-49.11135572,-141.3799494,-121.2439453,-218.5845263,-126.5484873,125.6481196,218.2481257,0,,,,
527.7439996,2061,255.5125776,55.55575742,119.8985156,-164.4682407,0,-310.94995,-316.9949973,-419.4925288,-86.33170295,53.3796001,-26.74294189,954.2237738,-31.14238487,334.9140429,-346.9441236,0,,,,
527.7519996,2061,-126.4466287,-259.6262386,-158.9120736,-96.68113285,0,-153.7732695,-80.89272107,426.638972,97.31331669,-237.9183636,13.07701014,-698.2487549,65.37099559,-281.902344,110.7387803,0,,,,
527.7599996,2061,142.3277691,54.45144703,-67.54525213,220.2366802,0,288.6053502,-630.3641766,634.6053413,-216.7159937,7.862655651,-169.9789075,824.5434268,-237.2159055,490.9431067,-37.59823717,0,,,,
527.7679996,2061,111.9624793,-110.7980118,70.94462673,-372.6885227,0,-597.6860141,41.93720488,-528.7157517,79.41186351,-102.1563905,55.4366567,73.84446345,132.1891747,-92.17569794,-259.4703247,0,,,,
527.7759996,2061,-58.39414357,-108.339994,-188.7291436,282.1584474,0,363.023257,-452.6822265,1123.538282,-49.40596122,-145.2705561,-126.4076311,-229.6272762,-136.3780206,134.1260323,220.2294888,0,,,,
527.7839996,2061,220.8398783,43.63926863,105.1649199,-175.6645274,0,-316.1931247,-340.1930412,-378.0656044,-121.2406601,43.47669927,-52.18000638,975.4961918,-38.68980223,378.6161692,-342.5381618,0,,,,
527.7919996,2061,-110.603055,-247.3609615,-131.8119899,-110.668348,0,-200.7987734,-59.84543673,396.2471993,77.08026141,-244.7049602,-10.82355539,-715.6572538,65.14513316,-283.3643929,84.02931538,0,,,,
527.7999996,2061,189.2272934,78.98821495,-36.59710917,242.4829969,0,272.1274941,-606.6585922,634.9100588,-204.0452076,23.34950905,-170.0653909,779.3226097,-231.6341518,488.96169,-47.94092161,0,,,,
527.8079996,2061,144.4293441,-92.11611621,93.38141721,-366.6410159,0,-623.9384141,43.40176712,-564.5328403,94.32550833,-71.33950323,70.72079621,71.00719663,162.1270647,-69.07412842,-272.6253585,0,,,,
527.8159996,2061,-64.85613384,-89.03478255,-181.0014664,287.3145684,0,353.0475831,-450.9213706,1114.063682,-46.36618985,-127.4014028,-116.7035714,-254.9766998,-124.6082866,113.5617105,220.7705791,0,,,,
527.8239996,2061,256.1610209,93.00022904,130.8345358,-142.9569532,0,-291.7266708,-334.9085581,-368.2085175,-101.3450215,83.70902891,-40.73371169,1000.688859,-23.00019749,399.3561411,-339.6823025,0,,,,
527.8319996,2061,-58.50858238,-205.6822904,-86.50459327,-88.44301951,0,-184.0360129,-27.31704812,362.2050231,137.3728174,-214.9270926,25.00930957,-708.8691066,131.9599387,-249.7506685,84.10040185,0,,,,
527.8399996,2061,186.1233953,119.6283902,-17.71850535,275.581699,0,359.9887057,-597.3612182,672.1360213,-160.1992748,32.28523664,-139.1263009,786.6283749,-180.8020953,526.6557113,-20.68520044,0,,,,
527.8479996,2061,138.5139604,-57.76442998,92.91308556,-355.6176209,0,-520.924866,31.77788757,-540.5113759,111.3258027,-49.76002858,92.05033442,125.5395817,187.5932189,-6.895823938,-253.3756202,0,,,,
527.8559996,2061,-47.53786192,-87.3193908,-190.8862437,287.335635,0,446.7937684,-449.577007,1137.935108,-26.184457,-136.9005331,-103.2159449,-262.2752262,-106.4282584,112.2962852,246.5057614,0,,,,
527.8639996,2061,297.7251074,117.5405131,126.9353041,-133.4654865,0,-201.7635755,-337.9932761,-343.9164868,-98.70686199,68.9637459,-48.83543901,1016.822326,-30.16609688,364.2011337,-323.8785599,0,,,,
527.8719996,2062,-39.36171065,-179.518322,-96.68964338,-102.3429061,0,-154.7633381,-28.44025844,347.3074577,131.4858857,-192.6428808,19.29860306,-705.4278443,121.434243,-272.1284729,85.84742039,0,,,,
527.8799996,2062,166.1827051,110.1515443,-31.23126784,270.2497112,0,374.2244977,-617.8320155,704.2295139,-174.5302087,49.97017015,-157.6293581,775.3373594,-200.4861704,503.7501572,-11.19283117,0,,,,
527.8879996,2062,127.2811051,-65.16971405,108.3020641,-372.065768,0,-553.9100476,20.93998897,-552.5748271,90.85368804,-59.72749883,60.29422157,141.8307998,169.6152533,-38.99023318,-268.1856864,0,,,,
527.8959996,2062,-61.56184297,-86.75546248,-190.1910548,269.5446474,0,400.6260788,-455.4932585,1137.68076,-45.25114268,-153.5869046,-123.3448707,-293.7190855,-118.8176385,120.8019013,246.907538,0,,,,
527.9039996,2062,284.6076222,120.9629867,131.8564978,-125.6395732,0,-209.1830581,-365.6258629,-319.6136324,-101.8948529,72.37291902,-56.80348558,1027.515971,-34.66102186,425.7741577,-323.2204979,0,,,,
527.9119996,2062,-46.00882809,-177.8558553,-66.95482965,-100.2429087,0,-178.6343127,-36.01390354,324.4095932,162.3759656,-192.9592207,34.58068471,-712.5328213,150.9068429,-250.0994083,81.21306532,0,,,,
527.9199996,2062,189.2839011,125.8821653,-16.54579748,288.7822498,0,363.2180106,-632.5498534,713.2621205,-164.2904483,42.27180256,-140.3585015,741.9165263,-180.4523214,515.8719949,4.24289718,0,,,,
527.9279996,2062,167.7236223,-59.93240694,116.885028,-362.6145209,0,-580.4414367,-4.173767894,-580.9957721,97.29153669,-51.46930962,82.42651958,145.1437402,185.2552564,-40.04383563,-279.1926937,0,,,,
527.9359996,2062,-61.8468209,-114.145153,-190.7408927,276.8096579,0,370.0199757,-481.4141008,1119.456441,-26.2343162,-151.5961083,-97.63935357,-328.4241178,-112.5864962,68.89313438,246.752977,0,,,,
527.9439996,2062,284.8874317,124.4890934,143.0520002,-101.0320943,0,-218.7888245,-389.6834105,-321.9107939,-121.5565587,72.2666273,-56.10844419,1029.884308,-59.1163392,418.4686505,-322.3235598,0,,,,
527.9519996,2062,-55.42158987,-185.34536,-61.39493694,-102.8747566,0,-201.4669085,-42.33932624,294.5631727,144.3459344,-194.4129134,38.53702403,-722.9006526,140.2754026,-247.5962917,71.64014366,0,,,,
527.9599996,2062,148.0779959,89.44816989,-44.75390682,287.7658699,0,381.3727674,-659.6667591,750.3585077,-176.9206381,34.44998235,-144.5020383,721.6689719,-203.5006382,499.1535708,14.64195786,0,,,,
527.9679996,2062,168.1051153,-50.04623152,110.8958211,-370.226528,0,-569.5596721,-4.462671771,-578.522617,79.2760896,-49.28041633,59.55979285,164.3249978,168.4548411,-39.14648821,-292.3803944,0,,,,
527.9759996,2062,-40.53638118,-93.59063659,-203.0929464,259.0191523,0,363.9513532,-464.3788312,1117.35307,-27.30926749,-145.3312697,-113.6119812,-359.987624,-107.2040653,59.16382078,240.5550196,0,,,,
527.9839996,2062,287.3456425,120.8851439,109.3006247,-117.3539298,0,-214.2821009,-416.8700497,-313.9385776,-123.5828451,82.68710289,-80.60669434,1029.271956,-75.51554933,408.9394515,-338.7570391,0,,,,
527.9919996,2062,-46.90794912,-195.7003659,-72.27674848,-127.986843,0,-230.3487155,-51.35775791,235.378385,156.5238664,-188.3958824,13.19627275,-748.4578177,143.9501171,-270.0083391,20.26419271,0,,,,
527.9999996,2062,160.0496825,80.55235107,-58.61436652,282.8966306,0,365.4554972,-683.737965,714.4288978,-170.1316049,32.9188124,-167.8379491,664.6018861,-205.1908809,498.1567485,-32.53420649,0,,,,
528.0079996,2062,175.0587915,-52.974371,110.3392754,-380.8953295,0,-598.8056707,-37.9711615,-658.2368847,78.79640832,-43.75468108,34.2399127,142.8512212,150.5360683,-11.75119689,-368.1947893,0,,,,
528.0159996,2062,-40.82082583,-95.15501182,-178.7152975,265.9327314,0,344.4708562,-456.6251714,1036.063558,-5.614690689,-124.461111,-119.9357683,-422.2865918,-76.54253764,82.60459178,165.0333658,0,,,,
528.0239996,2062,282.3120663,106.5165628,114.7271081,-105.4779958,0,-198.5974464,-434.6056215,-346.2931122,-126.2514107,97.82065428,-75.18177997,1025.284216,-53.47849802,444.9252837,-397.3006729,0,,,,
528.0319996,2062,-59.83765067,-221.4612332,-90.11248504,-158.0253198,0,-242.7709468,-79.86425286,191.1861093,120.9411629,-220.0107144,10.30638319,-740.1695751,113.2743412,-280.0473614,-21.7584228,0,,,,
528.0399996,2062,169.3293348,91.13942729,-59.69730745,291.8456803,0,380.2205268,-686.0871389,699.2101401,-198.7173533,15.79029536,-181.3676861,659.662328,-229.1025248,492.1261415,-47.05934977,0,,,,
528.0479996,2062,207.5932445,-27.82004404,135.2944201,-361.6820968,0,-588.8668265,-18.79480353,-729.258579,77.41178024,-18.92630643,36.22393653,176.5756034,157.0065759,7.769821983,-402.0435105,0,,,,
528.0559996,2062,-48.32112007,-115.7406267,-174.6294492,257.3851572,0,336.3833687,-453.0198411,964.8140342,-9.625472827,-131.4084107,-113.6041532,-437.4618997,-87.41247113,73.40706246,145.2243616,0,,,,
528.0639996,2062,283.2167633,100.4057251,127.3969878,-99.19815705,0,-193.66851,-447.3004245,-406.5980596,-147.8300026,91.6342074,-88.18835261,1042.10325,-79.48187787,466.551152,-417.1730351,0,,,,
528.0719996,2062,-25.31305076,-195.0015861,-53.73616603,-147.9019177,0,-261.6681088,-60.19060578,68.40405488,130.5423758,-197.8693401,10.66642741,-748.5091759,120.4678067,-265.373866,-62.01804672,0,,,,
528.0799996,2062,184.2221364,110.9509467,-38.76175772,310.3979939,0,381.5357664,-681.5979095,609.5405143,-184.2711101,36.31268409,-177.5621962,619.7862964,-214.3402052,487.3832554,-67.28265496,0,,,,
528.0879996,2062,206.4658841,-12.21811553,164.1553832,-358.2306255,0,-597.7831927,-12.75904042,-846.1249042,79.16254867,5.941399723,36.24080411,180.0249581,176.1357072,12.93667134,-441.8940486,0,,,,
528.0959996,2062,-44.64516381,-105.8075204,-153.3092309,268.9074068,0,327.4888869,-423.8219226,865.6936661,5.849993385,-127.6972011,-97.69722716,-480.9151553,-70.39975464,66.33128902,121.4677703,0,,,,
528.1039996,2062,338.772753,156.3030022,152.7009653,-60.45863312,0,-179.2952775,-416.5960005,-497.8578178,-131.109872,98.04856598,-73.26086943,1034.724326,-69.24309863,474.91195,-426.2811839,0,,,,
528.1119996,2062,28.0172969,-133.3650559,-14.60045017,-128.2740253,0,-275.9737682,5.275896984,-91.92515316,179.7095074,-145.9971564,38.00799887,-773.8415924,177.9151164,-239.6624751,-104.2310154,0,,,,
528.1199996,2062,182.7458608,108.9496578,-42.67204196,327.4569887,0,392.3328964,-654.0430031,518.9918087,-146.0868799,63.43908164,-146.0586873,577.452816,-193.0352597,532.7798512,-92.60730944,0,,,,
528.1279996,2063,226.9243031,-13.97144621,152.122356,-359.155295,0,-598.5427334,-19.60038221,-946.9904264,73.29041669,-9.805917992,48.54885171,197.6115785,154.0671324,32.93661593,-466.3868669,0,,,,
528.1359996,2063,-24.9127565,-99.30891998,-156.8967967,265.7638245,0,311.3681776,-407.2430402,755.66076,24.18749123,-116.0136696,-88.95968592,-515.8229289,-49.56142635,50.82964748,98.81445083,0,,,,
528.1439996,2063,327.1471551,145.2887251,134.3818097,-59.03777456,0,-186.4448405,-427.8178681,-579.4188325,-130.0712876,118.1938141,-74.91006004,1043.637463,-80.87395255,497.2453747,-448.088129,0,,,,
528.1519996,2063,17.87962203,-145.7200874,-20.25017423,-142.6570667,0,-315.9211982,-1.498935788,-208.993657,154.4114344,-161.1693859,33.90349092,-763.3970215,148.8676492,-225.8434456,-140.2692377,0,,,,
528.1599996,2063,156.2610075,96.88264799,-39.23894309,350.4403634,0,399.6678779,-658.5311149,466.9218891,-155.0208592,55.47180263,-140.0319679,566.0302933,-194.4388714,542.2546196,-97.71415644,0,,,,
528.1679996,2063,197.0184373,-23.93117207,159.9055216,-347.8933265,0,-598.5937633,-30.66267959,-1024.059968,53.30983225,-16.98600152,52.77728076,239.8665695,126.0349693,49.55198981,-473.1777814,0,,,,
528.1759996,2063,-32.43709541,-85.99062397,-138.1230209,269.4923098,0,287.016946,-397.5995543,663.0906352,8.220608264,-134.1678847,-83.47437062,-542.9691608,-82.96729533,45.78901701,85.76321575,0,,,,
528.1839996,2063,320.7367162,158.0505002,158.8846215,-30.70606705,0,-163.0563195,-441.452415,-631.0313043,-123.777483,132.6935652,-64.30796516,1042.184809,-77.87190385,517.9006052,-451.7171208,0,,,,
528.1919996,2063,10.1697012,-150.2259763,-5.679953279,-150.8007598,0,-323.7328164,-9.495400163,-302.611172,162.9175196,-163.7312721,41.86801291,-761.7826989,159.0459862,-247.2562725,-141.4709455,0,,,,
528.1999996,2063,175.2168075,123.0359266,-34.95112894,348.8255141,0,383.4024583,-650.3148051,409.3845921,-151.4983391,43.42465423,-140.4569169,530.8109174,-199.7034631,504.1468431,-81.09579851,0,,,,
528.2079996,2063,234.2073891,1.290458934,181.7371919,-337.9486338,0,-614.5618518,-6.417690223,-1108.069885,81.60145955,16.205307,61.29262644,256.3625499,159.7744908,57.48397959,-468.8427137,0,,,,
528.2159996,2063,-7.470832142,-78.68978701,-125.9756486,279.1099127,0,272.1532129,-351.3166497,577.8866579,51.40050516,-102.8686756,-65.41390189,-570.4221047,-40.02712079,53.0474432,103.1967507,0,,,,
528.2239996,2063,352.3200114,195.5503073,166.7841805,-11.9261865,0,-159.6170347,-404.281167,-683.1959243,-108.6313275,158.3443197,-52.08478325,1049.265327,-72.32173101,557.2422512,-424.9023985,0,,,,
528.2319996,2063,44.41912568,-124.4884365,27.64609404,-145.6802276,0,-346.9663685,51.29853087,-414.8174704,186.9659794,-133.9287511,60.70442437,-749.9234411,191.1791752,-238.1776562,-133.8530483,0,,,,
528.2399996,2063,283.0998586,288.023639,-45.30834586,696.6455558,0,846.4435181,-1002.647025,825.1192079,-309.3954615,185.2483739,-237.6910546,1226.769094,-393.2481762,923.7064577,-2.458055278,0,,,,
528.2479996,2063,530.3906953,379.4779999,252.0944395,98.50774515,0,-16.34748282,-663.4664432,-848.2722367,-279.2401878,320.956143,-113.2406452,2063.470662,-211.3787446,966.6361342,-560.4120685,0,,,,
528.2559996,2063,82.4856631,-59.32475613,-0.581389969,-18.54625031,0,-156.4854912,-123.8614549,-257.0480165,100.7668097,-77.28661415,8.660662578,-409.5936495,85.62592315,-36.44829531,-112.6074169,0,,,,
528.2639996,2063,143.78201,-2.327352082,22.68939872,-43.94724955,0,-184.8597541,-189.8442983,-429.3941886,45.86715052,-13.11393277,-14.44992198,-21.58928128,32.74097332,145.866592,-210.7401846,0,,,,
528.2719996,2063,125.6919865,20.52278297,-1.392720946,91.60223151,0,-1.686166727,-309.3122352,-187.8747591,-3.782483081,5.308297267,-51.50276651,119.7297119,-32.49567543,275.4415888,-160.4201677,0,,,,
528.2799996,2063,179.9752602,47.58630886,50.74599238,10.33900392,0,-119.9934162,-273.6908066,-452.3896391,-7.343180243,26.73917165,-20.34222858,301.2540236,-2.592933322,271.2572235,-233.0722097,0,,,,
528.2879996,2063,99.64204177,-68.61388474,11.19992582,-97.62858825,0,-259.0298658,-101.9260579,-485.1906394,101.0975551,-75.51856758,27.9862074,-287.3582559,79.07827925,-16.67782969,-161.0418976,0,,,,
528.2959996,2063,120.0949625,37.08209407,-42.36469115,232.4284718,0,217.155149,-497.9433905,86.12219291,-78.51819863,12.0657099,-89.27637291,323.8552602,-142.7039777,366.875096,-66.69602496,0,,,,
528.3039996,2063,166.189401,-4.405682805,94.98119429,-261.6307055,0,-485.7426066,-73.03868367,-976.2160664,41.22789501,-9.049184723,35.26160054,177.6618158,84.62855528,58.36601091,-343.6754432,0,,,,
528.3119996,2063,9.983561022,-52.10232301,-106.8057815,169.8609318,0,130.5066083,-307.2561733,202.1607606,20.17257488,-97.08219087,-63.93749095,-396.8914119,-53.0272241,76.10680778,39.84741816,0,,,,
528.3199996,2063,217.9696149,85.87900367,93.12658148,-8.898119408,0,-123.381335,-386.1363294,-610.7313916,-93.98531701,68.49509807,-53.91740129,819.66524,-73.94442009,477.9659453,-308.7152112,0,,,,
528.3279996,2063,3.945603451,-149.4452998,3.635290602,-179.1894584,0,-365.7138325,11.85626069,-558.8686761,129.8862719,-160.6646709,39.50174229,-563.9014286,135.2996884,-158.3689928,-122.3248826,0,,,,
528.3359996,2063,129.2809144,84.98654474,-47.18899254,323.04666,0,329.7328387,-537.022104,231.1997613,-121.6955135,22.3429499,-123.2490898,384.6626088,-187.3442677,433.8620038,-9.323410402,0,,,,
528.3439996,2063,181.4973668,-7.462809759,143.9670763,-322.0098728,0,-571.1712128,-17.71298604,-1162.755439,55.34762677,10.35183657,53.87780321,326.3862315,116.1366535,116.088643,-378.7491998,0,,,,
528.3519996,2063,-57.16490732,-103.2648156,-131.7544363,198.2531629,0,177.4913231,-284.2243825,332.9663573,37.65574196,-136.7373996,-62.5985468,-546.2473924,-36.40927629,39.41226463,134.0765433,0,,,,
528.3599996,2063,270.1451039,153.8794811,109.2912084,1.165725524,0,-122.3862313,-390.4444033,-677.2941519,-124.6606183,117.3196651,-64.25267342,1014.810939,-110.088402,520.2639419,-311.0886419,0,,,,
528.3679996,2063,-7.601799639,-156.2704046,-15.75969647,-206.1266822,0,-407.7718962,60.3158841,-592.7582956,159.4649762,-153.7451169,49.25993238,-642.4705572,144.6080211,-219.2898229,-98.67701244,0,,,,
528.3759996,2063,108.4754247,78.10430982,-73.22843112,342.452568,0,358.2836713,-561.5321253,296.2398167,-126.8769179,0.707414982,-131.9365647,401.1409217,-181.8556538,455.5857602,27.21425034,0,,,,
528.3839996,2064,197.3862943,15.16010067,151.6682681,-342.0833259,0,-611.0870005,6.22698558,-1241.135177,54.43423632,3.181336838,61.62569286,374.5648018,139.4054127,119.3855161,-381.9084521,0,,,,
528.3919996,2064,-83.69755929,-139.9153707,-161.0110513,200.8980543,0,178.2679175,-278.7488912,349.0851268,50.13220792,-143.2182701,-55.29741928,-623.9614285,-34.05687253,2.340725047,156.4353526,0,,,,
528.3999996,2064,265.1762401,134.1834108,93.74046416,-6.712718507,0,-127.6111299,-416.6518162,-694.8667276,-131.9393301,99.11174701,-64.49080661,1070.642673,-117.1353028,535.8595538,-307.3896135,0,,,,
528.4079996,2064,-19.19570258,-140.8077499,-13.74834096,-214.3739859,0,-425.5904716,76.52425721,-631.2789908,170.7432653,-166.0378097,66.20626267,-659.8242276,165.1923528,-230.0549838,-83.95426367,0,,,,
528.4159996,2064,70.31023819,55.41888307,-98.02274832,353.1034718,0,383.6780618,-578.7265392,313.8762965,-132.3214026,16.69547284,-116.8170192,411.3455155,-191.8767319,461.2905453,44.5761381,0,,,,
528.4239996,2064,169.3742222,-23.53388989,108.2273363,-367.3921129,0,-613.5689416,-16.26997549,-1239.39972,22.80419598,-16.22246392,57.60866483,425.295299,97.79567862,103.9073558,-367.294458,0,,,,
528.4319996,2064,-109.3443133,-132.0742481,-197.4469116,188.8521535,0,170.2478942,-268.4349242,361.6119428,22.93831788,-172.2323509,-68.8785149,-639.3160916,-73.91017024,-38.69826608,180.7265154,0,,,,
528.4399996,2064,238.4376423,132.3467413,71.75019186,7.396060261,0,-109.9426846,-407.2233232,-666.025304,-154.3502457,106.7368982,-74.43713227,1112.425331,-143.1643885,538.4841918,-289.1169991,0,,,,
528.4479996,2064,-34.5679679,-172.3917023,-18.47215177,-220.0453312,0,-427.9677269,105.5354403,-624.5578933,155.7065891,-167.6647783,57.73733721,-625.3473646,158.2809061,-244.6473652,-66.50224877,0,,,,
528.4559996,2064,63.03041024,64.42800862,-70.5807492,370.9904096,0,389.7643125,-536.130751,328.8498066,-126.6124618,21.79707955,-127.0289628,429.5176162,-188.1351999,460.7689444,59.52681202,0,,,,
528.4639996,2064,148.8258949,-14.26427324,148.6801247,-346.6123246,0,-609.0266017,14.21962051,-1246.979229,47.3577934,8.989928405,59.13550207,501.514241,119.4934976,125.5164604,-371.8639696,0,,,,
528.4719996,2064,-152.4092942,-167.3562513,-184.0479937,186.4688388,0,172.9260121,-252.8012202,371.0271729,24.62455375,-174.6672169,-64.05352601,-600.3039534,-57.12784015,-54.8985297,180.5003506,0,,,,
528.4799996,2064,220.7445579,128.9194406,94.45535841,21.34545126,0,-84.06527606,-394.4899838,-629.4071961,-167.3918189,99.87757576,-77.51419173,1168.933182,-137.1471329,550.1240944,-278.2591646,0,,,,
528.4879996,2064,-21.02800822,-159.6938552,18.81188457,-220.9078503,0,-417.8794645,138.2216779,-640.8574304,174.1781026,-162.3957708,62.05830628,-579.8560323,183.431265,-225.7156925,-62.49724076,0,,,,
528.4959996,2064,82.22529261,57.41462837,-60.51885073,371.0002639,0,448.1803013,-516.7050995,355.3771182,-119.6705668,19.10262587,-125.4939556,419.4015416,-191.8765958,464.8008556,82.4946356,0,,,,
528.5039996,2064,225.4961605,40.58240091,209.4307634,-320.3190776,0,-515.2522123,67.23544413,-1251.655163,74.51935158,41.54968581,68.95256955,512.9094954,139.9476139,187.0157199,-350.3530611,0,,,,
528.5119996,2064,-71.09373187,-95.685511,-86.20284781,230.0747396,0,258.1792036,-154.4617398,313.9541045,115.3430443,-98.90418896,-21.05494295,-647.5453634,33.58845039,47.53930045,189.4179331,0,,,,
528.5199996,2064,229.0012269,140.1462307,123.5760518,54.25783122,0,11.11558264,-371.5420673,-629.4602568,-122.3574893,150.7405357,-37.64503028,1149.904441,-98.93706427,610.8172753,-255.8474691,0,,,,
528.5279996,2064,-16.88171855,-138.8160613,22.43085182,-222.0444192,0,-371.1509746,138.3634615,-670.6860311,172.9965778,-150.9775116,80.28698261,-578.5119822,194.2546859,-229.7150423,-40.18154656,0,,,,
528.5359996,2064,88.46826316,90.49426311,-68.49083719,392.977802,0,477.2939813,-503.9989591,347.3501373,-99.53666213,45.66343352,-107.6782061,380.8033979,-159.7955382,481.8461292,104.2956337,0,,,,
528.5439996,2064,181.650934,10.76712436,146.7367509,-330.5835455,0,-522.4042272,26.68414989,-1236.292066,70.8881146,48.76829477,78.27960071,541.5482037,115.4848298,175.949534,-325.177984,0,,,,
528.5519996,2064,-130.9614462,-159.4570532,-168.1699895,172.3624237,0,209.704922,-207.2717922,334.0466771,69.38464284,-156.0256348,-44.49265271,-656.7856032,-27.49343896,-75.39265585,222.9473908,0,,,,
528.5599996,2064,197.3853604,111.5224488,69.32393083,31.51647547,0,-4.090811398,-408.2678174,-563.900256,-156.0843775,119.9270403,-67.02625949,1146.389012,-132.8359604,543.9779806,-228.3251899,0,,,,
528.5679996,2064,-43.57240721,-166.9863474,-16.90421456,-254.4266664,0,-407.5657421,123.0739697,-636.9176031,164.1948815,-166.5006245,69.64455493,-559.9426525,160.7924521,-247.0437536,-19.9902534,0,,,,
528.5759996,2064,58.08770013,39.73532032,-108.3027365,366.3925115,0,445.8909874,-510.6019221,405.5836112,-128.6230842,-4.716535498,-130.5533162,348.8935725,-205.8248371,408.8874936,133.6373596,0,,,,
528.5839996,2064,182.2602395,-0.533832101,139.4020263,-332.7090603,0,-538.0421649,35.9869111,-1189.271266,42.17676873,29.83707072,60.33219376,548.8808517,108.2778861,159.6199298,-311.6809824,0,,,,
528.5919996,2064,-115.3253827,-132.4819526,-156.5703191,174.7333189,0,183.4767444,-162.1954355,336.8511036,79.43316765,-145.631655,-40.8970389,-688.8505685,-11.46982348,-43.70440009,230.8426889,0,,,,
528.5999996,2064,223.0808658,141.6714254,81.63396763,53.66963953,0,-3.28668966,-364.6374889,-541.9791039,-145.2126416,141.307001,-66.41315791,1124.552235,-127.5487598,557.8320041,-224.8746421,0,,,,
528.6079996,2064,-26.85079658,-159.1143144,0.376865527,-256.2146973,0,-427.2318206,162.8246292,-657.8904188,177.3755443,-138.989685,77.60214163,-556.1225956,185.2593371,-246.6650603,-26.7608067,0,,,,
528.6159996,2064,5.468612079,-4.459405762,-115.6644529,361.0217306,0,441.6764354,-506.9827673,408.6559586,-118.6328024,-4.884102479,-138.0583965,310.0486861,-205.5208615,403.6775254,129.4908434,0,,,,
528.6239996,2064,118.6787468,-52.81172628,118.2615008,-341.2092972,0,-522.1205906,0.698183205,-1151.590238,4.299460478,1.758116075,26.52752866,556.7461696,60.43957225,129.6458903,-316.7920831,0,,,,
528.6319996,2064,-146.5482026,-173.2763357,-181.1062229,143.0869399,0,181.5625487,-190.5878981,374.6325186,35.80686153,-177.5717346,-72.14442272,-710.0714432,-35.00620416,-93.99775579,250.6165208,0,,,,
528.6399996,2065,180.9787558,86.55644762,56.48957315,36.05034899,0,20.63048127,-408.4307233,-477.6993972,-174.329589,111.5974884,-106.9027824,1113.93102,-160.7403728,546.5929977,-205.542175,0,,,,
528.6479996,2065,-59.82282979,-185.4474342,-9.361984614,-281.6390206,0,-412.6937522,129.5758435,-612.4237343,143.2591116,-177.0957449,40.99011394,-546.3661037,128.7341653,-293.6667907,-14.64750276,0,,,,
528.6559996,2065,12.72887932,20.31883381,-120.7850368,353.8571647,0,466.3580462,-519.2894159,472.0693589,-135.1996338,-11.15508352,-153.8296779,286.0126943,-217.1107171,349.2598441,164.2274393,0,,,,
528.6639996,2065,126.4254214,-31.49622316,130.5571392,-337.7483284,0,-499.4336841,-1.44226319,-1120.579554,15.22552699,18.41150283,22.69021059,580.5362751,77.39307893,131.7137021,-299.5141045,0,,,,
528.6719996,2065,-154.6920859,-166.8083311,-154.1437466,137.2392078,0,184.1184512,-176.0906984,384.1972852,51.95027985,-185.9195999,-68.4104363,-726.4444709,-36.23686768,-108.4659201,265.670822,0,,,,
528.6799996,2065,200.3426714,101.2969289,79.95681554,58.69661653,0,48.61865126,-411.5880515,-442.3388844,-170.1768092,122.3834211,-101.8155647,1113.349773,-172.5364132,575.7545411,-192.3786785,0,,,,
528.6879996,2065,-53.92827818,-184.3583783,6.962313183,-264.616838,0,-402.9047625,130.2180661,-617.700637,163.2030144,-154.2953522,57.89885649,-524.8807272,148.0021635,-252.0404984,-17.90370147,0,,,,
528.6959996,2065,2.847231282,26.479784,-112.3901418,377.7137186,0,494.1967965,-525.0872944,508.3778909,-120.4657048,-0.055517284,-139.8239597,273.7068926,-206.7034079,354.4077499,185.3294767,0,,,,
528.7039996,2065,274.5432895,89.85871657,213.9457688,-331.7291315,0,-501.4678495,-127.373188,-1347.895997,-84.76518976,144.6350926,0.777357577,1298.86657,1.842625854,389.5345108,-442.3419029,0,,,,
528.7119996,2065,-31.69506735,0.025195064,-162.6669696,369.4155366,0,494.0704062,-552.5713411,600.3785831,-142.9863968,-43.33329119,-170.5915432,189.6581651,-235.2581802,317.6004323,215.0765382,0,,,,
528.7199996,2065,174.408419,262.6634645,-117.6828071,713.1441525,0,965.8714456,-1073.600478,828.3150756,-434.2430308,206.8977625,-308.4021666,1638.115638,-522.9646838,1056.887683,93.7491131,0,,,,
528.7279996,2065,116.9609772,47.87022131,15.84698685,40.07856787,0,26.17466179,-359.5051697,-367.7959489,-123.5910036,52.27797471,-91.91073937,755.0123908,-130.1528673,371.1627258,-105.067642,0,,,,
528.7359996,2065,24.68582777,0.878044233,-78.20651567,191.4494383,0,250.9478568,-440.7120033,98.71491513,-131.0354534,-5.125025365,-131.0757111,411.3879102,-167.3343724,332.2789378,50.07803573,0,,,,
528.7439996,2065,7.997242608,-154.1204742,42.35401244,-312.794961,0,-443.3950374,57.03331653,-822.1876596,72.27426945,-88.37319172,20.66944657,-67.4172874,110.8963582,-87.32610238,-148.5061951,0,,,,
528.7519996,2065,-69.37889113,-109.5376054,-123.1547679,148.0534692,0,190.9064086,-272.1773864,237.1071645,-13.52795196,-102.5425671,-98.63386922,-267.6217407,-92.2571221,43.50981981,160.3625226,0,,,,
528.7599996,2065,144.3591108,58.30067294,34.46672642,10.20145467,0,-5.591261892,-351.9633044,-451.7794521,-133.9468901,89.21081427,-104.5829381,855.6194758,-133.743393,400.0335592,-174.1510412,0,,,,
528.7679996,2065,-72.61263774,-224.322067,-28.26397817,-264.0114949,0,-373.8252167,116.3903971,-555.1788638,153.7119166,-164.0964212,28.97710234,-619.6082963,151.6724799,-304.1743386,-6.38976912,0,,,,
528.7759996,2065,30.63135232,8.751570664,-115.7911087,333.1956588,0,443.5531027,-536.5158737,373.6579788,-155.2076833,-0.581708922,-173.1504601,412.8846447,-223.732152,372.0909009,117.5249706,0,,,,
528.7839996,2065,87.79962063,-80.71783293,77.51694491,-338.8993914,0,-477.1474455,7.22655547,-1032.588122,0.30889479,-24.67048664,-10.4020451,360.2770497,63.59105389,18.16096238,-268.8051239,0,,,,
528.7919996,2065,-132.3836352,-187.7824105,-160.5964958,108.5325656,0,162.0310466,-191.0965357,289.2053103,28.6381062,-162.2829573,-93.38693674,-628.0689218,-42.33546383,-100.1330222,211.3135008,0,,,,
528.7999996,2065,183.0716558,85.30790221,56.53190257,71.84773231,0,73.13064446,-386.3828783,-413.3859754,-148.8084497,118.9307527,-127.1122457,987.5837075,-156.7424725,517.0596848,-184.9678837,0,,,,
528.8079996,2065,-35.46160096,-179.4707649,6.288900306,-291.5073717,0,-428.7432582,152.5680065,-701.0780779,173.3540185,-138.0621113,39.81927081,-542.8096713,161.2626736,-269.5401633,-67.89404291,0,,,,
528.8159996,2065,0.778840493,-1.773398908,-136.2813133,344.9009794,0,454.69915,-518.3768157,436.8386335,-113.1286079,-6.142313636,-155.2917256,198.5915449,-199.9138006,344.4374243,141.3223956,0,,,,
528.8239996,2065,129.7349129,-37.12815233,118.0515063,-318.7966168,0,-480.0544312,-19.78452664,-1122.676228,-3.977092544,39.55849339,2.783968504,535.9737177,60.49829465,125.3553712,-331.663072,0,,,,
528.8319996,2065,-158.6148808,-198.3312622,-156.9706053,106.7695776,0,128.1838273,-155.3217418,260.4373852,62.19803127,-155.6424968,-56.63964546,-754.5047733,-9.373693091,-181.1438499,219.4219221,0,,,,
528.8399996,2065,150.6766411,63.34918848,40.4197802,87.12026071,0,86.78285772,-431.186986,-399.0785206,-189.5999209,125.4919314,-122.2528027,1023.535513,-172.9677351,522.124688,-187.2528352,0,,,,
528.8479996,2065,-68.58037656,-222.3013043,9.538137069,-316.2396948,0,-454.9027414,154.6906335,-763.5445867,128.5451808,-148.2279354,44.2200249,-491.0652181,144.560693,-264.5089628,-89.57920608,0,,,,
528.8559996,2065,-24.12307183,-35.76068978,-130.6476017,359.8911415,0,505.5237872,-486.0906627,485.5803471,-118.1463576,-16.19914506,-147.8496014,118.5923971,-192.4225622,331.3424111,180.2191532,0,,,,
528.8639996,2065,181.9340748,-18.73463321,160.9255609,-300.6043764,0,-428.9428218,-5.524000108,-1162.924064,-17.3548975,63.19216432,3.081856899,635.5027534,75.47865469,239.2449895,-340.3480221,0,,,,
528.8719996,2065,-147.6662881,-196.8019779,-126.5607867,104.5202516,0,136.4458452,-101.9987079,208.3694956,82.21058325,-160.4055565,-44.15491336,-815.4492259,14.44164826,-146.6629078,223.9533733,0,,,,
528.8799996,2065,163.3752884,100.8934475,80.01729202,115.0857354,0,133.9348989,-415.5834187,-421.8865175,-167.6082665,172.9551506,-118.5141287,1033.725115,-163.4197441,587.9278172,-197.0376672,0,,,,
528.8879996,2065,-31.208,-192.8868625,56.00568094,-309.9452888,0,-447.8297978,165.4505418,-840.8654914,151.7674541,-90.61790575,59.09222346,-458.2248971,175.2785105,-189.8734103,-115.0003623,0,,,,
528.8959996,2066,-33.99838776,-36.92328511,-128.3605615,369.8702368,0,514.3281134,-511.3900954,469.2014648,-122.6847011,1.144891194,-139.1731797,106.7150693,-206.905489,310.1084385,197.8342299,0,,,,
528.9039996,2066,177.617292,8.891141304,166.6367457,-301.8481705,0,-434.4740778,-45.19541167,-1210.149428,-24.46407039,96.31976494,-4.533259927,700.5917212,46.17656812,229.4123518,-355.5052314,0,,,,
528.9119996,2066,-157.131547,-203.8157404,-136.9431942,78.13053665,0,102.8849727,-120.1121671,156.9498967,91.9667752,-160.6231434,-46.65365127,-839.536967,15.42648093,-162.8402422,207.5159761,0,,,,
528.9199996,2066,134.2685532,67.89415923,52.25807696,108.3506226,0,133.0640585,-464.1156196,-428.2256168,-197.5825737,147.9667123,-142.4386336,1039.959667,-197.9861655,555.7325448,-200.7891397,0,,,,
528.9279996,2066,-26.40692049,-177.1766523,76.88297719,-323.6869959,0,-483.0490353,173.0437659,-931.5000183,154.2707584,-91.07802105,35.9743646,-462.055862,179.8794231,-204.7302258,-156.8601756,0,,,,
528.9359996,2066,-11.32420487,3.673866895,-100.7526342,375.6629211,0,482.7343851,-480.0406354,391.158209,-87.57160501,8.484001139,-142.6510297,27.32508694,-166.4587382,327.6479933,159.1851412,0,,,,
528.9439996,2066,191.2969522,18.74790528,181.7263884,-298.4540429,0,-459.1242164,-46.11481437,-1292.478551,-15.51887777,122.6930952,-1.658536831,696.1949555,62.5554391,273.3454205,-404.594976,0,,,,
528.9519996,2066,-142.8935274,-204.9024692,-124.4293652,69.28675678,0,70.90873826,-110.7676911,71.20197191,108.292507,-136.4198868,-31.56591251,-880.1500387,38.5029487,-155.6063333,179.9311808,0,,,,
528.9599996,2066,166.5301555,94.75066204,45.60857672,123.1994126,0,141.3152404,-489.1449462,-454.2752042,-198.3274649,158.6331907,-131.1817488,1032.663694,-196.2224906,534.1217402,-191.6819508,0,,,,
528.9679996,2066,-9.699306424,-170.4956129,64.052151,-341.5965571,0,-506.2621947,148.9443854,-998.2001581,145.2015021,-78.76561318,48.69161263,-421.4864322,167.6072476,-250.1961658,-155.9703829,0,,,,
528.9759996,2066,-18.31732832,-15.21590538,-122.7908495,365.7225695,0,476.8226274,-495.2466946,366.5319579,-94.45597404,6.860102316,-134.9186669,18.00451711,-181.8926306,289.5498724,181.8005283,0,,,,
528.9839996,2066,180.5826027,6.579426521,164.5438183,-291.6343663,0,-432.5846819,-58.03111866,-1309.638598,-39.51353869,109.5408392,-6.477450556,745.6845648,29.39007167,246.6363491,-391.068859,0,,,,
528.9919996,2066,-165.8620473,-216.5681265,-128.821802,65.34950176,0,85.6813599,-77.80707455,28.90231526,105.2506314,-145.4269221,-24.85205877,-862.4515495,26.2193423,-195.2307928,197.6456053,0,,,,
528.9999996,2066,174.2602381,105.3932759,42.58128863,140.3746149,0,183.0618794,-468.2028701,-463.5301946,-191.511927,168.8487992,-127.3877041,1052.862472,-193.0023606,559.7782537,-169.9059741,0,,,,
529.0079996,2066,7.403671919,-160.0560923,72.0562532,-336.0520533,0,-487.0005619,178.1972995,-1057.226818,162.6142572,-61.8174121,55.0599486,-376.5795076,169.965307,-198.3871898,-163.7531014,0,,,,
529.0159996,2066,-30.71916333,-10.7964743,-115.0643784,389.1254333,0,507.9692639,-470.7320966,341.7627779,-77.33983726,23.26008413,-127.7083999,12.91438151,-179.7912171,341.7369703,200.5877283,0,,,,
529.0239996,2066,176.8762187,15.48370678,172.6456558,-272.3606239,0,-408.7981613,-71.61685999,-1344.592055,-49.43956744,129.6407461,-14.25854751,790.8378123,33.74280089,286.8311543,-388.1183091,0,,,,
529.0319996,2066,-151.8726629,-226.8200073,-110.1992933,64.14174033,0,66.30417857,-66.73587028,-47.95272138,116.0882501,-133.8000607,-24.02505995,-868.4386409,44.10170432,-214.2606031,185.8678828,0,,,,
529.0399996,2066,192.6389241,108.9152164,60.69912754,171.2304084,0,199.6159599,-462.1952676,-499.5684976,-190.1317429,188.5239777,-125.65846,1047.4694,-175.2110189,581.464034,-181.4266994,0,,,,
529.0479996,2066,-12.92509528,-167.9521343,69.9258242,-337.3679726,0,-488.3597398,177.956311,-1123.549704,137.3329044,-61.85444361,54.42362386,-338.065927,179.9276354,-214.1424072,-199.0434685,0,,,,
529.0559996,2066,-51.50780006,-31.83830585,-127.6353202,383.9371057,0,508.6702912,-464.7859017,297.6665994,-73.53996216,5.394742784,-130.1885364,-5.238355493,-177.9366471,272.9605259,183.1530425,0,,,,
529.0639996,2066,214.9873192,36.21183286,175.9683842,-266.0058053,0,-387.523196,-68.73224474,-1404.098649,-42.27221742,137.7052465,-20.62578838,823.4332019,37.85362845,304.9291672,-430.7581871,0,,,,
529.0719996,2066,-139.1033487,-199.2795928,-124.9179057,47.09092163,0,89.06012678,-52.12863533,-108.7436998,116.7566951,-138.9458142,-19.87793643,-858.2418169,37.42209502,-209.1734523,159.4190645,0,,,,
529.0799996,2066,197.5632961,129.7552182,37.27428568,173.2087336,0,256.1413231,-462.4744206,-527.7819549,-180.5120014,197.9434784,-127.7035852,1055.001909,-198.51343,594.8048914,-185.3239737,0,,,,
529.0879996,2066,24.85571508,-161.8337891,64.25789312,-354.2552716,0,-479.5642262,184.2478007,-1219.14399,152.229696,-30.79571216,57.89999763,-306.0934009,186.6883362,-149.4394521,-241.2983954,0,,,,
529.0959996,2066,-48.58265244,-30.52954036,-140.5641026,383.6227288,0,520.4777503,-461.9092238,261.3396813,-72.13175449,14.27955829,-114.7831443,-19.96850289,-168.5901814,289.4746891,179.6999362,0,,,,
529.1039996,2066,229.0870879,59.3387632,182.7702366,-235.953555,0,-367.3221378,-63.38392961,-1448.210495,-55.65354016,163.9996031,-7.630710211,869.8176882,42.37782716,289.7404915,-441.7039011,0,,,,
529.1119996,2066,-118.36079,-196.4967216,-116.8087116,59.68121204,0,55.77919793,-26.16541115,-186.4069829,128.9728198,-119.761616,0.246896261,-841.2114918,63.09792104,-228.3523687,134.7793383,0,,,,
529.1199996,2066,168.1317423,129.1171478,30.28813689,197.6280481,0,243.1116072,-467.348484,-531.5875519,-184.9093602,196.2780844,-115.134563,1078.699843,-190.5357575,595.6741829,-181.4981774,0,,,,
529.1279996,2066,8.608473957,-140.4533173,76.43464405,-347.146721,0,-504.9115369,201.2541057,-1268.000889,130.0718979,-25.72675119,72.07688583,-245.7064439,198.9179736,-161.3018671,-255.7685611,0,,,,
529.1359996,2066,-43.54938006,-17.46210117,-143.9138878,388.8943271,0,507.8920184,-445.0077229,245.7770678,-72.5903491,8.755246494,-103.4720086,-16.57308623,-174.8424105,278.8797797,191.6816425,0,,,,
529.1439996,2066,219.5199386,55.27776081,176.9476784,-241.6720953,0,-372.1487104,-81.36391387,-1466.21305,-56.18877637,166.9189033,-10.77872617,924.5352041,19.58292507,328.8061118,-432.6503911,0,,,,
529.1519996,2067,-136.5031968,-207.4918699,-112.9772985,27.52057419,0,17.2440162,-20.6659397,-251.7343232,133.2309587,-117.5960199,7.121950388,-839.9206822,85.52140859,-219.7250513,140.9458961,0,,,,
529.1599996,2067,179.6225933,137.0163955,24.58351903,186.9037372,0,225.3049291,-476.5027901,-556.266847,-200.2566681,183.5571386,-122.8807385,1058.045921,-203.4634143,615.6219138,-157.3449474,0,,,,
529.1679996,2067,24.57793768,-154.4336954,77.42245286,-381.4998659,0,-551.4664811,201.9446331,-1340.107699,117.7052485,-37.12145184,57.7195073,-226.4927796,169.043565,-143.8294116,-257.5172452,0,,,,
529.1759996,2067,-64.98549304,-45.31028115,-167.0665439,357.1593168,0,468.5546441,-445.3497335,207.1371609,-63.03857502,-13.10835649,-109.0475807,-58.56603196,-167.3951034,221.62984,213.9991119,0,,,,
529.1839996,2067,339.6529158,209.9403362,197.49602,-172.6304753,0,-295.8563234,-272.5715252,-1571.312572,-187.1609582,264.7885052,-75.02617091,1609.489616,-97.72117544,609.2659275,-512.6669323,0,,,,
529.1919996,2067,11.21420146,-76.70817473,-13.24762124,-72.69757912,0,-163.0148436,-31.28544839,-754.0409858,56.40077246,-5.545687676,-13.27181424,-207.0372153,49.37545043,9.636197528,-65.29464107,0,,,,
529.1999996,2067,33.69379902,-9.248138199,-31.84790166,106.6553109,0,68.55123194,-250.7285716,-521.5176832,-29.62760065,61.30089496,-72.0463658,162.8875162,-60.79706109,229.4261755,-43.08159165,0,,,,
529.2079996,2067,17.06239846,-109.2492047,18.46684656,-159.0842324,0,-290.4722519,-29.06454172,-1008.248846,42.36546343,4.792693387,-16.12123445,-37.8637138,58.07840265,24.93784451,-175.8940681,0,,,,
529.2159996,2067,32.83288468,-7.467904797,-49.14596998,148.5354966,0,145.4213764,-348.0370197,-452.0466974,-101.4877047,52.68697389,-107.4719607,342.5973732,-135.3407722,337.0151139,-39.28343694,0,,,,
529.2239996,2067,68.27459366,-39.38505055,81.92767851,-224.1604222,0,-397.0499914,65.91535094,-1221.883865,66.87743641,22.45726818,3.227500738,11.6280983,83.68267517,13.76291575,-241.1130875,0,,,,
529.2319996,2067,-21.93279817,-41.32303714,-77.86686732,187.1701177,0,173.5967777,-261.7451899,-301.4349063,-10.5044509,23.42602174,-66.44028998,-118.5070297,-75.39759823,179.9628074,71.75328802,0,,,,
529.2399996,2067,151.9619058,49.91176774,96.3510829,-111.5697574,0,-235.8464419,-159.1867537,-1232.611164,-80.18665395,140.4643759,-51.14312923,623.190575,-30.41654324,360.9993113,-304.7518892,0,,,,
529.2479996,2067,-91.03494481,-151.6677701,-44.23197973,-78.30823439,0,-178.6386347,38.72156705,-716.5470427,115.9377236,-64.61962855,0.29317981,-670.2264976,94.09401528,-123.2836422,-0.256317711,0,,,,
529.2559996,2067,64.12383087,57.6790655,-16.15978942,197.3509692,0,218.2683381,-447.4505038,-563.8434207,-173.7320845,144.8042651,-131.1173712,686.770369,-176.7171164,526.0147169,-87.58170209,0,,,,
529.2639996,2067,26.6256903,-118.5417128,88.13517241,-351.8221205,0,-544.5001905,151.1155155,-1494.769034,68.09027661,-0.484570808,19.36581515,-135.572441,137.1196539,-77.64002023,-295.3021649,0,,,,
529.2719996,2067,-66.47164275,-56.51594938,-147.2159459,284.2601552,0,331.6425294,-358.5061008,-75.88834883,-39.25973729,-9.374056145,-100.3795798,-244.1411546,-121.8420679,162.8799225,178.5005393,0,,,,
529.2799996,2067,196.7124452,74.87307775,134.2996351,-182.295179,0,-331.3071328,-140.936702,-1521.806417,-102.8566764,171.1401472,-56.92214771,808.3955521,-15.26885272,382.2474203,-397.3084535,0,,,,
529.2879996,2067,-108.4433849,-175.566411,-66.86131705,-52.17559382,0,-140.6662721,69.82423491,-685.1027144,138.717383,-92.9791524,2.247504487,-889.1469758,104.6266718,-195.484457,46.86224677,0,,,,
529.2959996,2067,134.4780974,136.3000391,13.45484575,234.6594242,0,259.0151584,-450.8642857,-661.4155332,-156.7302129,186.1821581,-130.7906439,761.5248152,-181.3154627,580.4404108,-117.9952864,0,,,,
529.3039996,2067,40.31745062,-100.4417302,116.6856106,-383.2896964,0,-595.1653441,216.9306917,-1672.593343,114.3339213,30.17880187,51.1855403,-209.4140249,196.0956984,-68.29527914,-346.8354917,0,,,,
529.3119996,2067,-98.4909861,-80.06160768,-157.5613405,313.5228394,0,393.3028997,-369.9212938,-70.28756219,-42.42016813,-13.09422132,-93.51930942,-319.4760207,-129.229482,186.3350916,191.0819163,0,,,,
529.3199996,2067,203.2757293,74.47712168,168.382246,-208.8488801,0,-341.8493751,-110.2492823,-1666.024567,-94.95989125,170.4399054,-51.26508177,851.2260913,-15.92060476,375.1351538,-445.8469832,0,,,,
529.3279996,2067,-132.3221856,-199.8372529,-64.14466696,-64.92699705,0,-138.9846862,103.3311076,-708.513937,153.6875496,-117.323692,16.50578588,-970.5922617,126.6993988,-239.684711,63.72833387,0,,,,
529.3359996,2067,128.9952528,100.9908025,1.409853773,220.651898,0,264.3579435,-465.4326918,-696.9313581,-187.7179683,167.7661561,-137.5537993,774.6776751,-206.5539447,559.4237108,-112.2889305,0,,,,
529.3439996,2067,40.23677626,-137.1152559,115.0864287,-405.6666978,0,-603.8915662,231.6342982,-1727.368295,104.2260471,0.428154505,33.73258034,-217.001467,160.8702925,-124.6702039,-348.6635023,0,,,,
529.3519996,2067,-98.24083317,-67.64894355,-143.9027543,311.5924522,0,385.6539389,-337.2248551,-119.2242211,-41.41033291,-48.12303279,-113.5672553,-376.5974867,-133.8092989,177.5526495,205.9713586,0,,,,
529.3599996,2067,195.4267434,82.67589957,168.0693578,-215.105082,0,-354.4151004,-103.0222155,-1763.551712,-108.5333186,167.4069328,-74.9924922,822.3675279,-16.80935638,425.1682803,-480.0732685,0,,,,
529.3679996,2067,-168.7239245,-242.7345735,-85.78567215,-76.50042558,0,-146.175974,106.2344769,-774.2469627,146.5611399,-128.0026256,-11.25078116,-1020.137332,102.6595166,-234.301421,39.74332362,0,,,,
529.3759996,2067,105.026884,85.1224152,5.275912354,216.8763635,0,252.0306162,-454.371615,-764.3572845,-207.305137,148.7720449,-173.1870964,738.5942015,-208.4912076,576.1813091,-134.9216972,0,,,,
529.3839996,2067,35.22798183,-136.0592661,109.2973242,-421.1332049,0,-624.732422,238.4961738,-1806.235269,85.83080159,2.091119738,13.8692741,-225.0323838,180.7463307,-105.0791868,-391.3502244,0,,,,
529.3919996,2067,-97.79993044,-80.56577862,-170.3224747,304.0947588,0,381.2232539,-339.3704857,-155.5293844,-33.73296565,-39.2988377,-115.9214262,-404.3670133,-147.6567923,143.3188278,206.9950536,0,,,,
529.3999996,2067,206.0433479,87.93450215,170.9861127,-196.2274124,0,-335.1410841,-102.9216158,-1790.378848,-108.1915127,181.7482656,-65.64722063,853.0406582,-27.88944968,413.3358551,-463.4309907,0,,,,
529.4079996,2068,-371.9057194,-407.2472165,-242.9952193,-15.822852,0,-43.75207147,262.0327294,-235.1646715,313.2139572,-320.6223672,74.51227232,-2084.423325,203.3463262,-664.1334244,391.3697602,0,,,,
529.4159996,2068,-85.49669985,-2.520334569,-228.0981389,527.0492722,0,699.5148647,-588.1063968,205.3224295,-139.2344583,-0.375161949,-168.0992774,-41.55888996,-291.443359,374.3971349,349.7596026,0,,,,
529.4239996,2068,275.2117743,76.36970985,281.3216363,-483.9234825,0,-729.0598475,54.21415902,-2540.931027,-119.144746,223.1750252,-51.2452169,1132.065183,35.6678112,387.7674342,-733.6339823,0,,,,
529.4319996,2068,-213.7810358,-268.2774832,-161.9944298,18.34609667,0,2.344718134,28.05239107,-517.2034266,137.2672051,-182.7879829,-21.32710156,-1161.683296,58.12702512,-277.5094258,205.648072,0,,,,
529.4399996,2068,90.12763256,63.67905269,-37.62974991,196.8147426,0,234.5590511,-432.6212434,-797.1636047,-159.0272325,113.1557552,-153.8202519,556.0467709,-183.8501073,497.6523512,-57.79187251,0,,,,
529.4479996,2068,112.7426662,-44.99090508,145.1241585,-356.8762607,0,-549.1456988,121.1556537,-1961.649061,8.390703707,87.35862349,-20.25515964,236.2368752,107.3930258,115.8137399,-433.5629489,0,,,,
529.4559996,2068,-143.5956349,-140.5823328,-150.217886,183.4030401,0,212.2768338,-145.4192987,-365.7405662,65.01783071,-94.22293397,-60.14155428,-775.3389146,-28.7088817,-65.22684398,243.4927228,0,,,,
529.4639996,2068,187.9841698,111.3712289,79.24269975,-23.18121641,0,-82.18636752,-280.3948926,-1441.667823,-152.9232194,188.6297236,-119.3257566,833.5538193,-126.8783992,492.3893313,-297.5997882,0,,,,
529.4719996,2068,-5.431585085,-143.716638,24.74131794,-250.1757624,0,-388.1626753,174.3746521,-1466.001392,90.16767506,-29.74762546,5.403517406,-460.6986344,96.2185802,-118.9816369,-178.3468815,0,,,,
529.4799996,2068,1.539772518,1.186769992,-85.4743678,269.8321849,0,320.609156,-296.4117875,-509.8005915,-36.90728436,35.07176843,-103.9579927,-123.7604709,-113.5936004,266.6241815,131.0983203,0,,,,
529.4879996,2068,203.3455589,62.61093651,154.9734019,-204.1787441,0,-353.296482,-39.07064026,-1903.655202,-42.85250194,186.5251431,-42.86267828,650.3314022,38.948509,399.0436346,-442.4721437,0,,,,
529.4959996,2068,-138.2040947,-208.5151408,-121.8775724,-12.12684628,0,-46.91995733,35.30771776,-815.1670229,128.1976212,-106.9192552,3.695542991,-847.8687305,51.1081891,-139.6301864,116.4322743,0,,,,
529.5039996,2068,120.0959103,93.9772047,-18.087653,139.9306584,0,167.7128392,-420.9867106,-1059.884403,-183.2972201,141.5823821,-154.825945,716.4134623,-194.0997678,542.7528801,-135.046878,0,,,,
529.5119996,2068,79.52833095,-112.0294349,71.48426473,-352.6374403,0,-514.0423421,194.7604138,-1831.832851,75.78937274,6.897151224,-5.566807801,-201.5332423,139.954674,-59.14284753,-341.1270331,0,,,,
529.5199996,2068,0.504838402,-63.98615191,-146.6905975,262.2511962,0,358.0930329,-292.3748427,-412.799782,-16.92636917,-26.30623636,-112.5697592,-351.909057,-131.0199759,126.2289981,189.3965021,0,,,,
529.5279996,2068,283.1036386,86.29456572,153.0792395,-178.6593192,0,-278.013701,-124.5587597,-1902.822832,-117.9114378,185.6017227,-92.90459997,796.4136963,-45.15520492,413.2230371,-468.3428547,0,,,,
529.5359996,2068,-25.25379741,-197.3356227,-75.02147338,-77.46195054,0,-132.2888642,131.5243916,-1012.804718,153.7526771,-112.99281,6.412242843,-918.4913227,100.4275117,-237.6845947,44.26766711,0,,,,
529.5439996,2068,216.4770593,119.2960978,-1.337728716,243.0379721,0,296.7242852,-423.0824176,-944.1058464,-154.5815321,158.6188804,-153.4253357,658.3348444,-184.0837532,548.0931877,-79.61978023,0,,,,
529.5519996,2068,134.0473688,-105.2312306,124.3395037,-362.6038499,0,-541.1977202,235.7867596,-1996.667925,87.48826354,47.0398361,26.37976868,-102.8864286,174.7350902,13.88233161,-400.9648976,0,,,,
529.5599996,2068,-5.990149658,-70.39673551,-166.2260475,278.5521143,0,361.7451962,-287.1559693,-410.3808863,-7.383273971,-48.79274652,-93.92830147,-431.6328094,-116.2912292,135.9652673,222.4859391,0,,,,
529.5679996,2068,319.1965003,116.5948732,162.212466,-142.7241675,0,-274.1419833,-141.2334588,-1966.665145,-123.5998845,199.3788143,-99.82184085,853.631648,-45.41305239,434.7366863,-488.2542525,0,,,,
529.5759996,2068,-28.58993992,-218.0940806,-65.57968843,-95.87668847,0,-182.2712031,159.4162425,-1122.499717,189.2023569,-93.60407017,23.64523949,-926.4729767,117.6365325,-249.7708924,3.952796844,0,,,,
529.5839996,2068,206.1608466,105.4610905,-27.74172459,254.7994423,0,313.678077,-464.2924757,-936.3466024,-163.233137,139.9509111,-167.890209,645.2027602,-229.6844324,541.292822,-68.23044764,0,,,,
529.5919996,2068,130.6400274,-118.3776419,125.6061063,-375.5183649,0,-564.7466512,224.836336,-2088.029818,46.17256077,23.62997612,-0.788229955,-62.35900169,136.600131,-5.367429312,-437.2574676,0,,,,
529.5999996,2068,-55.46067476,-108.9669126,-180.9168003,278.5188674,0,369.2618349,-283.1917871,-402.8963187,-14.02985004,-72.64541181,-105.5969137,-464.0773766,-123.2128975,126.7814828,243.6916184,0,,,,
529.6079996,2068,306.3162487,114.8311093,149.8275051,-142.3914136,0,-249.1941047,-161.5131097,-1964.919462,-146.09789,181.3184373,-122.4404589,897.6978775,-51.12634291,477.7505026,-471.2941238,0,,,,
529.6159996,2068,-26.90421202,-217.3723561,-71.55712796,-113.298536,0,-184.7257477,171.9033755,-1167.818902,152.000642,-115.0853964,4.4196645,-924.2625293,118.4385471,-232.3903039,13.11262306,0,,,,
529.6239996,2068,185.8383212,105.9047414,-39.76767907,271.0984113,0,334.3690974,-464.7296623,-934.6394392,-171.4046259,147.9327831,-179.0943567,621.110625,-234.1052238,543.9355156,-31.07056099,0,,,,
529.6319996,2068,126.0643697,-109.7763637,126.6791376,-378.8652525,0,-583.9587841,225.2993928,-2159.790488,63.58283039,45.27116562,-0.059449746,-39.01706924,135.9800177,-29.50725244,-447.9007782,0,,,,
529.6399996,2068,-33.29140323,-89.790674,-175.1252584,277.1963123,0,349.1651664,-264.6530379,-463.8649122,2.682095605,-74.49971672,-100.1639804,-513.4668811,-130.040846,82.91976936,244.20206,0,,,,
529.6479996,2068,334.8128013,151.685944,169.5449095,-113.1889981,0,-245.8732361,-150.0494763,-2023.62435,-127.0102279,214.8014284,-116.1304049,889.1461931,-49.72405156,486.977863,-473.6357843,0,,,,
529.6559996,2068,-173.5499435,-307.8250233,-191.6903903,28.20440813,0,3.340243181,161.7294674,-676.8106383,234.3151037,-191.4573408,33.08221547,-1485.52305,112.9535353,-423.8574615,272.3940294,0,,,,
529.6639996,2069,103.6505741,100.7013855,-170.4579868,514.5527987,0,692.4601372,-646.5495526,-294.4641231,-192.7426329,81.75812213,-215.8744587,369.923257,-343.3413851,559.903482,263.1035465,0,,,,
529.6719996,2069,343.3424341,55.00439168,310.0375831,-524.878002,0,-817.8369387,287.6287053,-2902.909956,1.635508373,191.6142,-9.363177117,628.7157431,194.0540883,222.1646341,-761.3878286,0,,,,
529.6799996,2069,-122.5778068,-198.7107165,-207.1962879,224.3376667,0,262.1194065,-41.33553655,-438.6525285,169.1264879,-134.4542631,-1.433217886,-1159.869964,37.64141422,-226.1643728,374.4335705,0,,,,
529.6879996,2069,282.7876291,180.1791247,57.07083313,138.4477141,0,130.9035205,-422.5394369,-1499.489275,-191.3631845,216.7957326,-160.2764794,991.4690064,-190.1352718,616.3460054,-231.3901246,0,,,,
529.6959996,2069,76.55755084,-263.1117203,223.6472884,-790.6647767,0,-1162.403452,763.5963617,-2910.966087,269.3154135,-47.85941674,152.2819725,-759.2461742,432.1406631,-461.4528742,-644.412632,0,,,,
529.7039996,2069,-141.2993401,-330.4574189,-74.6859414,-256.2435952,0,-391.8161171,420.1518482,-1376.288024,281.9295244,-189.8922859,105.8289003,-1447.399723,247.6719863,-525.6562154,25.37933059,0,,,,
529.7119996,2069,161.4822387,10.89105974,37.16312138,-47.62978021,0,-110.6947987,-129.174028,-1613.917112,-57.86397114,99.65054683,-72.41540249,300.4660481,-42.88298366,279.6025204,-210.4111308,0,,,,
