Time:125Hz,Epoch,FP1,FP2,C3,C4,P7,P8,O1,O2,F7,F8,F3,F4,T7,T8,P3,P4,Event Id,,,
341.0559998,1332,0,58.85424515,-9.887048912,0,9.206715385,11.93675756,11.87669956,2.65491853,19.01324263,-2.448194242,323.640436,0,239.6838017,24.11086022,89.0712122,-104.4669097,1111,,,
341.0639998,1332,0,63.53741309,41.17800024,0,52.02412248,52.9146341,71.33817632,55.03417062,46.24933742,31.07565948,-231.9111005,0,-131.8700026,44.52037848,-121.6480838,-0.675808832,,,,
341.0719998,1332,0,35.13988339,31.64819053,0,15.25789991,-8.388670658,29.49065955,15.46546896,22.28085823,0.181507089,121.4333873,0,84.59350613,30.21391388,91.36832481,-14.80183204,,,,
341.0799998,1332,0,75.03200448,-5.110227983,0,22.59769465,54.94666368,26.0731378,27.10252991,35.3047027,17.50896134,86.4545952,0,98.94733409,42.24496417,-47.35787708,-93.75207603,,,,
341.0879998,1332,0,50.63588388,69.74581901,0,45.6860117,17.85619042,62.50448158,37.92348963,61.54058186,27.65930474,-232.8149938,0,-158.6025128,48.18811223,-47.98051252,36.52550528,,,,
341.0959998,1332,0,58.67029888,-4.671339476,0,10.35073832,22.32208974,2.140263009,-0.471745807,32.1288937,-2.748360479,329.3393869,0,231.7570989,32.2350184,90.3612213,-108.7701036,,,,
341.1039998,1332,0,59.90261576,35.63228384,0,44.63134932,52.28824272,52.56513387,44.36322543,52.7135051,19.38760526,-223.2383753,0,-125.3303886,65.33143096,-117.059986,-4.079107888,,,,
341.1119998,1332,0,39.14771355,31.61261095,0,14.2206881,-15.61803716,22.51348067,-6.860763909,37.20041377,-3.796305043,110.5763898,0,76.22454886,14.22398283,80.99671957,-33.47539408,,,,
341.1199998,1332,0,57.48987953,-15.0709467,0,18.00696616,54.24539085,27.87416968,17.83545501,37.07473002,3.395681587,76.48949025,0,76.77555375,6.789604196,-62.60241695,-120.0562796,,,,
341.1279998,1332,0,16.86984813,38.45192308,0,26.95702838,14.4955608,59.34425085,44.29299964,36.95725296,-10.42826773,-239.0481359,0,-157.1689562,48.89097349,-47.6281385,29.37862916,,,,
341.1359998,1332,0,42.13489624,-34.98377438,0,-10.5944322,6.675727196,-2.978359552,-9.940833232,10.20851304,-28.97324601,323.1359483,0,252.5319991,18.28455785,89.71110006,-116.1001579,,,,
341.1439998,1332,0,43.78423818,13.89928915,0,32.19616471,41.75537246,55.13888353,35.7972028,36.69761623,4.942720174,-240.025626,0,-122.3937609,11.2383805,-133.448506,-22.12687859,,,,
341.1519998,1332,0,15.61715158,12.5230011,0,8.386574737,-21.25871337,28.18201167,-2.996994533,19.0421231,-25.82254864,96.87876629,0,84.2079364,0.45204698,78.81405497,-36.43171184,,,,
341.1599998,1332,0,56.10351707,-23.08935157,0,17.34801746,45.072653,30.63141435,11.71237407,31.8239817,-0.834899055,76.36167771,0,96.49462227,0.687089123,-59.52403643,-121.3274215,,,,
341.1679998,1332,0,30.15341729,44.31359847,0,36.08401819,9.723017204,65.5471723,34.99335807,44.40834414,2.519571107,-248.609718,0,-163.7693956,11.8774594,-57.99253004,19.57623636,,,,
341.1759998,1332,0,49.18492316,-26.45052517,0,1.760311405,6.652582361,9.614263766,-12.60734993,21.53976483,-23.22391762,315.6728885,0,224.4614212,15.85015831,83.73650813,-129.6953281,,,,
341.1839998,1332,0,49.96855562,24.42977098,0,38.48072645,51.47429348,70.40612687,44.67476912,46.2770026,11.52948719,-241.6837031,0,-159.2384758,27.84989931,-133.4660934,-32.89550627,,,,
341.1919998,1332,0,16.60962123,20.40190563,0,6.321350643,-7.315356364,33.44314244,14.73515993,15.01638219,-19.41635042,114.8074312,0,62.80244014,0.953982156,95.91564513,-27.91583226,,,,
341.1999998,1332,0,48.55788236,-22.53542075,0,12.82689918,48.83876164,28.30322443,19.60967352,26.53552308,-7.881440928,108.6913412,0,94.25114642,16.24197892,-33.7093268,-113.4908882,,,,
341.2079998,1332,0,29.67717985,50.05283307,0,36.71170498,14.01804884,67.85512571,37.60060762,46.69381569,0.693257321,-231.0935484,0,-172.4014078,30.69536148,-42.26402118,20.45046727,,,,
341.2159998,1332,0,60.46284799,-12.70842796,0,4.708149209,19.43622461,8.350884196,-6.622581498,21.86005215,-8.503209609,354.3502709,0,231.1277333,19.19166966,104.9503165,-117.948889,,,,
341.2239998,1332,0,60.70446281,33.61098874,0,40.31773493,55.24848334,59.82374741,39.54210481,61.10733659,29.13485081,-207.6323147,0,-157.3431991,39.96116399,-123.5901321,-27.81785362,,,,
341.2319998,1332,0,27.11624992,21.46483306,0,5.497900151,-14.01917173,22.36102612,-0.221866876,36.64457657,-8.977390195,116.570492,0,38.28307277,9.214646067,87.07507846,-38.63469145,,,,
341.2399998,1332,0,77.40042792,-12.18995657,0,18.48361189,48.35989333,25.17989735,2.758581725,42.24439064,5.452695541,112.1330487,0,67.53032465,15.32736505,-49.23058501,-130.8085695,,,,
341.2479998,1333,0,53.98408936,62.20224256,0,44.9966839,13.24116449,68.07825341,24.88598691,73.63268729,24.00335293,-244.045182,0,-226.8032498,30.66447699,-71.60900084,-1.558613399,,,,
341.2559998,1333,0,56.58926224,-18.04519236,0,-2.54784091,7.762092908,4.499943545,-6.245575113,40.42198812,-2.537244598,344.0268893,0,178.656673,-1.052063536,88.79315443,-134.5910034,,,,
341.2639998,1333,0,60.06182414,31.89285376,0,30.56885513,43.40524116,61.47876151,41.93670228,60.90335456,17.04676029,-199.9184442,0,-170.367194,29.04020173,-121.6103665,-34.55918261,,,,
341.2719998,1333,0,39.0101016,31.65318883,0,8.138829038,-21.10333106,28.59450979,-3.284237023,44.89829365,-8.048895017,130.5445356,0,38.69144197,25.97006628,90.54415436,-39.04829103,,,,
341.2799998,1333,0,76.6424727,-8.182550549,0,16.91309672,41.47614271,25.74042009,5.97321019,54.22866522,13.1298095,135.6282055,0,75.45138759,10.30515603,-38.91751868,-129.5358321,,,,
341.2879998,1333,0,30.72298822,56.29308457,0,34.01857858,5.008327241,68.53377499,34.060297,65.40833271,12.20216495,-230.9521637,0,-214.5695971,21.2059115,-59.49871812,1.299097691,,,,
341.2959998,1333,0,38.8261253,-29.90740778,0,-4.707241725,-6.019436074,1.366017008,-9.824701964,17.20994401,-26.38580743,357.2937175,0,204.7866252,21.98869249,99.01847375,-125.5640078,,,,
341.3039998,1333,0,58.57496179,22.0919228,0,30.45484013,31.95557101,55.8066843,36.38624554,42.97543134,9.422366459,-193.1159171,0,-151.2657718,43.09077964,-122.6455349,-24.0439971,,,,
341.3119998,1333,0,30.08644373,27.02235811,0,0.541368936,-26.20540184,29.79645484,1.40006239,36.76607587,-3.365065496,129.7440885,0,33.36097428,14.23239692,83.43336365,-26.89381205,,,,
341.3199998,1333,0,67.13255597,-18.25219891,0,10.4453308,32.74544577,26.8328902,7.870009327,38.1534213,9.824023554,153.9187217,0,80.67274818,14.81815313,-34.14047139,-104.4664836,,,,
341.3279998,1333,0,41.84811435,53.10836668,0,27.13417203,-7.374601658,67.56659747,26.06496006,44.76644174,15.89886076,-209.89527,0,-199.5283017,32.21401352,-51.37217616,42.0836278,,,,
341.3359998,1333,0,59.52290966,-16.56483506,0,-6.045860348,-17.53989823,5.812445792,-32.05887041,20.82068978,1.74752848,374.1809595,0,196.5348305,3.760588573,95.85881969,-94.02281857,,,,
341.3439998,1333,0,67.06637889,30.33971273,0,38.99255571,25.30652284,64.02338027,23.97934865,52.41135418,33.48171492,-173.1956751,0,-183.4768939,44.92878971,-124.7869343,2.72500058,,,,
341.3519998,1333,0,40.51323875,30.98104193,0,10.63550774,-34.9395522,33.00506368,4.881349354,27.79941456,4.650497346,164.7408432,0,19.82472521,50.96310441,102.7356869,22.46875102,,,,
341.3599998,1333,0,85.13116511,-11.74994604,0,20.3712018,13.99757401,21.08682646,-1.393719423,28.02561502,24.33749388,194.7101951,0,77.15291101,17.61678847,-11.60066608,-54.93809875,,,,
341.3679998,1333,0,46.91877669,54.06284116,0,32.31104583,-22.43473016,57.19109017,20.76148316,42.02815788,26.35096096,-185.8978832,0,-230.3260264,23.25484767,-39.43458484,80.55608525,,,,
341.3759998,1333,0,61.02742954,-20.62830199,0,-7.620597392,-26.90345001,-2.290944192,-21.66436496,14.86000456,-3.910902994,411.631678,0,184.0630348,29.42617455,120.0889182,-49.0429602,,,,
341.3839998,1333,0,77.27793099,27.68641396,0,38.14927114,10.34986728,63.65586888,25.42021272,44.14113172,33.61374338,-137.6923625,0,-172.9471284,45.45934406,-99.30637656,47.45076698,,,,
341.3919998,1333,0,45.2541714,28.92783649,0,5.653649818,-43.83072449,37.60589929,4.682389927,28.12771873,8.011387721,174.0956229,0,13.48693515,28.69841559,108.9652433,55.62359914,,,,
341.3999998,1333,0,82.54654089,-18.52216846,0,8.772170894,20.75814087,24.70528851,13.01185595,28.34939496,17.08159306,213.6838853,0,85.73970693,46.26043354,-6.022920673,-20.56528791,,,,
341.4079998,1333,0,51.96434947,50.99423438,0,26.38735579,-17.13902586,61.02729816,37.87323761,35.5294715,25.94756251,-164.5271563,0,-195.4351816,72.0979357,-29.837536,126.1668556,,,,
341.4159998,1333,0,64.20896062,-23.07118337,0,-14.26389386,-26.7906485,-4.693044845,-6.634270188,7.712195898,-0.279988153,430.3044981,0,229.0979999,55.74338101,126.1122973,-8.75103244,,,,
341.4239998,1333,0,72.06843474,19.48143419,0,27.58849346,14.07289326,51.86662777,35.71131533,37.64213317,25.38118164,-116.4694252,0,-116.9823175,71.91863304,-95.70252572,75.22600152,,,,
341.4319998,1333,0,42.95077223,25.2188041,0,3.323442494,-49.87707611,23.58111725,2.284429878,18.99197873,2.458009041,192.9015841,0,75.32891125,38.90263621,114.9048022,78.40295991,,,,
341.4399998,1333,0,75.85967725,-18.33886957,0,11.48791394,4.58456225,10.12765742,5.621416899,18.54619899,17.45958142,225.9032899,0,141.6506828,14.80566111,-3.013768214,-9.912380829,,,,
341.4479998,1333,0,51.99953915,58.85760657,0,41.45374811,-23.61784156,60.83430031,25.67531431,37.0514573,24.24673336,-177.0627544,0,-160.7330535,35.71927805,-37.465507,124.0439375,,,,
341.4559998,1333,0,76.32781287,-8.277026847,0,13.03686463,-17.02173272,16.61563837,-17.06759935,21.58390592,12.97565515,408.4097922,0,231.6052436,42.37886638,115.8919524,-15.31018963,,,,
341.4639998,1333,0,71.18577074,23.09834826,0,41.36342816,24.367571,69.53860729,42.73373403,38.83239261,40.73611308,-139.7217166,0,-136.7902734,64.18707094,-103.2466951,73.97466836,,,,
341.4719998,1333,0,36.87927563,19.0847723,0,5.741057633,-51.54826074,29.6376242,11.13536015,3.070143481,-2.931830373,174.9378408,0,73.47522856,21.38207395,119.4157528,90.13889299,,,,
341.4799998,1333,0,75.6154809,-19.76848426,0,18.22723606,6.149896758,20.88059262,3.19705187,15.09957548,11.05449235,213.7315683,0,142.3154659,1.140548154,2.333380017,-4.60384159,,,,
341.4879998,1333,0,38.09642614,58.68377174,0,38.48316761,-20.55674107,68.66996592,28.63407921,35.07634606,14.03169469,-197.8698971,0,-182.5679908,29.08891211,-32.194968,125.1168952,,,,
341.4959998,1333,0,52.89778268,-12.00015959,0,-7.024785426,-27.10892076,5.984515845,-11.26289711,4.485586059,-9.485007264,409.7534773,0,240.5468145,35.19664412,145.3683868,-0.845225712,,,,
341.5039998,1334,0,61.09675486,27.9908254,0,29.30313785,16.67171903,60.3403243,35.45146321,33.35016378,23.59415111,-138.1498091,0,-124.3290682,64.7061434,-80.91608647,77.54587804,,,,
341.5119998,1334,0,34.89007616,32.60274527,0,7.170683629,-49.37151674,37.81788718,7.510126196,12.61834306,-9.533975023,167.0630981,0,52.18334406,34.4109992,127.3264866,82.03694549,,,,
341.5199998,1334,0,76.9505438,-11.95729007,0,13.0667641,3.163863078,27.21748673,11.06075178,20.66693891,12.20701517,237.8015094,0,145.5353169,23.82906862,23.37121156,3.24753896,,,,
341.5279998,1334,0,41.05484707,58.23063775,0,29.26030365,-27.41807311,67.69053659,36.22798712,34.8125816,15.96136485,-167.3838223,0,-162.7592307,44.5398386,-17.79035345,141.3065156,,,,
341.5359998,1334,0,62.19938463,-7.917065236,0,1.990776799,-29.74252499,12.01878871,-8.035957979,7.979148708,-10.42608398,444.2525103,0,254.7868231,44.50796944,148.3748502,7.911485285,,,,
341.5439998,1334,0,79.22415395,39.75404542,0,51.15427133,16.97822969,71.16830928,33.95488014,48.89038943,34.49437982,-106.592255,0,-114.0141527,68.8129987,-82.28395073,83.48004299,,,,
341.5519998,1334,0,38.55460663,36.52132326,0,16.08137324,-44.79927157,43.64670735,7.732909649,23.20388655,4.599755854,168.8871883,0,42.02090556,31.88643714,115.6234653,80.88853803,,,,
341.5599998,1334,0,73.2936488,-16.20093417,0,15.38517667,12.07597173,31.75457279,12.05203415,16.23942118,14.78240126,229.3370637,0,131.2426565,41.78846688,8.564538427,-12.34762472,,,,
341.5679998,1334,0,41.55275667,56.36400179,0,33.22994303,-19.37587744,72.37163361,31.49049721,34.64088318,25.16416203,-188.8391324,0,-172.1280955,54.58965512,-30.68442376,123.7286278,,,,
341.5759998,1334,0,52.27449975,-16.55001339,0,-8.324448323,-24.34836217,4.343320888,-13.79443788,0.883710889,-7.004685172,413.2954543,0,248.8853744,28.34800527,131.1655307,-12.96336676,,,,
341.5839998,1334,0,59.43592698,21.85198771,0,28.45742729,24.18614533,53.42573567,37.59522106,25.64516541,18.19223123,-131.2022051,0,-108.9280948,78.14828107,-103.147888,63.81406311,,,,
341.5919998,1334,0,33.97774517,35.13021442,0,5.393243759,-34.3185992,35.02962352,14.08051236,11.35274772,-5.761192342,160.695791,0,67.12426059,42.98038983,107.8568323,79.35121499,,,,
341.5999998,1334,0,87.0493794,-1.587633881,0,22.57823235,23.5457394,37.13295903,14.70725408,24.87373705,16.3512227,229.0329349,0,152.2545139,30.01710702,3.755047554,-16.90566559,,,,
341.6079998,1334,0,43.56212593,61.76906825,0,38.42066523,-10.91164903,82.15392859,43.8951123,43.59054011,22.50243486,-196.4112757,0,-176.8771334,76.0427019,-36.35437228,115.3566063,,,,
341.6159998,1334,0,55.93313675,-9.761706745,0,-1.960805254,-17.39265393,18.55384487,-2.515987619,6.018272177,-12.22798652,427.997958,0,265.7687378,43.26929819,151.2420987,-3.588703557,,,,
341.6239998,1334,0,81.36196912,45.7592245,0,49.01042088,35.38556128,80.52570211,33.96419085,45.39834495,27.10593794,-118.930366,0,-94.02051848,38.40403948,-82.24994268,67.12353027,,,,
341.6319998,1334,0,36.70840175,49.54741605,0,17.19747604,-28.33199543,57.0747933,15.40368501,29.15347825,3.029302345,158.11507,0,47.56643572,32.95311377,120.5339632,72.31134706,,,,
341.6399998,1334,0,74.39243165,-2.911663921,0,23.97102222,25.22055207,40.73934864,20.11029328,22.00897965,10.28833873,250.3510176,0,160.3909161,45.22839815,32.30488446,-11.63694043,,,,
341.6479998,1334,0,51.37948751,76.94145266,0,50.54025596,1.107366851,90.59993532,39.70323162,45.60680906,24.16718323,-183.2965872,0,-159.3022582,46.78306171,-17.25007284,119.1605306,,,,
341.6559998,1334,0,59.34098312,5.458916337,0,3.286929376,-5.72594139,28.41557424,3.845728541,15.66866088,0.623380303,430.6896564,0,262.4206403,16.03294711,159.6079347,-7.900936091,,,,
341.6639998,1334,0,67.66235362,39.94745517,0,44.58660407,35.63225403,76.09975989,53.29023181,41.45620512,33.10291988,-106.6178572,0,-76.2789895,47.05129937,-62.26294519,73.43440142,,,,
341.6719998,1334,0,35.37988394,47.4069409,0,18.0570989,-32.00849828,51.05992004,14.62888478,24.62168416,7.298239528,160.3471463,0,76.21973235,38.5473213,133.6893176,73.83070581,,,,
341.6799998,1334,0,76.15402481,0.910949111,0,16.57310927,24.58573846,34.790819,6.922464628,25.29890604,20.98926652,239.4906275,0,168.3469087,39.6158135,28.43357394,-30.77448521,,,,
341.6879998,1334,0,41.86799744,72.50936785,0,40.86607464,3.368448992,79.75152724,37.26296124,42.34681447,31.63391438,-202.6460712,0,-160.9988005,62.08137235,-21.26008153,104.6972449,,,,
341.6959998,1334,0,56.45639445,-2.621396631,0,7.889309297,-7.012396469,17.82077868,-8.545758886,9.816728987,4.447922662,412.1709854,0,262.0643568,33.44375051,153.3267859,-21.58222895,,,,
341.7039998,1334,0,69.38994102,36.5319047,0,50.51850075,34.94781821,71.2189391,29.39551989,43.1876839,42.78236021,-139.1484356,0,-99.07273115,49.79666917,-87.1753855,43.77998819,,,,
341.7119998,1334,0,21.95829278,42.51876849,0,13.87995566,-26.64427279,56.39877668,10.3473908,23.69836728,8.940850411,120.8634471,0,37.78877701,49.48198458,108.0015377,53.09838797,,,,
341.7199998,1334,0,57.61660794,-9.981491771,0,12.81994713,27.33546719,45.71306724,19.0934851,10.42366927,4.60217524,226.4690781,0,161.9353838,34.2066662,24.84898417,-28.68726463,,,,
341.7279998,1334,0,28.77093943,65.20177845,0,41.26262684,0.993457657,88.07079824,40.07624676,32.04018708,16.60247265,-213.5255697,0,-151.305215,36.43377412,-20.62342906,107.5176659,,,,
341.7359998,1334,0,36.01061276,-11.56500298,0,-4.158245342,-3.182586197,26.90731197,-3.527449321,3.656758864,-13.97097636,403.2100616,0,270.5032505,35.31521007,149.3344305,-29.51122327,,,,
341.7439998,1334,0,51.27749936,23.32665316,0,33.75722537,43.86320852,76.86492055,41.69732081,23.14655828,14.82965363,-132.0888075,0,-64.08642825,68.8909152,-82.34174134,40.75651578,,,,
341.7519998,1334,0,17.19335927,34.69495643,0,11.13899904,-24.05981199,45.28399724,1.337015619,12.15354347,-1.912326263,120.9736107,0,73.5573509,29.38800047,109.6088083,44.57233438,,,,
341.7599998,1335,0,53.50447903,-18.49602388,0,9.873752641,31.23534888,28.17870239,6.653499745,13.11378759,6.675735489,215.5626038,0,168.6237756,7.88913463,8.690770599,-58.51684669,,,,
341.7679998,1335,0,31.4689797,62.74966609,0,37.59405347,4.955837762,77.48308672,39.40274155,32.65646712,16.49859567,-223.4841293,0,-148.0990723,42.67912442,-34.48819394,81.77962794,,,,
341.7759998,1335,0,50.04417108,2.724028653,0,8.787242011,-9.673948749,20.29827606,-18.55285988,17.37021528,-0.458282462,400.5962609,0,258.8504003,20.2188297,139.3481671,-59.64044293,,,,
341.7839998,1335,0,58.91596506,38.44408291,0,47.78814615,40.94667437,80.00621758,33.3132313,43.9823718,31.18437533,-145.8250808,0,-117.5064631,36.54069973,-100.0316515,-2.593518539,,,,
341.7919998,1335,0,22.20390222,47.71519192,0,17.20755847,-17.24083299,59.51792881,13.34847459,20.20356582,0.959701064,105.4843374,0,26.9087787,22.85597039,110.9125267,23.19041607,,,,
341.7999998,1335,0,64.53428352,-0.118394872,0,19.00417306,36.32559193,38.39680634,5.027450404,26.08758695,11.75186959,212.0184156,0,136.921181,23.1276619,20.74207198,-71.18256077,,,,
341.8079998,1335,0,30.16168411,72.28333707,0,37.44773474,8.923060404,80.51309225,36.95458059,46.28549094,15.66737831,-235.824143,0,-194.0277275,60.11031256,-28.81289815,70.73656941,,,,
341.8159998,1335,0,40.87749402,0.670434887,0,-4.734476068,-6.48436011,18.58282998,-11.50305252,17.86304832,-15.55144994,400.5005594,0,250.6142809,12.90796759,162.9328851,-46.40800107,,,,
341.8239998,1335,0,63.46581483,41.60287747,0,40.12897106,41.72115632,73.71081176,25.80067168,58.0048225,22.63835553,-141.9264113,0,-101.1469443,17.63429352,-81.21663774,9.839098741,,,,
341.8319998,1335,0,25.31616284,49.98233799,0,12.94783617,-14.4782506,56.01370717,6.477152725,49.5473929,-2.211624813,101.4250392,0,19.97103921,17.50314453,112.9306229,21.98204402,,,,
341.8399998,1335,0,60.06498673,-7.533310677,0,10.92037827,37.41459418,40.00260259,5.198660717,44.05062154,2.263862686,222.6639088,0,139.4234742,11.036762,29.44268505,-75.48437174,,,,
341.8479998,1335,0,31.88225925,70.24619937,0,36.48370613,13.04454225,87.53508291,37.96383911,61.03907494,15.40165096,-242.5068408,0,-198.9948882,37.81218189,-29.10765199,57.74176577,,,,
341.8559998,1335,0,37.13116916,-0.629315655,0,-7.206741604,0.604249791,23.26968536,-0.96563868,34.54087684,-11.00132904,387.920428,0,234.0885389,4.527215857,162.3116132,-59.26590133,,,,
341.8639998,1335,0,56.02902549,35.7352082,0,35.61837816,42.16322384,75.2983473,36.05201111,63.76545316,16.39766914,-137.7035721,0,-93.24759202,16.45879764,-65.2656719,9.580064977,,,,
341.8719998,1335,0,24.93192321,52.86552876,0,20.6432847,-14.64733953,61.75622253,11.49725268,52.59021271,-0.592133754,98.68202111,0,29.68385498,29.96603908,126.1332911,25.61702438,,,,
341.8799998,1335,0,58.65277196,-2.555680392,0,16.67401656,32.92128008,39.23354206,7.336064178,50.45080485,9.80233674,220.2331781,0,143.1200041,29.41950954,33.27270076,-75.54587454,,,,
341.8879998,1335,0,32.97347479,76.18449014,0,40.93839195,2.853213213,88.57387902,37.34274925,69.4024832,17.0909666,-252.1407902,0,-197.4688557,29.78588859,-33.5118739,57.13428976,,,,
341.8959998,1335,0,45.0583366,9.667559789,0,6.884202838,-2.040281999,31.21191218,-0.782854433,44.12135304,-5.657345976,376.937276,0,228.0176153,21.28903191,154.3642699,-63.58560829,,,,
341.9039998,1335,0,60.92590444,39.09207972,0,42.07209139,41.77906354,72.43618934,33.21967333,70.68210314,24.06341714,-145.0716091,0,-111.5504168,52.26584004,-77.86101204,-2.139686608,,,,
341.9119998,1335,0,21.2985594,51.35895946,0,17.65966689,-16.90873524,59.47676613,9.652757247,53.25091945,-1.285800629,80.6558611,0,-3.624527993,32.93985989,108.6225189,10.03399414,,,,
341.9199998,1335,0,57.17566834,-3.113199458,0,16.30007186,41.08605507,44.02741271,14.55545409,49.2297727,2.772640683,218.3188794,0,123.6019087,30.88501358,32.73063596,-82.78488212,,,,
341.9279998,1335,0,31.68206668,69.83269327,0,34.0501807,9.659279053,80.10948431,42.78227811,73.50877958,13.07512033,-244.6167403,0,-204.94928,33.3648815,-19.31339765,60.05823172,,,,
341.9359998,1335,0,35.69039347,2.546363642,0,-4.076674202,-7.848921561,16.90826902,-5.98502935,46.05777128,-13.16473974,381.8986551,0,219.9078611,15.26297951,164.5048038,-68.70618623,,,,
341.9439998,1335,0,50.13573291,39.33567516,0,38.6924556,39.70867146,69.42338826,32.99186558,67.48680051,11.44154423,-132.9226137,0,-109.7831359,50.41006286,-69.87311298,-5.856422288,,,,
341.9519998,1335,0,8.433950238,47.67349022,0,12.78700199,-19.99437371,54.55157964,16.6187205,49.66951008,-13.82016913,94.95802034,0,16.10233498,38.70099732,121.207503,18.72382044,,,,
341.9599998,1335,0,42.85733058,-13.22621666,0,6.234247268,30.54469654,29.98343418,12.1648345,42.11994649,-13.0495181,235.8830779,0,166.5135995,26.40002868,41.53638728,-80.58659332,,,,
341.9679998,1335,0,18.99922131,63.01612444,0,30.59560017,1.360571286,69.62520351,31.22478783,60.88038741,-4.761259416,-243.9903047,0,-162.732267,26.1781584,-24.82312819,55.32757079,,,,
341.9759998,1335,0,25.53176416,-2.22670004,0,2.443566393,-15.56396581,11.7509417,-18.48803385,35.67007486,-24.65209419,367.7112388,0,252.2837164,7.679455203,151.3177539,-79.12920659,,,,
341.9839998,1335,0,45.26124312,34.83559452,0,43.6620807,28.500262,56.90409383,17.18547119,63.17368075,9.477990147,-152.455235,0,-85.37964986,20.84784868,-89.02170896,-29.11620474,,,,
341.9919998,1335,0,8.966943054,49.76277243,0,11.0430976,-31.94755296,36.32312307,-8.818017616,45.41001811,-13.20689667,65.65525132,0,20.85857309,11.78120989,100.2196427,-11.25631206,,,,
341.9999998,1335,0,42.42782664,-9.12990101,0,6.681630714,25.73798648,21.98950219,-5.160483085,42.7337849,-10.35329534,212.7808255,0,150.9685532,17.06582248,22.09262757,-115.2078682,,,,
342.0079998,1335,0,20.64248868,61.69099744,0,27.48702357,-2.183186656,63.11797456,26.08876672,65.51698363,-6.410658103,-258.7804078,0,-182.968807,21.26028398,-41.38533446,26.07006445,,,,
342.0159998,1336,0,39.92102028,-3.839923647,0,-11.02824495,-17.47526985,3.468963873,-27.89206619,39.3593447,-22.81660283,376.7690144,0,247.3969971,17.9733484,149.1968761,-95.14841678,,,,
342.0239998,1336,0,53.51624242,32.42696073,0,34.46324426,37.71107215,60.95246652,20.61617734,68.31441841,21.44943117,-128.3693594,0,-87.27187795,46.86314997,-85.92171795,-36.5271591,,,,
342.0319998,1336,0,6.945932545,47.86432221,0,6.596087929,-28.73004932,37.95728391,6.382250795,45.99916684,-19.38392751,84.37127642,0,33.22931879,14.16520297,110.2773456,-5.569688641,,,,
342.0399998,1336,0,49.18969832,-7.501028018,0,5.570935978,23.22528887,17.10461914,-2.51812018,43.56175614,-17.95369112,240.697213,0,188.8004605,10.27566867,43.51028258,-101.271063,,,,
342.0479998,1336,0,31.25189914,67.69905733,0,38.34512231,2.316916815,64.42043605,21.09644113,68.69589771,3.841835961,-249.6956656,0,-167.5250537,31.00941606,-31.28110503,34.75614177,,,,
342.0559998,1336,0,46.83462854,6.506613871,0,-3.336912888,-18.82697624,0.762061063,-32.73083019,44.33176181,-16.76990366,355.705526,0,226.3905115,9.794788926,145.6563118,-99.69293984,,,,
342.0639998,1336,0,56.0034156,34.15012204,0,28.33284714,29.51823187,49.72384178,12.95594226,75.6880199,21.76101446,-149.845419,0,-117.5756998,31.82682105,-88.52767152,-43.45933229,,,,
342.0719998,1336,0,15.79219465,44.24712286,0,4.025151408,-34.60511724,29.62431201,-5.538899849,49.89647078,-15.31173828,68.3508807,0,5.430665185,23.92011511,111.8080501,-6.302984286,,,,
342.0799998,1336,0,57.77257445,-9.88806806,0,4.434946803,19.1767206,13.7434597,-11.697759,47.8003517,-5.987559491,222.2723279,0,150.9146241,21.99183647,37.59147264,-114.6863,,,,
342.0879998,1336,0,20.69587617,56.84516727,0,25.070254,-4.004993138,60.06203081,19.51406547,64.49930437,9.130853771,-274.8818745,0,-210.1718043,26.50755601,-40.26320228,16.89219006,,,,
342.0959998,1336,0,33.80097314,-5.983050527,0,-15.96201111,-24.9226809,-3.187811347,-29.13648342,31.15638524,-26.48583529,344.7219826,0,214.9796781,1.124038942,150.3710511,-104.6764329,,,,
342.1039998,1336,0,48.36835258,29.77520148,0,24.29199293,27.80010652,47.08688463,19.8472628,67.07598018,10.48536152,-157.6361962,0,-115.0114357,22.75537237,-83.07941181,-49.14419795,,,,
342.1119998,1336,0,-1.626228239,40.20140697,0,-0.703758621,-40.51742852,19.2745019,-2.124992716,41.51477224,-26.57932624,43.86045122,0,-6.639784738,16.50181198,112.8628416,-18.97790407,,,,
342.1199998,1336,0,43.984665,-11.80218119,0,-5.264896837,11.42405583,-3.909041377,-14.609247,40.22296754,-20.9470523,206.6639863,0,142.7939709,5.067406273,40.29283909,-126.9389966,,,,
342.1279998,1336,0,22.34990563,65.29405233,0,17.87355299,-3.157385668,50.74816505,16.72858416,67.99383702,-0.547227072,-284.3701992,0,-216.5898219,7.717539849,-40.80567232,10.63168271,,,,
342.1359998,1336,0,25.93216666,-3.439076034,0,-22.22623892,-24.37671622,-8.193334716,-29.38014668,35.34422245,-33.1494653,344.2341953,0,215.861245,8.281723914,157.1927986,-107.2545802,,,,
342.1439998,1336,0,46.70812619,32.51188224,0,19.0954898,25.92409066,40.48566137,15.30854952,67.64743195,3.325480796,-152.6354937,0,-103.9328292,32.44888073,-79.26267376,-53.36621506,,,,
342.1519998,1336,0,15.99653544,55.9051466,0,0.561306256,-36.36871764,22.47498499,-7.041117934,54.83991584,-18.65692227,42.81405273,0,-4.419827063,12.75442015,106.7969826,-22.09143177,,,,
342.1599998,1336,0,48.94868632,-6.593232767,0,-5.556383865,13.44991317,0.656404641,-13.13206253,52.52282472,-9.399260434,218.883477,0,153.9021341,14.16347223,44.8879127,-126.764254,,,,
342.1679998,1336,0,22.24826234,66.62482266,0,20.96081571,-1.687289134,51.244212,18.44111582,71.81880478,4.955496126,-282.9251663,0,-206.361427,23.22454572,-38.88988873,7.574326277,,,,
342.1759998,1336,0,29.19000842,5.903940784,0,-13.64536522,-16.83453415,-7.595243319,-31.65119974,41.7038005,-22.87312196,338.1007523,0,214.4031436,-4.713582374,157.0313268,-113.4127594,,,,
342.1839998,1336,0,40.45531413,30.99319045,0,21.47280307,30.16243467,36.68841397,14.67941093,64.22400888,7.91824302,-151.1663479,0,-98.82497565,14.39375247,-65.10288601,-53.8733444,,,,
342.1919998,1336,0,2.453947904,42.6222667,0,-5.130711138,-31.91613122,17.0130016,-3.717521306,40.41409582,-23.43126239,29.96842171,0,-1.151872468,15.13557101,119.0756399,-22.89025977,,,,
342.1999998,1336,0,33.7110027,-18.77206049,0,-10.62302016,24.25334625,-2.59287821,-10.23901453,38.14304238,-17.25712164,202.3400721,0,151.6482578,10.42304005,45.46388699,-132.797872,,,,
342.2079998,1336,0,4.949991526,55.35842764,0,14.8506808,1.242304922,47.74480879,30.06254749,57.00690151,-6.544623478,-298.0287731,0,-204.44644,21.56521516,-35.4641986,16.84918707,,,,
342.2159998,1336,0,17.82668998,-5.372225915,0,-23.01364738,-26.23508383,-11.56108509,-20.56451204,29.24600232,-32.04156916,327.8026051,0,231.7492552,-2.678303932,163.1876405,-98.12167696,,,,
342.2239998,1336,0,34.99876686,29.05579837,0,24.53542373,25.05576718,42.94331401,10.72986245,65.43146297,4.827209153,-169.0885502,0,-95.09823382,-2.742317693,-81.31834454,-61.0065124,,,,
342.2319998,1336,0,-10.46037749,45.12746884,0,2.024825257,-36.04643636,30.31066033,-3.555259542,46.18736852,-31.23429196,7.509567803,0,-16.23123968,4.117967854,99.97549124,-33.36032035,,,,
342.2399998,1336,0,24.69608414,-22.46147249,0,-10.62765456,11.74120936,3.846372685,-9.441072164,33.4851067,-30.7904525,207.4655625,0,164.5372934,8.562325112,48.94249063,-138.1203868,,,,
342.2479998,1336,0,4.414471502,54.83231391,0,20.99350929,-4.143159723,55.75916674,16.24140191,58.01468554,-10.23312598,-300.6105505,0,-198.5759657,-2.717301334,-35.82564875,-4.368070122,,,,
342.2559998,1336,0,1.40567275,-6.511035898,0,-21.44325346,-22.79193742,-4.093580606,-27.12127036,33.0413954,-41.41553553,316.8432179,0,215.4733016,-19.04324904,166.4909929,-123.9775888,,,,
342.2639998,1336,0,4.816938748,20.68539574,0,12.4659829,25.33477453,35.47583306,16.3658919,47.17357972,-30.32381661,-158.6846551,0,-77.48168894,8.835619121,-52.48221439,-68.80461787,,,,
342.2719998,1337,0,-23.7615376,50.5617925,0,-1.044595519,-31.26307409,23.00628401,-5.435692091,27.68733498,-54.75354369,7.37767994,0,10.32288114,-1.786863029,126.6670022,-37.17631847,,,,
342.2799998,1337,0,13.29876927,-8.444271423,0,-8.950771972,24.58142452,7.292762859,-4.57329652,31.44006182,-31.29037943,196.482965,0,165.8320011,-6.32711086,60.63775893,-147.6576151,,,,
342.2879998,1337,0,-20.74446257,57.70119551,0,13.05212897,0.672826152,55.96076571,32.77286718,43.40734546,-30.27590885,-300.0142229,0,-184.1794352,9.083486396,-21.02564982,-0.600278614,,,,
342.2959998,1337,0,1.270523208,-2.488918153,0,-22.78128832,-26.99708724,-8.13691203,-26.18628134,18.41200423,-56.37063137,329.9088468,0,248.2184076,-1.501609468,177.3646339,-116.3122946,,,,
342.3039998,1337,0,25.04171403,30.23927712,0,18.46568409,22.98067276,37.481642,4.085724025,62.78159739,-4.613889356,-158.8746053,0,-80.48865731,13.75559981,-68.54728714,-78.14331053,,,,
342.3119998,1337,0,-15.51234103,55.7363326,0,-0.08984843,-36.86342114,29.77526746,-12.36288659,43.21853563,-36.75965622,-6.936009597,0,-15.21562487,5.696223788,104.8682179,-46.83785458,,,,
342.3199998,1337,0,24.46086551,-9.722375614,0,-9.324218087,13.67281064,8.663901431,-13.80450465,36.01899999,-29.66795239,198.0767654,0,159.3972612,11.73662347,53.9041585,-146.8490747,,,,
342.3279998,1337,0,-12.8367333,45.35820959,0,7.082398187,-8.716863667,49.07598278,17.19830935,53.56773203,-11.75583596,-317.0251642,0,-211.1178676,4.333315055,-38.70569956,-6.742652437,,,,
342.3359998,1337,0,-17.37964208,-28.77851053,0,-42.10943391,-31.07796478,-15.21882491,-29.90873089,10.66385986,-51.10860432,294.9439097,0,214.8103105,-20.68308243,154.4997068,-127.2991164,,,,
342.3439998,1337,0,1.703621175,-2.334052141,0,-5.311147854,22.29284789,30.82533799,13.63560064,36.05348636,-27.85703994,-172.3674,0,-70.70574671,22.52016222,-76.63589156,-70.77078097,,,,
342.3519998,1337,0,-37.12532413,22.56729603,0,-23.63224054,-41.84534628,16.10576026,-6.515801308,20.64112089,-56.88820516,-12.72734945,0,12.15493198,17.47483179,96.15515071,-29.58523756,,,,
342.3599998,1337,0,1.392056736,-31.67995709,0,-24.35863834,9.651343696,1.97771358,-12.12914308,15.60346001,-43.81577134,191.4526414,0,193.0081542,10.93030635,35.63262643,-142.7828825,,,,
342.3679998,1337,0,-14.9560087,48.23092636,0,10.36642648,-4.275759442,54.7522828,20.97539998,41.14958073,-26.06997357,-319.3204139,0,-159.0447192,8.624017621,-48.48902617,4.210474814,,,,
342.3759998,1337,0,-9.066883458,-17.16791978,0,-35.33175462,-22.50875156,-14.97103411,-29.52350121,15.20148729,-54.30180894,295.2505178,0,257.8485794,-15.58874516,150.8140602,-113.6473647,,,,
342.3839998,1337,0,5.988729448,9.068381323,0,0.733001599,37.81871956,36.13250766,17.75550204,43.76086169,-20.75034026,-180.5037673,0,-54.81040199,33.94310873,-89.55950114,-74.27466633,,,,
342.3919998,1337,0,-22.0862334,43.75620116,0,-11.24105682,-20.52936532,25.74414536,3.736934532,30.02481314,-45.1959211,-11.24420717,0,41.41926373,33.94070357,102.3948128,-19.22008767,,,,
342.3999998,1337,0,13.90320129,-16.87262937,0,-20.13368302,23.2870562,-7.289189351,-13.38192638,32.77934663,-30.92610548,203.5065997,0,222.1174301,10.21639685,48.33135299,-128.5827038,,,,
342.4079998,1337,0,-24.70174435,52.54238105,0,6.229496496,-1.896333118,42.64964318,12.30281366,51.22027134,-23.53548977,-331.6235244,0,-175.7329129,18.07608367,-59.68486656,-2.613146425,,,,
342.4159998,1337,0,-26.24220245,-10.70234878,0,-31.56292002,-26.18496084,-15.50451832,-32.2856252,11.78858797,-62.26111046,292.1649294,0,249.627444,8.374230312,159.3240225,-114.1149923,,,,
342.4239998,1337,0,-16.92043916,8.428476125,0,8.673533066,27.05341582,36.11870678,12.29250578,36.69672797,-28.47583159,-177.4122446,0,-48.19349993,25.92738301,-69.92389861,-68.30804202,,,,
342.4319998,1337,0,-52.74600212,37.806467,0,-2.161020198,-38.07095156,33.52725797,-15.47000562,21.54060628,-57.27810171,-41.03854142,0,10.7455802,9.774792009,95.17534165,-35.13611294,,,,
342.4399998,1337,0,-10.69123598,-20.12671698,0,-10.49065636,13.23861639,9.788447998,-24.93825805,17.29043066,-52.20054712,177.5997415,0,188.7271906,4.603789676,49.92280812,-154.5665275,,,,
342.4479998,1337,0,-35.7856268,57.86958919,0,14.50511531,3.502910933,61.8286866,25.55458343,38.21695509,-38.04222966,-347.6434887,0,-191.7407106,19.69722441,-41.62782348,-13.60143935,,,,
342.4559998,1337,0,-17.85566916,8.004713259,0,-20.03714711,-15.36258602,6.031158288,-22.9090228,16.23100666,-58.2896058,282.6812548,0,235.9155288,5.686051772,170.6739284,-117.7078889,,,,
342.4639998,1337,0,-5.206797019,18.13729248,0,11.50793916,36.83547168,44.40407359,9.592276631,47.48319508,-20.76555599,-175.601708,0,-63.1398505,31.58405474,-59.15340933,-73.66902909,,,,
342.4719998,1337,0,-49.09915602,34.53164789,0,-14.75303193,-30.4211309,28.75521453,-7.00899555,21.61091222,-63.94498556,-31.61183222,0,8.14703521,17.12079198,118.2273771,-31.05440475,,,,
342.4799998,1337,0,-0.608074671,-17.61764967,0,-19.45910218,22.48499039,10.02166967,-15.81504981,19.34563498,-52.33972484,209.8686996,0,218.9838645,5.389650255,77.58433968,-136.1007261,,,,
342.4879998,1337,0,-33.79313581,50.95225562,0,11.4404911,11.46480293,60.29743459,14.64168883,45.24229326,-24.42617985,-328.6216258,0,-168.8211636,21.77883442,-34.57605513,2.752709349,,,,
342.4959998,1337,0,-33.04454834,-14.6635413,0,-27.04177745,-19.37281189,-2.007750154,-36.15070553,2.769713417,-70.56632258,286.2445012,0,242.7724023,0.287282006,164.9526221,-113.5394349,,,,
342.5039998,1337,0,-7.879224263,9.560311525,0,8.286332207,35.74615596,46.41626294,15.05305368,30.86757751,-38.84691972,-160.4368735,0,-46.32037685,30.71118357,-61.93925812,-64.62596452,,,,
342.5119998,1337,0,-40.46333186,40.26477952,0,-15.3660823,-23.08188319,30.8684583,0.008183135,24.63493557,-51.95279468,-17.78236237,0,20.31941932,25.1352657,115.7837843,-11.30043682,,,,
342.5199998,1337,0,1.379786721,-14.83586384,0,-17.48017599,18.91881771,1.335183753,-19.75810763,21.00478326,-40.97961978,221.1929862,0,220.4352758,4.813691282,72.71027261,-128.3892182,,,,
342.5279998,1338,0,-31.8393193,58.03856508,0,21.59477885,6.819979187,61.52823565,20.53853132,47.17078097,-19.82542343,-332.2907365,0,-193.1799701,40.04576432,-46.39939641,-0.583727471,,,,
342.5359998,1338,0,-36.5829981,-10.25053934,0,-23.68555026,-14.39050088,2.6121257,-14.55109596,6.966874666,-58.35200722,284.3081939,0,210.64424,40.69819334,163.8249562,-105.4059909,,,,
342.5439998,1338,0,-23.08727428,6.153689328,0,4.749331607,32.92162315,46.16535015,32.00880441,17.97393338,-32.25864848,-147.9640068,0,-44.84970129,47.34897883,-45.91872065,-47.80446229,,,,
342.5519998,1338,0,-58.19810677,44.60450457,0,-10.35897895,-31.67547466,34.09736446,4.715220063,6.51483275,-53.52746318,-5.775406819,0,37.9866908,27.05424502,130.2916959,3.572584506,,,,
342.5599998,1338,0,-11.70559131,-6.832744885,0,-11.45705499,18.41984058,0.448097416,-19.52852871,11.63869331,-44.52901028,238.8504742,0,233.7951791,15.03548196,80.51294022,-115.7103997,,,,
342.5679998,1338,0,-37.18138244,64.26325568,0,23.18181198,6.430119253,59.37668828,15.88290729,38.75068336,-25.01748619,-325.9789045,0,-179.7706552,31.38725142,-39.27719681,12.74492941,,,,
342.5759998,1338,0,-36.09531816,-1.678024252,0,-15.28656131,-17.25940087,2.479071433,-35.07403362,6.714746546,-58.64214932,280.9366548,0,221.6746254,24.67961315,170.4898015,-100.3145995,,,,
342.5839998,1338,0,-20.46154796,10.77440404,0,14.75339706,34.39829499,44.79119424,2.97726176,32.94649241,-24.24109916,-167.6410547,0,-76.64595106,37.46897259,-61.1070417,-63.44396257,,,,
342.5919998,1338,0,-62.20999869,36.08581443,0,-11.14050269,-35.40314719,39.42140202,-10.60630353,10.99857578,-53.0772841,-52.42165134,0,-39.13838787,6.364985307,99.448987,-14.50707251,,,,
342.5999998,1338,0,-24.36804924,-20.36090495,0,-16.42509517,5.420376134,14.38728082,-22.03880729,-3.372342987,-54.95265803,202.6574844,0,170.2757889,9.075685668,61.35233978,-119.2045975,,,,
342.6079998,1338,0,-43.36668497,63.0811868,0,22.70785939,-6.692537167,75.32635803,19.4382942,30.19448973,-24.58979533,-342.3088492,0,-224.4493148,32.88733549,-47.78520332,27.79997109,,,,
342.6159998,1338,0,-27.97861794,7.854572532,0,-15.89512648,-29.41399638,20.14055753,-27.95164265,5.191595551,-44.53107258,285.1707467,0,187.2109186,4.119752308,166.9894991,-68.16816665,,,,
342.6239998,1338,0,-8.493637975,27.16394965,0,15.49489853,24.82767409,65.87577724,9.707783584,26.76174124,-7.084480368,-147.0002432,0,-94.03815812,24.1337252,-64.38330563,-25.51641257,,,,
342.6319998,1338,0,-55.21874407,54.8780041,0,-5.865126753,-45.86837363,53.93448622,-5.209223087,2.746407488,-36.30489259,-17.88985212,0,-38.12919682,29.60818656,109.715499,38.6871887,,,,
342.6399998,1338,0,-10.17545713,-6.830924109,0,-12.92208044,-9.242420185,19.00127323,-30.95906455,-3.826650051,-31.88019765,254.3743616,0,186.2464217,22.07406435,77.5000683,-61.60095052,,,,
342.6479998,1338,0,-24.02433637,75.19114702,0,24.22483981,-17.93980999,82.19326858,-1.268938044,35.80784778,2.88162936,-300.6774656,0,-222.6661819,13.37371384,-51.40371729,71.42900735,,,,
342.6559998,1338,0,-28.53396518,9.402564131,0,-22.44482147,-44.32885719,24.1969373,-43.62488409,-5.195675238,-34.71953101,324.0811073,0,181.1108596,-0.850444058,165.0468905,-23.67273201,,,,
342.6639998,1338,0,-10.5158243,19.26684665,0,8.604609487,5.771886997,62.06232484,-4.18817986,11.21834119,-8.302248492,-109.1138573,0,-88.24561882,14.7851078,-64.26886482,18.59028788,,,,
342.6719998,1338,0,-41.69323453,54.33461516,0,0.835524484,-55.12691452,56.07090746,-17.71459054,5.220762853,-28.33197234,-5.006537885,0,-48.13091786,12.43354817,90.34099384,70.0369004,,,,
342.6799998,1338,0,-7.974064577,-12.26999574,0,-12.9470095,-11.33719461,24.39535585,-33.18232462,-1.607672682,-27.08995993,259.9333851,0,151.6364389,24.68327999,50.27799697,-44.2214624,,,,
342.6879998,1338,0,-34.69149505,56.7822405,0,11.10885012,-17.16813566,78.28037959,10.52465061,18.29779624,-8.514664448,-295.2150368,0,-245.2462584,17.59485512,-69.64037123,92.30811561,,,,
342.6959998,1338,0,-23.27804813,-0.648876954,0,-22.49703251,-39.63431296,15.75145435,-29.9168008,-24.17296885,-40.27337459,325.5811309,0,187.1995585,4.899730281,155.2976452,7.50455404,,,,
342.7039998,1338,0,6.62302659,21.49696651,0,19.27999087,14.68865251,53.51280719,-0.282416941,9.353688593,10.23881084,-113.1167191,0,-100.3998545,18.74775423,-86.8649724,35.43233253,,,,
342.7119998,1338,0,-41.6059377,52.64534207,0,-5.266080402,-50.39451359,42.0218153,-13.34554365,0.477331849,-15.57960897,-9.034089118,0,-76.58849551,11.012751,68.18518139,84.11496262,,,,
342.7199998,1338,0,0.702804596,-8.461721941,0,-19.02000933,-15.83667521,12.26812741,-31.04073258,-17.45855931,-25.6704124,277.5030229,0,165.950402,20.3212937,53.48720343,-15.51515886,,,,
342.7279998,1338,0,-14.25489427,66.06689778,0,17.36528339,-18.8875857,76.15072675,7.390729722,17.39208522,15.45419691,-289.8647097,0,-247.3756557,13.2697487,-78.14837705,104.3344643,,,,
342.7359998,1338,0,-33.02772478,-6.968208453,0,-31.73704249,-44.52497843,16.1276515,-23.04425623,-21.55971008,-25.12610821,324.472241,0,158.0083369,20.41460185,142.8728797,10.44941209,,,,
342.7439998,1338,0,0.50433631,12.203808,0,6.425571475,-3.635928947,55.44672416,6.074554903,-7.723617414,-7.33552021,-81.50812976,0,-65.78645259,46.14298383,-65.34388885,61.08915363,,,,
342.7519998,1338,0,-23.6090261,56.03282582,0,3.294653316,-63.82223697,50.00882359,-17.22923068,-2.194866965,-8.330551829,-1.110595779,0,-43.64691086,5.67409134,77.0578383,98.99270259,,,,
342.7599998,1338,0,7.603514899,-0.799922867,0,0.869622902,-16.33570571,21.21065669,-28.74197639,-1.130904649,-2.03949333,262.9463449,0,148.99649,-3.44404485,36.81952894,-20.68293292,,,,
342.7679998,1338,0,-10.30760289,75.38579655,0,33.2296866,-27.7287139,79.03828223,8.327356983,19.14335726,12.11858238,-287.4715674,0,-251.2838299,5.732748529,-81.33664616,116.0450513,,,,
342.7759998,1338,0,-20.96593463,3.324404414,0,-23.58107368,-62.19712045,10.34324327,-35.46292013,-16.11648601,-23.37002737,314.6875912,0,141.2915702,-2.981240552,135.5494966,18.39410911,,,,
342.7839998,1339,0,2.048315083,11.59076308,0,5.189257495,-18.05268914,40.79424886,-3.12692188,0.355073371,-2.641742721,-97.5181359,0,-111.9881678,29.35278105,-84.55236398,56.20272182,,,,
342.7919998,1339,0,-32.52982374,43.48819365,0,-9.897979091,-80.71357876,33.54973469,-15.8245993,-13.92838987,-20.15382553,-11.28533548,0,-80.51950655,7.632990153,68.3094213,108.9441221,,,,
342.7999998,1339,0,2.498879387,-16.13082923,0,-18.92219696,-35.03556479,3.537648473,-27.67102083,-15.72197,-13.90997173,266.6065492,0,142.1944924,-5.94016108,39.31059648,-0.322637329,,,,
342.8079998,1339,0,-3.878976103,66.94862453,0,20.32413053,-43.23577188,59.69389639,-0.891612634,9.263849913,1.247875711,-275.9738014,0,-232.2660923,17.1886333,-79.00191656,138.052211,,,,
342.8159998,1339,0,-9.13308465,5.903072852,0,-21.97549151,-66.768642,1.955842074,-48.47010129,-22.02295171,-23.27072543,304.6782016,0,147.0902608,-15.83268076,126.0720446,31.59273837,,,,
342.8239998,1339,0,11.83037815,20.75771955,0,16.28533427,-6.996441562,44.71227478,-3.302524319,2.267089686,7.086071122,-107.7187259,0,-119.7090414,2.761387252,-93.47994088,67.15381284,,,,
342.8319998,1339,0,-17.87445036,59.21194968,0,3.566188126,-63.46778851,41.16755741,-9.649306377,-5.93933307,-13.84689554,-16.60901254,0,-87.57783526,10.11409438,70.66439044,129.9666291,,,,
342.8399998,1339,0,7.676036029,-12.39749877,0,-9.840707861,-18.80474003,6.774308621,-27.13095148,-10.81194788,-8.829141537,257.6023259,0,128.1795406,-10.92349937,44.90718744,13.27991598,,,,
342.8479998,1339,0,-14.40696419,57.58103699,0,29.53827703,-25.68440941,62.28989916,9.674110762,8.786455568,0.571030365,-290.3077399,0,-252.7864744,17.29786868,-73.71196804,142.4431097,,,,
342.8559998,1339,0,-10.7682253,3.54061527,0,-16.48041887,-54.3974022,7.612530308,-32.46826725,-18.72184504,-27.32011631,296.1789571,0,137.7376398,-6.712402788,138.4971014,37.64575156,,,,
342.8639998,1339,0,8.650725673,9.281012109,0,8.850855906,-5.470883067,42.41320913,-7.530709458,4.697994761,2.559344082,-100.165189,0,-115.3070778,-19.86990801,-82.68396909,62.82078771,,,,
342.8719998,1339,0,-31.02276011,42.10287104,0,2.012288556,-61.52925228,35.89660226,-20.32034424,-10.75912573,-29.3303761,-33.80386372,0,-107.100533,-9.827062379,59.51099974,102.1529574,,,,
342.8799998,1339,0,1.597807652,-17.96814843,0,-8.35935637,-17.79163649,6.507206634,-29.35442145,-14.1089822,-26.70410494,238.6559236,0,100.0363005,-17.94800096,33.73128005,-18.89657227,,,,
342.8879998,1339,0,-23.35809189,47.36240628,0,17.13005739,-30.64235804,59.58947675,7.189222871,4.762734414,-11.23480871,-291.8072329,0,-268.2151668,3.861057023,-75.93684018,122.3163915,,,,
342.8959998,1339,0,-21.66474864,-3.09925226,0,-21.26207934,-55.62692004,2.838506444,-32.47313807,-29.92269566,-41.16234713,283.9343137,0,118.9250536,9.540410214,129.5910891,19.24328785,,,,
342.9039998,1339,0,8.784021645,15.60731742,0,14.91022724,-1.793130991,38.23436946,-2.24511813,-0.914151762,-5.536276673,-100.9061983,0,-127.3002468,5.585981053,-87.473706,50.6384387,,,,
342.9119998,1339,0,-30.03454245,37.11423781,0,-3.187618515,-62.12384951,24.98408983,-16.92806359,-16.81395509,-30.41794815,-27.82849144,0,-110.0482301,-0.401717754,62.8690775,99.90229375,,,,
342.9199998,1339,0,1.375630881,-28.77883177,0,-16.55360782,-18.11036231,-4.284391327,-22.48347449,-28.97173323,-25.30098683,242.8215223,0,105.6020513,-0.841469151,38.81714485,-22.96242747,,,,
342.9279998,1339,0,-23.19349182,42.68839324,0,12.5870357,-30.13249767,54.68008597,13.72160122,-4.947920054,-9.070994075,-290.1711977,0,-253.5143629,-3.658817098,-70.12774334,115.3792653,,,,
342.9359998,1339,0,-32.01703754,-19.55728634,0,-33.00234869,-64.02754946,-10.49039653,-38.42704819,-40.01622764,-51.47892153,273.3715696,0,134.6884379,-28.68989257,134.6473452,4.651342808,,,,
342.9439998,1339,0,-9.464008308,-3.265025084,0,6.221906456,-6.957562012,25.58797187,-4.825670933,-11.86367032,-20.77001262,-117.3199722,0,-120.2276732,-16.60517534,-91.62715072,27.17836842,,,,
342.9519998,1339,0,-49.00796786,33.93052462,0,-2.281785701,-57.9322441,28.23916692,-10.18117805,-18.58968442,-43.58286903,-50.20624458,0,-110.8842494,-7.72370485,56.38182996,84.34345475,,,,
342.9599998,1339,0,-24.5771213,-39.20044063,0,-26.95613257,-21.60725532,-10.48327805,-22.04980009,-41.06214158,-54.7095341,240.0922966,0,124.8154751,-12.59566768,45.82976809,-27.86022189,,,,
342.9679998,1339,0,-42.5555478,26.77601291,0,0.971914547,-41.02051266,29.86396126,-0.674103919,-19.21828244,-39.47140088,-288.1237932,0,-233.3596693,-22.0525991,-73.11930445,101.3461302,,,,
342.9759998,1339,0,-35.18162863,-16.16384369,0,-27.28057365,-62.72674823,-20.11038835,-50.92997889,-33.16040664,-61.8765083,266.0439952,0,126.8316647,-43.41305702,118.6806438,-21.35827388,,,,
342.9839998,1339,0,-13.28284875,0.114465425,0,8.077666647,-1.684228294,29.17496282,-1.539144073,-8.213142204,-26.71520783,-102.2496981,0,-117.7525084,-32.13434144,-86.7909037,9.389712236,,,,
342.9919998,1339,0,-50.18525173,31.99390494,0,-4.341425512,-62.84678212,23.13848483,-12.90773787,-22.4284424,-50.33702182,-40.31219998,0,-87.83689168,-19.63878726,74.88450118,71.56325714,,,,
342.9999998,1339,0,-16.61066775,-26.19896649,0,-15.62865701,-19.12360394,-8.257870809,-31.17014336,-28.31047306,-53.0138752,241.3245781,0,140.2487142,-2.411613178,57.40336931,-48.51301586,,,,
343.0079998,1339,0,-40.10978568,43.94797151,0,13.31835223,-29.22140266,44.06292529,4.000091995,-2.467738282,-31.21529413,-286.2769764,0,-233.2285756,-34.19111351,-63.62520601,87.2378634,,,,
343.0159998,1339,0,-41.25239816,-6.841878183,0,-29.29466361,-53.66852606,-14.81421932,-40.73984382,-32.52928624,-63.62980842,255.7895266,0,129.5507098,-62.69811476,135.8360775,-23.82333581,,,,
343.0239998,1339,0,-12.87733438,6.349280063,0,0.802128928,6.36303304,23.51788937,2.230208855,-6.27434998,-32.74559575,-105.0843275,0,-102.2297787,-20.12216823,-71.69890924,6.468859496,,,,
343.0319998,1339,0,-46.09622503,35.66173545,0,-8.973206214,-58.01240507,13.7120787,-12.99465413,-13.38434555,-47.79554975,-48.77534188,0,-89.04144358,-34.69530858,73.1343924,57.37327755,,,,
343.0399998,1340,0,-13.78628057,-23.44182628,0,-20.52757701,-16.01691329,-20.19137865,-27.17558816,-26.5168874,-56.46194429,229.1966277,0,125.777742,-20.46053513,52.58126199,-73.16368928,,,,
343.0479998,1340,0,-31.48849857,48.35954945,0,8.633559423,-22.58697191,36.27472876,17.04530155,4.861944675,-35.07884025,-281.9962456,0,-231.4193527,-21.84285923,-55.87375872,72.6450244,,,,
343.0559998,1340,0,-36.71488133,-5.807162495,0,-34.50158211,-49.24830616,-21.03392354,-34.89714425,-18.47241985,-61.64649469,268.7561967,0,145.7149022,-66.59728655,151.1942871,-33.21385059,,,,
343.0639998,1340,0,-17.36695619,1.420210023,0,-3.758150496,6.04727704,13.18962401,-8.63950244,-3.071731075,-46.59597872,-90.84702671,0,-86.29815682,-18.87387124,-63.68405631,-13.9794509,,,,
343.0719998,1340,0,-50.60631616,33.18179021,0,-11.4215872,-55.43422715,8.792619705,-18.34588307,-9.521078264,-63.90745167,-47.35829208,0,-86.86007449,-31.16219859,71.69293177,37.13406114,,,,
343.0799998,1340,0,-16.82913617,-21.4398822,0,-19.3482769,-8.003732048,-16.45322689,-28.14321858,-12.60665101,-52.54433146,237.8339403,0,135.1981064,-40.85411836,58.7483195,-84.47294243,,,,
343.0879998,1340,0,-46.0147622,40.30915106,0,3.487277659,-20.97902117,34.24370692,2.865891791,7.252338193,-44.3679508,-270.0451708,0,-212.1015305,-16.2253764,-49.659431,61.77256344,,,,
343.0959998,1340,0,-58.87109443,-20.90829035,0,-47.40385522,-56.92401887,-32.19951451,-46.02486053,-29.43594443,-89.01251609,264.3265783,0,162.9648679,-53.31393716,151.2988098,-46.546206,,,,
343.1039998,1340,0,-23.55541088,-2.548320438,0,-5.573884029,0.242493896,5.599211213,-11.31959467,-9.609099641,-53.48874178,-87.46932188,0,-49.6959268,-29.72373096,-56.07951118,-14.34342078,,,,
343.1119998,1340,0,-53.87844997,33.3820136,0,-12.122821,-64.0003303,1.694974671,-28.67780583,-12.20618719,-61.93187886,-50.22183451,0,-49.9682938,-44.86666691,74.3181339,40.62196575,,,,
343.1199998,1340,0,-31.91811934,-25.68174464,0,-29.78505072,-17.02828557,-27.31734232,-35.02372607,-16.11955543,-63.25629125,222.8147929,0,149.5064906,-58.46341152,47.99436767,-96.90990747,,,,
343.1279998,1340,0,-49.28905601,42.3463399,0,1.171699892,-19.66538985,29.93097014,11.25946046,0.071917202,-48.46214134,-286.4849832,0,-210.7926989,-12.89361029,-62.62107796,52.828396,,,,
343.1359998,1340,0,-50.25299798,-16.88065538,0,-40.20960398,-54.0520209,-29.18649889,-34.24081336,-38.09502646,-77.85685235,244.2388075,0,158.1236534,-44.09392837,140.2594338,-46.15343185,,,,
343.1439998,1340,0,-19.4869625,-1.661216121,0,-1.31154764,7.755911881,13.41315498,3.837409504,-10.10351453,-40.94322933,-103.2215736,0,-59.40375071,-29.97174217,-65.67243818,-20.05065842,,,,
343.1519998,1340,0,-43.955539,40.04607448,0,-11.04420068,-45.19703555,17.49012888,-7.670139298,-7.715903907,-47.54334136,-63.43832394,0,-62.18670337,-21.5097749,69.28838005,39.99017591,,,,
343.1599998,1340,0,-15.70031261,-23.3837538,0,-32.009744,-2.634576153,-16.05241169,-22.51055831,-17.97235423,-43.77998322,225.007829,0,156.5267264,-34.89329159,53.18046476,-82.02662909,,,,
343.1679998,1340,0,-35.12284143,43.73020671,0,3.133880385,-13.62893904,33.2655722,13.59656531,3.807446383,-24.81458828,-284.212886,0,-200.1936952,1.143189423,-58.02146764,64.06010979,,,,
343.1759998,1340,0,-43.04197117,-8.170559071,0,-35.25441036,-46.60070825,-21.83106891,-31.09243405,-20.83438041,-54.38028304,233.2540902,0,142.2855486,-21.74533786,133.6331347,-53.02771158,,,,
343.1839998,1340,0,-22.79226957,-3.905091772,0,-7.942577031,10.90380612,12.70055772,4.069680319,-5.979274699,-33.47130348,-102.2407436,0,-72.04623804,-8.200963343,-71.21408826,-26.00457894,,,,
343.1919998,1340,0,-51.09801949,32.24941315,0,-15.92831968,-51.93765626,6.963430476,-12.72297078,-17.46638523,-48.2830912,-66.35797653,0,-68.21695765,2.104534395,66.62360374,37.34878143,,,,
343.1999998,1340,0,-26.19821325,-27.55239067,0,-30.18040922,-10.18926348,-23.36832793,-25.95981901,-21.16265349,-44.26293577,212.7369883,0,137.5289165,-16.22733367,44.65764219,-99.56202662,,,,
343.2079998,1340,0,-45.53835343,41.43194957,0,3.537446986,-13.47103501,31.25205707,8.375367737,4.062450444,-31.10216417,-304.3713337,0,-229.5952202,-3.065666434,-74.36613076,38.74107154,,,,
343.2159998,1340,0,-53.73358691,-10.43114006,0,-34.74720022,-41.99361567,-18.76638306,-32.5464333,-23.8413835,-58.10492832,207.0682776,0,110.8688196,-21.78955656,123.5061336,-71.29556882,,,,
343.2239998,1340,0,-41.14370711,-14.71765628,0,-11.76604243,5.170575571,9.469305954,7.076231642,-15.08926209,-41.03959412,-113.5254257,0,-84.25659982,-3.655351612,-64.83847538,-32.65178394,,,,
343.2319998,1340,0,-70.72677562,25.77957224,0,-18.13164086,-60.62581202,3.472584591,-11.32768159,-23.92023776,-62.84961949,-83.35356591,0,-78.33523151,-20.22566299,66.09086367,29.39651221,,,,
343.2399998,1340,0,-45.48565844,-31.59401223,0,-30.84013534,-12.76696632,-20.09996629,-15.51201989,-25.28186512,-55.67323557,203.2264805,0,136.7967112,-26.64999306,44.33879044,-104.8203314,,,,
343.2479998,1340,0,-61.96791771,30.52201157,0,-0.609323664,-24.79083027,26.41593598,17.3965086,-10.66422904,-44.14313392,-282.6157114,0,-181.7664365,11.97488389,-55.21583827,56.45271293,,,,
343.2559998,1340,0,-48.65489836,-1.930522243,0,-28.29504226,-48.4276745,-20.52490033,-36.81333881,-33.12277664,-64.24899824,230.8020195,0,168.1609029,-13.30286145,133.7507719,-53.70361111,,,,
343.2639998,1340,0,-22.67665551,9.710155331,0,3.474879241,16.94517846,23.09246589,0.836108537,0.262119349,-23.5057596,-112.2722667,0,-75.43274377,-2.531554705,-82.62342452,-37.46957164,,,,
343.2719998,1340,0,-64.69195609,32.04973867,0,-13.55515907,-48.94962894,14.70606005,-17.05567696,-13.9319937,-46.35824596,-96.76554199,0,-95.908207,-25.49120655,50.14840576,25.99714586,,,,
343.2799998,1340,0,-34.60353955,-29.59173869,0,-27.13194793,-3.455120906,-12.69603768,-25.00149323,-33.63851426,-56.46519564,194.0522019,0,123.0511887,-27.04128865,41.90390385,-99.98989226,,,,
343.2879998,1340,0,-45.89238295,41.19212943,0,7.624462042,-12.02636519,41.07394771,9.706753394,-1.347160001,-32.95717104,-312.4975387,0,-235.4909871,5.073397588,-75.33855822,49.79216169,,,,
343.2959998,1341,0,-52.05108949,-10.77059117,0,-33.363323,-42.16500119,-14.28977827,-36.99159325,-25.79411892,-57.00615106,196.0558985,0,104.6819493,-28.13010023,117.6911132,-58.82308197,,,,
343.3039998,1341,0,-17.94107671,-7.168400009,0,-3.731019664,16.68662997,16.899317,-1.47108932,-10.88593572,-35.83212095,-116.8125863,0,-92.48808474,7.392999581,-78.36682433,-29.06805856,,,,
343.3119998,1341,0,-55.19241941,25.5753639,0,-16.11619254,-48.865685,9.417837143,-22.71127449,-6.699961341,-46.5400772,-102.8757194,0,-117.7992501,-15.99144868,40.91951985,26.32369448,,,,
343.3199998,1341,0,-46.42530921,-37.45022341,0,-32.54371498,-3.304392776,-18.2798875,-23.32944166,-21.2824608,-56.83760745,193.59325,0,101.0402113,-25.13738683,34.48315189,-106.751888,,,,
343.3279998,1341,0,-50.31822073,37.19455227,0,7.657902756,-13.38212244,34.37110781,10.04058974,-5.678122125,-47.12939266,-303.6181193,0,-234.8607564,10.19495588,-67.33866312,51.58676136,,,,
343.3359998,1341,0,-56.50452523,-12.52510377,0,-32.65627611,-40.9565052,-17.72515783,-39.42546356,-23.30757465,-62.49541213,182.9488717,0,73.14744228,-50.26787578,110.8503226,-71.55106143,,,,
343.3439998,1341,0,-46.61839804,-16.96346953,0,-9.818001981,26.2950897,17.42814669,13.23990781,-8.369612554,-42.7685074,-128.2073549,0,-137.931053,-13.11743113,-87.48579504,-49.58274739,,,,
343.3519998,1341,0,-77.44376301,18.47884058,0,-19.09112004,-46.99725773,6.271649078,-10.12634378,-24.56616039,-68.48358993,-99.97445276,0,-125.8161744,-15.1157933,54.44438566,28.67298904,,,,
343.3599998,1341,0,-53.25935122,-42.67575304,0,-35.22594753,-10.54689738,-26.81717372,-32.74771659,-38.2646595,-76.51276405,188.8826191,0,96.16083208,-39.7088263,41.83715608,-107.9423004,,,,
343.3679998,1341,0,-58.26014486,25.14408839,0,-2.592964531,-13.72417192,26.29829567,4.665996477,-11.05626894,-58.02511463,-309.2116757,0,-243.9051405,0.530279828,-67.38455908,46.16815085,,,,
343.3759998,1341,0,-56.44044665,-14.80008803,0,-35.35703221,-44.3315803,-21.36597877,-40.19644802,-25.26409414,-67.9183078,193.5139859,0,95.8682274,-51.02722811,128.5550591,-62.49255022,,,,
343.3839998,1341,0,-46.09893918,-13.00619285,0,-6.065066123,24.76501544,25.48560038,12.70367724,-8.972480283,-46.66489917,-107.8087551,0,-96.4595081,-35.02142238,-65.27720309,-37.52939374,,,,
343.3919998,1341,0,-81.29908773,16.78675731,0,-22.86819423,-38.75000814,21.08564466,-3.049993153,-24.25477741,-73.40381749,-85.4446363,0,-81.64706511,-15.9684571,69.21049162,43.03617413,,,,
343.3999998,1341,0,-43.28845677,-34.66507729,0,-34.94678116,-6.217154596,-13.53678899,-30.1637219,-32.07888085,-71.82498108,200.595335,0,142.2507821,-29.27698223,46.75604031,-101.2632268,,,,
343.4079998,1341,0,-50.80536084,36.41609333,0,2.551480582,-8.787912494,43.82073545,5.693033447,1.387504813,-45.7228475,-310.0021816,0,-224.3886727,-22.78473521,-82.63079046,37.79093796,,,,
343.4159998,1341,0,-62.3202932,-18.59847168,0,-44.38793271,-43.89262006,-14.69298353,-40.5964703,-22.57013558,-69.63783081,183.3686532,0,100.7604567,-41.27086764,105.6634435,-70.85847906,,,,
343.4239998,1341,0,-41.30572077,-14.45579818,0,-19.00616247,12.45626653,12.76059447,-0.164799163,-10.31755308,-52.80723382,-114.4087843,0,-81.9463667,-9.030159004,-86.44230078,-46.73328986,,,,
343.4319998,1341,0,-64.26050844,32.09730335,0,-19.09132283,-44.31994175,17.65580993,-21.32771823,-5.660387975,-59.50323851,-104.1022625,0,-88.63364887,-36.85866458,41.6124715,26.02924734,,,,
343.4399998,1341,0,-40.75731534,-28.04579085,0,-33.41162008,-4.408600568,-8.999605889,-44.58102713,-19.80786556,-56.68087104,187.5693223,0,123.572624,-24.1406367,29.71009041,-112.8860599,,,,
343.4479998,1341,0,-63.70467002,31.94938991,0,-6.555780835,-8.571620748,42.52312743,-2.090718537,-8.969729384,-46.38974292,-317.8670273,0,-236.6402121,12.84978103,-86.96468372,33.3063099,,,,
343.4559998,1341,0,-69.40547924,-16.22933172,0,-42.35789268,-39.30783424,-8.173955671,-45.48900771,-29.34865744,-71.00577836,169.1234464,0,90.73577934,-26.88665764,104.6648436,-74.81998417,,,,
343.4639998,1341,0,-46.8662911,-17.23266096,0,-13.74001711,19.13862588,23.87258686,-8.119567468,-20.93875243,-53.55537522,-124.7689402,0,-87.60292243,9.125112069,-85.52645431,-49.21256657,,,,
343.4719998,1341,0,-70.68325012,26.35378816,0,-23.01628051,-38.6372668,23.62031359,-24.86642488,-21.14335478,-63.21913437,-121.5883146,0,-104.8299575,-29.7764522,35.72266999,17.60309008,,,,
343.4799998,1341,0,-39.24412915,-27.46321344,0,-31.62307579,2.402856125,-5.485408318,-42.86905532,-17.22581322,-55.51403799,177.2614585,0,108.074289,-40.80155512,25.11235181,-126.3167883,,,,
343.4879998,1341,0,-62.50770805,30.80193225,0,-1.644057461,-0.072334568,43.35106475,-2.178332204,-4.556735632,-48.74896665,-321.8354833,0,-248.3301857,5.09200575,-88.79738414,24.14830759,,,,
343.4959998,1341,0,-67.93513056,-11.70206753,0,-46.48242288,-30.09266139,-6.872602306,-45.53304806,-35.07103969,-76.55339761,164.7132478,0,81.93107743,-45.92773345,106.600495,-78.57186404,,,,
343.5039998,1341,0,-39.1097908,-4.003800508,0,-12.85669324,25.17101144,27.12808797,-13.12970664,-12.59812854,-43.45726643,-122.1482853,0,-89.93300076,-10.3620858,-77.09993249,-51.03004239,,,,
343.5119998,1341,0,-79.98646152,25.75308131,0,-21.7720362,-37.75337664,16.53802549,-26.17883128,-14.31381497,-56.96720372,-124.7626916,0,-118.2808302,-19.32332324,44.17095029,15.77402216,,,,
343.5199998,1341,0,-54.46927878,-36.60318512,0,-41.76896718,-1.856380951,-22.44346206,-37.67422317,-31.18471564,-67.12032271,185.359473,0,120.3376918,-43.52442125,41.96497026,-123.639433,,,,
343.5279998,1341,0,-52.92408912,35.84780873,0,-5.000934835,-7.298012295,30.80839277,-9.592480463,-2.39944029,-41.8519915,-305.8914903,0,-208.1522672,-2.223489006,-74.18542035,29.26087295,,,,
343.5359998,1341,0,-60.69952017,-12.3786923,0,-48.86407159,-34.3537507,-21.43902272,-53.95556038,-15.83491986,-58.44323029,165.4580052,0,92.07382562,-41.15068583,99.16393039,-86.18621316,,,,
343.5439998,1341,0,-41.75071601,-19.11392224,0,-26.21689806,22.79123339,6.302331102,-15.32076789,-8.785890233,-46.63713173,-123.9674273,0,-93.73906843,-29.93529681,-94.61582386,-68.44267558,,,,
343.5519998,1342,0,-76.17446499,18.33095835,0,-34.16358579,-44.21068589,1.852163023,-33.31579374,-17.0138638,-60.11971215,-125.9601054,0,-117.2007943,-37.84733131,26.52800405,3.640138106,,,,
343.5599998,1342,0,-49.65478422,-37.98420524,0,-49.12388334,-3.837892161,-24.54277111,-42.3399955,-27.91264064,-61.34758954,182.1884114,0,110.9304716,-50.19240455,20.67786507,-132.3182945,,,,
343.5679998,1342,0,-49.31789055,31.02382015,0,-8.79633574,-1.314214476,38.01402319,-11.16699274,-5.91742131,-47.19770284,-305.8319867,0,-212.8067185,-6.544014864,-89.12669342,29.9886645,,,,
343.5759998,1342,0,-62.44124815,-15.16228257,0,-51.22881105,-34.30950043,-14.51884186,-57.81373855,-24.94915877,-66.08678493,183.6928238,0,103.3005638,-27.5030447,96.88640006,-75.01680999,,,,
343.5839998,1342,0,-41.59321212,-11.67370443,0,-22.9978798,19.37869617,13.21242057,-21.09572688,-9.498403058,-46.92152126,-99.17282591,0,-83.84045209,-12.16686673,-99.75833743,-62.33719039,,,,
343.5919998,1342,0,-65.44453626,32.15638471,0,-25.46175089,-41.09823282,14.49649986,-41.15244131,-16.08344656,-64.18187561,-128.5249083,0,-120.1111606,-27.48589406,17.82929552,7.447715941,,,,
343.5999998,1342,0,-49.44845288,-31.93417519,0,-49.10564736,0.029303172,-15.85862417,-42.62218695,-26.22197086,-66.98049679,173.7742776,0,102.2881661,-50.29305877,20.49884061,-128.0072583,,,,
343.6079998,1342,0,-63.72839756,31.16389395,0,-9.414242269,-4.019829385,37.21252408,-3.947250397,-2.565617268,-53.57522204,-318.2351894,0,-229.3595371,-16.82050376,-90.32841203,29.03726659,,,,
343.6159998,1342,0,-69.82438175,-12.38240758,0,-44.97637436,-38.08794952,-15.32025187,-54.46603781,-30.03549406,-74.24670743,141.9532275,0,76.5778851,-44.85567603,90.98254626,-78.15045493,,,,
343.6239998,1342,0,-45.76194173,-12.32736384,0,-23.46610057,23.65613455,19.8210635,-12.08369246,-13.5200441,-46.22015029,-141.4167507,0,-108.9049675,-20.47869764,-102.122519,-59.39705895,,,,
343.6319998,1342,0,-73.95973451,25.07542726,0,-27.6881751,-38.85819217,24.92164456,-29.5308846,-15.1762498,-60.50691982,-151.8542469,0,-140.9426142,-24.90371002,15.23431017,14.40677905,,,,
343.6399998,1342,0,-61.80430278,-43.88746593,0,-53.9320846,-4.646046527,-9.415367325,-41.77132553,-29.55400032,-67.63657254,157.9067045,0,77.84823537,-67.60286921,8.922414655,-131.5555718,,,,
343.6479998,1342,0,-79.10875217,13.60191154,0,-26.11821719,-8.844040857,38.00050121,-4.027330492,-17.40234855,-63.02634382,-326.9807469,0,-244.4463463,-29.84705526,-101.0075433,26.04846534,,,,
343.6559998,1342,0,-77.06876383,-27.49736216,0,-58.12882468,-46.10967317,-18.19505563,-56.78052345,-43.94327664,-90.35112929,141.9884005,0,79.34788853,-31.55984756,88.46095516,-78.64453644,,,,
343.6639998,1342,0,-55.35124403,-21.84902714,0,-32.70133825,19.4587859,17.37653763,-14.27786128,-9.498125475,-56.45911422,-145.7433912,0,-113.0087826,-23.04766988,-112.0068164,-71.73009455,,,,
343.6719998,1342,0,-92.90759078,13.53168207,0,-44.16086945,-38.45966529,18.40898449,-26.17306459,-19.75763073,-74.4075329,-155.6978791,0,-137.0648018,-25.68231506,9.77555876,11.89190151,,,,
343.6799998,1342,0,-64.47915222,-49.31427494,0,-62.04655906,-7.112037364,-22.21176874,-46.03648019,-44.74093304,-79.85148106,160.4858267,0,100.6964137,-46.9016735,9.108835986,-126.4138913,,,,
343.6879998,1342,0,-65.86284156,19.28513994,0,-22.71386684,-6.234741676,31.49778026,-9.711866881,-11.66775645,-55.65725419,-336.0803751,0,-240.427892,-29.38275914,-117.4788379,26.83172843,,,,
343.6959998,1342,0,-70.96805838,-24.27330821,0,-63.00389009,-38.84704885,-18.62710613,-53.19396645,-32.4258498,-75.14038872,133.0577708,0,72.85841148,-41.11537749,69.69679594,-71.22511828,,,,
343.7039998,1342,0,-48.80942833,-19.62562042,0,-38.8095774,18.3313818,10.84399605,-11.99824755,-14.6595954,-47.30687086,-143.6145204,0,-101.1692229,-23.75544279,-120.5458615,-60.41309203,,,,
343.7119998,1342,0,-74.58500974,24.37417003,0,-33.10585391,-37.48247415,13.59776449,-25.86865224,-19.50161395,-63.4637783,-158.523694,0,-123.03438,-29.70967593,4.102683455,23.60569503,,,,
343.7199998,1342,0,-49.15726078,-36.27849774,0,-50.55017044,8.813561772,-14.91464852,-38.69293334,-27.23444454,-58.46572503,158.6208928,0,107.7460102,-44.82750006,6.8898158,-114.2642122,,,,
343.7279998,1342,0,-53.69118949,31.64576036,0,-21.09975323,5.515421357,36.22159318,-6.142333352,1.665049123,-36.37904765,-335.3871866,0,-226.8081837,-12.94082172,-115.9839113,42.12710536,,,,
343.7359998,1342,0,-51.95933244,-10.18162235,0,-54.56414841,-33.32317753,-18.04716955,-61.97177356,-24.15974205,-58.3862889,128.0742383,0,77.98176914,-29.98225367,64.54946004,-61.960122,,,,
343.7439998,1342,0,-38.85230805,-14.82833993,0,-30.62497472,29.51222233,19.16691562,-17.93461078,-5.319236652,-29.75940952,-149.9867822,0,-118.9618264,-27.80045471,-132.5015971,-57.21828435,,,,
343.7519998,1342,0,-77.27356182,22.78271613,0,-34.67204016,-32.63729992,22.23353914,-25.39492361,-14.45285843,-60.79448242,-166.3520679,0,-143.2894278,-24.58318539,-3.911511435,32.54187166,,,,
343.7599998,1342,0,-49.31178266,-32.39327,0,-46.53184482,5.8556846,-9.914726016,-39.64875746,-26.62329457,-67.36842902,158.3365408,0,101.416758,-24.77338438,6.978529311,-106.7157749,,,,
343.7679998,1342,0,-62.58368493,31.54870864,0,-15.01394715,3.925100158,39.02066822,2.359107065,-3.656184334,-45.98394648,-326.0505845,0,-222.5723756,-4.246998648,-101.6613148,54.12479646,,,,
343.7759998,1342,0,-69.1340916,-14.94694101,0,-58.09468016,-40.88734118,-24.52953359,-47.82613487,-31.46426331,-72.87707661,141.1637117,0,104.3224471,-31.41436363,90.45153561,-47.17945691,,,,
343.7839998,1342,0,-41.28054833,-14.41575524,0,-31.75307493,14.3234948,4.822613667,-20.6918283,-5.891756244,-43.36974753,-136.5585712,0,-72.0176086,-27.32782121,-113.9732045,-55.57520986,,,,
343.7919998,1342,0,-72.46451291,22.52169162,0,-32.1454158,-44.00874167,7.992853967,-37.53548804,-9.836795243,-64.20723529,-156.6366945,0,-101.1002263,-23.10891127,8.32516638,29.38645875,,,,
343.7999998,1342,0,-45.44755962,-36.02354612,0,-50.58013535,0.007068629,-24.19614327,-48.61392692,-22.04116841,-66.94646368,167.079341,0,134.5975378,-27.46764474,13.91930543,-119.12692,,,,
343.8079998,1343,0,-53.39991118,37.26156889,0,-15.57654168,1.924849515,28.96554138,-11.65692635,8.254667287,-41.12598887,-329.754937,0,-210.7249561,-23.06179725,-112.7362975,25.88926085,,,,
343.8159998,1343,0,-66.75161261,-2.230787152,0,-45.06207572,-30.96813401,-21.13439673,-55.39273978,-19.58809963,-68.8557538,138.6137947,0,97.96678894,-42.56282887,83.31366606,-70.19749049,,,,
343.8239998,1343,0,-52.2387569,-5.291619147,0,-22.11676939,33.67058577,12.11175002,-8.300896795,-7.255747534,-47.06582192,-121.8028104,0,-70.23453255,-18.79647732,-102.2261551,-64.49414175,,,,
343.8319998,1343,0,-82.71378133,35.08630077,0,-32.88181583,-32.511394,7.803491591,-27.95048098,-9.247642305,-62.06255187,-138.8316736,0,-84.78335764,-28.16316621,27.11425523,29.25616769,,,,
343.8399998,1343,0,-48.81419492,-23.23692488,0,-43.03336077,5.418494449,-21.11168311,-50.71387331,-19.07789385,-63.13954895,186.6598503,0,154.9166517,-28.61572256,32.37375317,-117.9990775,,,,
343.8479998,1343,0,-46.14271051,48.50978379,0,-3.100018887,11.66016106,40.10452716,-11.40005378,9.418827265,-37.31458577,-311.8628297,0,-203.0507217,2.638130446,-103.2261358,26.80305248,,,,
343.8559998,1343,0,-44.13303134,13.70661962,0,-40.39894634,-26.59816186,-14.24912071,-62.45909121,-6.289719416,-52.38716767,165.3222868,0,99.65084293,-29.28425562,87.8443845,-67.33989408,,,,
343.8639998,1343,0,-25.24084281,5.999221553,0,-17.34094176,37.12240344,18.64993305,-19.63557468,17.29354161,-19.6454192,-100.8824324,0,-96.08861476,-17.47367144,-113.7956385,-72.03289258,,,,
343.8719998,1343,0,-54.42517888,44.94404449,0,-22.17806093,-21.61079412,21.05958746,-25.58518207,10.12795739,-32.46598303,-141.0588252,0,-144.4139061,-20.46987979,-0.515110599,19.71676604,,,,
343.8799998,1343,0,-23.74082896,-13.4661914,0,-37.10268799,9.147691381,-17.34623059,-46.00322178,-6.035436968,-37.97454538,193.1791017,0,103.2074865,-29.09869027,16.25679841,-116.8403463,,,,
343.8879998,1343,0,-42.5111915,46.62582158,0,-6.529243702,12.13956631,35.56124198,-2.947621522,20.27810541,-20.14312469,-318.6320999,0,-268.4080504,3.103812151,-119.512949,22.50237418,,,,
343.8959998,1343,0,-55.04618037,3.144760897,0,-44.73290418,-24.77902158,-14.8298635,-41.59792978,-14.63625991,-52.52906072,147.1846793,0,46.89946628,-32.22511462,81.43422091,-60.72633963,,,,
343.9039998,1343,0,-32.00775458,-2.423319125,0,-21.0336398,29.97044106,13.89728465,-4.000381057,-4.26270264,-32.98736837,-100.0168776,0,-94.52745831,-25.18549516,-96.95474012,-39.03750947,,,,
343.9119998,1343,0,-57.81445962,46.11079968,0,-25.48130485,-27.36746773,13.36433068,-16.81067324,1.381586426,-40.46900586,-152.4640757,0,-153.5887867,-15.22080596,2.853107392,44.65458428,,,,
343.9199998,1343,0,-27.3916128,-8.175813107,0,-38.09512332,10.83537199,-18.29972152,-34.88368206,-5.28727555,-38.5774478,180.4617744,0,81.01842709,-28.47647893,10.23015913,-101.2611881,,,,
343.9279998,1343,0,-44.6586903,51.14470223,0,-10.25347625,7.517116648,37.12193589,8.045794762,12.475215,-25.14249426,-316.4153273,0,-263.9336502,1.898035452,-114.986324,55.89910622,,,,
343.9359998,1343,0,-49.34911986,12.71531919,0,-49.63119702,-34.58005593,-17.95930428,-35.61301101,-20.05739516,-53.72346874,149.2481429,0,58.35372059,-0.465098877,84.71582306,-25.35377103,,,,
343.9439998,1343,0,-7.917633101,14.25291497,0,-12.70728289,27.8164936,16.24677513,-6.467683542,7.221397389,-15.1955168,-101.7133322,0,-97.41714999,3.794617905,-102.2717864,-17.303452,,,,
343.9519998,1343,0,-38.91622415,54.12996948,0,-16.33567978,-28.42089972,24.5195061,-13.68203555,9.950515581,-18.16785147,-157.1876006,0,-172.2046616,-25.36176152,-1.928521742,70.07007785,,,,
343.9599998,1343,0,-30.10419104,-18.47761513,0,-47.15187648,-2.938867722,-16.98685277,-22.13575997,-12.25080864,-29.5342486,190.847621,0,79.56329919,-33.61952094,18.10882962,-65.76600696,,,,
343.9679998,1343,0,-32.57777202,47.04638836,0,-11.84328816,-8.420678516,37.02843368,12.19111081,1.722422938,-24.08562941,-293.0663724,0,-231.1598455,-4.021658189,-98.23799627,95.96184698,,,,
343.9759998,1343,0,-28.95223948,18.71925655,0,-34.24068207,-37.28933582,-5.181989079,-34.29438113,-25.79965363,-47.60849843,175.0467476,0,94.70338754,-9.733840526,100.8842682,11.87680339,,,,
343.9839998,1343,0,-8.859346818,12.7623341,0,-2.880254695,27.63779044,25.03713628,-1.814367137,2.995875334,-10.93687673,-74.69559758,0,-71.62393686,18.52895514,-90.34816462,10.38923225,,,,
343.9919998,1343,0,-33.89674102,55.62078181,0,-8.210166932,-34.17953281,25.19845474,-20.33306801,4.382547504,-26.6361724,-126.309327,0,-141.2037638,-20.94567323,12.50505594,94.62700772,,,,
343.9999998,1343,0,-9.079049818,-11.44178034,0,-31.39939844,0.316764684,-16.00506965,-32.35018221,-18.22896757,-40.01313997,236.7497562,0,114.7781191,-28.93947808,36.13416594,-40.59379358,,,,
344.0079998,1343,0,-20.47586824,47.08822649,0,1.667743777,-1.733665912,35.77097585,4.651160901,5.139899264,-23.86457385,-257.525621,0,-225.2354986,6.256101038,-91.95984552,114.9204957,,,,
344.0159998,1343,0,-26.39259689,7.788822905,0,-37.63580723,-43.1578762,-11.35444195,-45.15726276,-16.11113175,-45.58566784,195.3022022,0,75.53262399,-28.08337531,99.01272189,19.32398581,,,,
344.0239998,1343,0,1.656696915,-1.410837637,0,-12.62814428,20.50899462,16.01680036,-6.145479255,-1.745736232,-15.85019929,-46.95488805,0,-75.97951858,18.51603831,-87.77543811,19.85676373,,,,
344.0319998,1343,0,-21.85556781,49.58433107,0,-7.792503583,-37.55552334,20.24036182,-20.34678313,-2.701514028,-23.81627079,-102.1837528,0,-132.9237777,8.423659437,18.88295846,115.316457,,,,
344.0399998,1343,0,-13.06310106,-16.2376934,0,-29.89068556,-3.71131308,-13.49335427,-36.94556867,-15.99105191,-27.58189298,249.1442415,0,116.0892487,-30.61878644,39.29425418,-29.41149841,,,,
344.0479998,1343,0,-25.0093171,42.5852864,0,8.969987958,-2.999054828,40.82748935,-0.15537205,1.85454049,-13.75365597,-258.9473702,0,-231.3442905,1.841795715,-95.4743221,117.3589881,,,,
344.0559998,1343,0,-29.43394205,5.000325118,0,-28.05390673,-44.81862085,-10.43465726,-43.85404658,-29.3831193,-41.6769388,196.4067302,0,77.45342016,-20.4192375,104.1979243,29.15234737,,,,
344.0639998,1344,0,-13.30612355,-9.076204808,0,-16.08569887,14.96635053,7.102224151,-3.194453101,-16.89609897,-21.0363189,-39.45739457,0,-62.17149818,5.481828236,-77.44846599,27.96412599,,,,
344.0719998,1344,0,-28.01379672,46.48668898,0,-12.11740875,-40.52387881,10.10890005,-21.6597512,-11.70965338,-29.68713576,-102.0179824,0,-118.5933543,11.45063874,18.25688964,119.9716015,,,,
344.0799998,1344,0,-2.025668916,-12.32338609,0,-31.23915829,-3.000074782,-15.28981225,-35.03974581,-20.89979707,-23.98497549,264.1837891,0,141.8777668,-19.78549407,39.73931372,-19.25209813,,,,
344.0879998,1344,0,-16.03107521,49.30523482,0,7.28202651,-0.978395781,39.82498355,5.5483753,3.292585465,-8.434303026,-239.9720008,0,-202.0749864,7.152492176,-95.42563683,130.8572605,,,,
344.0959998,1344,0,-14.50325289,24.74468658,0,-13.83672801,-40.29951833,-7.493564111,-46.41949151,-14.41535967,-33.27191109,204.9537048,0,90.35937188,-6.837046625,93.94009637,39.48649207,,,,
344.1039998,1344,0,10.00064212,14.59391241,0,7.544838533,18.65324551,21.61051859,-5.06208873,3.095080507,-0.13763982,-29.7431159,0,-71.08785061,-14.91326195,-90.43684903,34.97429393,,,,
344.1119998,1344,0,-29.93580486,46.23031207,0,-4.627241606,-41.33030243,23.6632072,-8.41958853,-3.18078039,-19.30556207,-92.72188749,0,-141.3521144,-14.29660614,15.40751561,129.2517338,,,,
344.1199998,1344,0,-17.11202164,-30.39312799,0,-33.45059793,-12.4923451,-11.26142726,-21.75685623,-30.26789813,-41.28193336,287.314501,0,150.665272,-9.350542601,56.20057386,-3.972125688,,,,
344.1279998,1344,0,-10.48030578,38.08751406,0,7.973436875,-11.92878428,44.1149249,8.057239414,-6.260327905,-22.60782911,-220.5601709,0,-170.8650992,-4.813005232,-79.28155968,143.8740053,,,,
344.1359998,1344,0,-4.620814241,18.19203372,0,-16.41586283,-41.16434204,-1.022394812,-53.17216696,-11.23997889,-31.48590898,212.9070094,0,107.9024576,-37.4912858,95.67517865,40.17148516,,,,
344.1439998,1344,0,4.416588547,2.987353193,0,-5.200094506,27.96813252,29.78599582,-10.7058982,4.731329648,-9.045161732,-14.64341173,0,-52.98026266,-14.1594895,-91.35011328,31.20361687,,,,
344.1519998,1344,0,-34.92599468,40.38251846,0,-17.22133329,-33.13681161,29.93115649,-12.43125419,-7.85028839,-36.93123226,-81.83380076,0,-114.0653643,-11.4013441,18.20830788,125.5388603,,,,
344.1599998,1344,0,-7.756426162,-25.14043671,0,-34.02431381,-11.3285774,-15.72372112,-40.79793819,-27.28494948,-43.48032108,293.053749,0,165.3409949,-17.04894362,50.28492361,-23.89794349,,,,
344.1679998,1344,0,-12.87326554,36.6310623,0,4.690157849,-8.271747643,44.3407282,-3.65295003,0.393527782,-17.73396163,-221.0606284,0,-190.9759137,-2.911669443,-98.90595816,114.1532975,,,,
344.1759998,1344,0,-23.56969928,2.945648904,0,-31.08794665,-42.60032101,-0.044966597,-41.16726076,-24.5014301,-43.08668831,225.010714,0,107.2178941,-17.11857038,97.07294695,28.19114344,,,,
344.1839998,1344,0,3.924246023,-3.770088236,0,-9.337146305,16.43404472,19.57645357,-5.375217123,-12.04473476,-17.00231507,2.475084415,0,-18.2836591,15.86512518,-79.5022037,26.17495721,,,,
344.1919998,1344,0,-19.11942134,53.9256023,0,-8.77584042,-37.46626735,33.46071011,-15.58822729,-0.616055091,-18.03115715,-84.67061309,0,-111.2289381,-0.075219595,5.26193258,113.0000228,,,,
344.1999998,1344,0,0.477408783,-11.23818045,0,-34.81003665,-3.26216904,-0.850803699,-32.64959695,-15.25729413,-26.16848716,299.3175204,0,144.6785853,-7.147468593,33.08401454,-30.9565158,,,,
344.2079998,1344,0,-11.2183779,43.76272667,0,-3.020328139,-0.09605924,48.55551744,9.339763653,3.720731107,-15.46962981,-218.5070964,0,-207.0894088,13.27148225,-112.3425949,122.6140165,,,,
344.2159998,1344,0,-19.41610895,12.83145914,0,-33.71481996,-41.42629306,1.453652197,-36.05933224,-16.89098414,-37.34415942,217.6331949,0,89.86067932,-28.4400277,78.03645431,49.63753269,,,,
344.2239998,1344,0,5.91068247,2.409881446,0,-2.98684033,11.70085043,25.48350839,-11.06202742,1.354582483,-8.924274811,-2.986905607,0,-41.8642078,0.175680661,-108.769674,46.87828324,,,,
344.2319998,1344,0,-27.03991511,47.08498458,0,3.757807988,-49.76163226,34.15568374,-26.15060269,2.577420411,-16.73186974,-103.4068509,0,-127.1626121,-3.176934874,-22.1493797,129.9291579,,,,
344.2399998,1344,0,-7.84729794,-24.0537223,0,-22.74209348,-13.81766202,-5.613268684,-45.56751141,-23.10524813,-24.22821696,280.5507455,0,160.2505321,-29.18145711,23.337711,-20.72017223,,,,
344.2479998,1344,0,-8.693214194,39.22788598,0,4.994861274,1.291240498,45.19367957,-12.46935903,2.816487681,-8.723212659,-235.7201967,0,-182.3215839,-6.021259295,-120.1018267,115.0122279,,,,
344.2559998,1344,0,-10.49500766,14.58805613,0,-32.28578321,-27.63524592,-0.85219184,-59.77423958,-7.802828732,-33.00565421,201.571416,0,98.28623465,-27.9662153,71.42664276,17.86010787,,,,
344.2639998,1344,0,5.431374143,-9.559751412,0,-14.11537336,43.67364322,24.20589185,-10.43082853,-0.026454088,-18.80367321,-10.48270328,0,-42.21306922,-6.523824504,-96.02690453,2.631176067,,,,
344.2719998,1344,0,-31.61538887,26.61674896,0,-21.06289506,-12.92597064,27.90860134,-13.70740603,-9.101976184,-43.63240397,-93.62240841,0,-114.5520792,-4.872076822,11.89923309,99.44315596,,,,
344.2799998,1344,0,-4.06066706,-31.00295207,0,-44.85672026,12.35985,-16.22861789,-42.97362005,-26.73887585,-51.397244,300.8698576,0,175.3887823,-17.12831083,56.06451604,-47.49359316,,,,
344.2879998,1344,0,-14.72277428,33.02618971,0,-6.713270994,21.41350138,38.09178343,1.693726359,-5.655770189,-30.06412767,-228.0678311,0,-186.073533,12.08434087,-93.62773225,88.84242211,,,,
344.2959998,1344,0,-21.70307169,6.966092836,0,-38.30300732,-22.33154245,-10.06120931,-45.20372773,-22.44575853,-48.81820031,221.7067189,0,111.9115282,-9.06795491,110.5424218,12.46352719,,,,
344.3039998,1344,0,14.71927344,5.186822115,0,-10.69659024,30.14964789,14.15919174,-19.58932009,-2.326397937,-16.5874737,8.388568347,0,-23.67905827,-12.7345068,-68.76748062,-1.151269899,,,,
344.3119998,1344,0,-15.00115232,51.11129988,0,-9.383401979,-26.90722809,31.54812234,-23.22300883,-3.424665477,-27.57908873,-108.2818665,0,-137.2000215,-11.82090089,11.29864016,89.36414792,,,,
344.3199998,1345,0,6.413511476,-16.5849126,0,-34.21891022,4.057159875,-4.92224248,-36.83375357,-20.82543117,-30.67651937,294.7616127,0,149.8831032,6.471624555,59.50146463,-41.78688272,,,,
344.3279998,1345,0,4.698232675,52.44763843,0,4.504775419,8.210118627,42.43477298,6.963795304,1.96624238,0.243214283,-219.6112232,0,-192.7270341,29.70977179,-82.03173013,109.1701598,,,,
344.3359998,1345,0,0.3823206,33.65563231,0,-22.46309216,-34.34368897,-4.539854615,-39.80243758,-9.271494606,-18.45848544,222.4714854,0,95.96093251,-2.201090849,109.5747958,30.60212339,,,,
344.3439998,1345,0,17.42984258,14.82388827,0,-3.087810254,24.59872325,17.15755161,0.714834585,5.739008246,1.629160672,14.3973662,0,-31.85871131,20.73178294,-70.6699744,23.30364554,,,,
344.3519998,1345,0,-10.97001083,53.80617953,0,-4.97690371,-38.51526037,21.02674194,-4.634036456,-5.158638632,-10.85042632,-87.80947478,0,-100.3336135,26.89911016,25.39578421,130.9469215,,,,
344.3599998,1345,0,28.1522312,-1.855612437,0,-17.83447154,-2.766703971,-16.38512497,-35.30103415,-7.228659507,-3.467523284,306.7915236,0,195.2899515,0.580141027,60.19552243,-14.78038934,,,,
344.3679998,1345,0,12.36970441,50.63374477,0,12.90105588,14.9600574,33.06566302,9.205999102,15.80121143,17.60174279,-231.0288309,0,-171.9546686,11.41528314,-98.67300617,118.2114926,,,,
344.3759998,1345,0,6.980797274,17.87034666,0,-21.63898725,-28.19175384,-16.02922926,-42.74316217,-15.28334589,-13.03305818,216.3619719,0,130.4003205,-0.252063852,107.0690647,40.44448854,,,,
344.3839998,1345,0,40.80984232,15.31547471,0,8.680739832,38.86261005,14.81702037,-15.9307735,13.75715808,22.70743722,-1.135402308,0,-14.09647595,14.28228796,-81.51770938,9.924329767,,,,
344.3919998,1345,0,-9.329984225,46.3054899,0,-5.151376674,-14.50521362,22.16984419,-14.27127214,3.398625708,4.70673303,-116.173756,0,-121.7439534,18.69094587,4.715403296,100.9348528,,,,
344.3999998,1345,0,18.58148824,-22.346422,0,-30.36675024,12.63728495,-19.79621495,-47.95341707,-19.50874369,-6.803297002,293.046403,0,175.9282941,5.063837803,51.78574383,-46.88202279,,,,
344.4079998,1345,0,5.258989209,37.53590115,0,11.10254308,26.95832667,36.65599041,-0.092294208,7.483318491,14.10406848,-258.4297375,0,-206.8273954,6.005188428,-112.1218239,76.18836357,,,,
344.4159998,1345,0,-18.29573109,-6.954898677,0,-32.08649301,-22.3188134,-18.27972469,-36.94795481,-29.40429724,-28.09900078,196.4168647,0,109.0131764,-23.00341004,105.6027243,7.783279507,,,,
344.4239998,1345,0,22.46784945,-10.28267307,0,-9.467787347,31.30863624,-1.714594137,-19.81800865,-5.624919988,0.036370836,-5.520085565,0,5.616557056,-3.848865844,-68.05310584,-15.38911852,,,,
344.4319998,1345,0,-13.31734453,44.79544887,0,-3.448735984,-17.11553606,9.182706978,-15.93553901,1.759261861,-4.917314204,-142.5114447,0,-113.0256658,10.14575972,4.056243616,68.30398947,,,,
344.4399998,1345,0,13.20432222,-21.08209079,0,-21.06411245,15.29935471,-29.21543517,-38.66581235,-16.98366101,-14.80815853,277.073044,0,188.7529049,13.06931758,60.42427039,-68.86631357,,,,
344.4479998,1345,0,13.02274266,43.1820899,0,14.11000471,24.87392169,29.12774628,-1.712595347,17.96342168,13.11202243,-269.107669,0,-192.0908037,33.00898153,-97.64405229,61.30445433,,,,
344.4559998,1345,0,-9.54628728,8.440657645,0,-30.12349064,-17.69447346,-17.35067113,-38.58183248,-7.683937657,-18.08736112,173.7058422,0,89.97138483,-1.64363201,100.8762086,-16.54356184,,,,
344.4639998,1345,0,19.80306304,-4.211744912,0,-5.615748154,45.09796348,6.761585453,-12.99504596,1.218132791,-2.195807033,-12.53749231,0,-9.169087497,14.64125059,-65.7772827,-26.23233674,,,,
344.4719998,1345,0,-12.58964319,45.91395434,0,-5.763065447,-11.58162313,19.49258181,-19.33470354,3.490321382,-8.419952219,-143.2058473,0,-121.660678,18.99303131,12.83731287,70.46214356,,,,
344.4799998,1345,0,10.80131803,-23.79890497,0,-35.80674595,12.18592517,-21.0260477,-36.98128054,-16.58456285,-18.76060766,283.0679421,0,187.4583155,4.655117902,64.3759162,-69.72625553,,,,
344.4879998,1345,0,14.36872142,42.72920704,0,10.53597172,26.37074002,41.32152611,10.62642598,8.695311903,4.54816893,-247.8684129,0,-148.5685216,31.45604639,-85.67564394,79.57718456,,,,
344.4959998,1345,0,13.46800453,23.40069033,0,-12.73863449,-17.49495161,1.773142954,-41.92009521,0.80550171,-4.27429999,200.9310007,0,133.3972682,0.128756054,103.7891012,7.106203622,,,,
344.5039998,1345,0,51.47283918,18.60689067,0,16.6449126,44.47931933,33.16026555,-15.40210887,33.43674055,31.08679641,3.372661414,0,-13.13156555,17.0192306,-83.97025967,-19.38998188,,,,
344.5119998,1345,0,14.20555441,77.1987341,0,20.36561512,-0.835983843,53.89424823,-3.728462942,33.71559909,22.67168676,-134.7185783,0,-133.2553683,23.859426,4.363348842,92.29299835,,,,
344.5199998,1345,0,21.49861496,4.292759455,0,-16.88654564,24.19770882,4.582681356,-21.44085443,6.158974129,3.825803036,303.7658813,0,179.43768,12.538353,67.36678664,-38.48942401,,,,
344.5279998,1345,0,4.441313924,49.9105836,0,7.390623751,25.13912544,46.08803653,17.2938521,20.30999805,11.01359221,-237.1648291,0,-169.1452132,51.43577576,-89.76820229,95.67113907,,,,
344.5359998,1345,0,1.314884357,24.12676485,0,-21.52699528,-16.98952802,3.76080909,-34.77115152,-8.59734684,-15.19117936,208.4052114,0,145.1842757,6.556549001,116.3782512,27.18552037,,,,
344.5439998,1345,0,36.40832211,17.01319189,0,6.55291883,58.12069824,41.5364841,-3.50597681,17.54127209,16.97296224,12.74197946,0,27.81085321,13.0882152,-59.93838072,1.520303082,,,,
344.5519998,1345,0,-6.036643297,68.5464565,0,6.32156453,7.830010146,57.53738673,-0.890497361,19.87493538,6.94186689,-137.5277297,0,-97.79159641,30.41627859,17.29148909,101.8368224,,,,
344.5599998,1345,0,17.11440216,2.716520567,0,-12.24970028,34.40536998,13.43888781,-27.22368853,-6.512710016,-10.40966637,300.649454,0,213.1579129,-1.145434646,77.13762148,-33.90114304,,,,
344.5679998,1345,0,3.944013787,57.02984737,0,26.09135622,52.3584839,67.91994566,24.43315453,21.94407827,7.388313979,-253.0135568,0,-164.7559184,28.71853062,-82.09939629,99.00039973,,,,
344.5759998,1346,0,-20.48660657,22.19202117,0,-18.0869122,3.218197252,16.29043036,-18.09645649,-6.082099422,-24.73745301,197.9806257,0,135.9603014,12.47142699,130.7827845,33.94692017,,,,
344.5839998,1346,0,14.65173361,8.749894531,0,1.061692046,61.16681034,34.27459005,0.518636241,2.33596312,-3.808440268,14.29201194,0,47.81950904,1.52882339,-36.91036038,9.483114095,,,,
344.5919998,1346,0,-16.07816045,64.23288426,0,9.080405253,8.708158997,47.82308663,-4.825936442,12.87327222,-6.312057175,-143.0641458,0,-71.10800291,-5.713927805,38.26544948,105.5356172,,,,
344.5999998,1346,0,1.997612074,-10.91087888,0,-14.74980402,31.29624697,3.63673433,-32.31133623,-5.622358676,-19.67309963,303.7419086,0,239.5620402,-5.011605769,93.80323721,-41.16129977,,,,
344.6079998,1346,0,-5.113862954,40.96088615,0,19.0612449,42.42398882,51.03655755,2.622607965,10.40269817,-6.342848866,-262.036267,0,-132.6653602,24.24920379,-77.55515355,81.79317985,,,,
344.6159998,1346,0,-23.63685828,19.96041181,0,-8.670528686,-2.374781107,11.75127224,-43.59603587,-8.391790959,-33.57577202,173.198661,0,150.4769565,-13.39115489,123.1939145,14.34101467,,,,
344.6239998,1346,0,7.371670486,14.42060771,0,23.06161446,71.80617995,54.1332841,1.241110262,11.00816333,-4.931566703,-8.467512461,0,36.16396944,-6.196565959,-47.47796774,-9.383673467,,,,
344.6319998,1346,0,-15.51367498,70.50706186,0,24.04986978,28.69757374,69.93964492,9.088848207,10.5535186,-1.993096938,-159.7381185,0,-83.74413076,6.214876921,40.0486188,100.6253474,,,,
344.6399998,1346,0,8.686285891,-1.705983587,0,-5.637328383,50.99729531,20.86466645,-23.4893082,-7.872172433,-9.064368625,302.130024,0,241.7246114,4.861836129,107.6161106,-34.69314245,,,,
344.6479998,1346,0,1.989851435,59.98289435,0,32.75572118,72.07620362,78.46367446,25.30507611,17.36860379,7.839271454,-265.9884875,0,-131.5186158,35.20081399,-67.06220371,87.84609191,,,,
344.6559998,1346,0,-9.364624191,35.81592769,0,-2.896091855,23.16293924,27.66597227,-15.76707905,-5.16383436,-17.67314488,186.7787971,0,173.9901282,13.26228657,144.4671211,31.83824628,,,,
344.6639998,1346,0,19.63691462,13.83782112,0,16.75537193,75.18450206,47.93888389,4.732952838,15.61655797,7.810581246,8.726377215,0,74.43133507,4.17698084,-33.34340855,5.550441269,,,,
344.6719998,1346,0,-16.41766288,65.96355936,0,17.93057696,29.8145539,71.60976954,8.697651542,14.51183603,-9.388267703,-173.2234103,0,-73.14691693,-6.406453676,25.16947379,97.10599062,,,,
344.6799998,1346,0,15.01372375,1.935556912,0,-5.729637625,56.59193753,33.29730469,-17.71204603,-1.754803537,-17.90072681,295.3353344,0,247.9976464,-0.358173142,92.78806912,-37.77271888,,,,
344.6879998,1346,0,13.85719409,62.55828114,0,36.78433541,75.13192876,93.0780074,22.35456165,39.43606769,20.70345917,-275.255167,0,-141.791359,24.79977152,-82.09614559,86.27087542,,,,
344.6959998,1346,0,-12.47329748,27.79151989,0,-6.669774157,26.99035728,43.55728198,-19.52564704,6.687428175,-19.4026531,178.4695595,0,143.2947137,-1.767884535,127.7264775,26.27984007,,,,
344.7039998,1346,0,17.99849043,7.058326784,0,10.66127338,76.79690239,60.09244746,2.06608765,14.39075008,-6.643011147,12.98633865,0,59.87404069,10.26058225,-39.84000167,-1.585681717,,,,
344.7119998,1346,0,-10.73781114,65.69641771,0,22.41093501,28.23780625,78.15863613,-1.089032934,22.67325641,-4.37113258,-178.2582478,0,-87.77192477,-2.575061809,22.5337353,85.43952167,,,,
344.7199998,1346,0,0.188617238,-9.028862932,0,-14.02163627,58.50797775,29.63089508,-21.714985,-1.854728554,-22.741939,300.9024476,0,232.3558544,-18.45595345,95.16705354,-55.90585026,,,,
344.7279998,1346,0,-13.53182908,46.3192268,0,11.18911459,78.60157727,79.22894663,35.24012866,15.7794198,-14.83614589,-255.7844569,0,-114.7529167,25.39756651,-59.91595967,75.99116663,,,,
344.7359998,1346,0,-8.911348856,15.76980612,0,-23.40507795,29.56442775,15.63017116,-32.30902127,-14.67024933,-47.70258468,423.4827138,0,338.3900787,-5.526402485,227.7037049,-25.7138092,,,,
344.7439998,1346,0,39.42440212,4.288115904,0,15.40156908,107.480298,51.26951891,-14.77907344,28.18171158,2.511755815,219.3940399,0,190.5504662,-15.50053434,4.465944529,-79.42272519,,,,
344.7519998,1346,0,-17.34203197,101.3524891,0,41.93820157,58.11825697,111.7161443,27.62161883,49.97245032,7.0201967,-428.4641864,0,-266.1985325,15.49898696,-39.60664194,125.3778447,,,,
344.7599998,1346,0,1.902285419,-0.461345582,0,-15.62721711,48.24647794,23.6885088,-35.71790821,-1.110487408,-32.67174877,415.2801126,0,303.5984005,-0.422142265,181.1973127,-63.48510397,,,,
344.7679998,1346,0,15.17373742,33.95141241,0,18.7867761,96.19798147,79.3684703,10.00435822,35.51182494,8.918278524,-179.1129902,0,-95.74713574,13.01500768,-86.75010714,8.693866379,,,,
344.7759998,1346,0,-29.26134096,60.80426939,0,-1.637542399,33.43332327,65.14913016,-6.191327043,15.97926935,-24.31764551,-74.46308607,0,-35.13359582,9.797476195,90.4419779,68.89327262,,,,
344.7839998,1346,0,10.93458578,-8.027417242,0,-5.503549725,81.72373773,37.72853646,-22.94373719,5.968009548,-26.52213845,317.7002761,0,247.6723654,6.286828553,80.85879166,-63.96900809,,,,
344.7919998,1346,0,-8.050978536,74.90962159,0,31.37911666,67.7868172,101.3880597,20.82910834,39.89883934,0.880712836,-329.6130784,0,-192.0759533,18.97191753,-63.58331572,84.33121725,,,,
344.7999998,1346,0,-2.103771793,30.21982343,0,-9.230073299,41.18217957,40.83076706,-29.21265464,8.804860302,-27.78123164,251.2243705,0,192.6949613,-2.038833441,150.890033,-13.53346726,,,,
344.8079998,1346,0,22.80866,29.24369658,0,18.43717227,106.9061855,73.72079987,-0.053351004,37.5877997,7.283537712,-42.13600168,0,4.077795667,19.6258252,-48.7539219,-7.320425442,,,,
344.8159998,1346,0,-22.1084061,64.50310442,0,9.934503204,53.15918304,78.78069608,0.549904219,31.9238424,-4.454250724,-150.9175146,0,-98.51975812,4.598008405,41.81992601,67.91367941,,,,
344.8239998,1346,0,11.08399905,-13.91549043,0,-7.723041679,73.56995045,28.66829048,-26.27824756,-2.007611024,-24.73600392,309.4684978,0,214.533107,-14.38054548,98.93132429,-61.23618373,,,,
344.8319998,1347,0,2.489040399,53.92766957,0,28.07582244,80.75216353,87.86490948,15.4687592,30.4430442,3.76390169,-289.772708,0,-179.888981,26.42593458,-67.47191252,65.73706374,,,,
344.8399998,1347,0,-12.94009268,30.23434184,0,-11.0813249,41.0355687,42.93384664,-21.97587113,9.561371041,-16.40694208,189.4627829,0,131.0134755,12.83163378,140.4214977,2.315176588,,,,
344.8479998,1347,0,15.7367506,11.91017465,0,14.17201191,95.35045125,60.53422712,4.94259908,19.07710168,3.453653036,4.533209807,0,30.34327987,12.41008565,-28.68326582,-13.35582195,,,,
344.8559998,1347,0,-16.02371615,61.93418252,0,16.29050248,44.94364292,75.21680648,3.693373249,24.61128285,-1.749061028,-172.6041695,0,-99.7400762,6.397122766,37.45628492,76.95166632,,,,
344.8639998,1347,0,18.81562079,-3.872920771,0,-3.952338081,63.6949514,27.97110016,-30.35753547,9.303944194,-8.476667963,315.3685575,0,225.9514269,-13.33945407,107.6394253,-55.86403798,,,,
344.8719998,1347,0,5.941371967,50.72701851,0,30.87751818,81.09238871,81.60448341,16.2452467,40.93130515,21.44631939,-287.1734274,0,-187.917181,-4.467767589,-81.49109784,45.32374712,,,,
344.8799998,1347,0,-18.27874457,22.0572523,0,-10.89928843,38.76409308,32.3921162,-18.28649273,6.081157148,-15.71622321,167.2785315,0,98.30697039,-3.313107629,135.5861453,-5.674955143,,,,
344.8879998,1347,0,24.02644492,9.57351974,0,11.57072677,102.1479904,50.02163365,3.309118089,13.86767467,1.211884427,19.02455437,0,28.20991918,16.59790969,-23.66391836,-21.7163719,,,,
344.8959998,1347,0,-13.29771505,65.72414356,0,10.77358717,58.74599354,70.99701691,6.552723106,30.11974264,6.264912839,-199.8087014,0,-139.9303558,-2.248919676,24.61011129,71.70419435,,,,
344.9039998,1347,0,6.582242975,-11.70453008,0,-15.34494036,69.16256508,20.1225771,-23.65873579,1.631028016,-22.05267166,312.9440819,0,209.8977101,0.313727326,112.1470353,-52.3561637,,,,
344.9119998,1347,0,13.65834697,52.55645601,0,29.51779827,85.23028271,77.17329025,18.33569558,26.90325756,0.751848644,-280.1314739,0,-168.5157134,24.89677622,-69.45478119,63.02179209,,,,
344.9199998,1347,0,3.274302355,40.93221701,0,1.134048768,42.49367179,37.95188002,-23.87498922,17.83788318,-4.937561828,157.2758895,0,94.05322417,-6.399676405,134.4035574,9.133889142,,,,
344.9279998,1347,0,30.95104493,18.1557855,0,23.05212547,97.76601904,52.99123763,0.870932519,33.16371117,11.88101522,16.2602482,0,6.114230727,-4.287390412,-32.71662521,-25.62026054,,,,
344.9359998,1347,0,-9.247043766,70.19452006,0,17.63773386,45.73281101,62.98835629,5.981924754,36.83443194,1.061553285,-205.3740411,0,-157.0703172,-10.93333709,25.93069138,73.33994504,,,,
344.9439998,1347,0,16.60922832,-3.886680722,0,-10.13061414,63.7269145,8.51438926,-31.6223132,12.25820708,-12.1901604,315.3578885,0,194.139063,-14.84540906,112.5872641,-54.27545619,,,,
344.9519998,1347,0,20.67567589,59.65106454,0,28.90902288,87.67592862,67.48049882,16.78266326,35.6590567,10.82784392,-285.1503287,0,-195.0020951,5.007469464,-76.81666971,55.39298937,,,,
344.9599998,1347,0,12.91975963,48.42710477,0,-7.973897781,39.53733268,26.67831538,-17.89617745,20.99769332,-1.649547442,155.5254235,0,76.75068228,-14.03896603,137.1365059,10.65261974,,,,
344.9679998,1347,0,37.94546424,17.41178222,0,13.06705484,95.31870181,39.93350506,2.177406394,36.07446168,24.27389816,17.50562683,0,-7.750428172,-2.0419911,-35.04718883,-23.10506641,,,,
344.9759998,1347,0,-5.43110365,66.30130461,0,7.984001934,55.38126204,56.32648559,16.35184313,32.57380308,9.522999118,-214.2066465,0,-171.5364623,8.991881101,15.78959536,82.48080993,,,,
344.9839998,1347,0,23.39982636,-7.676093569,0,-22.01456484,71.53442038,3.954161934,-10.97774813,9.447520543,-6.538034998,326.8400759,0,210.3272029,32.41149591,113.0072259,-30.88277162,,,,
344.9919998,1347,0,16.04933556,44.64635534,0,24.53275186,75.65840674,55.78187231,20.27900089,30.89918264,14.29121953,-269.4798949,0,-157.0325221,54.8745797,-77.12529458,79.19049719,,,,
344.9999998,1347,0,0.903345512,30.66649696,0,-8.452462795,26.23596131,21.0582307,-29.61119703,10.0085971,-8.891483698,157.3697746,0,105.7374309,-14.01346126,123.9169085,15.92799465,,,,
345.0079998,1347,0,38.43533398,10.78651814,0,10.47998955,92.66555151,47.51204552,-2.624280183,33.7214047,15.50587553,17.86990135,0,11.5059312,-15.66880205,-51.71795996,-28.16431462,,,,
345.0159998,1347,0,-3.399346863,63.87118536,0,13.53365094,38.99778224,62.55000437,12.10589425,29.79331125,0.012608221,-217.3286685,0,-150.1934197,22.45664824,6.827245042,83.0235634,,,,
345.0239998,1347,0,21.13636228,-5.821257118,0,-9.631568377,47.79524106,8.90014732,-25.74264056,8.283653813,-12.61747795,317.9817105,0,213.1873981,25.12599464,100.0034864,-42.92855129,,,,
345.0319998,1347,0,16.16224953,55.59539879,0,31.89163464,76.31499565,69.22092743,16.91436061,42.20250198,13.03130135,-295.4720704,0,-197.8184198,31.04995343,-102.8258872,56.15031428,,,,
345.0399998,1347,0,-5.144487277,35.53875393,0,-7.470925101,28.72499495,26.0118289,-17.28776777,12.1323872,-18.71698634,142.388793,0,79.4818274,0.720083409,113.3854873,15.29397073,,,,
345.0479998,1347,0,27.4008826,10.05144604,0,13.19566239,81.56365436,39.50229021,1.902157251,29.354687,8.088518598,19.139214,0,15.70852418,18.37836014,-54.2264166,-18.20321896,,,,
345.0559998,1347,0,-14.49053539,66.47329905,0,14.5140775,38.92676872,58.76914459,11.55679051,26.97297138,-3.870003717,-224.7068279,0,-155.8040396,23.37188656,-3.807979777,90.11770473,,,,
345.0639998,1347,0,19.5374514,-0.899586318,0,-10.18299436,51.70970964,7.466799854,-27.84084159,6.75025451,-15.65209274,318.1236944,0,215.870907,12.38166261,95.87340365,-29.71862505,,,,
345.0719998,1347,0,15.64675889,59.84562791,0,35.35426469,72.61117381,68.56062335,12.47714409,54.32589158,27.61677047,-306.9753224,0,-210.8893629,30.28315664,-113.7694856,64.18139535,,,,
345.0799998,1347,0,-18.30189151,34.80629635,0,-6.075661856,24.07795659,27.54737291,-19.15010219,17.27163611,-10.71649517,127.9464712,0,55.37264655,-4.682585614,103.2180949,23.11938894,,,,
345.0879998,1348,0,25.50987327,9.383919318,0,16.16044861,76.23069617,38.27080591,-7.406632306,23.52959624,4.16532883,14.05057055,0,5.244751427,-4.41760473,-59.7567389,-12.23175216,,,,
345.0959998,1348,0,-11.7320196,64.96268345,0,20.18072382,34.66981075,58.22794613,-1.633153753,33.28277292,10.46539917,-245.8892007,0,-203.1969906,7.998934677,-24.70714214,81.63095104,,,,
345.1039998,1348,0,1.852839207,-12.02373787,0,-15.60066836,51.13964465,9.090708271,-27.01197783,0.034135136,-14.60697903,307.8927343,0,161.5274746,16.003815,81.42306965,-37.69393302,,,,
345.1119998,1348,0,6.447810239,52.89205943,0,28.63884249,77.5810719,69.87711985,19.89781132,31.74453677,9.39471683,-304.1275488,0,-225.8412223,32.7852542,-114.3761226,66.65200296,,,,
345.1199998,1348,0,-6.284219817,41.78276902,0,-1.631452032,33.63355168,28.25741673,-19.48730395,16.3964164,-3.210320822,127.9546268,0,42.58216855,5.998875455,102.9542908,29.02496131,,,,
345.1279998,1348,0,30.84879402,13.7641789,0,19.43224294,82.66080426,39.16447774,-6.48840506,30.02904674,16.92919051,14.89845238,0,-15.19471318,2.977736803,-59.22377319,-8.629082044,,,,
345.1359998,1348,0,-4.959264332,70.93654216,0,28.82166535,39.89650523,63.93052376,2.262137809,36.71705233,15.88572956,-249.3494553,0,-218.0659343,5.090825912,-25.95462378,84.92832361,,,,
345.1439998,1348,0,14.98905901,-3.365090374,0,-0.048140992,53.49666439,13.98006611,-31.4003888,12.32600811,4.36802655,302.7269346,0,134.3946874,13.09587919,73.39292193,-40.37732546,,,,
345.1519998,1348,0,3.45228413,50.85445301,0,32.95137523,70.70548507,71.92837748,19.65676552,31.04520989,18.7853602,-315.0482203,0,-270.729104,11.90952328,-123.2985634,58.04406875,,,,
345.1599998,1348,0,-16.58559187,40.66605188,0,-2.616701023,30.02240666,35.17686679,-10.7311097,2.594408992,-6.592064771,125.1080595,0,12.3349431,-11.72420793,111.4212493,26.37677059,,,,
345.1679998,1348,0,25.01304535,19.63304127,0,18.74284095,86.29159609,47.75251461,-0.48930557,24.56696628,22.47017331,17.56272759,0,-34.75024502,12.03340754,-43.36289383,-11.78865219,,,,
345.1759998,1348,0,-22.93607285,69.51853809,0,17.30103685,36.27171739,68.81156551,13.50322861,21.71254532,11.80770353,-252.1674722,0,-234.4249845,11.97928139,-7.328895971,85.88168342,,,,
345.1839998,1348,0,-4.640404121,-9.438466855,0,-16.20948985,40.08557746,15.60376999,-26.10958361,-18.88381282,-14.17346492,319.6138488,0,161.1395124,17.50853,109.6666916,-24.43998461,,,,
345.1919998,1348,0,5.048192966,56.06273288,0,30.46525008,55.82718642,79.20853648,1.090404189,17.94583682,17.0191574,-307.5471327,0,-242.7836838,28.1571419,-104.2994742,68.37162012,,,,
345.1999998,1348,0,-18.11802926,41.25413371,0,1.065417246,14.98458584,46.12287312,-25.27959633,-2.641029793,-0.526194931,116.8107966,0,0.058610168,-7.416711548,103.8188911,30.8889728,,,,
345.2079998,1348,0,11.86060245,6.167290268,0,13.97912387,68.61622125,49.54881083,-1.366907827,4.447103458,16.49967712,31.44531144,0,-31.76269376,6.763660204,-43.45604439,7.957564657,,,,
345.2159998,1348,0,-18.91053585,69.17263921,0,16.12864854,22.40688351,68.92706757,2.569460928,14.10039917,11.30460302,-241.7563173,0,-222.5563904,4.410947843,-11.70739498,108.4762677,,,,
345.2239998,1348,0,7.64254313,-4.164315958,0,-11.20026717,38.72143672,17.6595031,-34.50116504,-14.88120669,-5.969680961,328.1280519,0,154.3826406,6.543434538,97.03730863,-6.367108883,,,,
345.2319998,1348,0,-0.19862921,44.5448203,0,26.54256076,58.73970356,73.34095092,8.141166609,9.6758402,19.43492442,-287.6204678,0,-243.1279253,29.57214178,-106.085403,92.2361001,,,,
345.2399998,1348,0,-28.48749306,26.40491478,0,-10.72427328,8.282422722,34.57018585,-24.16961779,-22.62875785,-11.21013985,137.3242955,0,19.99438526,-11.35901339,110.3864419,51.31228467,,,,
345.2479998,1348,0,15.91614699,-1.525231481,0,10.66272798,60.21477883,41.06622275,-11.82323081,-16.65857596,4.509540265,55.48789327,0,-4.071468611,-10.92502712,-39.22957215,16.40726473,,,,
345.2559998,1348,0,-4.990229804,69.13777323,0,30.36021008,27.81014296,72.01909663,-4.066085696,7.716971206,18.7020391,-223.7287252,0,-218.749796,-7.235195674,-16.12726875,109.1619675,,,,
345.2639998,1348,0,23.64708187,3.843207931,0,5.781555687,48.86259808,28.41920479,-31.31377807,-10.28644467,12.10239978,353.7521183,0,134.8265254,-6.391934932,93.04244463,-5.650210809,,,,
345.2719998,1348,0,10.32792949,49.84456019,0,30.34544085,57.97172075,71.63173216,14.58656849,9.618081485,28.77590181,-254.6671278,0,-266.5993414,16.19961407,-104.7621077,101.7603395,,,,
345.2799998,1348,0,-20.13723372,27.83890782,0,-9.734374004,4.091038647,23.01969491,-21.70029767,-17.70073113,-5.144534342,168.0050279,0,0.493871806,-3.97462961,111.7720302,67.49564222,,,,
345.2879998,1348,0,30.98474624,2.219578166,0,14.03908555,57.58614211,36.2344703,-9.944818595,-4.518746861,13.58490521,89.06664516,0,-21.52088987,10.52915039,-41.15661116,32.90496032,,,,
345.2959998,1348,0,-4.723228403,62.51277978,0,17.5280364,14.39176928,60.08149106,-0.634968828,6.972217836,19.13397626,-207.844171,0,-244.0583009,4.720976092,-23.67066919,125.5125566,,,,
345.3039998,1348,0,6.306082008,-15.37488503,0,-15.10815047,28.23457964,7.553488802,-31.16868164,-22.35873735,-0.911986938,369.6416844,0,133.8311292,-8.120541314,90.39693754,11.68549374,,,,
345.3119998,1348,0,10.54812915,40.62957766,0,26.95007774,44.78816082,67.57698487,11.73759523,1.239352051,19.07927913,-229.8265418,0,-235.632412,11.42689619,-103.5395008,120.9750812,,,,
345.3199998,1348,0,-6.522384086,32.27472838,0,-4.679099887,-1.555982501,30.64295298,-28.71450347,-16.41988099,2.269583527,172.5563331,0,14.51363252,-6.907126642,102.4916994,77.28538324,,,,
345.3279998,1348,0,24.66900071,-0.861689672,0,10.82840277,54.58891726,39.31835389,-10.50652135,-2.061101157,19.71758671,88.58136955,0,-22.2714975,9.49830063,-46.3597023,37.00371456,,,,
345.3359998,1348,0,-8.97459163,59.19664939,0,16.00337856,7.291775455,60.75911764,2.701899292,-0.612666121,10.0464083,-200.9817031,0,-226.0666437,5.040939014,-12.86793333,139.9903137,,,,
345.3439998,1349,0,27.11931861,-0.894370513,0,-3.532293763,25.9253718,12.27382076,-36.09303949,-18.42382035,2.457037606,361.5120492,0,138.3749687,-16.78103521,87.43452642,13.09005206,,,,
345.3519998,1349,0,22.88815494,51.02180345,0,36.86210754,49.68373283,73.8313251,11.74839866,18.67691512,37.2614276,-249.7009218,0,-266.5974624,8.743194174,-117.9942591,112.5597754,,,,
345.3599998,1349,0,-7.643468789,27.49268579,0,-7.731195803,-7.936792733,26.20745724,-27.73878788,-17.85065954,4.541237977,167.3114063,0,-8.902331165,1.571996352,104.3831134,81.67060351,,,,
345.3679998,1349,0,27.09301562,-6.485221271,0,6.304181963,48.31947668,30.81595359,-12.27292317,-13.77103719,17.67371688,94.9079088,0,-28.12722377,-2.530503241,-41.59839345,42.39768195,,,,
345.3759998,1349,0,-12.00498031,49.68589708,0,13.37768403,2.106787444,55.94910372,0.806295393,-7.128727598,16.11491014,-195.9540347,0,-219.577885,-5.264480672,-8.8333798,151.3760457,,,,
345.3839998,1349,0,13.85987497,-18.96033278,0,-11.13859644,12.34841347,5.199693242,-44.91654923,-29.52438517,-1.224105108,364.6769474,0,152.2530381,-17.3530922,92.43497619,23.61648875,,,,
345.3919998,1349,0,4.93248385,28.28329544,0,21.76730658,38.02831302,60.60707462,2.651171176,-2.905334233,18.36289228,-252.3852231,0,-256.8048263,0.491101365,-116.1467099,116.375211,,,,
345.3999998,1349,0,-18.56469563,7.965756705,0,-19.98237579,-23.58460387,9.560317816,-38.71164545,-38.57979711,-15.06894132,164.6528603,0,10.13466288,-9.783441304,108.2531069,88.06878492,,,,
345.4079998,1349,0,29.37507185,-15.44077327,0,9.33208846,36.46317725,22.04038987,-25.61446252,-15.10021991,12.77282988,90.80687041,0,-16.47661357,-33.23142861,-47.83478277,38.58323864,,,,
345.4159998,1349,0,-12.55768958,40.87022809,0,17.84071525,3.906837718,51.15126909,0.553374316,-2.769672667,15.52508161,-208.0251269,0,-229.4342029,-22.83457048,-19.67752338,141.53457,,,,
345.4239998,1349,0,10.25696498,-31.28181498,0,-15.45318567,8.309920568,-9.491173145,-39.03894757,-36.61333362,-8.411772633,366.3778072,0,160.8251257,1.181245472,94.65223371,18.36187048,,,,
345.4319998,1349,0,8.736511159,25.93589031,0,23.2628125,28.9657588,42.24115154,5.441287987,-1.005641507,18.74726555,-243.6633176,0,-227.120727,-2.017783078,-114.0552471,110.5946482,,,,
345.4399998,1349,0,-19.00453129,9.461861573,0,-14.28419715,-23.59804726,1.240082496,-27.73047963,-28.48797198,-12.35617865,161.6282757,0,38.7886213,-28.84534958,103.3451472,80.22030573,,,,
345.4479998,1349,0,25.43845833,-21.75178706,0,1.357281503,37.20544376,19.35882057,-14.35693074,-20.02749344,2.019102593,86.7058181,0,19.95161162,-11.95054741,-54.37864155,29.86608443,,,,
345.4559998,1349,0,-6.098603928,41.37671106,0,5.337338025,-1.533047052,43.755871,-0.53815092,-6.979988696,8.809763514,-216.6133036,0,-189.5000029,0.125410108,-28.97685097,132.9988255,,,,
345.4639998,1349,0,33.00696762,-11.50659584,0,-8.473665311,7.098951157,-13.69276879,-46.62112166,-24.00665231,-0.723690664,356.504616,0,187.7670192,-12.30554925,86.30061546,5.518383955,,,,
345.4719998,1349,0,34.29183316,50.22231916,0,39.63469196,40.41431472,54.57743027,4.088759749,18.98765849,32.6040492,-258.2489376,0,-240.0848129,-0.993295335,-126.7976338,92.24447299,,,,
345.4799998,1349,0,-4.590184315,26.87794868,0,-7.098619702,-14.29770702,15.37283112,-21.36530138,-13.63969902,-1.79762509,152.8097976,0,5.660099355,-0.261331991,100.1814334,71.82214587,,,,
345.4879998,1349,0,38.01395966,-3.453644057,0,15.45871209,39.84947842,22.19969428,-5.833436596,-10.68114144,7.236386126,100.390545,0,0.574811475,1.16922797,-41.13303792,34.4985317,,,,
345.4959998,1349,0,-4.450781064,53.45058587,0,23.0562239,5.045379712,49.8488414,16.06563991,1.079357937,14.71304262,-206.68271,0,-215.6895028,1.191015724,-21.60939896,141.5997939,,,,
345.5039998,1349,0,15.01620322,-20.34787649,0,-13.80412908,4.102201283,-10.38513064,-29.67131552,-31.41293729,-5.646383016,369.761827,0,177.8774888,2.477152247,96.7803562,20.51920215,,,,
345.5119998,1349,0,25.12071753,38.83706339,0,30.95600412,30.93570452,48.20628797,9.857394613,-0.520182786,20.5425143,-243.4435702,0,-223.7412212,8.358241169,-118.766792,107.9827637,,,,
345.5199998,1349,0,2.960014813,26.95879991,0,-1.967822838,-10.93997133,12.70173826,-17.12005472,-18.80760132,4.217194733,146.6304664,0,8.972542275,-10.30775232,89.43851774,77.11136471,,,,
345.5279998,1349,0,46.06116404,-4.555820943,0,15.02129529,38.3347522,18.43936402,-6.891857507,-5.970414244,22.69724277,89.82236788,0,-12.43140733,-18.96369615,-57.15745112,29.58315652,,,,
345.5359998,1349,0,6.009286437,55.00454811,0,18.9699053,-3.906348512,46.07896675,6.556039473,5.173201052,21.06476623,-223.9449622,0,-252.2785908,-15.70793614,-42.76829456,130.0194422,,,,
345.5439998,1349,0,25.10245715,-16.72580359,0,-15.34463413,8.02442492,-9.656882772,-29.64553447,-17.81985378,3.244729803,354.0135787,0,127.9144146,-7.737325584,73.74900114,11.26753188,,,,
345.5519998,1349,0,30.10448413,33.04351523,0,26.17679628,30.4550281,43.84755029,17.1011869,8.432224037,27.68603861,-245.703739,0,-257.9369458,11.21094242,-132.8567604,108.9256462,,,,
345.5599998,1349,0,3.451626104,17.9774888,0,-10.18097227,-20.61456667,6.036963856,-16.46806522,-19.16977652,3.567891953,137.6715387,0,-27.72813035,6.443854404,72.63254915,73.80283556,,,,
345.5679998,1349,0,42.75357709,-9.076719705,0,3.332023327,32.04491493,8.889767817,-13.9088961,-3.487042362,23.34596104,80.8883132,0,-46.04750321,-18.82195521,-77.66280123,19.93903341,,,,
345.5759998,1349,0,6.819213068,57.90560961,0,14.25466647,-9.244475317,36.7271607,3.936050102,4.721201476,16.69861232,-229.2566606,0,-267.2658427,-21.58082162,-55.04434939,125.3138759,,,,
345.5839998,1349,0,22.4306597,-11.16231155,0,-13.60228201,14.08596743,-9.923131912,-20.54824023,-16.4974247,-1.425409008,345.9757542,0,111.0887275,10.33312097,66.86532267,3.39373434,,,,
345.5919998,1349,0,23.82424637,39.42294219,0,27.48767693,38.6526153,34.89571565,19.59799309,11.79900263,22.68178668,-242.6307178,0,-257.5892001,24.69147748,-127.5384841,106.3079723,,,,
345.5999998,1350,0,6.502179577,31.65953232,0,-2.127589829,-21.28002125,-15.46216476,-20.04978454,-16.42095041,-6.527856111,160.4010718,0,0.481594129,-5.877626272,94.93243942,79.27944399,,,,
345.6079998,1350,0,44.76337268,2.133117273,0,14.29729584,44.27153901,-0.913111624,-4.572763226,9.253345118,21.24877614,107.463521,0,-28.07843952,-14.96644068,-55.15518125,19.73517251,,,,
345.6159998,1350,0,7.158708768,55.4444316,0,24.96186552,2.726701486,28.93003259,6.986526368,12.45673747,15.61102961,-219.8219925,0,-254.0551494,3.190963538,-29.59904097,129.0877285,,,,
345.6239998,1350,0,28.8425639,-15.76296476,0,-4.567052566,5.178081111,-28.67057067,-36.86071908,-19.99088871,-8.764651648,343.9320526,0,123.8727448,5.755150681,89.60001738,-3.988371071,,,,
345.6319998,1350,0,24.31647814,38.89938414,0,28.26722562,33.02359123,32.02485007,8.258256594,20.98706714,19.86427595,-261.1689557,0,-282.9970286,11.38706812,-128.9355199,73.19024581,,,,
345.6399998,1350,0,0.470530539,23.15124315,0,-4.88340015,-21.06672622,-3.926237136,-22.31689639,-9.146118309,-11.9326969,130.4998441,0,-32.47723525,9.03964305,96.01691479,51.50931802,,,,
345.6479998,1350,0,35.04587752,-14.5994363,0,7.503075036,38.79913453,-1.424250803,-7.269927844,-0.438339585,5.904294887,89.43698494,0,-33.46721469,-15.08576182,-39.07199695,-0.965561238,,,,
345.6559998,1350,0,-3.421695614,45.03467354,0,10.32254401,2.918927901,23.87741476,3.832950349,9.265854732,-0.6944122,-230.0246723,0,-254.0869066,-19.55754124,-22.48436649,98.73517801,,,,
345.6639998,1350,0,30.66803625,-16.01682778,0,-10.98441119,11.08567022,-27.43272136,-44.91846428,-12.505512,-18.11150681,350.023157,0,138.7596556,-1.860981628,97.93954994,-31.73742755,,,,
345.6719998,1350,0,19.80769691,34.93781717,0,24.28185736,40.82016432,26.12135811,2.725776842,22.30887351,9.129447104,-246.2393209,0,-256.3249335,4.868894032,-111.6430303,53.89798637,,,,
345.6799998,1350,0,-19.84331351,14.61028346,0,-21.71304819,-14.24178364,-20.3118119,-23.20698052,-16.0242655,-34.57070077,140.7220882,0,-2.519628892,6.97715101,113.4474209,35.16369238,,,,
345.6879998,1350,0,31.89020769,-10.69554714,0,2.013967145,40.533033,-12.75750239,-14.30356697,-1.701737042,-10.26300518,99.27744954,0,6.48420585,-4.646540851,-28.06583605,-15.76178291,,,,
345.6959998,1350,0,-1.594030504,53.4075595,0,14.85881771,5.482429339,17.09184018,2.556565877,14.6926086,1.643451618,-243.0335848,0,-244.0164367,-27.8239991,-29.4500222,80.85646439,,,,
345.7039998,1350,0,12.11926362,-24.0812661,0,-20.4818704,8.980514901,-41.39071201,-33.85938504,-18.99070037,-19.58375564,329.9970293,0,134.1700241,-12.7046902,90.82306602,-44.15192704,,,,
345.7119998,1350,0,13.74583093,30.49890198,0,17.492732,33.37923474,14.74940194,12.13812281,10.87601881,6.473635931,-257.6941009,0,-243.2312456,-4.337021038,-112.7786783,53.49927022,,,,
345.7199998,1350,0,-11.0160537,22.30840932,0,-20.71813314,-17.75769076,-22.77644118,-17.45111824,-14.15037132,-25.31611167,122.320969,0,-4.87577647,-13.0403735,99.63303535,31.21026246,,,,
345.7279998,1350,0,28.21124626,-13.24721419,0,-2.60014626,35.6309012,-15.7605357,-10.48939545,3.391048161,-6.761651531,82.86992707,0,-9.935917409,2.234167299,-47.97261967,-21.72383181,,,,
345.7359998,1350,0,-13.19680928,47.66571849,0,10.96173402,-3.067274227,15.02787536,8.264845977,13.31470636,-4.177972968,-256.6712999,0,-258.3092808,-17.42382765,-45.69521985,83.69470483,,,,
345.7439998,1350,0,3.444773904,-25.43505207,0,-23.449921,-2.58008699,-47.1884529,-22.1775123,-25.46281075,-28.44266266,332.2423839,0,137.9756161,-16.72668158,86.03023552,-32.67808913,,,,
345.7519998,1350,0,19.67636732,34.49800872,0,20.50391915,19.7874004,3.700089504,18.0919241,15.04389109,4.031514139,-249.2679139,0,-224.9518811,13.10250739,-116.3725589,70.97513228,,,,
345.7599998,1350,0,-5.653952516,22.40692367,0,-14.6206618,-27.04326698,-36.22019536,-12.7879316,-5.625135445,-19.80995552,119.4832467,0,5.712143662,-3.125907942,88.92754867,47.87151352,,,,
345.7679998,1350,0,30.37078221,-19.41520272,0,-4.035352075,23.84194931,-38.51161957,-7.226067801,-1.651638999,-4.533289123,86.35635773,0,14.55079332,-7.831994822,-53.44429986,-5.573284125,,,,
345.7759998,1350,0,6.98472189,55.88063803,0,17.1601762,-17.49789589,-0.500131889,-0.577622451,21.30090896,7.604728215,-257.6985334,0,-226.0549951,-25.21717857,-53.22582041,99.22065679,,,,
345.7839998,1350,0,24.702165,-15.08717662,0,-13.68311569,-3.395547862,-46.07466147,-27.10804662,-5.185077219,-9.629349844,326.4885618,0,156.8892139,-27.8698987,73.44226787,-22.39123373,,,,
345.7919998,1350,0,34.94819739,37.4903955,0,20.98722066,21.48059729,4.461465038,11.65881012,25.33140909,17.47281043,-258.4155983,0,-213.9728687,1.350225544,-130.7144237,74.86411962,,,,
345.7999998,1350,0,4.799867318,28.26238694,0,-10.14097837,-33.78689275,-36.77117601,-27.21253573,6.233275876,-3.883359813,99.38948379,0,4.165490577,-19.58845085,72.0423119,42.02963319,,,,
345.8079998,1350,0,30.39093434,-17.53591487,0,1.585560402,21.81190555,-38.0654117,-10.37797278,4.381078887,-0.256947709,66.30050824,0,1.19858124,-12.46780107,-66.52353767,-16.02767127,,,,
345.8159998,1350,0,9.543673398,55.76616719,0,12.44491441,-17.43230537,-1.282878365,3.44501305,18.64736112,0.808583589,-280.4080447,0,-245.9821941,-2.216891899,-60.58941807,90.81310759,,,,
345.8239998,1350,0,25.91649659,-13.82878181,0,-21.15684383,-1.108164018,-43.28044164,-20.09882199,-1.602285059,-7.517269449,318.1105128,0,150.5148996,-5.188838051,77.93118143,-25.61844835,,,,
345.8319998,1350,0,29.56987454,33.05185491,0,23.60152615,31.70764475,7.163922096,22.0384806,24.50635759,15.96757972,-254.4125242,0,-204.5738301,12.30931507,-117.8665446,79.41925289,,,,
345.8399998,1350,0,6.13828955,24.62747676,0,0.636565331,-23.42888737,-36.71299307,-22.215131,6.839489957,-5.415514786,92.71104179,0,-0.198398697,-34.11657766,77.90848005,39.47529939,,,,
345.8479998,1350,0,32.30055663,-19.86681436,0,6.54412703,35.09035082,-35.09377288,-0.008029272,8.916579618,5.39837154,69.20803097,0,-5.690251083,-35.42444462,-60.82215842,-23.79774801,,,,
345.8559998,1351,0,9.7302712,52.53989298,0,17.1011804,-4.354175663,-0.421393632,10.40517326,15.12631135,1.074928465,-261.2235981,0,-235.5969846,2.161753883,-46.5660649,94.65654788,,,,
345.8639998,1351,0,35.27800206,-12.74277203,0,-13.79562409,-4.303727131,-52.64890512,-40.51172569,3.877187737,-0.997714788,330.4914494,0,144.1624119,-14.98002918,79.0122624,-37.05982554,,,,
345.8719998,1351,0,32.28505748,30.54156786,0,18.86388803,24.68574603,-1.049293443,5.549234035,33.4954317,24.59409745,-264.0238979,0,-250.0083851,-20.25637531,-135.1136058,48.53118406,,,,
345.8799998,1351,0,4.133327299,19.62155307,0,-8.680837173,-25.31818571,-33.01577928,-22.84734324,1.278536862,-11.01704756,86.66995756,0,-26.39624368,-21.33214468,77.39386976,33.72567267,,,,
345.8879998,1351,0,40.61134521,-21.27093708,0,6.720898369,31.0662392,-25.93794125,-12.21768153,7.091086525,8.504437623,69.3459367,0,-11.70414354,-8.792840848,-54.7018998,-15.70011725,,,,
345.8959998,1351,0,0.842477985,38.36493227,0,9.912080924,-4.507755734,2.598764261,3.678302636,15.92852167,8.115497301,-288.8830923,0,-271.7942178,-0.835528459,-57.13721072,93.88350623,,,,
345.9039998,1351,0,9.806730058,-40.36346516,0,-31.10199557,-2.92382209,-58.68354096,-30.02548324,-17.37131295,-20.77912436,303.303575,0,126.7890392,2.427554418,78.07385964,-28.93402103,,,,
345.9119998,1351,0,23.42087704,15.32071258,0,11.27660626,23.6949987,-2.954386851,16.2218905,9.717031424,4.939592864,-274.5939224,0,-234.6247042,-10.42402403,-129.5070793,64.60471376,,,,
345.9199998,1351,0,2.784985777,20.64595758,0,-12.75952615,-21.53615715,-25.57711505,-13.36342742,0.710358735,-8.104426996,72.88923981,0,-32.11521259,-41.21770334,68.43846127,34.69265464,,,,
345.9279998,1351,0,26.30890761,-22.16333448,0,-3.311873589,37.81727895,-22.18817308,4.486131331,8.723496126,4.445102124,66.44697154,0,-20.22204964,-12.70421155,-60.41772627,-28.37981927,,,,
345.9359998,1351,0,-11.07055674,36.88838059,0,5.922170454,-7.023550819,-3.166826378,12.25744392,10.62270372,-9.127320416,-280.589265,0,-251.8576363,-10.00782192,-46.77343943,85.90590347,,,,
345.9439998,1351,0,8.397262358,-32.90961063,0,-15.1103353,-0.056298448,-51.53900931,-36.76537431,-10.44530553,-27.11667895,292.5490864,0,122.7639571,-30.87312479,73.4424359,-59.99114477,,,,
345.9519998,1351,0,7.892297904,17.29173268,0,31.9495936,37.25742365,14.35936794,20.195787,12.99922618,-0.58731955,-291.2288854,0,-262.7359445,-21.23247117,-132.6394966,21.74186773,,,,
345.9599998,1351,0,-16.09605623,17.62434029,0,-2.815767869,-22.45450321,-29.75364449,-16.12992503,-10.85893151,-21.95844171,77.6004238,0,-27.5194697,-38.44540882,99.39001176,14.75202058,,,,
345.9679998,1351,0,23.29053718,-17.51555678,0,7.033564043,34.25684791,-33.69269319,-20.0895207,7.497237436,0.762348836,54.2113693,0,-31.88568644,-44.18563846,-46.60651917,-64.61943309,,,,
345.9759998,1351,0,-15.36307243,41.35463232,0,11.88603952,-0.880933206,-3.228794578,2.146862426,7.949170851,-11.44465584,-313.1648168,0,-295.9128035,-49.12138817,-51.84647463,40.80175985,,,,
345.9839998,1351,0,8.335957495,-24.36217836,0,-14.100624,6.539222994,-51.32556149,-37.50690413,-15.91096899,-26.77032868,286.871626,0,97.20635964,-51.08331295,87.80708649,-80.2095707,,,,
345.9919998,1351,0,4.822391266,23.25662458,0,28.27445578,45.78038095,10.55547426,9.894405032,25.78294168,8.473313847,-306.775444,0,-314.7757001,-27.6544524,-137.2807446,-3.028676682,,,,
345.9999998,1351,0,-39.14220318,1.780852879,0,-20.26022579,-20.23911289,-38.8032367,-21.0078182,-16.10246271,-42.33808829,44.17405613,0,-96.38090998,-32.68622052,77.9922405,-13.78814848,,,,
346.0079998,1351,0,13.04430411,-28.44307003,0,1.509668333,33.00820542,-34.01585754,-19.01111915,-5.023504468,-27.12327063,43.04530365,0,-67.00362059,-37.19029379,-52.01953355,-75.32090555,,,,
346.0159998,1351,0,-18.42141969,45.40263953,0,16.30370732,7.873667384,12.96437803,13.68666685,25.74861021,-8.460910703,-329.2699923,0,-349.9275502,-41.60037339,-61.17319458,34.91833172,,,,
346.0239998,1351,0,-11.10956912,-32.70945469,0,-31.13606126,10.03573883,-49.52537824,-13.84880956,-14.00217093,-39.49237805,294.738596,0,73.63492564,-38.90554891,99.19668382,-66.00081426,,,,
346.0319998,1351,0,-6.244437372,15.04300227,0,11.3586322,38.77149899,5.759506347,26.11126284,12.72487421,-17.01131344,-270.064755,0,-268.427945,-18.85445183,-103.8329789,32.14821038,,,,
346.0399998,1351,0,-38.83959878,8.29178787,0,-20.28965302,-23.9933396,-25.6738886,-10.36720965,-10.00440842,-48.46227401,70.37848464,0,-43.88463268,-26.82938066,100.2571981,14.3702818,,,,
346.0479998,1351,0,14.34470574,-22.92969467,0,0.436326522,31.12481925,-26.62976282,-12.65812989,-2.396610029,-34.99474175,84.88386537,0,3.000627683,-24.08385695,-25.12130045,-49.59982919,,,,
346.0559998,1351,0,-19.86483293,40.17850313,0,12.50077487,4.549382829,10.07996566,7.438053692,21.15455653,-21.13142187,-289.757182,0,-271.3002358,-26.8887073,-35.77371677,55.60772977,,,,
346.0639998,1351,0,-14.27491869,-42.74274304,0,-32.848271,6.078311165,-50.63950442,-33.05154462,-12.94981993,-49.8135887,315.4237616,0,135.949181,-37.47334076,106.4878923,-65.6209424,,,,
346.0719998,1351,0,5.400506852,13.68223559,0,16.93573306,41.22953877,6.517235067,1.660391598,15.58394638,-23.99275654,-262.632118,0,-225.0170847,-19.66411715,-114.3281323,16.61422888,,,,
346.0799998,1351,0,-29.92049579,7.003586493,0,-14.1392632,-16.04155388,-17.49440643,-18.35165437,-6.907322162,-46.90156665,66.71836704,0,-23.29151052,-14.60151351,89.91545673,3.948219398,,,,
346.0879998,1351,0,-0.246709743,-34.88827791,0,-5.887992714,34.23536653,-17.3155388,-5.081228665,-1.908434945,-34.02532734,90.57714583,0,31.40073537,-15.41944346,-23.46121385,-48.3133781,,,,
346.0959998,1351,0,-26.49558544,40.90240682,0,11.16239454,5.700349645,16.51257726,6.624813199,21.01066468,-24.68150806,-285.102675,0,-225.796681,-24.90446667,-34.16502064,59.20254644,,,,
346.1039998,1351,0,-12.04449107,-35.35021028,0,-26.08024168,1.874323232,-38.21655376,-35.51427273,-6.256314203,-52.74697577,314.7757482,0,170.1462903,-31.18499257,107.1291924,-68.50818225,,,,
346.1119998,1352,0,-1.770948441,12.12268903,0,22.55496301,37.77944482,18.99923285,9.197757792,27.30751078,-28.43672675,-261.4729861,0,-205.3620466,-23.02308011,-112.2416276,4.731544006,,,,
346.1199998,1352,0,-33.319666,14.09136309,0,-5.437727618,-1.892674995,-10.22344241,-16.80629153,11.88663783,-42.64146058,66.8262274,0,-10.17091243,-24.46503455,90.58833061,-19.38426062,,,,
346.1279998,1352,0,-11.73492368,-35.29561249,0,-8.293903041,44.4942766,-12.77953449,-11.48060985,7.879449963,-36.11541141,91.72611182,0,33.99842002,-7.015383171,-23.95851012,-83.9172412,,,,
346.1359998,1352,0,-41.94262592,28.23441832,0,3.861711176,-3.771904412,14.04046095,-2.912472566,9.905593957,-47.99444853,-289.4242682,0,-222.0024438,-15.25509859,-35.89804037,23.05007054,,,,
346.1439998,1352,0,-18.76663549,-36.15308601,0,-22.3620824,-1.862560269,-37.46743379,-45.42973679,-12.28373359,-56.27661431,302.358906,0,167.8124679,-43.49026285,95.37330926,-110.011774,,,,
346.1519998,1352,0,-20.39892088,13.48172273,0,21.02940776,43.17810429,25.15835723,9.856526388,15.68735037,-16.38146932,-270.9389717,0,-214.9138802,-29.60607526,-122.4640823,-29.97311282,,,,
346.1599998,1352,0,-50.1296226,14.54468523,0,-9.800461146,-6.972321534,-13.85157595,-17.1122448,-18.26740226,-41.77073778,72.15736769,0,-3.586832799,-27.19191302,93.35330801,-31.48329353,,,,
