Time:125Hz,Epoch,FP1,FP2,C3,C4,P7,P8,O1,O2,F7,F8,F3,F4,T7,T8,P3,P4,Event Id,,,
607.1439996,2371,0,-59.95396177,32.33166375,0,-35.72985337,25.93524025,48.2228453,14.65992893,18.28184022,215.0588198,-246.8947515,0,57.29240695,-92.03128045,-150.7860587,153.9336304,1111,,,
607.1519996,2371,0,-76.79780222,12.961919,0,-71.42741385,-29.55669008,4.550475284,-14.57151934,-9.610381385,160.7744695,159.9678125,0,334.6891952,-128.3997,74.36550519,138.9523994,,,,
607.1599996,2371,0,-28.49955624,14.07653254,0,-96.70342478,36.95300985,22.22010832,-10.77373352,11.01689983,210.8947417,5.22649752,0,255.3502386,-95.96715649,-77.85695958,62.12587956,,,,
607.1679996,2371,0,-66.85227051,56.12940532,0,-2.165307868,9.386196958,43.19356859,23.44031515,21.66159722,214.0549569,-148.4434551,0,73.37232596,-76.88232824,-53.23855398,188.1327645,,,,
607.1759996,2371,0,-43.02911176,1.920869644,0,-115.8830129,4.167428153,3.133659814,-29.63004838,-4.011041437,179.7404708,292.8763034,0,442.8549963,-110.1189475,79.74700838,63.94006977,,,,
607.1839996,2371,0,-45.14163414,48.46627522,0,-21.93014144,38.28565878,53.9661036,10.32741792,21.70173036,223.1336507,-246.1064478,0,23.90270522,-83.74078412,-145.3939377,151.9717699,,,,
607.1919996,2371,0,-72.70934612,17.47704383,0,-53.34860278,-3.348090585,15.12612861,4.193829837,-5.07702999,181.8557257,175.6148303,0,315.0492341,-84.19960812,84.03803912,140.1161367,,,,
607.1999996,2371,0,-34.58402706,7.432864343,0,-93.08079445,43.67434535,25.78835205,-3.629572788,7.269195461,205.4650934,7.390555182,0,257.4093751,-89.54654637,-59.00818219,87.24578197,,,,
607.2079996,2371,0,-69.50479397,44.6796459,0,-6.77515019,-0.922469682,38.99650241,12.5975193,16.03969264,204.1092706,-152.9245333,0,74.10970177,-83.79884329,-45.52749067,196.4629497,,,,
607.2159996,2371,0,-54.70715716,-15.71573929,0,-112.3057786,8.306534366,0.758851764,-23.14296912,-10.00569981,175.3165062,273.1866169,0,425.5196884,-102.7753645,72.16835981,56.67465374,,,,
607.2239996,2371,0,-52.10239682,33.76222076,0,-24.15395866,32.89309396,47.84200109,5.494310579,13.98620564,207.8041625,-262.2221872,0,29.11481096,-88.39095284,-139.2834135,161.1369692,,,,
607.2319996,2372,0,-70.85852306,8.425972845,0,-60.30280246,-23.88860207,8.14526367,-21.2893198,-3.25058297,168.0826131,158.7992734,0,306.8768406,-81.49688308,78.09725466,121.6867168,,,,
607.2399996,2372,0,-43.83940297,-4.648211768,0,-94.11855126,32.29925962,21.70105445,-13.51651576,7.825741673,188.1598885,-15.82194695,0,216.7576653,-89.31610204,-75.55335742,52.34626639,,,,
607.2479996,2372,0,-59.99750676,42.53875499,0,-14.28023919,-12.63006582,33.77296073,-7.954022738,16.31592654,191.1305085,-149.1244004,0,62.70054632,-110.9086826,-44.63081384,176.698107,,,,
607.2559996,2372,0,-34.9679284,-6.002631808,0,-115.3907071,-0.430320249,0.306862469,-49.56657974,4.249570702,173.4154254,257.6460231,0,387.0287742,-113.6789892,52.78541739,17.50946308,,,,
607.2639996,2372,0,-51.02286492,35.75068364,0,-24.31307663,31.7850893,44.66902225,0.568290104,25.81316409,201.2267599,-277.805968,0,-26.75511434,-84.15197509,-157.3668319,116.7340916,,,,
607.2719996,2372,0,-64.39564834,8.281522446,0,-68.30300844,-23.82647481,-1.837477466,-33.15951997,3.417702771,165.6889794,159.6406754,0,276.0381707,-90.108875,75.0079529,95.35786468,,,,
607.2799996,2372,0,-29.49931398,1.742305603,0,-94.56925177,33.09672555,17.17151669,-32.09056793,16.82006289,190.1851157,-33.15782198,0,168.3572589,-74.47768148,-89.19677562,25.28085127,,,,
607.2879996,2372,0,-56.71924115,39.42639377,0,-13.68456766,-6.953136679,30.54244955,-2.407937031,22.31370352,187.1230358,-147.6526133,0,18.38833198,-86.90098516,-50.22265138,147.5364322,,,,
607.2959996,2372,0,-34.22156149,-15.65285763,0,-119.1448473,7.539847151,-7.521651328,-26.25314094,7.633897872,173.3884589,269.46124,0,369.9306306,-91.17233866,63.54057555,17.29581233,,,,
607.3039996,2372,0,-33.44279208,40.20743408,0,-22.75192577,26.25931228,37.42273237,13.14309196,33.48268371,200.7466206,-255.4563381,0,-18.89953087,-57.38624486,-134.9621388,135.2493241,,,,
607.3119996,2372,0,-44.71258796,18.8290702,0,-63.98476859,-28.20359854,-4.283487428,-20.53217887,16.56056243,163.1868391,190.620907,0,288.3101825,-101.5916855,92.27469673,103.2544503,,,,
607.3199996,2372,0,-21.34651052,11.01164311,0,-86.60435892,42.7593079,22.05065562,-9.886887694,28.2575071,188.4702402,-18.83173684,0,176.3227312,-90.99426039,-73.40347294,42.96498632,,,,
607.3279996,2372,0,-45.25471502,55.69536281,0,-0.046732471,-0.05230817,38.20988175,6.418013922,31.74284734,176.8715042,-134.5757904,0,35.33060736,-78.36630115,-25.07047898,169.1860594,,,,
607.3359996,2372,0,-30.7131103,-4.012570143,0,-106.1198652,9.718347729,-6.715805676,-23.48099237,13.99055373,155.4885214,263.354272,0,364.6257438,-92.24844483,80.80329662,29.83467662,,,,
607.3439996,2372,0,-42.67267223,41.33698685,0,-15.08689997,31.14378383,34.61486747,18.64420775,32.90004036,171.2337225,-270.1128686,0,-37.32590433,-64.34560343,-122.8326281,140.7685849,,,,
607.3519996,2372,0,-48.68771668,21.12410514,0,-58.28156665,-26.14210575,-6.022329096,-23.38215335,16.48633252,123.0477631,171.8520587,0,264.336083,-93.10628828,95.23907048,95.19148047,,,,
607.3599996,2372,0,-38.94863353,4.733428505,0,-82.79433179,36.577151,9.400967986,-5.78310807,27.69788565,144.5437335,-44.54217518,0,135.1644526,-88.06763502,-76.29211478,33.47485164,,,,
607.3679996,2372,0,-73.05736015,38.3606632,0,-4.052100175,-4.386364467,17.83258401,22.72525492,18.47070232,122.1190228,-133.9628578,0,25.74621534,-104.9881906,-13.39538065,169.9202541,,,,
607.3759996,2372,0,-36.73432569,-12.27928008,0,-111.816736,8.557947281,-16.46542041,-18.10757743,1.77951762,105.0833803,259.5284175,0,373.8658923,-116.5933681,94.71140459,39.195667,,,,
607.3839996,2372,0,-47.55990538,32.2070568,0,-21.38413321,31.92431151,27.93073094,22.3540594,31.66261925,146.9001012,-277.3767747,0,-38.67908552,-72.5929895,-111.797431,143.705747,,,,
607.3919996,2372,0,-55.89015259,5.531416646,0,-64.8578263,-16.07526317,-11.61885273,-8.507660779,8.900038656,100.1260081,170.6539841,0,272.5633166,-104.0449359,106.4685269,100.3205709,,,,
607.3999996,2372,0,-20.18368205,3.978659626,0,-82.04195901,48.30706351,19.98832963,-1.845838701,20.97063903,117.7714205,-57.62179556,0,142.8740427,-89.14645877,-66.57399755,47.99034424,,,,
607.4079996,2372,0,-47.67616843,46.05960531,0,-0.421186964,7.822777696,33.20863885,19.6725654,29.16405055,124.6306735,-140.2424981,0,17.22971499,-69.00652266,-8.798938792,166.2751114,,,,
607.4159996,2372,0,-21.68632036,-4.886492095,0,-102.9336692,23.60438416,-6.867996471,-11.36934095,15.33282677,113.6166185,249.8330038,0,351.5104471,-66.93345371,91.75820571,33.38744264,,,,
607.4239996,2372,0,-26.88239731,47.16104839,0,-12.17937642,47.84381879,41.59373829,29.81485166,36.73929601,143.4134191,-271.8478403,0,-40.16299997,-46.95130653,-97.69587944,158.04909,,,,
607.4319996,2372,0,-30.70020462,28.88618689,0,-60.80351271,2.920729376,-0.233340308,1.413022632,20.23852707,118.8424237,193.9297115,0,295.160044,-82.99541684,138.9944004,126.5164073,,,,
607.4399996,2372,0,-5.218372461,28.12261446,0,-79.13025016,52.10488601,12.70335902,-2.045672029,41.01122159,138.7816447,-41.70476685,0,165.3833213,-74.17287656,-34.86224723,77.16632794,,,,
607.4479996,2372,0,-45.49396728,62.11884552,0,-7.059411504,-3.725079962,23.40208887,-7.573467006,43.05063061,122.3080934,-125.4358169,0,34.95635062,-79.82111447,6.61295696,173.7106665,,,,
607.4559996,2372,0,-27.91503966,5.159185692,0,-107.6444587,17.72955982,-2.362892856,-36.69852534,22.52953039,107.4433532,242.3628937,0,338.8174563,-97.61533639,85.17502988,23.88380837,,,,
607.4639996,2372,0,-52.98372596,39.42746652,0,-8.522358652,36.74800491,40.20460773,16.81635221,36.97302922,127.2117971,-284.4621012,0,-67.77260658,-76.23532531,-103.7009355,141.8705169,,,,
607.4719996,2372,0,-82.5983114,-0.58302822,0,-64.58458601,-20.89030595,-11.53621793,-15.6834426,-2.504905124,78.340501,174.2522045,0,272.4494592,-102.0905289,131.4630402,100.9872969,,,,
607.4799996,2372,0,-52.84904302,6.374244775,0,-79.7380687,34.5353487,12.05740614,-13.1850028,3.268347681,90.8987046,-78.96550891,0,144.5173575,-108.4745246,-44.4320587,60.54093599,,,,
607.4879996,2373,0,-87.03767285,43.14228164,0,-0.228209838,-7.723646269,27.07220858,-6.232128905,10.31025973,90.4656221,-155.0236099,0,20.15827085,-112.5264856,3.28748813,156.2844558,,,,
607.4959996,2373,0,-90.72173816,-24.21159621,0,-110.2568848,8.716522591,-12.79231934,-35.35385047,-23.32515179,78.81359356,195.6314984,0,321.527383,-96.67280812,80.85858822,8.945700314,,,,
607.5039996,2373,0,-124.5685463,23.45652677,0,-16.95672315,15.40071613,29.75454422,13.49565024,-22.28112142,81.42768581,-330.5665876,0,-69.72730976,-77.10749318,-104.3987294,137.7306342,,,,
607.5119996,2373,0,-162.5433648,-7.566462184,0,-67.89026445,-31.51847615,-4.686807012,-10.73910041,-52.24674614,34.54910544,128.8602895,0,255.2766906,-120.6627175,112.1763919,77.38917349,,,,
607.5199996,2373,0,-157.5250275,-16.45734715,0,-87.04650733,38.23535684,16.75035729,9.962502576,-53.49545034,51.0045816,-133.9839441,0,101.6909887,-100.1426694,-71.86886365,33.09654016,,,,
607.5279996,2373,0,-186.794901,13.32900434,0,-17.42712527,-9.030247084,17.53621577,25.42536721,-56.80010881,26.27617298,-182.0226951,0,9.062573292,-104.7969004,-1.218350471,151.1128841,,,,
607.5359996,2373,0,-162.2173219,-44.13104741,0,-120.0054604,6.703873565,-15.95355407,-5.652583548,-70.27485839,13.02970578,173.2939301,0,315.6838395,-116.8347597,73.6062393,8.172928617,,,,
607.5439996,2373,0,-171.0589066,9.153575958,0,-22.04499906,20.30282567,30.82757936,26.54062223,-44.63431197,51.97120998,-342.1354536,0,-81.81224741,-81.8460531,-114.1810537,130.0510642,,,,
607.5519996,2373,0,-171.0466022,-12.15091135,0,-71.33766131,-28.30597996,-7.388083436,-19.76842052,-53.75808706,17.15854384,124.0555742,0,242.0341054,-130.7391318,101.8423822,67.72334211,,,,
607.5599996,2373,0,-142.0791771,-10.1293566,0,-76.23287164,35.66098735,22.30009083,2.892266571,-37.70749235,27.96864562,-141.1315141,0,78.02344645,-106.8911193,-79.70803105,27.34925943,,,,
607.5679996,2373,0,-170.882573,19.93436055,0,-8.07655711,-15.76050017,19.62366607,18.2909747,-41.80267025,21.55809623,-163.5182556,0,12.62839075,-72.19961446,13.5914982,152.7822895,,,,
607.5759996,2373,0,-132.8577414,-29.50276247,0,-115.4510234,-1.160291012,-20.28522773,-29.07238467,-52.49568985,14.14630072,167.6939251,0,311.0940514,-116.7943206,79.30414569,7.011877718,,,,
607.5839996,2373,0,-126.9685117,23.82643026,0,-15.90926787,20.49580542,31.95479865,15.35280704,-24.29762826,43.27017119,-351.0394894,0,-100.3400538,-97.89866775,-112.8355439,121.2276375,,,,
607.5919996,2373,0,-117.553662,-4.044714909,0,-69.95366315,-21.67635307,-10.34987656,-15.23458943,-39.67990457,37.67094284,147.2493512,0,254.5977156,-87.99800716,125.5218173,79.67215468,,,,
607.5999996,2373,0,-78.04229122,7.915699431,0,-73.86665649,35.06024075,14.67098801,-7.437581341,-12.31162046,71.39174371,-127.205624,0,84.18103233,-89.68994587,-64.1963593,47.3498591,,,,
607.6079996,2373,0,-99.774811,41.427665,0,-2.788832055,-13.42594225,20.20643805,7.902816472,-6.549437017,46.33576839,-147.9872411,0,-0.59067325,-92.37024754,10.96614266,149.231904,,,,
607.6159996,2373,0,-61.96979537,-14.20342475,0,-103.9071457,8.818461945,-9.533516971,-24.15483932,-23.21961548,46.54410425,192.6249832,0,302.7130073,-83.68339373,84.7982635,17.74669981,,,,
607.6239996,2373,0,-62.74931962,37.96150142,0,-4.176165158,19.1899972,40.20976847,15.81288598,6.37242054,84.69541367,-308.5027486,0,-91.76382536,-54.86827413,-91.09926612,151.0798358,,,,
607.6319996,2373,0,-63.0968581,8.162131811,0,-65.57668588,-25.60146143,-8.529578909,-16.07821938,-7.173505405,52.09609622,187.085093,0,253.5691404,-85.15240763,134.4135921,94.64735568,,,,
607.6399996,2373,0,-31.94932033,13.41124436,0,-70.80597391,37.49242131,16.66153319,-0.188556829,12.30311851,81.2628184,-92.66949599,0,82.71571316,-78.08721953,-56.54505391,71.28217839,,,,
607.6479996,2373,0,-51.56293027,44.76204779,0,-7.435318696,-16.68618394,26.52372639,4.592826071,15.82837138,75.01592313,-91.80865141,0,27.62607756,-60.3056428,32.1376108,189.1905627,,,,
607.6559996,2373,0,-17.9470681,-1.453851488,0,-104.8300573,3.965165439,11.62574709,-34.68297569,5.562291746,80.30911767,222.6660682,0,295.9036922,-82.5753733,78.54449847,39.49139593,,,,
607.6639996,2373,0,-23.88365788,55.15093415,0,4.88497295,19.63348792,69.61623548,13.69116188,29.91046261,100.6550235,-271.6922493,0,-102.1193102,-74.60333757,-95.16128489,173.4621118,,,,
607.6719996,2373,0,-17.40666114,23.2120356,0,-54.99563058,-20.12782312,18.48600553,-18.02055267,11.74700377,66.42047525,246.5638121,0,274.7782414,-72.75922487,155.3376294,141.4310789,,,,
607.6799996,2373,0,9.450257572,27.781812,0,-55.76299247,44.00980237,46.39051854,-8.753924454,34.81190848,117.1817113,-54.88988646,0,73.76034071,-56.07497527,-43.47925739,109.4256384,,,,
607.6879996,2373,0,-16.25865753,55.29759217,0,3.288497474,-9.014699317,50.93008734,-1.152740247,29.63005331,103.1973804,-38.60874028,0,17.88692085,-58.18417339,48.63768216,217.2160147,,,,
607.6959996,2373,0,17.39938862,6.104153747,0,-98.05366216,18.31984068,17.15777825,-29.76951898,18.95346298,96.38919218,281.9565587,0,295.7919649,-59.97602806,104.4070064,83.52551332,,,,
607.7039996,2373,0,3.523602037,58.61124196,0,5.493795315,34.80167557,61.17936182,16.41406373,45.38916079,121.557262,-230.1752177,0,-112.3885496,-28.16676778,-73.05657442,207.3429499,,,,
607.7119996,2373,0,2.837338752,23.81387896,0,-62.31938043,-10.8123337,12.05619288,-25.64023013,19.09155094,84.9663364,263.7252513,0,250.7151347,-49.37447094,157.7796022,148.261715,,,,
607.7199996,2373,0,21.86573829,22.59999477,0,-60.53810459,50.74254299,36.02241757,-10.95626808,39.49592162,124.4193126,-50.6113651,0,43.90309657,-50.01858856,-49.55053838,114.4824037,,,,
607.7279996,2373,0,-6.382962665,48.56266611,0,2.176762105,-2.265646046,31.82454087,4.181914705,34.6727613,104.5343874,-30.35154508,0,11.65991546,-44.62256112,51.20321925,225.929929,,,,
607.7359996,2373,0,30.09788375,10.17827357,0,-94.90993857,13.81043068,1.486656411,-37.56437823,28.9518183,97.02120221,266.9060059,0,289.719929,-51.86996913,102.4983327,95.16754662,,,,
607.7439996,2374,0,10.98703277,62.55976563,0,8.245098757,23.95476901,48.73321594,-3.381858194,60.23910353,118.1626715,-238.0655425,0,-124.3232019,-30.92163641,-75.44485167,212.8020625,,,,
607.7519996,2374,0,14.39318901,29.31874783,0,-54.79785346,-11.51826701,8.803851015,-34.46190352,33.08151106,86.27614115,268.3375711,0,240.4539329,-38.53772606,159.7066879,151.9942941,,,,
607.7599996,2374,0,39.03233968,37.18305867,0,-46.93920118,47.02608995,41.99578984,-13.15053524,49.19687231,128.5432856,-46.77126148,0,39.66484124,-33.50279352,-33.79759824,137.158939,,,,
607.7679996,2374,0,1.726826835,55.84556956,0,9.458410995,-7.368006019,38.03102564,0.037404369,43.27474082,102.8806801,-14.02443056,0,17.79290816,-36.37930493,70.92559453,243.6093132,,,,
607.7759996,2374,0,36.11754226,8.541963162,0,-89.93512915,16.98518128,7.906983935,-34.89291179,32.82403756,98.12910706,268.147144,0,288.7458111,-42.81514713,108.8513733,111.4064131,,,,
607.7839996,2374,0,19.47001716,60.75656151,0,15.14273742,24.20435372,50.59564695,2.629619436,58.01811012,127.2230806,-234.4492097,0,-113.9958196,-46.88176841,-65.93612826,236.498463,,,,
607.7919996,2374,0,11.51996157,20.79280073,0,-49.20225022,-13.55042982,1.680143156,-24.50785317,31.98596529,84.67849022,272.6636308,0,263.2341225,-63.75410704,168.6699284,173.0990139,,,,
607.7999996,2374,0,36.67951172,29.25444739,0,-44.74910607,40.02040048,27.78387382,-15.73174721,44.97327065,114.4009188,-57.33371582,0,62.82288747,-40.66741834,-29.48412833,161.7418275,,,,
607.8079996,2374,0,4.794123144,54.43087287,0,12.8668512,-10.5671449,31.19086155,-15.19267253,38.79011961,100.8992906,-25.89898312,0,21.74124025,-46.90984695,64.83198452,243.362043,,,,
607.8159996,2374,0,27.53583125,0.747314784,0,-85.11337321,24.54179201,10.14035514,-32.10216355,21.98393592,96.81066793,248.0771315,0,273.4014652,-28.81327565,105.0043457,107.8090336,,,,
607.8239996,2374,0,14.2116221,51.37774813,0,12.94633428,25.28887981,53.42757974,1.129948038,40.93860083,120.8759794,-245.2396056,0,-114.4467775,-17.09966069,-55.96140236,246.145736,,,,
607.8319996,2374,0,11.98033666,14.91511453,0,-48.61119088,-13.59829143,14.76782146,-38.980033,21.68127414,80.64224793,251.2727536,0,235.8998929,-63.76722057,154.9149152,158.791472,,,,
607.8399996,2374,0,27.5418445,19.51432841,0,-38.6440484,43.80099497,44.39536189,-18.32357599,33.44011156,96.30160606,-82.89504517,0,17.84789815,-35.34742398,-42.90127253,149.1003021,,,,
607.8479996,2374,0,-8.623908645,40.50615494,0,13.61219336,-9.76439082,35.36752336,-15.72354691,28.92725715,78.84094542,-37.24964928,0,-3.388164057,-48.72207841,67.53240775,238.0192455,,,,
607.8559996,2374,0,16.12941054,-11.50757372,0,-81.14698857,21.0326976,6.794950867,-37.06018248,18.59864861,74.47339477,222.7783725,0,239.7865526,-63.4318826,99.72475563,97.71768263,,,,
607.8639996,2374,0,1.942822157,35.81706454,0,13.94693552,16.2284691,44.19506147,-6.113148487,35.30249341,92.46304497,-250.0747932,0,-129.364097,-33.7679283,-45.87383412,243.1701919,,,,
607.8719996,2374,0,0.320763283,-2.598891359,0,-54.94527883,-18.40401112,3.892188169,-50.11198775,14.69668356,66.12830257,240.8465957,0,225.180297,-59.10515815,160.8255262,147.4142528,,,,
607.8799996,2374,0,25.78255607,11.08809105,0,-35.60370201,46.83140216,43.15016456,-23.18707757,31.62669826,95.63317027,-107.9998192,0,-4.142812917,-25.03045968,-46.1919301,130.5523644,,,,
607.8879996,2374,0,-5.471869869,34.33984997,0,13.93770862,-11.46625101,34.7383747,-18.78351911,28.33876408,76.84723683,-33.15211441,0,-2.395337634,-31.00627347,77.21053205,224.8115606,,,,
607.8959996,2374,0,20.22272731,-10.15085802,0,-78.79233348,17.21933464,7.148112337,-45.14770811,19.64020732,72.67295864,205.055579,0,217.8350792,-51.81836579,91.42519823,75.14430859,,,,
607.9039996,2374,0,13.0430196,46.42437691,0,28.27588547,19.52833906,47.42321933,-6.241100277,41.91652935,91.41809063,-267.5040699,0,-166.801219,-27.93096006,-56.4696454,208.2705339,,,,
607.9119996,2374,0,6.914149303,1.575990298,0,-53.82130639,-19.80022933,-8.785736366,-42.6252847,17.47414275,58.38467168,246.3393229,0,206.1376357,-42.08959706,169.0945789,129.2669399,,,,
607.9199996,2374,0,21.84983321,13.69654437,0,-40.08688699,41.93207904,26.3742063,-18.03803961,32.57270872,84.87047731,-115.8939762,0,-30.02275974,-14.64948068,-41.64682051,120.9483688,,,,
607.9279996,2374,0,-4.81328988,39.46253068,0,17.49286578,-5.852722455,28.56681534,-15.64004584,33.17959218,69.21966022,-41.85800513,0,-24.94379862,-44.28920067,81.11647586,204.1005331,,,,
607.9359996,2374,0,17.3641801,-10.28018897,0,-80.9486073,22.8854823,-3.042080817,-43.10103283,20.62448713,62.8192214,189.9212963,0,202.3351142,-59.85061853,100.6864181,63.28076907,,,,
607.9439996,2374,0,0.965578296,46.84283749,0,24.99194816,25.48355106,43.20317199,0.166161044,38.54306775,76.84270413,-271.6774716,0,-162.5536199,-26.42355854,-40.45696154,202.6597152,,,,
607.9519996,2374,0,4.074801365,11.95883702,0,-42.40622252,-11.08773261,2.97054528,-36.54563001,24.81943385,55.18439788,251.1095975,0,225.0582248,-50.83193172,186.9160165,126.0895507,,,,
607.9599996,2374,0,19.85282435,19.82894688,0,-27.58737585,32.67623902,26.49096183,-28.14400528,44.56353572,87.69630936,-112.2163215,0,-24.64797588,-37.92936704,-29.03076385,116.5334426,,,,
607.9679996,2374,0,-8.670055025,40.51698458,0,21.66549751,-18.6187274,19.21042625,-26.01604975,37.78851656,57.86526258,-24.34577443,0,-23.28959088,-55.03596152,85.34728323,184.2910657,,,,
607.9759996,2374,0,23.38430326,-0.421368079,0,-66.01124126,22.2395438,-2.585994743,-42.01356504,32.41827087,56.89560606,196.802501,0,194.3330015,-57.14953482,93.24279883,48.02590698,,,,
607.9839996,2374,0,6.426004895,49.01633958,0,35.7972387,17.86843828,35.811273,-13.22411274,47.98557538,78.04470507,-269.5444692,0,-177.4601109,-25.45896077,-51.92597637,184.4609502,,,,
607.9919996,2374,0,8.411164655,7.823907813,0,-41.01011543,-12.86904267,-5.444697186,-52.52977874,22.15944285,46.70528458,234.8422796,0,190.5183601,-47.25321784,162.5043822,84.7003041,,,,
607.9999996,2375,0,24.43770421,17.01609062,0,-21.2592544,45.51607982,27.75968643,-19.38394163,40.60548733,84.00180914,-135.6840134,0,-59.9142776,-43.03407345,-45.21079955,85.60697558,,,,
608.0079996,2375,0,-6.566350237,28.0794893,0,11.77965515,-14.00025665,14.34622863,-20.76389993,27.12424573,61.64963965,-29.70207248,0,-21.81914879,-53.48483085,88.57328134,173.1424895,,,,
608.0159996,2375,0,29.80331823,-9.366861533,0,-79.19523181,27.42604163,-2.611870876,-40.0009553,23.02009942,58.99420348,175.9970366,0,186.2110422,-55.35008545,83.14795833,35.02370433,,,,
608.0239996,2375,0,13.81828549,46.15685985,0,28.59246612,27.06495904,35.58911646,4.20496684,46.46198054,81.47574029,-265.2396372,0,-166.7287451,-38.87412295,-49.34427922,184.3104308,,,,
608.0319996,2375,0,13.03010851,5.280790618,0,-56.09918068,-12.34091725,-12.98953012,-46.2283733,24.55181456,53.50325567,249.9401646,0,226.0675815,-52.00176864,170.4421811,96.34400854,,,,
608.0399996,2375,0,31.8815514,26.00768468,0,-23.94738329,49.97536062,33.29077179,-24.82220843,51.58611767,86.01678725,-148.8711116,0,-57.75506905,-31.58958825,-61.98012934,79.80881224,,,,
608.0479996,2375,0,-0.282483654,40.89817828,0,21.03144818,-6.715921069,22.99088802,-23.35946625,37.41305313,61.93482998,-32.20864356,0,-19.23217488,-20.06063845,81.6353921,159.7002414,,,,
608.0559996,2375,0,24.34239201,1.26921604,0,-67.30456018,29.25367517,3.26541632,-47.75544204,31.32112876,66.66011984,158.4378542,0,181.357279,-11.75512751,86.42320847,20.3730576,,,,
608.0639996,2375,0,-2.595444588,54.31690708,0,38.75553221,29.78471269,48.26857237,-0.873724908,53.8681631,78.19685668,-290.672204,0,-190.4198026,-22.9436996,-46.40313797,152.1852692,,,,
608.0719996,2375,0,-4.326745104,3.565475622,0,-52.74319657,-11.88863201,-5.767779457,-39.71979252,20.05870931,33.98781828,239.9796689,0,219.8374519,-51.71752563,186.7961828,75.399138,,,,
608.0799996,2375,0,26.19150412,28.01561527,0,-17.45401412,40.02553007,29.49938823,-28.39381095,45.45736378,66.38880769,-152.1291584,0,-42.46725656,-29.95210269,-35.27830709,81.47952673,,,,
608.0879996,2375,0,-6.480895001,43.02378287,0,25.31002266,-16.01382477,16.49286604,-34.58349891,42.59075664,42.90781376,-27.79435513,0,-8.996281387,-43.29353142,94.94405685,144.5037877,,,,
608.0959996,2375,0,9.995305085,-3.386869071,0,-66.77874972,28.15238295,-3.039521302,-44.53713173,34.80375873,50.15093673,153.1260236,0,175.1144691,-44.84034456,86.97264772,2.930639666,,,,
608.1039996,2375,0,-2.227891048,59.93623225,0,48.98264769,32.05953005,43.00580844,8.414147115,53.97020769,63.65847685,-276.6732786,0,-166.0669738,-33.52558097,-27.37629628,160.5752692,,,,
608.1119996,2375,0,-4.784574326,5.799243277,0,-41.2747922,-4.394996912,-12.65577743,-28.55646793,26.20109752,18.67856807,259.0149134,0,259.866879,-43.61154513,208.7917474,89.78141571,,,,
608.1199996,2375,0,12.41297705,20.35149437,0,-19.67221352,43.5462523,18.83230265,-19.18594616,45.68791463,60.18036997,-154.5795586,0,-17.14802364,-16.05239296,-22.69079817,91.44189965,,,,
608.1279996,2375,0,-4.259828104,46.65617479,0,23.08268236,-11.96937322,13.38322855,-31.73178469,40.67728407,42.79244241,-25.48723515,0,21.95027441,-40.68688115,110.1143982,151.5814311,,,,
608.1359996,2375,0,14.7220056,-3.618484433,0,-64.75721119,35.00489077,-2.750131543,-42.94475173,35.51311219,43.54442936,149.6987642,0,197.9230825,-48.00282348,96.15099045,12.17219141,,,,
608.1439996,2375,0,-4.989660617,53.8341911,0,43.8376769,24.30511335,38.62009053,-8.178255492,51.0287501,55.43167535,-278.504521,0,-154.0277685,-25.69537208,-31.95447054,156.7820514,,,,
608.1519996,2375,0,9.765293675,21.96091788,0,-41.73453271,-13.18960117,-7.503194725,-65.10616696,32.31653215,19.78959084,252.6258294,0,242.5088506,-49.60506114,181.3171335,58.47352438,,,,
608.1599996,2375,0,11.62074149,24.9685993,0,-16.39610111,48.14870651,21.90137872,-38.2272189,55.78590008,61.38780985,-164.2608078,0,-62.19514256,-23.7848669,-52.83231193,54.41312655,,,,
608.1679996,2375,0,-33.66655964,25.10034177,0,16.2524547,-10.79598565,-1.5399864,-29.42910605,35.55445355,24.20609033,-23.33018587,0,8.032960847,-26.0222195,96.60319937,127.6949284,,,,
608.1759996,2375,0,-0.986645805,-11.11893,0,-72.43612326,23.02645409,-21.04527517,-49.32969359,22.5073005,13.28714585,140.2838028,0,210.9686077,-51.59142361,88.165587,7.950943585,,,,
608.1839996,2375,0,-18.75574786,43.70713486,0,36.69045084,15.33291949,19.55593237,-16.40020714,43.92360343,40.42613666,-295.4420248,0,-145.4995618,-29.75424144,-39.20520147,148.2654937,,,,
608.1919996,2375,0,-10.65878457,8.150756085,0,-47.12243232,-14.81417617,-26.39892565,-60.28134526,26.65587963,12.62725748,221.4701562,0,248.0342257,-35.90841522,172.3021365,44.18658202,,,,
608.1999996,2375,0,10.25830248,36.24500051,0,-10.72783705,41.74634175,16.52243618,-33.0231151,51.99758463,44.15969197,-192.2647621,0,-43.56738338,-42.49894791,-51.97396977,54.92790183,,,,
608.2079996,2375,0,-19.40573083,42.68799694,0,26.00947916,-14.70237932,7.07775285,-33.54081292,43.47469341,23.29293664,-33.93052026,0,30.10348524,-39.302295,101.6386525,121.8072056,,,,
608.2159996,2375,0,16.34521471,3.755421278,0,-59.51957986,30.27448654,-3.270900088,-54.42546078,40.76792607,34.3205494,115.8104332,0,202.0392828,-15.95217822,83.80236924,-8.346731885,,,,
608.2239996,2375,0,-11.12855695,51.89716221,0,46.44648938,22.6945763,39.73420772,-17.80068506,58.43069081,49.42343696,-311.8598321,0,-169.4288279,-20.35038217,-42.66798512,122.6339091,,,,
608.2319996,2375,0,-22.90043669,-8.306452718,0,-45.64936847,-6.828417957,-12.07947421,-51.53893406,26.19763049,8.631257848,206.7154904,0,221.8810865,-55.97032368,165.9875901,14.96704994,,,,
608.2399996,2375,0,-4.395245851,13.17967731,0,-12.5217091,50.43204915,20.02052057,-17.25589833,41.41195651,33.15996015,-203.5111655,0,-52.02949123,-23.76657049,-43.25795614,53.90124871,,,,
608.2479996,2375,0,-20.56508976,32.37308461,0,15.99138126,-19.39736639,0.335455677,-34.66231326,35.19666241,8.783443771,-27.5297948,0,51.45718043,-26.98207868,120.911068,132.0153776,,,,
608.2559996,2376,0,5.818847365,-10.94382402,0,-69.08345323,25.53193336,-10.91488874,-51.86703421,35.30562685,25.03694373,102.0121801,0,208.0813223,-37.32761407,82.59515986,-10.40856444,,,,
608.2639996,2376,0,-25.45349365,39.62709742,0,44.21959582,22.85367494,31.42377165,-2.722284444,48.80233075,33.8501753,-316.3848343,0,-140.0290912,-29.8141749,-30.77381257,131.1498883,,,,
608.2719996,2376,0,-15.69160837,-1.613597004,0,-45.70347915,-18.00888349,-23.02257473,-54.72905398,22.88551199,-5.270824561,209.7154793,0,282.4033482,-63.56973786,190.2116549,30.5648279,,,,
608.2799996,2376,0,-2.654505129,14.78802228,0,-13.82495543,33.83941752,13.98448203,-27.50021697,43.94425724,30.14811548,-222.5594405,0,-23.28103323,-43.32182187,-40.44501824,44.16470674,,,,
608.2879996,2376,0,-34.55346969,24.19754593,0,16.72005269,-25.616741,1.809777675,-34.40630894,30.89107638,-0.819481922,-51.07902611,0,60.46123026,-41.39640708,112.5582907,100.4292105,,,,
608.2959996,2376,0,4.458818321,-3.177579004,0,-57.1873022,23.63321798,-6.034764367,-56.21909502,36.95130535,15.37336326,75.20848883,0,212.9963199,-33.39669693,75.32623755,-31.12425276,,,,
608.3039996,2376,0,-15.03164539,48.95366104,0,49.24641883,14.97444656,33.5702129,-12.73756365,53.90373519,31.60233975,-322.4846833,0,-130.9381856,-17.33360596,-32.13464934,119.9621622,,,,
608.3119996,2376,0,-8.89021054,-3.764340149,0,-52.62313204,-21.83192753,-20.19807472,-58.46164349,23.4611851,-7.965866825,204.7186884,0,281.3746899,-56.90470955,182.2161173,14.01666747,,,,
608.3199996,2376,0,5.484908448,23.49562344,0,-8.593765004,39.35312814,23.97852962,-28.11054512,53.89842695,32.79215391,-233.4796816,0,-39.75965424,-41.01810261,-50.51929093,28.18052381,,,,
608.3279996,2376,0,-31.32043048,29.41854055,0,21.52215423,-13.60189455,11.50454251,-23.07103628,36.55519507,-2.516028168,-37.22483172,0,67.76568715,-50.0596839,121.3485345,94.71966009,,,,
608.3359996,2376,0,5.758884343,-11.50475537,0,-66.70992642,24.08243187,-4.706926873,-49.93764303,29.38519441,7.640017771,80.1513562,0,235.2573052,-43.28228766,90.58703115,-23.93650649,,,,
608.3439996,2376,0,-10.81568308,47.96313043,0,41.90808543,6.88300788,32.36707615,-27.58769825,58.18266902,36.17581644,-326.7954802,0,-122.8319822,-22.52575607,-29.32325857,104.1868009,,,,
608.3519996,2376,0,-25.44019286,-0.244141306,0,-51.02468903,-19.74797075,-15.34072336,-63.36306105,32.25976744,-17.88998726,203.6678886,0,282.7792531,-67.63926041,181.7788985,-13.34828843,,,,
608.3599996,2376,0,-14.02208177,26.88629425,0,-5.003137329,35.27825651,32.21623871,-30.50100085,52.71509938,5.071964388,-232.4975655,0,-24.83786369,-47.71559575,-39.26829003,25.58256722,,,,
608.3679996,2376,0,-35.67505698,38.407293,0,26.85013641,-16.4636916,20.75243435,-37.43101927,41.09626246,-7.609998174,-36.8609591,0,72.4579993,-54.69128322,122.9681877,81.27006722,,,,
608.3759996,2376,0,-15.21287083,-7.071628809,0,-61.71004747,30.37426272,-1.986753673,-52.15901591,31.10218613,-5.140309825,71.47428432,0,217.2649638,-48.23470887,88.07331805,-41.61077688,,,,
608.3839996,2376,0,-29.93732871,44.94847429,0,42.88971753,3.516499132,26.57496055,-26.99931778,56.17703714,5.27364782,-332.2151272,0,-134.7691389,-13.29076062,-19.63088079,93.19669738,,,,
608.3919996,2376,0,-15.74306477,0.204897758,0,-42.4779415,-16.95399431,-16.81106044,-65.31371696,39.5465672,-20.16808739,183.1999031,0,253.9641221,-57.41358308,178.1638035,-37.80777694,,,,
608.3999996,2376,0,-16.02810056,20.75002418,0,-1.417827586,48.80363198,24.42104039,-13.47961195,54.69210918,9.874906771,-236.3059385,0,-45.25066142,-45.65478924,-31.01522466,15.38906377,,,,
608.4079996,2376,0,-44.99731474,31.6542427,0,13.12101421,-20.74821731,3.853610557,-27.44415668,40.88690951,-25.01374612,-12.05581847,0,100.3282419,-46.68191288,152.9459273,90.69168925,,,,
608.4159996,2376,0,-6.909822389,-1.371758642,0,-69.56726463,17.06548742,-6.462263023,-64.49006332,39.42468169,-18.31779019,72.52263836,0,235.1741079,-51.44749286,93.68933033,-43.4526134,,,,
608.4239996,2376,0,-29.98953857,44.99127517,0,36.69488643,11.48967069,33.90749556,-24.07022425,60.26552433,2.877430494,-316.3429996,0,-113.3562112,-28.78565644,-22.94399757,83.99832788,,,,
608.4319996,2376,0,-16.04284141,-0.368019798,0,-56.38674797,-0.834907065,-4.773071069,-47.89713724,37.99492333,-27.03289582,214.0065575,0,310.4981721,-43.50552892,185.6029008,-24.75941457,,,,
608.4399996,2376,0,-3.599599705,26.88175493,0,-12.08035724,45.52646951,37.25909664,-20.2907946,59.82888604,8.254598366,-232.6603041,0,-7.119586293,-13.31378271,-43.57875542,17.23631339,,,,
608.4479996,2376,0,-48.69087978,19.31833668,0,0.577239342,-24.91789769,8.32824212,-34.18898783,44.50580401,-18.85303072,-24.13043448,0,100.169203,-23.12826973,115.7219835,50.65492716,,,,
608.4559996,2376,0,-21.44406914,-15.57915473,0,-80.09886836,23.22839778,-4.381930542,-41.67259865,34.15817448,-25.01977367,61.2005209,0,240.2360413,-31.32395297,72.90089794,-63.34500059,,,,
608.4639996,2376,0,-35.44219811,46.38597779,0,30.35815644,1.851946067,33.47520653,-19.2854939,53.75992015,-21.43239189,-315.2981256,0,-85.26636264,-31.42451541,-22.7067414,85.59406603,,,,
608.4719996,2376,0,-24.49905213,-6.087286267,0,-63.79922135,-20.66987958,-11.25730727,-72.90451876,33.78631265,-43.89273573,191.5081993,0,300.8539818,-51.38619732,166.1419026,-50.37375243,,,,
608.4799996,2376,0,-10.93841489,27.5249122,0,-6.941681527,38.22039486,38.88488471,-37.37531897,63.11435483,2.185846929,-260.0272638,0,-42.39085088,4.367879616,-63.28057187,-10.78162757,,,,
608.4879996,2376,0,-47.53155158,30.28077852,0,15.38452247,-23.13430046,13.3962251,-41.59092023,50.09906564,-31.87884491,-29.95510903,0,85.35592046,-19.39212873,114.5999546,40.31057049,,,,
608.4959996,2376,0,-22.24418046,-13.69977838,0,-68.58722587,28.32910499,-2.671463408,-45.60884575,33.43100643,-33.72762255,40.18692947,0,218.2695201,-39.6561929,70.29113687,-64.58247443,,,,
608.5039996,2376,0,-36.37899909,46.74743343,0,39.743189,11.49959595,38.89543284,-13.69260457,54.48221044,-21.55937608,-322.3814067,0,-92.44898136,-4.640508869,-12.54102023,96.45093864,,,,
608.5119996,2377,0,-23.57552345,-6.200487215,0,-59.05757071,-14.11719368,-11.49750345,-66.31813733,35.34631123,-53.95248985,185.9412759,0,309.4975045,-31.9021816,179.4432373,-26.38946465,,,,
608.5199996,2377,0,-9.904804423,22.27163982,0,-8.010182895,42.92975906,33.65675201,-35.31714416,59.22992798,-17.56357159,-281.1517147,0,-44.66373699,-25.53860123,-62.27810532,6.40705765,,,,
608.5279996,2377,0,-39.18554463,31.73629618,0,14.43356414,-8.576830847,19.5471846,-33.67002214,53.95255291,-40.38778715,-33.60987859,0,85.82028658,-29.56302656,117.4037407,46.4042973,,,,
608.5359996,2377,0,-13.24700489,-8.622458684,0,-69.93903321,39.03062088,9.130062724,-36.82849456,44.59985945,-35.56821205,41.54133118,0,216.123608,-17.13479875,77.70412307,-51.63785152,,,,
608.5439996,2377,0,-38.72904187,39.25808337,0,34.65583189,14.06341131,43.69993325,-11.63218435,58.70792424,-29.3454119,-315.2853696,0,-97.71452316,-1.213379991,-5.832372456,95.06832284,,,,
608.5519996,2377,0,-33.04348645,-17.5663147,0,-61.23268503,-9.988997349,-15.4675666,-61.614618,34.62443068,-63.72529529,186.0231155,0,294.964112,-28.86018518,181.5000911,-41.36541621,,,,
608.5599996,2377,0,-17.12135762,17.30130729,0,-6.276359593,39.02745866,25.44124901,-26.94622792,51.56215745,-32.11734224,-277.3029183,0,-48.37685459,-0.924153019,-46.16090027,3.838748818,,,,
608.5679996,2377,0,-35.39463046,35.51307763,0,18.98021661,-14.54363645,17.11173287,-37.33799256,46.467175,-45.86823928,-23.99683828,0,96.81212869,-7.350789856,136.7341675,37.12843143,,,,
608.5759996,2377,0,-4.154581546,4.346498066,0,-57.51258856,39.06488649,7.16921563,-55.67586566,50.78019696,-28.80920699,17.92844542,0,188.9458862,-25.06504594,73.33976081,-80.2448258,,,,
608.5839996,2377,0,-29.52885763,52.75631218,0,45.28736355,22.22117985,39.4042831,-14.77657133,69.30324115,-26.51397661,-329.9959282,0,-132.7316742,-8.626201266,-8.807710387,61.99476621,,,,
608.5919996,2377,0,-17.60864699,-1.234040362,0,-54.29773489,6.477037991,-10.35046937,-44.85799914,41.72389439,-56.526739,186.5530277,0,292.6451699,-6.823115373,195.5238428,-47.72261578,,,,
608.5999996,2377,0,-6.512053451,28.62566489,0,-3.966002542,43.17386902,25.53980227,-26.07382735,57.88409445,-23.79978175,-282.1203799,0,-36.791716,15.19691536,-27.22052653,19.43933299,,,,
608.6079996,2377,0,-38.13316569,34.09670193,0,14.97936635,-17.0822768,7.630255961,-42.46950072,56.93313059,-50.88541509,-29.10023635,0,99.63956028,2.140975281,137.646422,36.59196528,,,,
608.6159996,2377,0,-5.945961132,7.343942672,0,-52.30882842,42.87400997,7.784827771,-47.55035916,57.49461896,-42.17767641,7.184467079,0,190.8490714,9.511529462,69.33348333,-73.99953991,,,,
608.6239996,2377,0,-28.88309441,55.70535405,0,49.96296957,14.86236259,46.94825827,-18.39001151,64.8095923,-40.66885337,-319.8411153,0,-107.7851151,13.66076642,4.861349671,79.91348481,,,,
608.6319996,2377,0,-27.77693948,-4.667791987,0,-54.38648141,-7.550024941,2.885207564,-59.11874388,46.69375385,-66.6174328,182.2281598,0,281.785186,-26.12209469,184.2875243,-62.10622031,,,,
608.6399996,2377,0,-25.34797851,25.50721483,0,-2.679723384,41.85417191,40.68896469,-23.51772349,64.41617141,-41.31267756,-295.2852843,0,-74.37172409,0.224854634,-48.48977961,-9.293951366,,,,
608.6479996,2377,0,-53.68250794,24.04759783,0,5.811708034,-17.69638569,12.60707585,-30.69565365,41.33899855,-85.6394924,-7.158849762,0,110.6965318,-10.87957665,150.7425075,37.75487388,,,,
608.6559996,2377,0,-16.67176685,-1.826073427,0,-61.23482654,29.48860291,6.94785893,-49.46524496,48.51234929,-63.50619862,14.06637983,0,200.1718872,-9.279372986,78.49177891,-68.79009493,,,,
608.6639996,2377,0,-41.99558339,53.93764326,0,46.64706952,1.760178531,37.08333515,-31.25399642,69.23682704,-44.13533186,-317.9642106,0,-116.2506359,13.03913399,-3.58183623,59.49678865,,,,
608.6719996,2377,0,-44.24638435,-9.196171665,0,-56.17200397,-14.45737055,-17.63567602,-62.70842015,37.61881354,-84.77563532,193.9422076,0,296.1071357,-7.175250842,188.2853607,-64.25515627,,,,
608.6799996,2377,0,-34.62341059,23.22046787,0,1.709900354,32.78548767,23.76723332,-20.28226579,56.18495655,-58.96857064,-289.8930635,0,-38.37831328,26.41581854,-26.54460527,12.31110703,,,,
608.6879996,2377,0,-56.47616102,26.04632756,0,7.484229879,-28.69722784,0.755704478,-41.21616002,48.66094542,-82.64393641,-11.81007626,0,139.0326449,-18.81985878,160.5492623,38.54527903,,,,
608.6959996,2377,0,-25.70166319,-5.518854593,0,-63.46391028,18.00892634,-9.573856001,-63.0289996,50.58798148,-71.11304961,-13.33174104,0,203.2190649,-27.11594639,72.40364818,-76.58967644,,,,
608.7039996,2377,0,-42.23892055,50.80308236,0,43.70258009,-7.232313704,25.47145558,-34.21088794,64.54707422,-66.83467054,-330.2396412,0,-93.97591628,17.37703348,4.103008608,64.39488842,,,,
608.7119996,2377,0,-28.83042398,-4.379621178,0,-56.26192199,-13.92021666,-13.91244832,-66.87325106,48.72424726,-83.78925219,177.6084533,0,312.3585192,-20.38182375,185.6721659,-63.56492556,,,,
608.7199996,2377,0,-18.68438257,31.39532503,0,8.553019103,34.20216328,30.93430788,-24.75140905,70.09910142,-46.66340185,-315.8577201,0,-49.29592617,17.48712688,-40.27088244,2.788914291,,,,
608.7279996,2377,0,-40.22732362,36.43199218,0,16.79335279,-28.0401847,8.471227157,-38.04764113,54.50056574,-78.47207759,-15.38121783,0,136.0947748,15.18820006,155.2027211,32.29958422,,,,
608.7359996,2377,0,-18.66229034,0.051648442,0,-55.13391754,24.41997181,-0.467996716,-55.01301856,56.67900728,-65.3223131,-24.96377803,0,191.8733159,10.32870615,61.13975879,-76.10767772,,,,
608.7439996,2377,0,-44.23380825,47.48596536,0,47.38022825,2.226805443,30.80841284,-21.81999105,64.99719977,-68.56374646,-335.0631869,0,-96.19048877,34.90616914,1.208601988,65.76739219,,,,
608.7519996,2377,0,-29.66966973,-7.708389409,0,-57.10029827,-6.73233044,-13.17441579,-60.08047279,43.57577753,-92.54721904,172.2836807,0,322.0930043,-9.039182626,188.1344898,-53.56409404,,,,
608.7599996,2377,0,-25.02579614,28.13663724,0,4.018754065,32.38966384,26.49148458,-35.48277458,60.61109727,-63.16316011,-324.2079982,0,-36.86905193,15.67958016,-39.82125105,17.9880008,,,,
608.7679996,2378,0,-46.51988472,32.79045088,0,15.91522498,-24.90489327,10.08938893,-46.25549208,47.21475358,-100.0843555,-2.234290888,0,158.0098354,16.79030245,162.3837693,42.19957841,,,,
608.7759996,2378,0,-19.80641529,-0.655387428,0,-50.33512202,28.94340163,7.555908312,-55.26421465,54.3096623,-78.25849104,-11.39580196,0,207.3569273,21.98029273,71.53471616,-57.5719365,,,,
608.7839996,2378,0,-44.48441339,44.89432065,0,45.28549924,-11.70333236,27.85620715,-33.93965273,57.63155355,-81.85834013,-312.8242884,0,-75.32463,39.27502928,14.8519242,88.00561455,,,,
608.7919996,2378,0,-26.27589382,-7.574227957,0,-57.27348562,-22.2017727,-16.36944208,-70.07770217,38.94600409,-104.5652144,190.6598916,0,326.4870843,-10.94529367,189.729378,-39.65691908,,,,
608.7999996,2378,0,-24.31746222,28.21027717,0,7.541371996,23.66857464,28.79814168,-32.29971387,62.21872042,-62.73705165,-309.7690334,0,-50.90382533,1.608525792,-47.52554344,29.7933373,,,,
608.8079996,2378,0,-41.82088282,27.581817,0,6.601212175,-41.9357158,1.213424505,-46.90680167,37.22781558,-102.9442407,15.8009433,0,160.4994376,-2.031221077,159.3369344,62.05587742,,,,
608.8159996,2378,0,-2.14012927,4.103971869,0,-56.52253983,17.10934138,2.324162166,-58.78545378,48.90382629,-78.56495036,-4.56678083,0,201.3334399,-1.615283974,64.01101022,-33.47378673,,,,
608.8239996,2378,0,-36.92275471,51.40947602,0,49.48400412,-3.455841123,32.20146516,-28.43954053,64.90171193,-73.24771502,-288.1646652,0,-86.96095532,19.67599527,7.70489117,99.73880878,,,,
608.8319996,2378,0,-29.0329053,-9.886687068,0,-56.98316992,-16.15274044,-18.54064121,-56.6439862,27.99597862,-115.0864884,221.8303692,0,336.4095232,4.696348003,198.7976681,-13.51276491,,,,
608.8399996,2378,0,-13.68456261,32.92300342,0,9.489132174,21.24320469,27.95346324,-30.14752615,51.76887328,-76.82152533,-277.3377768,0,-20.90169694,25.28145226,-24.98642856,75.86533035,,,,
608.8479996,2378,0,-27.48256196,38.3319766,0,18.15285494,-35.55724803,11.59408087,-58.52307114,50.84905108,-97.21855938,45.53207781,0,175.03431,12.01834681,164.2118859,83.04325931,,,,
608.8559996,2378,0,-6.386569616,0.413551095,0,-47.03184962,21.82979387,8.708671561,-59.81927393,55.44257662,-80.66453129,6.766784776,0,192.7026321,18.99629806,57.89405041,-26.44020339,,,,
608.8639996,2378,0,-45.49043502,34.99766537,0,39.60060404,-12.21496842,24.91048692,-33.17579421,51.49800268,-95.786619,-266.738286,0,-68.29028009,11.39615804,11.50797211,114.4778221,,,,
608.8719996,2378,0,-28.23142071,-17.64208069,0,-66.86128245,-17.89495776,-20.36055047,-72.16222695,23.94923387,-130.1413119,225.7547615,0,346.5390873,-26.48151179,181.8521371,-9.665500314,,,,
608.8799996,2378,0,-26.09846503,20.43286877,0,5.818489348,30.99227428,26.25982426,-22.61815303,52.08090268,-85.10570532,-274.965703,0,-26.40636942,20.90643558,-45.78375853,73.30857227,,,,
608.8879996,2378,0,-53.19273157,9.202155853,0,-2.986403992,-31.81841681,-5.249880325,-37.4022195,26.25219802,-125.7344868,71.49042671,0,216.9437482,3.357606091,167.1689891,105.0489905,,,,
608.8959996,2378,0,-20.12185998,-16.75322471,0,-62.76403708,18.38365608,-4.113938912,-53.94165772,29.42954604,-103.4473287,16.76479721,0,255.4342909,-21.40524119,60.3611545,14.58412437,,,,
608.9039996,2378,0,-46.40188753,35.14676466,0,47.56734423,-10.21667285,29.06187696,-29.35183242,49.43177085,-84.47176656,-251.1782712,0,-7.801705284,-6.543228689,10.85757779,141.0470942,,,,
608.9119996,2378,0,-34.51764627,-20.77273371,0,-59.7329311,-14.00305897,-13.51771035,-65.12468445,20.47283182,-118.1259663,241.5195924,0,410.3189253,-9.28083588,186.7517248,16.13714677,,,,
608.9199996,2378,0,-35.61253094,12.32284346,0,2.435731385,22.28089688,24.49090451,-29.411451,34.84716463,-83.73266298,-266.2234482,0,44.29580634,17.61638825,-36.24609437,102.4181582,,,,
608.9279996,2378,0,-47.40333195,11.60373535,0,3.194895276,-34.44060381,2.226709747,-46.44877183,22.48906824,-106.4768828,77.53870285,0,281.5254794,-19.50375831,168.6874531,112.9707698,,,,
608.9359996,2378,0,-8.654870312,-9.428834626,0,-51.36925498,25.68316544,10.75439221,-55.93251184,35.143211,-89.52468598,14.23077255,0,302.1784423,-19.40429562,64.19639987,20.59346263,,,,
608.9439996,2378,0,-40.10586124,29.47044553,0,43.54325214,-8.974433681,29.08871749,-30.10805527,47.2121527,-89.40289977,-233.2723699,0,47.32935177,6.873392216,30.34237742,149.7727393,,,,
608.9519996,2378,0,-18.77392013,-22.90402202,0,-55.02977804,-11.04502545,-9.360428215,-64.52176533,29.54611818,-109.9043823,250.7287217,0,448.967962,-18.23615058,196.4369973,18.87579747,,,,
608.9599996,2378,0,-18.47673576,17.51843532,0,16.34454255,19.71798939,38.15011408,-43.12164143,51.95982487,-80.11833987,-267.1855696,0,56.26251156,11.0806763,-35.69304219,96.89761872,,,,
608.9679996,2378,0,-49.62665708,3.231223555,0,5.498757733,-46.60444079,2.570019443,-69.98783479,24.52536559,-121.1724685,74.32755267,0,276.9665989,-1.982671304,157.2285778,88.28917602,,,,
608.9759996,2378,0,-16.85255615,-17.68964148,0,-40.56534598,17.24326239,10.19542102,-67.0440339,29.2844395,-98.55236037,-9.154248663,0,278.2590851,-13.54949317,43.35354422,0.533365083,,,,
608.9839996,2378,0,-46.68655543,30.10070149,0,58.11017716,-10.16806978,33.04646333,-38.47530728,40.88229404,-98.3992098,-248.1510465,0,39.41882405,-10.50989781,20.99530223,140.1151469,,,,
608.9919996,2378,0,-32.73982713,-28.58065702,0,-52.05292789,-8.919065068,-19.82617464,-72.88930762,16.39964336,-127.3126841,228.8101351,0,450.8970264,-32.99415595,189.9043202,12.03078654,,,,
608.9999996,2378,0,-30.03629781,6.320037322,0,12.58274587,19.48279414,17.92350979,-39.1320875,38.00550108,-95.66526437,-286.3368901,0,69.59256817,-5.249288083,-30.95484358,100.9592378,,,,
609.0079996,2378,0,-50.78859286,0.458311208,0,-1.662035617,-47.14060925,-13.36223474,-61.39173324,18.06985333,-131.7031508,68.49604469,0,313.9114945,-22.28215826,168.8380008,95.16155687,,,,
609.0159996,2378,0,-18.34788345,-15.3075839,0,-45.0219974,20.3149526,-3.642166311,-53.02245984,26.38553734,-109.5546677,-14.3066966,0,328.5791691,-11.41769205,60.68740208,15.24736658,,,,
609.0239996,2379,0,-46.07350667,25.50563701,0,47.4623643,-15.74638322,18.0865874,-23.62952252,35.54850016,-113.5081663,-233.6354537,0,117.9060016,10.54428797,49.84582773,160.8958939,,,,
609.0319996,2379,0,-15.34166593,-22.4536076,0,-59.92798802,-26.10687821,-23.76334433,-77.6959856,16.65319661,-133.7743321,223.9857687,0,517.1691278,-21.94878477,193.6956956,19.61150137,,,,
609.0399996,2379,0,-12.91078889,23.41745077,0,20.03340033,17.19517911,26.13274465,-48.25694139,51.98739955,-86.74763192,-297.6915244,0,102.5750646,-1.132899453,-44.66497768,82.98117013,,,,
609.0479996,2379,0,-49.48504787,1.941123,0,1.826650751,-37.86298641,-8.440490465,-59.5476712,28.64916689,-127.0085685,69.08180664,0,337.8851878,-16.83238972,155.9132175,63.28065295,,,,
609.0559996,2379,0,-23.02839318,-26.29088154,0,-51.01596425,14.2244315,-8.624059847,-52.40321312,21.28790104,-120.4002792,-29.68268564,0,346.9588558,-16.05782691,46.35551409,-6.216825449,,,,
609.0639996,2379,0,-51.75599009,18.27329666,0,42.64525154,-25.27634904,10.00336471,-28.29001421,34.03824054,-120.4730605,-243.9178986,0,137.6377507,-2.269046782,37.58697541,130.1959528,,,,
609.0719996,2379,0,-23.92714551,-23.55909874,0,-57.13491213,-27.2121393,-25.66618142,-71.79178224,16.93348199,-136.4125556,214.8742825,0,536.2418102,-11.90514438,182.7217947,-10.37145418,,,,
609.0799996,2379,0,-17.21766494,25.03918367,0,23.51243412,16.4763599,26.53779581,-31.19932649,43.05287464,-95.90599227,-288.6684402,0,153.8776386,21.62486477,-38.12867168,87.49457562,,,,
609.0879996,2379,0,-40.53602613,9.835491098,0,3.594885536,-42.04811353,-10.77971343,-64.42362986,35.67461427,-118.7728483,80.16587744,0,392.0002996,-27.79316051,147.8260285,62.41604559,,,,
609.0959996,2379,0,-9.991812231,-12.83280435,0,-43.05027593,9.538759305,-5.538662882,-75.53697628,37.90908758,-100.0783445,-43.29157789,0,351.6698825,-27.31759561,1.688943251,-34.31580264,,,,
609.1039996,2379,0,-47.38560268,21.09934507,0,48.73874544,-17.13487859,20.33310049,-32.09964275,32.7215759,-112.9526867,-234.4905486,0,144.1208548,1.710313577,-6.77577576,103.0045975,,,,
609.1119996,2379,0,-31.43145885,-34.67694993,0,-61.45598567,-18.20398763,-21.19863423,-67.77523579,7.314142095,-134.7579244,220.8239599,0,541.0314354,-36.37809587,141.9688717,-23.45797095,,,,
609.1199996,2379,0,-23.14077789,14.27628652,0,17.09092197,11.35037369,24.86623676,-42.68967386,32.86260917,-95.46525058,-304.5568393,0,137.4946023,-8.042751638,-80.96581987,66.63320816,,,,
609.1279996,2379,0,-42.90108658,-0.444064416,0,3.858898005,-37.5363195,-6.963741474,-58.61282812,17.58222056,-126.6462762,73.28243126,0,387.3419548,-18.75987885,116.2653357,40.39943246,,,,
609.1359996,2379,0,-16.11838852,-20.86629609,0,-40.79184749,21.71540432,3.541188163,-45.51150984,22.93880239,-109.4952565,-34.80581013,0,370.6865739,-9.689355653,-1.261415443,-21.0568025,,,,
609.1439996,2379,0,-44.07202567,21.60292553,0,51.22771259,-14.38919131,27.89563875,-16.25926391,33.03430684,-111.1239796,-215.9997085,0,178.3774151,3.627237224,5.859205261,120.1213233,,,,
609.1519996,2379,0,-24.63717335,-34.24029784,0,-51.99349261,-12.95463294,-20.3526208,-56.19356479,9.697699325,-132.9984873,225.7460627,0,566.0593554,-15.52554503,145.4655572,-16.52710856,,,,
609.1599996,2379,0,-13.97207906,19.55146431,0,24.18656269,11.26507203,19.32615766,-28.47458548,35.87584771,-94.33840323,-285.2999308,0,174.3820231,16.64531452,-67.22345511,87.21861159,,,,
609.1679996,2379,0,-22.72535082,17.93248393,0,8.589258203,-43.64149893,-6.328259454,-58.96352723,33.43887562,-111.4782254,91.30849092,0,419.6961232,-30.28695722,126.0022001,46.02246827,,,,
609.1759996,2379,0,1.416254996,-2.470161116,0,-26.50956156,23.44973169,10.72407889,-54.39087883,43.69705575,-88.14290816,-47.45286896,0,358.9152255,-33.92099049,-13.94348004,-43.29083658,,,,
609.1839996,2379,0,-26.74037552,34.29868041,0,60.11613945,-17.13187922,25.85954623,-32.74945879,48.98741646,-88.68657225,-219.0792002,0,160.5834706,-0.526314609,-5.53339614,86.82552832,,,,
609.1919996,2379,0,-11.33505159,-23.51568694,0,-48.3874642,-20.64427113,-27.98959501,-72.21002466,22.9375353,-113.0123532,210.0830155,0,531.1959738,-26.17695779,130.9360463,-59.17551834,,,,
609.1999996,2379,0,-17.87615981,19.51080499,0,29.16233515,4.839871171,12.14371096,-40.9575822,45.03906295,-86.50224957,-306.3094764,0,126.6842909,-8.964774216,-77.18859161,40.18918389,,,,
609.2079996,2379,0,-43.6992949,-0.61416641,0,1.766058044,-42.8613672,-20.22643875,-62.98489321,28.38098784,-115.1316377,78.50952926,0,383.0831513,-20.33686158,123.0775582,9.658012526,,,,
609.2159996,2379,0,-22.99051899,-21.78882551,0,-43.79211659,22.36501929,-13.16007505,-48.20399229,17.16049179,-110.6809135,-60.665607,0,348.8640988,-1.431727303,-3.701424768,-43.83560884,,,,
609.2239996,2379,0,-33.98477504,30.14252423,0,46.72978307,-28.0483823,5.192641901,-40.93405615,29.86218458,-107.3371033,-221.0449697,0,185.8858272,9.327696854,15.2284909,96.05049658,,,,
609.2319996,2379,0,-14.56363402,-23.33457538,0,-46.55840837,-17.29040309,-32.83454445,-80.92315968,26.19658746,-102.7789519,185.2879868,0,528.149675,-29.55595151,125.109256,-71.32100492,,,,
609.2399996,2379,0,-22.24770898,19.80763987,0,29.11983011,11.33753634,9.964184754,-37.78211537,34.67029226,-87.2336606,-323.8334618,0,129.7426951,-16.97790011,-79.25084722,35.59189938,,,,
609.2479996,2379,0,-25.41514091,15.33768442,0,5.085121599,-46.01090567,-15.78123431,-61.45373357,22.83184175,-115.1875313,76.84294708,0,411.2902718,-29.00907398,131.7619273,8.470883988,,,,
609.2559996,2379,0,4.395535141,3.588513365,0,-20.89686151,21.78862203,3.128211446,-46.77168714,43.07875632,-72.44901417,-69.51541146,0,343.1728532,4.71684413,-7.987561245,-58.82846702,,,,
609.2639996,2379,0,-21.26528382,44.97097959,0,58.74658748,-24.84912816,17.45918241,-31.40698642,45.11564608,-75.90094928,-211.8520408,0,176.3089771,25.12560037,15.87962165,75.11791018,,,,
609.2719996,2379,0,-7.427423861,-8.577269124,0,-40.1038636,-7.702473335,-16.66944546,-57.78153543,26.10112326,-93.7941275,197.3200678,0,531.9646374,-12.79477449,133.9240411,-74.86149918,,,,
609.2799996,2380,0,-20.49300358,30.57265623,0,43.73549635,20.13981759,24.65979443,-17.78578085,44.09194455,-70.32729687,-298.3877607,0,145.7175496,6.057399703,-61.7714022,47.04146298,,,,
609.2879996,2380,0,-29.3739353,12.40542074,0,12.61374245,-44.93564265,-16.68654953,-55.80245802,28.37772182,-101.0149385,96.3212681,0,428.2306965,-3.74128488,143.3064439,8.386519537,,,,
609.2959996,2380,0,-2.532427485,-1.316312306,0,-16.15608925,20.73688922,-1.501816405,-44.18455124,37.22646533,-72.76331805,-72.78419549,0,347.87972,5.346325291,-3.270736511,-58.21248633,,,,
609.3039996,2380,0,-38.17460781,31.49888562,0,59.49634308,-25.90750431,11.94028607,-25.40839246,34.79737796,-81.90224831,-209.7860456,0,186.0995374,-2.244717022,19.38987871,72.68158794,,,,
609.3119996,2380,0,-17.59385475,-24.70132124,0,-46.52658821,-18.64564243,-28.02269341,-54.50323776,13.30305203,-102.6064926,180.1012327,0,535.6645496,-18.95630756,124.3429539,-80.14838458,,,,
609.3199996,2380,0,-15.47416387,25.10903202,0,35.14399208,7.690483852,13.71483511,-18.66102124,37.71109369,-73.59643111,-316.4233583,0,150.4626375,10.4608089,-70.76774553,44.87708997,,,,
609.3279996,2380,0,-30.93066053,3.61527785,0,3.388211259,-47.4499068,-24.27738357,-50.50890813,24.53620714,-97.21711733,81.08195337,0,433.2731655,-27.85495712,130.7208153,0.351558405,,,,
609.3359996,2380,0,-5.844093652,-13.48853959,0,-25.97452023,12.36216596,-13.70791311,-39.9046418,31.12950499,-69.58296445,-94.56787646,0,347.1685921,-11.44191777,-18.29015789,-58.53163506,,,,
609.3439996,2380,0,-25.83840499,28.984921,0,51.8466766,-30.78491992,2.91527704,-32.79587707,38.93050608,-73.20376707,-216.7549183,0,193.0622752,-5.241492039,8.483915241,67.6501286,,,,
609.3519996,2380,0,-12.47273592,-29.86828538,0,-48.64769795,-11.05678991,-26.9986252,-60.79092629,22.85996424,-84.86589472,165.2363319,0,525.6732836,-20.56273721,106.1543268,-92.8726148,,,,
609.3599996,2380,0,-18.29409014,16.41883494,0,33.42379805,9.055247564,13.98151743,-23.32463955,41.50560478,-59.86376096,-326.0021177,0,132.2147286,30.25265624,-85.54298281,29.02311418,,,,
609.3679996,2380,0,-21.43137354,6.63760284,0,3.743826473,-45.59994518,-19.40045909,-60.7541676,29.2122034,-88.43236284,71.02936079,0,411.0104507,0.888299898,113.1088856,-28.2507976,,,,
609.3759996,2380,0,-5.638515369,-15.92748054,0,-24.84158338,19.08774267,-7.770083898,-43.73545816,35.62506382,-54.66933341,-110.650794,0,316.3043108,-6.116536309,-30.64827549,-80.07587161,,,,
609.3839996,2380,0,-32.7655936,18.71885133,0,46.13604666,-32.08704568,-3.598118946,-35.571863,34.50682187,-62.55751268,-222.9538062,0,174.1442966,-14.95396132,8.192597408,46.04274868,,,,
609.3919996,2380,0,-5.683391842,-23.35992335,0,-49.79977699,-13.3144116,-29.52190918,-70.37843047,22.0642023,-74.2208563,142.6140276,0,496.4165196,-25.84938165,97.58668706,-117.90318,,,,
609.3999996,2380,0,-15.77374676,24.07258471,0,37.76074773,12.58346922,22.10914656,-24.81796892,48.27075494,-28.32090459,-335.4983092,0,106.5530293,15.24954741,-84.69715858,15.87124062,,,,
609.4079996,2380,0,-33.13463591,2.530695321,0,4.317260178,-39.60353327,-11.66031286,-50.37629562,25.74499549,-60.82237752,69.19268606,0,398.3425484,-11.22943593,120.3704876,-34.80126105,,,,
609.4159996,2380,0,-14.14627282,-15.02321058,0,-21.73677052,28.04207043,6.704406273,-26.43739045,24.98910284,-48.28606519,-117.1641815,0,312.750998,18.31231027,-21.93217428,-67.76417833,,,,
609.4239996,2380,0,-34.12988155,19.9335107,0,52.69936788,-20.13699209,15.51004733,-10.58811383,30.75481817,-48.08675909,-204.1182861,0,205.3196649,21.26451782,30.8339399,76.26579389,,,,
609.4319996,2380,0,-7.150839952,-24.2834578,0,-38.95381803,-10.13851573,-19.8063565,-50.85963452,18.34256523,-52.12249673,146.3092257,0,529.5732067,-21.76304537,115.7397722,-85.750382,,,,
609.4399996,2380,0,-15.31689267,23.79866831,0,48.33131758,8.168923175,25.54145398,-22.26644627,37.81143335,-17.35379918,-342.0997225,0,131.3900536,11.40114631,-73.62828755,35.75277006,,,,
609.4479996,2380,0,-31.77546226,-2.461138026,0,9.716705807,-31.96148427,-9.693755621,-46.04831223,21.04617213,-47.48325263,63.94178285,0,421.699991,-2.747526316,124.5121647,-28.19114991,,,,
609.4559996,2380,0,-11.44131117,-16.7156136,0,-14.56451185,26.71287057,0.594294315,-23.92825074,26.48222277,-28.0334223,-134.2422362,0,327.1552561,12.3088998,-20.80945421,-59.89473002,,,,
609.4639996,2380,0,-33.10436679,21.38893046,0,57.75622222,-37.41514228,5.338914421,-26.78944671,33.59498487,-30.14120436,-214.4260183,0,205.4166893,25.14562992,25.66132615,62.75829068,,,,
609.4719996,2380,0,-11.28297385,-22.72816447,0,-29.13492293,-6.123794945,-19.74942721,-56.26491024,24.09782052,-38.78036069,131.4716952,0,496.5391943,7.156506016,98.02566732,-112.225121,,,,
609.4799996,2380,0,-15.14998155,26.29096006,0,57.44077202,18.10783567,24.9903415,-7.668139591,37.798194,-10.11443371,-342.6798443,0,121.043706,16.54443892,-66.36065289,35.38460469,,,,
609.4879996,2380,0,-27.12901675,2.698266058,0,9.788552106,-40.96496917,-11.70428362,-43.89515749,22.924348,-34.30752875,64.77223397,0,423.3839643,-21.1522078,133.7751043,-26.66665264,,,,
609.4959996,2380,0,-12.46255074,-5.569502116,0,-3.888353729,22.9559383,11.58738924,-28.4442258,32.68503211,-14.73338453,-149.3627753,0,289.60262,5.307109836,-36.22861361,-74.48604656,,,,
609.5039996,2380,0,-35.75817278,28.79434955,0,66.14881567,-29.37193125,13.41526005,-14.46787547,26.51639803,-30.67717178,-217.0840449,0,186.9810112,14.74715982,24.2498712,54.04543031,,,,
609.5119996,2380,0,-4.460841902,-18.88306211,0,-31.35287829,-7.015236689,-16.95572282,-40.14431007,19.02708054,-31.09587892,121.1105983,0,494.3551255,-9.081713078,98.93942869,-109.7432137,,,,
609.5199996,2380,0,-12.02709851,24.23021835,0,57.62157382,7.226931166,26.16746771,-2.399338818,44.31487913,3.631274647,-342.45178,0,112.006454,20.88759726,-76.03033614,31.34254735,,,,
609.5279996,2380,0,-30.17545877,-6.332568719,0,9.731535419,-44.60272075,-18.39226404,-34.44954825,17.97743729,-35.32532164,76.43847652,0,420.0346783,-13.62377238,126.894213,-32.9450954,,,,
609.5359996,2381,0,-2.730328175,-4.779203007,0,-1.682947686,30.15445316,10.698003,-10.74148213,27.68536622,-11.5910965,-135.2225669,0,299.997093,4.878859171,-28.01083212,-61.60408182,,,,
609.5439996,2381,0,-23.94119089,35.50678686,0,72.22686427,-16.87594595,22.97987631,-1.608768902,33.92022866,-12.17832777,-182.755833,0,212.5378763,28.14702036,46.16105312,73.30626884,,,,
609.5519996,2381,0,-3.467443131,-14.5743805,0,-24.45055195,5.503385563,-8.680257572,-26.90153485,16.93870524,-22.41556463,141.7139719,0,509.4370817,13.98306019,122.4234024,-80.74579014,,,,
609.5599996,2381,0,-8.948385281,35.88923184,0,63.10115717,22.09851324,37.60119267,11.18534268,41.15997549,5.260630684,-318.7837087,0,129.8499361,43.81347119,-43.38629114,67.04994676,,,,
609.5679996,2381,0,-20.65198276,9.54297157,0,16.74951193,-20.05564026,4.619056319,-23.28354617,30.83172144,-15.16344138,103.5449833,0,430.9422277,20.14901948,154.9462185,-8.951214815,,,,
609.5759996,2381,0,0.794951623,-5.263774578,0,-0.457443197,42.30260476,20.36841517,-2.795920316,35.37802464,3.185510472,-120.804655,0,301.0886508,30.15112357,-2.537340118,-30.25717006,,,,
609.5839996,2381,0,-23.4713227,27.1373733,0,65.95967584,-16.39789657,17.79298093,-2.927646783,31.68699814,-10.90881775,-168.8371922,0,215.9950164,16.0337838,65.55072257,92.0043618,,,,
609.5919996,2381,0,-0.962430865,-13.80527511,0,-18.95304266,18.11845841,-4.676028778,-26.64990037,22.0434205,-6.779174633,139.8165586,0,488.9128792,0.339882555,125.0103218,-78.09431736,,,,
609.5999996,2381,0,-16.43228461,25.27642353,0,66.53841374,28.24865214,30.04796153,9.977594833,38.07794958,15.31930949,-319.5836806,0,116.1169751,42.24814127,-32.26613481,76.96915514,,,,
609.6079996,2381,0,-30.71365698,-7.005607379,0,11.79772683,-22.76767316,-12.69783083,-29.56471544,9.793060353,-23.96122961,88.77902994,0,419.8099807,14.27144597,158.8255047,-7.958629008,,,,
609.6159996,2381,0,0.88686596,-2.295707085,0,7.170338439,44.55963437,22.80872606,-1.980448597,21.70673399,3.359377686,-142.665812,0,274.266599,46.95041411,-5.488799222,-33.40181874,,,,
609.6239996,2381,0,-24.17049559,32.00160591,0,72.23556353,-15.12787577,25.2585536,0.379177876,30.84010987,-1.292177131,-175.1829693,0,194.1406159,48.82230904,66.80453813,81.09085997,,,,
609.6319996,2381,0,-6.638579943,-18.24741176,0,-22.66806381,18.03829929,-2.030876463,-22.02887282,20.24641934,-4.924851008,116.3736484,0,455.4772167,10.02525249,111.4844116,-97.36346973,,,,
609.6399996,2381,0,-12.21783529,25.27876051,0,65.83187383,29.74822826,42.21720787,21.42994795,40.1521546,14.13394777,-327.5418222,0,91.29833743,33.84705362,-42.18593539,59.23916046,,,,
609.6479996,2381,0,-23.38306997,-6.592034303,0,14.13869905,-17.32196006,-3.051772066,-8.22906085,17.38166198,-23.05222069,101.6735176,0,412.633709,16.30806769,160.0428365,-18.60895987,,,,
609.6559996,2381,0,-0.926655649,-6.65288498,0,8.358150738,45.77884274,18.05660031,16.27804496,26.12765006,5.857701779,-136.4132457,0,271.7047418,48.4684856,-1.901267712,-28.28642477,,,,
609.6639996,2381,0,-20.97708724,30.93191606,0,75.53478391,-20.87116372,21.29492823,0.163013212,38.04645231,6.257401001,-170.6810803,0,186.8725763,44.7600045,62.58055716,74.77453051,,,,
609.6719996,2381,0,-4.676007628,-16.02483429,0,-14.3725681,14.39036431,-1.601446887,-19.73644449,22.95625741,-1.55934899,109.1474301,0,425.7690677,30.07646881,104.6090642,-106.4285126,,,,
609.6799996,2381,0,-22.11652968,26.32742158,0,69.65765378,24.9352946,43.68727859,33.79404916,31.44601967,13.29051303,-328.34983,0,75.29323402,66.3662732,-27.66508581,65.40375836,,,,
609.6879996,2381,0,-32.30842709,-2.903181024,0,19.5621367,-24.67496064,7.638499374,-2.29592572,13.47552452,-17.11499245,93.4325309,0,396.0516974,25.17884771,169.8558268,-18.78146322,,,,
609.6959996,2381,0,-4.380467265,2.982433007,0,22.73890091,46.77055023,38.23162049,27.31844893,20.50977512,10.34986576,-153.3429765,0,235.138979,38.97366951,1.462346768,-30.61467875,,,,
609.7039996,2381,0,-25.79759773,37.68198418,0,85.16648539,-4.28729579,43.25464259,33.57195639,23.44177868,7.567959167,-162.361145,0,176.666172,38.1589396,88.51620709,85.25422133,,,,
609.7119996,2381,0,-14.90693761,-17.7057921,0,-9.689993049,26.0522214,12.63538701,17.00678791,9.833824524,-1.177659509,121.0883076,0,436.3487493,16.67046704,136.4230712,-74.56122904,,,,
609.7199996,2381,0,-23.8354392,25.60830266,0,71.24290518,22.84531508,47.50506655,51.39877499,20.58925278,10.46509669,-312.5138405,0,98.41122629,46.89868937,-2.726637439,98.86928851,,,,
609.7279996,2381,0,-20.59053676,5.931596729,0,21.78809706,-17.02605527,11.06120175,12.6075425,8.606088409,-10.79137312,108.5617077,0,422.9237437,26.83420465,188.9109771,5.841644234,,,,
609.7359996,2381,0,5.88777866,11.24685382,0,23.98207936,51.18553542,38.35406066,38.85168307,23.55077955,21.44188232,-142.802447,0,258.9215632,49.13045421,20.10171886,-0.354941601,,,,
609.7439996,2381,0,-15.72966634,35.47451631,0,76.78860199,-15.05692251,36.67551562,24.46771854,28.11394569,10.59670756,-148.6271278,0,201.8450097,35.40994554,95.65240486,100.1296083,,,,
609.7519996,2381,0,-3.611520188,-15.95149718,0,-10.19051078,20.39732709,11.66504665,1.315979854,17.86621276,9.336213936,113.9006044,0,431.9509546,20.31042288,121.6511599,-80.19472256,,,,
609.7599996,2381,0,-17.46923679,32.56203016,0,81.01569121,21.70916358,50.70330082,34.50324853,30.39729045,29.71662199,-320.9781981,0,76.45873801,51.12641626,-19.4688738,79.03574552,,,,
609.7679996,2381,0,-22.04017111,5.046894814,0,29.03179157,-18.71625419,14.15565764,-4.53473819,13.19816096,0.057915122,102.7610645,0,396.4984153,23.13746062,170.8012414,-22.18699411,,,,
609.7759996,2381,0,-5.330203991,6.3550168,0,28.45469287,50.00842162,43.22135835,27.19913946,25.60787575,25.03424746,-146.0593764,0,231.4384378,67.3086837,9.709488918,-19.60335073,,,,
609.7839996,2381,0,-32.87711285,25.02763315,0,70.21525773,-17.35875246,34.37097591,17.84111369,22.83047027,6.156201074,-136.9071006,0,198.2650189,57.38032789,100.8457226,86.73805724,,,,
609.7919996,2382,0,-15.70807349,-24.94090675,0,-17.15272778,15.38661179,7.799201971,-3.593245731,6.230661941,-1.525157745,109.1580705,0,437.5344842,2.202971969,124.0631965,-78.74009963,,,,
609.7999996,2382,0,-19.46750316,32.05217368,0,82.84491041,18.4355221,51.60462871,27.98918055,28.12674243,24.17984754,-333.17476,0,76.91474197,27.95860757,-23.3810105,81.47765634,,,,
609.8079996,2382,0,-23.07547367,-1.775145583,0,23.12250732,-18.98119571,4.471937518,-10.54806611,11.67162041,-5.175162388,90.48649954,0,385.6945679,14.22342692,159.3130368,-29.15984115,,,,
609.8159996,2382,0,-7.823852279,-2.686443999,0,22.1712867,47.25118269,28.35394085,15.90737778,20.13621386,21.53295162,-161.5454207,0,211.4281067,35.67911917,-6.617151094,-24.25437556,,,,
609.8239996,2382,0,-31.49380669,24.50705985,0,72.84477389,-15.29750743,29.87442994,9.969360315,24.64156389,10.90222419,-147.534471,0,170.2086965,33.45964255,78.21534179,69.72402762,,,,
609.8319996,2382,0,-9.203508396,-22.34234884,0,-17.72494697,16.64536093,8.090040081,0.540516048,5.20377813,-0.922738777,101.7654658,0,401.9845778,18.51464646,104.4503219,-87.96949634,,,,
609.8399996,2382,0,-14.57902994,30.28773588,0,71.83316686,16.27529185,52.60908336,36.43557244,18.33488456,28.3956483,-311.7598926,0,70.65661412,60.52035376,-19.6757769,92.57864115,,,,
609.8479996,2382,0,-24.79002539,-4.700648345,0,14.67105501,-18.26249717,9.690812135,1.764078979,6.723361123,8.914280994,110.9261064,0,393.9681176,42.29384442,165.321954,-10.77875221,,,,
609.8559996,2382,0,-6.812526809,-1.633072288,0,21.12314254,29.42669615,30.45884676,19.0704595,16.2623551,27.69480733,-154.0243653,0,223.7663497,39.61871696,0.58133904,7.895324881,,,,
609.8639996,2382,0,-19.8377423,31.5550013,0,74.57840949,-41.2479419,31.04038794,-4.475902754,17.75116629,25.3935343,-141.3729484,0,187.2358768,18.72896367,81.77619388,91.00020815,,,,
609.8719996,2382,0,1.612122689,-10.3260558,0,-4.811817833,11.09673138,13.37757384,-11.51683294,6.033328607,26.29735309,84.08832486,0,387.6151891,10.15295617,88.10859451,-80.76546697,,,,
609.8799996,2382,0,-1.099621926,39.20551243,0,76.39850233,11.23676521,48.68162843,26.8663202,20.73903806,41.76687875,-308.311757,0,67.24620801,42.24954171,-21.19062462,111.5466995,,,,
609.8879996,2382,0,5.439360798,8.715527811,0,10.2639163,-24.48195914,5.132955605,-12.9136758,10.29118972,28.44823224,119.9995136,0,386.114836,29.15432861,162.8722663,5.616730692,,,,
609.8959996,2382,0,16.99754839,11.4763247,0,23.6113575,40.92045318,29.9376255,21.16409265,18.2060051,54.06147645,-151.2543942,0,189.3064918,67.75050936,-8.074516409,22.81973383,,,,
609.9039996,2382,0,-5.108973626,35.0222113,0,70.5314547,-27.28620221,28.05317688,9.824025502,11.74796657,32.29323788,-100.6039246,0,186.5554096,48.83265091,99.55870907,123.786164,,,,
609.9119996,2382,0,18.75737869,-6.18889673,0,-5.886442759,18.51234658,17.43589,-3.103837236,6.333651523,35.30936101,125.5841632,0,384.0949413,24.98571872,105.7942611,-40.22384159,,,,
609.9199996,2382,0,0.63179807,35.53177285,0,80.43553378,14.97384485,50.01508657,35.44419646,19.40492377,50.86150909,-282.8612325,0,39.98235073,56.12075069,-18.50657664,134.5000265,,,,
609.9279996,2382,0,1.169967428,-1.030549847,0,15.93101627,-21.54904346,8.196564588,6.24528794,-1.340819663,15.47462204,141.3722086,0,369.464132,30.04220364,168.7520328,28.84952114,,,,
609.9359996,2382,0,21.77815067,5.416545863,0,31.55190699,44.69214749,38.03033328,42.85441997,15.00679511,45.06085694,-124.0849735,0,185.9511954,52.97712876,12.34592556,66.66937685,,,,
609.9439996,2382,0,-3.250247519,25.03181724,0,64.50741867,-27.11020129,20.91593066,15.52039712,14.28869501,38.15858281,-88.36579094,0,170.6360057,37.92948284,104.5186311,147.6308999,,,,
609.9519996,2382,0,18.49882879,-14.59416077,0,-15.38118871,14.49540566,10.5742,-5.589526165,1.877540244,35.42867484,112.0989089,0,346.7080725,40.8223489,93.83612745,-29.26254786,,,,
609.9599996,2382,0,1.374526967,31.86003386,0,81.45313983,5.830910245,52.72419527,26.27467243,16.18450263,50.07398135,-274.2707657,0,12.719611,82.20298646,-15.75147777,149.887097,,,,
609.9679996,2382,0,-1.307804889,0.772855362,0,25.04808753,-26.81149378,11.62749765,-10.97376523,-1.225405654,23.34225153,147.7424425,0,328.438338,44.10191633,158.1522261,28.48904617,,,,
609.9759996,2382,0,21.94556797,14.72423125,0,42.30402547,41.72588722,48.20580595,28.28981822,10.76622432,51.28507387,-123.9630437,0,135.5497055,74.88667116,-5.195830022,66.25885982,,,,
609.9839996,2382,0,-4.51487094,29.66925575,0,72.8018054,-30.29607942,31.52618231,8.777030561,7.641386795,35.81438528,-69.89329771,0,139.4802975,76.17439958,100.9490162,154.4878349,,,,
609.9919996,2382,0,11.01842922,-12.97031987,0,-6.114024941,20.9686278,14.19699846,8.778307325,-4.985127225,26.90506488,124.6893129,0,319.7810529,58.8047005,95.06719845,-6.082983574,,,,
609.9999996,2382,0,-0.345825935,37.29632466,0,82.0555802,13.49296077,53.56008234,50.80307433,9.261543072,43.44712522,-246.823227,0,17.39548712,68.80679097,4.198221661,190.641692,,,,
610.0079996,2382,0,1.310574821,4.350946529,0,21.21709915,-26.50479436,9.081731894,-4.661740917,-2.127849361,24.5693638,168.7412092,0,333.3545548,38.32493511,173.210889,55.28819523,,,,
610.0159996,2382,0,16.53827915,13.65212,0,47.00827,40.38153728,40.59274684,30.2122729,11.7057205,47.89921199,-125.0771048,0,102.5152396,74.92991924,-9.764240591,68.38013465,,,,
610.0239996,2382,0,-7.511624469,28.86414982,0,80.09266293,-28.30775001,27.67882691,21.67355463,4.813979818,26.62526751,-51.70629447,0,120.5360659,52.95298657,104.4422609,151.6757424,,,,
610.0319996,2382,0,11.78912274,-14.12498705,0,2.974178578,19.10989032,13.94531494,12.77768041,-3.978794123,25.8542574,141.1320249,0,306.1115889,33.83283066,97.76350783,-6.650292289,,,,
610.0399996,2382,0,-5.078676578,31.17543648,0,87.03616473,6.968838017,47.85388632,40.92396537,9.440205047,42.84378402,-240.4188305,0,-12.51652759,60.01524417,-9.293713006,169.681956,,,,
610.0479996,2383,0,1.288043721,-2.154776332,0,15.09121133,-29.88716113,6.778156979,-14.2666472,-10.24376516,17.74006061,170.4221613,0,303.3361081,26.47583083,151.4316374,27.35556204,,,,
610.0559996,2383,0,12.94927723,3.103508965,0,35.97220294,40.1194099,44.96049721,29.12283889,2.915997066,43.07935296,-126.2885072,0,70.39724565,65.80142999,-28.42811718,45.11424874,,,,
610.0639996,2383,0,-18.87543063,14.44870176,0,65.04639272,-23.89113124,30.19541222,23.3616617,-3.129533841,24.31704622,-45.82619559,0,93.78963808,66.08178743,90.47924617,121.0435813,,,,
610.0719996,2383,0,16.67744407,-17.28697446,0,-11.03252067,23.53359728,13.36409981,3.097880834,-11.57700306,26.61376095,134.1161096,0,279.1472521,38.53902059,80.90855422,-30.17591742,,,,
610.0799996,2383,0,11.33772252,36.33904788,0,82.33736038,13.10361995,49.58844406,29.87209028,8.443072532,51.87521619,-245.0973727,0,-47.8888228,51.89872115,-25.52808394,140.2854546,,,,
610.0879996,2383,0,9.468295159,4.231582068,0,19.14109906,-17.6988918,10.46939135,-12.03632893,-3.857440193,30.35382586,175.8445027,0,265.7221238,34.41285,141.6418429,-4.48799174,,,,
610.0959996,2383,0,29.78976916,22.3505558,0,44.7075597,48.13514165,45.98091788,31.99565638,14.51666647,53.70984814,-116.9785634,0,46.8375591,65.01428827,-29.19586234,31.99839098,,,,
610.1039996,2383,0,3.882622145,39.02866788,0,73.54095363,-16.74277995,33.59223882,29.08997299,12.12296463,37.97981437,-25.85859399,0,85.40225669,66.71313358,95.11342706,108.7637915,,,,
610.1119996,2383,0,15.91791886,-6.021274052,0,-7.472664697,24.638119,11.91011093,16.94102651,2.640968804,35.88090709,147.9830218,0,270.2615389,50.29273231,89.81630894,-36.08814007,,,,
610.1199996,2383,0,4.544464684,40.52668878,0,78.89273328,5.712635408,41.13240843,42.77010558,16.74471091,46.35117853,-227.6323222,0,-40.78335492,40.21730797,-10.94673654,138.6823851,,,,
610.1279996,2383,0,6.565733532,3.771157234,0,17.53994493,-15.80109276,6.702478014,8.2879128,-2.247449167,24.94269962,191.19664,0,282.0069855,32.845761,153.2467362,-3.875863465,,,,
610.1359996,2383,0,24.19006751,19.66682571,0,42.89222962,41.72690298,37.96868507,35.58232756,15.88353016,53.65738709,-114.9459003,0,58.32583848,73.5430092,-18.40006766,43.25166352,,,,
610.1439996,2383,0,7.797399162,43.94934713,0,70.06808455,-30.76454542,25.26999053,8.042196665,21.58853385,38.02959028,-35.95241114,0,67.98857558,40.89359017,87.07750738,90.35046515,,,,
610.1519996,2383,0,16.35710985,-1.902676064,0,5.034240847,33.31081456,19.50477059,20.33160589,9.53077446,38.22912174,123.5237661,0,211.2342022,41.08744577,67.35447068,-71.53029045,,,,
610.1599996,2383,0,2.291591771,41.21202605,0,90.99285767,18.33450661,51.49266231,52.4764175,13.8620337,43.61320106,-234.8513001,0,-78.0577734,66.75503018,-11.97725034,124.2851946,,,,
610.1679996,2383,0,13.16867062,7.193640258,0,16.6131372,-7.244636011,15.18032828,11.27493466,-1.079292753,18.93860891,188.9130146,0,255.5616122,49.35573282,151.8470953,-17.5909708,,,,
610.1759996,2383,0,24.26322696,18.42282258,0,45.79649942,58.5974856,49.82976132,63.70134643,16.8276959,51.11197382,-109.7062948,0,40.23734319,97.02371104,-13.91510633,39.61992388,,,,
610.1839996,2383,0,6.799504407,34.41269102,0,64.90461983,-27.64444692,25.22644674,24.19330454,12.696141,31.04598474,-11.12420784,0,100.0697188,62.2431096,108.5325872,104.785359,,,,
610.1919996,2383,0,32.34662417,-6.201149655,0,-6.005250062,19.86223556,13.87997728,4.93650379,7.089804018,36.23564146,126.3030591,0,233.2748324,26.95308069,66.83360168,-69.62813137,,,,
610.1999996,2383,0,18.34394944,40.22973521,0,88.93203624,12.85472965,52.06560508,43.79248973,24.98130646,56.4638379,-234.4956838,0,-81.0132932,47.38741362,-25.33781099,102.4397743,,,,
610.2079996,2383,0,10.38643697,-3.902259594,0,10.46244275,-9.967050606,9.410319246,8.600064451,2.623512369,21.72204058,190.4206912,0,253.0845475,20.84568802,140.4722956,-44.08042499,,,,
610.2159996,2383,0,16.62936097,4.440265998,0,33.52113887,47.94363018,39.79166214,51.95535072,7.563800975,36.38553654,-118.677315,0,38.16165607,49.54006464,-24.22780223,18.5301943,,,,
610.2239996,2383,0,2.378520897,23.77613181,0,59.20634882,-26.26036479,22.72960089,24.12567771,5.899664784,17.50169347,-10.96991054,0,109.3753101,47.57476946,101.3266167,81.94120577,,,,
610.2319996,2383,0,23.78161973,-16.0868174,0,-5.416149338,30.6892952,13.73536947,22.68306824,0.955868002,17.11545743,123.4903474,0,254.2149219,49.15988127,67.14717137,-75.01995133,,,,
610.2399996,2383,0,12.28989465,33.22288582,0,82.70149586,14.35979103,46.12555363,55.98990254,13.47315853,30.46965562,-226.0891876,0,-27.90097319,60.79962859,-4.443486995,117.2959398,,,,
610.2479996,2383,0,25.20643444,7.215805787,0,10.81155905,-8.831076706,10.92457222,2.889149396,8.281004135,19.12697841,190.4855532,0,295.2848494,38.24602468,143.7473105,-45.87037813,,,,
610.2559996,2383,0,38.90610562,22.55762476,0,45.8907138,53.81501426,45.59198041,45.91248294,27.4584501,48.12445238,-134.1115531,0,32.00767411,86.75655695,-42.69884797,-4.150541001,,,,
610.2639996,2383,0,19.92662664,37.45860279,0,68.22929258,-12.5001059,25.9701304,26.34997737,18.93366229,27.90146269,-9.531138862,0,101.2312804,56.88889052,99.45185194,60.32892383,,,,
610.2719996,2383,0,39.65904551,6.132674794,0,6.601066676,50.16832687,26.14020966,17.39274971,20.04903227,39.10081752,115.6829501,0,231.0339229,35.61931778,62.96639535,-94.8411881,,,,
610.2799996,2383,0,14.16461153,41.68304035,0,85.58331234,25.35168924,49.37071713,46.52989892,25.3695207,41.54072896,-230.4762881,0,-61.8516505,60.47279754,-8.70639097,94.76553279,,,,
610.2879996,2383,0,28.19453393,6.560480675,0,13.11317173,-0.57548438,7.797646401,-6.414415569,5.871918962,19.97844665,187.1238166,0,269.4085571,25.29182478,149.1920873,-62.42243477,,,,
610.2959996,2383,0,39.96014002,26.30997474,0,58.73856994,63.05513015,50.12701298,35.83908067,32.07245498,58.3323086,-148.636605,0,1.454914961,66.2682271,-36.77602744,-19.3102172,,,,
610.3039996,2384,0,3.042239574,24.54232654,0,63.42333975,-13.29464249,25.98961403,19.52026957,16.98891,22.95761217,-10.95612886,0,86.19775253,65.22702759,108.0361909,40.24014614,,,,
610.3119996,2384,0,28.09078622,-9.517867142,0,-1.014061818,41.29605304,26.6929917,8.926918106,4.777791903,18.97467388,107.8733532,0,220.0313126,46.02068594,64.91058348,-110.3112436,,,,
610.3199996,2384,0,9.000413308,32.55189411,0,91.38397407,24.72957151,49.06412448,43.9454763,19.27277707,35.30231144,-230.0305376,0,-77.37134546,52.7064889,-11.91045497,72.96800585,,,,
610.3279996,2384,0,8.261795767,-14.01523244,0,6.517341739,1.231684098,-4.864697313,1.99551312,2.031412842,10.56096518,202.9275326,0,274.5294719,37.08735491,153.757163,-73.18488137,,,,
610.3359996,2384,0,18.34892242,8.20274955,0,41.51133751,48.41727365,32.19455887,28.6752328,16.87347695,28.71989576,-145.0119775,0,22.83585147,75.95141149,-32.17661541,-12.97656597,,,,
610.3439996,2384,0,-1.76744524,21.58225077,0,59.09074107,-19.86993237,8.63773016,12.14411453,7.313518418,4.865193884,-13.08261386,0,104.1649237,37.31928975,99.34833293,30.9396997,,,,
610.3519996,2384,0,31.1219996,-7.738444228,0,1.933182812,44.65118379,6.131889309,15.88809808,8.148549073,23.20568355,103.1287596,0,241.0803117,43.54013275,58.18309385,-109.6256371,,,,
610.3599996,2384,0,14.48322692,44.76870015,0,94.27803636,9.137449811,37.47505602,20.66464547,32.43022709,37.64109038,-238.1593393,0,-53.92856431,82.31292962,-23.88863738,65.40088417,,,,
610.3679996,2384,0,14.9942939,4.203396787,0,20.78831361,-6.930309887,0.851742742,-23.29495662,15.24427471,3.669956646,186.7356274,0,278.0244361,30.97437684,122.4983674,-109.1691586,,,,
610.3759996,2384,0,25.54884502,22.39876577,0,69.7170569,60.3217518,45.80885776,37.42637434,25.79908081,30.94889312,-150.6727673,0,30.54634234,62.10389179,-49.89018977,-29.20644361,,,,
610.3839996,2384,0,5.792152562,34.42090892,0,81.35262359,-18.92058072,20.25036441,14.72001026,22.19021691,9.681919875,5.285399193,0,135.6734599,58.26567747,95.43314531,28.49190735,,,,
610.3919996,2384,0,36.41045716,-0.08503697,0,8.175936761,39.26818167,13.55835567,12.20255034,22.28750173,14.99817853,111.7273987,0,264.0284831,64.14703265,43.54791107,-114.5287431,,,,
610.3999996,2384,0,14.22841701,41.37746163,0,96.6657794,14.39503254,44.36864789,37.71111669,33.43373518,33.86164216,-223.1521297,0,-23.87303862,83.62729951,-32.66479467,69.4967346,,,,
610.4079996,2384,0,14.99006287,-1.611527135,0,18.60301989,-9.538101597,2.546333795,-10.87976043,14.23230241,9.259021345,206.1989441,0,323.77866,24.44011236,122.0960185,-92.66659977,,,,
610.4159996,2384,0,34.32017278,21.77649697,0,60.90793421,52.83117064,44.45732922,26.85550608,31.16113872,36.01402953,-156.0677474,0,54.98853878,53.88480576,-56.0175768,-21.73089778,,,,
610.4239996,2384,0,6.160565985,21.72188012,0,72.60367864,-12.97914113,18.65047845,10.19636863,17.38917765,18.11329687,1.967721184,0,155.1028693,55.76740462,94.89374028,20.09571872,,,,
610.4319996,2384,0,21.42689227,-17.57928571,0,5.840349991,46.09105853,9.393874281,21.12614018,11.45337378,22.44247957,101.1331897,0,292.2829976,56.09429729,52.07189884,-112.9460606,,,,
610.4399996,2384,0,2.206174798,34.55642896,0,93.03822557,19.12951804,38.8562283,49.80154645,24.26064587,20.95065143,-226.5386453,0,25.45008295,64.48191945,-8.160017203,85.31850066,,,,
610.4479996,2384,0,12.16775811,-7.490952414,0,9.555636221,-7.904000028,-4.24607458,-1.050179254,3.541991634,-4.849038815,222.2071148,0,389.6130141,30.9143408,152.2920639,-67.01789782,,,,
610.4559996,2384,0,31.05951438,22.50390274,0,62.59862589,45.51541237,45.35099908,30.59622569,33.13088496,41.26116356,-158.4818031,0,91.53717735,76.82491631,-51.08266158,-9.622954398,,,,
610.4639996,2384,0,3.77227504,32.57866382,0,82.04356636,-22.41722922,27.44525415,10.32388979,26.40074924,13.95358924,-6.194472442,0,168.7365861,44.33909804,85.15569246,7.672873883,,,,
610.4719996,2384,0,25.26849313,-7.904479634,0,12.09351408,34.87586468,17.23616437,9.293427739,20.25280278,12.19006355,92.49479666,0,287.1774611,35.84842747,39.23575273,-123.6824138,,,,
610.4799996,2384,0,5.756473502,34.31022013,0,101.885065,16.51620893,44.04198806,36.48566615,35.58945961,25.29390178,-238.790001,0,1.145605151,67.84615412,-29.98770999,60.74163036,,,,
610.4879996,2384,0,10.1205354,-15.23448686,0,21.51014718,0.38434027,-9.596106866,1.841149321,4.984365515,-3.037610238,208.939127,0,380.4802912,39.70398682,138.9145338,-94.63103956,,,,
610.4959996,2384,0,8.466253245,8.596542673,0,57.20558084,43.4614882,23.60432644,35.2961627,23.35005315,17.76553078,-156.0643714,0,128.9260994,83.35119478,-33.60539418,0.780234875,,,,
610.5039996,2384,0,-22.92370761,20.25695287,0,67.66647458,-26.16795124,7.67676297,0.841075751,20.39389434,-18.83717494,8.718283003,0,233.2668198,63.32927463,102.5036016,16.92536703,,,,
610.5119996,2384,0,21.62030992,-2.081981447,0,17.24360793,37.36811026,15.44355086,-4.274018534,24.1302639,-0.984751898,83.8163907,0,330.7121825,58.21013428,34.11354642,-139.6973624,,,,
610.5199996,2384,0,-3.455641646,43.89372089,0,107.3832796,9.554731031,47.11526167,31.6148894,44.92429083,18.82688097,-232.2989616,0,38.71201028,72.16268075,-28.74860016,35.77549038,,,,
610.5279996,2384,0,-8.916065703,-10.45732846,0,18.62547782,-7.575753195,-8.689265345,-3.263260853,13.66798284,-11.59427333,217.9827071,0,408.1098203,36.28269088,133.581998,-130.9795995,,,,
610.5359996,2384,0,10.29897876,24.3558008,0,67.24269316,42.56810415,32.87942262,30.45616715,29.670301,23.70159212,-168.7995462,0,131.4235304,74.95177598,-50.22349406,-38.86040281,,,,
610.5439996,2384,0,-14.53307084,35.65042132,0,81.50525177,-21.37960242,24.53551145,11.59510833,33.74378511,6.823100596,19.16500323,0,238.553362,44.68542171,97.7076115,-14.06569155,,,,
610.5519996,2384,0,9.916066821,-5.442758883,0,17.93979458,48.23808639,20.64597138,15.30733311,29.41448727,18.32509022,87.45214997,0,337.6179756,32.82479056,37.48037336,-145.5499705,,,,
610.5599996,2385,0,-21.59131616,33.08312341,0,96.57589562,11.44259885,39.65130714,38.23684135,31.04545589,16.74030631,-241.7565495,0,57.49574654,74.02071024,-17.76642611,47.89463354,,,,
610.5679996,2385,0,-24.49270083,-14.94358712,0,5.530071843,-10.78555683,-5.644184411,-3.887472603,9.907375155,-12.61920821,197.3609466,0,421.1429045,48.32793082,131.9836523,-125.8576998,,,,
610.5759996,2385,0,-5.902985363,23.55058954,0,53.24832228,44.04693639,36.67162845,35.38557053,33.46795833,23.61798294,-203.1509786,0,131.1320264,54.03854716,-60.11347792,-31.81748205,,,,
610.5839996,2385,0,-23.78504874,35.11947853,0,61.38024189,-30.55449631,14.89211027,10.09180692,27.07195363,0.649853935,5.976341801,0,267.3041104,66.92250594,103.2047972,3.557330266,,,,
610.5919996,2385,0,1.958153385,-2.663116657,0,7.626950371,32.18819296,17.66120017,7.784109122,27.50579133,17.25317687,57.53241682,0,349.9679677,78.5155732,25.53371257,-138.3527376,,,,
610.5999996,2385,0,-27.58559847,40.37357329,0,101.1009301,3.308119264,43.63068111,34.41956022,34.33411155,18.81414753,-272.7705413,0,46.81575117,54.97269483,-43.11829416,38.24170245,,,,
610.6079996,2385,0,-16.3062879,-2.187721923,0,12.26517143,-17.00625629,-5.400991482,-7.402223235,11.4395589,-8.301608956,186.2206864,0,421.5421701,48.37305861,119.5744916,-125.0244155,,,,
610.6159996,2385,0,5.801115981,33.91950546,0,69.44330203,40.47767439,41.4850139,31.3632343,40.33194027,36.81974025,-229.4410946,0,104.8899296,97.28482138,-78.17535591,-31.75287278,,,,
610.6239996,2385,0,-27.06515416,30.15731194,0,81.80677549,-20.79444268,22.95110351,20.21641255,26.95443144,8.048704284,-10.03784117,0,227.8387627,58.82675755,81.97305116,-10.32698544,,,,
610.6319996,2385,0,1.211628873,-5.9001077,0,22.4199506,36.72664772,16.16983387,26.41211779,19.76599256,11.2163835,48.96837582,0,333.4529098,56.01647566,18.80607382,-117.8679112,,,,
610.6399996,2385,0,-10.45972808,51.53497565,0,114.7041605,-4.198871689,37.6508128,37.56146263,41.28222787,21.0136379,-276.4108819,0,43.5533491,80.51097829,-46.20305757,81.30937143,,,,
610.6479996,2385,0,-8.702161339,2.23059789,0,28.96247429,-12.47820054,-3.345647018,3.105804349,22.53786619,-1.762107064,182.4083673,0,397.253413,61.68416201,98.85140497,-97.70428825,,,,
610.6559996,2385,0,10.39873441,35.67396652,0,90.54052033,43.01178125,37.47198285,49.49376976,43.6098907,34.48378291,-239.6763716,0,78.50578266,94.13614977,-96.76886688,7.587255696,,,,
610.6639996,2385,0,-0.921096397,48.16806767,0,96.82624413,-28.42667098,8.539312115,11.98738751,41.72582865,12.11133768,-7.721622728,0,218.1124671,85.78180299,73.16959017,33.95145275,,,,
610.6719996,2385,0,19.10711161,13.03038542,0,37.14106981,38.21813268,10.65940388,17.54094214,42.9024954,22.37273094,35.9010803,0,279.6683735,69.68161537,-6.627483417,-101.0946597,,,,
610.6799996,2385,0,-8.221621762,56.34539787,0,130.2571028,1.580883947,32.36643021,43.90451935,53.27725366,23.74815527,-277.5117707,0,-14.45466703,66.62856327,-59.03414303,86.04964538,,,,
610.6879996,2385,0,-2.768218085,-3.296137963,0,25.2383031,-8.796071618,-17.91385785,1.68481153,24.44536279,-4.667147718,199.7793525,0,378.480562,62.63682478,110.0652321,-79.34884312,,,,
610.6959996,2385,0,7.912932971,23.47051937,0,82.76635099,45.67607864,31.09180093,45.63850657,43.30790333,31.90915409,-240.0285236,0,47.35165991,89.58218546,-94.90704819,20.07280298,,,,
610.7039996,2385,0,-12.67181122,28.52941476,0,90.49015201,-27.99349756,6.754147029,15.23846447,36.04478958,4.013361231,-1.899698946,0,192.4627283,61.5195688,75.81120962,33.10752792,,,,
610.7119996,2385,0,13.64816792,-8.344864985,0,15.75351175,32.05146821,-1.43905366,9.200472551,27.94578509,12.95226657,32.19851296,0,270.2083794,67.49589546,2.918443949,-90.31344802,,,,
610.7199996,2385,0,0.150152139,45.67326756,0,116.4443549,-3.190016281,26.02273061,24.00218622,46.51933101,25.72508936,-292.7509043,0,-34.59628716,63.00484675,-62.2116564,82.30837286,,,,
610.7279996,2385,0,13.8105875,2.271093312,0,32.20599397,-8.050645141,-7.80340031,-10.46099294,37.15561069,7.713463528,184.70131,0,337.1441854,40.98445057,95.09354571,-105.4078875,,,,
610.7359996,2385,0,19.72830672,36.58129857,0,92.2419402,36.49686578,41.01190378,33.75204358,58.31347079,42.95802888,-250.1729001,0,-5.698526602,89.71618625,-103.3134723,-2.096593055,,,,
610.7439996,2385,0,-5.504890736,36.36850199,0,97.12343006,-37.01872111,14.07915498,3.223329641,45.32325174,8.30790014,-4.028608432,0,133.337989,50.38677225,64.54760229,2.775974236,,,,
610.7519996,2385,0,11.2994882,-2.886451593,0,27.30792079,37.88424549,10.88054426,19.50214602,40.07578244,12.03666613,17.89405916,0,190.8306286,51.23461531,-15.07187511,-121.2993371,,,,
610.7599996,2385,0,-17.69925122,46.92310601,0,124.7550858,0.144317301,35.3848892,50.64672695,51.53295338,10.83551506,-280.2305574,0,-79.08625687,85.54677581,-47.47055261,79.74744408,,,,
610.7679996,2385,0,-4.370925206,-0.184603755,0,28.65908336,-16.49072748,-4.439676514,2.017327639,28.3578002,-16.88849694,200.3277952,0,328.5373194,71.5696923,122.5106684,-87.37721186,,,,
610.7759996,2385,0,7.094269157,40.06538651,0,87.39924287,32.81398013,42.06482104,34.43448192,50.79132204,28.74153474,-257.196149,0,-24.58701536,104.4247905,-93.11214671,10.67565708,,,,
610.7839996,2385,0,-13.61358102,43.33653118,0,97.17057653,-36.60941821,11.01595275,6.629124009,44.60041103,4.277012629,8.88831348,0,132.7003296,34.99144528,81.44515434,13.68605766,,,,
610.7919996,2385,0,16.19640724,5.966739775,0,28.96237226,29.07519059,6.451588195,11.18457909,45.40175568,13.22759351,21.16187194,0,190.4434686,24.93824696,-3.602766972,-110.7300893,,,,
610.7999996,2385,0,-3.272540323,52.60229453,0,123.7418196,-5.264541005,31.63280817,31.37363464,60.37166964,23.99062464,-279.2412551,0,-99.24157141,73.51254178,-55.25575039,66.50311542,,,,
610.8079996,2385,0,6.609376386,-1.203836176,0,34.39570375,-2.839228005,-6.928494188,5.764985784,36.0344447,3.779997692,210.9366313,0,296.0155815,45.31141296,109.7156377,-106.1932722,,,,
610.8159996,2386,0,13.75807604,35.07362463,0,95.1951617,51.64766885,38.50109077,59.18308546,55.11168009,31.82107346,-248.7373012,0,-52.02121202,88.39603656,-94.17983577,13.67710266,,,,
610.8239996,2386,0,-5.848009601,36.72117688,0,93.8218638,-27.37560895,2.111020694,18.3607112,49.5951555,1.074828427,23.36648298,0,127.1547748,64.82100526,86.34069892,21.00120726,,,,
610.8319996,2386,0,19.74645134,3.238171684,0,31.94254329,31.63300639,1.198269426,14.23187306,52.69077031,21.0589791,20.73654658,0,180.2619843,62.16018843,-5.954614845,-104.7613529,,,,
610.8399996,2386,0,-8.196354751,49.82579226,0,126.7606323,-7.15242316,27.75796844,34.84694123,60.70238621,16.66857503,-277.0052455,0,-99.98810362,85.9195153,-52.0684413,71.53182495,,,,
610.8479996,2386,0,0.840265587,-1.681414921,0,27.22384062,-11.0369198,-17.96087153,-3.758633151,35.9502211,-12.709017,207.5812192,0,297.8932469,27.0871254,107.1697451,-110.9961686,,,,
610.8559996,2386,0,7.810273125,38.9055064,0,93.69308809,35.43141716,27.79332956,42.19501677,58.90049122,24.72277165,-260.2132542,0,-65.81836469,65.8782889,-104.9085929,-0.685382384,,,,
610.8639996,2386,0,-17.68326617,33.99910717,0,93.8570358,-37.73255601,-1.475763209,9.997168381,44.81620819,-8.244694111,26.10667468,0,117.2633925,58.45993786,76.37655188,-0.617935008,,,,
610.8719996,2386,0,10.42885408,1.589026383,0,31.04136082,29.61408108,4.104297607,12.88783955,40.14069103,6.935583595,13.72867804,0,162.1271125,39.83810276,-20.41544438,-118.981624,,,,
610.8799996,2386,0,-10.01544396,51.23197174,0,131.6991497,-10.90333881,33.72129541,35.27094801,54.85175524,12.5577749,-274.5662301,0,-125.1484318,70.77304099,-60.55828489,63.22031805,,,,
610.8879996,2386,0,-1.129180231,-6.629152522,0,35.3753272,-6.933808757,-6.043593147,0.940761971,35.41078179,-7.795948416,212.8225214,0,263.5450714,57.94682858,98.25836242,-119.9016032,,,,
610.8959996,2386,0,6.630323049,35.58733403,0,96.2046318,42.70401535,38.89907044,49.49491276,51.37925966,23.91464101,-258.6044431,0,-102.4763716,93.98807138,-106.9448401,-3.151755043,,,,
610.9039996,2386,0,-11.7548035,35.59836751,0,91.16669595,-37.91291503,-0.434822952,12.48727568,45.40474526,-8.211391447,42.85615653,0,90.5048673,59.65602745,88.41105744,-1.057148186,,,,
610.9119996,2386,0,11.30592581,-2.751221221,0,25.09358305,26.28465864,-3.909699269,9.868147723,46.60617951,8.543002684,26.21623201,0,128.9967239,47.80990618,-13.29753112,-118.4491258,,,,
610.9199996,2386,0,-17.7959124,43.01038959,0,115.8994482,-14.03378059,16.43145867,29.6670928,48.11742842,5.320083313,-253.5682087,0,-142.5079958,74.85769927,-55.06209583,61.0192141,,,,
610.9279996,2386,0,-1.900043209,-9.87444845,0,20.73792644,-10.67527508,-25.95505592,-11.84531468,34.84189306,-18.44393431,227.70132,0,258.1829996,44.71752045,101.4005897,-118.6009547,,,,
610.9359996,2386,0,1.393099645,24.06352851,0,84.88028855,33.84970051,18.200034,31.94775849,55.94480618,11.52025385,-250.4941301,0,-109.7482947,86.3328389,-110.6473725,-1.751365361,,,,
610.9439996,2386,0,-23.66505199,19.84051014,0,78.45577261,-46.07277796,-18.822585,-0.762813689,36.5626901,-23.28785122,56.50921425,0,98.95391031,60.51678355,83.46038003,-6.207868658,,,,
610.9519996,2386,0,9.931025755,-2.191183719,0,26.48639239,23.33997798,-12.16797994,-2.420447736,44.3913125,2.253606612,16.92186144,0,133.8390482,51.35938744,-15.38734691,-117.7171083,,,,
610.9599996,2386,0,-20.46389024,43.51406781,0,121.706113,-21.35257881,10.61894497,19.43791329,49.4287021,3.451894515,-257.2930474,0,-133.222757,79.0543881,-47.62696098,58.45185448,,,,
610.9679996,2386,0,-12.48130345,-14.75912076,0,21.48529738,-22.32781783,-31.73528221,-12.83370463,19.43430013,-26.82309334,222.7229293,0,276.6435782,31.81266514,114.0591934,-119.1814982,,,,
610.9759996,2386,0,-2.409863702,29.86035234,0,93.50189468,28.56795707,18.61373688,31.19120306,47.24296974,14.15840979,-269.9946406,0,-100.394092,58.87862633,-96.51123385,0.049699105,,,,
610.9839996,2386,0,-23.46398193,23.6496353,0,82.38491279,-46.38046438,-16.82368033,-1.531064142,30.86407575,-15.92796241,45.98234984,0,109.0988561,64.72431168,95.75420486,-9.452388844,,,,
610.9919996,2386,0,2.654156521,-5.73282369,0,21.93070311,19.72498521,-8.12858789,6.731554899,26.49100477,-6.487436616,2.886057298,0,138.0948252,67.09535564,-6.317736404,-112.1011013,,,,
610.9999996,2386,0,-19.95342204,52.21939635,0,119.5429765,-22.37125368,22.15259763,24.51063425,44.98960328,0.284043928,-247.0109399,0,-124.0603424,67.46537175,-32.10219575,63.19533394,,,,
611.0079996,2386,0,0.753388124,2.751141475,0,14.7312606,-18.25805173,-21.41936207,-20.23405649,27.38421325,-14.61062004,250.6636999,0,280.1318639,49.22101042,121.680281,-119.409092,,,,
611.0159996,2386,0,1.088701702,38.83538165,0,83.01330541,25.29893516,25.052849,21.13095851,50.40338486,21.89562195,-249.4619595,0,-117.1948492,85.67194843,-103.7175277,-6.655875251,,,,
611.0239996,2386,0,-22.83740519,29.4586661,0,78.0393897,-53.0709367,-6.003393113,-12.2376826,30.91224771,-14.86176892,77.12814688,0,97.93288866,51.65030152,88.58264887,-19.75086638,,,,
611.0319996,2386,0,11.64474373,-2.213353665,0,23.14158786,21.84888528,-0.813784149,0.734003465,25.07239247,3.473411498,37.94268163,0,126.0487619,62.18651139,-10.97572885,-106.4421842,,,,
611.0399996,2386,0,-19.069519,40.06457243,0,117.893711,-19.3430279,19.34258612,30.51917118,39.38024881,13.34517292,-215.2086279,0,-131.8608814,52.27895933,-34.25480138,73.27777018,,,,
611.0479996,2386,0,-9.483210359,-20.95549446,0,6.520204723,-30.91318715,-31.41705394,-8.652782804,11.2435021,-21.24545189,262.6686193,0,283.9617675,4.063003616,119.951628,-96.91160085,,,,
611.0559996,2386,0,-2.418714246,18.6652328,0,73.70700366,7.315993051,10.6638875,35.22965379,27.27507993,9.255921793,-230.2056614,0,-94.98791038,55.38610196,-94.86685398,41.3291107,,,,
611.0639996,2386,0,-18.35838914,15.12033235,0,74.39959689,-60.19622108,-17.09481016,4.033070979,17.98124019,-11.32314031,107.1934204,0,124.6999976,37.1929878,101.0909399,25.99274715,,,,
611.0719996,2387,0,17.63062334,-10.21195817,0,22.16010082,5.687133382,-10.40822912,-2.23195154,19.04704921,3.668669945,38.92039695,0,122.3873902,64.1689841,-11.68285023,-70.36282841,,,,
611.0799996,2387,0,-5.105249514,39.86312899,0,114.5759351,-39.07793696,9.566886913,11.0335759,32.2455089,5.84414111,-204.165736,0,-137.3424238,70.28149137,-36.16377484,102.8264019,,,,
611.0879996,2387,0,6.005566274,-17.06295538,0,10.93142946,-31.99016835,-30.34184535,-19.39189704,13.08311333,-18.05514708,275.4918649,0,270.3120458,11.49014338,114.288899,-73.72238597,,,,
611.0959996,2387,0,12.21883606,28.62154835,0,82.97793962,12.12592178,21.36834187,22.34857466,32.21591209,9.966166548,-228.8740706,0,-125.9209066,59.57767074,-102.0902344,54.20992507,,,,
611.1039996,2387,0,-2.323048665,25.79596424,0,73.19496524,-51.02502972,-8.422556425,-5.30032089,19.83986103,-17.6714316,124.042693,0,105.2540276,40.5815173,99.93431298,33.08769111,,,,
611.1119996,2387,0,22.275875,-8.122195885,0,15.67808387,15.53779678,-8.424711256,7.093124552,18.9741081,-2.185692495,61.51846219,0,111.0655151,41.3668464,-9.441268062,-49.67993465,,,,
611.1199996,2387,0,-5.671840669,34.80133896,0,101.5786203,-43.36028524,1.80640128,8.072136609,25.59920044,-8.595587985,-173.2374063,0,-138.3271932,52.26131019,-30.23600703,118.5491636,,,,
611.1279996,2387,0,16.80578479,-19.66459765,0,0.421669067,-37.56197859,-40.45523834,-39.98697386,14.42251016,-23.13231447,287.3719362,0,242.5564765,15.67403433,103.0473634,-80.39161284,,,,
611.1359996,2387,0,16.95871736,23.09610789,0,81.94459944,12.47619592,9.916519403,13.97772705,39.54451309,13.79349909,-222.9517082,0,-178.8006656,51.63299747,-121.0811765,38.8275363,,,,
611.1439996,2387,0,-9.700817479,10.83372483,0,59.62188736,-58.74296265,-26.24302987,-5.935843636,13.88912298,-27.39564015,147.1103362,0,81.89452409,19.14409698,101.0367833,32.88110143,,,,
611.1519996,2387,0,20.84627758,-17.53881218,0,2.613034473,7.501727054,-19.19118874,2.141291597,16.33874257,-7.214906148,66.2003835,0,88.40748148,32.61059731,-9.697930402,-42.94092297,,,,
611.1599996,2387,0,-9.277958766,25.73097035,0,100.9918885,-33.89563566,2.704230725,15.45620323,26.80597509,-10.76070143,-168.5638943,0,-163.3488678,62.5922553,-36.90277831,112.7118247,,,,
611.1679996,2387,0,15.37945058,-30.85591571,0,-5.277709514,-25.97328711,-35.53696405,-22.6679881,2.202789961,-32.66261526,299.1991914,0,246.7390339,18.51545519,115.5621114,-61.62448208,,,,
611.1759996,2387,0,23.56313236,18.32323486,0,73.52451873,12.61380983,14.92900866,19.42683071,30.67043377,10.65530417,-209.832455,0,-165.7828951,52.70039667,-100.7795622,66.857906,,,,
611.1839996,2387,0,-6.846927218,11.12778249,0,55.96061132,-55.47147113,-20.56845597,-14.01528205,15.99516528,-27.64303521,155.8029819,0,78.0569593,27.20865134,100.7447865,28.77787172,,,,
611.1919996,2387,0,22.51190709,-9.638487872,0,4.631404359,12.11093772,-9.562356157,-9.30604922,17.13388766,-8.544316423,65.23607402,0,70.74352106,12.86499786,-13.77080934,-52.53615073,,,,
611.1999996,2387,0,-6.491329964,34.2190711,0,105.5911284,-37.96418527,10.77610875,7.435769183,27.9530674,-6.838587722,-146.461797,0,-169.6394034,39.62854125,-23.73900187,104.5343462,,,,
611.2079996,2387,0,5.928739048,-29.74350301,0,-4.996557888,-31.03857417,-38.35824148,-26.32009555,2.849447433,-30.02246991,317.7912139,0,231.8008676,22.17223837,121.580093,-78.40463875,,,,
611.2159996,2387,0,4.711496894,11.64315869,0,66.7459179,6.729454419,4.769287909,21.93612289,21.70523217,-0.226366764,-196.1839954,0,-179.4351081,34.72016849,-91.89119782,53.28110812,,,,
611.2239996,2387,0,-6.696251206,6.230357076,0,53.55541083,-66.47915013,-28.57906746,-13.69813657,11.96075798,-32.89659681,179.7241046,0,88.81546003,1.464600895,124.5958596,26.87907494,,,,
611.2319996,2387,0,28.86388654,-11.60791815,0,11.06583829,6.831735295,-14.39675192,-12.99315954,21.44561946,-0.192305448,72.26705843,0,62.33472781,14.51658643,-2.290586242,-61.66207204,,,,
611.2399996,2387,0,-8.533432181,29.63973838,0,106.2648598,-38.23703106,6.998449884,4.1046019,23.98149121,-7.439429602,-142.8378836,0,-189.8226695,40.92927829,-21.61273704,77.15385277,,,,
611.2479996,2387,0,13.29033075,-24.46197684,0,3.488831498,-33.59048887,-31.98970817,-32.42048885,6.348925938,-26.81791957,306.632202,0,201.9267748,29.85155395,115.1535042,-105.1490081,,,,
611.2559996,2387,0,11.02114718,18.21038452,0,83.03540089,10.19981192,17.8315937,20.33497661,30.79800231,9.308116211,-207.0975564,0,-211.350311,38.74191605,-95.49548103,32.5064072,,,,
611.2639996,2387,0,-13.24983945,2.927825861,0,54.0439966,-59.71678744,-21.06462208,-13.5248996,9.29371856,-38.27614426,172.8069662,0,68.3761339,-14.41830591,123.9218443,6.450281404,,,,
611.2719996,2387,0,24.14321735,-11.56449801,0,6.938108698,8.761703263,-4.354007746,-11.99466753,21.8364959,-10.68936706,47.84215567,0,33.58023433,15.33323675,-11.47548579,-79.6613962,,,,
611.2799996,2387,0,-7.140748384,26.68793318,0,99.89884747,-31.09720746,19.1545244,14.96362434,27.6440044,-14.90793126,-146.2561434,0,-194.4315897,40.14995735,-13.10102607,70.97155292,,,,
611.2879996,2387,0,11.99583084,-32.1175857,0,-8.582173094,-26.65401728,-25.16939047,-29.83510737,6.583547454,-36.44580632,298.7918756,0,207.1529495,2.467522674,125.548732,-102.00715,,,,
611.2959996,2387,0,8.505966822,16.02085716,0,74.4213658,7.421072389,21.00906901,7.453303657,32.59795334,4.81182794,-226.6500566,0,-222.8840081,35.60338879,-102.0934628,17.35787925,,,,
611.3039996,2387,0,-23.29518653,-8.481558973,0,48.28593024,-54.97268065,-24.66403376,-6.605461183,0.880879743,-42.34430132,169.8696268,0,60.05613615,5.005474039,119.0160888,-12.1999698,,,,
611.3119996,2387,0,13.113339,-25.75939915,0,2.664305461,7.883907924,-16.96939081,0.799516328,5.357000803,-20.82997515,47.71551627,0,42.66880914,4.212333577,-6.653252189,-70.76751018,,,,
611.3199996,2387,0,-4.939754733,32.82126879,0,98.03715711,-41.24944542,10.01885533,10.54595408,24.76873748,-11.44928759,-146.4626016,0,-176.2659329,22.75002088,-12.88806518,68.7176153,,,,
611.3279996,2388,0,11.43712807,-21.11050052,0,-6.154148395,-22.29169432,-27.31747959,-14.75793246,6.411391947,-26.86075159,292.1916908,0,216.8952953,-4.766847541,123.2041071,-113.6816735,,,,
611.3359996,2388,0,11.35102762,24.13262719,0,75.13976489,8.520869324,21.07204232,27.59618055,27.05167036,7.639393999,-216.1851496,0,-182.5980325,16.81141767,-80.36687646,28.97936581,,,,
611.3439996,2388,0,-5.173144731,12.72954903,0,50.79422472,-56.390875,-12.17148099,-6.544062922,11.77888376,-30.10234645,176.0219959,0,96.25027072,11.1037713,130.5079422,-17.24692322,,,,
611.3519996,2388,0,21.07998889,-5.589151761,0,12.28309234,21.45828119,0.437833665,7.607465004,26.03215844,-6.346073633,32.8454136,0,28.21116224,27.00622003,-19.42293833,-104.8185548,,,,
611.3599996,2388,0,-13.41204916,30.62356374,0,96.67044321,-35.08454802,13.03591777,18.73128987,30.11763422,-11.78202098,-131.8510755,0,-170.9964312,15.67262124,-7.797923818,47.98127307,,,,
611.3679996,2388,0,8.689661897,-26.26981334,0,-9.478989542,-30.86228809,-27.69615234,-23.17872258,6.862661635,-33.89983993,295.1526134,0,216.2290787,-8.944258898,119.8612672,-126.1956162,,,,
611.3759996,2388,0,16.97800529,31.23034829,0,85.88112908,9.386248689,30.5186562,21.09281369,40.46193141,11.69264017,-230.0945088,0,-221.1064682,36.89928837,-102.1509909,-0.711179522,,,,
611.3839996,2388,0,-1.232938403,16.19490925,0,56.98951597,-53.4158545,-7.061711214,-13.23452064,25.73482801,-18.50648165,174.7451957,0,67.51931637,23.31582098,118.5939652,-37.62557022,,,,
611.3919996,2388,0,22.4178,-8.762777781,0,13.13153819,12.39320046,-2.941790677,-12.09531381,31.07341584,-4.036228508,10.36300492,0,-11.46079174,19.71154161,-39.39919265,-118.2624451,,,,
611.3999996,2388,0,-12.75264925,26.08319809,0,98.59707852,-31.33137954,14.08484606,16.68787805,32.76302018,-16.19842092,-155.1949363,0,-213.1105534,14.81108382,-29.48186952,25.93693973,,,,
611.4079996,2388,0,12.47149428,-31.61198283,0,-13.71969427,-14.65608384,-28.31362318,-6.102204438,8.788441196,-35.27345641,282.1627787,0,202.5909168,1.037528366,115.6932525,-123.7976458,,,,
611.4159996,2388,0,19.78937728,17.79813075,0,76.01631545,14.84548774,15.26121758,25.72020223,37.46182573,6.320725136,-242.3682155,0,-222.351774,30.09132929,-106.6909194,5.931507721,,,,
611.4239996,2388,0,-7.011354263,-8.830892546,0,43.63491416,-52.24321775,-27.97957753,-10.83678216,14.89381197,-31.76170124,156.8852855,0,69.2886313,19.91304911,109.6944185,-44.2188586,,,,
611.4319996,2388,0,19.39287093,-22.48054265,0,1.443305504,14.91055699,-15.26013329,-0.425585611,18.72958462,-16.59367274,-1.76343533,0,14.537543,40.9058335,-30.76610679,-103.6779795,,,,
611.4399996,2388,0,-2.939321614,29.27950924,0,94.20959522,-28.54814361,9.838550054,22.5389957,28.02245103,-25.81879506,-145.8228821,0,-160.2282291,21.00973554,-11.16687637,46.4504077,,,,
611.4479996,2388,0,18.86772701,-29.60807832,0,-17.15922218,-18.93766517,-33.58048657,-18.18642902,10.24386053,-41.5927218,278.4270732,0,239.8842371,-5.69472286,123.7600253,-111.3377107,,,,
611.4559996,2388,0,19.87653553,21.61589701,0,67.957072,2.835501121,11.55858192,6.970324114,39.61460924,-5.135424578,-251.0913439,0,-198.8374682,24.91669373,-102.5317466,6.678484074,,,,
611.4639996,2388,0,2.112161958,5.265606186,0,44.06617074,-44.63886679,-17.46334588,-11.00796244,21.46686864,-44.11124618,149.0845503,0,84.16558034,-17.95659242,107.6502452,-61.93251415,,,,
611.4719996,2388,0,22.9980361,-14.47078447,0,9.677914281,27.75736415,-7.675602108,3.179084398,26.55408269,-16.70817743,-8.93690223,0,13.52739577,7.491835907,-30.19290315,-118.7899178,,,,
611.4799996,2388,0,-11.04229721,26.10691767,0,96.21700985,-34.00291276,2.896861308,14.30302148,25.6563934,-30.4593611,-151.5280105,0,-167.4088803,23.94266131,-9.423847607,18.90461705,,,,
611.4879996,2388,0,14.62589101,-28.973688,0,-11.57821153,-18.89927578,-33.90057996,-13.21318968,5.019672846,-55.45986427,245.3439826,0,214.3011028,-20.61212433,113.2986042,-152.4491285,,,,
611.4959996,2388,0,12.98303607,14.30259213,0,74.06871544,5.288992285,9.978209523,21.92672473,37.04297193,-14.91561486,-269.3451509,0,-212.1019253,9.057547782,-99.86779241,-19.77776505,,,,
611.5039996,2388,0,-6.029859972,-14.28593,0,37.45063554,-52.85249401,-32.06235219,-1.656083782,13.67995492,-50.82964962,144.072439,0,95.0589911,-5.972696064,116.4207982,-76.17536831,,,,
611.5119996,2388,0,26.22940223,-29.13194107,0,-3.797220405,16.33377988,-23.52751345,10.49068435,17.50093343,-27.30192372,-21.13672887,0,32.86163273,16.82952184,-28.60688538,-121.6316004,,,,
611.5199996,2388,0,-0.708162728,16.77665163,0,79.62984725,-46.1580885,-10.32158865,11.23311132,30.75103226,-34.24683665,-146.2798632,0,-134.8197911,30.96494555,-8.660740013,10.4872932,,,,
611.5279996,2388,0,24.63675433,-35.33813268,0,-24.98682782,-27.97723964,-41.06043736,-23.2271088,18.86652328,-46.28234711,247.8082944,0,232.5324933,-26.60016235,101.694205,-172.5394843,,,,
611.5359996,2388,0,24.00418103,15.94017494,0,65.75698008,-0.275640649,10.69462086,13.22959788,43.47769042,-7.912967449,-255.7950651,0,-194.1700465,-11.90016445,-112.4219994,-38.30725135,,,,
611.5439996,2388,0,5.452474589,1.46599379,0,33.38126924,-52.86603792,-20.7752477,-12.36391327,26.47405631,-39.37559322,154.7176629,0,104.1930231,-12.69895296,97.48889274,-106.6583017,,,,
611.5519996,2388,0,28.8297066,-11.1055902,0,0.344402526,23.51249155,-1.22998699,6.786705373,33.24926366,-12.28325724,-24.19068021,0,10.37999859,0.926957723,-53.61870221,-157.7739057,,,,
611.5599996,2388,0,-6.733890261,21.22020688,0,85.16135435,-29.89172662,9.897876285,24.6336268,25.00118239,-30.45924737,-136.3057853,0,-140.5350225,2.43552888,-12.83905145,-9.801803429,,,,
611.5679996,2388,0,13.32345356,-36.26170719,0,-20.9232029,-3.798098361,-30.30226923,8.113987618,1.78210684,-51.50915471,250.8052036,0,254.9242094,-0.052901427,119.8947839,-159.0877095,,,,
611.5759996,2388,0,15.72700795,20.09863738,0,67.4767702,13.39448755,15.80619137,33.89636897,36.24226018,-15.09848173,-245.6700126,0,-151.3175489,37.49387912,-80.34094623,-4.843010631,,,,
611.5839996,2389,0,7.094140521,6.133799041,0,32.29801825,-50.05797238,-19.42305829,-17.61793864,23.27335136,-43.17995583,165.9428103,0,150.4363921,-14.01961412,125.9041293,-81.71281461,,,,
611.5919996,2389,0,28.24675723,-7.16660195,0,3.153674134,27.11266302,-1.551652373,5.106941533,32.3464047,-15.23107598,-15.05954175,0,49.94866415,-0.351070807,-24.2016947,-131.5114154,,,,
611.5999996,2389,0,-8.759280881,35.05836532,0,91.66187802,-31.89497283,14.35982857,22.36435264,44.69426318,-28.47324621,-119.1940435,0,-107.9400752,0.736092518,9.754408067,-3.26301003,,,,
611.6079996,2389,0,9.324164982,-19.22252035,0,-16.74683954,-14.13773342,-25.22919031,-3.831337893,24.41864174,-50.86157095,250.3418756,0,260.929416,-33.46576593,119.0682833,-179.4693591,,,,
611.6159996,2389,0,-0.950045097,23.68884936,0,66.22401675,6.766288727,18.28203817,39.08127842,44.80049328,-20.81777036,-238.3641851,0,-140.2431309,22.9003437,-73.95391519,-23.87200166,,,,
611.6239996,2389,0,-14.10910661,3.597147645,0,32.09614595,-50.16135423,-14.18230488,5.724659009,27.82679221,-50.36052117,167.9173058,0,170.2459132,-14.89590771,136.3625719,-99.98895397,,,,
611.6319996,2389,0,15.09141552,-7.701560402,0,-1.194883102,15.79308421,-3.669005483,15.40079359,27.03867962,-29.51035417,-30.51615998,0,67.64772885,-10.1696738,-20.11831711,-146.7092561,,,,
611.6399996,2389,0,-16.21360266,27.24019929,0,75.26543958,-49.68617376,3.940463254,11.98254507,33.77585079,-38.51394813,-135.1061429,0,-94.38597132,8.028475821,3.932284256,-28.06808576,,,,
611.6479996,2389,0,4.475129239,-29.40745423,0,-26.6762733,-21.44372097,-26.75638965,-11.97292712,14.5144158,-49.55366969,218.4034652,0,241.5749598,-24.79499201,95.26575232,-209.7980209,,,,
611.6559996,2389,0,-1.63414554,21.55218532,0,61.6838553,2.459708401,22.66068358,35.51493085,29.84543596,-19.75274569,-256.9386549,0,-162.2925259,16.27764693,-91.32354878,-46.44201818,,,,
611.6639996,2389,0,-18.10631907,5.121925042,0,27.14475742,-47.2853505,-10.82244008,5.528384604,14.92495634,-54.36092192,155.6705737,0,148.3496125,0.892842704,119.5028001,-122.0208728,,,,
611.6719996,2389,0,10.33388862,-7.0958927,0,1.226330216,29.14475367,3.863484492,29.82983917,19.65755522,-32.71087098,-29.85029885,0,53.81741903,6.663564057,-25.23745938,-146.030066,,,,
611.6799996,2389,0,-17.00783349,27.59250139,0,72.74226523,-37.87395042,11.46999488,29.81523366,23.94497618,-37.8441992,-107.4355947,0,-70.53999383,5.088761262,21.71610323,-13.16048426,,,,
611.6879996,2389,0,1.953854172,-24.4878211,0,-29.04228535,-11.82083455,-22.66430593,-1.046549223,6.409501814,-50.40757447,229.9206683,0,265.7308647,-7.876421524,110.3418655,-194.2535272,,,,
611.6959996,2389,0,4.122585791,29.02776498,0,65.86752559,6.014652929,28.86065199,35.52365261,30.59164178,-19.56654775,-242.9097058,0,-133.8535202,20.11466912,-73.52464769,-29.1825668,,,,
611.7039996,2389,0,-9.814393097,4.809980691,0,25.15993742,-52.80863776,-7.197310229,-7.806225484,18.18955841,-51.82594169,164.3053619,0,174.3597269,-25.68950527,130.5162634,-121.4327954,,,,
611.7119996,2389,0,8.057626051,-10.17901135,0,-5.137348529,18.36856249,0.674290557,8.737275555,21.44161962,-34.62911116,-32.89455137,0,59.21267008,9.493705375,-23.8009871,-156.163624,,,,
611.7199996,2389,0,-14.38811606,35.05810984,0,69.33808607,-45.47299623,12.22016818,9.26807462,33.10995957,-38.06882337,-106.7358289,0,-75.28926304,10.5970743,16.21016873,-41.48146507,,,,
611.7279996,2389,0,-3.772649387,-23.4905936,0,-32.6936601,-13.49829961,-21.69811109,-3.449404092,13.93562353,-49.18874579,224.8458148,0,255.5883153,-39.01719677,101.2999862,-221.4838633,,,,
611.7359996,2389,0,-12.17299828,14.5750851,0,51.66408323,-1.692026814,18.93151458,36.76939377,23.57762557,-29.83521717,-227.1013097,0,-107.7707409,5.117737041,-63.74596802,-31.5218828,,,,
611.7439996,2389,0,-5.128023821,2.833952135,0,13.3143117,-61.38618953,-16.63015948,-27.20540779,22.47175802,-54.21431204,158.657959,0,191.5645262,-21.92850491,121.8215004,-143.8207664,,,,
611.7519996,2389,0,15.39493564,-4.158550159,0,-3.963005012,15.34953644,-3.275475021,-8.8296349,35.23421144,-24.70285511,-59.79687853,0,38.37048397,-2.927386148,-52.94950202,-193.7259181,,,,
611.7599996,2389,0,-11.35229691,32.19154147,0,68.7489592,-43.27884296,11.30742506,3.773891463,33.49650089,-35.50823002,-109.3691374,0,-76.60315418,0.504921458,1.92094763,-64.79799149,,,,
611.7679996,2389,0,15.4077974,-13.78362163,0,-28.76890292,0.348135868,-13.73975573,-13.93807563,26.9440493,-34.5893048,209.8743024,0,234.2700879,-26.61968453,78.49709673,-249.5085115,,,,
611.7759996,2389,0,-7.933915654,21.88014075,0,53.22095996,12.49691383,15.22194829,33.99196295,36.21805203,-14.27197764,-228.8763845,0,-140.2611184,20.57256744,-81.00372705,-57.99322706,,,,
611.7839996,2389,0,-20.4237603,-7.823844064,0,5.942457193,-50.57926801,-32.78329816,-15.18957601,8.209088996,-56.03011491,164.2798188,0,185.1133198,-5.352316887,119.4084543,-149.424668,,,,
611.7919996,2389,0,10.1616458,-5.343391749,0,-2.287241929,29.18446368,-6.44547905,0.126456898,22.61105024,-20.16838187,-67.37135644,0,36.49153097,25.80839256,-53.28873846,-186.6108607,,,,
611.7999996,2389,0,-28.73718671,24.68838207,0,63.99081361,-36.29236025,3.567388659,19.01509596,16.21949664,-39.24178841,-104.2354772,0,-53.90435792,-1.050220429,20.36296208,-49.39893208,,,,
611.8079996,2389,0,-3.97366643,-23.25752881,0,-33.10088222,0.145284158,-25.27016969,4.933850221,2.178787672,-49.01451733,198.0026569,0,268.0255886,-52.27773479,97.80596444,-222.2241285,,,,
611.8159996,2389,0,0.526046745,33.01257515,0,63.6294731,13.69279041,17.3751285,39.34347352,31.83489822,-9.376175855,-243.2429677,0,-114.5998786,16.39599595,-74.16429986,-41.10131801,,,,
611.8239996,2389,0,-11.12531559,-1.191025519,0,5.876085109,-47.9042729,-29.5486685,-4.181994413,12.26445435,-47.08480575,163.2071932,0,216.3388768,-16.68203359,130.8393102,-137.5843856,,,,
611.8319996,2389,0,17.41634099,-6.703682686,0,-10.15490581,29.58270757,-3.495907196,10.11176362,27.63853219,-18.8490276,-59.67575043,0,78.96173573,5.018944817,-37.11148282,-157.7308983,,,,
611.8399996,2390,0,-14.21139084,25.62235032,0,63.65372745,-35.08345016,9.988444624,10.3691955,27.7407578,-24.76768023,-97.626229,0,-22.97132084,18.49092282,16.49580953,-41.73067594,,,,
611.8479996,2390,0,-0.906802972,-25.56013742,0,-33.03010309,-2.050351803,-24.1626725,-7.444699494,5.288363981,-33.37026227,186.1667266,0,269.5694449,-10.00821122,79.32584688,-233.8087998,,,,
611.8559996,2390,0,-9.397501312,25.12881314,0,58.19814756,9.947144622,14.80328149,23.44907114,29.64807871,-11.62007235,-247.330546,0,-122.661197,33.15462022,-89.42071111,-59.97882295,,,,
611.8639996,2390,0,-30.05677956,-13.58368994,0,2.74755656,-38.96174752,-27.3425948,-7.10112328,8.230887542,-54.94526526,154.6893514,0,194.0949239,-20.52508111,109.0657154,-172.8461285,,,,
611.8719996,2390,0,-7.710077502,-22.25501278,0,-17.91189969,26.85814373,-10.8170518,19.35073327,11.40939898,-31.40046011,-58.76187313,0,71.5642116,-1.413916925,-40.26704866,-170.4911938,,,,
611.8799996,2390,0,-32.89739214,9.197635666,0,44.83528275,-48.28368481,-10.73837282,3.362211596,14.01959716,-43.46465814,-87.48598208,0,-11.10320548,12.0038292,22.45860311,-51.44871106,,,,
611.8879996,2390,0,-11.06381255,-37.92244963,0,-47.97056164,-1.598687008,-38.38994927,-10.93413474,-0.376312081,-51.59253124,177.8296921,0,269.9900996,-28.11060707,72.97510665,-248.6286813,,,,
611.8959996,2390,0,-5.282952337,26.91902114,0,47.41442623,2.114935335,9.33817705,17.3533254,29.65123315,-18.443829,-241.8762269,0,-100.758137,9.021195854,-82.80524154,-57.42646706,,,,
611.9039996,2390,0,-18.23789074,-2.095369738,0,1.939720721,-43.48691327,-26.89646946,-23.91259947,17.99123632,-44.29005695,144.0602662,0,203.7708404,-15.84650268,106.0801577,-184.4610322,,,,
611.9119996,2390,0,-2.71551632,-14.64124937,0,-4.143024161,50.40998904,1.331678125,30.40017733,10.9727842,-21.56464727,-74.80457833,0,69.05652055,26.17451726,-44.5259157,-173.9007349,,,,
611.9199996,2390,0,-14.66105677,24.90045461,0,61.66749765,-16.52797782,12.61408352,23.6010849,12.55199755,-27.607127,-87.04983232,0,17.79867812,43.36921194,36.04436717,-29.85752547,,,,
611.9279996,2390,0,7.138898897,-24.72475838,0,-34.75770289,22.53170483,-19.21870499,-0.442151226,8.035470041,-22.51542699,164.3842514,0,285.0398202,6.351277215,76.65013963,-226.7596348,,,,
611.9359996,2390,0,-8.122721426,14.06867421,0,43.50762198,16.82949966,10.50015669,43.47071546,14.62018218,-2.242239326,-227.6933877,0,-60.83018537,42.98585273,-63.44528218,-14.40416322,,,,
611.9439996,2390,0,-8.33346554,-10.91590979,0,-7.694088437,-40.65107433,-29.73912119,-7.433584612,-5.183313652,-34.04999834,152.0910406,0,273.8643842,19.39091287,130.6533323,-125.8803389,,,,
611.9519996,2390,0,8.790026807,-15.6544307,0,-9.782744775,38.2458392,-0.343855707,18.3140265,5.638118586,-5.208305411,-93.30748885,0,101.0588148,27.20147466,-49.70839208,-144.0046945,,,,
611.9599996,2390,0,-23.86346511,14.14992949,0,47.05082636,-33.09213129,5.455006189,18.592895,2.640651228,-24.49747651,-91.01344828,0,44.27297244,6.932297011,30.16733183,-23.19138111,,,,
611.9679996,2390,0,2.797334037,-27.22378307,0,-42.3804492,12.57625677,-23.98805489,0.431251678,-3.066503785,-34.11215161,152.6387841,0,319.13869,2.169654344,78.14822338,-212.3699216,,,,
611.9759996,2390,0,-13.22377834,11.08390635,0,46.30462324,6.343931999,4.89147395,29.30908652,15.13990661,-15.58899779,-241.15755,0,-46.03210972,40.88699147,-74.17464635,-18.81719603,,,,
611.9839996,2390,0,-26.3066838,-16.18384523,0,-4.767143105,-40.43501772,-33.07524363,-2.934688496,-7.812632826,-50.21792412,138.9172265,0,273.3032828,-29.11484691,115.5021854,-147.7761001,,,,
611.9919996,2390,0,4.689135567,-6.89860793,0,-5.639586862,40.91471966,-3.47391521,34.72702413,3.380088547,-20.13855601,-83.43780745,0,132.0668,10.15382207,-31.80115019,-128.9204607,,,,
611.9999996,2390,0,-12.86364943,21.68131332,0,50.6845867,-52.36970149,-6.288520154,2.004458474,15.98556784,-20.10991751,-80.36710799,0,63.59247488,15.77493924,40.44031643,-23.35384977,,,,
612.0079996,2390,0,-4.19052455,-28.9743526,0,-39.18636708,-3.850661209,-30.24969085,-13.12587992,5.623106787,-27.21055969,128.2970813,0,273.7067567,-29.20687886,52.46160859,-250.0378683,,,,
612.0159996,2390,0,-17.21660854,17.90634341,0,46.09637339,10.8246572,10.78284255,35.30150454,10.04132533,-15.18198902,-235.8019923,0,-67.0312609,27.35872575,-74.77677912,-31.68667034,,,,
612.0239996,2390,0,-9.11944844,0.035131475,0,0.991375921,-31.75974092,-25.53025007,-11.35312593,-1.638882374,-25.09451816,151.1261299,0,252.5560925,8.643193663,115.0913233,-156.6949377,,,,
612.0319996,2390,0,0.579667097,-5.75160107,0,0.97439928,45.00937281,-5.960214156,23.74714358,9.066298204,1.009697609,-81.95913079,0,80.3959168,35.49365298,-51.93961076,-154.3799483,,,,
612.0399996,2390,0,-29.95467269,12.20624469,0,45.00479811,-38.72129759,-11.97842061,8.388678132,-0.48863589,-25.70814003,-73.42989541,0,43.98888256,20.18491649,32.4086765,-37.7085284,,,,
612.0479996,2390,0,1.40345198,-26.1463869,0,-38.88849655,17.13151223,-29.49707493,-4.200926469,-7.863625681,-16.38586879,128.6735575,0,274.4437763,-14.20199684,58.72554681,-236.0411414,,,,
612.0559996,2390,0,-7.868805988,16.94115149,0,47.73122905,20.09158554,9.624501111,36.08952403,11.38743478,6.328304999,-220.338647,0,-51.99141358,36.87666276,-58.09986178,-17.70572465,,,,
612.0639996,2390,0,-4.158381285,-11.36469321,0,-6.596045044,-32.45130948,-26.31111576,-15.77293839,-0.858464185,-19.76470707,141.5413053,0,266.2542295,9.577644747,118.7223915,-161.2404998,,,,
612.0719996,2390,0,17.18487932,-7.013235045,0,-2.027767018,45.0278055,-1.216060969,12.9940255,15.38263945,10.58023789,-102.6376778,0,82.38175862,35.84853725,-53.64684775,-161.3790559,,,,
612.0799996,2390,0,-13.65153523,13.27928411,0,45.5294531,-35.68148769,-9.394033527,-1.044308204,9.785734843,-9.974805901,-69.60238332,0,51.33258749,21.07847995,39.35718646,-50.4862107,,,,
612.0879996,2390,0,15.65323229,-21.32916865,0,-32.86133846,12.14815329,-25.88103789,-13.71665509,-1.851510005,-7.418144943,118.2226891,0,271.4248177,-5.248090576,59.23668321,-250.0450359,,,,
612.0959996,2391,0,2.601480142,27.00458892,0,52.77454472,11.54976413,12.64200327,29.64166929,20.91229787,14.23965414,-225.6865134,0,-64.0046069,36.79983692,-61.08930452,-39.74463348,,,,
612.1039996,2391,0,-16.56658612,-14.22741327,0,-12.65171764,-34.92568593,-30.95922758,1.394911568,-3.480839681,-28.12627933,148.1664456,0,261.4961563,-3.432308446,122.1247291,-170.6096728,,,,
612.1119996,2391,0,4.190260477,-7.264272135,0,-6.311956327,37.86434938,-6.230837066,43.61084648,-4.43467362,-9.13522878,-83.64627324,0,114.2640792,26.34925116,-27.45249954,-127.3352079,,,,
612.1199996,2391,0,-11.52684475,24.82134119,0,45.64216844,-42.80193287,-11.31508135,20.30925233,5.38661947,-13.24803481,-43.13819812,0,103.2136644,31.39484259,68.12277044,-9.815818724,,,,
612.1279996,2391,0,16.6347499,-14.36608468,0,-35.71644341,5.646181448,-28.87399853,-1.330072842,1.383595107,-9.50634109,134.3402486,0,306.7852796,29.22672985,69.24740814,-210.3426887,,,,
612.1359996,2391,0,13.41365705,33.9001654,0,47.99571596,-5.152141762,9.67423433,28.6095058,17.24311207,13.21381916,-194.259792,0,-24.79289972,60.26698579,-50.1391495,1.557007959,,,,
612.1439996,2391,0,8.229061029,-2.487550583,0,-9.502325825,-44.43913349,-25.06243353,-10.43317161,4.051753896,-9.764724662,166.5625658,0,271.372352,3.721804921,116.2923171,-149.2381017,,,,
612.1519996,2391,0,24.76697792,-2.732592762,0,1.170115477,41.52963865,9.33863647,33.24244169,4.427202064,13.9362444,-67.55632879,0,95.07475913,38.77864881,-46.17195533,-115.198112,,,,
612.1599996,2391,0,1.382367931,17.85022742,0,42.85277253,-43.32155282,-0.478788043,5.45311963,1.4472379,1.441216768,-8.170902642,0,94.06310685,31.45811754,59.69624509,0.785450829,,,,
612.1679996,2391,0,19.35321686,-26.23038168,0,-35.39930222,7.091615921,-23.86450988,-8.62327371,-10.48954501,-5.170384657,147.2798545,0,277.082882,13.16623016,55.19673012,-204.9537929,,,,
612.1759996,2391,0,12.08919705,24.30383036,0,57.52170752,11.22371314,23.01594416,37.45619601,2.757168439,16.20699503,-176.8208106,0,-47.06934271,70.79050855,-55.06174537,4.881765599,,,,
612.1839996,2391,0,11.64010339,-8.482241459,0,-6.42373075,-30.28175237,-14.46989062,-4.991170681,-12.58224743,-6.352396629,194.5644406,0,282.8860293,33.43851646,133.773042,-126.2574316,,,,
612.1919996,2391,0,30.02130895,-1.686310255,0,7.454920558,41.14484261,10.34515389,31.63462813,-7.88418285,10.47915233,-47.05056292,0,102.1749569,29.93958769,-34.47140741,-90.43350987,,,,
612.1999996,2391,0,10.13806447,26.87138058,0,55.95180896,-36.01574661,8.620948238,15.60355277,-1.69885661,2.389502833,12.14058232,0,96.07419332,18.36036327,61.42232925,4.32388444,,,,
612.2079996,2391,0,31.97326287,-17.95530866,0,-31.72752859,14.30612869,-14.01354518,4.48794256,-13.50838106,1.771116334,172.2840115,0,298.8146621,19.04344095,70.20680724,-175.7853099,,,,
612.2159996,2391,0,35.81102194,38.69551055,0,60.2379491,3.013939964,23.69269471,28.65526023,7.816068421,28.81228391,-145.2750071,0,-19.81597108,43.69636162,-47.91989127,31.4820491,,,,
612.2239996,2391,0,38.67787709,16.03999804,0,7.28263441,-24.28867734,-9.960255641,-7.702807031,8.904732661,17.45675594,206.5292463,0,271.6295937,14.7618244,110.3880815,-138.7381568,,,,
612.2319996,2391,0,42.26353125,7.186439887,0,9.255027508,50.7944615,13.07424794,40.45200134,6.101303431,25.62425663,-30.04714722,0,91.74315662,62.81851041,-43.28739106,-88.94367009,,,,
612.2399996,2391,0,24.14357401,23.33948935,0,52.2657314,-36.22230783,11.19485638,13.36928582,-0.89714267,8.019185446,34.84009311,0,105.019027,43.60916357,64.27413993,9.286477659,,,,
612.2479996,2391,0,48.57249347,-12.19594625,0,-17.69042264,28.79755479,-1.38700359,14.58519439,-5.790930409,12.34344218,171.1646358,0,281.3094249,31.8634713,58.55022025,-182.420497,,,,
612.2559996,2391,0,30.51714081,30.46581132,0,57.97632679,14.34736191,23.9258245,51.45139269,4.432383464,24.39940063,-135.0483753,0,-22.2800567,67.18897466,-45.07803774,39.97510109,,,,
612.2639996,2391,0,29.86306963,1.602877035,0,-2.83502875,-28.93930504,-11.22972397,3.785814748,-8.445260327,6.366189217,204.536823,0,285.6704593,8.137118176,116.1617636,-123.1198012,,,,
