Time:125Hz,Epoch,FP1,FP2,C3,C4,P7,P8,O1,O2,F7,F8,F3,F4,T7,T8,P3,P4,Event Id,,,
347.3919998,1357,1.136035777,-99.59611236,85.85538882,6.634788397,343.4150573,-492.4183336,281.1788065,-90.50003883,0,0,0,-0.135713323,0,-709.3271089,-183.3467258,-951.5380221,1111,,,
347.3999998,1357,-120.5760804,-23.19055404,-298.6650837,-157.4186996,-224.9943952,602.2310778,-117.389091,272.9763655,0,0,0,-0.13614355,0,294.8955992,295.9511509,334.432347,,,,
347.4079998,1357,372.0145957,240.4114372,345.9933194,94.88414096,-224.9401265,-555.7322501,-221.1588541,-533.2907818,0,0,0,-0.136568682,0,167.4515778,-443.3709652,53.31798915,,,,
347.4159998,1357,-309.5948617,-267.3975696,-292.6175969,-157.8027896,376.8797949,216.0696288,351.2768034,387.5146424,0,0,0,-0.136988731,0,-604.9956389,264.964932,-788.6077883,,,,
347.4239998,1357,332.2254762,320.1156795,119.1918118,6.029081193,-580.0296531,105.8096852,-449.5523197,-285.1937004,0,0,0,-0.137403703,0,782.6963996,-152.4864421,870.528601,,,,
347.4319998,1357,15.8570827,-83.33645221,107.4962121,12.16598595,341.4299515,-484.8970107,270.4374363,-106.2877303,0,0,0,-0.137813608,0,-679.9437055,-181.6921702,-954.3838162,,,,
347.4399998,1357,-126.2818337,-25.95122644,-302.5628954,-172.0727437,-214.4868351,606.1789203,-114.6867451,275.3894842,0,0,0,-0.138218456,0,278.5743186,307.7292811,313.5737618,,,,
347.4479998,1357,376.4711573,240.8371423,338.2717915,80.13949315,-238.958966,-560.9101841,-231.4926409,-534.6160327,0,0,0,-0.138618256,0,171.604638,-439.9569577,71.47544382,,,,
347.4559998,1357,-335.2106819,-299.5812533,-317.5617105,-186.5051008,380.2953318,195.106422,342.5109205,362.9800865,0,0,0,-0.139013017,0,-622.8447913,256.5039153,-804.9611844,,,,
347.4639998,1357,306.4509079,298.3193103,92.30575318,-20.75004774,-585.3299081,108.1161055,-467.5679455,-300.6944392,0,0,0,-0.139402749,0,773.2656252,-150.2588116,880.8997936,,,,
347.4719998,1357,10.73794044,-91.43791491,101.3051669,0.658433785,329.2146849,-511.8218458,249.339731,-130.7587692,0,0,0,-0.13978746,0,-678.0588799,-196.7235969,-934.8897271,,,,
347.4799998,1357,-140.8268076,-37.6690028,-323.4465746,-184.5265112,-209.304072,592.0745694,-113.6283125,272.079944,0,0,0,-0.140167162,0,265.2977525,299.8334519,307.5413653,,,,
347.4879998,1357,377.11102,248.6929113,330.6864177,71.6352123,-261.515751,-567.0290073,-246.1830144,-539.4688446,0,0,0,-0.140541863,0,187.9620609,-451.9433307,103.9490737,,,,
347.4959998,1357,-364.2725717,-329.7371718,-337.6642141,-214.1010123,375.5161891,162.035921,335.4658238,348.7619219,0,0,0,-0.140911573,0,-642.1276989,240.7104445,-806.1739777,,,,
347.5039998,1357,279.7443424,279.4879923,59.77419392,-45.5545329,-591.0468202,100.9068869,-473.4177991,-308.5033085,0,0,0,-0.141276302,0,762.8479906,-155.8244657,908.4089165,,,,
347.5119998,1357,14.5527352,-82.11711495,99.99290747,-1.999793513,314.3391519,-542.0342002,241.1287662,-144.1471282,0,0,0,-0.14163606,0,-672.6723279,-215.9381064,-902.4742288,,,,
347.5199998,1357,-163.1847104,-62.2507305,-338.6775431,-194.4994683,-200.336266,573.5876392,-106.4901121,284.4986153,0,0,0,-0.141990858,0,242.4323134,303.3269291,301.6165033,,,,
347.5279998,1357,414.8893649,290.3721388,358.0255764,114.6830745,-273.4896365,-548.7994951,-244.3542275,-522.8131413,0,0,0,-0.142340705,0,205.3197709,-447.0302303,131.2168096,,,,
347.5359998,1357,-295.139789,-253.5468346,-273.6012993,-142.8690538,378.0258744,173.9698319,356.6438825,384.6134435,0,0,0,-0.142685612,0,-615.4909227,239.6809751,-840.2491429,,,,
347.5439998,1357,273.0579221,275.4034239,55.96480186,-50.7772697,-582.0698865,120.8993084,-469.045763,-274.2952443,0,0,0,-0.143025588,0,796.2067183,-142.5916359,870.9404613,,,,
347.5519998,1357,-21.99524355,-118.9464703,59.00020508,-46.04647041,316.0551654,-552.5903564,225.8947679,-170.0110391,0,0,0,-0.143360645,0,-662.0325506,-226.2125362,-910.0551123,,,,
347.5599998,1357,-184.9737082,-76.67311514,-369.3718007,-219.4961521,-186.5167177,565.9502741,-105.4364762,265.7664827,0,0,0,-0.143690793,0,221.1858475,297.1405738,283.7702279,,,,
347.5679998,1357,412.0293712,288.7825982,350.0653692,98.94970055,-279.5744668,-556.9425754,-259.5569756,-534.4693927,0,0,0,-0.144016042,0,215.6914689,-450.1152881,153.9613099,,,,
347.5759998,1357,-326.2372825,-289.8645215,-306.7053509,-183.3812584,387.0616911,142.6824803,347.1080848,361.8727399,0,0,0,-0.144336404,0,-640.7174691,232.6424618,-836.5701067,,,,
347.5839998,1357,259.1153062,263.1226892,26.5536886,-71.69511369,-584.1394478,119.8020691,-478.8824273,-284.1438842,0,0,0,-0.144651888,0,778.4646764,-140.8852022,898.2522677,,,,
347.5919998,1357,36.891519,-65.20831318,106.5047176,-1.63589147,297.4769311,-562.988516,222.9035988,-158.3107207,0,0,0,-0.144962506,0,-655.6269091,-235.7874635,-886.4263024,,,,
347.5999998,1357,-168.5162984,-63.85555174,-354.6401769,-206.8640905,-184.2754874,568.3226838,-93.81491946,304.0788161,0,0,0,-0.145268268,0,213.0192189,302.4941847,264.4817789,,,,
347.6079998,1357,390.9554813,267.1132357,321.8019066,68.61890452,-292.392268,-548.0352104,-279.3408232,-542.3093904,0,0,0,-0.145569186,0,226.9779728,-452.8707292,176.1331547,,,,
347.6159998,1357,-302.3440356,-268.6703789,-287.9875531,-164.5022375,381.7098121,131.7139723,352.1176208,350.345505,0,0,0,-0.14586527,0,-667.7942486,222.2754203,-844.5016835,,,,
347.6239998,1357,303.9132855,308.7779673,68.16345437,-23.68843421,-591.9018542,142.2272089,-454.9600167,-250.4641645,0,0,0,-0.146156533,0,774.6760811,-130.7912867,892.8174614,,,,
347.6319998,1357,61.06290144,-47.31993565,137.0395064,21.76416186,299.2417196,-551.4952955,228.9257634,-155.4410209,0,0,0,-0.146442984,0,-638.8050563,-233.3884237,-887.7970918,,,,
347.6399998,1357,-174.5307893,-71.57130011,-349.2380345,-203.8799314,-161.0146147,578.7054794,-82.91839186,302.7304422,0,0,0,-0.146724635,0,197.6870868,316.476574,227.9732414,,,,
347.6479998,1358,378.6130652,256.5322083,310.7753556,54.11034623,-289.1426094,-545.3433044,-287.6747598,-547.7743001,0,0,0,-0.147001499,0,238.1917219,-449.6885093,177.3807923,,,,
347.6559998,1358,-310.2489639,-277.704594,-295.7304716,-175.3278283,409.5774456,113.7387037,355.813699,348.503465,0,0,0,-0.147273585,0,-685.3760442,220.4618726,-861.4508759,,,,
347.6639998,1358,298.6218332,311.6385478,61.98442426,-27.12810641,-566.1453082,143.0520395,-449.2462738,-239.6710741,0,0,0,-0.147540906,0,769.4798109,-111.2573696,897.0164477,,,,
347.6719998,1358,40.20236979,-62.70925108,120.3501859,-1.541097964,312.950089,-586.1674941,224.4811408,-172.6651445,0,0,0,-0.147803473,0,-636.2017104,-235.3590955,-869.4347906,,,,
347.6799998,1358,-198.6839242,-89.05300409,-367.9708291,-214.5475525,-135.9568128,553.9148747,-68.57895933,309.1987253,0,0,0,-0.148061298,0,169.2987417,322.7964197,224.0668788,,,,
347.6879998,1358,397.4996362,283.2825284,330.5279081,79.01599461,-294.454559,-560.7518009,-289.4331282,-539.4878182,0,0,0,-0.148314392,0,252.0532445,-442.7889589,211.9292905,,,,
347.6959998,1358,-299.6400754,-267.5980145,-277.5711746,-159.2103288,413.3314537,79.07403994,358.0981393,349.2332446,0,0,0,-0.148562769,0,-694.210866,215.5807249,-872.7699133,,,,
347.7039998,1358,280.0595646,293.6105545,43.2177176,-42.66837003,-569.808092,148.5673474,-457.4370814,-236.4328175,0,0,0,-0.148806438,0,765.4736428,-106.2883957,890.7619022,,,,
347.7119998,1358,43.55110503,-61.887849,122.136437,-12.7101794,299.8718703,-593.5263782,200.9670633,-200.8680263,0,0,0,-0.149045413,0,-629.9225253,-247.2973074,-859.4568485,,,,
347.7199998,1358,-203.3842504,-97.07609379,-373.2878121,-226.1249422,-126.663517,554.5138756,-70.52246747,294.0255758,0,0,0,-0.149279705,0,136.2977716,323.7765494,208.8576722,,,,
347.7279998,1358,374.9376672,257.1582238,300.6108989,45.48597588,-306.291868,-551.8417171,-298.9463956,-563.768541,0,0,0,-0.149509327,0,246.8937874,-440.7384254,243.0187605,,,,
347.7359998,1358,-552.1659161,-439.5728188,-560.8828828,-293.079259,491.9415572,471.4031531,458.8776821,648.9528854,0,0,0,-0.14973429,0,-776.2757526,499.9178759,-902.2246961,,,,
347.7439998,1358,9.946974099,238.8892013,-470.5033563,-256.9359121,-957.1011743,1296.450861,-685.6861964,284.8022727,0,0,0,-0.149954608,0,1467.859919,487.72536,1885.307425,,,,
347.7519998,1358,276.9423286,277.656718,52.64191513,-42.24692037,-556.2454307,83.14622798,-448.2246984,-285.1944479,0,0,0,-0.150170292,0,708.7151461,-128.6075189,849.0529309,,,,
347.7599998,1358,-274.1119249,-89.58886345,-540.7332275,-282.7030457,-279.610091,963.5208558,-148.026376,488.3471377,0,0,0,-0.150381354,0,429.4521472,526.5166838,598.8457905,,,,
347.7679998,1358,372.768319,342.5311659,167.992025,12.01948387,-574.8519194,-87.79463892,-476.7982865,-412.2805964,0,0,0,-0.150587808,0,715.3329786,-245.0283559,833.2359702,,,,
347.7759998,1358,5.989619217,-113.0158867,139.888743,9.095918149,442.119739,-699.4565845,329.255404,-169.5264181,0,0,0,-0.150789665,0,-868.4309486,-258.1365361,-1152.282945,,,,
347.7839998,1358,-151.7694454,-58.19780894,-318.7266256,-187.3262034,-132.7567747,507.9627787,-55.26409024,287.5583118,0,0,0,-0.150986939,0,150.9842804,283.258519,202.4027213,,,,
347.7919998,1358,357.1557011,267.1776568,254.0573844,49.78018528,-311.1446102,-396.8855911,-286.1944617,-456.0169869,0,0,0,-0.151179641,0,299.4557179,-353.1437859,296.3290138,,,,
347.7999998,1358,-148.85616,-186.2685561,-95.23564168,-90.01052553,371.5874572,-268.4125304,281.2638483,52.46779414,0,0,0,-0.151367785,0,-682.613034,-9.35018468,-892.1545313,,,,
347.8079998,1358,-2.691546861,59.08541866,-198.5160408,-144.5441994,-323.8889963,348.4625343,-254.2512612,28.93905632,0,0,0,-0.151551384,0,412.888458,129.6523416,505.2831652,,,,
347.8159998,1358,262.09878,144.735739,264.5237079,60.74751742,-37.03524048,-610.890868,-80.39721808,-427.7792679,0,0,0,-0.15173045,0,-151.2403274,-371.0230693,-258.9017842,,,,
347.8239998,1358,-247.8771202,-208.5795759,-272.8069973,-164.7505657,244.8834418,148.8799701,218.0993223,266.9040196,0,0,0,-0.151904996,0,-443.5612984,209.8084058,-551.5015758,,,,
347.8319998,1358,270.5166046,250.2266916,82.96785449,-20.63754536,-442.5625153,-41.92874461,-365.0448138,-297.9882054,0,0,0,-0.152075036,0,553.8749261,-162.9055616,644.5725117,,,,
347.8399998,1358,41.37097555,-46.9484925,102.7020146,21.93101059,306.0053074,-529.5333089,230.800893,-135.0416927,0,0,0,-0.152240582,0,-628.3178246,-186.3796423,-831.2727154,,,,
347.8479998,1358,-145.799583,-58.40655343,-304.4386072,-166.8699293,-135.9915218,431.7451443,-79.93954841,225.3265093,0,0,0,-0.152401647,0,146.2392751,259.4603788,198.2311293,,,,
347.8559998,1358,322.6123896,207.1700444,270.2747425,62.50488564,-215.2084484,-561.4453,-231.7051113,-511.9381058,0,0,0,-0.152558245,0,116.2411561,-406.9280543,87.53608337,,,,
347.8639998,1358,-272.2149756,-251.2021779,-260.5010681,-124.3575191,387.698121,41.17719057,330.3874828,284.1815307,0,0,0,-0.152710389,0,-676.5004561,182.2289525,-817.7190956,,,,
347.8719998,1358,255.440092,265.2626032,31.00622158,-4.82893884,-492.5079161,112.3374399,-395.1962785,-219.4423934,0,0,0,-0.152858092,0,656.3436924,-92.97016684,770.6227532,,,,
347.8799998,1358,77.14999911,-34.33800099,146.7522731,50.92132962,282.207592,-610.5497493,197.05703,-209.2687199,0,0,0,-0.153001368,0,-599.942503,-255.310195,-830.4060869,,,,
347.8879998,1358,-214.8279897,-121.1073112,-362.7354759,-180.9836389,-74.61954567,494.759198,-31.02821878,287.7324884,0,0,0,-0.15314023,0,68.42932862,304.4579306,96.09609662,,,,
347.8959998,1358,343.6546638,232.8906866,274.0319715,64.73856592,-286.6386652,-535.4390903,-300.906141,-567.3469063,0,0,0,-0.153274691,0,235.5592865,-425.0019102,230.7982371,,,,
347.9039998,1359,-290.8869001,-271.5964751,-258.8316583,-120.8744337,435.1459887,-1.246400812,366.2075166,266.2460143,0,0,0,-0.153404764,0,-771.2613299,175.8087977,-913.0016761,,,,
347.9119998,1359,263.5455952,284.7088642,32.21741669,7.395234187,-523.2703825,163.9011739,-404.0700501,-214.0183823,0,0,0,-0.153530465,0,677.9601646,-70.34221471,826.0706813,,,,
347.9199998,1359,89.8070933,-25.8896512,179.6334823,67.68256757,283.3581817,-644.7392206,194.8760932,-244.6622609,0,0,0,-0.153651806,0,-599.1472001,-276.0109305,-828.5254266,,,,
347.9279998,1359,-240.6289526,-140.3918196,-375.8124215,-181.2694391,-37.98256802,511.9058964,-4.321753318,310.6559707,0,0,0,-0.153768801,0,38.52460099,332.593354,65.73615725,,,,
347.9359998,1359,382.7775393,271.6911813,299.3851817,93.87350769,-313.6450406,-521.7020793,-314.0643602,-574.293498,0,0,0,-0.153881463,0,284.1514004,-423.939072,289.0702472,,,,
347.9439998,1359,-290.5350181,-281.6189106,-249.2317169,-112.9243516,461.0713705,-17.2854265,384.9964675,280.8709816,0,0,0,-0.153989808,0,-786.8398311,173.6035099,-953.2344726,,,,
347.9519998,1359,245.4874084,261.5159878,9.667539899,-9.058003007,-518.8468217,189.2824542,-410.9026095,-190.5967798,0,0,0,-0.154093847,0,697.9416584,-58.16534522,848.7006207,,,,
347.9599998,1359,120.7993275,-0.408806559,195.7734834,88.32125987,270.087874,-645.2837651,188.5394402,-254.0922679,0,0,0,-0.154193596,0,-594.0967418,-295.1657268,-811.5100749,,,,
347.9679998,1359,-221.7627,-118.1020803,-364.9025369,-157.8746319,-39.72959869,528.9867293,15.85582156,334.7125313,0,0,0,-0.154289069,0,30.84939017,325.786916,38.32173672,,,,
347.9759998,1359,422.8429848,314.7426617,336.5326146,132.309592,-337.3989788,-503.5973781,-308.0981266,-547.3288539,0,0,0,-0.154380278,0,327.0631932,-436.8704513,292.3427191,,,,
347.9839998,1359,-269.4566815,-255.1180433,-210.4311885,-76.05155908,463.0440028,-11.45966503,403.7815454,297.6659754,0,0,0,-0.15446724,0,-780.836528,163.9156038,-1004.64144,,,,
347.9919998,1359,216.1224595,246.4279735,-5.9441761,-20.79659946,-523.3139606,215.2065136,-403.4039528,-187.5575135,0,0,0,-0.154549967,0,716.2838123,-52.22602577,823.4658881,,,,
347.9999998,1359,100.1418541,-18.14636867,181.7134596,68.32470731,259.4118949,-659.7133005,187.566665,-273.1326666,0,0,0,-0.154628474,0,-579.6443402,-308.078013,-819.8586017,,,,
348.0079998,1359,-256.5451745,-151.8969069,-383.7219187,-174.4376196,-29.98404749,521.9527118,17.15937745,333.2826324,0,0,0,-0.154702775,0,5.260749138,329.5126028,8.885969541,,,,
348.0159998,1359,389.0501524,284.0768909,312.689824,112.8432507,-338.6610323,-489.5012716,-331.7806582,-568.0893182,0,0,0,-0.154772884,0,327.98843,-428.97343,315.0389709,,,,
348.0239998,1359,-297.1758398,-288.6635337,-230.1168086,-99.55871773,484.7768283,-10.93134872,396.5769699,271.5336239,0,0,0,-0.154838817,0,-797.8903762,168.8274417,-1002.350427,,,,
348.0319998,1359,190.2127283,214.916214,-34.21644346,-50.77171377,-504.4559345,234.3647764,-417.6021111,-199.9055391,0,0,0,-0.154900586,0,703.216917,-33.97105646,843.551482,,,,
348.0399998,1359,99.69604956,-22.25637252,173.2648583,56.68912122,269.2623411,-664.2962512,160.1264895,-310.2349235,0,0,0,-0.154958208,0,-586.3047256,-308.7033749,-788.711999,,,,
348.0479998,1359,-236.5927211,-135.1162284,-368.3298883,-152.7022053,-5.842615225,526.7796736,23.87270545,331.3919445,0,0,0,-0.155011695,0,-10.1135669,338.8028552,-5.462072556,,,,
348.0559998,1359,430.2221507,318.8221273,336.1033332,136.1285247,-349.9871311,-484.0675005,-333.7470884,-558.0264755,0,0,0,-0.155061063,0,353.7843148,-421.1616148,327.7145131,,,,
348.0639998,1359,-289.4704722,-284.5251143,-235.1543585,-106.312446,480.0353978,-39.14539226,396.07039,263.3498036,0,0,0,-0.155106327,0,-804.1271367,160.8022672,-1022.141549,,,,
348.0719998,1359,177.092334,204.4787898,-48.2236047,-54.58434804,-501.7767799,247.5874939,-412.2565289,-192.7538088,0,0,0,-0.155147501,0,703.7388635,-30.55243731,835.0738167,,,,
348.0799998,1359,109.2994778,-19.53730688,188.5261097,61.8876697,262.8099402,-660.3069942,164.6793954,-311.6352633,0,0,0,-0.155184599,0,-563.7248619,-316.745764,-771.1164542,,,,
348.0879998,1359,-273.6706885,-175.6388839,-396.345757,-193.7697614,9.224191073,522.8473875,39.61226528,332.2947818,0,0,0,-0.155217637,0,-24.73110352,338.7471153,-18.37055608,,,,
348.0959998,1359,386.188456,274.3331108,293.3282049,83.45561752,-350.6782781,-475.4713897,-344.1378848,-573.8914257,0,0,0,-0.155246629,0,356.5698971,-427.0978639,361.8761239,,,,
348.1039998,1359,-266.7819294,-272.4707584,-212.6943738,-98.07301139,482.7322507,-49.99316726,405.2249253,263.5160774,0,0,0,-0.15527159,0,-821.1800406,145.6368012,-1011.754467,,,,
348.1119998,1359,213.639706,234.2105237,-13.42616367,-26.86115993,-501.3504842,256.6673025,-390.812078,-153.8346087,0,0,0,-0.155292535,0,707.9492949,-26.03711366,826.6123257,,,,
348.1199998,1359,119.4151631,-14.69524962,196.1007683,59.66324555,259.3161531,-669.1539109,160.3683143,-311.1676593,0,0,0,-0.155309479,0,-536.6041484,-327.4046364,-769.907723,,,,
348.1279998,1359,-285.2402108,-189.6768578,-411.6892295,-207.3455961,20.29785141,519.5668803,43.8342152,325.9218308,0,0,0,-0.155322437,0,-40.43777307,334.2673687,-39.40568343,,,,
348.1359998,1359,374.2146941,260.5677812,282.1649421,73.92124323,-365.1232058,-468.161344,-350.6036628,-583.7026768,0,0,0,-0.155331423,0,368.3137275,-432.5405395,377.7405157,,,,
348.1439998,1359,-318.4721088,-329.6929692,-254.8938839,-143.8492086,484.2843245,-77.58587847,393.4103696,223.5748381,0,0,0,-0.155336454,0,-835.8027438,129.4823111,-1016.422419,,,,
348.1519998,1359,144.2486799,164.0641958,-93.75032273,-98.74080942,-508.9493388,245.381085,-413.699676,-197.485509,0,0,0,-0.155337543,0,677.5390612,-29.34432689,846.8119968,,,,
348.1599998,1360,114.6250506,-24.88704709,178.7051497,40.18340323,221.2832372,-695.0276676,136.1303031,-352.5390099,0,0,0,-0.155334707,0,-546.754327,-347.2495559,-726.3581445,,,,
348.1679998,1360,-265.7198582,-173.5024558,-394.5904409,-194.184065,0.014368354,492.4922326,47.73948975,325.4761831,0,0,0,-0.15532796,0,-65.59291244,326.479759,-46.65221154,,,,
348.1759998,1360,410.8990774,300.3679879,298.3114442,90.83024991,-397.1893906,-477.1784284,-358.921057,-574.023416,0,0,0,-0.155317317,0,386.2788368,-432.8409954,399.31817,,,,
348.1839998,1360,-273.2288835,-282.1620731,-224.9542081,-109.3642518,472.464595,-96.73952872,395.0618728,228.4138557,0,0,0,-0.155302794,0,-826.361866,123.0023476,-1028.542216,,,,
348.1919998,1360,170.7243781,196.3847442,-71.64802488,-67.48757488,-509.7096759,254.0612462,-406.6583818,-170.5327682,0,0,0,-0.155284406,0,693.0791565,-19.58174935,823.6601703,,,,
348.1999998,1360,116.7681184,-21.26910626,181.5240939,37.78300434,222.8741423,-698.9349795,126.4217653,-346.370117,0,0,0,-0.155262169,0,-512.9180234,-351.0328172,-723.386893,,,,
348.2079998,1360,-298.4412563,-204.1665766,-423.5145609,-219.4068426,32.09790669,495.1550305,53.09827333,334.2760887,0,0,0,-0.155236097,0,-74.34455189,330.8792307,-66.3117508,,,,
348.2159998,1360,555.3826173,463.4514035,332.0652149,91.14766704,-758.3374063,-316.2526042,-659.6149662,-703.1793374,0,0,0,-0.155206206,0,956.1096348,-473.5052706,1098.964935,,,,
348.2239998,1360,-299.8629051,-211.2647861,-425.7476281,-230.2444963,53.07971199,466.0506799,74.48885733,334.6400013,0,0,0,-0.155172512,0,-129.7732751,318.8921118,-129.5738221,,,,
348.2319998,1360,-317.1936576,-68.99360239,-717.5581904,-367.3848588,-581.2923196,1377.603326,-394.3401251,533.1948685,0,0,0,-0.15513503,0,940.1725314,660.04357,1254.530232,,,,
348.2399998,1360,111.0408536,116.173523,-68.55152323,-78.88885165,-350.185357,110.6936073,-289.6974592,-161.7202403,0,0,0,-0.155093776,0,419.4737958,-54.24632124,496.7157197,,,,
348.2479998,1360,-107.8341099,-63.74994726,-242.254211,-147.565751,-112.2776837,267.3934826,-82.09462117,95.53016792,0,0,0,-0.155048765,0,88.4721886,131.8577717,110.8545593,,,,
348.2559998,1360,245.9015365,120.5051695,253.6035695,83.37959161,-35.54958911,-603.2976284,-74.98951603,-423.3400856,0,0,0,-0.155000012,0,-162.4916466,-389.3850506,-288.5085772,,,,
348.2639998,1360,-173.0287804,-161.9129371,-183.2164231,-89.89967681,217.8871512,40.15815723,201.3106127,188.4838417,0,0,0,-0.154947534,0,-443.6823222,111.3121395,-580.99332,,,,
348.2719998,1360,156.1977119,160.7188672,-26.79485722,-59.93263604,-395.3914405,107.9655385,-313.6370034,-174.0806389,0,0,0,-0.154891346,0,503.8999525,-72.84223856,554.0588947,,,,
348.2799998,1360,67.6019667,-66.51394845,159.2816462,17.04715003,284.0028987,-691.834689,184.3806774,-297.7800355,0,0,0,-0.154831464,0,-597.5337069,-327.3456207,-849.7034911,,,,
348.2879998,1360,-222.5914698,-137.3181146,-361.1340783,-195.6939231,-70.2387434,477.6331103,-15.09699732,270.1087212,0,0,0,-0.154767903,0,62.45972006,286.2447958,88.55608519,,,,
348.2959998,1360,342.961039,220.7903096,295.848553,90.28841942,-255.9202797,-538.4518657,-248.0143783,-528.7511482,0,0,0,-0.154700679,0,184.5129507,-418.7716412,135.2646214,,,,
348.3039998,1360,-256.8005582,-267.8853637,-198.1596565,-109.052816,411.0584307,-103.1710887,337.4377648,180.2375396,0,0,0,-0.154629808,0,-721.1555775,103.7993623,-911.5828787,,,,
348.3119998,1360,146.1845772,174.6468811,-57.97325296,-62.81578408,-437.988539,208.4562302,-342.2438892,-145.7389875,0,0,0,-0.154555306,0,587.4342091,-17.45159688,700.8211824,,,,
348.3199998,1360,124.8534865,-9.112113162,218.8976425,64.12779345,240.3731292,-708.7530995,140.1537083,-347.5178084,0,0,0,-0.154477189,0,-526.8437341,-361.7176333,-755.9675812,,,,
348.3279998,1360,-295.8921039,-202.6992951,-395.6689087,-204.0155941,45.14196107,468.1475239,54.06372381,313.7732026,0,0,0,-0.154395472,0,-82.20475111,308.7439826,-91.66282374,,,,
348.3359998,1360,370.9276443,266.9055758,289.7597725,86.37332891,-345.3947168,-477.7683129,-329.576446,-547.123694,0,0,0,-0.154310171,0,339.2858223,-424.6506462,331.8744503,,,,
348.3439998,1360,-255.1389767,-265.761228,-173.246066,-87.00622781,468.5882773,-141.1099434,380.8382108,186.4835604,0,0,0,-0.154221303,0,-801.6365654,84.92641066,-1030.617529,,,,
348.3519998,1360,94.13521844,134.7581203,-108.0075238,-101.684624,-447.0890272,250.4706969,-368.9600216,-150.4630576,0,0,0,-0.154128882,0,617.8256762,-0.93772061,725.7552043,,,,
348.3599998,1360,111.9437803,-25.75629098,195.9215982,32.26211405,203.1392095,-743.3785415,95.90829085,-393.3102669,0,0,0,-0.154032927,0,-495.7271705,-387.7119067,-695.3376858,,,,
348.3679998,1360,-288.1011969,-194.7451081,-374.0547118,-172.4198728,76.2438948,445.5289658,93.30278486,338.4979515,0,0,0,-0.153933451,0,-151.2880272,314.1611759,-161.7591429,,,,
348.3759998,1360,393.7811987,297.0747955,314.0619046,112.19058,-390.1465982,-450.640918,-362.8640544,-555.5073413,0,0,0,-0.153830472,0,408.1785954,-411.7812075,417.3764796,,,,
348.3839998,1360,-276.873621,-296.0508806,-173.2222848,-94.26224704,496.8179382,-178.0604404,386.2727779,186.1113563,0,0,0,-0.153724005,0,-850.0946621,85.50265352,-1070.910796,,,,
348.3919998,1360,91.20144204,130.5240357,-109.1820051,-97.97918936,-442.7486807,272.2290531,-372.5765901,-124.0738045,0,0,0,-0.153614067,0,620.8001684,20.53667783,761.6230983,,,,
348.3999998,1360,155.9919382,18.07812308,246.030604,78.02240096,197.6053199,-744.6846575,99.16113472,-387.7279138,0,0,0,-0.153500674,0,-480.3249231,-380.1464899,-658.8327595,,,,
348.4079998,1360,-268.8054324,-173.7070112,-334.4940865,-133.8006721,102.9755317,447.0314434,114.259708,363.3915974,0,0,0,-0.153383841,0,-167.6985127,328.3529865,-203.0159169,,,,
348.4159998,1361,387.1905418,291.2688834,306.4865863,106.2145569,-393.546157,-427.3639063,-381.2952142,-553.0202207,0,0,0,-0.153263585,0,451.3943599,-404.7487901,442.1561773,,,,
348.4239998,1361,-264.4643752,-290.4427565,-162.2898262,-80.08380504,509.8080838,-195.0042629,400.2947232,186.2620245,0,0,0,-0.153139922,0,-879.5744761,79.44320945,-1091.756472,,,,
348.4319998,1361,119.3527564,162.4665978,-77.90612476,-55.08849783,-437.3067571,293.3284489,-354.2193135,-97.9695006,0,0,0,-0.153012869,0,606.9522738,33.28356656,748.5994905,,,,
348.4399998,1361,123.9452163,-10.7642752,223.2331709,54.12522214,204.5628217,-743.0842913,90.5800714,-401.2115011,0,0,0,-0.152882441,0,-452.9409664,-379.0797936,-657.6370246,,,,
348.4479998,1361,-344.637215,-248.3136999,-408.8452327,-208.6960594,127.7702981,426.863196,116.6893553,343.412976,0,0,0,-0.152748655,0,-203.6122803,332.1102094,-204.9509208,,,,
348.4559998,1361,375.1477229,286.3177192,283.5044292,86.26554473,-402.0491984,-432.7810657,-387.361594,-567.4053859,0,0,0,-0.152611528,0,424.090627,-400.8991455,498.910551,,,,
348.4639998,1361,-252.9154969,-274.6710311,-151.1733098,-74.01849404,506.6129063,-225.7706555,403.8836847,177.014496,0,0,0,-0.152471074,0,-894.6888979,71.31787695,-1084.948399,,,,
348.4719998,1361,116.3690833,165.9975415,-87.2317108,-68.19797456,-442.6121644,289.8819406,-351.3394823,-90.1481099,0,0,0,-0.152327312,0,600.4234977,38.15059868,751.9975465,,,,
348.4799998,1361,140.9058897,7.594452799,231.7419606,57.01570548,191.0686947,-746.9341205,79.20801179,-419.5076301,0,0,0,-0.152180257,0,-453.3103806,-388.4851726,-636.6203758,,,,
348.4879998,1361,-326.0014908,-231.6898915,-396.6287037,-193.5752344,136.3873057,424.2133081,124.6395183,352.8507012,0,0,0,-0.152029925,0,-211.6506969,327.4614899,-232.278776,,,,
348.4959998,1361,424.5130484,336.4290365,317.193055,122.2889378,-414.6920345,-406.3768439,-385.3756101,-534.2329489,0,0,0,-0.151876333,0,462.2585636,-394.9084624,502.4794399,,,,
348.5039998,1361,-239.248562,-259.8656019,-131.6500633,-57.79844326,508.0236173,-217.034181,405.8994097,182.1567951,0,0,0,-0.151719498,0,-874.0682522,71.99897393,-1112.373826,,,,
348.5119998,1361,72.15176467,124.5837557,-126.8069969,-103.3499776,-435.5628821,297.3044138,-350.8833138,-79.954807,0,0,0,-0.151559435,0,609.8511915,47.92504043,728.4192226,,,,
348.5199998,1361,143.915408,4.329273441,227.4548628,49.96493618,173.266381,-755.0858912,76.4204242,-410.4075222,0,0,0,-0.151396162,0,-440.4957672,-396.8617214,-621.9839852,,,,
348.5279998,1361,-344.7254914,-254.944851,-404.7699939,-201.861376,140.3375488,424.1711369,141.0933139,358.3341126,0,0,0,-0.151229694,0,-238.6162496,325.2241116,-259.9118365,,,,
348.5359998,1361,376.9965925,289.0244965,271.2287821,75.16336549,-422.3957941,-400.0627904,-392.330744,-549.6764004,0,0,0,-0.151060048,0,462.600234,-396.6639221,513.8519158,,,,
348.5439998,1361,-273.7774343,-300.0500496,-165.7263609,-99.68489083,501.4963152,-235.4415369,399.272312,157.3522312,0,0,0,-0.150887242,0,-888.6052698,51.57346634,-1108.757204,,,,
348.5519998,1361,38.79793943,90.61666322,-161.3534306,-135.1726701,-436.9104698,306.8955373,-350.4382418,-91.89534324,0,0,0,-0.15071129,0,585.2752843,44.23050356,732.9966626,,,,
348.5599998,1361,169.9336049,30.36920596,238.0001864,60.96512324,155.8395982,-755.7491124,63.52590881,-426.7470555,0,0,0,-0.15053221,0,-436.7380759,-408.7371871,-590.722179,,,,
348.5679998,1361,-330.0230332,-238.6588525,-392.2962606,-185.6806576,139.1036299,419.9883607,142.0251296,366.9229759,0,0,0,-0.150350018,0,-246.6682538,320.4958559,-278.2018138,,,,
348.5759998,1361,342.6530856,257.4021057,233.2152403,40.97202684,-438.7562869,-396.7718449,-414.7438486,-562.0042905,0,0,0,-0.150164731,0,470.7302629,-394.1006246,533.5589829,,,,
348.5839998,1361,-248.2629466,-279.584505,-154.9332115,-84.2431918,488.098741,-247.698013,389.2187547,151.6434154,0,0,0,-0.149976365,0,-910.7154703,45.58039236,-1093.219489,,,,
348.5919998,1361,92.23550885,144.3992719,-110.7483781,-70.25985428,-440.6028205,338.7261893,-329.6446608,-39.15034528,0,0,0,-0.149784938,0,584.1127957,65.15182671,724.9994138,,,,
348.5999998,1361,149.0578294,8.822064974,230.0323198,50.6718817,147.5960798,-747.1461028,61.78757702,-427.210108,0,0,0,-0.149590465,0,-398.1281033,-393.795028,-578.1684398,,,,
348.6079998,1361,-362.1798246,-275.2398707,-423.8203438,-215.5479868,147.269761,402.0467302,144.8471046,348.2182931,0,0,0,-0.149392963,0,-272.3303547,331.3451472,-281.2495851,,,,
348.6159998,1361,381.7190675,298.5017546,263.5353092,84.1257749,-455.3400675,-382.5130026,-406.978804,-550.4115519,0,0,0,-0.149192449,0,472.4349599,-379.9067653,554.6637816,,,,
348.6239998,1361,-241.9764314,-270.43881,-135.4397654,-58.14710403,483.0907248,-250.6409862,396.5434917,142.0060277,0,0,0,-0.148988939,0,-884.5310596,49.8574553,-1104.672075,,,,
348.6319998,1361,52.49189596,108.3021205,-146.7232899,-90.23547424,-432.5590233,338.0105969,-337.0601801,-42.80428891,0,0,0,-0.148782451,0,585.8734177,80.4356645,719.4699145,,,,
348.6399998,1361,167.0944018,27.20815108,237.5437851,76.90181949,133.9600492,-752.5337576,47.49774485,-418.3794678,0,0,0,-0.148573,0,-394.5024502,-393.104551,-551.4678013,,,,
348.6479998,1361,-335.9094774,-243.7795191,-387.3169302,-157.070361,154.2597725,414.9440296,164.9621043,382.6741818,0,0,0,-0.148360604,0,-268.7339682,339.5766142,-303.7535326,,,,
348.6559998,1361,385.8714124,309.6574128,279.3511373,116.9541954,-453.8432117,-352.1749581,-403.7641094,-518.7325291,0,0,0,-0.148145279,0,510.9991096,-362.6948111,558.4450346,,,,
348.6639998,1361,-254.8992482,-284.3595903,-142.8705556,-51.07195752,491.8654092,-259.4139322,390.7531939,147.9114074,0,0,0,-0.147927041,0,-888.7424276,48.88895761,-1113.846038,,,,
348.6719998,1362,14.37782641,75.16782277,-180.6031118,-100.5589772,-420.5257876,351.7866967,-338.5038554,-36.13269284,0,0,0,-0.147705908,0,567.6388085,87.77836427,707.7257671,,,,
348.6799998,1362,152.0906339,14.08415601,214.2909734,61.3473129,125.0253288,-748.5494697,27.49338122,-438.3035117,0,0,0,-0.147481897,0,-377.6491482,-403.042228,-530.0015871,,,,
348.6879998,1362,-350.1299306,-255.7798416,-415.1792921,-171.0534798,160.4995239,402.6891513,163.4393406,378.4088171,0,0,0,-0.147255023,0,-288.521572,325.5170321,-319.6721986,,,,
348.6959998,1362,353.664145,283.985963,240.5338532,96.37162362,-458.3224697,-342.687275,-418.411235,-519.6103769,0,0,0,-0.147025304,0,509.2693138,-369.9061727,578.1014974,,,,
348.7039998,1362,-175.2789074,-280.9672375,30.23534367,36.39515472,675.4927546,-673.0325811,510.4029787,-9.032453712,0,0,0,-0.146792757,0,-1214.542249,-151.8276422,-1539.518679,,,,
348.7119998,1362,-14.31714126,11.25109597,-102.7845629,-8.457549982,-99.04098727,131.321667,-52.37385931,66.75420523,0,0,0,-0.146557398,0,61.04663488,63.91638354,29.41391463,,,,
348.7199998,1362,104.8864941,57.64052843,53.49079939,19.60276894,-127.5749082,-230.8744929,-126.0827383,-224.6277295,0,0,0,-0.146319243,0,44.50711564,-175.1871044,-15.04780835,,,,
348.7279998,1362,-134.7303929,-117.2370206,-193.8878775,-87.00271901,50.11699372,77.43172075,43.05425373,83.08255937,0,0,0,-0.14607831,0,-175.7028424,79.06857837,-222.3536704,,,,
348.7359998,1362,325.9805931,126.5829799,439.2442394,207.2062146,193.0441155,-1052.521312,97.62744261,-559.7192492,0,0,0,-0.145834616,0,-520.3119887,-574.1205043,-768.4867779,,,,
348.7439998,1362,-211.1407509,-365.7884415,84.89420391,63.0962662,956.6926062,-943.3572603,737.8774684,-5.769202208,0,0,0,-0.145588177,0,-1648.141965,-220.5407365,-2114.758659,,,,
348.7519998,1362,-89.26529737,-49.24174324,-191.3644918,-74.68644873,-86.87962579,209.5210803,-55.28564122,95.96255321,0,0,0,-0.14533901,0,77.10396408,107.4574025,65.21923821,,,,
348.7599998,1362,94.21022294,92.61473843,-19.91808962,-10.26308899,-281.5818867,17.45949533,-241.5738913,-160.5886402,0,0,0,-0.145087131,0,361.6912712,-90.03702938,361.9472199,,,,
348.7679998,1362,-9.081873773,-58.21364604,14.28462805,16.49812159,130.6733318,-297.4361121,79.74724573,-116.6087885,0,0,0,-0.144832558,0,-329.2099756,-133.2850652,-468.7996525,,,,
348.7759998,1362,-32.43837177,-26.60377467,-85.66105715,-20.36165381,2.229892887,11.75153269,5.727634721,14.15266626,0,0,0,-0.144575308,0,-114.6796434,17.50673208,-167.2062539,,,,
348.7839998,1362,16.9015462,23.61742368,-95.60802034,-59.04947165,-195.4481278,79.77673144,-168.3983086,-81.71078453,0,0,0,-0.144315396,0,209.109395,-11.75332062,223.1343308,,,,
348.7919998,1362,59.10172029,-27.33881338,79.0534592,14.38180742,99.79883066,-450.9151036,35.71424469,-252.1817602,0,0,0,-0.14405284,0,-291.5380614,-235.1602421,-421.3141122,,,,
348.7999998,1362,-195.4449287,-135.6946049,-270.3460723,-109.0025128,19.70723742,282.5938512,31.25114311,207.973567,0,0,0,-0.143787657,0,-73.86149114,188.8381939,-102.4053466,,,,
348.8079998,1362,213.1621731,152.544971,135.2094026,59.564651,-274.7337183,-256.4136234,-262.9225215,-352.2531914,0,0,0,-0.143519863,0,284.8669986,-259.1607776,286.2832648,,,,
348.8159998,1362,-153.301805,-182.5786077,-99.80220625,-20.19307677,319.7704721,-192.3124546,247.2868835,73.96751781,0,0,0,-0.143249476,0,-593.8289876,11.10079651,-759.0974928,,,,
348.8239998,1362,5.807799345,58.71311236,-158.4828295,-65.95299421,-310.5646587,325.1028861,-246.7995055,11.91259843,0,0,0,-0.142976511,0,438.5763536,101.5018898,523.8172448,,,,
348.8319998,1362,167.254612,45.05167283,218.1755458,91.78457587,81.15441646,-613.2659727,5.113910361,-374.8031518,0,0,0,-0.142700986,0,-246.1667112,-344.9369647,-387.1159066,,,,
348.8399998,1362,-290.7336889,-213.8674335,-330.488692,-107.9196242,167.3822476,378.8050294,168.4235571,370.8990134,0,0,0,-0.142422918,0,-238.6720498,299.1735131,-297.7710015,,,,
348.8479998,1362,328.37026,266.5484919,222.4425621,119.9762413,-407.4029911,-214.8768844,-357.8557673,-410.7744629,0,0,0,-0.142142324,0,528.9075183,-286.9562491,564.380641,,,,
348.8559998,1362,-204.482334,-246.1657423,-95.32842624,-17.48677079,439.6087216,-233.7907134,344.687489,104.3509478,0,0,0,-0.141859219,0,-742.2209857,24.18325087,-958.1325365,,,,
348.8639998,1362,-31.05024945,34.27846602,-203.3984157,-93.72984561,-343.7830718,424.0381216,-275.9628915,37.14295522,0,0,0,-0.141573622,0,513.0910627,141.7249706,640.8914238,,,,
348.8719998,1362,191.5173332,59.00494068,247.8715581,105.4566099,75.67346561,-657.6320876,-3.611551885,-425.124514,0,0,0,-0.141285548,0,-251.3699394,-375.7195431,-367.8562426,,,,
348.8799998,1362,-358.8029341,-277.8861486,-382.9145853,-151.6624895,207.4750998,409.7563824,203.1496642,402.0121548,0,0,0,-0.140995015,0,-310.6060263,341.3407529,-352.6470018,,,,
348.8879998,1362,322.792081,261.3763427,209.5448436,78.94728865,-458.0194284,-216.9719475,-412.0146257,-457.302578,0,0,0,-0.140702039,0,573.5696827,-297.0560442,676.2515735,,,,
348.8959998,1362,-196.8261017,-236.6726608,-84.68203231,-14.73522467,471.7776893,-261.5640623,371.9896542,99.66042435,0,0,0,-0.140406637,0,-830.1062159,31.06901863,-1002.625586,,,,
348.9039998,1362,7.752963923,76.4732926,-174.4387027,-65.50770132,-363.4138102,456.013649,-269.8950635,59.53801765,0,0,0,-0.140108826,0,539.0482228,166.092677,682.3571274,,,,
348.9119998,1362,208.2262755,67.14287975,272.104256,110.5375378,75.20678216,-676.280619,-2.870675023,-425.9985447,0,0,0,-0.139808623,0,-220.4350096,-380.6661046,-361.965119,,,,
348.9199998,1362,-368.689386,-288.7399406,-398.4606131,-165.1376446,229.3473274,408.2359896,214.8048977,409.3888959,0,0,0,-0.139506044,0,-327.0097995,348.9212173,-367.4851953,,,,
348.9279998,1363,367.2200196,301.6166484,235.1327651,108.7669296,-479.1938299,-218.4723034,-413.2458793,-453.6086674,0,0,0,-0.139201106,0,604.8567457,-307.3152301,708.1995318,,,,
348.9359998,1363,-202.8774666,-253.6705468,-82.44817343,-15.12491257,481.1298709,-281.6915732,390.9122302,115.3479701,0,0,0,-0.138893826,0,-823.0348058,17.6089534,-1041.269615,,,,
348.9439998,1363,-32.8309319,36.49543802,-216.1377865,-111.0877535,-360.0091309,462.1508807,-271.2404528,56.20747905,0,0,0,-0.138584221,0,536.4546024,161.4724086,689.0697558,,,,
348.9519998,1363,232.5625687,91.8838702,289.1627132,121.3775535,68.77675861,-682.2937728,-1.814099178,-442.8957418,0,0,0,-0.138272308,0,-229.852853,-394.4738019,-345.0328634,,,,
348.9599998,1363,-361.6285089,-288.5014687,-384.853191,-149.7219002,246.8587132,411.6116996,233.3023523,420.4041508,0,0,0,-0.137958103,0,-331.1791483,350.6752416,-394.1390475,,,,
348.9679998,1363,349.1038128,280.6381624,214.5212373,88.29985251,-467.6814479,-205.3340127,-420.9260325,-456.7614284,0,0,0,-0.137641622,0,625.587835,-301.3637958,733.4418933,,,,
348.9759998,1363,-164.3529726,-214.6715038,-54.44013406,13.99220537,492.3045638,-293.6395975,394.2123889,116.264334,0,0,0,-0.137322884,0,-825.7053983,20.28708903,-1026.699139,,,,
348.9839998,1363,-10.03675699,58.16315145,-192.6622828,-75.57750648,-355.2071177,473.734122,-259.0090096,92.08128038,0,0,0,-0.137001903,0,557.6495583,181.6667312,684.7122368,,,,
348.9919998,1363,194.6907045,48.89338772,260.8561397,97.63818454,66.4430775,-680.0125048,-18.30917207,-458.6060882,0,0,0,-0.136678698,0,-207.637518,-393.5554003,-324.1513646,,,,
348.9999998,1363,-372.6905894,-292.4410688,-395.5760088,-151.7901236,255.3917994,403.8412527,234.932437,398.3863678,0,0,0,-0.136353285,0,-362.5695245,346.0654127,-388.132984,,,,
349.0079998,1363,371.3840731,315.6989936,240.9129071,123.5165028,-481.284501,-190.9364618,-409.9240854,-435.3768604,0,0,0,-0.13602568,0,642.1129774,-292.8891728,752.8837301,,,,
349.0159998,1363,-188.6119187,-234.1231111,-60.07653435,6.414782194,485.58903,-305.7617186,390.4242114,108.2358263,0,0,0,-0.1356959,0,-819.791351,14.30856465,-1029.013666,,,,
349.0239998,1363,-41.98309171,37.83103231,-218.2745052,-101.543318,-349.7710519,468.2417818,-269.0367964,71.14222082,0,0,0,-0.135363962,0,535.8519392,179.110523,683.0080646,,,,
349.0319998,1363,240.4746336,101.0454906,306.6628008,132.400018,55.66246465,-685.0180244,-21.22545651,-447.6357274,0,0,0,-0.135029883,0,-189.318912,-396.186979,-305.9823604,,,,
349.0399998,1363,-352.6698607,-270.6860108,-361.7873313,-127.5424684,267.3693676,397.9983647,244.0043121,427.5732885,0,0,0,-0.134693679,0,-356.9861432,353.7217997,-417.7175866,,,,
349.0479998,1363,322.030887,266.4302913,198.8376376,72.08275114,-471.7581798,-187.267296,-435.0471742,-450.3237751,0,0,0,-0.134355366,0,647.334057,-285.4969265,755.7585053,,,,
349.0559998,1363,-197.3226225,-255.6917945,-74.76264769,-21.75362477,494.6638078,-323.5956848,375.1717729,83.59595879,0,0,0,-0.134014963,0,-855.2867623,2.310955755,-1026.510295,,,,
349.0639998,1363,-34.03645191,42.35209118,-218.092781,-102.0891265,-331.8033566,476.5123487,-262.2131685,81.7967217,0,0,0,-0.133672484,0,497.0792184,185.8062582,670.9952625,,,,
349.0719998,1363,209.8664048,71.80767111,270.866464,86.9948357,56.07831384,-695.3415951,-39.55434542,-471.5977264,0,0,0,-0.133327947,0,-192.0540556,-401.7954654,-289.1921534,,,,
349.0799998,1363,-379.7113026,-304.5188152,-392.8237233,-172.0334566,275.7503163,376.1244722,244.1517402,412.5214327,0,0,0,-0.132981368,0,-402.375669,338.937529,-432.3176435,,,,
349.0879998,1363,335.3274685,276.2641506,204.7258797,69.16747269,-478.4863697,-177.3323428,-437.5073574,-446.9879711,0,0,0,-0.132632765,0,640.1127854,-288.1548743,768.8504302,,,,
349.0959998,1363,-192.5877343,-252.5027328,-68.61783135,-21.24215011,489.2658224,-337.8150003,369.5726381,71.91932704,0,0,0,-0.132282152,0,-838.8387275,-10.79298337,-1024.356057,,,,
349.1039998,1363,-24.08061722,51.2190006,-212.2353393,-88.25137733,-332.7624164,484.9591783,-245.8806432,107.643689,0,0,0,-0.131929548,0,500.0571681,186.3365949,666.4087749,,,,
349.1119998,1363,251.4907807,107.1264164,314.8052435,126.2747848,37.98657477,-687.1380313,-36.19074872,-450.8099404,0,0,0,-0.131574969,0,-160.0151706,-405.146059,-272.8085845,,,,
349.1199998,1363,-399.4013584,-328.5913948,-390.8667464,-170.9833801,282.934843,361.4392112,250.3716754,417.6053695,0,0,0,-0.13121843,0,-392.3546674,336.0299605,-460.681946,,,,
349.1279998,1363,310.2358719,254.0598592,182.155191,59.3930521,-483.582581,-174.7117668,-436.1460768,-447.0712861,0,0,0,-0.13085995,0,649.6310615,-283.9528591,792.2103298,,,,
349.1359998,1363,-199.130816,-258.6320914,-60.70968082,-19.67481681,490.9692048,-346.5947099,367.4792552,61.70261201,0,0,0,-0.130499543,0,-844.7079134,-16.76530878,-1010.027049,,,,
349.1439998,1363,-84.14671,-5.129399768,-253.1427486,-133.322571,-310.2471253,492.6192878,-248.8696245,107.1410621,0,0,0,-0.130137227,0,481.1795232,197.9477404,666.0512165,,,,
349.1519998,1363,217.3162916,76.40413196,277.7985135,93.82521532,37.0709099,-679.296555,-48.87101741,-475.5472208,0,0,0,-0.129773018,0,-167.9956193,-404.0966593,-224.0723991,,,,
349.1599998,1363,-406.8242324,-334.3896939,-395.1643328,-170.8055918,300.80151,371.547249,258.1986795,408.8590038,0,0,0,-0.129406933,0,-419.1382306,336.2828446,-448.8405106,,,,
349.1679998,1363,320.9700445,266.8526661,184.4575435,62.98956619,-473.3108458,-154.1072143,-435.3871574,-430.1145332,0,0,0,-0.129038988,0,663.5873424,-271.2950771,828.3810194,,,,
349.1759998,1363,-152.4134787,-209.5089258,-19.05006761,25.32924282,489.5807361,-351.9673338,377.879647,80.80861194,0,0,0,-0.1286692,0,-825.1257585,-19.9762147,-1002.682859,,,,
349.1839998,1364,118.8877145,209.5966758,-139.2297673,-61.74480294,-661.5772649,613.0371452,-516.8042031,-26.70721981,0,0,0,-0.128297584,0,1075.653841,125.6763793,1321.14364,,,,
349.1919998,1364,515.8954397,322.8293405,531.5290297,215.9090463,-256.6356512,-833.2348667,-298.2735495,-762.5039458,0,0,0,-0.127924158,0,312.2839727,-618.5879664,276.06897,,,,
349.1999998,1364,-573.4138017,-514.673025,-435.2851682,-143.0449384,750.6568482,277.9313555,645.5595396,661.4800394,0,0,0,-0.127548937,0,-1110.147086,457.8645519,-1322.909462,,,,
349.2079998,1364,280.1009688,294.7479283,59.22432246,7.791997905,-654.5108858,252.2824616,-550.3245923,-279.5947029,0,0,0,-0.127171939,0,1016.322929,-85.1652399,1235.447774,,,,
349.2159998,1364,70.9114602,-68.85206762,222.5741085,86.15726695,364.0572155,-701.9930166,233.6589643,-280.3551293,0,0,0,-0.126793179,0,-611.7846535,-292.1057359,-816.9935058,,,,
349.2239998,1364,-370.6842606,-259.7963873,-420.6945954,-168.8030421,156.2380871,620.4020374,171.0115727,487.0011746,0,0,0,-0.126412673,0,-148.4133442,432.0425,-147.1588666,,,,
349.2319998,1364,434.0855857,328.1235765,354.7339837,139.5569529,-437.0857314,-378.1739839,-420.0787126,-588.5834634,0,0,0,-0.126030439,0,621.9762913,-403.8559418,697.2420102,,,,
349.2399998,1364,-597.40876,-630.0501266,-284.8652611,-84.66812379,1167.276537,-296.9227185,937.5371048,508.6935333,0,0,0,-0.125646492,0,-1820.428919,265.0256115,-2229.455787,,,,
349.2479998,1364,-654.4006481,-539.938349,-568.684189,-211.1709648,665.2237068,534.9138138,583.6390363,752.626785,0,0,0,-0.125260848,0,-962.9672181,581.2578617,-1126.336726,,,,
349.2559998,1364,128.5246435,83.26917332,107.8442575,49.76815392,-99.52650029,-161.4558634,-118.9113611,-214.4257309,0,0,0,-0.124873525,0,128.0102731,-133.2274296,124.5283837,,,,
349.2639998,1364,44.31243165,45.46766979,-17.11292998,-11.88445971,-139.413695,50.35349956,-135.4324028,-82.13801485,0,0,0,-0.124484537,0,202.9625617,-4.526031223,244.4052126,,,,
349.2719998,1364,-14.95059583,-72.59927003,28.218105,-9.793353341,134.3988819,-245.3841717,64.48147834,-120.522589,0,0,0,-0.124093902,0,-222.2479595,-92.73083935,-293.38205,,,,
349.2799998,1364,-154.1579189,-141.9172052,-153.0349289,-75.35112782,108.3920726,131.2551727,69.95345268,106.8234733,0,0,0,-0.123701635,0,-112.2613642,110.6297438,-136.8020639,,,,
349.2879998,1364,207.3607107,173.1007728,129.8299565,68.75636868,-260.2698328,-72.40122377,-241.2051294,-238.8243635,0,0,0,-0.123307753,0,396.8396747,-142.7961901,471.3391966,,,,
349.2959998,1364,-99.20413059,-148.2539069,-3.498557969,26.05101423,358.139249,-242.9290362,275.4157277,63.55696303,0,0,0,-0.122912271,0,-578.190144,-4.644094688,-726.5168807,,,,
349.3039998,1364,-47.99925149,2.895934725,-165.5502227,-87.26937639,-233.5417167,364.5862017,-187.6333137,77.48984582,0,0,0,-0.122515206,0,406.5921173,138.742722,500.7045393,,,,
349.3119998,1364,152.5308136,36.13168619,199.745126,52.09365576,44.17880245,-522.5023113,-33.85680539,-360.7371667,0,0,0,-0.122116575,0,-117.1358031,-298.8086859,-172.2500163,,,,
349.3199998,1364,-343.2341255,-300.916612,-329.4519951,-165.572615,272.9286991,243.47437,209.612622,297.2385357,0,0,0,-0.121716392,0,-369.582973,247.0672807,-399.8793589,,,,
349.3279998,1364,250.0221626,209.2438479,129.5212964,27.75801731,-403.1451067,-87.72733034,-383.4613927,-358.3229666,0,0,0,-0.121314675,0,600.7532438,-204.8123508,755.7809201,,,,
349.3359998,1364,-102.3863147,-169.4686582,15.61102764,30.44237591,428.2602564,-357.2950865,327.2574768,21.91435837,0,0,0,-0.120911439,0,-736.1095632,-42.6922856,-881.0151307,,,,
349.3439998,1364,-106.6936706,-33.83677971,-249.8959927,-123.9758364,-252.7975877,486.2754644,-193.714823,134.2521715,0,0,0,-0.1205067,0,425.8947072,206.9890528,554.4810594,,,,
349.3519998,1364,225.3241407,89.95077087,271.1064699,87.87019742,5.097644228,-606.8138563,-84.29340931,-464.8582162,0,0,0,-0.120100474,0,-64.38867604,-372.0351643,-109.2970024,,,,
349.3599998,1364,-314.2649935,-256.3057541,-293.3263038,-94.25615158,322.279555,309.7546885,280.4468926,391.3567977,0,0,0,-0.119692777,0,-433.5232673,296.8210311,-500.4866626,,,,
349.3679998,1364,288.4155501,251.8401455,160.0488188,65.18649472,-454.4564829,-58.71750928,-410.2159041,-365.3870558,0,0,0,-0.119283625,0,718.3652676,-213.3899326,825.3644949,,,,
349.3759998,1364,-167.5847727,-235.3774419,-33.77917966,-15.13272459,461.6069551,-391.6915052,321.3005394,-12.73105659,0,0,0,-0.118873034,0,-750.36837,-55.30924394,-933.6370805,,,,
349.3839998,1364,-114.066552,-26.90018665,-269.6264901,-125.1724855,-258.6928181,523.5772779,-204.6250119,153.6546669,0,0,0,-0.118461021,0,436.9157193,225.1222748,584.657228,,,,
349.3919998,1364,245.6316094,108.4117669,298.4886114,113.9786848,-17.20219041,-633.1235655,-96.48787952,-492.7873041,0,0,0,-0.118047599,0,-35.98323463,-394.8851588,-84.11608276,,,,
349.3999998,1364,-408.7985896,-345.1148605,-372.6834847,-151.8167545,344.9169223,321.5225888,281.4234467,379.2281861,0,0,0,-0.117632787,0,-458.8782434,313.1056946,-514.5411534,,,,
349.4079998,1364,285.3079803,250.4630753,139.1149739,61.41284056,-479.1264759,-58.24883791,-432.2542279,-393.5910777,0,0,0,-0.117216598,0,728.6110849,-224.0983562,901.8248898,,,,
349.4159998,1364,-141.0982901,-211.2257383,-6.211965899,37.98586545,458.4876966,-403.9463753,339.7774789,-1.401813493,0,0,0,-0.116799051,0,-776.0530078,-61.45518701,-927.8332989,,,,
349.4239998,1364,-140.3408677,-51.58780323,-296.9918941,-120.375161,-251.1494122,542.7200037,-197.3412482,164.2798385,0,0,0,-0.116380158,0,435.5016497,240.8884555,601.4281763,,,,
349.4319998,1364,258.4548378,116.6823672,284.1205516,121.2597759,-28.59787746,-639.7925788,-105.376297,-512.8684303,0,0,0,-0.115959938,0,-23.89086011,-401.4127153,-38.60908536,,,,
349.4399998,1365,-388.567381,-327.4378041,-364.5779568,-120.7981156,341.8912706,319.2310317,294.8273295,406.0907867,0,0,0,-0.115538405,0,-474.7362762,316.3578481,-526.725863,,,,
349.4479998,1365,299.8268588,264.1519045,145.5912802,77.57709327,-492.4016812,-41.912464,-437.5879693,-370.9140159,0,0,0,-0.115115575,0,741.8770317,-217.178451,915.1877537,,,,
349.4559998,1365,-120.5886646,-196.8051945,6.5392591,49.18347508,451.3533685,-397.3607935,339.5561289,1.246499453,0,0,0,-0.114691463,0,-776.3912455,-60.91632115,-929.6724522,,,,
349.4639998,1365,-130.7690183,-41.99860524,-281.5444306,-102.387069,-254.8450271,563.7518588,-185.4147137,194.0488547,0,0,0,-0.114266086,0,434.2110916,252.5051802,581.9324837,,,,
349.4719998,1365,284.777526,147.6146199,322.1245665,154.3511481,-36.13588659,-626.1785266,-99.84793424,-484.0474375,0,0,0,-0.113839459,0,-7.099388262,-399.0050939,-37.24678416,,,,
349.4799998,1365,-385.1838809,-317.6942069,-337.1422003,-99.62079833,366.1778029,330.2760047,319.5041499,432.5903068,0,0,0,-0.113411598,0,-475.0291223,322.4601085,-558.0574734,,,,
349.4879998,1365,294.9654012,262.9236622,156.4687999,80.58781297,-472.6889384,-21.22567978,-417.62031,-345.0420074,0,0,0,-0.112982517,0,775.8196943,-200.4197092,921.3888563,,,,
349.4959998,1365,-97.95835101,-174.5721083,35.51908069,66.81004905,468.9894991,-404.131192,356.591309,18.86552806,0,0,0,-0.112552233,0,-754.4403722,-55.10435086,-925.4742702,,,,
349.5039998,1365,-158.4212217,-60.37848616,-294.9328505,-113.0623313,-225.7686306,576.2349446,-175.2853849,203.2366828,0,0,0,-0.112120761,0,441.5831152,265.7296624,566.512526,,,,
349.5119998,1365,264.4627148,127.326685,302.2846856,138.381772,-25.24059195,-611.6538658,-112.5391921,-505.0340032,0,0,0,-0.111688116,0,21.65971912,-392.1153407,-6.347044518,,,,
349.5199998,1365,-370.734244,-309.9441078,-334.2474681,-88.6273976,382.6041263,328.9574909,320.6868423,421.8682962,0,0,0,-0.111254314,0,-486.5782113,330.741796,-555.6299608,,,,
349.5279998,1365,261.4213333,234.3526896,123.4040937,57.59782273,-472.7799821,-7.043231487,-433.8993475,-361.397621,0,0,0,-0.110819371,0,784.4787646,-190.1696228,933.5958851,,,,
349.5359998,1365,-117.0914148,-195.6091296,20.18318879,53.19128492,465.7239063,-405.288754,337.7168071,-15.84658983,0,0,0,-0.110383301,0,-751.8226322,-67.49576491,-908.1415942,,,,
349.5439998,1365,-117.778241,-25.42344771,-265.2214097,-76.83317806,-216.9144266,593.6346722,-165.9871929,216.5252317,0,0,0,-0.10994612,0,421.6410502,270.1731835,567.4754179,,,,
349.5519998,1365,284.9424131,144.2954611,322.6800204,148.3953658,-32.80278156,-598.3078805,-119.2388326,-495.2862364,0,0,0,-0.109507843,0,43.81661718,-387.6386843,4.672657196,,,,
349.5599998,1365,-357.7276266,-299.9948023,-312.3841845,-80.15791502,385.6613897,333.4396816,328.6846027,434.7787517,0,0,0,-0.109068486,0,-490.8543297,323.093207,-584.100482,,,,
349.5679998,1365,311.3150051,284.3515203,168.9722758,98.83117068,-477.9398833,26.14887433,-424.664259,-330.2665328,0,0,0,-0.108628064,0,792.7238215,-191.6145519,921.5264684,,,,
349.5759998,1365,-119.9241065,-201.3532111,21.47748959,41.281001,471.0175815,-400.8792907,325.4776403,-23.26526601,0,0,0,-0.108186591,0,-731.1429346,-76.68655569,-928.8717206,,,,
349.5839998,1365,-150.5400734,-57.90018636,-300.9048538,-113.1959463,-200.9757451,599.2019122,-168.3006997,221.4331722,0,0,0,-0.107744084,0,414.8058504,264.945291,543.4094427,,,,
349.5919998,1365,279.9621988,140.2124742,302.2647608,126.9383333,-38.68192568,-605.2437805,-130.5937472,-500.6453926,0,0,0,-0.107300557,0,42.09064845,-408.4803694,21.66457788,,,,
349.5999998,1365,-397.3360537,-340.151399,-363.5592643,-132.0372917,405.2499029,303.4658117,319.0684478,402.0360361,0,0,0,-0.106856026,0,-519.2571415,305.1368046,-593.5265321,,,,
349.6079998,1365,313.6560211,283.6065042,146.7674758,81.7485925,-469.6164369,19.55902041,-427.8540892,-333.2882441,0,0,0,-0.106410505,0,784.8000686,-189.5220144,946.403951,,,,
349.6159998,1365,-62.11565332,-155.4725242,64.21044201,75.32934013,469.6235506,-421.688073,334.9580122,-10.11571113,0,0,0,-0.105964009,0,-730.3346305,-80.08966562,-914.9768373,,,,
349.6239998,1365,-133.7029825,-47.25397968,-281.0866972,-101.402652,-187.0962172,596.9052085,-151.8855344,237.8076452,0,0,0,-0.105516554,0,421.3490121,281.7476867,523.0477378,,,,
349.6319998,1365,317.5650503,175.2960884,337.7413373,149.5056574,-47.28896174,-606.2570659,-128.2902933,-483.8712456,0,0,0,-0.105068155,0,80.47889502,-395.7730602,32.13437215,,,,
349.6399998,1365,-365.0587237,-311.5808368,-318.3974959,-100.5570584,411.9594238,300.5956189,333.040051,427.4796598,0,0,0,-0.104618825,0,-512.312765,314.7568748,-624.4221278,,,,
349.6479998,1365,282.7133422,252.6662884,138.2959915,64.10570349,-461.4618806,49.99461935,-433.1825835,-331.0574968,0,0,0,-0.104168582,0,811.7779811,-170.9718273,943.4980855,,,,
349.6559998,1365,-98.51324304,-187.6324841,39.60838683,39.51134403,472.0425775,-422.062598,319.084046,-33.72636188,0,0,0,-0.103717438,0,-724.5424817,-82.77870572,-894.6296655,,,,
349.6639998,1365,-173.7200291,-77.62863523,-312.9743076,-133.1697358,-178.859843,601.3106856,-159.0866133,228.9252769,0,0,0,-0.10326541,0,390.7297458,287.2192743,528.5425312,,,,
349.6719998,1365,296.2127586,153.7345658,320.4706163,128.9001259,-56.67105914,-603.839924,-145.2126247,-504.2081059,0,0,0,-0.102812511,0,80.36172531,-393.0015909,77.3997369,,,,
349.6799998,1365,-353.1002257,-299.0759838,-307.6301101,-92.08096634,417.2024785,285.8420016,347.7587415,433.8865342,0,0,0,-0.102358757,0,-539.3464545,318.964455,-603.9739863,,,,
349.6879998,1365,317.4095521,299.4832764,167.0433391,97.64414695,-464.3811086,66.15829222,-417.6167841,-308.0225805,0,0,0,-0.101904162,0,816.6809617,-156.8581665,969.0704795,,,,
349.6959998,1366,-51.19166893,-136.3545194,89.1692887,89.76795609,466.9884827,-417.335296,333.1245128,-26.41973611,0,0,0,-0.101448742,0,-698.8561823,-83.98526362,-891.8199762,,,,
349.7039998,1366,-156.2420039,-55.24682101,-291.3273541,-104.0929197,-169.5985509,625.2479132,-122.6993747,269.7277793,0,0,0,-0.10099251,0,399.2719508,297.6531988,504.7866931,,,,
349.7119998,1366,300.342563,164.6211741,326.1456766,132.5628312,-62.6345728,-571.1559389,-134.4376202,-490.9765544,0,0,0,-0.100535482,0,111.9720893,-392.7982371,91.55484743,,,,
349.7199998,1366,-363.3106179,-309.179246,-311.5331452,-97.07865824,424.4908424,292.4515809,353.099277,419.5923092,0,0,0,-0.100077671,0,-547.7087936,310.4256387,-629.2747813,,,,
349.7279998,1366,282.1157863,266.3246517,125.2737582,65.86280743,-466.3857089,73.21458585,-412.5239189,-307.0474287,0,0,0,-0.099619093,0,806.6886619,-159.0589368,965.6234365,,,,
349.7359998,1366,-58.83768301,-147.5054432,77.50775795,73.87132909,468.9294069,-429.7444876,343.0592249,-32.69436573,0,0,0,-0.099159762,0,-711.1948008,-95.44483868,-875.4546933,,,,
349.7439998,1366,-124.4940354,-28.57925438,-258.3621357,-71.39974982,-151.193076,639.6780699,-99.59648127,282.9451625,0,0,0,-0.098699693,0,378.4462506,309.7706513,494.0829312,,,,
349.7519998,1366,337.5745414,197.9651989,351.3616579,160.7489713,-64.68165248,-554.6238818,-125.1864377,-480.6532465,0,0,0,-0.098238899,0,133.1953941,-383.889179,102.1865526,,,,
349.7599998,1366,-335.2162355,-289.4430641,-288.1399968,-76.6068234,442.334395,294.9361017,381.5713434,444.4198785,0,0,0,-0.097777396,0,-546.7646461,317.5292795,-642.4009663,,,,
349.7679998,1366,324.2145638,297.1964071,172.8085481,106.948949,-453.6930905,106.5504754,-388.1381722,-262.1237261,0,0,0,-0.097315198,0,821.0551584,-132.7964818,966.5885209,,,,
349.7759998,1366,-49.00239781,-152.8336916,88.36521918,68.27898081,472.5695651,-433.975569,339.6182648,-34.69312301,0,0,0,-0.096852319,0,-704.9148446,-88.48414222,-877.8302897,,,,
349.7839998,1366,-170.5705957,-78.35715583,-308.9174911,-130.8976115,-142.0997514,623.0382288,-104.841803,271.529841,0,0,0,-0.096388773,0,345.1023644,315.497451,482.6417645,,,,
349.7919998,1366,327.0269631,185.8448856,347.6247793,144.1217381,-75.95310052,-558.0961027,-138.6755939,-487.8842917,0,0,0,-0.095924575,0,124.379535,-380.1728423,128.3269258,,,,
349.7999998,1366,-349.5921293,-312.9898679,-287.1657182,-96.19628018,458.0428728,288.3766435,375.0501521,421.7586661,0,0,0,-0.095459738,0,-573.4669519,323.7448272,-649.2587944,,,,
349.8079998,1366,301.1725893,276.2182024,146.3416083,66.84036789,-444.659479,119.8881399,-397.8584731,-286.1186533,0,0,0,-0.094994278,0,803.631475,-118.3850355,986.3268034,,,,
349.8159998,1366,-12.34090095,-111.8424242,123.4476555,93.72331676,464.5800178,-436.0923482,339.741718,-38.44056797,0,0,0,-0.094528207,0,-708.4733241,-87.70140689,-856.6317915,,,,
349.8239998,1366,-150.978352,-58.52933242,-281.6179555,-104.9577365,-133.632901,631.871146,-91.56815323,294.3919554,0,0,0,-0.094061541,0,342.8492238,330.3678504,463.5978157,,,,
349.8319998,1366,320.262551,180.3446669,344.0936135,134.2395065,-85.69359967,-552.9087389,-143.7847176,-483.1211228,0,0,0,-0.093594294,0,149.4698167,-371.1881861,139.0992682,,,,
349.8399998,1366,-356.5635564,-314.1644987,-294.589572,-103.4726066,451.3831363,268.5848423,377.971655,427.7918362,0,0,0,-0.093126478,0,-580.7599638,323.5950925,-655.8924636,,,,
349.8479998,1366,283.0547638,265.1567024,119.8993704,43.18524429,-459.296035,111.7111011,-408.1262957,-281.1157513,0,0,0,-0.092658109,0,807.3462214,-110.8367058,1003.273855,,,,
349.8559998,1366,-32.00034131,-130.5304505,113.0903269,66.94055325,448.1535042,-458.8086163,325.1871823,-54.4285229,0,0,0,-0.092189201,0,-704.2454509,-90.46549364,-838.7924961,,,,
349.8639998,1366,-177.3457341,-78.52943544,-296.5459767,-124.3907977,-131.3021468,633.4181725,-91.19583043,292.8116293,0,0,0,-0.091719766,0,324.3894811,341.7764204,467.2035849,,,,
349.8719998,1366,318.3187732,184.93967,334.1929338,122.6651639,-94.92694662,-548.9195713,-157.9866621,-500.6928446,0,0,0,-0.09124982,0,151.4380465,-362.1716203,189.6244174,,,,
349.8799998,1366,-369.4508839,-321.0396284,-302.0617899,-115.1107478,453.0389369,247.0133112,382.8877977,416.5916412,0,0,0,-0.090779375,0,-611.0009891,326.5815454,-651.3600002,,,,
349.8879998,1366,251.6716024,242.942651,95.63369136,30.25056389,-463.2735751,118.3225125,-401.6054504,-273.8794617,0,0,0,-0.090308446,0,801.0670418,-107.2484165,1008.253683,,,,
349.8959998,1366,-22.41299426,-116.2554071,122.1315194,84.57091439,448.4562234,-458.580765,330.2711813,-61.49893227,0,0,0,-0.089837047,0,-693.0993647,-102.5819279,-812.4267173,,,,
349.9039998,1366,-141.8395632,-30.22883678,-249.8320883,-69.84013387,-116.2557947,646.0221951,-57.63882709,330.1672197,0,0,0,-0.08936519,0,325.5222525,350.7593888,465.393147,,,,
349.9119998,1366,359.2599051,236.3430513,397.7602285,188.4618066,-99.2724081,-523.3796621,-130.6722599,-450.4416157,0,0,0,-0.088892891,0,205.1052514,-353.7999756,191.1618638,,,,
349.9199998,1366,-357.4703058,-308.6913263,-268.3577558,-84.62157704,471.2980712,262.7647789,407.4630344,437.3020989,0,0,0,-0.088420161,0,-574.7317376,326.8316425,-673.8426447,,,,
349.9279998,1366,273.0551938,269.697236,122.7458344,57.5940427,-447.2005888,148.8452848,-380.3508464,-246.884381,0,0,0,-0.087947016,0,827.5066239,-93.85592019,1016.890509,,,,
349.9359998,1366,7.716892497,-83.02658275,159.2598073,119.1388444,452.0854968,-451.4398752,349.1680532,-47.42082992,0,0,0,-0.087473468,0,-669.6159166,-99.82162225,-806.9088599,,,,
349.9439998,1366,-176.1293942,-69.12474678,-275.4444593,-93.44908696,-98.1374793,651.8229802,-50.70945396,316.2082427,0,0,0,-0.086999531,0,327.0440383,356.0433951,444.9702344,,,,
349.9519998,1367,340.6967976,208.4437581,377.5114846,169.7702366,-97.41743857,-519.972518,-150.3538034,-482.9153572,0,0,0,-0.086525219,0,215.0593993,-356.7882338,213.6802353,,,,
349.9599998,1367,-357.617887,-312.9940067,-257.7896617,-69.82969162,481.6174131,252.3093889,406.2046223,418.1917076,0,0,0,-0.086050544,0,-593.083613,324.0916271,-681.8591696,,,,
349.9679998,1367,224.3992402,220.1885016,88.59287975,27.46201869,-440.8690363,152.2077643,-394.8033975,-271.4855051,0,0,0,-0.085575521,0,826.7343886,-88.44546862,1017.473548,,,,
349.9759998,1367,-29.14149165,-128.7406266,124.2808915,81.08133052,446.3700802,-472.4339419,319.3536951,-93.92372498,0,0,0,-0.085100162,0,-677.2438537,-110.7336049,-788.3740567,,,,
349.9839998,1367,-173.9877231,-68.67375868,-279.2938825,-90.02228708,-104.494514,649.7166686,-48.35726243,308.2931884,0,0,0,-0.084624482,0,295.8790647,357.4158334,442.1053057,,,,
349.9919998,1367,368.9877987,240.0131099,395.9414629,192.4154391,-122.23427,-503.370894,-140.8892632,-463.85797,0,0,0,-0.084148492,0,229.4578697,-358.0166376,233.1412052,,,,
349.9999998,1367,-312.6727404,-264.810979,-218.7287049,-30.7041414,474.1684528,262.3010003,424.7505635,454.4933783,0,0,0,-0.083672206,0,-589.0572325,321.172321,-693.4115505,,,,
350.0079998,1367,246.3055622,251.1263423,113.0895591,50.41831611,-444.1219917,191.3007777,-388.9569717,-241.7289014,0,0,0,-0.083195638,0,850.5093528,-77.77758275,1008.123621,,,,
350.0159998,1367,-200.2668974,-360.5943102,150.4003941,90.4302688,989.6951777,-861.8932247,739.9972537,-16.20710258,0,0,0,-0.0827188,0,-1518.320611,-152.9602309,-1871.604572,,,,
350.0239998,1367,-549.7783809,-414.2510157,-510.2344368,-178.6005772,474.3728966,683.6965422,433.2346417,700.8449717,0,0,0,-0.082241706,0,-561.467629,586.498352,-602.4380102,,,,
350.0319998,1367,535.3005092,492.8953369,328.3396678,129.3623858,-787.6118646,-4.188931329,-688.4367806,-595.2360051,0,0,0,-0.081764369,0,1317.088035,-312.3718019,1565.258598,,,,
350.0399998,1367,-166.8006026,-245.0276619,40.22645894,41.46718711,615.83773,-401.1639687,469.1541676,62.69196526,0,0,0,-0.081286801,0,-904.750204,-10.87680947,-1102.536387,,,,
350.0479998,1367,-196.7410756,-102.6461265,-255.4200606,-96.60851747,-7.396666023,552.7785178,7.971812841,278.6759071,0,0,0,-0.080809016,0,211.6282867,314.9445292,303.9404355,,,,
350.0559998,1367,346.3705877,271.8379355,290.6219114,122.4097179,-284.9088951,-273.30137,-292.028146,-469.6744582,0,0,0,-0.080331026,0,550.1165027,-289.023674,649.7290083,,,,
350.0639998,1367,-250.0296816,-252.3049977,-120.4331316,-8.480335669,547.2398399,-48.1249245,434.8007456,243.3466866,0,0,0,-0.079852845,0,-733.9903659,173.6261122,-862.895394,,,,
350.0719998,1367,67.9335107,129.7656823,-63.56683555,-16.06082803,-307.005141,430.6532,-257.9409113,3.494738024,0,0,0,-0.079374484,0,669.2122905,134.8735042,820.2502272,,,,
350.0799998,1367,151.1374476,54.21194832,227.4107254,83.30727809,126.5392802,-441.2186217,32.36430502,-306.9148503,0,0,0,-0.078895957,0,-104.2712308,-223.4877947,-155.1372822,,,,
350.0879998,1367,-289.3185101,-227.9394278,-245.0489142,-91.21616878,323.6122372,309.6240946,266.4465539,337.0649307,0,0,0,-0.078417277,0,-335.6365708,296.5618679,-351.8723134,,,,
350.0959998,1367,269.1798186,260.1905291,159.6459916,66.43857628,-375.9679311,56.91612093,-334.7694532,-285.5763257,0,0,0,-0.077938457,0,731.5585393,-122.141001,888.7702056,,,,
350.1039998,1367,-90.6215158,-146.3044461,53.09625729,36.15299521,446.8949922,-337.8135576,335.6799117,-3.20182127,0,0,0,-0.077459508,0,-617.4464452,-30.92938392,-745.8307963,,,,
350.1119998,1367,-139.4410646,-40.27237864,-236.697448,-102.7028535,-144.3376524,558.9870571,-101.9930204,207.6335798,0,0,0,-0.076980443,0,392.597264,283.7807633,516.5826903,,,,
350.1199998,1367,265.0927187,157.2530425,303.5608155,109.2967905,-63.33420038,-463.1317661,-121.5274461,-439.9030903,0,0,0,-0.076501275,0,166.3203278,-306.0453038,169.2474202,,,,
350.1279998,1367,-330.6266124,-281.2147138,-242.2159109,-94.54095319,436.1635959,222.123117,361.089468,356.3044618,0,0,0,-0.076022017,0,-518.6350644,292.1150485,-578.4421273,,,,
350.1359998,1367,227.7603692,241.4815137,100.5628099,30.53547265,-412.2601313,162.4667486,-356.3596757,-233.4156832,0,0,0,-0.075542681,0,805.3293604,-59.03350192,988.2837595,,,,
350.1439998,1367,3.242855408,-79.59955297,152.9251246,85.07044371,417.9245473,-461.490789,305.6815785,-88.36785443,0,0,0,-0.075063279,0,-589.3508683,-98.82206018,-718.7483718,,,,
350.1519998,1367,-183.9555157,-74.93583173,-274.3646335,-114.6259133,-80.25322493,616.9756709,-43.59416087,303.6515449,0,0,0,-0.074583823,0,311.0066062,353.2201282,410.9836706,,,,
350.1599998,1367,311.7039387,199.2985628,326.5828475,113.1947071,-127.2976424,-476.6657033,-176.7231308,-479.7042839,0,0,0,-0.074104327,0,266.9413629,-331.9646511,284.4820298,,,,
350.1679998,1367,-323.8495438,-274.8516735,-240.3232044,-80.93199266,470.7850613,196.4518412,397.4719443,378.747476,0,0,0,-0.073624801,0,-597.8041516,296.3253906,-670.0687006,,,,
350.1759998,1367,254.1716279,270.4203811,96.98820202,40.94579465,-441.905113,201.9491047,-372.2233088,-217.1367533,0,0,0,-0.073145259,0,839.7053155,-45.92583079,1020.615612,,,,
350.1839998,1367,18.35601726,-79.23418071,167.0781767,91.78507392,404.1057337,-503.0424647,293.6164046,-116.4560133,0,0,0,-0.072665713,0,-586.4565158,-127.883682,-735.5411469,,,,
350.1919998,1367,-236.6115445,-119.1037669,-319.3534965,-138.4996803,-60.83019922,629.3189985,-24.45064104,331.6692165,0,0,0,-0.072186174,0,272.4834695,371.2314659,364.3964153,,,,
350.1999998,1367,315.1338285,202.859444,322.7141198,103.0755037,-150.865746,-498.2081866,-205.6260887,-519.2374638,0,0,0,-0.071706655,0,298.1897684,-346.6255757,337.9519492,,,,
350.2079998,1368,-363.552954,-318.1789822,-262.5173464,-105.1591338,493.411455,161.3004438,395.9197745,350.3387662,0,0,0,-0.071227168,0,-633.1927511,295.1035272,-704.0188038,,,,
350.2159998,1368,207.8735092,231.7989799,54.59641563,10.47228405,-442.2314684,205.2527918,-388.8721355,-234.5795181,0,0,0,-0.070747724,0,849.419216,-40.26875024,1047.858847,,,,
350.2239998,1368,29.21331786,-69.3535897,163.3823338,101.0112074,403.168615,-526.7191644,285.7558848,-139.4137179,0,0,0,-0.070268336,0,-594.1729979,-144.0901233,-708.9113531,,,,
350.2319998,1368,-220.5465544,-98.90997004,-312.8256193,-102.1348972,-46.94873319,636.4636276,-6.732154359,357.7848072,0,0,0,-0.069789016,0,253.0125121,379.6669731,354.2623631,,,,
350.2399998,1368,337.684529,229.0075435,345.3180851,153.2432874,-159.7655375,-473.9520122,-208.8137192,-502.405186,0,0,0,-0.069309775,0,342.905299,-342.8991425,360.3219855,,,,
350.2479998,1368,-345.1817659,-305.3724485,-252.4223272,-61.92883535,501.779407,177.4190834,405.5173538,368.6394738,0,0,0,-0.068830625,0,-630.4900789,297.1429014,-723.211789,,,,
350.2559998,1368,230.2666151,251.7054989,60.95968989,45.72568876,-447.942174,235.6397292,-383.1404535,-206.8623929,0,0,0,-0.068351579,0,865.2774729,-31.84086478,1048.326637,,,,
350.2639998,1368,24.89583553,-78.87032553,172.3610521,114.0882823,399.7998395,-511.5556109,275.2914318,-145.8345682,0,0,0,-0.067872647,0,-574.7533343,-146.6964783,-717.1901242,,,,
350.2719998,1368,-257.6786739,-140.0266548,-348.1327656,-128.3674487,-39.91924357,655.6004862,-16.84646037,345.5193429,0,0,0,-0.067393841,0,231.0734994,387.469567,340.2037179,,,,
350.2799998,1368,369.1488081,261.0512352,351.5454229,169.3799582,-189.9283104,-463.8262925,-215.0259469,-495.8151155,0,0,0,-0.066915173,0,336.4192937,-344.4564425,385.5252789,,,,
350.2879998,1368,-299.811252,-257.2402289,-203.4748149,-12.80570954,490.7439168,184.00351,427.228641,400.6842703,0,0,0,-0.066436654,0,-645.621894,294.581898,-758.3439331,,,,
350.2959998,1368,203.284436,230.6233764,43.08395314,27.51754047,-448.8404825,263.9098284,-378.543964,-197.5699974,0,0,0,-0.065958296,0,882.7156671,-21.03405385,1033.312289,,,,
350.3039998,1368,6.982820751,-91.63766491,142.4296646,83.80521864,384.4076208,-515.5027636,266.4434276,-169.3176071,0,0,0,-0.065480111,0,-562.4754665,-159.0767473,-700.9580803,,,,
350.3119998,1368,-250.8723519,-123.4818602,-348.3851589,-120.3590748,-44.68639987,661.304383,1.738499278,353.7027476,0,0,0,-0.065002109,0,218.6669069,380.7505566,329.1626004,,,,
350.3199998,1368,363.5846259,257.1857472,344.54502,161.2450631,-205.0523428,-459.7229759,-211.0787023,-500.7146614,0,0,0,-0.064524302,0,362.0950837,-346.2838011,406.6818644,,,,
350.3279998,1368,-308.0654713,-275.6116416,-217.7502107,-32.7081938,488.6362295,155.8611954,429.9031669,381.4218163,0,0,0,-0.064046702,0,-656.51229,285.4585516,-757.4688843,,,,
350.3359998,1368,236.800307,260.1327377,60.10412549,48.11213696,-459.5987014,255.7851629,-368.7634599,-186.4393263,0,0,0,-0.06356932,0,875.4553388,-20.92524948,1045.381561,,,,
350.3439998,1368,49.61467196,-54.71799166,179.4776346,121.2562052,368.0905992,-537.6413869,270.0244409,-168.4980177,0,0,0,-0.063092166,0,-546.7061975,-164.5613796,-694.679856,,,,
350.3519998,1368,-269.7607399,-152.7470784,-360.2130423,-122.7639219,-31.66182436,656.9776133,-2.216004639,335.6600228,0,0,0,-0.062615253,0,217.6397286,384.6023505,300.513061,,,,
350.3599998,1368,336.8923812,222.4893413,310.2151764,131.3764999,-208.1861611,-458.5700455,-241.1556518,-536.8549959,0,0,0,-0.06213859,0,369.1923181,-354.1735562,431.3005037,,,,
350.3679998,1368,-339.6821361,-309.3599456,-253.2723169,-66.48112458,489.8528797,127.6033991,412.0640341,357.8578181,0,0,0,-0.06166219,0,-692.1818995,270.4013489,-744.4803209,,,,
350.3759998,1368,194.9018009,221.2097745,26.74877454,25.58131167,-452.4358751,261.2928054,-379.5994496,-190.9361296,0,0,0,-0.061186063,0,849.0773124,-17.09747237,1068.017085,,,,
350.3839998,1368,36.27705855,-68.35261666,176.013955,112.5492696,372.2886707,-544.1666063,259.0503381,-181.1565928,0,0,0,-0.06071022,0,-559.5294021,-170.6827763,-654.0520141,,,,
350.3919998,1368,-275.3145948,-156.0711467,-356.9319665,-126.1240132,-23.84398565,649.6989205,11.66362792,362.1558563,0,0,0,-0.060234673,0,186.2484149,390.4017721,313.5767,,,,
350.3999998,1368,352.7934683,240.2651395,338.5839881,153.8319775,-223.0969298,-444.6254976,-232.016725,-504.8252856,0,0,0,-0.059759431,0,382.3158255,-346.8573665,460.3134784,,,,
350.4079998,1368,-330.0361315,-300.0063816,-224.349589,-47.09777664,494.439035,135.1871189,432.0728896,378.5994691,0,0,0,-0.059284506,0,-680.4523163,271.9153926,-753.3816777,,,,
350.4159998,1368,201.7608673,227.8140648,29.37139609,23.23783931,-449.9925391,281.0643393,-355.3489085,-146.4725505,0,0,0,-0.058809909,0,874.5556583,-7.055547172,1074.571743,,,,
350.4239998,1368,92.79816799,-17.34303648,211.8123208,138.1749645,357.5593789,-553.5924597,272.2472894,-150.33373,0,0,0,-0.05833565,0,-534.5203006,-181.2292027,-641.5543062,,,,
350.4319998,1368,-237.8689318,-115.3325466,-324.4755302,-93.99160809,-15.12525513,654.0833375,27.41656449,384.1607208,0,0,0,-0.05786174,0,194.5377966,386.4447637,269.7447601,,,,
350.4399998,1368,377.7096413,267.5683569,349.0060917,164.5953644,-220.5945152,-427.1768846,-231.8066784,-497.0506261,0,0,0,-0.05738819,0,432.7630431,-350.088428,454.2501492,,,,
350.4479998,1368,-280.8418505,-253.4968833,-198.9465092,-23.61619165,499.6376297,122.6828839,442.9300303,392.2407721,0,0,0,-0.056915009,0,-662.7275773,261.9244686,-779.424323,,,,
350.4559998,1368,223.23347,254.4361695,46.2895729,44.87186898,-446.3795338,297.6231127,-352.419184,-125.7335798,0,0,0,-0.05644221,0,906.0500849,-4.30426912,1028.9443,,,,
350.4639998,1369,75.02234521,-41.27537621,197.6628521,114.1178593,367.6590389,-549.6727932,259.4315016,-167.8385938,0,0,0,-0.055969801,0,-488.074554,-188.2775518,-663.962234,,,,
350.4719998,1369,-275.5346234,-160.4344451,-371.6305565,-147.6323932,8.199007947,645.1744377,32.75898623,384.347033,0,0,0,-0.055497794,0,173.1488608,387.9222888,251.5168853,,,,
350.4799998,1369,365.0498313,253.5398985,329.8311137,142.9971346,-223.7852431,-427.7098335,-237.3963487,-490.5709281,0,0,0,-0.055026199,0,415.2768365,-349.8412754,470.0127861,,,,
350.4879998,1369,-298.9847264,-282.2829204,-205.3919622,-39.3566167,510.3635737,111.0310717,440.5563957,377.5053723,0,0,0,-0.054555026,0,-698.9634322,260.5878718,-789.4587635,,,,
350.4959998,1369,182.3680891,204.4770368,2.268866305,1.51065706,-441.2772035,303.6519014,-353.0509968,-133.9228074,0,0,0,-0.054084286,0,858.4028931,6.522950466,1045.552716,,,,
350.5039998,1369,78.50611573,-43.91947937,197.7700173,116.4493593,353.3480521,-561.2568834,262.9027927,-166.6340571,0,0,0,-0.053613988,0,-528.0485753,-192.2029251,-627.4965573,,,,
350.5119998,1369,-249.0411376,-138.6622016,-332.484018,-104.0051139,12.54926126,644.420377,54.32859104,412.3017067,0,0,0,-0.053144144,0,136.9129424,396.1917437,245.8295231,,,,
350.5199998,1369,387.3083804,271.7427237,356.6769334,172.713426,-225.2652741,-402.3303009,-233.7994753,-479.9969077,0,0,0,-0.052674762,0,435.8348984,-337.6427871,495.1924434,,,,
350.5279998,1369,-302.9950915,-286.6211321,-200.3783243,-35.2152068,522.236332,114.2162383,449.8428475,374.3407012,0,0,0,-0.052205853,0,-697.8613059,266.762764,-787.3767424,,,,
350.5359998,1369,168.3074426,198.5949645,-7.933301161,-7.844836906,-433.9368075,316.0586623,-350.1346689,-131.3815174,0,0,0,-0.051737428,0,852.0562119,19.65216124,1054.375817,,,,
350.5439998,1369,112.4383401,-7.353605323,227.5933516,142.7467926,350.0990203,-548.5395326,260.6898791,-174.4404534,0,0,0,-0.051269495,0,-512.6395319,-188.2682293,-602.2161413,,,,
350.5519998,1369,-229.0772894,-113.85886,-310.0172193,-78.65311372,16.68620625,663.5610836,75.5665654,431.2466307,0,0,0,-0.050802065,0,140.3012094,414.1522562,228.9478924,,,,
350.5599998,1369,374.4690056,266.3468044,340.4002211,154.9446193,-247.9932092,-389.8980056,-232.491982,-480.7136707,0,0,0,-0.050335148,0,457.8669804,-331.1778845,508.2959784,,,,
350.5679998,1369,-266.131969,-251.7741477,-173.0848564,-6.015312604,508.2722748,114.2175806,466.5085839,377.159938,0,0,0,-0.049868754,0,-700.9132357,263.6364748,-790.0245961,,,,
350.5759998,1369,208.3795642,235.7904082,30.39483076,39.82782084,-444.9176512,350.6865181,-324.0149364,-94.76924016,0,0,0,-0.049402893,0,875.7238606,37.43408982,1045.210986,,,,
350.5839998,1369,69.84547574,-55.57366854,192.185672,100.1759834,335.9932318,-544.2110402,255.2769869,-195.6863468,0,0,0,-0.048937573,0,-477.2075285,-193.6227415,-590.403342,,,,
350.5919998,1369,-263.0182102,-146.0651547,-350.37874,-111.0012148,15.29861743,661.6620984,79.89017813,411.119041,0,0,0,-0.048472805,0,116.4136622,402.7928357,228.5279835,,,,
350.5999998,1369,382.1989329,281.251842,345.6293836,168.9381232,-267.9975917,-373.6692871,-238.2493879,-477.8278102,0,0,0,-0.048008599,0,464.3895482,-338.9082848,529.6422383,,,,
350.6079998,1369,-311.0270033,-296.1657526,-202.030829,-46.51710483,507.1071278,105.8917275,447.4366674,348.9302897,0,0,0,-0.047544963,0,-713.5693738,250.4448952,-791.5474306,,,,
350.6159998,1369,186.4527704,221.237558,8.432210246,16.31141,-449.1451722,365.8672235,-336.4291076,-108.1370025,0,0,0,-0.047081908,0,849.0391443,31.53927583,1056.423836,,,,
350.6239998,1369,97.1753477,-26.68276718,220.8246034,120.8680477,317.1236284,-536.5743208,254.7945615,-195.7924404,0,0,0,-0.046619443,0,-474.7680938,-206.6754396,-574.4494808,,,,
350.6319998,1369,-271.1114591,-163.0474603,-346.5415218,-118.1284568,20.08775382,674.1797301,91.09497247,417.8876107,0,0,0,-0.046157577,0,105.111101,406.2769087,210.9896927,,,,
350.6399998,1369,408.2177525,302.2369706,373.2098613,193.3177065,-277.8056794,-347.2114253,-238.3296543,-461.9603895,0,0,0,-0.04569632,0,489.2546104,-328.1447484,549.1578084,,,,
350.6479998,1369,-291.8406114,-278.0504002,-178.9659495,-23.7733671,505.0244126,101.3160536,461.0478459,361.8203481,0,0,0,-0.04523568,0,-696.499634,255.1703956,-797.9649966,,,,
350.6559998,1369,151.0414533,186.7396069,-21.72100583,-10.5364451,-443.8755896,371.6118061,-333.7897046,-101.2255923,0,0,0,-0.044775668,0,860.2906892,39.6640933,1049.941479,,,,
350.6639998,1369,115.1217361,-6.123863734,241.4367664,142.4255231,315.311263,-547.9550567,242.5055415,-198.1863314,0,0,0,-0.044316292,0,-450.1326125,-210.8827167,-562.7796362,,,,
350.6719998,1369,-251.7988337,-131.6041038,-329.7287609,-92.73737954,30.94505343,659.4265464,99.79787795,428.3238072,0,0,0,-0.043857562,0,108.9909987,408.3551467,189.6961689,,,,
350.6799998,1369,408.1079589,310.5521191,364.5438621,186.8748734,-279.4606456,-348.8181202,-236.9992562,-459.5627108,0,0,0,-0.043399487,0,514.9660526,-334.199175,554.4390183,,,,
350.6879998,1369,-272.5932054,-256.2739935,-156.5384749,0.721060609,516.9432976,89.62308524,473.1101201,362.9791571,0,0,0,-0.042942075,0,-694.6924192,246.2668736,-817.841212,,,,
350.6959998,1369,158.3178495,201.129149,-16.30828778,0.832718251,-433.5711225,384.5163199,-327.134469,-97.19641046,0,0,0,-0.042485336,0,862.9944677,42.76224264,1034.063417,,,,
350.7039998,1369,136.4538843,11.20959376,254.3210708,139.4422633,317.2507879,-550.5362496,245.1218452,-206.206503,0,0,0,-0.042029278,0,-437.5091363,-222.2291267,-558.4292349,,,,
350.7119998,1369,-252.1627305,-139.2785812,-318.6040203,-95.31151448,52.9269593,658.8587743,124.7911472,444.4669775,0,0,0,-0.041573911,0,91.51827167,414.8725122,156.5545143,,,,
350.7199998,1370,364.6420874,261.1674916,334.625651,141.7050971,-276.9042517,-351.5258196,-245.0542876,-473.5689235,0,0,0,-0.041119244,0,520.0558004,-329.2381743,559.6628342,,,,
350.7279998,1370,-304.8227875,-298.7623967,-182.2698979,-42.89615137,521.565256,58.48780384,472.0322629,341.1113761,0,0,0,-0.040665284,0,-722.5628545,238.7922784,-815.21453,,,,
350.7359998,1370,138.7507513,179.2346739,-28.80295768,-8.543099137,-430.012619,394.1347328,-305.2780789,-75.84623183,0,0,0,-0.040212042,0,844.74074,55.91890753,1040.327238,,,,
350.7439998,1370,100.0492793,-28.76128682,230.3247406,118.4346229,316.0262919,-547.6841577,238.8140365,-219.6343777,0,0,0,-0.039759525,0,-416.9933299,-219.1943724,-531.2764896,,,,
350.7519998,1370,-303.2260556,-195.086656,-360.2322528,-126.3073685,66.69093616,656.2111916,109.3138439,424.6878207,0,0,0,-0.039307742,0,74.08158943,416.1307515,167.4083005,,,,
350.7599998,1370,353.5609115,249.3689598,315.3998495,140.6670552,-283.5331787,-330.6591474,-263.332877,-475.4235148,0,0,0,-0.038856702,0,517.3899485,-331.271114,611.5019697,,,,
350.7679998,1370,-280.1952336,-277.7275963,-170.3405614,-22.62587993,520.5490242,60.25147076,465.5013218,340.718807,0,0,0,-0.038406413,0,-733.0780695,233.1615085,-793.2438708,,,,
350.7759998,1370,156.1196083,195.9380961,-25.70958049,-0.056295488,-438.5171951,399.7301083,-311.202232,-67.17670076,0,0,0,-0.037956884,0,836.2152931,57.5217477,1043.968923,,,,
350.7839998,1370,128.7670361,-0.872844826,248.5664263,136.5352833,296.6676973,-551.1330721,238.8596651,-214.8158632,0,0,0,-0.037508123,0,-409.4884764,-233.7504404,-514.7892485,,,,
350.7919998,1370,-262.6223126,-149.1615418,-323.5511034,-87.32406161,65.78282888,665.6752969,135.181828,451.5786045,0,0,0,-0.037060139,0,73.3593468,421.0154801,147.2333067,,,,
350.7999998,1370,379.428678,281.8355358,332.7328831,157.9046913,-301.675661,-317.9244224,-253.6719976,-462.9096738,0,0,0,-0.03661294,0,552.3345209,-320.9126061,610.3115863,,,,
350.8079998,1370,-277.8158071,-276.4358383,-165.7625389,-16.96857865,517.8189984,51.10868904,479.263088,338.9486592,0,0,0,-0.036166534,0,-727.2143402,228.981473,-811.8198041,,,,
350.8159998,1370,163.4845044,207.6877456,-5.709155089,25.28773679,-432.8296764,420.6941021,-301.9620734,-52.11148159,0,0,0,-0.035720929,0,848.2557602,67.52000887,1030.804488,,,,
350.8239998,1370,128.6106045,-1.195414771,256.0556413,137.9187799,291.7294313,-557.1709264,230.6556032,-231.1683755,0,0,0,-0.035276134,0,-390.6474993,-235.6650772,-508.543458,,,,
350.8319998,1370,-310.6478546,-197.269652,-367.0664665,-123.6369952,77.60235101,649.3489494,142.7703514,434.9311864,0,0,0,-0.034832157,0,37.82996448,414.6379279,130.6699256,,,,
350.8399998,1370,374.5908832,281.0015133,326.8268322,162.0353779,-301.7530334,-312.7148311,-256.1468204,-464.6996608,0,0,0,-0.034389005,0,552.8614718,-328.3794565,636.0496524,,,,
350.8479998,1370,-213.70013,-214.9370038,-104.5236797,43.86127709,524.9195282,44.49267291,497.3623739,357.1038744,0,0,0,-0.033946687,0,-728.9227607,227.3637507,-813.7573454,,,,
350.8559998,1370,190.285536,236.9249121,24.80458389,63.66218038,-423.5865834,445.8025528,-269.9299008,-10.25196395,0,0,0,-0.033505211,0,859.0480973,85.18036373,1006.587873,,,,
350.8639998,1370,113.9203896,-13.60718075,253.9362928,134.9541066,299.6078194,-548.7219365,236.0329523,-228.7891174,0,0,0,-0.033064584,0,-348.4401859,-231.0035877,-506.4610999,,,,
350.8719998,1370,-290.1275803,-178.1735011,-343.7750409,-103.5637776,92.64238133,648.9246741,157.9609232,444.3192806,0,0,0,-0.032624815,0,37.64245335,424.4559795,117.2503413,,,,
350.8799998,1370,408.3108677,311.7148968,361.3220709,185.9936772,-321.028394,-298.8265673,-250.0655821,-453.0123771,0,0,0,-0.032185911,0,572.3391715,-321.6852984,634.1646767,,,,
350.8879998,1370,-264.0944583,-265.3672495,-131.0017498,-0.518630025,514.8794657,24.69118575,487.3243842,327.9849396,0,0,0,-0.03174788,0,-722.3835827,221.1520301,-843.4625954,,,,
350.8959998,1370,140.9645426,194.8681883,-17.64148229,18.53928239,-430.218242,438.4662941,-285.087791,-31.37119165,0,0,0,-0.03131073,0,837.0520307,86.86452568,1002.154332,,,,
350.9039998,1370,151.0851179,18.75334334,284.896721,157.1839879,276.1646893,-559.7462951,229.0647206,-241.3578734,0,0,0,-0.030874469,0,-364.5523082,-238.369409,-491.6638706,,,,
350.9119998,1370,-304.1073169,-196.8846756,-342.340843,-112.8961857,95.6835799,639.185643,169.291746,447.7604458,0,0,0,-0.030439103,0,11.80224646,429.8822818,82.76375712,,,,
350.9199998,1370,343.3838425,250.0756744,304.7433142,118.7131289,-314.289371,-297.6552951,-263.0929722,-463.6167452,0,0,0,-0.030004641,0,560.5456664,-312.8508196,650.2828877,,,,
350.9279998,1370,-247.7709942,-254.8811213,-117.5255297,4.020178448,526.312604,12.92797955,499.2244708,326.3061046,0,0,0,-0.02957109,0,-774.9242984,225.3494053,-829.1863531,,,,
350.9359998,1370,194.5070347,243.2941006,35.64549137,74.83068699,-423.3437893,458.454218,-245.4568874,21.71974143,0,0,0,-0.029138457,0,806.1243092,110.0452338,996.9451127,,,,
350.9439998,1370,144.4305405,12.94019859,282.8593698,147.3033642,279.8717239,-557.8332762,235.329089,-219.3525518,0,0,0,-0.02870675,0,-346.9290434,-228.4884493,-487.9717246,,,,
350.9519998,1370,-319.8655721,-207.2025336,-359.6169069,-123.374661,112.2663746,638.5703711,174.6138951,446.5072429,0,0,0,-0.028275977,0,-9.021685473,435.4285467,63.39793357,,,,
350.9599998,1370,410.9891033,321.0071524,358.5660491,193.7955996,-319.8889552,-268.5603341,-250.5820473,-440.4714128,0,0,0,-0.027846144,0,577.0819739,-305.6838473,661.7101584,,,,
350.9679998,1370,-215.808566,-223.1275934,-79.36281252,46.13714637,537.907851,18.41273925,508.7296592,349.500516,0,0,0,-0.027417258,0,-736.0100843,231.3276342,-855.3855954,,,,
350.9759998,1371,123.7268371,179.7253189,-24.91330234,17.80406326,-403.4100171,469.8439695,-260.9080727,3.970550751,0,0,0,-0.026989328,0,827.1738628,119.3443959,974.7074144,,,,
350.9839998,1371,139.8873972,10.79110002,271.8086051,138.9253215,276.4700242,-554.8897075,223.3288701,-251.2893607,0,0,0,-0.026562359,0,-343.851139,-237.8716655,-459.7657753,,,,
350.9919998,1371,-282.9369371,-171.228263,-320.6044241,-85.08718235,116.1992081,644.923273,193.347249,469.0856696,0,0,0,-0.02613636,0,-18.69020973,443.6338494,48.76749304,,,,
350.9999998,1371,392.8177778,305.0608218,345.5109874,175.4664912,-328.3547771,-253.8217324,-262.1120347,-435.9386625,0,0,0,-0.025711336,0,606.3561923,-296.8052337,659.0534321,,,,
351.0079998,1371,-248.9539784,-259.673732,-115.7727077,4.397804404,535.8667672,2.890862634,490.9625966,319.2884922,0,0,0,-0.025287296,0,-747.8182008,219.1014021,-859.744671,,,,
351.0159998,1371,114.1607364,167.8665334,-57.16170902,-6.266971545,-405.7940054,463.3458888,-275.0946545,-2.846788032,0,0,0,-0.024864246,0,800.0179538,117.2584569,976.4520273,,,,
351.0239998,1371,176.1672797,44.17955864,284.2840368,165.6815394,264.8416219,-569.7716375,203.352811,-259.1462396,0,0,0,-0.024442193,0,-335.5854414,-248.6131093,-453.0119086,,,,
351.0319998,1371,-282.4316022,-173.8463437,-325.3891823,-65.5905286,123.1139294,636.168688,186.9392273,465.8015225,0,0,0,-0.024021144,0,-20.09896615,440.6016864,16.74306663,,,,
351.0399998,1371,371.1650319,283.5083713,307.8241481,161.5905624,-341.7368144,-251.5141166,-285.4308603,-445.4634877,0,0,0,-0.023601105,0,628.3462603,-298.7688412,677.2955676,,,,
351.0479998,1371,-217.5360074,-224.192532,-94.8318602,42.3908299,515.318899,-13.6195048,483.0590289,319.4255793,0,0,0,-0.023182083,0,-742.4901058,210.6145846,-858.6324647,,,,
351.0559998,1371,120.1879545,182.7759988,-42.36729283,24.31492292,-427.2784084,476.8522929,-277.8343565,13.73911304,0,0,0,-0.022764085,0,816.1402634,122.4022814,954.5836703,,,,
351.0639998,1371,149.7326315,19.35811728,258.8851462,141.1010393,240.4632724,-562.8210576,182.6317893,-276.9234628,0,0,0,-0.022347118,0,-310.17889,-258.2313829,-438.1529362,,,,
351.0719998,1371,-282.1444103,-168.0131802,-327.8396163,-65.8726752,114.7621776,639.2669807,191.4287916,470.5083489,0,0,0,-0.021931188,0,-47.80684307,438.8663343,7.740535848,,,,
351.0799998,1371,371.6063231,293.7694102,312.0667477,169.3406549,-356.7910882,-232.970285,-290.9560147,-438.1102674,0,0,0,-0.021516301,0,631.0336645,-294.8674885,683.9752313,,,,
351.0879998,1371,-245.5925929,-249.552927,-121.3799834,17.27285767,523.0605896,-14.10263651,470.2878879,284.5659432,0,0,0,-0.021102465,0,-747.5247607,204.7130598,-855.0665392,,,,
351.0959998,1371,116.1344593,186.9064065,-50.42670188,27.70139938,-421.4156962,495.2065111,-278.950671,8.703274058,0,0,0,-0.020689685,0,803.9826963,133.364682,959.5755316,,,,
351.1039998,1371,153.720017,29.0767989,262.2752596,145.2575212,229.2765696,-566.9470091,171.6987668,-274.7309834,0,0,0,-0.020277967,0,-299.6623006,-256.6759272,-417.8741559,,,,
351.1119998,1371,-304.9352273,-188.2951606,-356.5807997,-91.22540145,120.9803972,626.2370917,185.6159004,467.6995611,0,0,0,-0.019867319,0,-71.96547671,438.0089276,2.614816568,,,,
351.1199998,1371,777.8022491,666.3743386,581.489275,281.7414398,-909.0913273,-318.1659929,-760.1503551,-859.6208632,0,0,0,-0.019457746,0,1476.710608,-583.1736247,1649.885971,,,,
351.1279998,1371,185.223982,67.76764097,280.0733979,175.4798638,210.640915,-514.2028151,167.6298388,-260.604666,0,0,0,-0.019049255,0,-300.7462264,-248.2415263,-408.1125765,,,,
351.1359998,1371,-364.6060468,-244.4208512,-389.2658515,-98.67053661,231.8459016,643.6372815,279.2051475,541.9349315,0,0,0,-0.018641852,0,-226.9623337,477.4035575,-200.7929127,,,,
351.1439998,1371,-28.13043162,73.84758156,-169.2850055,1.167777993,-270.8310132,621.9231537,-143.8688084,203.0492099,0,0,0,-0.018235543,0,569.8672355,251.9870939,696.9565652,,,,
351.1519998,1371,-302.9940328,-60.7651825,-537.5792132,-147.0080371,-313.4592458,1313.948318,-118.7672779,637.7527473,0,0,0,-0.017830333,0,679.6134111,664.9627254,912.6044035,,,,
351.1599998,1371,133.3235406,119.3402817,85.8545629,89.22306986,-154.3963717,48.38149281,-106.1316522,-120.7358155,0,0,0,-0.017426229,0,351.4969264,-57.2698515,378.4544962,,,,
351.1679998,1371,145.7253435,33.2474085,254.7973732,168.0516717,211.5130496,-484.499038,155.051089,-238.9808481,0,0,0,-0.017023237,0,-275.2843718,-234.3326242,-391.8211692,,,,
351.1759998,1371,-234.3337284,-128.4715373,-283.1739605,-43.06019947,68.30959229,598.7750343,144.4276425,413.4128813,0,0,0,-0.016621363,0,1.51954095,390.2946265,77.65628798,,,,
351.1839998,1371,242.6879752,197.9210305,206.2392093,149.7865386,-178.7692994,-105.9254279,-120.0908714,-229.7731197,0,0,0,-0.016220613,0,366.2415306,-158.7737092,389.279943,,,,
351.1919998,1371,-27.31981332,-71.62078536,55.77344806,78.92919496,258.0349652,-154.5089191,227.9416208,0.175571372,0,0,0,-0.015820992,0,-279.0215185,-16.15210677,-375.701852,,,,
351.1999998,1371,-186.8810748,-107.7094285,-229.5387271,-49.46891224,1.599989267,503.8190829,63.50487666,271.1553586,0,0,0,-0.015422506,0,151.677578,291.4332561,222.5068937,,,,
351.2079998,1371,292.6687463,204.2099855,294.7674277,177.3612712,-157.3142943,-296.569103,-127.8156261,-359.7493096,0,0,0,-0.015025161,0,292.7093176,-273.048008,315.6271637,,,,
351.2159998,1371,-205.2254823,-182.1670984,-130.0362309,32.82103238,362.1169621,162.1424362,362.6517601,315.5067382,0,0,0,-0.014628962,0,-501.2304495,236.7929503,-544.2454325,,,,
351.2239998,1371,136.7942758,166.8784711,29.78405439,78.10261082,-306.3335008,314.0790537,-189.0473464,-23.49021417,0,0,0,-0.014233916,0,604.2914209,50.3224423,701.1901951,,,,
351.2319998,1372,126.5092787,24.60518515,233.2318544,152.5919066,221.3471395,-414.8823986,184.5448379,-180.9362383,0,0,0,-0.013840027,0,-241.971248,-190.3922328,-366.2220368,,,,
351.2399998,1372,-263.0611903,-165.2103854,-279.1054604,-58.46523746,132.4645954,543.8404118,187.9622784,408.399387,0,0,0,-0.013447302,0,-52.3774185,381.1915608,-13.25448177,,,,
351.2479998,1372,341.2507352,271.0142522,305.2598981,174.8284708,-295.5065133,-220.5537096,-238.8946695,-380.0561254,0,0,0,-0.013055744,0,541.1555831,-273.1448659,591.7969943,,,,
351.2559998,1372,-225.3022592,-227.4946046,-95.05908196,30.99075939,496.7731746,-13.11001962,450.6416641,285.0066024,0,0,0,-0.012665361,0,-688.932717,192.6616006,-769.785131,,,,
351.2639998,1372,84.23108356,146.971911,-51.03047923,23.33577403,-339.1912821,448.3929207,-222.0557802,28.4141469,0,0,0,-0.012276158,0,680.6690437,132.1598446,838.6702789,,,,
351.2719998,1372,182.3165606,57.03989292,297.0310872,170.4893691,219.7842569,-529.895094,159.0761299,-259.4119216,0,0,0,-0.011888138,0,-244.3714534,-256.7725209,-357.4775177,,,,
351.2799998,1372,-311.4159522,-210.2480509,-314.1860801,-77.32200762,191.3649129,564.3215436,225.8849717,457.8542352,0,0,0,-0.011501309,0,-120.4350151,417.402139,-86.08657622,,,,
351.2879998,1372,333.6883373,261.9425355,291.731157,147.6047766,-338.7930815,-203.5365424,-284.4202674,-405.0571718,0,0,0,-0.011115675,0,631.2863096,-281.4498092,691.2471689,,,,
351.2959998,1372,-222.2789629,-243.7301902,-77.40879004,34.26641388,530.288045,-74.23895851,482.0868846,282.587753,0,0,0,-0.010731241,0,-761.1858619,170.2599489,-849.8193233,,,,
351.3039998,1372,73.10749539,140.1298999,-73.42197139,21.52054759,-358.8017949,514.1656297,-228.4467449,58.95582943,0,0,0,-0.010348012,0,716.7616988,157.6632801,880.3242784,,,,
351.3119998,1372,149.6988165,15.02699898,276.4497183,137.1557435,222.5299815,-557.9500075,144.6642207,-306.4316632,0,0,0,-0.009965994,0,-220.6429853,-280.6226033,-349.9670547,,,,
351.3199998,1372,-368.9904601,-265.6121687,-376.1062852,-136.5933026,198.5262973,557.971773,228.4662107,447.6201755,0,0,0,-0.009585191,0,-151.8291539,420.0670128,-83.64399988,,,,
351.3279998,1372,341.2027588,272.2152165,278.8667592,134.3204133,-377.7294254,-204.1554747,-310.0845869,-424.4210929,0,0,0,-0.009205608,0,642.6341868,-296.1513092,758.3027451,,,,
351.3359998,1372,-212.9934469,-241.1393304,-64.40350874,32.48562304,527.2673989,-112.7190104,476.2485138,265.5967003,0,0,0,-0.00882725,0,-784.5430027,156.9510444,-859.5684635,,,,
351.3439998,1372,61.05190286,128.9846736,-93.36033796,-8.693812863,-385.6084681,501.1107499,-243.4932914,57.06491777,0,0,0,-0.008450122,0,708.4001392,162.9631971,899.4969282,,,,
351.3519998,1372,164.4834113,25.12390396,283.7117761,134.1482571,190.0814279,-591.6393224,133.8785505,-316.413476,0,0,0,-0.00807423,0,-243.5253951,-298.2117967,-334.0779935,,,,
351.3599998,1372,-353.3958591,-257.9125743,-357.7720828,-117.3677504,193.8004168,552.0109458,232.6265123,467.3446703,0,0,0,-0.007699576,0,-180.086112,425.6316501,-97.17614767,,,,
351.3679998,1372,358.3023285,282.8772452,290.1652505,143.513978,-397.2635309,-197.2201396,-322.2055335,-420.9709573,0,0,0,-0.007326167,0,652.7160231,-291.8030198,769.836018,,,,
351.3759998,1372,-212.0155646,-238.6093834,-58.32488039,29.57041424,523.0808167,-122.1994813,481.4414661,268.9318195,0,0,0,-0.006954007,0,-799.4476651,152.0359126,-877.993417,,,,
351.3839998,1372,49.84137895,128.6092425,-95.35334594,-17.20105585,-389.1499631,509.779723,-234.2166578,87.29275876,0,0,0,-0.0065831,0,702.8407527,171.4314656,890.379223,,,,
351.3919998,1372,194.1024,58.12469566,317.2877515,153.838951,174.112608,-595.9282248,137.4221654,-311.369061,0,0,0,-0.006213451,0,-232.8518311,-305.3192458,-337.1879962,,,,
351.3999998,1372,-325.6202334,-224.6235429,-313.9862031,-85.35515234,198.119142,564.3776839,255.6285831,483.0695536,0,0,0,-0.005845065,0,-178.5694522,433.4006396,-138.8544561,,,,
351.4079998,1372,370.2228389,303.3880394,308.650179,150.7034546,-400.5972543,-181.1587736,-317.5498648,-402.357954,0,0,0,-0.005477946,0,688.694371,-281.2697261,758.5648767,,,,
351.4159998,1372,-212.2918223,-236.235079,-53.50978069,26.28297999,532.1863365,-132.8790192,478.3591147,263.0938894,0,0,0,-0.005112098,0,-790.1891527,146.1488688,-907.6322212,,,,
351.4239998,1372,14.11787745,98.13883365,-116.7973803,-37.41911483,-369.4094646,527.4483869,-241.6342951,79.8275427,0,0,0,-0.004747526,0,706.1288656,178.923982,862.3241363,,,,
351.4319998,1372,149.1424785,11.76107839,273.0666236,98.04499918,188.0021913,-608.0416666,110.1709836,-337.7188496,0,0,0,-0.004384234,0,-217.6245336,-313.0878681,-327.6948568,,,,
351.4399998,1372,-348.1287504,-244.5536866,-343.3421715,-120.2165839,219.5806332,530.5820079,249.3542348,484.0337081,0,0,0,-0.004022226,0,-221.133115,425.0558939,-154.6301526,,,,
351.4479998,1372,378.5276124,323.7512746,326.9289368,168.6302918,-401.8096509,-177.9575078,-324.3962984,-390.1514071,0,0,0,-0.003661507,0,673.193638,-284.3421278,761.3905094,,,,
351.4559998,1372,-228.6208526,-247.3517345,-50.63908569,21.98044626,543.490177,-134.3443506,464.7612632,240.5562612,0,0,0,-0.00330208,0,-788.5533302,134.5139485,-916.2031585,,,,
351.4639998,1372,18.70423751,112.4485993,-117.3525888,-31.03748179,-364.1216738,536.0725337,-242.7132773,87.26123328,0,0,0,-0.00294395,0,693.2004915,179.7912007,859.9020597,,,,
351.4719998,1372,220.366613,93.52635022,349.1324592,173.540977,165.6684452,-598.5843392,116.8542189,-302.3273523,0,0,0,-0.002587121,0,-202.3756548,-319.7945444,-328.4930744,,,,
351.4799998,1372,-333.0029192,-221.4885584,-303.5192155,-84.35126319,226.8655711,548.3871265,266.8958258,519.6057452,0,0,0,-0.002231597,0,-195.0038692,426.9001276,-208.2750435,,,,
351.4879998,1373,348.7846033,299.2572719,296.4785588,138.1188391,-401.2259072,-163.701977,-330.1788767,-373.581486,0,0,0,-0.001877381,0,718.1312644,-281.1925858,754.1845738,,,,
351.4959998,1373,-216.9621176,-238.0620655,-43.68650193,22.79994659,536.7648865,-158.4050787,464.5227772,253.4059341,0,0,0,-0.001524479,0,-787.0486791,123.9743655,-932.2526927,,,,
351.5039998,1373,9.954724945,107.0843076,-117.6495894,-32.09395878,-366.2949196,537.457494,-237.9836834,105.0755582,0,0,0,-0.001172892,0,689.9856267,184.2952374,819.4758904,,,,
351.5119998,1373,167.1345627,40.63858821,298.1305255,117.5708349,162.0221918,-608.594088,91.51713319,-335.1197143,0,0,0,-0.000822627,0,-182.9545146,-329.4776152,-325.1686616,,,,
351.5199998,1373,-372.7484499,-267.9657642,-348.2509651,-127.933232,236.1783642,521.192508,254.3681885,483.0303268,0,0,0,-0.000473685,0,-234.21276,420.1112342,-210.4152512,,,,
351.5279998,1373,343.586279,288.942166,287.0056711,130.8085319,-416.1267345,-170.308892,-343.7764612,-402.3521434,0,0,0,-0.000126071,0,693.5555576,-278.9036875,774.1417931,,,,
351.5359998,1373,-205.69392,-231.0236071,-28.2409933,31.45532821,533.7600917,-170.5720293,464.698615,233.4013358,0,0,0,0.000220211,0,-799.8216012,118.7899125,-924.104629,,,,
351.5439998,1373,22.97573308,118.2498057,-100.1833993,-15.45769672,-355.6616123,556.8714452,-222.5871981,126.2323387,0,0,0,0.000565159,0,686.3309315,200.4929208,824.2301053,,,,
351.5519998,1373,209.8332015,79.2710918,342.4225488,155.8195776,156.1415095,-592.9248936,97.46314604,-319.4761863,0,0,0,0.000908767,0,-168.8109117,-321.5192444,-306.4437901,,,,
351.5599998,1373,-339.2531789,-231.1965333,-302.2793028,-88.01526386,251.5445632,533.706356,274.0270993,508.2343878,0,0,0,0.001251033,0,-244.1611859,426.9070294,-238.2034687,,,,
351.5679998,1373,344.9184554,298.088939,302.931854,142.0765607,-409.3036608,-134.6179743,-343.7486353,-385.3602916,0,0,0,0.001591954,0,725.7809429,-270.2065376,770.8815342,,,,
351.5759998,1373,-211.8151031,-240.6600315,-26.70279281,30.81392797,542.5709605,-164.8270524,460.5254817,219.7977291,0,0,0,0.001931525,0,-787.0954678,113.265883,-932.2741702,,,,
351.5839998,1373,4.860954367,98.09412122,-118.9667661,-28.52629288,-344.5961309,561.1865029,-222.3080028,123.7337232,0,0,0,0.002269743,0,668.780248,202.077581,808.6417075,,,,
351.5919998,1373,216.684299,84.67590715,347.8810512,158.9355523,144.5955517,-597.787132,91.74980513,-323.3906873,0,0,0,0.002606606,0,-161.3365384,-334.5380446,-299.5125584,,,,
351.5999998,1373,-434.9312228,-245.1835503,-491.4560948,-168.3919785,80.63609808,950.6944423,174.6883871,684.8054291,0,0,0,0.002942109,0,24.6294716,629.9304901,136.4651378,,,,
351.6079998,1373,386.0324586,390.4304004,215.5319647,72.42710288,-750.8071212,135.3358181,-613.3823814,-426.6569533,0,0,0,0.00327625,0,1246.408446,-220.6899667,1432.475867,,,,
351.6159998,1373,-119.3999622,-252.9025756,175.4563215,89.12437556,743.1279896,-731.7749365,587.2598597,-21.84261019,0,0,0,0.003609026,0,-1146.474799,-161.2178723,-1410.816718,,,,
351.6239998,1373,-236.042759,-71.94417626,-343.1035526,-116.604061,-206.7453593,866.118367,-63.82131479,430.5840815,0,0,0,0.003940432,0,464.103506,446.9441682,608.1342454,,,,
351.6319998,1373,372.4836567,252.6648017,412.3825479,169.7016496,-242.8338842,-509.6415661,-241.0574706,-523.9598463,0,0,0,0.004270466,0,410.8109422,-430.1383297,386.2503503,,,,
351.6399998,1373,-379.324307,-358.8859067,-212.2565187,-63.70814824,598.0599634,35.56349947,522.2122707,402.4667554,0,0,0,0.004599126,0,-896.7699459,279.9100942,-998.3314708,,,,
351.6479998,1373,141.0907939,212.1560053,-16.9846276,-5.112918091,-552.2620827,442.5443627,-395.0574264,-76.70448169,0,0,0,0.004926407,0,929.3487698,60.61817522,1113.437731,,,,
351.6559998,1373,93.17115738,-39.92684853,288.1644689,129.2861749,338.7216057,-646.865182,257.7081839,-222.1241583,0,0,0,0.005252308,0,-493.8958773,-276.3875596,-670.3642146,,,,
351.6639998,1373,-320.599633,-201.5104348,-324.0351083,-110.8277508,108.5434519,606.2232938,177.0847549,470.7932384,0,0,0,0.005576825,0,-36.53513695,421.204973,20.07367824,,,,
351.6719998,1373,763.0717297,605.4378762,684.0077634,286.3841834,-789.3006981,-602.1119508,-681.482145,-924.6506079,0,0,0,0.005899954,0,1251.80552,-714.0059053,1326.337563,,,,
351.6799998,1373,511.817417,263.9941349,692.3910709,299.5076552,17.81470949,-1143.490247,-51.90368754,-758.580156,0,0,0,0.006221695,0,-37.79053893,-725.7726784,-216.6953625,,,,
351.6879998,1373,-122.6257813,-69.56167554,-115.606581,-21.27518329,16.84597494,294.0763894,79.86829754,213.4490965,0,0,0,0.006542042,0,51.25510579,191.5185313,92.1952591,,,,
351.6959998,1373,-93.91313997,-78.41819154,-35.40250569,28.10595382,157.036615,91.99899562,191.5251431,186.2634311,0,0,0,0.006860995,0,-213.3976919,128.0543338,-225.6927297,,,,
351.7039998,1373,98.79567724,101.6537958,96.05008842,75.68635421,-125.5465498,74.35072672,-62.06709471,-27.08495049,0,0,0,0.00717855,0,278.0190985,-2.750225877,291.1671277,,,,
351.7119998,1373,17.48099573,-17.09998967,108.7913845,62.93147651,125.4026144,-131.3743961,101.3388217,-32.24152353,0,0,0,0.007494704,0,-69.40376383,-39.36990058,-150.9755839,,,,
351.7199998,1373,-220.6193984,-172.5646684,-168.5120642,-50.32538204,199.7652671,272.2583656,195.8728694,276.0214196,0,0,0,0.007809455,0,-183.8895189,239.8607062,-189.9738779,,,,
351.7279998,1373,231.9818381,203.6983228,206.5115468,116.6116187,-275.2867925,-56.29491738,-217.6261697,-236.9176532,0,0,0,0.008122801,0,495.9973212,-158.0688541,545.1722906,,,,
351.7359998,1373,-181.0685039,-192.12866,-22.36064988,33.3311629,426.8460909,-93.50117659,370.5048243,212.45405,0,0,0,0.008434739,0,-606.6843475,123.2109492,-718.4861922,,,,
351.7439998,1374,-3.533556909,70.85942686,-79.63226951,-5.415700291,-238.1865038,420.229788,-139.4276804,114.2037294,0,0,0,0.008745266,0,469.6819405,175.3356095,578.0845909,,,,
351.7519998,1374,174.5723166,83.09612575,287.3900761,149.8334636,99.1727448,-439.0930231,74.37721503,-231.3757031,0,0,0,0.009054379,0,-91.50716685,-238.8992495,-205.7506707,,,,
351.7599998,1374,-349.6072709,-258.571908,-277.4070112,-95.77348228,283.1474539,402.0476801,281.9332914,439.7693129,0,0,0,0.009362078,0,-309.6990176,363.6486038,-325.4323941,,,,
351.7679998,1374,264.9764304,243.2974731,220.5700084,99.58317,-376.2562956,-67.18738029,-311.3695683,-311.062222,0,0,0,0.009668359,0,646.6717084,-202.0497407,734.673665,,,,
351.7759998,1374,-176.4387822,-200.2171056,6.433600346,49.89455727,500.0087634,-199.339815,436.5217551,205.4172542,0,0,0,0.009973219,0,-735.2715722,88.17953032,-881.1627172,,,,
351.7839998,1374,-63.6717171,36.68552723,-154.2896607,-50.20497508,-270.2396958,536.3162887,-161.0196659,168.5532467,0,0,0,0.010276658,0,547.8903619,230.6327005,658.0469385,,,,
351.7919998,1374,181.0686764,73.45034419,307.2408431,131.2963089,108.2415914,-538.3290165,51.15111172,-320.823347,0,0,0,0.010578672,0,-94.99160185,-310.1632642,-214.465544,,,,
351.7999998,1374,-361.1967129,-254.5527133,-293.4326324,-85.17383055,324.8852304,462.7493514,325.3905193,508.243524,0,0,0,0.010879259,0,-342.1068141,406.5275149,-370.1536216,,,,
351.8079998,1374,289.8179912,264.6783812,238.8690075,112.4051866,-398.00048,-45.72882415,-331.9905629,-313.5824633,0,0,0,0.011178418,0,731.1045934,-213.37283,785.9117572,,,,
351.8159998,1374,-211.7788078,-245.5358135,-23.54600253,12.16828763,541.9371324,-227.2657735,442.2066689,183.9784076,0,0,0,0.011476145,0,-784.896041,68.19650932,-932.4771646,,,,
351.8239998,1374,-65.7872684,45.08930913,-176.4479278,-62.63163613,-275.9631413,580.1218073,-170.9923936,186.5992967,0,0,0,0.01177244,0,539.1342655,243.3507265,695.7157668,,,,
351.8319998,1374,214.9461449,96.96924582,346.433913,156.5172573,103.0018791,-568.8688483,47.68796098,-337.6798035,0,0,0,0.012067301,0,-108.1830023,-339.264901,-222.2295614,,,,
351.8399998,1374,-397.5613992,-295.1346072,-325.6366777,-108.1336728,333.0813616,470.5592422,329.9758088,512.3834506,0,0,0,0.012360724,0,-380.2378072,405.2934678,-397.6368573,,,,
351.8479998,1374,289.5096823,269.5654667,232.9156894,113.1966631,-424.8861468,-44.38694733,-344.295704,-328.10673,0,0,0,0.012652709,0,734.0324991,-232.9883117,807.523971,,,,
351.8559998,1374,-203.6783469,-234.4684945,5.790557605,47.43060731,541.5532186,-231.2151666,455.6171883,185.4981765,0,0,0,0.012943253,0,-788.9106952,57.43955782,-963.3194699,,,,
351.8639998,1374,-103.1875883,9.651719134,-196.5595932,-64.00950232,-274.2978825,608.4436052,-170.0320844,198.4510987,0,0,0,0.013232356,0,548.8519582,254.4813454,684.0015904,,,,
351.8719998,1374,192.7730157,77.41801937,323.3148114,151.4080254,94.0888754,-569.3272953,36.4682584,-347.5061966,0,0,0,0.013520014,0,-102.8083664,-349.5143753,-210.9079788,,,,
351.8799998,1374,-387.0821809,-285.5757577,-320.273186,-75.41703622,339.935797,482.9658945,345.7641476,535.5219675,0,0,0,0.013806226,0,-389.5042805,414.9697623,-409.3790894,,,,
351.8879998,1374,323.9449021,290.3701059,248.1383812,156.2309474,-437.8510403,-27.04956907,-343.0963836,-305.7063387,0,0,0,0.014090991,0,758.7485641,-221.1516472,817.73391,,,,
351.8959998,1374,-157.6554566,-198.4636012,21.20093441,88.45904798,529.6478342,-242.2367969,456.2358693,197.8449969,0,0,0,0.014374307,0,-776.4815944,56.03797155,-972.2059849,,,,
351.9039998,1374,-35.71775775,77.33990262,-157.5653069,0.018244843,-288.1413838,624.7343141,-150.5784778,241.3687826,0,0,0,0.014656172,0,577.8101615,270.4723468,666.2462896,,,,
351.9119998,1374,258.2968791,134.4786471,368.4219747,202.113144,62.03689085,-560.5403883,47.39983438,-324.0334737,0,0,0,0.014936586,0,-31.0854004,-348.3494485,-222.0239245,,,,
351.9199998,1374,-369.5203479,-269.0089654,-318.6713931,-68.19991317,328.8647293,474.7767436,359.9656811,545.9666398,0,0,0,0.015215545,0,-362.3619747,413.1464456,-453.8068391,,,,
351.9279998,1374,324.6779259,299.300924,237.24511,150.5298935,-453.4922753,-17.33182251,-346.3636214,-307.7186436,0,0,0,0.01549305,0,787.2577223,-218.7431648,809.8521135,,,,
351.9359998,1374,-167.8597574,-211.4844491,8.212436681,70.89664698,523.061443,-249.8128345,450.0219535,170.2524702,0,0,0,0.015769097,0,-762.1808148,45.67621876,-982.6111528,,,,
351.9439998,1374,-78.32957219,36.75039661,-202.3152018,-38.36740418,-284.9265809,623.9167546,-156.9288367,224.6022927,0,0,0,0.016043687,0,555.1625864,273.3563452,650.5646829,,,,
351.9519998,1374,225.9389298,101.6231408,335.2424609,172.1465573,59.20349287,-565.3497796,21.95948096,-356.1395183,0,0,0,0.016316818,0,-43.1839972,-355.8637653,-196.091092,,,,
351.9599998,1374,-387.5126482,-294.0453639,-334.3665409,-79.51408472,351.6776073,471.3438927,356.8193693,525.4425466,0,0,0,0.016588488,0,-390.5792959,413.0601884,-446.5804451,,,,
351.9679998,1374,326.5506952,301.1424585,239.1918042,156.966846,-449.0474961,-1.594663069,-348.9487751,-296.3089029,0,0,0,0.016858697,0,781.0128632,-206.3346196,837.6806576,,,,
351.9759998,1374,-177.1262911,-224.8163825,7.876765445,66.04045021,534.4671783,-259.8286933,447.0649037,179.7488915,0,0,0,0.017127442,0,-775.7170554,42.13407878,-972.2040249,,,,
351.9839998,1374,-117.4888047,-4.331866943,-237.5639903,-63.75506862,-257.5260252,630.004033,-159.0668033,226.2881402,0,0,0,0.017394723,0,534.8588287,284.8485496,656.0308155,,,,
351.9919998,1374,239.1376905,116.9184157,345.0793678,189.2232396,61.89634897,-559.4437015,8.654570029,-362.0793298,0,0,0,0.017660539,0,-24.59330637,-353.1005086,-164.8491079,,,,
351.9999998,1375,-403.0452816,-308.5047031,-339.8802317,-83.62875818,372.114332,460.5674577,355.4901773,531.8322395,0,0,0,0.017924888,0,-397.7883925,414.4430687,-464.5826313,,,,
352.0079998,1375,263.408676,241.4766398,182.284752,106.5828718,-445.0952233,-2.165506541,-372.3884033,-320.7565345,0,0,0,0.018187771,0,777.3524837,-200.9699483,858.4661356,,,,
352.0159998,1375,-176.2539143,-221.6116941,17.43265947,74.70844318,530.0427282,-277.5789088,439.7267912,151.8589754,0,0,0,0.018449184,0,-777.6091496,34.79852137,-950.3048452,,,,
352.0239998,1375,-106.4840385,13.24522954,-217.8516826,-41.93491741,-251.2592229,634.5407841,-144.6922715,242.6430412,0,0,0,0.018709129,0,531.7254117,297.1935402,653.493783,,,,
352.0319998,1375,238.8426658,119.7260787,342.6682473,182.4563274,47.46117172,-560.0077944,-2.01525197,-371.3402285,0,0,0,0.018967603,0,-3.867892036,-352.5516033,-137.2187998,,,,
352.0399998,1375,-372.0007263,-272.3646003,-305.5785315,-53.80857232,368.9433268,451.3639808,369.0825381,542.5222478,0,0,0,0.019224605,0,-409.0572824,416.5494092,-475.1528455,,,,
352.0479998,1375,296.1923822,290.16228,217.5391955,151.6126104,-456.9427016,21.10367257,-361.9144155,-287.8172898,0,0,0,0.019480136,0,790.5253917,-190.0140539,861.2451229,,,,
352.0559998,1375,-166.3879254,-204.3358008,28.79900716,94.33547051,528.1110615,-268.2577337,440.3559762,158.207118,0,0,0,0.019734194,0,-754.9443257,29.18520842,-954.2070652,,,,
352.0639998,1375,-96.78193535,32.95517517,-208.1785094,-23.0940126,-248.3768614,652.9858243,-133.0314366,267.7496997,0,0,0,0.019986779,0,533.5143511,310.8254479,640.8425213,,,,
352.0719998,1375,503.836576,360.4276383,545.4170475,274.8401982,-287.0878029,-689.7549993,-280.8621724,-656.7339446,0,0,0,0.020237889,0,474.316233,-552.8913987,394.6243958,,,,
352.0799998,1375,-97.79555194,32.69959934,-216.4166046,-13.76897393,-219.4732902,681.8370285,-98.01396335,319.7103661,0,0,0,0.020487524,0,503.4787351,349.4723917,605.194613,,,,
352.0879998,1375,306.5733034,479.3669773,-77.69419856,27.55836984,-1127.084949,1014.022855,-833.492612,-53.92224176,0,0,0,0.020735684,0,1923.61781,194.5114906,2288.366807,,,,
352.0959998,1375,204.1734485,203.6049217,154.770728,128.1737969,-273.0826798,30.22480057,-203.7992845,-158.4859838,0,0,0,0.020982367,0,523.2696666,-88.10746683,545.2163078,,,,
352.1039998,1375,22.63172283,88.97365026,-53.19426245,39.62778545,-209.1211448,359.0740555,-122.9265764,97.70548104,0,0,0,0.021227574,0,459.8725709,141.66885,511.4323501,,,,
352.1119998,1375,2.017907941,-67.52882294,162.0599327,121.2603053,340.9427314,-386.8412805,272.2010854,-55.35271005,0,0,0,0.021471303,0,-436.3175454,-130.0397651,-631.8310639,,,,
352.1199998,1375,-222.2522866,-140.8000919,-198.0229579,-26.48321696,147.4789028,395.6315015,178.0119392,343.9348921,0,0,0,0.021713555,0,-46.21045447,281.4966671,-88.61767401,,,,
352.1279998,1375,213.950224,201.9971765,168.0437527,108.5898069,-305.9147713,-27.4257529,-241.0535595,-233.4038359,0,0,0,0.021954328,0,574.0283381,-153.4283611,604.1539987,,,,
352.1359998,1375,-192.1021511,-218.5938612,-11.51205568,65.55618053,551.6641635,-237.7317756,465.2415227,193.6283437,0,0,0,0.022193623,0,-793.3336589,64.45850813,-985.9088571,,,,
352.1439998,1375,-7.09986383,101.6146091,-127.8273694,14.50512821,-304.9321096,569.0683322,-190.3483362,164.3044037,0,0,0,0.022431439,0,623.6185399,226.7180169,719.6596689,,,,
352.1519998,1375,165.4793753,69.53670708,298.8617649,176.433887,157.9715014,-508.3417202,101.3115192,-259.2757455,0,0,0,0.022667776,0,-152.701356,-279.1918966,-331.3241246,,,,
352.1599998,1375,-292.0806774,-200.9591261,-233.7590118,-11.23218797,331.2305498,404.9537206,341.0089733,492.5193789,0,0,0,0.022902633,0,-318.5744692,364.905541,-405.9285411,,,,
352.1679998,1375,283.2798889,277.8410901,206.3425226,151.0590596,-388.5686523,38.83826668,-306.1547147,-236.9331634,0,0,0,0.02313601,0,743.8814536,-149.9046337,766.0429751,,,,
352.1759998,1375,-166.4499072,-208.5429585,22.00080451,71.43222364,551.1740071,-297.73949,442.8685389,140.6463291,0,0,0,0.023367907,0,-742.8108979,25.94595891,-976.0805033,,,,
352.1839998,1375,-76.75791447,42.48391466,-187.4428812,-15.22736224,-221.7055192,611.4498369,-115.121146,266.2157203,0,0,0,0.023598324,0,523.1635986,303.958163,609.5427029,,,,
352.1919998,1375,237.421638,125.4862613,349.3435258,195.3145327,68.88230756,-542.3598475,33.31095618,-319.8876999,0,0,0,0.023827261,0,-4.021741962,-321.0900573,-168.9592306,,,,
352.1999998,1375,-364.1474123,-277.9298624,-293.453831,-57.05479011,405.9323217,391.0105047,394.8657044,507.7051215,0,0,0,0.024054717,0,-415.5521884,392.9135392,-510.5431495,,,,
352.2079998,1375,277.8979247,274.130022,186.6434652,134.5421028,-414.509314,52.62235963,-325.5834013,-256.1886774,0,0,0,0.024280693,0,777.8762763,-145.1749748,841.7924005,,,,
352.2159998,1375,-128.5160267,-185.1637652,66.57693016,98.96083638,538.0853015,-322.6686281,444.5071455,126.9313838,0,0,0,0.024505188,0,-724.2565232,2.318541299,-949.0897189,,,,
352.2239998,1375,-122.5454697,-3.916879577,-225.6304974,-40.93826145,-180.174688,649.5756481,-77.57650355,296.4007483,0,0,0,0.024728203,0,466.5294547,333.4998493,572.1733146,,,,
352.2319998,1375,245.3386205,130.964417,344.9542176,181.6229729,34.7419427,-540.3988907,-4.309776183,-372.5032781,0,0,0,0.024949737,0,37.28199935,-344.4164068,-66.9846528,,,,
352.2399998,1375,-385.4257036,-303.1545502,-298.3915133,-63.99655754,440.5181916,385.873567,416.2418527,520.7891739,0,0,0,0.025169791,0,-465.8500474,397.8890999,-538.758128,,,,
352.2479998,1375,289.4033169,285.4516661,189.8563742,129.3880549,-429.8213769,64.9676984,-337.801943,-254.8319525,0,0,0,0.025388365,0,794.1199667,-146.8692012,892.7297042,,,,
352.2559998,1376,-99.19446323,-154.9484356,86.8027327,108.6162627,529.1366081,-347.6942436,442.0858788,112.6323304,0,0,0,0.025605459,0,-730.7015942,-14.29092176,-928.9115805,,,,
352.2639998,1376,-123.143696,-1.563796878,-216.0794841,-32.68118546,-171.753489,638.7738941,-71.37957025,317.495218,0,0,0,0.025821073,0,452.3958358,341.3175881,542.786207,,,,
352.2719998,1376,275.8834987,160.9151641,364.319912,193.3065627,8.058939843,-554.2097797,-30.7427401,-380.2461642,0,0,0,0.026035207,0,77.38096677,-357.9639875,-44.20220599,,,,
352.2799998,1376,-367.1214654,-283.4549304,-292.5085685,-58.89930069,449.8903065,363.7961306,419.6986211,515.4324823,0,0,0,0.026247862,0,-476.4468379,391.2990704,-571.9277712,,,,
352.2879998,1376,280.2796189,279.1922034,180.8650043,122.28228,-435.2986957,63.02255984,-357.7579204,-263.4585442,0,0,0,0.026459038,0,808.8730831,-149.6187548,889.3475458,,,,
352.2959998,1376,-120.9316774,-176.7032148,62.24276275,88.7083281,530.1117399,-358.6495971,420.8211769,87.9483999,0,0,0,0.026668735,0,-741.6508936,-30.2464379,-922.8773532,,,,
352.3039998,1376,-136.6708418,-8.429041095,-246.9575622,-46.29298815,-162.8135688,648.2818854,-66.49925107,313.0847263,0,0,0,0.026876954,0,414.5813924,343.9952557,546.9306614,,,,
352.3119998,1376,293.0212198,181.4220796,371.2343753,209.9602062,-13.1620599,-541.159499,-38.02092169,-384.3166032,0,0,0,0.027083695,0,82.89247971,-362.768914,-12.50421099,,,,
352.3199998,1376,-361.5520697,-277.1792033,-277.2321853,-35.85715744,453.8957593,372.5877328,439.9603294,538.6234287,0,0,0,0.027288959,0,-496.1738931,389.6234338,-579.8461956,,,,
352.3279998,1376,288.1795053,297.8623546,190.5946403,143.5819509,-444.7759416,90.92037534,-331.9141076,-221.8344968,0,0,0,0.027492746,0,816.8457331,-136.8148245,910.5946576,,,,
352.3359998,1376,-99.79960614,-153.3113089,81.44466975,108.4477027,509.9012055,-360.673151,429.2718276,87.55313657,0,0,0,0.027695056,0,-721.0954434,-29.09688442,-903.7733769,,,,
352.3439998,1376,-121.7804542,2.37789512,-229.9902066,-30.15792574,-163.7633712,661.3744502,-55.9121862,314.0749361,0,0,0,0.027895891,0,414.6332497,355.2211562,542.5397193,,,,
352.3519998,1376,293.6344399,183.1750682,385.7331387,212.9673901,-18.23527104,-520.4374775,-43.94683819,-384.1462993,0,0,0,0.02809525,0,124.4686299,-351.1889222,11.07688514,,,,
352.3599998,1376,-391.4612922,-305.4037619,-297.0473482,-68.58824072,465.8188927,358.0109652,432.8597529,517.1479129,0,0,0,0.028293135,0,-494.0809071,401.2217658,-580.1052383,,,,
352.3679998,1376,286.9109134,300.4553481,179.8346959,127.9759838,-445.0925953,93.46388343,-343.17902,-236.082196,0,0,0,0.028489546,0,805.3940891,-126.2248934,929.4419093,,,,
352.3759998,1376,-91.70219498,-140.9065458,101.8077244,112.4872658,518.2353259,-367.2664393,420.2965396,81.18209062,0,0,0,0.028684484,0,-699.2554756,-33.10064951,-898.7918321,,,,
352.3839998,1376,-156.6646001,-22.991159,-255.1083637,-61.26165589,-135.9674393,650.1056913,-58.32563592,314.9698136,0,0,0,0.028877949,0,410.0967631,362.5180221,527.4575469,,,,
352.3919998,1376,276.8425431,173.4216273,357.2653132,183.8475774,-14.92706831,-530.2422759,-65.88953361,-399.7494947,0,0,0,0.029069942,0,115.6703691,-358.6020031,35.97307866,,,,
352.3999998,1376,-407.5592625,-322.1059261,-310.4976026,-85.5375806,483.6740027,340.8499335,419.4253102,500.2728957,0,0,0,0.029260465,0,-512.5112558,388.5458923,-589.1575003,,,,
352.4079998,1376,270.6233521,284.8587698,162.1754144,117.5627286,-436.0399955,100.3664858,-353.5486177,-241.6770562,0,0,0,0.029449517,0,806.0533884,-123.6341874,941.1673099,,,,
352.4159998,1376,-84.60448755,-139.2960809,100.7311953,110.9959742,519.7400464,-374.707975,412.1446671,68.42673773,0,0,0,0.029637101,0,-701.1734716,-39.5670476,-872.106193,,,,
352.4239998,1376,-165.832514,-36.68665855,-268.1577577,-75.19907264,-123.0809909,649.5526302,-60.10075153,319.4811941,0,0,0,0.029823215,0,381.0613974,368.9337037,523.5294011,,,,
352.4319998,1376,311.8550844,206.4922023,384.0923625,213.954926,-33.90370526,-524.0347993,-69.80267679,-386.1687612,0,0,0,0.030007863,0,121.0516763,-359.659627,51.9633189,,,,
352.4399998,1376,-343.3835092,-258.8204533,-256.5945009,-23.36374696,475.7732843,337.0937269,442.2274909,525.1792766,0,0,0,0.030191044,0,-512.3619914,381.6859124,-613.34582,,,,
352.4479998,1376,272.3819149,292.8466079,149.8494031,116.9545956,-434.9891539,113.4879261,-357.1365106,-227.5157353,0,0,0,0.03037276,0,832.5188169,-122.5480441,918.7612078,,,,
352.4559998,1376,-93.42246875,-148.2357407,84.345057,93.50624791,511.970654,-395.1182205,393.8648927,67.12722674,0,0,0,0.030553011,0,-667.8909827,-60.11826809,-885.8182739,,,,
352.4639998,1376,-175.03279,-43.54139093,-281.0795649,-81.71302971,-123.9857929,635.6932115,-57.62336034,333.7783843,0,0,0,0.030731799,0,378.5705151,352.6002788,490.4521213,,,,
352.4719998,1376,286.9663251,186.2714353,346.1138118,182.5615065,-42.94315887,-518.7839089,-96.61001145,-413.2343103,0,0,0,0.030909125,0,141.1507593,-378.9893174,61.38915971,,,,
352.4799998,1376,-346.3965356,-265.5683942,-260.2994102,-35.40441342,481.2961094,327.6874922,437.0404126,511.7818571,0,0,0,0.03108499,0,-516.1671122,369.85446,-624.8613336,,,,
352.4879998,1376,269.9351444,291.0935475,155.965169,110.020661,-441.5277563,125.8753255,-352.9523262,-217.4942308,0,0,0,0.031259395,0,832.5672881,-115.1152632,914.4363474,,,,
352.4959998,1376,-99.74738012,-152.2076274,81.5032344,76.79936748,501.9152942,-390.1636154,381.1275095,29.58536855,0,0,0,0.031432342,0,-664.849706,-66.49428709,-876.7450138,,,,
352.5039998,1376,-158.8032848,-24.6207391,-260.957494,-65.62034215,-112.8867569,646.9550503,-48.66487188,328.5826442,0,0,0,0.031603831,0,371.0644862,362.6279664,475.0523144,,,,
352.5119998,1377,314.2821067,217.02498,372.7951152,197.8318836,-48.09561366,-517.5277468,-98.32918634,-409.1475458,0,0,0,0.031773864,0,158.9862838,-372.0775207,70.94554816,,,,
352.5199998,1377,-353.7306622,-272.2285293,-264.1513507,-51.87960344,488.3040087,301.0275323,433.7234062,488.5151657,0,0,0,0.031942442,0,-543.6528106,362.719496,-644.4114984,,,,
352.5279998,1377,259.9907752,279.5888287,144.374692,102.2812934,-442.7446848,117.2851881,-361.5304852,-231.8157369,0,0,0,0.032109566,0,825.1599917,-116.0128207,907.2424479,,,,
352.5359998,1377,-96.12108875,-153.7671685,79.5653337,77.7166302,489.7868287,-414.9860574,375.643214,15.5625295,0,0,0,0.032275238,0,-654.3805263,-81.63410935,-874.7796047,,,,
352.5439998,1377,-181.4317034,-44.37809169,-283.6454594,-78.83587187,-117.8380255,636.0070263,-35.66419844,329.5973831,0,0,0,0.03243946,0,333.2672153,358.8556816,454.3224264,,,,
352.5519998,1377,309.6558906,216.7866318,363.2435366,194.2581318,-81.18977982,-523.4943271,-109.3243646,-419.7783242,0,0,0,0.032602232,0,146.214519,-375.4441211,86.20029286,,,,
352.5599998,1377,-486.3432558,-433.1441222,-288.3026137,-71.15905642,811.2774485,68.62730085,686.6371148,555.6058779,0,0,0,0.032763556,0,-1107.627199,358.7740577,-1314.308978,,,,
352.5679998,1377,1.545190667,55.52673309,-36.9362189,8.038178412,-110.6242439,180.8595749,-88.0717752,25.72891079,0,0,0,0.032923434,0,276.9242505,57.87820941,308.3996557,,,,
352.5759998,1377,69.80492211,54.30221178,118.3630044,84.31007691,73.09870441,-166.9241099,41.21986378,-80.52508388,0,0,0,0.033081867,0,-24.21151598,-101.7424827,-85.33123282,,,,
352.5839998,1377,-29.73178873,33.5392054,-50.57168088,32.56353237,-1.327874672,240.9307703,27.71519613,170.8775375,0,0,0,0.033238857,0,147.0325015,138.8408111,150.2286514,,,,
352.5919998,1377,92.53221288,66.7697279,177.5085245,130.8994147,147.9022928,-269.6585142,105.4860503,-70.35035714,0,0,0,0.033394404,0,-140.7203067,-119.9838783,-280.2532323,,,,
352.5999998,1377,-106.5621681,-14.09186857,-127.5904745,-3.13035034,5.727459403,364.0484056,38.67586621,251.3204634,0,0,0,0.033548512,0,127.8175665,231.5237873,124.9579768,,,,
352.6079998,1377,165.7079439,131.3866918,215.7235273,125.9650976,-45.514837,-239.4503827,-70.55983973,-205.295373,0,0,0,0.033701181,0,163.7535768,-189.7117363,76.48824981,,,,
352.6159998,1377,-251.6561254,-204.7763138,-158.0531946,-41.88228691,346.9785032,104.8826069,284.1964714,263.5668967,0,0,0,0.033852414,0,-365.9190926,181.6640454,-483.1638249,,,,
352.6239998,1377,121.5151744,171.0033801,31.58619572,47.30827863,-314.0524592,191.544146,-246.2984993,-86.73643284,0,0,0,0.034002211,0,574.2035479,-18.41387611,678.0690629,,,,
352.6319998,1377,17.09842498,-32.33041804,163.5693054,137.1703393,344.4271921,-387.7578611,257.8378932,-36.60500737,0,0,0,0.034150574,0,-470.8251931,-122.7877886,-640.5618151,,,,
352.6399998,1377,-230.544991,10.33463712,-465.5204976,-134.916648,-380.0446338,1211.183294,-212.0248562,557.7290685,0,0,0,0.034297506,0,793.7255959,622.8590344,1041.080272,,,,
352.6479998,1377,395.5752806,504.045709,83.33705832,87.83431662,-998.678248,620.8814434,-779.8422582,-233.2190189,0,0,0,0.034443009,0,1624.376625,-4.180950345,1952.521865,,,,
352.6559998,1377,-39.08149267,-58.47155915,69.07256902,83.86921139,275.5688626,-205.260133,205.0575962,25.45742402,0,0,0,0.034587083,0,-331.4184064,-32.93734152,-470.8468229,,,,
352.6639998,1377,-65.64957422,-59.34669114,-10.62331015,32.90737199,163.7083699,-48.23577271,118.8337478,42.94225917,0,0,0,0.034729731,0,-131.6180811,15.65361648,-215.5879491,,,,
352.6719998,1377,-36.0380395,6.550430927,-50.57386118,32.51853353,18.13880492,143.721719,27.90965441,91.9186274,0,0,0,0.034870954,0,92.68050061,74.63113478,100.0470396,,,,
352.6799998,1377,64.56310116,80.42823726,56.39058977,86.14125122,-38.2252343,8.6397899,-29.51864436,-29.59582372,0,0,0,0.035010755,0,145.7892269,-28.48994394,144.7756758,,,,
352.6879998,1377,-7.701860011,-26.65738428,80.18687717,96.53857146,219.5869436,-192.6892123,163.9517562,-1.186129862,0,0,0,0.035149136,0,-264.0135366,-49.29194687,-377.8652248,,,,
352.6959998,1377,-113.4998456,-23.51944448,-166.2114639,-11.49787781,-47.01021963,407.4199013,-4.767881503,234.3833282,0,0,0,0.035286098,0,193.4120051,228.8265191,242.2218823,,,,
352.7039998,1377,177.8715523,122.46418,226.935714,144.5113517,-23.30801254,-347.9740754,-58.1108289,-269.5574154,0,0,0,0.035421643,0,73.63748075,-259.6613587,8.3606285,,,,
352.7119998,1377,-272.1559877,-208.2708636,-202.5364211,-27.38186331,342.2748693,194.7677637,295.8439693,319.4990683,0,0,0,0.035555774,0,-384.5704014,227.0610097,-462.1644666,,,,
352.7199998,1377,154.372987,190.2818443,65.44039512,79.08626999,-318.4295018,137.402473,-261.3470486,-140.7818412,0,0,0,0.035688493,0,570.3865749,-70.59037601,671.0586071,,,,
352.7279998,1377,-12.80012781,-55.88114054,125.3803081,121.3495289,358.8227659,-370.7115961,267.244267,-36.95142169,0,0,0,0.035819801,0,-515.4574454,-121.0858232,-656.4492168,,,,
352.7359998,1377,-168.4757255,-40.7850183,-241.6191038,-31.16940536,-59.32006199,573.3570055,0.414144095,327.6340096,0,0,0,0.0359497,0,209.9853221,325.6568891,294.0796996,,,,
352.7439998,1377,262.0831631,191.5277436,307.512004,178.205034,-103.5662919,-421.2703767,-142.4482359,-385.0184697,0,0,0,0.036078194,0,191.8770148,-345.8082736,126.7413585,,,,
352.7519998,1377,-332.1123753,-263.8625269,-240.0133217,-44.86232863,463.9156206,218.0489569,387.4600602,403.7204408,0,0,0,0.036205283,0,-550.2293381,283.1942328,-644.9648587,,,,
352.7599998,1377,211.6440331,248.4039736,94.0978651,95.29433053,-402.7400337,188.5668516,-341.3894601,-169.1053345,0,0,0,0.036330971,0,699.0659652,-76.56384407,834.6281596,,,,
352.7679998,1378,-42.93730334,-99.41979886,119.3105029,103.4704074,416.714856,-430.4208152,288.1183071,-53.29042484,0,0,0,0.036455259,0,-598.4047153,-139.8365216,-759.5698681,,,,
352.7759998,1378,-245.9486094,-113.4374381,-329.2406865,-104.740101,-47.44346833,607.2277179,-14.05366695,339.6199661,0,0,0,0.036578149,0,182.5532653,349.2626338,322.7617783,,,,
