Time:125Hz,Epoch,FP1,FP2,C3,C4,P7,P8,O1,O2,F7,F8,F3,F4,T7,T8,P3,P4,Event Id,,,
380.0319997,1484,245.6028397,118.6142681,208.5772663,-306.2882973,-17.73967416,34.69241773,-963.5108996,-806.9256863,-293.9981687,162.2272452,182.8778842,161.70475,0,113.3815081,-715.5871487,-215.4014561,1111,,,
380.0399997,1484,-199.5695273,-158.9492712,-179.4480111,207.2944032,123.908976,-46.52761114,971.4335273,763.3143049,100.3437119,-115.4121048,-82.59159034,-119.3633612,0,-239.1114385,358.1526317,-253.0518838,,,,
380.0479997,1484,221.6798857,268.1436632,61.50891526,-9.717741645,-231.5786743,68.11668655,-748.9520141,-292.3791481,-136.6566715,81.12320467,-65.20781958,-17.78452129,0,257.5184516,109.9509606,683.8492871,,,,
380.0559997,1484,27.66617039,-100.4840955,94.12107118,-158.7347371,215.347001,0.990224453,84.28104249,-163.8362226,-97.42658584,101.2441689,230.9808469,150.1089152,0,-122.2559444,-595.7790192,-811.3284825,,,,
380.0639997,1484,-70.64042853,80.76098875,-197.9413883,314.6761341,-146.5767391,13.4858175,449.8433571,663.2052621,125.1432357,-103.6510248,-228.760244,-196.2819935,0,12.32111876,776.6500824,651.0552664,,,,
380.0719997,1484,277.2108252,155.1138821,227.7767532,-285.4215834,-17.79866038,63.38531653,-986.7800164,-831.9718842,-243.6021089,186.9987225,205.7546527,183.8301564,0,152.671097,-713.456018,-206.6966807,,,,
380.0799997,1484,-184.1439574,-146.359674,-161.0535506,219.7217145,138.2648378,-34.26853769,964.2365763,713.3931709,153.5049175,-88.66247849,-48.0873875,-87.27745205,0,-214.7686037,334.1115884,-276.3805391,,,,
380.0879997,1484,217.4539619,261.9152343,59.05147511,4.995885163,-224.1614101,65.55777804,-732.9140591,-317.5547772,-89.80650396,77.97958129,-65.85321299,-16.97279596,0,251.2320704,126.1456337,696.4239013,,,,
380.0959997,1484,33.23586312,-98.69751511,106.7424447,-160.4248463,223.6402553,-4.136938947,54.23504616,-214.7570782,-68.59916793,95.07318242,223.4947053,147.2676391,0,-120.3567628,-608.0486344,-802.2014558,,,,
380.1039997,1484,-75.43030631,71.74417056,-195.8350896,322.1437185,-126.2648082,-7.356979325,471.4366768,667.6856258,166.5800174,-99.8548774,-230.24446,-195.3505556,0,12.8358588,775.1839383,647.4983691,,,,
380.1119997,1484,271.5459985,142.7144625,218.7950496,-284.0519481,-13.15186269,37.40162459,-991.9873248,-813.0751615,-209.7191662,189.8842777,195.6816932,174.8024095,0,140.9621824,-707.4423803,-183.1710901,,,,
380.1199997,1484,-207.3252796,-174.9844124,-173.511292,203.243261,136.8932121,-61.13374832,963.6580984,741.6435321,169.6859239,-110.0760511,-76.04878693,-115.2315494,0,-248.5200746,324.5524531,-290.29391,,,,
380.1279997,1484,182.8215889,233.6112127,28.41901012,-5.172809584,-240.1786497,31.20793924,-707.4531891,-258.9374584,-72.0607303,40.48716942,-110.5951091,-58.72110085,0,225.337664,154.4455929,703.6643713,,,,
380.1359997,1484,27.5237589,-101.0581817,93.95972806,-183.6112546,207.5552511,-14.70165215,31.68293551,-208.280504,-53.16331313,82.80218071,212.0270129,138.6648989,0,-136.8607202,-619.8255501,-814.1072791,,,,
380.1439997,1484,-86.17506102,71.16888576,-209.7071015,310.912691,-140.2844312,-0.283020664,487.97351,679.4071517,190.0693948,-111.2858553,-241.0326763,-199.3536195,0,-4.673815853,780.556254,624.1674097,,,,
380.1519997,1484,269.732794,149.1528266,201.8196183,-288.0786641,-35.23904553,41.35103318,-1004.203924,-837.9901785,-184.2387725,185.8419831,185.2356069,170.6932816,0,151.4964633,-686.2163127,-168.8962377,,,,
380.1599997,1485,-195.8785692,-169.0027015,-180.0750429,197.4295339,133.5797317,-54.58183159,955.8869144,694.7439128,207.1302093,-92.03877862,-51.95459823,-96.52027168,0,-248.1081485,320.3408921,-305.7092592,,,,
380.1679997,1485,200.1680934,253.5373634,24.48981541,6.604261902,-248.2162137,50.43996019,-694.3904577,-280.7847401,-27.54889087,53.60695748,-100.2791931,-49.73788889,0,218.2748247,188.3441674,724.3543897,,,,
380.1759997,1485,48.0535375,-87.91255637,94.93594854,-176.992823,199.23154,-6.012114298,10.50877256,-258.6635711,-19.24612204,104.2785669,223.3334584,150.1969689,0,-117.7752875,-613.4750982,-795.0296087,,,,
380.1839997,1485,-99.18878203,46.19392305,-227.584602,322.138557,-143.4697386,-20.3837218,526.3239713,677.7408936,224.9792513,-109.9145591,-244.9447257,-208.2662986,0,-0.576391992,804.8098228,631.9208563,,,,
380.1919997,1485,276.2534179,153.4814856,205.9643552,-286.7586302,-45.85043311,40.35338665,-1005.508153,-837.0908495,-165.7656151,166.0351449,156.8112703,143.9036243,0,151.84824,-653.8623109,-132.9196107,,,,
380.1999997,1485,-168.4518067,-150.4875024,-149.096691,194.5636418,148.4190418,-33.8333051,951.6741273,707.1201183,235.5568888,-87.37395944,-48.07340674,-90.9196028,0,-235.4580797,314.4100212,-313.4238981,,,,
380.2079997,1485,205.4194177,249.3003176,37.72426682,21.2578862,-230.1323068,59.00744311,-653.7667358,-208.7690191,17.14166606,63.6498623,-93.80906629,-40.54995193,0,228.5214911,215.2876614,741.378365,,,,
380.2159997,1485,49.82990218,-98.02354575,106.179326,-183.6619102,211.2271284,-6.225915111,13.02229458,-210.5459744,0.445476815,100.8949392,213.2899623,144.2366385,0,-114.2519133,-609.7907404,-780.3790027,,,,
380.2239997,1485,-96.93021808,44.40442622,-216.6352232,317.5254632,-124.9431602,-9.088165068,557.8905454,745.3734177,255.4857947,-112.9550722,-248.7401137,-214.1211736,0,-6.247413614,812.4229955,624.1774032,,,,
380.2319997,1485,278.0981814,158.238397,214.4415991,-286.3548508,-38.38737578,55.71272728,-1000.327663,-797.5262114,-126.3849013,175.0983029,163.3088632,147.8585961,0,151.5956244,-642.932253,-114.7150306,,,,
380.2399997,1485,-195.7806322,-178.9632939,-159.2298063,182.052144,149.463552,-44.07937394,965.5863677,705.111463,259.0439483,-94.32649262,-61.33429163,-101.5039037,0,-250.3588979,310.1458395,-322.7922803,,,,
380.2479997,1485,170.937193,226.9922744,20.61585285,13.81289105,-244.9999916,50.70791158,-627.9180941,-222.5991849,39.0477831,42.12308426,-136.8795262,-74.58373021,0,213.74749,250.3775281,754.4973359,,,,
380.2559997,1485,35.4363852,-105.2919687,109.5808935,-198.4304978,203.2622603,0.635625455,-3.436638464,-273.5946466,21.35865628,93.23089494,191.6811328,126.9187371,0,-116.1085775,-604.4782709,-779.1800334,,,,
380.2639997,1485,-112.4073538,27.09763669,-216.5130664,312.6337213,-116.337343,-4.348177753,594.3219172,721.579798,289.6714305,-131.1696423,-259.2098888,-223.8522143,0,-29.27084733,832.3846686,611.9247589,,,,
380.2719997,1485,286.6648389,166.7760732,222.4544946,-289.3697777,-39.82516846,64.59657956,-998.4579727,-819.6776914,-92.67395213,167.3185333,158.450215,147.1252281,0,147.0807916,-621.0851661,-98.16968173,,,,
380.2799997,1485,-181.1896693,-170.3452286,-147.1777686,176.362077,159.4155603,-34.31584583,964.7463077,695.9524756,289.7116064,-78.90787521,-41.79379968,-84.17581865,0,-230.2157594,296.7808939,-343.3618445,,,,
380.2879997,1485,185.8883918,239.8065494,27.86118288,17.14904495,-233.5897014,68.7998132,-610.8978832,-187.2888245,78.167468,49.33029042,-114.3754696,-61.21982359,0,220.1462773,270.6025255,761.3076695,,,,
380.2959997,1485,63.79468918,-80.45152905,131.917429,-209.2945556,210.684505,20.81266911,-41.97908637,-283.0789787,59.32060255,111.0704278,238.7217623,157.6002818,0,-105.8869056,-627.1196538,-782.1054778,,,,
380.3039997,1485,-104.628695,35.25215428,-204.3082214,312.6664446,-107.7580416,3.843896651,596.2056435,726.7836873,333.6940102,-110.1175757,-211.7426981,-191.7313322,0,-2.528557444,814.5487995,591.6470992,,,,
380.3119997,1485,287.0626398,170.5671441,230.039308,-296.870879,-42.56223036,75.23870581,-1030.835209,-837.0301324,-62.3008965,172.5551804,181.7009366,163.0586324,0,163.1520082,-616.6592813,-78.67199157,,,,
380.3199997,1485,-196.4081484,-188.8687219,-148.8241095,155.0419013,164.4562049,-33.22831328,931.4766007,673.5220403,313.5609622,-88.41020007,-16.74057937,-68.02769827,0,-242.6182089,269.5724205,-359.6287392,,,,
380.3279997,1485,156.0445515,211.3777741,-2.036636958,16.80215764,-233.6346862,44.61335105,-597.1993347,-146.5324764,98.28173392,22.38900343,-114.0196759,-62.13545379,0,214.3862153,274.5323848,767.1293639,,,,
380.3359997,1485,52.98545819,-92.46184028,115.9579265,-225.5840329,212.5935306,3.057362958,-65.96131625,-253.5300907,59.96035743,88.74947714,234.0151357,158.7441369,0,-115.1834886,-643.9605635,-779.8060433,,,,
380.3439997,1485,-117.13609,25.31553069,-210.4474916,295.2011285,-96.84585963,7.177789434,604.7819657,781.9376345,348.2827908,-120.7583517,-197.3573142,-174.4849935,0,-24.2952035,789.0670175,554.9826405,,,,
380.3519997,1485,276.7453888,167.371933,220.6695051,-296.1032237,-45.77922074,68.80064091,-1037.077674,-805.7004182,-44.58567394,168.0661338,198.8184717,184.4615445,0,171.8085682,-637.363487,-95.17395017,,,,
380.3599997,1485,-192.1314521,-181.8530486,-146.8010472,148.3496748,162.3541678,-43.7931145,921.5636842,641.5349737,335.3255007,-91.46011784,2.901923333,-46.40356131,0,-232.8509795,246.3803825,-394.9064933,,,,
380.3679997,1485,168.6488329,227.3445504,10.05905298,16.85806686,-249.3030596,52.56790402,-597.2608502,-214.0074285,137.6347977,27.94038285,-91.8744768,-37.53385711,0,224.8855829,279.4670575,743.0757229,,,,
380.3759997,1485,67.18238974,-82.13410076,133.5976106,-219.2235114,189.0667261,7.472288363,-101.7040134,-373.8264773,94.27762112,103.9904107,258.134136,188.8009005,0,-100.2831402,-653.8283164,-795.8258981,,,,
380.3839997,1485,-112.5433183,28.35030745,-201.8613882,307.1805131,-108.392878,4.86419154,613.5242033,698.6774295,387.6719614,-111.8538912,-188.4291589,-157.4301133,0,-30.44766902,815.5500641,550.0656358,,,,
380.3919997,1485,284.4753949,170.8527568,231.3695022,-282.4569517,-54.03971698,70.67222337,-1050.203729,-853.5690671,-18.69276691,176.6257274,197.0107784,191.024152,0,179.8742547,-610.4014753,-79.53557358,,,,
380.3999997,1485,-189.1672442,-188.9189559,-137.5605728,155.1119336,178.6086545,-38.77581102,916.3878783,654.4659427,356.2144897,-91.82591351,1.698887949,-46.94906201,0,-235.5832844,249.2772638,-405.6607896,,,,
380.4079997,1485,168.0237644,224.5505845,9.490926691,30.49666931,-219.5811262,64.18037791,-575.6478808,-121.6392613,174.2263918,22.69897339,-88.12821113,-35.85020899,0,209.8079806,302.449845,753.2780191,,,,
380.4159997,1486,72.13673356,-88.13328218,134.1301983,-217.5808335,223.3335489,7.019525148,-117.9703531,-294.8739533,115.013848,96.10186605,266.7894443,192.3903558,0,-95.28609098,-678.6724216,-799.4169893,,,,
380.4239997,1486,-120.2867714,11.52063575,-218.3382535,301.7540264,-73.80518282,-11.08058413,639.2922347,794.9984632,413.6124564,-139.974222,-197.2988644,-175.1128372,0,-32.70869934,800.2182101,537.34178,,,,
380.4319997,1486,281.3225354,168.1969095,217.9742829,-293.4476354,-39.8796282,60.18144559,-1057.64673,-807.0777476,9.26463655,157.3528008,186.5273179,179.5536143,0,179.2969666,-627.92661,-64.45435301,,,,
380.4399997,1486,-199.9667292,-199.8422754,-143.654647,132.0931263,183.1157661,-57.7825679,906.3897136,639.8409187,372.4258581,-100.1374002,-2.796168453,-46.25983433,0,-243.3108126,203.9261144,-424.7541411,,,,
380.4479997,1486,144.0168789,208.9178658,-4.401313536,14.14615957,-238.8872244,36.71032521,-557.4758229,-143.6054316,190.6006392,9.355674824,-109.7542756,-48.28084364,0,196.8204189,303.3792902,753.0416027,,,,
380.4559997,1486,69.95149495,-81.96834096,146.9403591,-241.3515567,199.4608385,4.308587331,-148.9216805,-375.9882233,119.9788675,100.2582265,251.3818888,187.2664651,0,-104.4950066,-696.3593556,-814.5792268,,,,
380.4639997,1486,-120.8722157,16.9373337,-202.3084955,298.3073924,-82.73365418,-2.44193323,654.5024871,740.9733923,433.4822567,-118.2453383,-192.8647597,-163.7504393,0,-41.93051718,802.3193782,501.3242921,,,,
380.4719997,1486,278.9939725,162.4003875,217.3703537,-279.3085718,-57.31648244,54.50815729,-1054.513642,-851.096497,33.95082864,183.6461984,201.9306674,197.9706931,0,198.3890522,-606.7759093,-63.56023065,,,,
380.4799997,1486,-200.9956469,-209.3642353,-146.0522765,135.9282959,176.4067922,-67.32368015,909.2786639,604.3743669,384.0151409,-102.6319541,-5.775447868,-55.32506553,0,-244.1154036,209.0387183,-445.52812,,,,
380.4879997,1486,153.9076324,218.2037864,-3.757480589,29.82284827,-234.8389295,41.58147654,-534.450085,-116.9303088,217.7004626,-4.952510536,-121.6568815,-67.90373252,0,192.8434985,339.7161035,764.0580058,,,,
380.4959997,1486,75.55419137,-88.97382631,146.0943796,-227.9324229,215.0785764,4.893582581,-158.0841297,-342.7732033,149.0870766,107.7810985,269.7195586,200.9851295,0,-76.82582637,-707.656775,-803.2447542,,,,
380.5039997,1486,-148.5113637,-13.58175524,-226.4520038,306.5619276,-69.17030758,-18.13332922,704.6529914,830.8048108,445.0429984,-145.587002,-215.1357155,-184.2985369,0,-55.83552854,808.3604742,508.4922032,,,,
380.5119997,1486,297.3177345,188.9560685,226.4465223,-282.0261251,-55.69976669,67.13282779,-1056.718271,-782.5564092,44.74369808,166.5497298,178.3811621,180.6098419,0,178.8955279,-597.0400314,-27.49804175,,,,
380.5199997,1486,-165.0173203,-173.6287895,-110.5152887,139.7563393,201.2173318,-40.1965229,895.448836,637.9604203,421.1140823,-60.57250759,31.93929727,-14.13466581,0,-226.6146287,163.6162458,-464.3720165,,,,
380.5279997,1486,149.3525362,224.9144383,0.68560339,54.37814754,-224.8169121,42.66003574,-491.5260237,-70.74413967,253.48,29.55034448,-114.6231119,-47.08703824,0,212.5230148,348.5357461,776.3861795,,,,
380.5359997,1486,87.89836067,-71.42143516,160.4461499,-231.1418338,207.715513,-3.354910948,-167.3357994,-385.9228769,159.729861,130.5484533,261.4485362,206.0098209,0,-70.62805484,-713.2107148,-793.5854575,,,,
380.5439997,1486,-137.1910702,-0.372624585,-210.8691225,307.4356625,-63.29004002,-19.71656141,730.8234041,776.1917308,473.6597941,-122.9847733,-209.530711,-174.795952,0,-51.74597367,801.9977619,478.4336441,,,,
380.5519997,1486,293.2282887,188.930635,234.4426283,-268.9178711,-55.46710847,75.69310798,-1041.590393,-844.8291144,77.21291017,185.1929932,179.2967902,185.7689393,0,197.7700182,-584.8373582,-23.35289388,,,,
380.5599997,1486,-178.3079876,-196.2740088,-106.2156001,134.2566518,207.9191609,-36.45055838,908.3265715,573.1198903,441.0360853,-64.88691119,23.0873332,-28.29246966,0,-226.1175821,163.6221594,-481.1911333,,,,
380.5679997,1486,133.8130357,203.340038,-10.19193432,52.23513398,-221.7135779,42.63912533,-453.7219213,-72.72814448,279.6783396,0.449925856,-144.0715503,-85.92315459,0,203.905552,389.0095472,787.4835483,,,,
380.5759997,1486,82.62273368,-88.10445616,160.9394289,-235.4197419,212.2719828,0.463924392,-177.1465083,-384.8265451,182.3531542,120.3583333,251.3325271,187.2807324,0,-68.5790586,-712.1576962,-781.8541753,,,,
380.5839997,1486,-155.1182134,-26.94204544,-218.1893688,305.9914514,-55.29332497,-32.66415144,766.3874616,839.1977212,503.0711967,-136.4138562,-225.6644542,-201.1879705,0,-66.76822857,820.2061762,486.6184637,,,,
380.5919997,1486,283.8908116,182.777571,222.5235429,-281.615581,-67.34882292,49.37409541,-1032.175317,-771.1506111,98.24193371,166.246984,151.8104297,154.3834157,0,183.0019953,-545.5787229,27.63328014,,,,
380.5999997,1486,-190.0616477,-206.214954,-115.4045173,119.4082845,198.7887165,-68.91715809,913.4476238,627.623081,452.6361832,-65.93057679,20.37119015,-27.46482679,0,-236.4668457,159.1736754,-479.4995316,,,,
380.6079997,1486,113.926589,199.1460268,-29.09176143,52.85742267,-245.2094474,15.01279687,-415.5143629,-7.369362942,295.415143,-4.653693616,-161.6331691,-90.8981365,0,187.9354476,424.8837292,800.4831231,,,,
380.6159997,1486,91.04890775,-72.64429044,160.5447582,-250.8083428,183.9045924,-7.500363241,-194.2647509,-398.5336473,190.8024461,128.3538631,253.3601671,199.4548009,0,-78.67245211,-707.1837258,-786.6219128,,,,
380.6239997,1486,-152.1692296,-31.39359866,-224.5248795,305.1734113,-68.08217852,-39.50160028,796.8659822,815.3686416,527.9872711,-125.4073339,-202.3296116,-176.7270329,0,-68.54645502,823.0927636,444.3742584,,,,
380.6319997,1486,278.982452,180.0356644,205.5161277,-284.4203777,-92.0423848,46.18998532,-1022.558487,-834.8977605,119.7108251,158.1340467,151.8838204,156.4570052,0,184.5620419,-518.589458,26.01700865,,,,
380.6399997,1486,-182.7952941,-200.9812121,-120.6905229,104.0014449,187.1953603,-56.08202047,905.6879607,520.6650943,470.4531095,-68.68001874,33.00466207,-18.48861189,0,-248.0648297,151.5931221,-512.0603872,,,,
380.6479997,1486,136.7790353,214.4608932,-24.4585212,64.51674258,-245.198583,39.89294342,-388.5804518,-70.87664851,338.4633241,1.88569404,-136.7491678,-75.47916742,0,196.1996642,449.0634417,797.5286263,,,,
380.6559997,1486,109.1276003,-62.33943371,169.6055766,-247.8481377,189.487284,12.6765316,-211.06815,-467.8057374,225.0903751,128.737568,271.5993903,210.0436902,0,-53.9262836,-708.3518375,-769.4902252,,,,
380.6639997,1486,-174.6890349,-53.32238551,-246.9754833,311.9169379,-53.40816298,-41.85899366,830.6278566,825.0452486,551.9100202,-145.0385653,-217.6271678,-194.3722122,0,-73.30220102,824.8857529,449.3952596,,,,
380.6719997,1487,285.8311211,185.4662713,200.6782502,-275.3645543,-83.83542086,54.21234562,-1013.322032,-773.3353854,139.2864659,148.0999024,126.7720021,133.323971,0,185.8518839,-502.4724046,63.25971983,,,,
380.6799997,1487,-159.5945903,-191.513628,-98.47678025,101.0479989,211.629068,-40.53018337,898.4475344,600.9941451,493.1157006,-60.17301762,35.84968426,-17.84103194,0,-247.1043026,126.6958095,-520.9438331,,,,
380.6879997,1487,122.4932664,198.9513707,-34.49347824,76.83759049,-228.0164322,35.39122311,-345.155242,67.42707577,367.33568,0.961873859,-151.9932084,-90.64940184,0,177.9299205,462.0384134,800.6934783,,,,
380.6959997,1487,122.6672837,-51.13454337,175.2722353,-250.8921442,193.2692677,18.75004282,-220.2970188,-384.8814361,238.3090208,136.678959,261.1913998,200.2636056,0,-66.46179393,-714.4571178,-772.8362876,,,,
380.7039997,1487,-159.5238026,-46.37012922,-234.5542223,311.8442956,-46.6926597,-29.64757521,853.0314254,886.0062781,573.9430026,-132.4795282,-206.6284131,-184.6838853,0,-75.53937968,817.9539507,411.0986135,,,,
380.7119997,1487,279.5576583,178.4898089,194.7631341,-270.9555176,-100.1250728,55.30775064,-1001.121999,-770.5657386,158.198896,146.815164,125.5716341,136.6836997,0,191.8891909,-484.5379057,64.48378798,,,,
380.7199997,1487,-143.7119638,-177.5002769,-84.21544089,98.81121377,201.3886114,-18.60437876,883.1252585,517.7123079,509.4751608,-51.32491132,51.52274225,2.12327378,0,-243.4413624,114.7120035,-543.4224223,,,,
380.7279997,1487,131.6568202,209.4899884,-24.67153376,98.77394247,-228.3370496,58.25711493,-329.8637721,-10.64309548,403.1564641,23.4490108,-127.5444103,-60.0661535,0,200.3778785,482.4725492,808.3899345,,,,
380.7359997,1487,107.2268084,-65.33800759,168.3673694,-247.5138071,190.5763591,7.785418542,-234.0053531,-494.6681675,251.1346881,139.1748045,257.8626227,204.1258933,0,-52.15418048,-701.1095711,-741.9784644,,,,
380.7439997,1487,-157.4287405,-39.86958465,-228.411649,315.4374673,-29.79606322,-24.10548509,872.4120211,814.6428062,592.209655,-137.5114467,-212.5161264,-184.9955999,0,-91.82464826,833.9454377,421.4939813,,,,
380.7519997,1487,295.1657398,196.0601474,203.0721705,-252.8847174,-76.51606194,69.903739,-998.6928556,-796.0216571,192.2927663,165.1761488,134.0259133,151.8156992,0,209.1984598,-464.8703745,105.2676548,,,,
380.7599997,1487,-156.0319434,-194.5512582,-99.53614232,95.17699516,231.613125,-33.9919593,881.9058689,530.8541205,523.7519103,-50.62414923,38.35553998,-9.566748399,0,-230.4957212,102.3537928,-540.4707144,,,,
380.7679997,1487,122.3495033,203.6323339,-45.47677806,96.31728165,-201.7408202,49.63414147,-300.4120281,77.78844134,419.7343067,2.964779787,-160.1151785,-91.13028232,0,185.4401698,495.989131,810.1335052,,,,
380.7759997,1487,108.275978,-67.72493495,157.5889755,-261.3504755,207.8867733,5.405446106,-249.2450847,-423.696036,263.660486,135.8458414,242.2287771,192.0419607,0,-55.19697017,-726.1982375,-750.3725092,,,,
380.7839997,1487,-171.8105096,-55.89429964,-241.5080671,300.9819481,-17.3061263,-27.72728387,891.0331341,901.6223552,603.6368721,-142.8823346,-230.9476184,-203.0512751,0,-109.5987063,810.6242448,383.3542362,,,,
380.7919997,1487,297.5231145,203.9152141,207.3820539,-261.3439283,-83.42172822,81.20655703,-1002.448632,-739.8746383,204.9697944,167.1213332,120.9206241,133.6962907,0,195.987664,-463.1114715,100.3263516,,,,
380.7999997,1487,-152.0446746,-197.8667642,-83.30949089,85.78742986,225.6075296,-21.70238785,873.8275902,522.0150109,539.0875657,-36.09911342,52.89582931,-9.381587928,0,-229.4863992,79.34718927,-567.4002373,,,,
380.8079997,1487,119.1521255,191.4596413,-42.29054361,103.3099721,-221.7708233,56.69070719,-267.5711717,63.65842709,445.9636724,-3.376232068,-161.539757,-107.2888484,0,189.8675236,530.0032999,826.4881734,,,,
380.8159997,1487,119.5910894,-72.61577052,161.1048608,-269.1043494,172.9122339,6.671509594,-262.1403958,-502.2047922,279.3800423,128.4168593,240.922265,173.7648369,0,-46.26397977,-699.1115838,-715.0849929,,,,
380.8239997,1487,-176.2540038,-79.26849786,-255.4078494,297.0914966,-38.87566597,-39.90190591,924.095712,840.362808,624.8867582,-151.5576956,-226.6176126,-216.1177845,0,-118.9840989,836.4247757,392.4173391,,,,
380.8319997,1487,301.9062058,198.215006,189.1715383,-264.2160861,-104.3078986,67.76593834,-988.1729993,-787.5921404,221.6484702,141.8015755,104.5050616,113.016923,0,189.2579934,-420.4138143,149.2770934,,,,
380.8399997,1487,-137.0841961,-193.6815839,-90.02468045,70.47712499,224.8975119,-37.44688287,865.5043884,477.953815,548.4820658,-56.3509465,47.63566016,-17.61363184,0,-238.4106636,73.31414076,-562.8078694,,,,
380.8479997,1487,120.7416572,191.1299294,-54.71747316,110.19397,-208.954501,33.81628096,-237.3037452,94.00379998,470.1694199,-12.61227693,-162.2428751,-111.2836446,0,173.7766527,540.5061019,830.4662434,,,,
380.8559997,1487,147.7163361,-46.77745958,180.7858976,-271.2998037,190.7208675,0.260932715,-291.5523717,-483.8556347,299.946811,132.9453648,250.7443541,186.400653,0,-43.38198865,-722.0069469,-715.7096738,,,,
380.8639997,1487,-147.6051083,-54.55992161,-224.0909236,299.5988567,-12.00820805,-38.93361861,927.8382518,898.5283261,658.5036546,-139.7153575,-209.2071024,-196.4704296,0,-114.2185089,806.670071,354.8585324,,,,
380.8719997,1487,310.9108506,205.570168,203.5674689,-251.3950866,-97.2743511,56.52873826,-984.7307585,-715.7857193,260.5368435,168.888022,113.6900075,123.316731,0,198.1584514,-421.1571959,150.5988235,,,,
380.8799997,1487,-143.5070919,-201.9429352,-85.26499704,64.51298539,222.4129165,-51.57373003,854.4001251,508.621541,570.7580078,-35.53987867,45.07920077,-16.56343535,0,-235.2733527,54.28998744,-585.5338848,,,,
380.8879997,1487,105.7429359,186.9795066,-66.3540378,109.2964157,-225.8743112,32.8958354,-212.8949556,135.0505226,492.5599015,-16.8633192,-185.9047153,-127.4797824,0,162.4611404,561.6424316,825.6722865,,,,
380.8959997,1487,60.60888941,-187.5709065,170.7354272,-307.1398176,335.9869723,-15.00608879,55.17793667,-402.2844268,340.9171701,140.6826522,343.0489398,232.9422952,0,-195.3781903,-932.9617295,-1242.025786,,,,
380.9039997,1487,-339.3534399,-234.9791545,-360.5314753,399.3496303,100.9067381,-73.49155451,1616.223979,1298.013566,782.7578053,-220.5655884,-237.6366723,-261.2706148,0,-288.1672774,973.6445916,59.33014141,,,,
380.9119997,1487,371.784844,339.8633655,154.1658517,-227.7997985,-323.6324943,82.24440601,-1414.488681,-872.2341867,232.5556861,131.0036964,-47.3157637,19.25468471,0,371.8753178,-113.2641596,852.8439847,,,,
380.9199997,1487,-103.735206,-280.3218787,8.940773236,-132.2711188,318.4884483,-65.86304257,630.4139245,123.0283929,457.4400141,15.51403989,182.1904183,89.40238587,0,-279.7133317,-471.8237157,-1042.959623,,,,
380.9279997,1488,-93.98534042,31.38301278,-241.9192341,283.9396151,-173.8598815,-26.44757704,587.3760952,738.903271,632.987921,-150.5706779,-301.8245708,-253.7996539,0,-5.949213034,947.3174233,794.9657617,,,,
380.9359997,1488,310.3006476,141.3022785,240.7156849,-370.5699881,-44.81195704,39.675159,-1061.430365,-925.2467435,216.0896307,176.7861335,189.6328412,169.8294792,0,148.9183545,-715.7829703,-151.0044125,,,,
380.9439997,1488,-251.2924001,-258.7868454,-206.627133,173.7251924,185.6638785,-88.66964636,1237.226086,841.5450008,669.2321276,-130.8905807,-60.80054393,-120.474761,0,-315.3953772,385.982166,-417.1973505,,,,
380.9519997,1488,193.3035024,237.8417889,0.851422377,-18.37565536,-274.9327565,38.70890813,-587.4069897,-196.1424981,425.7905647,21.1039927,-149.9923745,-92.04152178,0,212.6585498,347.1972534,834.2387062,,,,
380.9599997,1488,91.6635704,-87.41212732,136.8393409,-237.3355099,198.6451409,-0.309770794,-24.66101221,-314.3257442,393.9226192,115.8752873,236.9802657,164.402295,0,-101.6906927,-632.948338,-796.5851153,,,,
380.9679997,1488,-136.6161347,-42.38514813,-230.3638563,286.6781501,-69.73264169,-34.35651731,836.8934033,815.5382346,692.1347957,-122.9983279,-208.7786882,-197.3576687,0,-78.07311191,818.3586961,449.0836868,,,,
380.9759997,1488,288.5612422,167.9840706,184.3622542,-277.3210093,-108.6387707,40.37008621,-962.0746408,-777.0707157,281.6678299,144.9461119,115.4261389,110.8426823,0,182.9762133,-467.6428229,100.7112602,,,,
380.9839997,1488,-154.5152931,-212.4904563,-111.6379085,80.212947,204.6480904,-50.94773982,941.8142021,541.3666377,621.4377304,-71.28177242,27.78215668,-40.70132516,0,-260.0748745,121.3441401,-535.1091456,,,,
380.9919997,1488,119.9041094,175.8436153,-60.5914368,84.18840705,-232.6548092,32.04158421,-253.0683663,64.13412552,517.3369031,-17.97631963,-172.5690689,-122.6302493,0,159.7410421,522.7849699,838.7985494,,,,
380.9999997,1488,171.8625583,-191.0068294,315.1503951,-530.7105559,385.6868582,-12.81705868,-428.2532376,-928.6863344,235.3239782,221.2253001,487.3945057,353.1772593,0,-167.5533516,-1482.815207,-1564.060927,,,,
381.0079997,1488,-294.90504,-315.9992444,-231.9252564,217.2312023,247.1496283,-93.04235455,1482.765674,986.4162387,726.9638266,-153.1322336,-55.10402838,-121.544741,0,-361.114732,407.2827267,-531.5140236,,,,
381.0159997,1488,207.4368359,302.8424189,-52.70303385,70.50358551,-389.2831161,42.98626828,-671.7769924,-109.5655606,460.5825499,-9.417839169,-250.0832872,-151.61842,0,311.4410557,619.8229578,1294.190258,,,,
381.0239997,1488,73.95264889,-135.0432246,129.9194283,-286.7192789,225.3326188,-19.67638488,-76.43144423,-402.4831183,369.6000021,101.6228012,248.7347318,171.7556956,0,-127.3076494,-755.4560988,-887.5251624,,,,
381.0319997,1488,-166.4379819,-109.4124995,-221.0602295,214.3478027,3.991247095,-44.91508035,853.8248619,722.1720634,676.3279766,-135.4760162,-178.0152057,-179.3490114,0,-144.143704,648.692459,198.285032,,,,
381.0399997,1488,191.8156171,170.3549982,44.55031598,-101.6661498,-201.9026536,30.17798954,-643.800879,-378.2955536,401.4215324,42.52031568,-76.55470519,-35.02043925,0,188.1592983,78.38279206,551.9133409,,,,
381.0479997,1488,-38.59337147,-191.6599106,26.63238462,-131.1491816,215.0603201,-39.39280774,390.8696036,-4.011217362,488.014751,16.56947855,136.9893636,68.45590963,0,-193.9005335,-384.8378658,-750.6207474,,,,
381.0559997,1488,-53.42352779,31.86020055,-175.9716571,210.2799249,-141.9409991,-8.002218989,442.9998212,532.6741691,642.2925446,-104.2670103,-229.8681322,-187.8061412,0,5.835365978,727.2142428,644.1867343,,,,
381.0639997,1488,222.6621393,100.4963802,163.5495439,-231.3657165,-20.80168911,51.71544865,-608.591311,-564.8963964,370.8922068,126.33162,121.901208,116.2732721,0,102.2869768,-436.0290276,-78.81901274,,,,
381.0719997,1488,-105.9088177,-148.4791683,-85.79404835,88.20237515,148.6224761,-17.85402233,777.9391099,485.4239821,658.1838219,-45.45948371,10.66830352,-33.59990321,0,-184.9969679,164.3128798,-323.7633852,,,,
381.0799997,1488,103.1319,149.9467857,-59.44231942,73.19919467,-212.4500318,21.90404601,-205.1223272,74.28143092,558.1280699,-16.38717719,-159.1277057,-112.7899362,0,146.6664622,466.6926978,763.3501937,,,,
381.0879997,1488,96.44745424,-78.57825383,123.0365344,-236.3642636,149.7616002,-14.21695259,-135.4125562,-355.5065022,421.4809465,90.30316548,187.9093993,131.3893339,0,-70.08554297,-586.5872393,-615.2385763,,,,
381.0959997,1488,-137.558838,-56.84806768,-213.4787951,253.8623782,-43.08143166,-35.50937218,833.6605688,788.3585344,726.7935946,-135.5265166,-198.3700301,-183.6593333,0,-95.22688501,744.7677088,379.6650301,,,,
381.1039997,1488,242.7585183,152.3144555,140.3855628,-230.7986191,-112.3300317,42.74604838,-792.2775901,-600.8927418,379.8534124,112.2831963,77.03184992,86.68497592,0,158.7107964,-311.3006392,184.4514405,,,,
381.1119997,1488,-132.4137583,-201.9452686,-82.01804411,8.537648501,188.6001067,-46.33446429,750.7085152,391.0933047,630.9288541,-57.23518199,47.11300014,-11.70805449,0,-237.106561,16.2200491,-532.5309351,,,,
381.1199997,1488,60.97145602,146.5989114,-98.11449811,109.4980857,-216.3761558,23.32539833,-61.77391593,212.7857817,604.719857,-63.55176747,-187.7358856,-130.8573468,0,128.1710913,615.9613463,812.612931,,,,
381.1279997,1488,143.7458304,-38.29133093,162.7796565,-297.0368709,136.3586205,11.82700895,-349.0900547,-519.4860053,401.7946657,115.8855204,249.9750394,199.3734162,0,-17.95705079,-683.9188092,-602.6269718,,,,
381.1359997,1488,-194.6594587,-113.3356425,-254.9843949,256.0508536,-6.708625319,-49.44091632,991.3309251,869.2349179,754.4525191,-168.6562527,-178.7809018,-172.6577938,0,-146.0920623,762.3699809,284.8907176,,,,
381.1439997,1488,261.4893225,187.7505571,136.1516357,-240.9272228,-148.2647596,51.81019318,-871.9860557,-646.1104533,382.3850741,100.4117124,77.72396436,102.1118364,0,190.8342707,-272.0021792,294.049493,,,,
381.1519997,1488,-115.6342163,-193.1488725,-60.87021733,-11.29784084,201.4907784,-37.36512533,747.5615072,346.6551113,647.4947361,-33.85247312,106.2759954,50.59920189,0,-227.5494202,-39.61118267,-600.8038312,,,,
381.1599997,1488,47.13498032,150.153517,-112.6193781,132.3450265,-237.1880476,16.34459886,-5.630080331,250.0989498,638.3235867,-63.55707092,-189.8626291,-123.4183268,0,122.0823115,698.622439,856.4780857,,,,
381.1679997,1488,158.6264767,-15.52322106,183.8072804,-309.4365327,113.9848556,10.51205735,-419.4104012,-589.2066887,404.8063052,129.9128158,256.6177464,220.4460909,0,-1.256318631,-687.6010681,-592.4409325,,,,
381.1759997,1488,-195.1707398,-98.98284157,-233.7422395,273.8627729,7.125967424,-41.41719552,1041.353819,900.1884232,790.1110088,-149.8982409,-162.2015861,-139.841619,0,-126.815672,783.1778513,231.0254927,,,,
381.1839997,1489,281.5269997,229.9742704,166.5626878,-217.3876633,-144.2292038,73.89512699,-905.4817626,-632.8314419,414.4024952,131.9396243,96.54595024,136.4277109,0,237.7695714,-246.5508635,306.9248834,,,,
381.1919997,1489,-114.5690374,-189.1338663,-45.66790823,2.921483143,232.6969821,-24.98012494,742.7121631,363.565415,670.1709842,-14.58388676,144.0305588,83.17896267,0,-205.8220021,-79.64038257,-665.4246423,,,,
381.1999997,1489,43.68105895,150.6602834,-121.5783493,158.2932323,-214.3172971,26.7559301,27.55507606,306.301309,667.0790169,-68.80768369,-175.9977722,-120.2605763,0,141.5073468,708.4624424,845.5291913,,,,
381.2079997,1489,181.0366899,3.257056502,196.9763186,-301.354017,139.0444994,28.72740247,-453.9518463,-598.3596349,426.9316348,148.0892916,290.5073362,240.6549542,0,24.51916958,-720.2043775,-593.2953146,,,,
381.2159997,1489,-213.333006,-119.9859469,-246.3875457,290.6802888,38.04088237,-47.18123106,1080.901707,917.7661136,813.3631239,-141.2417213,-136.010475,-131.1722614,0,-134.9432784,762.0829521,223.8260771,,,,
381.2239997,1489,254.7554263,208.577196,138.5755506,-216.5564293,-145.4656481,53.16514173,-890.5050389,-643.7857238,409.0173005,108.303263,67.92425036,100.1130527,0,230.2632648,-231.7288027,371.2154556,,,,
381.2319997,1489,-118.2665333,-191.1026543,-41.12087966,-19.85833942,242.3563534,-32.84187566,729.4980358,315.4644482,662.7365354,-19.7375337,131.4244359,69.10034028,0,-208.1797765,-111.0137799,-650.1143249,,,,
381.2399997,1489,39.26696842,157.3523807,-110.0727359,161.2595801,-199.5632364,33.88270431,44.72547235,305.2923402,683.5569906,-50.34639752,-168.9456685,-105.5372374,0,132.4241471,694.6563261,857.1581402,,,,
381.2479997,1489,182.6193407,14.51734592,215.25481,-305.4324158,145.0663248,38.48103838,-482.7477249,-619.5671855,424.370604,160.5601938,282.5129882,246.0950645,0,17.5685294,-753.4653807,-590.9073886,,,,
381.2559997,1489,-226.561974,-130.5158294,-236.4089092,287.2608164,46.55344195,-49.23624167,1090.371411,930.7022293,816.5146993,-141.0273927,-152.3962471,-139.8527073,0,-138.1650831,732.8150589,180.0382456,,,,
381.2639997,1489,244.0080658,202.4900152,143.2494049,-206.3906522,-154.5046925,53.13070434,-890.1132995,-617.1630243,420.9183245,113.5565987,59.4821419,98.62746133,0,240.3530245,-240.4962744,350.0788029,,,,
381.2719997,1489,-127.56219,-201.9618563,-37.93421063,-20.80495291,231.7283617,-42.95966905,720.8122215,317.3770298,662.8940284,-21.71852216,128.7847422,68.5943841,0,-216.453063,-142.695923,-696.2044955,,,,
381.2799997,1489,-0.89215834,115.4661483,-145.5162999,162.3893076,-226.378427,-6.380357065,90.4321966,342.2313362,686.0329982,-78.73638522,-195.8513284,-135.837968,0,111.9036527,720.2519643,846.4662627,,,,
381.2879997,1489,161.8694729,-8.34372364,183.6845147,-323.8657875,108.8245909,7.166125358,-484.6437532,-625.7100786,408.8562751,131.0321709,255.5679324,211.8356942,0,2.124022149,-735.5699835,-569.9851453,,,,
381.2959997,1489,-226.5414869,-133.5879984,-248.7560435,272.4108662,35.86168844,-61.09342211,1114.249496,926.6447815,815.4271972,-153.6988337,-150.780043,-150.0988689,0,-163.9788429,739.6363858,179.2018858,,,,
381.3039997,1489,235.5940131,186.4149978,120.298506,-206.7247941,-168.4766906,33.52077256,-868.6258457,-619.7450022,435.8956286,112.1210251,68.05621835,99.81929425,0,228.0487453,-215.1890128,386.348486,,,,
381.3119997,1489,-140.6649013,-226.5090401,-62.52166153,-41.08217763,227.7013339,-60.99357931,718.5656591,276.6117991,652.3286784,-39.67378106,112.141705,48.26425063,0,-241.6858711,-152.6289463,-686.3255213,,,,
381.3199997,1489,-14.58259541,105.1542349,-162.8353595,153.2104216,-218.7458929,-7.930035484,124.5513765,329.745236,685.0400849,-104.8164794,-231.8110592,-169.8762543,0,82.40226541,736.0195666,855.9103454,,,,
381.3279997,1489,166.5063396,-8.57142692,186.9110433,-327.07014,109.040878,14.58653777,-503.74556,-670.7696888,420.5667081,132.9678998,251.9390026,212.7114867,0,11.65201661,-753.1629648,-564.7053044,,,,
381.3359997,1489,-225.6199991,-145.5058665,-252.8691775,268.6768355,39.83381336,-56.36712883,1122.415223,906.2168381,823.056112,-163.3227643,-161.0086863,-156.7641802,0,-168.9439368,713.6943486,148.8123292,,,,
381.3439997,1489,237.462946,185.7504971,112.9683517,-206.7799498,-171.4855534,37.3982036,-863.974202,-610.1098355,441.0440865,94.32599655,34.42033684,71.68388297,0,217.8531551,-209.1277334,388.3448456,,,,
381.3519997,1489,-113.9639829,-208.0144785,-37.56707288,-42.98341038,233.2981509,-41.00587589,687.0919476,265.8909898,669.6926196,-24.22065794,119.8018315,56.38956757,0,-226.9831545,-188.422856,-717.8956483,,,,
381.3599997,1489,9.182684732,123.3795983,-144.1487347,168.0127852,-217.6136551,12.53802937,135.8640496,364.3175253,716.2504418,-85.37486478,-220.2128063,-153.761554,0,91.95389679,735.7210864,836.3955615,,,,
381.3679997,1489,166.1628963,-16.85037968,181.733284,-325.8792557,94.6219213,2.260522836,-518.6933461,-658.6544821,428.2927214,143.0545444,244.5489905,212.9417533,0,12.47401224,-755.562919,-559.7764823,,,,
381.3759997,1489,-247.9647281,-169.0135034,-266.9902509,261.714049,30.79590578,-77.74159007,1144.799624,916.0558999,825.1898076,-173.3315696,-179.7998302,-172.4714542,0,-188.3263852,717.8446708,135.9512634,,,,
381.3839997,1489,225.287694,186.5903063,108.1706708,-209.7129825,-192.0362006,33.47487976,-846.6366578,-611.7756629,439.2398592,77.92586442,9.318573315,55.74283789,0,209.5883741,-172.1284931,420.6627273,,,,
381.3919997,1489,-135.3204833,-227.9149031,-44.46126573,-58.41874192,219.4688875,-55.50960122,683.3733149,224.6757581,655.7549032,-26.76460416,117.7009779,56.10685682,0,-217.0110905,-195.7902277,-714.3159575,,,,
381.3999997,1489,-27.56344884,93.9098739,-167.1883327,159.4429966,-225.5727323,-7.023743209,173.9213308,350.8968587,712.3082724,-107.8022679,-238.0176582,-182.5286686,0,78.64440028,760.8270581,845.5230279,,,,
381.4079997,1489,167.6681897,-7.704159691,193.6413549,-343.1023438,89.73136378,8.980332329,-545.5069468,-717.2987154,420.9936504,124.2878266,229.0091954,186.4775887,0,-2.67810318,-752.2833172,-544.8524691,,,,
381.4159997,1489,-239.2766654,-163.2433137,-241.6596977,257.3276079,48.96034604,-66.03733691,1140.405484,872.9950995,838.3795855,-168.1285106,-165.0350051,-171.5623065,0,-188.6800317,696.3910575,101.8360861,,,,
381.4239997,1489,240.6098199,202.3964827,124.4023386,-197.2310552,-179.524496,39.47392341,-854.8237727,-627.1942637,465.1765179,88.59903862,23.68347609,53.4255735,0,209.749665,-170.8493543,412.5060694,,,,
381.4319997,1489,-95.32957919,-191.8766282,-6.003924037,-53.20604771,239.6901068,-37.07898987,635.2254161,192.1687035,678.3612314,0.292536352,149.4296745,74.95352803,0,-227.6205859,-240.9447498,-753.5923544,,,,
381.4399997,1490,3.022754313,123.62554,-138.5977944,191.536643,-202.4356639,14.84900454,178.7465673,384.5935542,754.9250711,-72.53571608,-203.6018864,-151.0926315,0,98.826349,746.2584573,819.1100799,,,,
381.4479997,1490,187.8102418,8.540449319,202.231883,-319.8279652,95.91641941,15.07553181,-569.912498,-686.3149684,448.9240126,152.47076,250.9632907,205.6215577,0,31.81859732,-767.7790745,-539.9622736,,,,
381.4559997,1490,-239.312339,-166.0133697,-243.9347613,263.4031981,56.32829107,-64.99406858,1147.357006,920.5488263,858.7268938,-156.254206,-153.7600776,-165.9077614,0,-203.5027779,682.0429717,87.25287245,,,,
381.4639997,1490,237.8487977,205.3529282,125.2019919,-186.5512211,-183.1609982,48.30794422,-847.3829289,-581.0677767,487.4891832,98.26592567,27.45097165,59.25070332,0,207.6390977,-154.3592441,443.5992954,,,,
381.4719997,1490,-112.0633166,-213.2142896,-5.81013262,-59.20501577,239.5360835,-49.42043282,626.0435131,182.4529716,683.8378183,3.165593846,148.4193652,70.99093843,0,-229.5433946,-256.266757,-736.5240066,,,,
381.4799997,1490,-45.715603,77.77450427,-163.4779385,181.8922574,-208.3269344,-15.30582883,224.8349019,385.5689917,757.0018705,-101.5903166,-240.797672,-197.3634603,0,43.72279217,780.8537363,851.3052823,,,,
381.4879997,1490,168.3430682,-0.874397279,202.2336762,-339.1076912,82.72154814,6.072867329,-590.3301447,-750.938083,439.7669266,135.6908196,219.8518151,171.3266271,0,-1.859117912,-753.3462611,-502.591365,,,,
381.4959997,1490,-244.1593421,-166.1059754,-222.590707,262.1439067,67.69777666,-59.72010376,1143.108992,862.6674296,866.2054753,-143.1563099,-154.4221333,-167.3630287,0,-196.0485777,658.9961415,73.12682675,,,,
381.5039997,1490,219.4456665,186.4734439,122.3625848,-171.9449382,-180.8315459,43.4379998,-829.0584391,-579.8103353,501.6086656,105.866219,8.95332147,39.55473596,0,214.8617155,-145.4733623,466.7984108,,,,
381.5119997,1490,-119.0226869,-224.0589262,-12.78562026,-70.07302426,236.0197157,-63.81547386,611.8929979,187.8292726,675.2938724,-5.114010022,115.4510078,38.82636357,0,-241.9466563,-276.8174355,-740.0867861,,,,
381.5199997,1490,-25.0656719,104.677135,-147.0096149,188.2622247,-203.3301025,0.496575086,230.6739791,449.9835147,777.9960586,-92.07411371,-243.0778007,-193.3331202,0,49.67543177,773.8537485,831.1207716,,,,
381.5279997,1490,204.3715739,25.04050783,240.6666137,-325.8343791,90.72268878,48.5525651,-634.2147656,-696.8134566,479.3380745,170.7223752,265.6977645,214.2030648,0,33.4947034,-783.6490769,-511.4311622,,,,
381.5359997,1490,-236.8603085,-173.1873912,-213.8370197,262.6891503,79.72688919,-47.68535134,1133.076232,917.4818766,898.1837598,-142.849479,-128.1753359,-157.4298667,0,-201.6654484,634.6405318,46.7658843,,,,
381.5439997,1490,224.8599066,199.1977698,112.4793318,-172.1664935,-190.3210496,42.78155933,-837.3944705,-549.3339813,530.7893052,93.85431415,9.633190208,34.38609334,0,211.3380047,-122.5363318,483.3133607,,,,
381.5519997,1490,-303.2404522,-469.1601529,-66.13113301,-25.72431844,495.2603603,-105.8584069,1400.217098,553.9949557,789.8569275,-34.69317379,244.573251,100.3434314,0,-468.9783179,-448.5436122,-1518.293193,,,,
381.5599997,1490,-522.7111314,-398.7898117,-427.3082413,492.4581399,225.1214714,-128.8210119,2261.737971,1702.193318,1102.763028,-279.8391418,-218.3593487,-271.9159655,0,-443.6888849,1058.082095,-225.7933518,,,,
381.5679997,1490,137.5918106,93.42840126,81.55000785,-147.6287195,-83.52524228,24.25892676,-471.5993953,-382.9184016,580.5913633,67.38693932,44.51458632,42.28055507,0,92.5196714,-154.8056308,165.6142444,,,,
381.5759997,1490,37.87636826,29.22525211,-2.646775755,-34.65596687,-53.61942347,10.86582348,-53.18541748,-67.27278642,675.8451702,0.684574252,-10.21896262,-20.24239422,0,7.97853677,97.75728365,168.4075487,,,,
381.5839997,1490,-5.915565251,-55.221506,-2.698743799,-50.59307512,39.57891237,-15.97292186,130.997905,-25.76249614,680.8038628,-1.027451908,41.9541007,2.379675601,0,-61.91103999,-41.01029217,-128.1830351,,,,
381.5919997,1490,-54.5972776,-56.98564062,-71.73011676,33.22486614,6.008019098,-34.16591761,319.2801948,197.3618414,728.4359612,-53.22629211,-46.36935838,-71.28894592,0,-64.59825332,207.4828421,65.38071035,,,,
381.5999997,1490,108.5930631,99.38401837,41.56869009,-85.28116531,-97.34241274,20.89477091,-333.222877,-224.9393821,628.1145456,27.03814177,-11.52240093,-7.148183618,0,89.59708174,41.79487401,310.9737511,,,,
381.6079997,1490,-54.13824556,-132.5908059,10.85050288,-71.86561036,162.81827,-24.95961167,360.7885777,97.27074528,697.9826051,2.269565063,105.7587722,43.60493928,0,-140.0543974,-181.802531,-474.3013954,,,,
381.6159997,1490,-14.76589718,62.82232178,-108.4522331,113.4788342,-142.7721517,-4.302659856,140.5166763,315.4746551,765.6237485,-84.50270082,-168.744179,-150.1851901,0,37.55975267,571.0119406,624.9505685,,,,
381.6239997,1490,137.4087339,-2.318515309,145.373523,-247.7120105,62.25938701,4.674585048,-425.6236942,-461.5816366,548.367579,86.441888,166.0447238,114.3440908,0,-1.628241214,-512.2839329,-327.5124535,,,,
381.6319997,1490,-183.6355492,-153.5728575,-178.9028705,166.2115949,58.28873293,-69.92130486,877.7377311,704.6381382,841.988418,-135.4127338,-114.895897,-148.3233728,0,-174.1791526,486.6310926,26.48006887,,,,
381.6399997,1490,180.1509895,161.4044862,65.84702163,-139.0404346,-184.7233866,22.40955902,-642.4319578,-388.1365164,577.2064578,43.43975369,-28.12489015,-11.41512336,0,166.0280007,6.790177249,493.9689241,,,,
381.6479997,1490,-62.63632634,-181.5241465,4.733690958,-100.363322,193.9339603,-41.38129982,439.1403024,76.29662857,690.734938,-1.221086899,138.7859311,56.68836728,0,-189.1512321,-282.1690713,-652.5522799,,,,
381.6559997,1490,-31.15750143,73.57169788,-156.3887087,179.6210768,-191.0725057,-5.10806542,266.5951962,417.1745024,816.0688345,-109.7650171,-214.2890835,-187.6436631,0,42.90201723,764.1285168,778.8510836,,,,
381.6639997,1490,191.2772677,35.55820521,199.5630268,-305.493534,46.79942569,21.27834467,-623.7145311,-708.3113678,516.3979128,134.7558152,217.2686066,168.6309404,0,40.44323596,-651.1966421,-366.8182891,,,,
381.6719997,1490,-217.3358477,-162.3342493,-203.9273739,222.6044326,76.54824881,-60.97303668,1050.693834,777.9921817,889.3958528,-141.3394727,-128.4360242,-150.8629505,0,-194.8819535,583.0105488,17.35751865,,,,
381.6799997,1490,218.9048917,208.3594609,92.76759519,-136.2514695,-190.9215884,48.8568505,-753.3982254,-489.0014917,580.7583186,79.21292842,-19.23980245,18.22863097,0,214.5223476,-9.411181879,548.5960226,,,,
381.6879997,1490,-62.69122741,-176.0195885,24.735237,-98.02586384,239.6721731,-34.17472659,447.7995825,62.25349513,708.3180359,29.13458484,157.5453286,84.91667971,0,-180.65955,-335.8598373,-726.9777255,,,,
381.6959997,1491,-48.49811364,79.38953794,-167.5440407,211.4043018,-169.0278951,-5.667235905,307.6367423,497.5987427,841.3121755,-105.0727876,-239.0939757,-193.460309,0,56.00109969,811.5436857,810.5439818,,,,
381.7039997,1491,188.4528932,19.20106067,194.4313727,-322.9442771,59.06972538,4.065142466,-684.1772683,-709.736631,498.7235872,141.5531271,209.8459548,169.9611653,0,51.17907921,-705.4178896,-387.6142553,,,,
381.7119997,1491,-253.3880922,-202.2489192,-235.5515163,222.7831056,81.35358426,-85.38582981,1119.581286,887.2001339,889.880107,-171.2473108,-161.8539434,-185.2030977,0,-230.4069693,610.3243139,0.747423665,,,,
381.7199997,1491,218.3879721,204.3741193,90.04499175,-152.9815166,-210.1793866,47.69466796,-782.0856755,-457.0564816,569.0931838,55.48305767,-38.97768319,-0.680415483,0,204.762943,-0.602535615,570.2545381,,,,
381.7279997,1491,-66.41280171,-194.2216643,14.22759317,-115.8441019,221.6864006,-39.25757016,449.1652735,72.05035367,701.2020957,11.86458553,154.4049879,74.54145841,0,-189.4818209,-340.7800081,-746.2591134,,,,
381.7359997,1491,-45.82253736,81.58182495,-173.4367746,205.599064,-192.8754322,5.304602056,326.9157039,503.3572844,848.9654859,-112.6836607,-243.2073328,-202.7127969,0,43.90957511,847.0974016,818.8939795,,,,
381.7439997,1491,216.9619495,49.98377033,224.2784335,-333.3015447,51.64250338,36.05626771,-731.0841699,-778.5615504,510.5643591,161.8881183,236.5136679,197.7544615,0,63.15391825,-708.1008324,-386.2686551,,,,
381.7519997,1491,-243.2778797,-188.2339331,-223.7213427,227.5031844,96.28342035,-65.8689132,1128.515437,840.9079917,912.4850197,-155.6958948,-133.9205674,-159.3822771,0,-226.3378356,622.1311904,-15.06173401,,,,
381.7599997,1491,226.1593891,223.8768248,93.21308971,-142.8258583,-197.3103731,56.85548372,-786.4388245,-497.1125773,586.6906548,75.73142054,-16.99726141,22.45408013,0,210.1782399,21.55421258,585.5007094,,,,
381.7679997,1491,-75.64871507,-197.7222836,12.79183517,-115.1131841,244.1975187,-47.4389569,441.8489277,41.05276544,706.6686103,33.62124648,177.6586904,103.2059415,0,-180.4622443,-353.7840081,-755.3313383,,,,
381.7759997,1491,-68.09709016,60.39179939,-199.7146534,206.182677,-175.0096553,-10.09113479,361.3436989,525.3446292,843.6684946,-128.2306091,-255.5518197,-211.4174327,0,31.99815275,859.5998231,819.473232,,,,
381.7839997,1491,238.0895458,67.47543265,220.3371779,-337.1683647,58.56581084,43.27512692,-756.9196199,-772.9029718,504.0859425,153.8787976,231.2011708,192.1661767,0,60.37633185,-716.4127446,-376.0649654,,,,
381.7919997,1491,-226.4076273,-178.3048425,-217.6834511,236.8348283,111.1298653,-58.89174376,1123.16787,875.7846234,925.013562,-135.1929118,-111.6541689,-141.8165544,0,-214.1683873,589.0943006,-41.00333329,,,,
381.7999997,1491,227.979651,217.1764908,85.62023649,-127.6723171,-201.7514716,57.43611824,-778.0974475,-440.307888,591.3306167,84.20161156,-19.48081912,14.49370147,0,224.3591495,19.40230202,597.8160998,,,,
381.8079997,1491,-47.56293435,-184.4696701,26.39347111,-114.6868546,231.4606976,-29.17601005,415.1852677,58.59900759,705.3158607,39.30129501,179.2916884,94.94234129,0,-166.0576803,-378.7934215,-757.5965297,,,,
381.8159997,1491,-50.6506672,79.47245837,-186.6917323,223.2752875,-184.1209499,7.82714984,374.4779791,568.2178048,867.4176498,-112.5625743,-240.6888209,-204.9878063,0,49.82339045,856.4586213,811.5883065,,,,
381.8239997,1491,240.9174744,74.18171365,221.401775,-330.4612732,45.26311614,46.59207713,-770.8658688,-765.5869459,514.2530629,171.0083358,239.089676,197.608187,0,82.54057186,-718.1444495,-361.544706,,,,
381.8319997,1491,-234.6014015,-194.1465825,-230.567149,224.7475142,110.586292,-63.46476629,1135.158239,865.2049996,928.8496906,-137.3427075,-112.2150681,-145.4767136,0,-214.9044228,582.7386785,-55.31948268,,,,
381.8399997,1491,228.9255339,222.0598291,74.99524626,-136.1594971,-196.5706237,63.91926355,-760.4695904,-453.3971359,603.7191232,71.33948555,-26.88232144,6.016613824,0,209.631919,39.06968432,610.4682949,,,,
381.8479997,1491,-28.61351864,-165.1913007,42.21846028,-127.0767079,260.6730325,-14.82027137,394.139081,-0.376973517,715.1626135,54.76499862,201.1203158,116.5799324,0,-174.9686889,-409.3681252,-769.0861174,,,,
381.8559997,1491,-236.7052385,-37.06918421,-345.5162352,423.8773637,-130.8820237,-43.34812807,1113.566729,1151.480493,1032.716749,-211.5780066,-359.1332416,-322.2546756,0,-71.89934761,1302.378989,885.0414133,,,,
381.8639997,1491,-50.22562411,-203.1780904,54.67979547,-155.1666773,227.2735246,-56.3309677,333.4328143,-46.54154424,680.623726,45.0062711,170.9572007,82.92759057,0,-184.6857338,-480.5116493,-792.7016536,,,,
381.8719997,1491,-458.5809245,-580.6103246,-205.2733933,146.4021174,536.333143,-162.2392073,2041.557031,1100.515309,965.0695153,-131.1176223,125.4359089,-30.77331768,0,-578.382512,-65.08706262,-1476.029167,,,,
381.8799997,1491,-152.887395,-135.8288283,-144.3677166,130.1392644,60.47000629,-55.9155396,748.6408143,556.8769277,855.1647263,-83.71058821,-86.68874868,-116.4732966,0,-141.3893725,382.980945,-5.480676962,,,,
381.8879997,1491,-79.63106739,-146.1011625,-25.29470121,-29.83250753,134.1777771,-44.07571743,466.3259743,206.2858521,756.9060937,-12.32846735,49.45723656,-9.714921216,0,-148.5599108,-74.26938046,-390.6840162,,,,
381.8959997,1491,112.8992488,169.8949532,-9.799521188,15.60948199,-206.0586953,41.15187799,-306.520216,-30.05990631,725.6617325,0.037879786,-125.9932886,-93.17632068,0,147.6013255,379.5257077,698.1599287,,,,
381.9039997,1491,114.9451139,-8.941416473,130.9325462,-194.8591781,61.91982883,15.98904905,-271.2193937,-356.6289721,626.2633541,99.95243256,150.8960019,106.101908,0,-2.2363195,-428.4729985,-345.7703748,,,,
381.9119997,1491,-177.8207209,-146.0429378,-169.3522716,167.9747574,36.54142347,-64.31695341,851.2304324,664.7501106,883.1177734,-106.7745129,-112.8069117,-140.0820347,0,-147.7000704,486.6662679,33.44776966,,,,
381.9199997,1491,234.2795271,216.2700596,107.7862625,-174.0620465,-226.0594762,48.51057264,-842.7051949,-544.5243862,588.2624145,82.19466438,-10.6481757,15.56798959,0,220.9845427,-49.186413,555.0583292,,,,
381.9279997,1491,-80.58178624,-196.767646,-2.648045498,-83.55996787,204.3469187,-40.25671427,544.1310815,130.4702766,752.6666939,4.160272724,144.0868102,57.70338415,0,-210.1802856,-263.4433811,-700.2743538,,,,
381.9359997,1491,9.23553878,102.1324609,-131.2790196,129.4787048,-208.541082,10.60464011,129.6169369,286.9574701,828.1099058,-83.967999,-195.5584216,-168.8841324,0,75.29821246,681.4203363,774.3351372,,,,
381.9439997,1491,209.3573263,51.02976817,180.2360683,-308.0454299,21.66261369,33.34231326,-660.7619582,-721.6718212,548.7470894,129.0652546,196.5011215,145.0427271,0,72.2295463,-621.7473989,-303.2920911,,,,
381.9519997,1492,-202.0775865,-181.3629523,-207.7168995,176.8403793,85.83803087,-58.97181378,1002.608971,715.0549982,902.2904845,-132.4578331,-105.2050571,-155.5893904,0,-202.5921787,493.4575995,-56.6237942,,,,
381.9599997,1492,220.9255022,211.4248142,61.22065369,-142.4838808,-228.0521453,53.90074586,-774.971849,-470.5804443,604.5674169,64.79189204,-42.00223062,-18.51060586,0,218.4692194,36.12937482,639.8567645,,,,
381.9679997,1492,-41.25210669,-184.324764,18.94920464,-147.641181,215.4123915,-36.27741078,363.3055909,-7.35269343,696.4431476,28.93095807,163.8633008,75.28167183,0,-166.1518584,-419.0709801,-741.2452264,,,,
381.9759997,1492,-40.25512023,66.29455305,-182.8694845,172.3973249,-187.1374358,-9.468241577,329.6207699,496.6286918,857.5473869,-122.2747989,-240.4624302,-217.8526572,0,27.5882449,787.5916171,773.1170532,,,,
381.9839997,1492,233.4847399,64.47116722,205.7390499,-345.8440173,1.795165873,23.11131441,-803.8098398,-779.3365468,517.9194062,142.2894367,211.009359,157.9460728,0,86.41832746,-688.3909032,-291.2883643,,,,
381.9919997,1492,-213.2774867,-191.5423467,-189.3691922,166.7028551,93.92860041,-62.53297705,1028.092911,759.2460027,906.0660272,-144.8743705,-93.03330979,-145.7883818,0,-211.1705992,477.1684463,-113.491122,,,,
381.9999997,1492,225.5687112,223.8607399,85.995748,-134.6270382,-240.5555509,66.53505154,-769.5694625,-432.1581894,627.0068462,55.52089641,-31.10956011,-0.535741504,0,213.6069656,76.42118125,661.3997525,,,,
382.0079997,1492,-29.53259781,-186.6396925,53.70675517,-175.5902616,207.1119304,-45.05365536,254.9364862,-100.9813534,681.4466593,40.6509481,209.3505267,123.1500295,0,-160.0273969,-496.1847133,-769.6979579,,,,
382.0159997,1492,-65.31518706,57.58776184,-186.2404382,191.0881515,-180.1929991,-8.12487023,397.2425511,543.5086908,870.1631679,-148.0606947,-231.4836979,-202.4174963,0,15.94773494,825.3603829,773.0103212,,,,
382.0239997,1492,265.5484947,98.64249713,242.9581834,-360.8033665,0.872198121,57.20349528,-902.5039493,-854.4266813,506.7138307,154.5199346,255.0442023,217.3793504,0,111.4113821,-737.030801,-275.0347174,,,,
382.0319997,1492,-216.6085575,-200.9270203,-188.3047671,169.926381,115.3826236,-61.42362684,1033.474262,749.7756342,902.8536819,-146.1046242,-58.21702082,-99.39262715,0,-220.5729023,437.3799377,-143.6743214,,,,
382.0399997,1492,231.9585538,238.8515436,86.04073556,-123.6135398,-226.433344,74.9437007,-769.7213148,-433.0031333,623.6820079,44.77276611,-17.17500712,28.87476401,0,219.2733515,79.59866996,680.2023424,,,,
382.0479997,1492,6.370685426,-154.4120045,94.92818935,-177.840746,228.2098137,-15.15566489,188.8424115,-166.5398992,677.4859351,65.86179864,261.3304107,186.8562396,0,-127.0316629,-555.1139093,-797.6109231,,,,
382.0559997,1492,-61.61285731,55.31404771,-175.5829772,219.1734162,-160.5802797,-3.374627264,426.6185509,537.8571753,885.4250827,-133.4584682,-202.0952576,-163.5107823,0,31.53620187,819.4607319,742.8668166,,,,
382.0639997,1492,272.9528539,96.39758332,245.8998801,-347.4235332,0.621290221,48.05788248,-934.1052695,-915.6824167,501.279542,162.4996237,256.7348226,231.3873953,0,132.3868502,-745.086922,-270.248191,,,,
382.0719997,1492,-233.3895289,-230.1083367,-193.8722687,176.3606938,118.5673819,-82.24874492,1046.819197,715.719177,899.706722,-151.2583433,-63.7404026,-106.2596878,0,-216.9935182,435.5446693,-172.8305285,,,,
382.0799997,1492,203.6247984,204.8554227,62.32718412,-119.7636055,-247.2672891,46.59349144,-742.438186,-428.2389774,616.2238203,14.63493122,-48.98213152,-10.7116883,0,203.4529773,119.5362027,688.7277071,,,,
382.0879997,1492,-1.98538907,-175.2495332,84.20991922,-191.8356384,213.7865844,-23.21059176,170.9056662,-174.0383278,652.3725443,45.44686673,235.5106618,156.6942407,0,-156.6259573,-564.3221992,-814.9701839,,,,
382.0959997,1492,-87.27200921,22.93465195,-195.9858345,223.8090519,-158.1772476,-5.645324948,470.8642805,612.6819494,876.8102374,-147.7332447,-226.2501291,-190.3055937,0,10.190121,835.3855761,723.4553874,,,,
382.1039997,1492,279.5280954,100.4808622,248.3557589,-351.3847766,-4.235595607,64.03566966,-952.1862139,-861.4604349,490.4177696,158.4745302,243.3486571,217.5653466,0,131.3151699,-738.1436059,-260.8251582,,,,
382.1119997,1492,-196.4816032,-197.455236,-156.7605472,175.9139384,143.9140577,-41.25699019,1023.166923,756.6465056,905.8715066,-123.6770831,-35.56789359,-75.63082304,0,-213.0471104,400.3621325,-213.611887,,,,
382.1199997,1492,225.2944892,229.2257508,92.14053461,-93.44126779,-217.9688467,71.91470135,-745.4118615,-373.4403667,641.3143402,53.89427725,-12.72285377,32.08686119,0,239.1192825,110.1356727,683.9730194,,,,
382.1279997,1492,15.37931661,-162.0391849,107.7728497,-179.7768823,229.2791302,-19.0202385,135.6545179,-180.0279735,659.6173347,64.64422894,264.1077856,186.694971,0,-132.9292091,-597.3218174,-821.1906045,,,,
382.1359997,1492,-93.59650336,17.93051896,-197.2063266,238.9187572,-152.969938,-18.47159997,490.8258479,612.8790982,888.0801975,-150.2859728,-213.4900312,-176.1019584,0,3.855502525,836.3558682,713.2110713,,,,
382.1439997,1492,264.9100482,92.55628684,243.9395844,-346.8492812,-21.24421544,40.00097019,-971.2774022,-913.8500581,487.9513367,155.9991612,248.8366021,228.1950452,0,141.22783,-735.9833054,-247.2092084,,,,
382.1519997,1492,-212.1096111,-214.1774469,-151.8114626,166.7213245,129.4339894,-57.12796836,1009.978011,675.6520583,892.6188075,-134.6788128,-34.29213207,-72.54148335,0,-232.3171234,377.7985655,-245.7685424,,,,
382.1599997,1492,206.5365035,211.5562804,89.84481657,-92.81279765,-231.6435628,69.65717363,-741.3994258,-432.1474628,636.2867269,40.14781977,-29.86417929,22.04141039,0,214.5911721,123.2332851,683.4890296,,,,
382.1679997,1492,3.421230472,-177.29927,116.7269068,-195.221425,232.0958499,-18.76424098,95.23604564,-265.477814,644.9009374,66.7998394,252.1973811,179.9296096,0,-127.0281213,-624.8296936,-826.339155,,,,
382.1759997,1492,-100.3013836,15.62361959,-179.323522,233.3687014,-133.9721559,-5.127053216,491.5207749,591.8330547,885.8032396,-147.2308959,-228.5018861,-189.3164652,0,-11.00163965,823.4697164,704.5241158,,,,
382.1839997,1492,267.212546,104.650117,261.5678986,-343.6209125,-4.522676874,57.37609689,-1002.254757,-898.2269436,488.4591537,168.6894896,234.3140764,222.4210868,0,134.9326771,-750.7752315,-219.972699,,,,
382.1919997,1492,-224.237088,-222.4437651,-157.2699689,169.3617846,157.9728912,-63.34921721,1005.972627,747.0251301,892.4971463,-121.3010796,-46.5239873,-75.29849422,0,-222.1293538,341.6788945,-249.513654,,,,
382.1999997,1492,200.6381191,216.4322464,71.51107956,-80.06721231,-221.2976372,60.33734712,-717.9961789,-301.085668,638.6888991,46.42167164,-53.08337251,9.231674867,0,212.1809056,131.6006146,706.0314658,,,,
382.2079997,1493,-0.573947551,-174.9598675,99.59138646,-198.8842028,229.4595541,-32.20708881,82.78810744,-185.2534233,628.1115175,76.95260626,244.6459534,180.6675037,0,-140.035045,-656.4843954,-833.8043923,,,,
382.2159997,1493,-116.7661638,9.409656346,-212.3169447,235.7236381,-133.9622321,-14.80549955,533.6893356,663.0561022,874.079797,-149.8388679,-237.4109744,-190.834232,0,-17.65588014,810.194841,673.5163386,,,,
382.2239997,1493,278.5478729,123.0866773,247.6811454,-343.9992742,-13.95868905,68.91804025,-1001.413541,-907.5725851,477.0215182,176.9256674,236.0265488,230.9547981,0,150.7903447,-750.9079433,-217.0634044,,,,
382.2319997,1493,-224.1745569,-229.7631605,-166.9939361,161.969794,153.4671397,-61.07854773,1018.141613,662.620888,878.3933191,-112.1767995,-36.57939511,-64.4136547,0,-226.4058839,329.7457544,-271.5495126,,,,
382.2399997,1493,188.3032878,203.6526985,50.25014971,-72.2695523,-236.3940018,56.18333137,-680.3590333,-402.0652897,629.7125164,36.33983806,-75.43368355,-6.317355861,0,203.9785056,171.8761334,730.3617303,,,,
382.2479997,1493,-0.124709776,-180.8343666,100.4568729,-206.0321059,217.2316468,-40.4086265,72.77603776,-324.533699,611.9287817,73.27808172,222.3437368,160.8944417,0,-138.5080865,-645.2699746,-808.5370489,,,,
382.2559997,1493,-130.3636328,-13.63268232,-215.5815694,232.1033389,-137.2523016,-35.03285699,572.6840326,604.0231048,868.4515981,-163.0305102,-268.1855092,-228.5574421,0,-39.30583167,839.9464176,689.8814065,,,,
382.2639997,1493,279.6226429,114.2234045,245.9590398,-345.8564633,-20.48298402,52.82839059,-1004.896664,-917.29319,467.7295245,166.1445798,197.870382,191.13707,0,139.4058486,-729.5685372,-180.510768,,,,
382.2719997,1493,-216.2666434,-229.701659,-156.4641294,153.8680026,168.784948,-63.62213821,1010.655964,718.7911055,873.5942672,-109.817283,-53.96576288,-87.49943299,0,-233.7473507,308.4861548,-290.5898371,,,,
382.2799997,1493,186.0621241,205.3235772,48.82874722,-70.98273678,-226.2892153,63.26365732,-660.7749051,-252.7735503,638.3436272,39.53785607,-85.86077556,-25.34731594,0,202.8347464,179.6367213,729.0782052,,,,
382.2879997,1493,16.43204424,-169.2941249,106.8618006,-217.4942475,225.8212832,-28.9239258,43.08397488,-206.6117536,605.8868358,83.1943838,226.7930719,159.5351709,0,-128.9518395,-680.6235264,-833.0140446,,,,
382.2959997,1493,-105.9652175,12.84542451,-195.701677,235.8034408,-122.7625458,-1.845383141,581.3369964,719.0682935,885.1166655,-145.8002595,-241.5097034,-211.6037346,0,-40.84854756,824.9266188,644.7892883,,,,
382.3039997,1493,292.3025408,131.6474811,261.4750068,-337.074847,-37.03497321,79.04524374,-1020.841937,-875.1053067,490.1758676,188.6432154,236.4025126,213.0825467,0,156.6432645,-721.604732,-183.1564076,,,,
382.3119997,1493,-221.7051166,-243.7836395,-159.1310486,150.4461761,141.7960349,-77.50854853,1006.369258,670.6354543,872.7566773,-116.6900446,-40.60187818,-95.29818084,0,-224.0867731,311.628957,-316.8575623,,,,
382.3199997,1493,195.0929112,211.3054945,46.85696927,-60.5496534,-256.8382426,56.76417076,-644.8520739,-334.8483052,647.9850326,25.43934234,-83.19055309,-40.42959459,0,205.8180039,236.6697773,740.9930789,,,,
382.3279997,1493,149.512161,-225.653857,328.5953117,-486.6516585,404.9847269,-16.1614267,-392.4917504,-955.6899473,449.9481717,250.304256,560.3018214,417.0410571,0,-149.8489798,-1573.046588,-1688.560383,,,,
382.3359997,1493,-188.3878951,-207.403408,-149.3292235,154.1567368,161.0979782,-65.19501782,945.3088538,611.4656117,870.4237517,-102.7276203,-21.08479127,-71.07301103,0,-225.5575269,298.6774407,-304.9476821,,,,
382.3439997,1493,160.5926018,221.8850653,-14.73011458,12.55190532,-258.2703296,47.55859664,-542.1510249,-155.5598578,693.8667551,-10.9969879,-141.2998794,-84.42199221,0,202.8446464,424.8552956,890.1309744,,,,
382.3519997,1493,32.27956778,-106.9987248,61.66782951,-157.9823689,142.829242,-28.23327322,-35.73196698,-198.6593264,637.8821069,56.10370029,158.9485841,105.2687971,0,-61.91770252,-431.6205986,-513.7346658,,,,
382.3599997,1493,-23.49953808,-55.83055287,-57.2025292,8.120342851,34.68556944,-16.22377197,217.1412329,194.2699912,741.0710229,-33.22181618,-12.19476196,-32.85523363,0,-62.02698444,101.5132396,-24.53887653,,,,
382.3679997,1493,47.56314428,59.80460051,-55.98803035,11.92763457,-105.9096236,8.74157907,-95.16200734,83.56272806,719.0074198,-38.61009205,-85.05955042,-73.84227177,0,41.53207476,258.268486,381.8193687,,,,
382.3759997,1493,83.45113693,-47.98258382,72.41506413,-188.0243758,61.2280807,-16.82390789,-267.3711527,-325.0038019,603.7438094,52.10250343,130.0911013,92.25545843,0,-19.37696922,-425.5628275,-358.5327237,,,,
382.3839997,1493,-85.12760733,-77.70374407,-124.7950333,76.96394537,3.131208992,-33.64417537,426.8705169,353.0184276,788.5813314,-96.99595438,-87.69784116,-96.60000149,0,-101.7016002,318.392152,71.22843781,,,,
382.3919997,1493,127.1246239,118.9601815,16.17755743,-70.51555884,-122.5543755,41.94332915,-379.5062011,-233.0056338,649.2836486,21.93608897,-26.63836828,-0.189325431,0,95.31262765,83.25314677,344.072725,,,,
382.3999997,1493,36.10126539,-98.30410465,43.22523437,-147.7508914,136.2026871,-13.57086028,0.62004075,-244.4185119,628.1141189,87.11371855,166.6232273,131.1190978,0,-52.55408407,-426.5756144,-534.389249,,,,
382.4079997,1493,-72.77175892,7.675440355,-187.6481125,178.7948793,-99.58865231,-13.91217652,437.9093788,448.9886399,820.7923316,-94.10320319,-194.913098,-162.4540152,0,-20.20268856,662.4824888,513.8750707,,,,
382.4159997,1493,235.6300846,103.8537593,170.2967677,-271.639041,-14.05974933,39.31576026,-786.1496769,-757.669941,509.2294436,146.7046494,164.0532183,150.8292486,0,94.85826546,-542.8082567,-148.0204797,,,,
382.4239997,1493,-158.9403414,-176.0037295,-146.4243794,108.9637555,132.9497496,-64.63725442,769.8489688,482.6572479,818.6188114,-73.31989273,-34.19156847,-73.81221639,0,-187.1472532,247.1750461,-243.4420626,,,,
382.4319997,1493,147.9701235,175.7924768,9.924244359,-34.93403146,-183.2012004,48.61223583,-477.9963867,-202.53736,653.0720027,25.97823303,-92.58465191,-53.80975949,0,151.0045332,243.7555245,631.8893392,,,,
382.4399997,1493,52.59051954,-116.8224959,108.577956,-210.2898714,198.3002726,-23.69688416,-88.20989611,-318.131865,584.0088437,112.3759136,215.9099843,154.7377536,0,-89.5833256,-637.2591392,-727.4798527,,,,
382.4479997,1493,-124.2544389,-13.28199468,-207.7232016,233.9432018,-76.06894082,-29.36630558,615.8359314,687.8753657,859.5169436,-120.8984194,-228.4893495,-201.8081133,0,-57.96515468,764.1782456,521.2912187,,,,
382.4559997,1493,268.58943,137.8398462,212.8285399,-307.9993631,-40.56513346,57.85815962,-983.5941084,-819.8721657,471.0851259,177.5387112,179.507056,168.9096313,0,144.4315199,-630.2655604,-119.597256,,,,
382.4639997,1494,-206.4883842,-225.911055,-167.0997359,110.0875988,155.1873462,-81.87308217,889.052393,578.6047791,813.1116741,-90.79430433,-38.1237281,-90.26976114,0,-231.652948,209.9037478,-384.9570044,,,,
382.4719997,1494,167.7179556,218.8734979,2.852771775,-28.23635177,-235.0152341,58.76855142,-533.8308763,-217.5510432,644.7911245,22.1168874,-114.7321685,-69.31578354,0,166.0218161,289.5666982,714.0162719,,,,
382.4799997,1494,77.66954191,-100.4449129,121.5456288,-227.3592051,190.9797507,-4.284632305,-134.9719762,-420.2145086,569.9876629,140.0963382,259.6770779,190.2864189,0,-81.67527803,-722.6071454,-807.0920419,,,,
382.4879997,1494,-130.6159877,-12.6841887,-242.823593,252.25839,-99.31669216,-31.73595157,655.698962,653.7774519,863.1605098,-128.4186672,-236.7792715,-213.5110907,0,-53.46773981,794.5705843,530.9139978,,,,
382.4959997,1494,324.8229808,194.759229,235.3144624,-308.2959815,-51.19459419,78.0462891,-1075.729503,-949.6021195,466.8158875,199.759091,199.914266,188.1639449,0,178.1225876,-661.5018101,-95.93122267,,,,
382.5039997,1494,-163.082975,-189.3252242,-130.0259546,128.7347721,194.3668295,-56.31582376,880.8850708,523.2415267,842.5219425,-50.0304706,14.90779877,-45.74686426,0,-212.1143589,165.7396833,-430.9515783,,,,
382.5119997,1494,185.388895,236.595162,9.061573752,-5.003034009,-219.3002149,56.32082334,-565.8911329,-239.7155906,665.0508496,43.68629016,-106.6590812,-60.66410327,0,196.6861094,293.4493451,748.60692,,,,
382.5199997,1494,105.4958663,-78.12683531,154.1596224,-222.7914735,228.2453843,0.06733603,-184.5019231,-441.1405596,569.8576522,156.271926,269.1167198,198.172269,0,-57.71021835,-772.6821705,-832.2114767,,,,
382.5279997,1494,-115.1983913,1.883862049,-210.3257809,267.8337854,-60.36801385,-10.36701476,658.959016,709.4147075,883.2626061,-115.006292,-221.730471,-205.0796541,0,-46.31871723,776.2578627,511.2745431,,,,
382.5359997,1494,326.1004011,190.4450196,243.5576617,-298.475735,-43.60643982,91.88216215,-1103.149986,-900.7970574,474.0826992,208.4004681,200.6025835,185.0556956,0,177.2522181,-679.5909574,-92.12067359,,,,
382.5439997,1494,-169.1885192,-205.5769789,-130.2225747,133.4608113,199.2714814,-46.16240512,881.842304,583.3163974,837.1565195,-56.85137707,8.593006605,-57.50181889,0,-225.2592274,140.1017376,-460.1775735,,,,
382.5519997,1494,167.1025002,214.1805904,-8.906040823,4.52517347,-238.142439,54.14403219,-548.1151126,-168.9203047,663.7360787,17.74067966,-123.1126679,-86.3946183,0,188.8234208,314.278271,764.5704272,,,,
382.5599997,1494,82.11754735,-107.590302,133.3433196,-228.9260232,198.0465683,-20.72726172,-195.2709406,-430.3044488,549.1735948,124.7073256,251.8079468,172.4307879,0,-77.87562126,-775.1471952,-828.0967203,,,,
382.5679997,1494,-133.4355558,-13.2662201,-220.4389509,265.2639125,-76.8086637,-23.05338957,685.8970689,723.2222935,872.1957116,-142.0258295,-226.0822901,-212.8115905,0,-80.95484564,794.5503631,511.4515176,,,,
382.5759997,1494,597.72744,324.226788,517.5243951,-641.5406256,-60.50295272,144.6632052,-2193.435386,-1904.670739,214.8094042,394.9868246,461.088789,430.0926155,0,326.9856461,-1521.428007,-381.633763,,,,
382.5839997,1494,-26.47707054,-241.6531423,102.7029289,-182.0315214,358.1502252,-47.17362995,304.4605902,-198.9946928,620.7515155,107.8667276,325.5281336,203.4335041,0,-218.8745757,-831.8790948,-1266.362531,,,,
382.5919997,1494,-152.2561329,84.94837159,-321.6057763,417.7759119,-229.0565452,-3.227995651,773.5946876,968.7082977,980.8178198,-217.6358281,-402.39984,-346.7300021,0,4.761582993,1382.735889,1158.797529,,,,
382.5999997,1494,356.350991,168.5796709,309.0652491,-374.8225639,23.89032318,90.50601693,-1207.381551,-1144.86933,433.6091526,249.7328277,305.8492151,274.3726175,0,169.6197525,-932.6201459,-343.3662179,,,,
382.6079997,1494,-141.56445,-189.3715631,-98.69480893,94.44319147,199.5551326,-60.13988161,708.6043098,364.5171723,785.0127609,-28.74605203,31.55018424,-21.03805539,0,-186.2471387,31.29246962,-447.7163807,,,,
382.6159997,1494,25.1319918,125.8817393,-118.0784124,135.0008435,-178.3445374,12.32580153,-33.50266338,179.8534769,751.1928253,-61.03604186,-210.2382669,-168.2159417,0,93.48150415,590.6623542,767.190737,,,,
382.6239997,1494,212.0663553,25.17620275,216.4693098,-300.5443435,127.4051851,39.57553292,-692.7949197,-777.8971258,485.4928061,175.6337905,262.8016763,203.8699198,0,22.02179062,-857.1636477,-600.4516047,,,,
382.6319997,1494,-169.8302849,-116.9214472,-198.1156513,227.8809584,61.997925,-43.19871887,824.0067581,706.1134798,870.2045498,-120.428458,-144.8371162,-169.7657573,0,-154.5987763,553.7034973,93.83962284,,,,
382.6399997,1494,196.8654958,172.4357017,74.39922246,-103.6830015,-136.1202941,50.53173025,-683.2009673,-399.7799944,588.5278697,70.79989385,-11.72898614,2.321279091,0,164.1872697,-55.12286122,391.3369989,,,,
382.6479997,1494,13.17044373,-130.1315373,54.37186629,-126.9068083,188.1001917,-27.37493592,65.81958022,-152.4762889,617.39167,67.66125201,165.4529788,93.51058314,0,-110.9657277,-495.7926099,-665.72796,,,,
382.6559997,1494,-108.8519508,-6.567090805,-209.2015167,211.9199027,-106.8754275,-31.53120964,491.4980988,577.3325596,826.2630643,-128.9948266,-225.7707412,-215.2216237,0,-51.60394992,711.2931322,539.7165805,,,,
382.6639997,1494,264.6081458,126.7177629,203.8353423,-294.7536865,-26.54355147,52.1404008,-944.1431108,-839.3055268,466.3953237,154.1459745,183.8406553,152.9584069,0,104.4081617,-656.3337509,-188.7863608,,,,
382.6719997,1494,-156.6009699,-175.0360115,-133.327447,137.7199059,152.1981678,-48.35895861,807.3853158,514.6721569,818.7411629,-86.5070303,-30.06452162,-91.03153591,0,-209.6043644,236.6895134,-307.3641804,,,,
382.6799997,1494,159.5751836,190.0466755,9.21409859,-9.829821814,-196.4724296,48.77934668,-509.7324447,-243.3402432,649.2330187,14.32044453,-99.3785593,-72.31820068,0,150.3318392,265.293284,657.0211345,,,,
382.6879997,1494,82.50734556,-93.28036505,118.4257294,-198.5173271,188.376707,-25.79077979,-180.5122712,-444.5759762,554.9855155,111.3265747,220.7469186,149.8760307,0,-79.20118655,-675.2367374,-729.2641746,,,,
382.6959997,1494,-129.9481643,-25.07554873,-222.5195345,260.473282,-54.23295507,-41.37341451,674.6228439,655.7293341,854.7316695,-134.6896393,-224.5182124,-217.4449038,0,-79.21165191,756.6476726,462.1705083,,,,
382.7039997,1494,296.648458,172.7895877,209.6812131,-273.1483075,-56.36962178,63.57158042,-1046.138387,-885.3025622,464.8217124,170.595709,168.2744463,148.9784307,0,156.0688235,-596.5998812,-39.03723299,,,,
382.7119997,1494,-176.6504761,-217.7178112,-132.133858,118.6108388,196.721382,-66.30776645,825.8176137,493.4424064,798.3244986,-75.87944913,0.583844064,-68.22462872,0,-231.0077143,117.5226473,-466.6850813,,,,
382.7199997,1495,153.0261197,207.0695316,-14.39199156,33.79597073,-211.6401624,64.26002973,-454.3300478,-114.9834597,667.3703049,-3.311410491,-135.5386193,-94.19274733,0,154.9943734,365.7315938,741.3889466,,,,
382.7279997,1495,118.7188205,-84.21245362,149.2683214,-215.9898018,193.7929688,1.425632549,-268.2431636,-466.521541,538.9447638,141.2955007,258.1122505,187.7982122,0,-58.87900069,-772.5382706,-782.1149782,,,,
382.7359997,1495,-135.1399925,-43.83862869,-233.4677158,275.4496408,-54.93518219,-31.66079787,749.7501826,757.6403976,868.5814069,-143.5124895,-225.7580216,-221.9052317,0,-100.592083,770.1363282,433.494908,,,,
382.7439997,1495,350.1128991,221.0787856,236.2375715,-271.504601,-81.09071062,102.51319,-1106.675897,-885.4162924,472.9372888,190.6080347,181.5036149,168.5309238,0,176.3511146,-588.6802713,9.725197851,,,,
382.7519997,1495,-149.7438455,-212.0748779,-109.8046845,119.8628582,202.9354979,-52.22565613,802.1625046,455.2948144,809.9474547,-32.4299803,45.01545083,-23.35157493,0,-212.2600337,63.14223665,-519.3411188,,,,
382.7599997,1495,141.9644878,201.2458141,-32.55257141,55.39152521,-236.4985218,51.59530954,-437.381953,-126.1180689,677.3626327,-3.617641363,-158.0652718,-113.1833741,0,165.9611695,424.4591423,804.0448014,,,,
382.7679997,1495,139.1040676,-62.63684318,175.679347,-224.2244059,194.6996425,16.57149009,-333.8538813,-574.6550503,528.221699,154.160469,262.9227703,189.7400681,0,-44.53521482,-793.793216,-769.6672523,,,,
382.7759997,1495,-144.5344894,-47.73603591,-223.4323523,299.3233384,-26.32276568,-21.01129196,768.015423,728.5627008,878.9843788,-134.2870035,-219.4352042,-215.6507783,0,-96.25305624,782.6586609,431.7937038,,,,
382.7839997,1495,329.2921507,201.9466504,217.4516095,-255.6929723,-68.4748695,83.89676568,-1109.27702,-895.0574713,456.7826578,172.6943927,148.1814472,140.9027238,0,180.2086841,-559.3505441,51.83369014,,,,
382.7919997,1495,-149.9462214,-223.77485,-115.9042661,110.337678,233.4240467,-54.15262516,805.9808597,464.9647778,781.0387422,-51.51682767,23.17062947,-48.77364989,0,-221.341981,44.6711565,-550.2400465,,,,
382.7999997,1495,143.2175648,197.0991252,-40.47019752,61.79392917,-213.1386332,59.46116702,-401.5088902,-45.06942123,675.975079,-18.06574745,-168.3564507,-128.6322296,0,151.1904276,445.5620381,797.6242576,,,,
382.8079997,1495,134.3939754,-79.51551452,160.3161472,-238.5745591,195.5090942,-7.555631919,-338.9224728,-531.2983232,510.2501258,133.2458826,250.6710674,174.2608789,0,-65.52299427,-807.9916915,-787.1972094,,,,
382.8159997,1495,-161.63603,-73.20034853,-249.1320099,287.9240673,-39.23560249,-42.87192539,809.2219125,784.169154,863.7335464,-161.9602053,-241.5810716,-235.8330765,0,-115.2201803,781.1547476,403.7845399,,,,
382.8239997,1495,444.7155485,363.6605678,240.4592513,-260.2090954,-255.7212512,135.3788566,-1515.339372,-1028.540547,430.9254958,186.0697907,71.46328026,116.2632268,0,324.3781315,-375.3001053,586.7146505,,,,
382.8319997,1495,59.34908222,-48.15485355,32.48639371,-6.61470452,113.7071102,5.62816498,118.18655,-7.10330825,681.7125556,61.27976435,92.33639103,53.3402046,0,-51.26514108,-175.2396081,-304.3833741,,,,
382.8399997,1495,39.9408381,16.53215911,-46.43638811,94.66679243,-16.09753876,12.31711848,126.8517854,160.0106423,736.4640931,-6.64797303,-48.94507805,-58.26542329,0,-0.478450644,233.4833206,190.0012204,,,,
382.8479997,1495,117.7558518,-7.635871184,77.04126165,-84.66610889,80.91292755,21.53095161,-181.402292,-256.175837,623.7264203,64.71196186,110.7123471,66.27920906,0,-33.06438266,-294.711591,-281.4890153,,,,
382.8559997,1495,52.73398063,64.73376484,-68.08158987,114.8634511,-77.6593698,27.4886821,77.83277383,185.1213363,741.8480738,-35.22356671,-101.5455059,-90.57260973,0,24.09099916,393.2749391,393.4723904,,,,
382.8639997,1495,152.5623802,-5.602470692,116.6145063,-141.7275753,94.86687801,31.7840734,-321.6358435,-385.164903,568.9001048,111.1649043,184.8386196,145.3243302,0,4.971337382,-484.2627523,-393.2577743,,,,
382.8719997,1495,-29.90566269,-27.32618339,-116.1288804,164.2808645,15.85984062,6.476169784,459.068337,447.8243911,783.9931734,-64.3912816,-73.58158307,-77.2386391,0,-58.96809392,385.9213516,156.3992268,,,,
382.8799997,1495,254.1719017,156.4616811,133.6807349,-120.7491418,-62.49796654,81.88333236,-681.7322745,-462.9883841,566.987373,106.4137884,120.6979512,125.5327172,0,144.2509839,-258.3839348,146.178984,,,,
382.8879997,1495,-34.94717278,-155.0785959,-18.33045326,27.48254695,188.5253074,-20.29191576,419.2999343,193.9341429,729.2340773,-6.861596457,139.5593855,80.49377535,0,-151.1253778,-159.5513061,-515.508849,,,,
382.8959997,1495,116.0861177,145.656687,-53.23639817,108.9288951,-175.8611859,46.79290292,-179.5408065,100.2403618,727.3247539,-48.32404481,-114.9160253,-67.68831898,0,121.1033181,471.3354904,689.0617795,,,,
382.9039997,1495,185.9019325,-37.08865611,178.8357349,-214.4586982,155.850418,25.37692478,-428.9603388,-557.07509,527.310092,131.9752718,279.0908167,237.9234223,0,-4.740742136,-743.9711978,-631.4359549,,,,
382.9119997,1495,-120.196239,-83.31476353,-193.5575587,258.7570108,8.279207641,-30.53891747,745.6645622,682.5882773,850.5162436,-140.598882,-148.9461754,-131.769981,0,-106.5733082,635.5260918,267.3015095,,,,
382.9199997,1495,320.3611743,196.4236682,198.4661677,-191.6247831,-93.66191692,87.80018625,-971.684464,-736.1399945,498.7995961,131.5079702,143.1782034,167.7168856,0,209.4268278,-401.8117531,145.4847699,,,,
382.9279997,1495,-77.81446718,-196.3677965,-36.57113612,68.64310695,229.3747427,-24.14299941,624.6354756,301.4404095,755.2983639,-28.06841584,130.0063546,73.78155755,0,-189.2697486,-99.07098719,-623.6813099,,,,
382.9359997,1495,117.8001462,164.1506642,-54.57602048,118.095558,-204.6461677,50.2693465,-222.6087389,86.32452641,715.143944,-59.99302629,-139.6893217,-76.84609667,0,125.6154055,540.40417,765.8165834,,,,
382.9439997,1495,187.4549777,-46.32127697,198.0064189,-234.7654252,167.3529702,11.41229006,-450.7383273,-594.2652567,493.9946756,129.2035618,295.3963672,256.4344664,0,6.501860531,-803.500361,-726.6024048,,,,
382.9519997,1495,-149.2960977,-93.91869626,-218.1352966,291.5959838,3.777539415,-41.10093676,857.572219,796.7721297,862.871845,-164.9306991,-161.1675446,-140.4922366,0,-112.1332839,728.3817346,286.4387494,,,,
382.9599997,1495,328.7551369,203.8244644,206.6405729,-228.5040337,-107.4466155,84.65768251,-1056.363597,-798.4242811,465.3537553,132.8876385,156.2847697,185.6054005,0,199.4253659,-443.3097776,154.7307621,,,,
382.9679997,1495,-108.5586791,-222.3045533,-60.25797235,57.66695649,233.7868084,-46.57315394,696.1854145,347.7736076,742.9050105,-52.73367782,107.278717,53.5736435,0,-215.423712,-76.71887882,-632.8495047,,,,
382.9759997,1496,121.0940132,175.7277827,-51.95109116,103.9772604,-211.285813,46.54231906,-242.1084564,79.11894848,704.4789973,-62.71142403,-149.7301162,-86.95230393,0,123.4021212,554.4387835,808.0387026,,,,
382.9839997,1496,251.384747,-153.0127375,386.9900101,-473.6800427,408.7503052,9.868377138,-656.7760567,-1074.64663,362.2752866,267.5717485,587.6745513,474.4610109,0,-90.53426103,-1662.217422,-1661.436357,,,,
382.9919997,1496,-238.4985517,-453.7274977,-48.09199915,43.79654818,515.0598051,-108.5673487,1272.822294,528.8130213,766.2933707,-37.33838725,262.258965,137.1802222,0,-418.4986567,-460.2369561,-1511.816202,,,,
382.9999997,1496,141.0940975,122.9736822,23.33002988,15.71962979,-106.1265378,41.21744413,-302.9408122,-98.70408015,642.7089621,2.720088874,-27.10073611,9.843105238,0,101.8527941,179.8865778,395.1864305,,,,
383.0079997,1496,75.91938568,33.05175177,3.294680805,40.22139333,-6.469365458,22.49911766,-22.89611783,43.72430868,666.8365501,8.641957281,14.26353324,31.20498102,0,33.56505813,88.26920668,94.98740894,,,,
383.0159997,1496,130.1154825,28.41619465,73.1786001,-50.69511489,50.46587728,31.26037123,-192.5197515,-176.2304748,610.951127,65.06208986,115.0088838,111.8036926,0,22.75206942,-209.8257483,-178.3030596,,,,
383.0239997,1496,53.07789802,-19.95438468,3.434031054,20.27586632,63.55777815,-1.80754567,108.9737086,63.2479221,682.0047359,9.880663278,67.35045898,55.78605019,0,-30.42272598,-7.521629482,-164.1812235,,,,
383.0319997,1496,71.31328678,69.4606617,-51.67506926,63.15216037,-107.3467426,-4.757760805,-79.68155397,72.06314166,686.5528195,-33.08333064,-61.25488282,-33.810982,0,50.9247292,309.2047525,368.8396308,,,,
383.0399997,1496,143.2941977,-36.25126031,121.1569755,-175.2235008,92.74039369,-13.22729807,-340.5421181,-438.7756416,522.7177335,95.16664802,210.9778583,184.7664173,0,-17.01615328,-549.583607,-498.4694506,,,,
383.0479997,1496,-97.34801668,-70.58445219,-176.6805752,195.7313964,-30.63898224,-47.12542069,593.9967967,545.1388691,767.549355,-122.407949,-131.35163,-108.8126557,0,-79.73372913,543.4662775,236.1524894,,,,
383.0559997,1496,229.7654456,120.2040445,115.9121041,-187.8918381,-105.2460526,29.39148239,-769.8188852,-616.1388523,463.9166245,79.549798,92.03699088,115.2576765,0,123.5688,-328.7271568,106.1089278,,,,
383.0639997,1496,-63.00643986,-168.1911171,-49.4827984,20.28563852,159.089808,-44.65542708,490.706393,206.1598825,668.7513974,-41.66414493,76.24861765,40.54618847,0,-175.4296604,-84.45130981,-495.5767373,,,,
383.0719997,1496,97.82799385,145.0739773,-57.54823053,100.5671374,-191.3576185,41.05183343,-150.3068347,99.13807097,671.9017817,-58.64239596,-145.1197443,-84.53946809,0,102.3489611,508.9118272,692.6925529,,,,
383.0799997,1496,181.4784957,-33.41477784,188.0483522,-234.6210857,131.3311036,7.266179096,-488.1282108,-606.4446334,457.4416952,134.5578154,261.8655926,229.0302387,0,-8.785983491,-757.1807392,-622.157817,,,,
383.0879997,1496,-137.7684981,-93.14853431,-205.1509636,267.1741919,13.10468429,-41.3088868,824.1981967,759.239086,810.31808,-139.9308814,-168.7959564,-147.8226957,0,-126.1942348,660.6626264,238.3952341,,,,
383.0959997,1496,318.5976873,206.5533237,180.4566279,-197.0446002,-110.2418501,82.64173716,-986.5902445,-696.4178466,443.3284067,141.1966931,111.8014512,148.2266633,0,206.3331209,-395.4775139,179.6569069,,,,
383.1039997,1496,-105.0789216,-220.9810288,-75.66254717,45.36656588,216.1958983,-70.42151423,622.7253796,335.109587,678.6524075,-36.53279447,84.6727527,34.66224877,0,-200.0224983,-138.5206538,-634.0517993,,,,
383.1119997,1496,69.97659825,137.5123504,-107.1188112,118.0367903,-217.8684896,14.9173363,-127.8972413,196.6867432,664.8634158,-86.06329932,-192.7087893,-134.5744971,0,93.75306573,577.9682735,775.1892433,,,,
383.1199997,1496,188.3226682,-33.17916107,195.9926881,-263.8999918,135.4706928,13.15391821,-521.3601942,-622.8294617,428.6865172,137.6728704,278.1928392,233.137541,0,-2.237601939,-827.080289,-687.112229,,,,
383.1279997,1496,-174.5280435,-119.5646597,-230.9645996,276.3786795,8.879476735,-47.36386259,927.1126325,817.9361969,813.812198,-170.9316341,-180.970715,-174.7551159,0,-148.1776278,705.8142554,232.5912064,,,,
383.1359997,1496,328.1573014,219.2328386,195.1904865,-214.7726243,-140.2269612,91.3292158,-1036.301981,-796.133325,423.4396885,128.1974374,113.3818918,138.092904,0,203.8618015,-384.88529,234.9191215,,,,
383.1439997,1496,-95.95197192,-220.5886848,-42.61974374,42.52683728,218.9743767,-46.90341957,655.8998313,252.4884528,681.16649,-27.66942276,107.1147552,45.9405554,0,-209.8139807,-134.3675924,-646.3488579,,,,
383.1519997,1496,86.03313372,154.301703,-84.89054072,132.6077456,-229.7816386,47.00934523,-123.4926417,129.324551,674.3975983,-71.8000256,-197.6542813,-132.5502759,0,105.5918969,631.340604,853.8144736,,,,
383.1599997,1496,215.8396415,-12.39823542,223.9252104,-258.8396682,145.0500099,40.96463261,-552.0128356,-679.7372132,421.1647165,161.2272296,277.9503419,242.9696719,0,5.886051295,-833.4066591,-658.6606747,,,,
383.1679997,1496,-161.1142351,-109.7961708,-209.7178339,297.9711954,37.75458647,-28.07145369,958.7556232,880.1114676,823.7628525,-138.7567841,-174.6494996,-159.6818305,0,-148.308476,720.9949002,236.9740685,,,,
383.1759997,1496,334.3705299,223.5377616,199.3472783,-196.1551081,-118.6814491,102.0149226,-1043.02839,-697.3830589,423.4480252,165.7133274,115.1536445,151.768792,0,221.8395216,-384.1624572,245.4847564,,,,
383.1839997,1496,-89.61035758,-216.5796884,-44.41254631,49.71158396,253.0860554,-38.66444252,656.5137509,370.1296251,669.2858296,-2.771234844,109.7941584,54.00216656,0,-207.5991045,-177.6672428,-700.6751666,,,,
383.1919997,1496,105.8840274,180.6015777,-69.67258032,145.2443588,-203.5820343,62.61827757,-112.7075295,251.1530425,683.4904828,-45.65395253,-180.0699421,-115.5683208,0,104.9547356,618.5364558,819.9131622,,,,
383.1999997,1496,226.5076476,-5.081992297,238.5544196,-253.6818843,152.9085925,41.88825225,-576.6529261,-641.7225699,423.0077628,191.158727,307.9341224,268.3916427,0,23.43708187,-873.9721592,-693.837053,,,,
383.2079997,1496,-180.8268686,-131.7576295,-221.7058779,302.8303508,28.59855781,-51.26880875,984.7070476,883.7049411,816.2535701,-146.4351876,-175.6502831,-170.2774843,0,-146.3483327,708.3886264,214.6293805,,,,
383.2159997,1496,330.178727,224.3784395,199.2045845,-196.8695177,-150.9732744,81.7914329,-1031.300121,-745.0240769,417.7098111,146.7141689,103.5787752,129.7838253,0,216.6553778,-351.2929262,288.281491,,,,
383.2239997,1496,-86.44965303,-221.2812941,-31.62624995,38.51207099,227.547232,-51.7357269,653.570473,277.2165977,662.0768827,-9.164299919,114.3035428,48.18230147,0,-207.3599716,-171.1936251,-682.1867015,,,,
383.2319997,1497,78.13074921,147.324678,-94.90213401,146.565154,-232.2201147,37.91264506,-66.76512317,207.6856735,677.1711855,-71.93544931,-204.2934227,-146.1793853,0,99.03824218,671.631698,861.2327359,,,,
383.2399997,1497,212.1246416,-24.17137363,210.8810656,-259.3974511,129.1678339,25.773645,-573.2921526,-681.0472672,395.7262871,165.2413306,279.490486,238.7264795,0,14.64247087,-842.4500241,-653.3882552,,,,
383.2479997,1497,-175.9431182,-128.9531814,-232.8797394,299.0984677,35.57924876,-44.49498717,999.7196735,897.0295031,794.9521954,-160.2096871,-187.3639471,-179.5144872,0,-159.103762,712.1224137,204.4466509,,,,
383.2559997,1497,332.2206912,231.6324964,185.6990561,-195.5203335,-141.2186783,83.66372385,-1033.00857,-693.5506523,407.6223756,139.1623566,100.5531624,132.7333722,0,214.8011608,-351.9859622,285.2897595,,,,
383.2639997,1497,-88.54026745,-219.5191573,-40.00753325,30.43326617,251.7834595,-63.31402373,637.2652019,321.6296267,636.2524817,-13.68939359,117.6252319,57.46650857,0,-203.1213813,-223.8487079,-730.2257321,,,,
383.2719997,1497,83.41269582,166.2686979,-93.89539905,148.9774999,-208.0391861,33.39406124,-53.58639266,273.3849281,659.1681078,-72.31606053,-210.5869296,-139.6754118,0,110.0190798,653.4897153,828.2721061,,,,
383.2799997,1497,233.6339761,-0.51110853,227.8517504,-264.2187743,136.1703924,20.21150446,-618.1157157,-687.349229,385.8137948,186.2090378,295.8780654,263.3832722,0,30.30527071,-884.0594444,-679.3176057,,,,
383.2879997,1497,-176.3611469,-129.5583864,-227.8488974,295.6420822,38.47575767,-57.38171182,997.5235589,867.9977405,792.1143286,-146.7982663,-179.1919205,-173.1946974,0,-163.8610538,677.9182565,157.5181678,,,,
383.2959997,1497,330.1446537,242.9855868,187.8857734,-192.4197078,-162.8959448,88.15179833,-1043.413257,-752.4647592,400.7572711,155.2747817,87.30928996,124.6488634,0,219.5176025,-341.4604599,289.8565054,,,,
383.3039997,1497,-278.3751503,-370.0223363,-192.0703005,209.3224603,315.2301043,-120.4282155,1378.260254,821.9805222,762.5320525,-92.40015564,27.50599222,-45.53306594,0,-343.4736909,99.45635915,-827.5587616,,,,
383.3119997,1497,-87.85180821,82.52836706,-285.8923628,373.2132302,-232.8199011,-16.48428142,635.3848116,866.0505523,804.5581121,-196.3456563,-402.8577993,-324.7142367,0,15.73193987,1229.001165,1113.10859,,,,
383.3199997,1497,468.3933716,176.0509031,409.5886684,-492.0164632,39.49920114,81.06029406,-1547.26339,-1428.160985,193.9787217,316.4746366,393.6582902,368.7388954,0,196.7563821,-1339.48023,-578.4259533,,,,
383.3279997,1497,-288.4172944,-289.078813,-274.6157559,286.578423,188.5392692,-120.9207702,1398.313413,1034.065582,815.2862491,-171.0507688,-124.3703469,-168.0413547,0,-312.1843668,518.2980699,-315.4985862,,,,
383.3359997,1497,224.4819646,246.9268197,6.178960913,-28.80084675,-282.6634987,42.64077877,-671.0759655,-261.6968973,518.3645605,4.139983707,-145.0239599,-81.64047037,0,186.6897048,302.5697848,834.97779,,,,
383.3439997,1497,261.3603669,-185.074593,389.0701722,-531.2378495,396.4077112,-30.86079381,-758.8632127,-1199.441603,216.3339561,307.9593599,604.9020919,472.9697064,0,-95.09360259,-1890.337149,-1832.864389,,,,
383.3519997,1497,-142.7593932,-366.7456581,-20.7083413,-30.76523456,387.7990277,-120.4300943,842.7822151,263.5477612,588.9672688,11.38231882,223.4034548,113.3988137,0,-313.4900238,-582.7428173,-1307.594172,,,,
383.3599997,1497,143.3850195,65.3134157,37.69337821,-76.25700949,-74.06616201,-1.418272776,-336.9886558,-240.2954377,496.6210029,33.49341804,5.293605995,8.926754343,0,51.79343948,-101.3157848,109.6309477,,,,
383.3679997,1497,-27.99216135,-22.08547405,-127.3729098,125.0451093,-75.99369352,-39.63905858,339.9462779,335.7530405,639.1101638,-86.67131172,-145.8571731,-139.5840254,0,-46.35513697,406.51385,281.5593519,,,,
383.3759997,1497,172.9523438,53.66850544,96.81471235,-136.1292275,-30.89594399,14.01878799,-415.9066122,-420.0007587,446.2108932,81.67252354,83.02157691,73.44706367,0,33.6452736,-329.1233646,-129.0718121,,,,
383.3839997,1497,10.45992726,-70.72775111,-27.70838695,12.58066268,58.41895364,-24.9829189,258.7148649,83.2608867,584.6290145,2.662328432,26.9451101,-1.80716966,0,-110.5341078,-30.66830614,-250.0160097,,,,
383.3919997,1497,66.62646214,99.24028385,-81.01326352,105.4117698,-152.111067,10.89249537,31.68275846,156.9128463,627.0462602,-47.66408278,-152.0092908,-124.9490284,0,31.97699999,474.8177505,522.9254265,,,,
383.3999997,1497,197.0379366,7.424813917,170.566186,-206.9257875,85.81487603,2.92016264,-497.4856513,-598.5285394,395.3774091,143.2120673,208.8196872,169.9581092,0,30.93389627,-676.4113563,-518.9847311,,,,
383.4079997,1497,-137.648048,-93.08354295,-206.8484059,246.0016119,5.777936818,-66.84690743,804.1343525,690.9267672,719.7520157,-130.8361773,-183.7877482,-182.0572903,0,-112.1030115,609.4274404,214.712183,,,,
383.4159997,1497,274.3757094,197.65324,143.6648331,-155.4452342,-114.4561837,58.01262978,-803.2440438,-593.6639046,405.448868,118.1936428,58.9179804,82.07615357,0,164.0859077,-274.8069182,214.0139804,,,,
383.4239997,1497,-43.70950683,-157.3634904,-14.35876446,14.0565351,193.7145234,-55.26169281,439.8500667,146.4652251,573.4900649,21.93585277,97.68959309,46.43699906,0,-153.465524,-235.7513107,-593.7918015,,,,
383.4319997,1497,37.75060224,123.6322857,-118.0360797,159.8494441,-185.0502224,5.1415333,83.18377849,279.1367547,641.5142097,-78.97189881,-226.7602385,-179.6646872,0,47.94814175,653.5559378,748.0848796,,,,
383.4399997,1497,242.4031071,42.5943651,231.3952279,-248.3647015,93.20214275,26.45756577,-658.5529395,-733.9592959,352.5192542,182.1662753,240.2971759,208.6735319,0,48.67253929,-797.8725662,-544.8215738,,,,
383.4479997,1497,-192.1940452,-147.9059415,-224.0496523,281.9999521,37.41963056,-85.82907119,983.3144237,805.4134206,739.7988778,-133.2995822,-194.931088,-192.6737219,0,-146.696959,644.5991604,141.9085467,,,,
383.4559997,1497,282.9939645,223.1990125,144.1435399,-166.0755605,-182.9409954,68.83688046,-919.4403986,-651.4221461,375.7469275,117.3585757,11.69908314,49.12175798,0,199.9633465,-208.2661244,366.0245356,,,,
383.4639997,1497,-52.07475276,-175.8528183,7.486015149,0.460949235,214.3008089,-36.88876747,479.806855,145.7327137,556.8814257,33.38943265,116.6079488,56.65622697,0,-163.1599984,-292.3177393,-716.4322303,,,,
383.4719997,1497,14.59170925,120.0972104,-132.9602016,180.2293889,-203.4448148,6.125773777,113.8149873,347.4193306,651.2592335,-84.02715449,-246.5306769,-197.1454504,0,65.04308126,738.5961695,811.58915,,,,
383.4799997,1497,234.990023,37.96654505,237.1267341,-271.494331,96.21577535,28.62549489,-713.8667518,-754.9604513,321.4583018,179.585517,244.6846932,204.4044462,0,40.59471559,-836.0194061,-571.2054675,,,,
383.4879997,1498,-196.8517477,-138.6995165,-215.5105946,289.3295578,74.35766971,-72.98060269,1045.847685,874.0102426,738.4883799,-137.4307575,-186.3395989,-192.5140866,0,-169.1069017,640.9338284,90.47033741,,,,
383.4959997,1498,291.6850224,244.8806071,151.5730542,-159.941649,-172.6705222,63.12632197,-946.0214663,-637.4515291,374.736032,133.1964185,18.88077595,60.55653165,0,224.6382273,-201.0836208,415.9935531,,,,
383.5039997,1498,-66.11196131,-194.2596607,14.10531087,-2.847677674,241.1037705,-61.4937433,500.4485154,143.5084179,542.8708618,42.00481583,127.259705,64.03484906,0,-171.092964,-343.0181518,-759.6926494,,,,
383.5119997,1498,23.89420821,143.5921189,-113.8061189,191.9781802,-210.5839665,10.79117123,128.1112848,348.0868099,650.4880518,-76.36059413,-257.1000283,-198.212132,0,71.21558758,761.745097,843.9216355,,,,
383.5199997,1498,254.6486187,56.00265182,268.8674857,-268.0927154,77.73599196,38.86516219,-754.2678754,-811.37712,315.0937873,207.9749942,254.5635857,227.1546246,0,62.09340449,-849.0825659,-565.0943222,,,,
383.5279997,1498,-202.015846,-149.3694346,-192.3192451,304.7610845,64.21516748,-70.25077369,1065.313451,853.1275694,742.6137897,-127.2404507,-178.8796901,-183.6976691,0,-168.4151925,653.6501587,68.87449913,,,,
383.5359997,1498,305.3824124,265.7943007,186.7426137,-145.2507734,-190.500861,89.40094995,-962.7669302,-660.3816099,385.1435162,141.501041,28.06830378,71.1493835,0,229.7235309,-155.4515178,435.6870887,,,,
383.5439997,1498,-50.19804196,-187.7723403,42.65218143,4.461684844,250.312762,-35.7873423,484.4100939,130.7916997,543.6222087,62.50071884,155.0074705,92.37044867,0,-166.1344275,-344.3458248,-796.1722395,,,,
383.5519997,1498,16.36894542,129.705848,-125.8121597,211.0179163,-197.921338,8.464813486,172.1380844,405.0159636,652.0547519,-80.05837922,-263.2358332,-206.2701579,0,77.72524617,816.0755736,850.5862886,,,,
383.5599997,1498,259.3227624,55.66260081,257.8164379,-268.6073549,87.03093309,30.49215257,-752.9180763,-778.8364819,306.0634599,205.4318014,251.3371391,214.6438197,0,65.68104321,-820.2366074,-540.7518889,,,,
383.5679997,1498,-203.4735166,-160.1656038,-212.3102053,301.8996766,85.73020399,-82.81002852,1100.061496,908.6396055,738.5824855,-124.6871601,-171.8305008,-191.0652555,0,-177.5990061,660.8141042,66.03524025,,,,
383.5759997,1498,292.5331866,253.3876042,145.6877722,-150.4160771,-192.4138067,61.92598297,-930.6807119,-606.3610548,373.5422853,126.4907066,3.222850969,39.91659602,0,222.3135615,-115.2070364,479.5182299,,,,
383.5839997,1498,-67.28131858,-208.9974802,11.58634968,-17.51727828,242.6568679,-70.3725273,491.2538138,131.3051249,513.8216972,44.97862066,134.3887033,67.17260995,0,-184.6666672,-348.2718035,-784.6296861,,,,
383.5919997,1498,-2.330591676,114.7578773,-146.1569183,204.1888158,-207.2592145,-5.21438861,220.1371436,422.023372,642.4957853,-99.79992156,-279.0436552,-223.928375,0,54.97342666,848.5982141,871.5509818,,,,
383.5999997,1498,277.4740662,76.82502816,267.8703564,-286.4161951,72.41990815,54.98395746,-774.2721775,-822.99396,297.9714603,201.7433558,251.0870945,219.4164007,0,60.65177182,-803.6550403,-518.2400966,,,,
383.6079997,1498,-193.327481,-157.8273999,-202.3912261,293.4805822,88.25896045,-62.00297281,1104.826835,872.1838166,734.691826,-117.3763289,-162.4095814,-173.8152061,0,-185.8230079,659.7546711,39.53762783,,,,
383.6159997,1498,293.0459542,254.0635872,148.2416877,-135.3448517,-195.6780621,78.33858271,-911.4262658,-617.3236457,376.0768339,129.9277681,-1.017269435,48.63590613,0,231.1646625,-73.70822354,486.7875404,,,,
383.6239997,1498,-55.20019557,-204.8857238,20.26156993,-12.46986756,250.7490237,-49.88126087,477.5971071,91.43267901,505.0033767,53.28146338,143.0113096,83.28046357,0,-164.8703205,-348.2006001,-808.1004374,,,,
383.6319997,1498,-28.33980732,79.05044512,-176.3931032,219.1036304,-191.910215,-18.99889466,274.0528332,446.1753535,641.8846931,-107.2252608,-288.0599445,-234.0810982,0,48.21987672,881.5871388,860.0521311,,,,
383.6399997,1498,242.7222415,40.49926576,237.083759,-285.201404,76.22716039,28.97144931,-759.4312294,-816.8956359,279.6886378,181.2729655,226.3901587,190.4960717,0,42.23877034,-780.9462307,-504.1715088,,,,
383.6479997,1498,-213.2619473,-172.2641505,-211.8018986,291.0131401,99.11784486,-69.29896357,1130.581777,881.5264884,709.1632078,-139.1689074,-181.6059122,-197.9356911,0,-204.847409,657.0383975,28.86940182,,,,
383.6559997,1498,293.5465788,264.5248602,153.0504012,-121.6171863,-194.0668078,83.97543671,-888.0500942,-586.896322,366.4563422,131.5101044,-5.866907665,42.79237415,0,234.3255209,-57.10186938,522.3105044,,,,
383.6639997,1498,-29.00356947,-175.611504,59.36520662,-6.474761642,260.5322405,-34.08910429,449.2497787,82.51957537,494.4409023,84.90265402,173.2787567,109.4366277,0,-157.6365974,-391.6042279,-809.0394114,,,,
383.6719997,1498,-5.67748842,118.266702,-138.852013,237.4563096,-186.1058205,1.818161399,275.8480449,458.0681069,638.6633535,-84.20206506,-266.0237212,-215.6736159,0,61.60419448,868.1427755,854.3850814,,,,
383.6799997,1498,255.8266736,66.08757913,259.8908327,-270.1283342,61.2056878,38.50434372,-799.7089148,-848.9396285,264.5622823,204.6990907,250.3496529,214.8864525,0,86.62897127,-799.8453083,-502.5989693,,,,
383.6879997,1498,-221.6144414,-179.4240253,-205.4463941,295.5943923,91.7477432,-75.99165743,1127.500753,840.230318,689.0758382,-134.5762932,-161.377157,-181.2822519,0,-202.4195925,637.4233145,-12.07023875,,,,
383.6959997,1498,299.6099021,279.5441239,162.5413358,-131.2828435,-212.2897535,92.01860838,-904.3302799,-650.9152309,347.0529487,111.0765939,-5.111608574,37.03611272,0,214.860026,-25.68545796,520.1953956,,,,
383.7039997,1498,-6.226519668,-160.5548908,81.69705097,-24.63009998,255.8146783,-12.98656011,382.6905314,-33.87506222,473.7664933,82.42241508,215.9551639,141.847419,0,-137.7901746,-422.8343333,-851.7108324,,,,
383.7119997,1498,3.2130987,122.8295767,-133.1107989,247.7669231,-172.83395,22.81704841,271.9304477,407.6559696,642.3317195,-85.81864171,-219.7209583,-172.2281685,0,82.14872188,864.9066451,821.8297006,,,,
383.7199997,1498,301.6651504,113.3616428,296.7367051,-264.9500883,79.94727324,76.11649752,-866.9214586,-904.7142901,266.5174738,215.2934489,296.0657436,270.2950188,0,108.1675265,-809.231137,-498.9842915,,,,
383.7279997,1498,-184.7732025,-152.5473344,-165.2792313,313.9327926,141.479259,-51.06811932,1084.481072,840.5547125,702.3804244,-107.7718392,-86.69169499,-95.025358,0,-159.4877402,588.9770631,-44.54770361,,,,
383.7359997,1498,273.4760433,256.4393695,138.0919939,-105.716913,-180.8151657,74.5682903,-901.9979828,-579.6558244,352.5821161,106.2330879,22.25863692,84.44870234,0,245.1133514,-30.41990785,540.0860086,,,,
383.7439997,1499,-51.34648045,-196.9349473,42.35023958,-39.46033807,261.9995242,-55.94889302,359.4610321,-0.248758373,432.5713098,47.03110255,193.5359241,144.1471074,0,-163.7308529,-454.5243373,-855.3955725,,,,
383.7519997,1499,-28.32910845,103.5870155,-150.4416983,239.5716576,-175.9314734,-7.371314474,292.2327429,451.264419,612.630037,-118.2255456,-240.6536707,-172.6250058,0,56.4690746,865.9080663,805.4415216,,,,
383.7599997,1499,295.5282992,114.0884377,295.0792074,-275.4747591,57.15047395,71.08997462,-897.7313315,-937.6882147,244.3293647,207.4994789,296.9409879,286.6040517,0,117.4934739,-814.188448,-505.826061,,,,
383.7679997,1499,-202.3992649,-166.9096751,-176.9174439,306.7331673,120.1875967,-59.00133048,1084.562801,777.2992526,679.9943592,-111.5240701,-86.8661118,-85.83695183,0,-174.1503075,576.5465034,-94.83811126,,,,
383.7759997,1499,270.1779209,267.9857751,144.2166161,-91.63276828,-207.4428908,86.79393862,-890.0214106,-634.0911504,344.2438256,113.0952146,20.61222199,92.29025149,0,247.006326,9.878532029,533.1672389,,,,
383.7839997,1499,-22.2893858,-164.3383131,83.2755489,-29.91038664,259.4834094,-12.50196643,330.5650949,-80.64003851,430.4380543,83.49190046,227.9466592,183.6936949,0,-134.9727188,-465.293962,-880.6415582,,,,
383.7919997,1499,-39.02489277,95.05594267,-154.5139309,257.8507017,-160.2075388,7.61018817,337.0706826,464.1958067,618.1699565,-100.0389599,-230.6769048,-158.2275193,0,69.03820992,885.7884665,808.0619283,,,,
383.7999997,1499,260.8028437,82.69835743,262.8496009,-283.724765,57.75464138,46.22615473,-892.2011498,-906.9524543,214.7664308,192.5938595,266.254971,260.1577358,0,123.5006438,-795.6797035,-457.0800664,,,,
383.8079997,1499,-224.7640358,-193.2605154,-192.6880567,279.3343079,133.5114438,-84.22726811,1096.411718,829.0378617,646.6405159,-139.331921,-114.8202092,-119.1911973,0,-190.0489114,559.8942489,-90.12452933,,,,
383.8159997,1499,261.0893639,251.1947568,124.6995834,-115.994124,-204.8987206,64.83376792,-874.309806,-558.5238414,329.7790351,89.85370488,-4.8456032,61.08975471,0,237.0757184,23.16723844,571.3969484,,,,
383.8239997,1499,-34.65503852,-189.6057772,58.73474608,-70.95816848,246.8996255,-52.57028901,304.3274774,-64.65812571,391.4115819,62.26154045,203.8838312,155.3484895,0,-151.9352202,-494.2424911,-880.4735423,,,,
383.8319997,1499,-58.61836925,82.83934164,-178.8389883,232.247961,-181.0109407,-21.77232619,357.1068863,479.6451522,587.8164299,-122.062701,-263.4844791,-187.82701,0,28.39264002,893.0476793,789.1549277,,,,
383.8399997,1499,273.4133383,103.1920694,267.8813572,-304.8766299,30.00332586,58.338797,-936.6234311,-967.3072287,194.2321749,208.5474093,264.0629546,272.1326084,0,120.6839534,-798.6566933,-472.499857,,,,
383.8479997,1499,-218.1241001,-188.3138357,-184.0822133,271.5233432,124.116947,-71.99546205,1074.772226,752.4060617,630.4429129,-117.4925952,-102.1180427,-93.18500658,0,-187.4895674,531.8022761,-161.7509215,,,,
383.8559997,1499,237.2969974,242.0300842,105.7060189,-108.0217202,-225.9729052,47.11757544,-860.4967176,-603.3166604,315.1025999,80.33485249,-27.53928956,53.79445311,0,226.7096571,50.20979227,548.8270937,,,,
383.8639997,1499,-62.54968854,-208.9473747,41.58344943,-81.98106822,228.4990286,-75.28617043,282.4837396,-131.7398479,357.5330374,44.24734952,184.4785246,146.3606224,0,-167.4547341,-507.5538546,-914.6156337,,,,
383.8719997,1499,-90.8948742,58.80812689,-197.7467541,232.9028346,-188.6394223,-34.06064436,391.7344985,490.2476717,568.4744318,-153.7358376,-284.5223967,-209.1430996,0,-1.552396359,908.7653354,769.421665,,,,
383.8799997,1499,250.5731678,90.51631601,251.6394329,-313.9952916,10.74295908,33.05949374,-938.7330641,-943.8464192,173.4602401,171.4227303,243.6970388,242.7008968,0,95.97169296,-783.8210435,-439.3160932,,,,
383.8879997,1499,-244.1646204,-209.9878445,-199.5828109,257.0219313,118.7372024,-99.15956338,1101.642308,807.9114068,608.8902941,-150.3076079,-110.4250237,-119.465963,0,-222.107449,529.6396389,-148.2384318,,,,
383.8959997,1499,239.7769982,254.0323574,110.4416998,-105.2972067,-230.2133061,68.68880807,-830.1641367,-521.7590861,311.0040071,72.31475656,-26.59548452,43.60375792,0,221.7220621,94.16767076,607.0180193,,,,
383.9039997,1499,-17.38250647,-170.5404121,83.83443466,-79.96251618,239.5352279,-31.74115454,251.4681276,-112.3649326,357.7345344,73.57143308,224.3615098,177.6804665,0,-139.0000699,-524.6591977,-895.5460485,,,,
383.9119997,1499,-64.82505559,77.90351739,-165.3130327,266.6183983,-163.1940898,-6.789668168,427.5208648,538.636393,591.2789844,-124.2583474,-246.8635748,-179.6985105,0,28.4039493,924.9408567,774.9062064,,,,
383.9199997,1499,274.0415194,113.6207641,280.3893954,-284.1360507,19.72371899,62.05768774,-947.5564201,-949.9555105,179.7711488,198.693321,261.4330497,263.8294805,0,138.428702,-748.8472244,-415.9448005,,,,
383.9279997,1499,-226.8113773,-199.4844315,-185.4182839,275.9688279,136.1284181,-88.4634461,1104.809072,773.4304123,600.6316433,-133.1576269,-102.8117862,-103.0393373,0,-203.414971,536.6683909,-185.3673936,,,,
383.9359997,1499,235.090395,248.4770695,97.63156521,-81.52848806,-218.0337784,46.56295467,-797.0609784,-531.9099454,312.4478586,71.45161026,-40.38035917,41.49749601,0,227.6479721,141.1884387,603.6669888,,,,
383.9439997,1499,-27.7129156,-188.931142,68.28081732,-88.07179097,250.906674,-68.86623746,243.5179988,-158.5042625,330.1063704,64.89452352,204.0527624,167.1522516,0,-141.22137,-528.6112299,-920.0993927,,,,
383.9519997,1499,-78.96313764,58.09188444,-200.2916008,255.6726951,-146.1061247,-45.93259211,471.1944883,540.7699119,561.5944193,-141.8018235,-284.7092687,-206.4733945,0,6.528121652,932.7158823,753.7352752,,,,
383.9599997,1499,272.5815826,107.3675835,249.2298591,-309.7497252,23.56785576,29.05856583,-951.8436842,-966.7698111,151.6193154,196.583346,234.9505315,247.0225326,0,121.0062301,-752.8304021,-396.4736798,,,,
383.9679997,1499,-227.7126219,-211.1122297,-199.8843395,244.948033,142.9560086,-110.9483553,1111.174406,768.4100534,569.1976614,-135.7123005,-116.2746069,-118.9504205,0,-229.4398613,502.5577424,-198.364565,,,,
383.9759997,1499,260.9179608,268.2166898,106.3712526,-84.77613041,-221.0835127,64.27764678,-782.0049344,-496.0847691,303.3133208,80.61275451,-49.13178786,30.93063778,0,217.0534599,154.4539644,642.4335713,,,,
383.9839997,1499,-1.712224234,-177.8754324,84.31303924,-90.51182887,241.295716,-40.47604352,215.2550301,-150.0888961,321.5373518,99.19194612,226.5303511,185.0640347,0,-131.3775485,-553.5698051,-899.3863207,,,,
383.9919997,1499,-95.98063787,41.31673669,-219.2417103,262.1934262,-167.1638184,-42.19041059,506.4367778,604.8484294,550.9203918,-142.2291203,-284.8208237,-216.2351638,0,6.367753327,948.0199402,766.1058991,,,,
383.9999997,1500,293.7649403,133.2590357,260.6246343,-305.3305668,-1.491930846,60.88089173,-977.6618565,-939.8059168,141.5126703,199.7716763,246.4120565,253.0047055,0,134.5804692,-736.9032293,-367.003782,,,,
384.0079997,1500,-209.3400072,-202.2456463,-182.9842962,256.3043142,144.2325507,-80.48514741,1099.811252,776.1760032,567.5233744,-113.2003021,-76.93102224,-85.42764217,0,-205.7301813,477.2795594,-229.7576871,,,,
384.0159997,1500,236.2459727,252.996111,76.99868618,-76.8538478,-234.8820182,49.53140776,-757.4590904,-479.2415514,288.8011173,67.34239456,-60.81141919,17.11272328,0,231.0545896,178.6382025,649.0357515,,,,
384.0239997,1500,18.71855092,-151.530985,99.9256064,-109.2495998,240.1614226,-29.03425875,170.8537225,-217.4534409,290.1741401,93.63539267,228.3449144,186.6925742,0,-122.7547021,-587.3663221,-922.3344317,,,,
384.0319997,1500,-56.21077171,72.78785501,-176.6299881,274.8617847,-139.0966707,-9.534582133,512.3492257,566.8085879,558.2746842,-114.9682504,-252.3858614,-180.8576976,0,18.60775494,918.5008269,733.2918831,,,,
384.0399997,1500,303.1311669,138.6029122,273.2039428,-293.4954563,6.123407775,48.51320437,-989.2593333,-978.0479407,134.4120191,216.4629085,238.3953038,256.0373635,0,148.7739267,-744.1796737,-340.2239132,,,,
384.0479997,1500,-217.1212997,-205.2453784,-179.6733187,256.241512,156.2433672,-101.5035514,1103.549218,765.7503022,540.0101383,-117.7397213,-103.4251896,-100.2186407,0,-212.1779333,451.8541437,-231.7620017,,,,
384.0559997,1500,238.8564031,268.9306901,92.23573922,-55.96263281,-224.3823853,59.24580836,-736.748911,-422.7772725,290.1517033,76.52089809,-67.19872159,22.49393174,0,235.3796189,189.6866729,683.5265241,,,,
384.0639997,1500,18.9609761,-146.4538896,120.4579146,-98.41207762,248.4166857,-34.07438281,152.9384168,-173.0462285,280.4270181,114.3670829,236.3624198,201.5678263,0,-98.25811943,-613.1116394,-908.459653,,,,
384.0719997,1500,-81.93588575,57.6040586,-187.7203463,292.8687525,-131.4997561,-31.6818898,563.0236508,671.4285907,547.4912106,-125.0267505,-264.8088134,-194.2868694,0,24.17723142,930.9523381,735.4303261,,,,
384.0799997,1500,303.2269207,150.1440345,273.6983122,-286.1108008,-2.717135064,60.26794749,-991.5290031,-915.1132338,127.2178977,210.487383,241.2822458,252.4990997,0,154.3284343,-730.0525267,-313.169424,,,,
384.0879997,1500,-212.5349838,-200.4992804,-162.9527341,259.8603891,161.1061357,-82.03718978,1106.370756,788.5369272,535.7141409,-108.1452942,-77.51672095,-85.29847366,0,-218.0919356,431.94867,-252.8704706,,,,
384.0959997,1500,230.1102202,265.0361375,86.94113237,-42.19909342,-227.3326088,65.34186285,-697.1353035,-395.5566434,289.2553312,63.77912995,-73.58136535,8.620843448,0,218.5659803,233.282799,713.3325167,,,,
384.1039997,1500,113.0983983,-238.7767892,324.1102259,-353.1675412,461.0653763,-16.50617172,-191.6908192,-787.9651894,95.29681808,256.9491446,545.7616132,437.9211923,0,-158.8964102,-1552.854174,-1856.354519,,,,
384.1119997,1500,-195.3804109,-182.9738127,-145.5235738,250.1499366,164.0412448,-80.83364133,1051.887917,707.21944,523.4827576,-92.23478873,-65.73756988,-80.99951228,0,-184.4743528,412.6287613,-240.5026381,,,,
384.1199997,1500,187.6581783,261.0264904,35.37205182,15.0834243,-261.6780834,40.62520826,-581.1115357,-261.4453703,321.9628756,20.95370961,-149.4633357,-67.36616366,0,213.8702769,448.5166174,896.8587798,,,,
384.1279997,1500,27.58404965,-86.93395981,90.16492186,-68.55107189,150.9529352,-23.2134239,75.50296326,-150.1242037,279.6517307,73.47799839,142.5700088,120.1142557,0,-63.3310301,-367.2939591,-544.2916396,,,,
384.1359997,1500,-27.2795802,-26.77184934,-37.63819074,87.46935129,22.46341502,-22.50771605,295.6055104,213.7883413,384.3887338,-8.083986615,-32.96519072,-18.94553204,0,-23.02055026,193.1504435,16.26699297,,,,
384.1439997,1500,56.2950732,99.87782177,-30.98021915,62.54788642,-119.9987508,5.659456871,-59.18786514,64.69474439,354.9245215,-6.792096652,-100.9353501,-54.02444741,0,76.10177432,347.1661874,434.3851507,,,,
384.1519997,1500,102.5626115,-0.533125226,112.7968084,-107.1344593,75.76252129,5.944285529,-186.0302613,-282.9626795,246.0021564,104.6595537,145.6007803,139.5524226,0,2.465103626,-357.7359291,-381.6439995,,,,
384.1599997,1500,-64.33741444,-40.02730225,-94.25106526,156.144197,2.954235869,-35.67691105,499.1342263,415.8706518,436.5994168,-48.33873039,-88.39636481,-67.87512363,0,-58.49595134,420.688885,134.2322652,,,,
384.1679997,1500,146.8410798,140.851211,61.92028093,-31.78348537,-120.0210454,26.5764023,-346.9566731,-223.7118989,289.5069527,50.11387775,-27.98462737,15.07023863,0,114.7262679,136.6858158,351.1168208,,,,
384.1759997,1500,44.61952792,-72.21286148,98.17127734,-62.55611255,156.6399476,-16.52163982,108.3467531,-143.7171988,279.8335771,92.89785102,164.6492591,139.5677418,0,-52.16978866,-352.6145292,-557.2939973,,,,
384.1839997,1500,-33.41918982,72.63261602,-121.291436,242.1098564,-91.66255703,0.206415007,451.8868871,489.9394806,487.5378295,-62.54991351,-182.8900138,-130.899024,0,24.41945424,759.1880355,601.2334542,,,,
384.1919997,1500,254.2243536,126.6834989,228.5070417,-205.8313786,20.41818829,65.46033289,-735.2686604,-720.5189176,164.5007854,195.9233882,202.1836004,208.166542,0,119.344814,-523.754696,-220.1086199,,,,
384.1999997,1500,-162.7430564,-171.4510374,-138.238772,210.5871941,139.0911345,-78.33638283,896.4425964,622.7462881,470.8913082,-72.89345892,-72.00103902,-81.54102419,0,-156.6597282,386.4880247,-165.2676037,,,,
384.2079997,1500,177.7301628,214.5615449,48.79723494,-0.849242343,-179.4609896,51.4963074,-468.9317107,-220.0056309,289.6556406,43.13802918,-103.3355294,-36.7210088,0,179.7518504,315.487632,658.8716403,,,,
384.2159997,1500,40.91364239,-109.1617629,126.696049,-107.3998554,215.781964,-10.63653554,55.92947689,-212.7319403,222.4156473,126.7224199,207.5329603,173.966783,0,-77.40235568,-543.9477202,-750.4436043,,,,
384.2239997,1500,-119.544763,15.53591192,-202.7195429,298.275475,-96.24372522,-41.49995734,670.7918371,725.2144491,491.9749859,-115.8348871,-274.1928155,-210.3773885,0,-10.26314338,915.8254112,668.8530156,,,,
384.2319997,1500,280.2432232,168.6914164,250.8229753,-252.6029402,-24.04815032,77.23069151,-915.2471336,-816.9951882,92.66993616,200.9412732,171.9824689,194.5130136,0,152.6904738,-574.6221627,-155.7357289,,,,
384.2399997,1500,-203.5289006,-190.4156584,-144.8542278,227.4365546,161.7368324,-66.53561628,1041.86124,732.1371084,461.7890568,-73.36989967,-70.06408436,-81.73077104,0,-207.7938102,382.4179905,-258.3208191,,,,
384.2479997,1500,190.1940431,256.2063728,44.48236525,5.09574166,-229.3499917,68.53781917,-523.2852992,-219.1606261,278.225533,61.99568086,-115.0979567,-31.56636826,0,213.6940203,372.2880907,781.6900982,,,,
384.2559997,1501,46.39788771,-112.7223343,135.2606635,-125.6460662,215.3581531,-5.210635051,42.00539456,-255.9751608,197.9421844,144.2611209,230.2357964,196.7342431,0,-69.3169384,-610.2985628,-810.1654219,,,,
384.2639997,1501,-135.0450286,11.95883466,-223.6495437,309.1053829,-113.1642861,-48.15272088,742.1483064,758.7471511,493.54026,-136.7514615,-295.8109119,-238.1529211,0,-32.81090269,977.2622418,705.975062,,,,
384.2719997,1501,307.5827629,189.4748938,259.1514929,-276.5116079,-43.76629034,78.80986915,-988.2556334,-901.455828,79.45881741,211.3337489,186.901224,202.5387131,0,168.2742244,-595.0067347,-132.0905204,,,,
384.2799997,1501,-204.4823915,-214.8748985,-150.6396775,231.0767836,178.5812022,-75.98755576,1076.477589,721.322822,464.9056921,-63.36142245,-51.086709,-70.21038182,0,-208.0564155,350.3535544,-319.3137884,,,,
384.2879997,1501,186.2602333,246.5923021,27.3788284,11.31419405,-242.9760995,46.10584464,-516.8378992,-223.4220714,271.7279653,46.26635851,-146.8004887,-61.51250581,0,200.9878691,404.8939238,821.5796854,,,,
384.2959997,1501,58.4339892,-109.9309356,138.1051865,-140.4329194,214.7935302,-16.68503502,18.25516087,-287.7274947,184.1014596,143.733259,231.717491,197.3400591,0,-80.63110516,-643.0319381,-837.5042415,,,,
384.3039997,1501,-140.1920555,-1.868772469,-234.0519947,319.6850427,-113.1048295,-50.16700086,769.7730336,799.4564994,501.0434848,-130.7572184,-285.9652627,-226.9121564,0,-31.46828478,973.4685821,683.9116765,,,,
384.3119997,1501,298.164877,176.2348629,247.71716,-280.8158853,-67.69878328,73.74776262,-1003.80389,-878.627992,72.51899174,201.360645,171.5307149,188.7890112,0,163.8534554,-589.2531865,-115.449996,,,,
384.3199997,1501,-214.0908741,-225.9430362,-155.4324448,218.2293745,163.4765915,-83.39938679,1082.3195,746.0806309,449.9398585,-84.82340663,-61.4315762,-87.40990645,0,-221.6358123,340.9579832,-343.8403012,,,,
384.3279997,1501,180.4324905,243.7222782,15.88822354,9.088856422,-262.7491706,39.77230496,-503.7616806,-182.9820973,268.7773579,25.31202739,-151.2379622,-72.52971019,0,196.5507251,437.0006404,841.1228745,,,,
384.3359997,1501,61.14387105,-112.132843,129.4670735,-162.5953736,199.4763686,-29.02440795,-3.795222126,-298.4934811,174.0503299,131.4657246,236.0978676,196.7214464,0,-97.60315029,-645.8661997,-842.5328326,,,,
384.3439997,1501,-160.4709194,-23.98816538,-266.8227884,308.1716069,-122.7811344,-83.92118256,806.1668031,810.0494729,487.1635625,-148.9762917,-300.9203872,-243.5379704,0,-44.44744349,991.8409345,673.01343,,,,
384.3519997,1501,284.8913661,168.0971647,221.7795842,-298.7945581,-84.36458127,50.11904649,-1001.345899,-902.0430653,49.80836087,183.7416102,149.3664829,168.4973738,0,161.2896705,-562.5073819,-89.0511042,,,,
384.3599997,1501,-216.2373099,-224.2219441,-153.8404152,199.6403433,170.6178732,-86.26812849,1082.005335,704.7903639,433.2576813,-89.44059847,-61.42119965,-84.83809459,0,-232.0825714,327.3634383,-365.1023046,,,,
384.3679997,1501,158.823191,231.596611,7.359269769,12.59035677,-256.2923889,29.89619303,-474.9158295,-187.5478905,263.9530951,21.31283641,-167.8133586,-83.14924204,0,207.4794288,464.4511073,861.2783809,,,,
384.3759997,1501,54.27139657,-113.2091571,143.4317708,-177.8842087,207.3950838,-18.61969,-34.36856512,-344.434466,153.9292856,129.6661813,223.5823194,184.3940512,0,-97.75436659,-664.3102768,-837.092098,,,,
384.3839997,1501,-149.141788,-8.392516833,-238.8672825,316.9035641,-93.48085641,-56.42896739,818.670579,822.8731891,483.9640825,-143.7797705,-294.9445125,-239.2006191,0,-61.77410799,969.7224175,651.0009083,,,,
384.3919997,1501,306.5440109,186.7908746,239.2910333,-283.9743077,-70.07480756,55.96113511,-1016.60267,-872.8318616,49.8627304,198.695028,156.8292269,178.5470854,0,177.1939701,-563.267419,-67.12081097,,,,
384.3999997,1501,-201.1354075,-217.530295,-143.8511275,190.885565,176.9272189,-82.78650103,1053.765309,724.9382339,417.6625499,-78.1379564,-52.16736443,-76.12336979,0,-229.6249754,292.3621896,-397.1843062,,,,
384.4079997,1501,166.4496147,239.0873391,2.757183189,17.49453822,-265.2888558,38.32303861,-470.7097484,-125.9837418,260.0456258,27.53060265,-166.6478571,-81.32853681,0,203.1354269,468.8954849,848.1370496,,,,
384.4159997,1501,72.87694447,-107.803179,148.4985904,-180.9079884,189.3833974,-21.4693708,-76.77785659,-335.9658512,144.1818398,143.2662588,239.3787286,197.7803702,0,-79.21048817,-687.0250055,-853.965664,,,,
384.4239997,1501,-145.8557725,-9.47025277,-229.9173475,327.3029609,-104.6160046,-48.04986812,823.3103629,840.2788289,483.2601365,-141.6195042,-283.3539999,-229.1841844,0,-53.93728114,969.7277293,621.41062,,,,
384.4319997,1501,304.8139787,192.072157,249.9576329,-272.4734884,-86.75732886,79.18406624,-1041.792791,-896.1436178,51.98936852,203.1903915,161.7733711,188.5528496,0,186.5694627,-538.6064789,-43.43077647,,,,
384.4399997,1501,-190.294014,-209.4071839,-119.5302597,195.9228313,188.5339777,-52.08458166,1024.247796,659.9288914,417.643879,-60.60058311,-27.28791357,-52.63255151,0,-237.1673446,276.529606,-412.7549577,,,,
384.4479997,1501,184.0963609,265.7601384,29.43541897,50.21744908,-240.4682091,80.33463553,-462.1173313,-152.9504607,279.7789487,55.0646535,-138.9943798,-53.86959379,0,215.180921,498.369714,868.5281575,,,,
384.4559997,1501,68.6184957,-110.3124365,157.2162074,-163.6333704,209.2810646,-4.667916203,-104.643616,-386.2870481,139.6819681,168.8715088,259.5544571,218.1982097,0,-42.74374275,-685.3326927,-830.2659338,,,,
384.4639997,1501,-174.2270379,-37.42450582,-250.2125924,333.545376,-84.04310074,-53.388205,854.1035183,848.7826238,463.2684637,-152.5883105,-301.1309055,-252.2273832,0,-65.83707989,980.342306,614.9966096,,,,
384.4719997,1501,296.7608939,186.8324862,230.5638718,-277.7288707,-82.43465544,75.24583206,-1048.214186,-878.0824221,35.41018832,200.0530994,144.1088242,168.4180847,0,188.6327107,-526.8092574,-28.03639671,,,,
384.4799997,1501,-219.5195719,-247.7264065,-155.1802653,176.3264711,192.1477734,-76.76469614,1021.891513,688.5278425,386.4639715,-70.32116832,-39.96275002,-75.42886715,0,-245.2063517,240.7772123,-449.6621811,,,,
384.4879997,1501,158.2829353,245.3717171,-11.42476449,37.55392411,-250.3107832,72.01457831,-430.5146989,-66.15724696,250.6934733,11.84999395,-185.258761,-115.4110659,0,168.1969225,520.7470173,865.0043335,,,,
384.4959997,1501,88.81552425,-94.99593415,152.9515605,-182.694613,203.4085126,13.06159421,-149.0035724,-351.5234356,120.7693349,167.6925699,260.8679344,207.7032033,0,-45.95525409,-710.2007049,-845.8213465,,,,
384.5039997,1501,-185.2353979,-60.24672119,-279.5212363,338.2836825,-76.16832314,-60.74121588,881.2694341,915.5249039,453.2266105,-149.8517259,-291.1823148,-250.2432046,0,-61.09072381,961.1016485,583.4558725,,,,
384.5119997,1502,288.4746626,185.547876,201.4412122,-279.3827711,-93.12055343,71.63086821,-1039.856726,-843.1916392,10.51635492,179.370705,120.5379643,143.242276,0,177.0686108,-493.1130378,3.057634348,,,,
384.5199997,1502,-209.7959998,-236.0430562,-152.4375724,166.7086552,194.545119,-74.75630819,1001.798009,652.7523482,359.964451,-67.62401667,-32.46805849,-65.8072038,0,-231.2044659,230.6182862,-465.2605635,,,,
384.5279997,1502,142.9654934,232.9529577,-25.19099878,48.69025945,-248.2487824,52.13200103,-405.6601819,-102.4769906,235.8380997,13.82410654,-183.4039635,-103.0115715,0,192.3199696,546.1793449,882.6922419,,,,
384.5359997,1502,91.63671542,-86.14035523,163.2227356,-200.604824,201.3438679,11.31337676,-190.6414641,-470.1191064,90.495759,168.9571017,267.4786203,225.841052,0,-51.65549138,-715.401342,-828.5752477,,,,
384.5439997,1502,-176.3695034,-36.10753466,-252.1844381,331.6320919,-60.68720031,-40.43712582,865.6709377,818.6088871,442.7277035,-134.2489355,-263.5677373,-210.6176511,0,-52.51745943,939.5486102,564.0321977,,,,
384.5519997,1502,296.9235478,212.5791413,232.0066235,-275.256094,-76.6686787,98.13667924,-1088.561383,-918.314746,9.780282304,202.8757472,156.4039513,196.9692391,0,223.608468,-520.4247588,20.47504675,,,,
384.5599997,1502,-199.882834,-227.4845757,-111.6152278,163.363299,232.9562804,-45.66815087,943.5450605,614.7342802,355.201696,-54.18122556,26.12578068,3.769242762,0,-214.1599108,144.612905,-501.5200843,,,,
384.5679997,1502,136.3978036,227.8186602,-15.67013442,60.47013709,-221.5723875,59.47260032,-405.8002451,-31.66864639,238.6655947,0.023081423,-155.759361,-64.31141182,0,193.3048509,509.0558423,872.0388468,,,,
384.5759997,1502,97.28798909,-81.31906738,178.326656,-211.3862645,214.4803466,15.26716155,-238.4784212,-409.5758326,68.17076416,151.2377939,284.3748666,252.674471,0,-54.04455354,-776.322737,-845.2649119,,,,
384.5839997,1502,-176.3472692,-43.45485482,-232.9611637,335.9516487,-37.1623665,-30.97359449,876.4736341,916.6013244,426.4829273,-146.3647591,-228.653053,-173.4893524,0,-68.2037014,889.9321292,514.8692594,,,,
384.5919997,1502,294.3845399,207.061134,233.0170915,-264.5787315,-90.18229777,95.93927082,-1083.907622,-860.5743156,-8.348285575,200.2240339,176.0647584,221.8830045,0,229.9073465,-523.1544346,25.6416015,,,,
384.5999997,1502,-200.6608198,-231.5158498,-113.3291353,156.5601248,206.315773,-51.90474173,936.2578288,581.2328083,318.0817586,-55.51827418,31.39453082,14.48635914,0,-206.9081052,125.0928458,-526.8633147,,,,
384.6079997,1502,122.3321201,223.0325209,-25.23949789,69.73547493,-246.1634074,60.40621446,-373.98589,-74.78111571,219.0934984,-5.640268273,-161.0627375,-63.08149528,0,204.3355354,545.6616567,886.2107623,,,,
384.6159997,1502,-14.13692495,-237.3124205,160.06602,-208.3652165,367.0736703,-14.08763852,177.0472591,-317.5092252,74.04056777,142.5214352,362.8606059,296.7070116,0,-190.2133225,-960.9121792,-1371.312862,,,,
384.6239997,1502,-349.5243363,-191.4566548,-346.6470161,465.7362465,86.75243883,-78.88687669,1598.890035,1385.700333,535.1651812,-236.754944,-283.2818278,-242.2740694,0,-241.0879023,1089.724496,252.610882,,,,
