Time:125Hz,Epoch,FP1,FP2,C3,C4,P7,P8,O1,O2,F7,F8,F3,F4,T7,T8,P3,P4,Event Id,,,
537.3439996,2099,63.52556634,102.4761783,-151.4506951,704.8939435,-335.114654,130.3406452,-305.3062213,418.8286876,65.86910953,-4.923916478,-221.6662268,-85.89430869,0,226.5598951,648.7245739,642.2661476,1111,,,
537.3519996,2099,-10.38396318,-370.3307144,207.9500774,-685.9796029,190.3237716,-111.2414543,-321.6556974,-671.8511807,-140.9777061,184.4626579,267.8662236,211.4522049,0,122.7033061,-927.8263747,-310.9874913,,,,
537.3599996,2099,-189.4817471,-268.2173376,-284.7792767,368.1614929,2.344620874,-4.527563908,1091.814443,742.4151922,261.8529399,-310.7590142,-190.6590302,-186.5135237,0,-508.615998,881.4661129,-301.6048897,,,,
537.3679996,2099,173.7016054,37.3744712,150.9519291,43.61530538,-223.424114,61.19802075,-1154.433428,-483.3277458,-199.2893122,301.9373617,75.75653559,194.1903119,0,646.840267,-512.3475165,645.0117456,,,,
537.3759996,2099,-237.2889229,-557.7781262,-58.19669467,-474.1601011,307.3631113,-148.9134513,1013.652104,22.38381577,148.7316604,-204.2793249,115.83407,-20.51951054,0,-572.6135786,-74.32258464,-873.6390614,,,,
537.3839996,2099,47.41122263,90.52401468,-167.54115,702.6369707,-346.2543625,106.6061741,-250.9285089,398.0308175,60.51953866,-41.41896718,-239.1600037,-95.94396174,0,197.3506998,681.5811192,638.2533499,,,,
537.3919996,2099,3.359549382,-350.1568856,229.4868576,-676.5882922,170.9804262,-98.57850611,-363.3619242,-720.5210899,-153.3641966,186.6474874,267.1316916,224.2879402,0,141.8825389,-933.7522058,-277.7432489,,,,
537.3999996,2099,-188.8827191,-274.7801344,-259.9138956,354.2493066,15.52462139,3.297044649,1116.243776,720.9325191,266.6341061,-302.8158878,-175.7335755,-171.248914,0,-508.1745325,869.3602995,-331.4777944,,,,
537.4079996,2099,175.3497463,42.13814256,146.9089061,75.19676447,-235.516274,58.1174817,-1137.652636,-443.5613717,-197.0327812,299.2607518,60.37565164,184.5178456,0,647.8626623,-465.4693402,664.1563056,,,,
537.4159996,2099,-216.8795174,-544.6379439,-38.32896246,-485.8901448,309.0028999,-142.7009541,992.1423769,34.37510826,137.8574324,-191.59438,119.6607104,-13.21631261,0,-566.9351336,-89.38293237,-871.3914495,,,,
537.4239996,2099,58.15023556,103.5754868,-154.2488141,724.6075473,-334.6172242,129.2595712,-214.1658194,469.2187203,78.98275361,-32.55309781,-226.442566,-81.0704427,0,188.3557476,715.6598575,618.6558484,,,,
537.4319996,2099,16.20778161,-335.0400093,239.0335854,-647.4644621,171.2168937,-88.4697616,-404.3780545,-680.0390974,-146.9080327,207.7611064,284.9319062,242.5978608,0,181.4606846,-930.381384,-243.8095565,,,,
537.4399996,2099,-186.096652,-279.1782487,-257.9443048,343.9779197,42.16680738,-3.707527584,1139.631533,745.4551553,273.5644591,-304.0253366,-162.3458589,-169.6594176,0,-513.8911253,865.7551803,-347.6388101,,,,
537.4479996,2099,178.7307064,58.94117026,142.9148341,104.8846673,-227.8503386,67.62922847,-1138.742223,-417.5513364,-189.7265361,305.0239635,56.61035019,183.8831715,0,659.2172514,-437.4177348,692.8186037,,,,
537.4559996,2099,-213.8085153,-542.7723629,-26.21424162,-503.4648123,329.4718946,-134.4031328,955.6095444,-12.38186432,133.2768678,-167.2270369,140.1335091,4.200916717,0,-538.8601282,-138.1965595,-862.3677767,,,,
537.4639996,2099,49.99376649,88.6283485,-166.9158776,730.5572015,-312.9894067,128.3426326,-174.1658211,460.5950582,88.32281091,-39.86264064,-220.2009904,-87.42309872,0,175.4668634,728.014391,604.7661848,,,,
537.4719996,2099,5.066070616,-346.5017692,223.2031326,-646.8564177,166.9703696,-97.85460861,-439.4249059,-723.6050285,-167.1400405,199.596098,271.2202091,224.7863362,0,191.1142927,-938.6806839,-208.7433268,,,,
537.4799996,2099,-207.1158636,-302.9753997,-265.6572115,309.6340111,57.91300708,-9.000292576,1165.996537,700.4465257,259.1276177,-315.9814167,-165.6092001,-180.5075912,0,-541.8524395,849.2002773,-376.18815,,,,
537.4879996,2099,166.5362248,54.91239289,129.9853205,125.3884213,-235.5890122,68.30304721,-1126.763263,-423.4191401,-196.3718653,294.882645,43.42829532,170.2984774,0,656.1148411,-402.3367995,710.165878,,,,
537.4959996,2099,-239.7729231,-568.1509556,-38.12286846,-539.5693996,321.7059912,-160.8954845,934.5027629,-58.53534948,103.031037,-188.3604726,122.7411168,-19.82857739,0,-541.3433964,-162.9572505,-853.7387607,,,,
537.5039996,2099,16.72931474,67.17429778,-197.1185348,717.1601004,-318.5188582,110.5296226,-123.3350336,483.763856,73.14617731,-80.84237751,-254.3663246,-123.875313,0,128.5109499,757.8886489,585.3668208,,,,
537.5119996,2099,-3.366221943,-352.8094484,206.9896988,-643.7532671,143.9379245,-109.4593838,-466.1816731,-696.7957646,-193.2783822,189.811776,245.2753325,204.7301562,0,190.2160147,-938.8489319,-174.0804338,,,,
537.5199996,2099,-237.5325914,-351.5219127,-293.1562187,265.9875006,45.6761664,-51.69930171,1206.795396,741.5386249,229.2355433,-356.6457478,-197.3901509,-222.3591023,0,-586.7414917,844.5506884,-393.9780601,,,,
537.5279996,2099,141.7445868,35.364303,88.28310069,132.9453238,-268.5708665,41.72130399,-1098.099339,-342.3893184,-228.0702788,251.6214961,-6.16623905,125.6544553,0,629.1255265,-355.4817616,729.694021,,,,
537.5359996,2099,-239.4587128,-579.9799969,-45.46112527,-560.0768042,308.6356122,-168.9325193,920.9832641,-33.9809084,72.47514813,-178.5552902,122.1178989,-13.49263876,0,-533.5916872,-194.3697886,-847.7476592,,,,
537.5439996,2099,17.00359165,55.78121508,-206.160881,719.9908388,-326.472113,106.6904375,-73.24070563,514.8520561,66.99263599,-87.16086637,-262.9775154,-133.1888587,0,102.881619,782.832861,567.0094186,,,,
537.5519996,2099,12.82852914,-333.7967083,213.4004563,-624.5244416,122.9252555,-104.6446006,-511.2121458,-740.2081405,-206.6657552,198.9352231,236.2837652,202.6571816,0,217.9744745,-936.1047514,-140.2309295,,,,
537.5599996,2099,-229.679613,-355.392263,-278.5662579,251.3115277,50.75612766,-49.90732935,1212.372549,657.1611393,240.5068629,-337.0721362,-172.1687137,-203.5619701,0,-589.7417862,821.3787127,-420.9350318,,,,
537.5679996,2099,156.7530401,53.61122938,102.3761378,164.0740899,-280.4838683,55.09432161,-1110.142362,-411.4253199,-206.9489139,266.7482705,2.310788649,128.0727414,0,622.5297737,-335.2887962,737.7076529,,,,
537.5759996,2099,-218.6559783,-561.1631573,-10.22099999,-568.143609,318.4954515,-156.7375462,863.9452868,-133.6920636,79.03697023,-160.8917648,137.7408949,-4.304327071,0,-514.5995269,-233.2159168,-839.7642361,,,,
537.5839996,2099,29.72021052,65.9743896,-187.6884244,732.1214429,-306.277669,124.1086503,-59.13383642,502.5180337,96.69401203,-84.1781279,-245.5082501,-122.5572783,0,101.7016105,801.1990979,546.4912118,,,,
537.5919996,2099,28.35837597,-319.607687,230.2026493,-598.3378588,120.4955139,-93.32324068,-571.2939923,-725.4543677,-193.8228514,220.3956489,255.7485834,217.0159457,0,256.489684,-945.0133518,-116.1231748,,,,
537.5999996,2100,-241.8270323,-377.1975903,-276.8665317,235.5895279,68.03041811,-62.39355573,1226.987463,713.3070509,241.966404,-347.3807522,-165.4050174,-210.924002,0,-597.1829791,805.069781,-438.8972659,,,,
537.6079996,2100,152.5237974,50.22315156,83.18242005,189.6786061,-286.626074,54.88340444,-1093.910623,-304.2103854,-207.6675909,249.182184,-12.59728623,116.5471007,0,623.1243578,-294.5451137,762.5600424,,,,
537.6159996,2100,-220.8512538,-578.1217234,-24.88027598,-590.1544439,307.2756477,-168.6221216,844.9643559,-89.65867422,63.03895618,-157.4877545,139.116849,-1.319840047,0,-499.706029,-262.0986873,-826.0271546,,,,
537.6239996,2100,16.02396879,48.33301183,-214.1296041,721.6390807,-319.2211651,114.3151672,-1.706598693,552.2065786,93.16772743,-110.1664864,-262.8353626,-146.6816855,0,60.18052603,826.7411114,529.5295487,,,,
537.6319996,2100,39.18346049,-306.9503809,227.52314,-585.5157541,98.55540081,-83.8871497,-603.3303946,-742.6214535,-202.412453,227.208174,249.3050582,217.235395,0,266.8778435,-939.7034516,-86.855181,,,,
537.6399996,2100,-241.5544069,-391.0581628,-275.4373302,211.9244115,75.60376385,-61.9582661,1239.712631,658.4975711,243.9539845,-337.4996092,-161.8490316,-202.4868743,0,-601.4703361,790.3684534,-466.1355916,,,,
537.6479996,2100,163.3220815,62.03650732,82.42421689,209.2701061,-297.0179234,71.65790639,-1097.373311,-341.3102957,-203.5752009,244.4443609,-35.14029717,101.6373753,0,617.5334908,-262.6360469,768.844084,,,,
537.6559996,2100,-197.8350248,-564.9314955,7.320391744,-601.2571081,313.5006494,-152.0317944,793.0256472,-171.5056592,61.42059583,-134.3415311,152.9052373,12.37176284,0,-474.2647693,-303.10604,-827.6292368,,,,
537.6639996,2100,22.23571431,48.44924586,-199.0836169,732.2499729,-300.2528063,123.6568042,29.39491493,542.0664167,113.1712425,-98.63863883,-246.0721089,-130.7633435,0,62.36171008,837.9832712,502.1860061,,,,
537.6719996,2100,55.92354184,-286.3445013,238.4097411,-564.8929917,91.7656896,-67.02698203,-647.1841483,-743.1006534,-205.6562882,236.9530453,249.6487919,222.7270738,0,295.2604956,-940.4466551,-52.73193819,,,,
537.6799996,2100,-235.4066778,-386.5131887,-262.682018,188.9304068,85.68515614,-51.24621829,1248.47849,672.3642216,244.9271981,-339.4796124,-147.6630622,-197.7164507,0,-612.3793541,769.5979134,-485.2553522,,,,
537.6879996,2100,175.041736,90.44449303,93.07413497,244.6289627,-299.783419,94.84852299,-1090.203488,-271.2955525,-189.6541207,253.9408946,-18.44653048,117.9280101,0,626.1326649,-238.35031,782.3694054,,,,
537.6959996,2100,-192.5139708,-555.0091712,24.02250638,-599.9864686,321.1127184,-141.467064,761.7458686,-138.1282411,55.03557671,-116.4633838,172.130055,29.50888349,0,-441.1038573,-338.1394499,-808.3432069,,,,
537.7039996,2100,-6.702286973,24.08569899,-220.7939929,736.067073,-292.9972713,109.6863067,83.66751079,609.7140826,111.85793,-126.2845209,-263.2083223,-160.1039808,0,34.49001648,867.752961,490.1685073,,,,
537.7119996,2100,46.85563989,-282.2349605,230.6631661,-550.9316016,80.81897919,-72.94470189,-685.580595,-727.7307265,-224.1721064,222.1840254,228.2581608,194.9515741,0,299.6459057,-930.009314,-22.22735162,,,,
537.7199996,2100,-243.807559,-397.4989783,-259.241919,159.0570047,104.5984284,-62.24700693,1252.898333,647.209439,236.2996722,-354.0230107,-151.945059,-212.7067284,0,-629.066278,755.5300751,-513.3638794,,,,
537.7279996,2100,176.9145778,94.77950554,85.34969215,264.9650835,-298.0896101,89.2709364,-1083.377255,-282.9142139,-182.6969605,245.4378513,-30.1307643,103.8807325,0,615.1835565,-196.545166,782.4145981,,,,
537.7359996,2100,-177.7524866,-550.4250246,30.72802017,-614.8066845,325.7248146,-151.7971104,713.7039034,-217.3867071,49.47839038,-102.1077806,181.6457039,31.59272018,0,-435.3276446,-365.5496651,-807.3520692,,,,
537.7439996,2100,-9.353437638,15.46138925,-243.8269844,727.1391692,-289.2685525,89.34768729,118.23359,578.3288104,121.6121118,-142.5850032,-271.4697818,-176.1830692,0,-5.849173188,892.3801866,468.5685886,,,,
537.7519996,2100,75.19728789,-254.5487443,229.5134096,-531.8422935,65.92810058,-66.18364163,-735.0612227,-762.5473789,-217.8542949,236.74977,233.6329994,205.1634685,0,321.0141315,-923.3663791,10.19505185,,,,
537.7599996,2100,-225.3877015,-402.5529677,-257.2471426,150.7979214,116.4682309,-58.29164714,1254.027437,627.9923637,248.090919,-331.4902751,-126.2048432,-193.9184355,0,-617.7662129,737.2649555,-531.1653293,,,,
537.7679996,2100,162.9814073,70.0525447,39.77042474,290.7664191,-314.2441757,72.65490085,-1053.806338,-228.3887225,-184.7263265,230.7034046,-61.13732947,73.79705612,0,609.8944406,-143.0414126,809.5765196,,,,
537.7759996,2100,-315.6918514,-739.2476124,-73.87098605,-718.0722994,491.5748802,-208.6010673,1544.27429,90.06716683,186.4658743,-303.6006372,155.2053785,-73.35427484,0,-880.8193711,-92.96679653,-1297.628358,,,,
537.7839996,2100,-91.32573306,-23.85608752,-378.3768782,963.1334228,-224.0058203,116.6432806,938.3290805,1125.548566,329.1592902,-331.9999687,-360.2214552,-292.6717697,0,-378.1468904,1501.158282,204.1489666,,,,
537.7919996,2100,269.4186512,-8.932450654,378.8921312,-404.3479791,-139.2176057,7.422459721,-1780.96991,-1107.407492,-392.2176297,525.440413,268.7265086,340.4156982,0,932.6184642,-1279.337361,685.8282542,,,,
537.7999996,2100,-319.0102243,-610.5820708,-198.4748549,-284.9475693,336.3649025,-149.1620591,1637.392234,438.1801252,266.5185298,-387.2117777,-8.180491302,-185.1577234,0,-875.7515743,436.8713326,-1016.547402,,,,
537.8079996,2100,139.2531056,187.2607387,-111.6408061,763.3051595,-400.4077753,159.5685925,-586.4807179,302.0100412,3.273887205,53.02720004,-222.4556984,-77.58363242,0,376.6783841,601.0809422,864.6114453,,,,
537.8159996,2100,13.02101319,-388.9930735,250.6635707,-743.0611068,201.8816994,-116.0037001,-440.5760215,-805.4137123,-183.1645694,217.6083045,306.2116107,212.4995375,0,162.7187567,-1047.518105,-290.8217643,,,,
537.8239996,2100,-233.203178,-318.2527661,-339.8477272,440.5258779,6.440554801,-23.09950869,1290.488609,870.4277086,291.1417668,-386.4855886,-248.8106638,-285.802589,0,-622.8079761,1087.245725,-321.6893974,,,,
537.8319996,2100,176.1454427,43.51883909,138.3683686,78.06151967,-271.824507,45.81419748,-1278.174661,-494.0233034,-259.851354,301.441426,18.89154009,129.4054827,0,691.5947712,-481.0077777,783.7379264,,,,
537.8399996,2100,-237.6408376,-576.8378314,-54.52908108,-524.2250588,298.8708538,-169.5478475,933.7285558,-18.52242885,81.67388111,-189.3682952,101.6924166,-55.24617545,0,-535.4410514,-149.1893773,-816.7055107,,,,
537.8479996,2100,18.23824471,59.11832451,-211.217736,710.7968419,-313.3717693,112.586422,-25.34185048,529.0960381,81.30430335,-106.786861,-269.0673069,-172.1423363,0,72.78904556,815.1289798,544.280832,,,,
537.8559996,2101,73.72594429,-243.539867,237.6740688,-544.9531068,80.79938429,-45.70037786,-712.1383041,-753.5319555,-214.3693826,249.0366324,244.0349158,203.6261483,0,307.3014309,-931.601844,-16.58425057,,,,
537.8639996,2101,-213.1196958,-361.377917,-244.8266755,191.1877784,115.0284626,-27.95131848,1233.640805,642.1650168,262.183541,-319.8635202,-127.5824655,-196.9162074,0,-620.5565011,771.1416223,-500.2289342,,,,
537.8719996,2101,188.5286022,108.799822,86.5038737,279.8123274,-290.4023383,97.66192905,-1091.10411,-281.6745263,-175.8522252,255.0595164,-37.00209033,89.49629605,0,626.8928469,-183.8895663,813.4961725,,,,
537.8799996,2101,-162.0058382,-521.3492074,34.91143662,-593.3459139,313.6496251,-140.5272982,654.0216571,-219.2566069,38.88823463,-74.85613681,174.5344408,28.83484484,0,-382.8751864,-380.4669889,-733.2852522,,,,
537.8879996,2101,-0.397635281,27.97560587,-231.8053466,712.5970805,-259.9029801,109.3740817,179.6498489,605.7814037,138.5839789,-128.70634,-255.7584059,-173.2714117,0,-28.57226822,881.4697677,429.0786645,,,,
537.8959996,2101,113.7376941,-182.0828043,239.6857061,-458.7472551,31.32512222,-32.76763895,-839.7247968,-729.0159041,-216.6589318,270.4398065,217.6385145,196.6819886,0,378.6035881,-897.0213947,116.0927225,,,,
537.9039996,2101,-194.0886291,-369.5286904,-201.7497794,99.05782803,150.9877957,-38.43110681,1222.660916,592.3362568,262.0829201,-295.4215106,-83.65881723,-171.0847659,0,-611.8049033,655.4867126,-572.2045666,,,,
537.9119996,2101,190.6175748,138.8578857,58.25929125,378.6698577,-319.7285461,114.6628259,-1037.174844,-145.9358152,-134.1254439,256.6829601,-51.71803385,86.4245717,0,623.6965143,-61.77177599,833.9672891,,,,
537.9199996,2101,-161.9114521,-528.7693529,51.48698075,-644.7446018,297.9337444,-158.7696568,526.7536316,-280.866865,8.88879413,-33.99146874,188.625789,50.01848335,0,-328.6445856,-486.3895011,-713.6900639,,,,
537.9279996,2101,-44.98338229,-15.98824313,-261.6522777,702.794645,-264.4316241,73.74276254,281.3539096,654.9560642,145.3765848,-165.0981728,-283.3612049,-207.7020086,0,-86.82257703,934.5686258,365.273254,,,,
537.9359996,2101,96.02108291,-188.7087395,223.1356571,-439.810844,-12.26198181,-53.79406336,-895.3779117,-748.7884253,-241.8730096,264.8681245,183.8801849,173.4130275,0,398.4607985,-875.6901702,168.8856658,,,,
537.9439996,2101,-220.2300144,-407.0659432,-205.6513102,28.28863624,163.5112248,-59.01818744,1241.86598,508.8975842,235.4103436,-319.4800401,-97.8523704,-190.0858744,0,-665.2743603,619.0179164,-616.4575801,,,,
537.9519996,2101,192.1073379,154.0695283,52.47331982,409.9241636,-316.4930478,131.739402,-1000.233398,-161.9140139,-131.6519665,231.3290581,-72.65727353,71.57807167,0,585.3891885,3.388070705,838.6493926,,,,
537.9599996,2101,-122.4060862,-502.856525,97.3419665,-664.9742167,327.7240224,-133.2212645,467.0981019,-378.3990386,-0.276157532,-7.52267088,222.5629062,86.47117616,0,-286.9286728,-551.8803113,-704.8016971,,,,
537.9679996,2101,-13.63019529,4.45121284,-233.6332693,712.4009711,-210.3529756,114.8828276,340.681554,653.2548244,175.2156898,-163.373927,-254.8335592,-179.6587985,0,-95.34225187,942.3710709,331.5321099,,,,
537.9759996,2101,124.3744311,-155.5074783,242.9203414,-397.6166621,7.921395003,-12.44055395,-938.8740386,-731.8968892,-224.8936624,292.2002385,202.8367098,206.2508918,0,451.5886662,-881.0077266,216.6579977,,,,
537.9839996,2101,-483.7634671,-793.5704093,-345.17475,-297.9767114,492.3645267,-194.4005678,2565.449065,864.0212793,435.1816402,-622.2443877,-78.5180072,-315.8060909,0,-1374.795125,840.1329213,-1528.409793,,,,
537.9919996,2101,-48.36625743,-41.19291602,-247.9897928,639.1511022,-220.6111056,86.38518891,369.9403354,668.0026427,142.1478806,-182.8137183,-279.6519179,-199.9412355,0,-118.3758674,894.7951617,302.2050474,,,,
537.9999996,2101,161.7012165,-74.98702109,246.6431878,-308.1628567,-86.85789258,14.2567405,-1166.888517,-745.2588669,-267.4998098,332.8006296,174.061456,214.9036122,0,584.7706549,-878.2879324,407.3963284,,,,
538.0079996,2101,-147.7123841,-339.1046347,-125.1866362,-12.67912751,107.6077375,-39.77083779,760.7562285,287.4248296,144.3394976,-198.0732061,-41.50334299,-112.6154928,0,-414.9852214,338.4387637,-404.8242414,,,,
538.0159996,2101,-3.544559088,-141.4950154,-58.9936296,165.8637672,-72.51382217,27.49621627,29.36422969,101.6942017,26.58113329,-26.94345046,-60.86333385,-40.6026684,0,1.151823249,201.1535064,121.7225436,,,,
538.0239996,2101,75.30120293,-103.0742637,73.31197346,-18.73148601,-85.99906078,19.21023049,-522.1518449,-289.4584545,-108.2824471,143.4066701,34.01431166,76.5350691,0,297.2300525,-263.0182467,300.1806335,,,,
538.0319996,2101,-125.4879244,-354.9257825,-52.22126801,-184.2956816,146.8570617,-62.01110094,572.7554244,50.33390953,74.52878254,-121.2262141,23.37913361,-50.51014761,0,-303.4390114,59.69056621,-383.5886231,,,,
538.0399996,2101,30.00119865,-38.68238008,-71.44855809,323.1414596,-145.5209202,66.95335655,-121.127422,146.511474,24.94102524,-5.990860108,-92.3826802,-45.25677754,0,104.5979548,310.5982582,325.1806451,,,,
538.0479996,2101,57.17982121,-168.5128837,120.9055224,-207.7483158,13.39997701,-7.727254535,-451.365305,-403.1239948,-102.7366295,144.5801978,127.5604882,122.2225585,0,217.4403316,-439.5134704,103.6934411,,,,
538.0559996,2101,-147.9755106,-343.3474737,-122.9313453,-8.543695467,129.6769288,-42.45712089,805.6131574,309.9256382,156.70547,-203.4811731,-24.50678492,-84.7340635,0,-414.7695248,361.3137983,-405.3933969,,,,
538.0639996,2101,132.8579211,71.0273752,26.79092116,331.162553,-252.2783989,97.70774295,-759.4271962,-68.71674578,-102.301272,155.3776004,-51.10071961,69.49588962,0,460.1991626,33.31455476,681.9863573,,,,
538.0719996,2101,-95.94026862,-421.9155351,92.38579678,-536.7943833,250.8005233,-91.09172037,328.1023948,-262.0715491,-13.9237374,-8.708324301,202.5854929,103.1057913,0,-206.9844321,-455.0989054,-517.1245321,,,,
538.0799996,2101,-26.08453785,-47.80971547,-178.0727201,540.1855504,-164.1555042,83.75888715,288.7920769,562.2773938,133.5672906,-134.8084554,-162.4965901,-107.2854948,0,-77.93127666,725.260473,248.3131225,,,,
538.0879996,2101,111.7315275,-117.1269106,207.0339722,-272.985986,-38.87129932,-1.233344702,-883.1516595,-574.2218766,-203.4287858,252.459662,187.6607804,209.0922841,0,437.8211361,-708.8870065,273.0250799,,,,
538.0959996,2101,-200.343529,-404.8099957,-124.9264211,-84.21980875,196.5567457,-58.98900764,1046.388735,384.0178317,190.293738,-259.9494836,2.872094379,-85.10667452,0,-561.5011702,390.553031,-608.9944016,,,,
538.1039996,2101,152.1277324,133.1660715,22.37696347,464.5711816,-314.7395354,125.622289,-854.2783684,-16.50339533,-98.02384821,165.7593217,-78.57055085,69.57126957,0,518.7778283,136.2392326,803.8214025,,,,
538.1119996,2102,-108.6759729,-466.0496423,138.264093,-663.123658,282.7203082,-121.6038161,244.4794366,-444.7337608,-54.9645336,25.30531478,246.4046288,141.3043302,0,-176.4446149,-639.6787009,-574.805708,,,,
538.1199996,2102,-65.38518764,-58.20693822,-219.2247219,621.9861232,-171.5816816,78.23224303,453.2274228,620.1303767,163.1614879,-191.656293,-213.364672,-141.9746301,0,-155.3408523,896.0170799,214.4131807,,,,
538.1279996,2102,136.9223004,-96.84802818,249.7581287,-287.9500702,-54.0593485,2.767892898,-1039.636934,-733.0000036,-242.5929022,291.2188885,195.1298312,236.1297211,0,524.4453471,-787.1558419,336.0028556,,,,
538.1359996,2102,-210.3243482,-428.5610122,-115.8897985,-97.35672244,229.2377274,-59.3571911,1137.53695,350.4798927,204.4001352,-274.7789436,8.801275131,-86.3137248,0,-602.6085531,414.4321165,-679.794928,,,,
538.1439996,2102,169.6085496,162.7039763,32.29166694,531.1461565,-321.3368819,142.8918265,-866.8677888,3.660455507,-89.58839929,179.946121,-80.66293257,78.73926889,0,552.3605365,195.9553289,849.3482383,,,,
538.1519996,2102,-86.08616819,-464.2278363,170.8217095,-687.4538764,306.7465792,-125.002667,207.1003115,-460.6195372,-62.83986033,56.75185202,277.067392,162.948623,0,-133.8407755,-689.3933596,-573.2557775,,,,
538.1599996,2102,-50.71599236,-50.81481748,-217.5557438,659.6959873,-150.0317874,93.3314503,523.1668607,735.9152674,192.2572929,-188.2210138,-202.6954634,-146.7796257,0,-173.4764725,951.6973414,206.0322873,,,,
538.1679996,2102,165.0262381,-70.71430351,269.7103974,-264.6833626,-54.0975354,24.606904,-1098.467929,-661.7469201,-236.0113657,327.8440859,218.5775823,250.7814827,0,561.4347442,-807.06555,390.1579137,,,,
538.1759996,2102,-213.2430619,-439.4635043,-117.7366264,-116.5345599,237.7064735,-71.57072675,1154.796792,419.3659168,213.358587,-276.1478083,17.99452624,-98.03602642,0,-622.5645405,401.8310479,-699.1596185,,,,
538.1839996,2102,175.1100564,174.9982674,25.3382396,553.0636364,-336.1228763,137.3094771,-876.5290181,62.72826583,-79.16245406,176.5733165,-91.82983751,62.96174181,0,550.1771785,220.9141859,858.0889333,,,,
538.1919996,2102,-73.12910647,-450.763729,191.6049167,-706.9267277,302.8225808,-125.3062316,150.04412,-493.8816046,-67.38676632,71.6483292,285.3318922,174.5611596,0,-120.337053,-728.8498779,-575.3375146,,,,
538.1999996,2102,-56.91618093,-47.75259722,-214.6930518,645.0173304,-144.9515286,84.08811381,546.6824697,703.5641777,199.8278993,-203.523469,-206.8429785,-149.7878163,0,-208.403875,965.6086885,160.3465459,,,,
538.2079996,2102,179.9172039,-42.26157774,283.421266,-255.8621305,-61.83865967,22.21510769,-1157.853117,-744.1509302,-236.5514234,340.1771003,220.6761081,266.0581907,0,582.796486,-815.5961004,390.5061972,,,,
538.2159996,2102,-209.3817102,-439.6171093,-100.4484516,-136.3728153,259.2270548,-79.13580223,1147.80836,328.1922531,213.4127099,-270.3315151,29.90204304,-79.56262739,0,-625.4537251,369.2887522,-739.9173308,,,,
538.2239996,2102,163.7875649,177.2966381,17.18199212,577.0980604,-326.9023585,131.3695888,-847.5421378,39.62434628,-79.01007543,152.569102,-118.5495773,45.45447898,0,530.2719634,260.8744776,857.7215686,,,,
538.2319996,2102,-72.40464374,-439.3880493,204.5176389,-710.589122,313.9475717,-128.3898679,102.4312649,-544.9689616,-79.66724991,74.20347478,273.2969471,172.8742259,0,-99.23684462,-758.7008034,-555.247195,,,,
538.2399996,2102,-77.09266771,-66.99307443,-219.5535982,638.1681294,-118.1873262,67.52863575,587.7100763,721.914214,205.6522661,-215.7132458,-219.3059954,-158.5257648,0,-223.1905916,956.1352083,136.0965392,,,,
538.2479996,2102,154.1611933,-55.71698909,255.7687804,-237.6129918,-69.24714668,-6.024698293,-1152.823033,-686.2377759,-251.6962534,317.9983494,169.7071909,227.7417087,0,583.3274848,-794.2859409,439.082483,,,,
538.2559996,2102,-228.3026089,-453.2608263,-110.0260915,-171.3531627,262.2015132,-103.0834964,1162.064133,360.9280884,197.6133349,-284.153911,-1.122250703,-105.6903186,0,-646.1746071,354.510811,-738.0344087,,,,
538.2639996,2102,157.8567417,181.4710556,5.328501047,586.1020355,-336.4579707,127.6639926,-808.2133757,109.0919734,-66.95981096,150.3219341,-134.7081142,34.83550802,0,506.083977,294.874347,854.3590054,,,,
538.2719996,2102,-75.3447575,-442.4760107,194.7076764,-725.8618933,290.6020646,-141.9243298,81.81861114,-534.4155691,-93.14103729,84.64024815,254.8314354,157.8379823,0,-96.44728854,-774.6234947,-533.4275397,,,,
538.2799996,2102,-75.49446824,-67.14089837,-225.2490762,613.4558041,-126.161068,69.78960405,637.1941956,729.2834336,208.8963137,-219.7011361,-229.2298698,-177.7895902,0,-257.7543628,965.7445673,103.0106381,,,,
538.2879996,2102,196.5763528,-11.22848402,275.5558017,-209.5370959,-87.83425321,33.221838,-1188.515178,-707.9787332,-227.2714845,354.1372355,196.6584742,248.6965082,0,618.4914835,-787.8715515,450.9308712,,,,
538.2959996,2102,-215.0035439,-461.7935543,-103.7876345,-194.3259899,261.2649507,-97.96845991,1136.749958,293.3377867,209.02177,-267.0332019,22.63769759,-103.0107662,0,-630.5943806,313.9685857,-762.8117986,,,,
538.3039996,2102,151.0675845,167.4502684,-20.30928445,592.0572185,-346.670841,125.2836086,-786.7458656,100.1426608,-61.39339525,118.9180821,-153.8285227,-5.216522708,0,475.1516204,332.8587366,843.3280183,,,,
538.3119996,2102,-54.99516667,-432.8799654,204.2576426,-733.689272,294.2971738,-127.0439156,17.78816312,-576.7432665,-97.71931699,93.47978167,272.8429231,163.9933232,0,-71.46001051,-799.9172636,-520.5346126,,,,
538.3199996,2102,-96.07971209,-110.455083,-245.4596387,591.2056493,-103.6963404,52.56909094,676.9841422,733.4707443,205.918488,-239.7625498,-231.156537,-191.184482,0,-280.3052969,965.1521523,65.06577758,,,,
538.3279996,2102,158.3079136,-54.14897808,226.9223846,-205.1802022,-104.1928903,-2.742631547,-1181.817834,-676.6812939,-261.9515071,308.6452848,139.6573854,197.8188083,0,599.0354711,-755.7659239,479.0822444,,,,
538.3359996,2102,-242.4468282,-497.0871231,-125.4227563,-242.6370543,266.6058619,-125.1381676,1136.577147,283.7320892,169.125442,-296.2183087,-8.952019264,-130.588253,0,-652.2375923,283.117257,-775.7787192,,,,
538.3439996,2102,132.7671896,154.5517729,-47.10539153,591.5896745,-348.429653,117.2874575,-738.1741117,131.5258465,-70.96713213,88.46219184,-187.4665958,-29.73525801,0,443.5343004,365.9172199,827.3391195,,,,
538.3519996,2102,-56.14292978,-431.1028334,194.8990203,-744.2394847,274.4701848,-135.2440229,-11.31040984,-597.3201745,-116.1000608,85.39953523,251.1685513,154.9235968,0,-65.45538574,-818.839604,-502.3532998,,,,
538.3599996,2102,-114.4495553,-128.0866222,-264.2778513,564.3387282,-111.1122985,34.19921696,725.4644923,732.3726571,200.62958,-257.6877817,-248.1336071,-205.8951267,0,-312.7967611,958.7699112,35.25243696,,,,
538.3679996,2103,149.6660864,-42.71507827,205.8292846,-192.6822371,-138.2177678,-5.900572069,-1178.602822,-659.2224757,-270.1733182,299.2748489,112.851664,180.3933614,0,595.2336647,-725.3367008,506.8374987,,,,
538.3759996,2103,-233.425736,-481.6579703,-113.1015417,-266.8964643,255.7093687,-116.8165688,1124.764246,270.0775188,163.6898646,-290.4043738,5.591998,-117.9883986,0,-660.1044773,260.9868229,-785.3690771,,,,
538.3839996,2103,138.1344728,168.0653641,-46.59812429,617.2657647,-357.9783842,122.2278817,-701.6189929,174.7064163,-56.7894211,84.37173287,-171.7312184,-17.50676476,0,425.7707854,405.5555649,820.3710436,,,,
538.3919996,2103,-44.61195231,-416.4756388,201.7147821,-738.7313694,260.3076723,-136.1062205,-42.84796133,-598.3795757,-122.5135749,91.46047746,267.0653986,168.0133431,0,-42.99876114,-819.4984411,-473.6536119,,,,
538.3999996,2103,-94.00168833,-104.9531775,-241.6070956,555.3514712,-89.23458815,62.9354844,753.2999795,728.1995322,215.7844579,-253.419815,-210.3668475,-182.3801461,0,-325.6380537,964.6273042,2.94311527,,,,
538.4079996,2103,185.2176789,6.258883406,239.4884685,-147.4826853,-121.0385584,45.22869151,-1198.845482,-664.8567817,-244.6643314,328.6580331,158.7952031,218.1178641,0,630.5309237,-704.98911,528.7267059,,,,
538.4159996,2103,-216.5265253,-470.2902046,-85.03927646,-270.6130978,289.1496838,-89.86348114,1115.873653,225.2897471,179.341978,-265.9998518,46.9999016,-93.84042926,0,-627.1731365,230.2382159,-784.8396267,,,,
538.4239996,2103,139.542446,176.6269736,-47.50932913,647.687568,-333.591217,158.6405553,-664.2697378,181.140108,-34.70370373,88.02989472,-163.5213786,-23.93555515,0,428.7328184,436.8681811,818.1909499,,,,
538.4319996,2103,-53.68657857,-424.8822329,200.891971,-724.3781388,269.5413915,-114.9270987,-71.56082534,-607.5170876,-129.2220074,103.9640912,265.6083058,155.0530816,0,-5.218780979,-840.4417053,-441.0753446,,,,
538.4399996,2103,-128.2223461,-147.1898537,-264.9604015,536.1514973,-75.36977576,47.70880975,806.2371813,758.902538,207.8108469,-283.6831756,-236.4757158,-227.9769447,0,-342.7421784,955.3724549,-17.6843322,,,,
538.4479996,2103,184.2579619,20.21010891,225.0644636,-131.8035474,-130.9990795,55.47326749,-1219.925562,-623.4503277,-251.2305332,318.4382485,133.0050167,187.8634809,0,640.9207446,-703.7078134,539.9417802,,,,
538.4559996,2103,-208.8451198,-463.729216,-79.82410531,-297.5518999,299.0006933,-91.77024506,1083.085587,224.8942793,174.0321332,-252.3803037,51.55001147,-94.58792903,0,-614.7541095,167.6624699,-810.971019,,,,
538.4639996,2103,131.5632596,174.3175516,-72.03218844,655.7858501,-336.2088669,125.3946706,-631.2338673,215.5316885,-28.2602053,71.0487475,-189.9210698,-52.64996507,0,407.5046965,455.6639993,800.2590495,,,,
538.4719996,2103,-32.28834882,-388.7337797,211.7941378,-726.0576918,264.4859474,-129.0703927,-123.9675784,-646.7603313,-135.6211264,121.3766859,266.6690536,157.0182096,0,14.02596126,-864.2392748,-424.9132477,,,,
538.4799996,2103,-102.6776357,-118.8596557,-240.8225793,523.3015106,-51.73876404,45.22123652,831.6060818,713.4683136,223.9970187,-264.7262254,-212.3323817,-208.9100768,0,-357.9154495,941.8028698,-48.41677975,,,,
538.4879996,2103,200.698863,35.96934102,219.2528634,-102.1461782,-142.8707593,40.39522508,-1216.927591,-652.4855894,-241.4443003,323.7079416,125.7440403,183.6084582,0,646.1250186,-676.9628478,576.0101559,,,,
538.4959996,2103,-208.1429282,-478.7524027,-85.5456901,-317.4690675,293.4937606,-109.1336424,1087.719434,179.3391778,164.9212616,-254.1990257,53.44285404,-102.1517025,0,-623.5494281,140.0186705,-801.7168545,,,,
538.5039996,2103,131.2287142,171.5857741,-83.74274538,669.3172861,-347.3753058,136.0907588,-582.0413209,250.4220329,-26.21391111,52.98103171,-207.2110358,-76.81507277,0,374.9938415,489.2380826,806.6683642,,,,
538.5119996,2103,-17.51315091,-383.2306714,218.5287335,-723.3628502,243.2924722,-116.9618149,-169.939846,-623.2855105,-148.3820113,129.0253013,256.8627569,145.7085903,0,32.97740021,-885.9871585,-388.8418573,,,,
538.5199996,2103,-106.9863656,-142.1325173,-242.6760459,513.9022909,-52.88365523,37.40518655,864.2775394,782.6605749,221.4598477,-267.2173187,-210.7170841,-217.8173004,0,-380.6739512,922.4798742,-73.60340188,,,,
538.5279996,2103,199.6716287,40.2681005,213.7981092,-66.76270678,-171.8231319,34.84271652,-1219.945547,-562.8825297,-251.7103229,326.3630425,111.7454874,173.9266422,0,649.2925927,-654.7848375,606.6397813,,,,
538.5359996,2103,-207.7970336,-473.6192685,-67.20679801,-333.6995648,280.9676642,-124.176835,1060.861775,191.4787762,148.9468628,-244.3046122,65.34723759,-91.82082373,0,-612.1162376,110.9748293,-806.9158763,,,,
538.5439996,2103,132.6212731,192.9416871,-75.87142738,690.0999956,-356.181174,130.4036947,-556.6927642,264.7087838,-18.15206294,47.76232484,-193.7356512,-65.49036097,0,358.8247812,524.8033319,782.9056078,,,,
538.5519996,2103,-4.071897115,-351.9325699,229.9893028,-710.3796585,226.3530783,-116.7491052,-216.762147,-693.8766394,-152.9533749,149.629248,282.4161992,177.7902694,0,54.33140712,-891.3046726,-380.0335221,,,,
538.5599996,2103,-117.9517216,-142.4953723,-251.1886053,500.8807724,-50.60716995,21.93343077,895.4673947,691.5639265,225.6312704,-271.3792078,-193.9692484,-201.4678427,0,-402.1394555,929.4870326,-112.3428715,,,,
538.5679996,2103,203.5132162,64.72577113,204.8518614,-44.35301393,-183.8584823,32.82362376,-1233.831766,-647.3770636,-251.1189704,315.9790906,102.263855,170.8622071,0,646.8981733,-620.3613111,629.3158364,,,,
538.5759996,2103,-188.0433426,-458.4707134,-57.40001108,-359.3797105,294.6010199,-119.9934639,1026.102127,95.04545821,143.7864137,-237.9586724,75.50131243,-84.10645198,0,-606.5237577,72.37857453,-811.7969433,,,,
538.5839996,2103,137.2832183,196.9657271,-99.20064224,706.5302958,-350.2987716,129.0155611,-527.3130141,280.8334052,-2.979787439,43.57243802,-201.4633491,-73.53529138,0,345.7261245,546.2207334,782.5457145,,,,
538.5919996,2103,-0.640713115,-349.5449923,216.6512001,-706.1489709,214.1592522,-129.7806784,-266.6479595,-665.816285,-158.4843216,158.0732643,269.4208941,170.3509256,0,75.35578596,-914.407582,-335.2329876,,,,
538.5999996,2103,-119.3390328,-149.8295826,-251.6504724,476.3094201,-41.66261415,15.65521316,905.7291253,767.1013264,223.744251,-284.009949,-203.855932,-215.7243678,0,-418.1701497,907.9765886,-135.8336458,,,,
538.6079996,2103,217.9107052,92.16279172,210.611636,-20.6540338,-194.0304319,50.90285261,-1265.16694,-545.4128804,-243.8244941,326.9251824,97.37030728,172.0596183,0,669.1728764,-611.4114975,648.2803294,,,,
538.6159996,2103,-187.8464759,-460.3174532,-40.92151731,-380.6709489,303.4544936,-122.8178808,991.0129638,127.8749543,151.0135479,-212.5089348,95.41437115,-63.99305371,0,-595.3724083,24.61139819,-830.9944062,,,,
538.6239996,2104,127.7410347,193.9670588,-102.1473347,721.5669897,-340.3144164,126.7074006,-500.5727112,322.9480563,17.79905578,28.03420406,-210.2056798,-79.24151708,0,313.2000237,576.6155787,751.6505108,,,,
538.6319996,2104,21.30938744,-314.9331436,242.9047382,-698.114381,221.3844865,-109.2029205,-329.2043629,-716.9881431,-150.117637,164.1546271,267.3998039,179.7288058,0,94.47212653,-927.3238715,-324.9097279,,,,
538.6399996,2104,-101.2237259,-132.9769715,-220.5462525,470.596382,1.20602889,34.49938003,933.1882971,702.7968298,254.1581586,-268.4882531,-182.4426062,-191.4813825,0,-423.6888069,894.4053441,-178.0494542,,,,
538.6479996,2104,238.275591,114.5377487,219.0140556,22.73654798,-175.4231688,66.33674302,-1261.366205,-589.3805968,-216.1312223,349.3688569,102.2264827,190.7914001,0,690.1573174,-578.2447907,677.4459096,,,,
538.6559996,2104,-170.5811224,-452.9299467,-23.14669129,-397.3078225,320.5720897,-120.1157902,964.5107913,44.0269743,155.3899735,-190.6950984,104.8585761,-51.53460415,0,-579.9665022,-6.909154646,-825.3569354,,,,
538.6639996,2104,152.8806807,217.7305544,-82.99849567,746.067133,-329.4325021,144.7350783,-476.5265445,326.3994379,46.3473009,48.29972073,-192.2569509,-68.53634588,0,312.4354169,601.5217789,747.7889941,,,,
538.6719996,2104,57.72993548,-290.1415858,264.6994875,-680.7179842,211.1032339,-97.62034569,-402.5921694,-715.5928233,-136.2147598,211.1088463,303.5314301,210.4939334,0,141.7414082,-945.6925051,-286.027857,,,,
538.6799996,2104,-110.4075307,-168.3413216,-234.7085244,450.0234831,-4.397677886,12.14660903,938.2257288,749.2559406,256.477847,-268.8455118,-165.9138595,-188.1001491,0,-440.8945989,874.0496397,-212.9985596,,,,
538.6879996,2104,229.4086959,106.0324858,195.0863202,43.86952267,-206.8143112,62.1362953,-1281.014206,-498.4705861,-227.7272716,325.1867024,84.83459226,168.560607,0,681.0912818,-549.1049188,699.7400988,,,,
538.6959996,2104,-156.9149222,-440.3725091,-8.967412756,-427.0950028,318.2213302,-99.07092767,907.8998758,70.36540686,137.1697752,-199.9831638,115.0111671,-51.64961148,0,-583.4737618,-39.57692299,-828.2080379,,,,
538.7039996,2104,161.450463,228.455234,-70.23988714,771.2387342,-306.7488469,179.790315,-458.3504047,388.1132375,62.04315984,45.54696323,-171.4202527,-50.50258458,0,299.4590569,624.6116415,722.4472056,,,,
538.7119996,2104,56.8751238,-286.9330686,278.8163463,-651.1373241,232.6129013,-72.91457165,-444.8007002,-714.8557533,-141.910724,221.7924942,308.0937285,219.4646061,0,176.9734118,-945.8264825,-246.8964613,,,,
538.7199996,2104,-117.6939182,-165.0825793,-219.6824678,440.5239866,40.57341609,36.16896795,959.3659547,715.8988952,254.1497972,-285.3464407,-174.8136438,-208.2102049,0,-457.5221528,880.7863126,-220.2622643,,,,
538.7279996,2104,260.7457064,157.2249782,226.3645694,97.68345477,-170.4105923,111.5134648,-1302.33509,-520.724855,-196.4184714,357.7656716,109.9418675,194.1670232,0,715.9552664,-527.2003275,731.4618001,,,,
538.7359996,2104,-144.8521558,-438.5641781,15.15857845,-419.3078461,364.0909374,-89.66315196,876.9897429,21.09485615,157.7167511,-150.4309288,152.1252928,-16.06188366,0,-535.5206743,-87.70915547,-814.5377593,,,,
538.7439996,2104,142.2638075,221.2009719,-87.75194779,790.1073418,-291.1152914,167.2512581,-412.7385482,414.0978666,72.00823151,31.51098867,-201.4283796,-84.78202061,0,279.7976518,664.4680223,735.5071855,,,,
538.7519996,2104,81.33482753,-241.0731748,297.369015,-631.8680229,224.86591,-55.60108406,-497.8188243,-701.4620918,-132.9810013,251.9862989,313.8698866,231.2241605,0,208.4643197,-948.8605027,-199.8868981,,,,
538.7599996,2104,-108.9368667,-162.7273661,-211.9779053,433.9759796,52.54659018,33.75875342,989.7950713,763.3292637,279.3123596,-252.71653,-140.2757129,-171.9531542,0,-458.7711672,870.7266864,-240.0188804,,,,
538.7679996,2104,256.4311277,163.6981942,199.0583708,130.5741819,-195.3398982,92.61831392,-1276.62643,-443.314124,-188.714823,360.5821056,99.33674463,189.9976005,0,717.404614,-468.9531597,775.0250539,,,,
538.7759996,2104,-123.7500571,-415.0448564,26.92616453,-437.0781608,356.5895228,-87.26423784,856.6279579,13.93826536,159.6022531,-133.2285652,178.5749362,5.902310989,0,-516.0921515,-103.2700729,-796.3065354,,,,
538.7839996,2104,157.9266065,230.2978,-85.11834646,804.8935706,-283.5931904,181.0720834,-368.6091877,422.8563087,100.6969396,24.80621586,-169.513993,-60.77044628,0,270.6330409,696.698824,724.1849563,,,,
538.7919996,2104,97.09709835,-230.2402325,301.6187266,-618.2254262,224.266447,-46.11790239,-534.4969303,-748.6712482,-129.6511456,246.2044337,330.0243429,243.25184,0,239.9762913,-943.1277907,-153.5369296,,,,
538.7999996,2104,-100.171946,-161.1466542,-189.1776482,411.19253,84.94193061,56.77412711,1000.960932,702.4817382,289.2092164,-258.4142926,-114.9107557,-157.7926601,0,-456.2548239,858.2061932,-249.8182657,,,,
538.8079996,2104,465.6506805,369.986015,435.9501543,42.92136402,-363.9160532,159.7320379,-2642.488303,-1105.335177,-471.1139086,710.1243594,216.553009,406.3650573,0,1462.958746,-1185.976228,1469.326088,,,,
538.8159996,2104,-40.76049538,-486.7310939,314.7194859,-1082.105802,420.4649582,-158.2480483,-129.6100374,-848.8787521,-166.7644111,156.5431046,435.3115162,261.3352696,0,-24.66113339,-1251.251505,-664.6211125,,,,
538.8239996,2104,-152.4810692,-61.11905213,-387.8967927,886.8387809,-74.17308351,108.7577053,1350.46951,1269.389634,394.7474629,-461.675912,-317.0303273,-312.5878054,0,-629.8550928,1580.008491,-107.302027,,,,
538.8319996,2104,419.1945512,520.1618476,183.5629507,698.1226307,-538.8809041,240.9024824,-2088.916732,-378.9097969,-274.1641985,448.9542415,-50.78007962,188.2871056,0,1186.749561,-162.358391,1606.056777,,,,
538.8399996,2104,273.9185001,379.8590776,31.04886416,761.2871883,-433.7718702,207.9041483,-1225.929329,57.18556058,-113.3087374,207.7471471,-134.4311632,48.88646873,0,724.8338027,299.9133856,1187.696062,,,,
538.8479996,2104,221.3402205,368.898112,-66.61809623,936.5701288,-433.3217452,222.070249,-836.7021083,352.5281628,-8.450725323,97.35753562,-207.2582019,-27.0357577,0,543.0950513,656.9243889,1100.767011,,,,
538.8559996,2104,169.4715015,-9.379622659,234.456775,-203.1663809,-24.9386262,35.58753229,-938.9516708,-573.8829904,-184.3881367,264.7100595,193.0305953,211.6174866,0,482.5668957,-639.7333248,353.4924408,,,,
538.8639996,2104,-140.1790495,-378.5196164,-22.74018664,-263.5117963,290.3290535,-60.48251745,907.5532882,160.1665802,148.562252,-186.0164112,115.9408036,-3.608204,0,-494.5408512,101.4557134,-679.610323,,,,
538.8719996,2104,60.69605157,26.93983925,-40.20567723,386.4541659,-109.9266431,90.82576947,-64.55646214,219.0857069,42.02267835,-0.902403842,-54.97705227,11.7505579,0,117.0922937,363.1653846,315.2329029,,,,
538.8799996,2105,119.3437346,-53.20884337,173.5975866,-157.1741218,-10.98967834,27.02397272,-640.445803,-439.4806559,-144.4852942,202.7134555,155.1621451,178.3708239,0,367.6330853,-486.2887673,242.2871879,,,,
538.8879996,2105,-137.3178513,-343.8056541,-60.18030034,-179.1772617,242.3061633,-44.86006382,918.4693971,224.57807,164.6660855,-203.4389594,72.72598871,-39.74980742,0,-487.7611392,212.1947576,-614.3733117,,,,
538.8959996,2105,160.8286167,171.6946531,3.101773794,490.4451342,-234.6510286,147.3064042,-576.5476955,114.837893,-25.17057808,99.04030096,-69.26828037,32.90528694,0,372.2059074,277.4294445,646.213053,,,,
538.9039996,2105,3.582988345,-286.1980796,168.5111077,-492.715683,214.7903606,-48.73204335,-46.29873381,-373.7504353,-68.04200546,88.85069307,239.522621,157.0155238,0,5.401805411,-588.1035495,-315.5495787,,,,
538.9119996,2105,-95.94589598,-182.0551639,-166.7638512,284.7105268,40.49379446,24.52956336,758.4750203,595.8183788,177.3431253,-216.203632,-94.72435273,-115.3439095,0,-331.8953866,628.1270728,-168.4220038,,,,
538.9199996,2105,177.6493266,70.29253974,134.0359764,83.62765141,-163.6940502,82.26302512,-969.325503,-286.1404238,-183.8961312,241.0059236,69.17088155,145.2215238,0,552.2816318,-370.6097105,595.5048629,,,,
538.9279996,2105,-155.6839326,-449.7189726,-13.52642104,-452.6558165,317.5986948,-93.99147241,832.5935,72.35772363,95.43862274,-168.7913512,153.5034236,-2.599778734,0,-495.1495335,-133.2661096,-757.1796298,,,,
538.9359996,2105,94.90559765,129.5117007,-141.1369354,656.7170076,-263.7596465,125.6030786,-226.6491901,429.1320906,43.44893388,-40.66730666,-175.9837901,-82.50547585,0,188.537832,630.0998831,582.3258914,,,,
538.9439996,2105,61.41012486,-260.34649,202.8669582,-577.7778928,160.0056939,-67.25224177,-430.7210441,-635.5243693,-172.6486931,161.9443599,256.8482683,185.2785144,0,176.1063391,-823.8542449,-176.3133745,,,,
538.9519996,2105,-118.7880647,-233.852201,-210.6909433,233.5111317,90.12546487,8.77922183,1022.572657,579.4033948,219.7632213,-292.3830919,-94.62887096,-146.8716476,0,-505.1937703,713.5534379,-366.0343266,,,,
538.9599996,2105,231.2350163,130.1731965,126.0411035,167.0482725,-208.82492,99.00902088,-1086.754226,-408.4136139,-188.7928898,261.8396543,55.21393969,154.4990355,0,629.7429809,-321.2573483,690.1687716,,,,
538.9679996,2105,-137.4195908,-481.8200092,9.642501117,-570.1050973,349.8316041,-131.2937312,775.3150303,-154.7632761,62.55371571,-164.5719487,166.4227119,-1.12258834,0,-485.3116959,-258.3660714,-813.0693169,,,,
538.9759996,2105,98.54927477,134.3363692,-170.9933263,693.5639234,-254.5575127,121.3572372,-103.3561261,458.3664996,75.40769577,-97.19019511,-213.4562627,-124.2756093,0,94.56335228,747.0187905,535.7394893,,,,
538.9839996,2105,107.57892,-229.6508177,241.931377,-599.10127,158.4000313,-68.80681974,-594.1359283,-706.9412092,-198.2259596,208.7677174,280.5780702,220.1253769,0,252.6888409,-936.1226053,-122.3877139,,,,
538.9919996,2105,-142.6090271,-271.81199,-230.1585463,201.827204,117.9308813,-25.9828363,1137.406536,695.0155591,231.7802226,-330.1576031,-118.7098274,-176.8353082,0,-578.2758413,738.344473,-434.4815634,,,,
538.9999996,2105,236.2025451,154.5516535,118.4998137,184.3792804,-235.95874,92.77018281,-1136.46566,-289.1067823,-199.8916394,260.8080306,19.5235437,136.2738706,0,634.1712986,-302.2242913,746.2524497,,,,
539.0079996,2105,-132.2175173,-480.3925816,31.13398459,-615.5096127,358.1812692,-141.2048749,748.4266031,-90.21825683,56.97557999,-141.3644322,182.1731779,20.32092058,0,-471.2933898,-325.8707039,-835.3325067,,,,
539.0159996,2105,83.6933138,125.3940248,-184.9069525,712.8358687,-260.8810254,110.0992943,-32.61598105,570.8546416,88.15225903,-115.830519,-237.2556327,-139.4696454,0,70.58220553,802.2208458,515.6988152,,,,
539.0239996,2105,103.5743345,-233.0345199,242.2824295,-607.529429,132.6567909,-80.09025348,-663.7076775,-732.9307877,-225.3242925,206.4383126,249.7602754,200.4391422,0,273.2608225,-952.9213069,-85.273058,,,,
539.0319996,2105,-161.3879296,-299.6705817,-237.9771285,171.0007686,122.1488816,-43.78895852,1175.882249,644.3653612,229.5743326,-364.2172073,-139.7756318,-210.3757516,0,-624.4000468,741.0163566,-487.8760798,,,,
539.0399996,2105,250.6450264,167.1821243,117.5140562,211.0218327,-254.2292656,97.24634946,-1157.142136,-356.1909106,-200.6970374,242.562622,4.732909615,116.1527895,0,630.7772892,-282.1838408,756.7516097,,,,
539.0479996,2105,-110.821318,-475.8903613,46.00627412,-637.7698216,353.7073405,-131.4395354,704.062216,-208.7274622,45.95721143,-137.6354862,191.2085422,21.2427478,0,-463.1522814,-375.8841932,-846.3036483,,,,
539.0559996,2105,79.96815152,124.8973247,-199.8231031,713.0004741,-275.9390503,111.7671951,-6.404847751,526.4280436,92.94387372,-132.449152,-251.2708132,-160.3908896,0,44.94866405,816.0483497,490.2065807,,,,
539.0639996,2105,118.0654896,-206.7340333,243.3639594,-602.0858034,96.79812234,-78.99372667,-735.082015,-783.2794534,-240.8247196,219.1751508,240.5920779,196.1091591,0,300.2714982,-975.6898677,-52.72053869,,,,
539.0719996,2105,-160.1287312,-303.9487648,-233.1234762,142.8856435,115.6894348,-54.73849478,1182.784994,640.9712429,220.8037451,-355.7012351,-138.4316386,-208.7112827,0,-632.9525463,714.8212206,-516.9984334,,,,
539.0799996,2105,232.8470203,156.8689884,98.80940297,224.6017839,-277.1689195,64.41479681,-1140.820176,-279.4983841,-211.5359754,234.4685577,-27.17326436,96.05884341,0,627.1921039,-248.7447625,778.1749955,,,,
539.0879996,2105,-123.2355833,-483.240996,50.81551794,-667.4982992,352.0034262,-162.7631774,680.5374709,-168.8488065,24.05787026,-139.6561413,175.9675213,13.41410902,0,-462.3057385,-397.2047115,-837.1924753,,,,
539.0959996,2105,76.59889503,130.5826812,-195.0686423,714.8903175,-256.9514904,111.5370395,37.69947074,597.935379,99.03798792,-135.8405524,-253.1067155,-157.7998914,0,22.34202557,839.7140375,459.135309,,,,
539.1039996,2105,137.8824516,-179.4780707,259.5912287,-573.0786194,105.3245781,-71.75391467,-762.208096,-759.1819819,-237.86208,242.8840641,252.8188337,217.8624012,0,333.9886795,-971.3046897,-29.69243746,,,,
539.1119996,2105,-140.4338958,-284.6708638,-200.0287264,138.1971146,150.8798163,-38.52639378,1207.158765,616.542262,239.6579102,-338.7386655,-102.075189,-178.2205902,0,-633.5222923,708.8561942,-547.1662121,,,,
539.1199996,2105,266.3144274,210.1385205,126.1039087,273.8101169,-265.6064349,110.4734691,-1123.782323,-308.2927968,-178.1229926,264.14753,3.390872115,131.4632712,0,650.9539093,-201.8114768,793.5168349,,,,
539.1279996,2105,-91.71292827,-446.5133122,79.68979577,-659.2250632,359.9027807,-136.4428141,653.5104694,-261.1429966,41.02383913,-90.47827939,216.2378419,55.23798205,0,-414.7724916,-418.1344881,-811.6042112,,,,
539.1359996,2106,85.72181104,143.7792638,-186.6508055,732.0042497,-246.5666731,128.8977823,91.63888629,575.0533088,126.2851771,-121.5198711,-236.842904,-150.1253189,0,9.046607827,866.5005172,460.9885416,,,,
539.1439996,2106,158.3347048,-148.5455149,272.8971905,-541.987219,91.31036734,-43.57420627,-787.8912899,-756.1436262,-226.6353488,264.4621427,248.4145475,213.6589547,0,357.6225209,-955.6340597,31.83173005,,,,
539.1519996,2106,-140.1879863,-288.5049939,-197.5579527,119.8912302,155.9608335,-35.44070703,1222.392443,653.899438,244.7999706,-336.599218,-111.6318933,-197.6183526,0,-640.3007075,697.444495,-545.4685611,,,,
539.1599996,2106,261.2973904,213.1821967,107.3981458,299.0719198,-275.9036139,106.0126528,-1105.843691,-198.3960875,-175.8653344,253.7884206,-27.22642949,101.3068056,0,646.7049448,-164.9125823,814.7665459,,,,
539.1679996,2106,-90.22788569,-449.273109,77.12896685,-669.4153656,355.5178304,-147.060135,624.5288767,-195.7870543,22.48139415,-84.73453269,202.2143912,46.41166741,0,-395.5247866,-444.2360882,-802.6131635,,,,
539.1759996,2106,84.8217941,141.5695443,-197.6470254,733.5056295,-234.6876045,121.7369597,139.0641643,651.1266458,125.1800299,-137.1682853,-249.1160568,-161.1712098,0,-16.94544135,895.3761691,428.133409,,,,
539.1839996,2106,175.3498227,-128.5890382,267.9691272,-524.830957,92.66733113,-49.49454489,-817.9592124,-752.3712213,-230.4658321,271.2383722,253.6971029,227.8080397,0,374.2690819,-937.1018114,49.86532537,,,,
539.1919996,2106,-143.4857218,-300.6453137,-204.5199022,95.21214662,179.2588718,-57.46206282,1242.032399,592.5303629,241.8882508,-343.7005935,-95.424783,-183.509685,0,-659.4146633,687.6683381,-579.5095277,,,,
539.1999996,2106,271.1965619,239.8092109,107.4390041,326.5250361,-258.9480479,115.3895478,-1081.86314,-258.5173957,-166.0555191,243.811896,-23.32983366,106.8364094,0,627.3913363,-119.4119612,815.9185346,,,,
539.2079996,2106,-63.5512019,-414.8159098,110.7148951,-673.9651963,389.0768944,-127.5269453,589.9916883,-317.5066805,36.60942765,-51.24536342,242.7646557,90.43495203,0,-371.9478976,-476.6705088,-794.691739,,,,
539.2159996,2106,72.85341657,139.2826459,-198.8207003,743.4077192,-205.68349,119.7621892,189.7820944,596.3803882,153.0913218,-134.3180822,-238.6296933,-146.7910401,0,-31.71553125,907.6573654,410.0477333,,,,
539.2239996,2106,169.6924726,-114.0574264,265.0318453,-496.4149952,84.53869859,-44.31969842,-842.981125,-775.4898663,-224.6820889,274.9189002,236.886555,221.1448692,0,400.4593315,-925.529236,95.81086717,,,,
539.2319996,2106,-136.6134058,-295.8193362,-190.6882833,74.48702935,188.6689481,-55.04462079,1246.433111,600.3962006,249.9494765,-336.6392402,-92.16119633,-181.6826841,0,-657.3613255,667.7209295,-583.2765138,,,,
539.2399996,2106,274.219223,242.134175,88.73718601,350.3090514,-280.2366015,102.394214,-1063.357033,-165.2838079,-157.6721841,237.2553714,-45.20864086,88.3059043,0,621.8430457,-77.3483758,841.7623302,,,,
539.2479996,2106,-67.61759158,-438.0327706,91.92735609,-694.3301985,356.5054408,-157.3089497,562.9092087,-246.0914353,15.61035007,-54.22672473,222.1982436,67.79563536,0,-356.8702413,-494.1125168,-765.6335304,,,,
539.2559996,2106,68.25745201,117.4129579,-217.9309504,719.0557689,-226.0103994,98.54984697,231.5225003,691.5090153,139.4417195,-167.3110846,-269.91291,-188.7217178,0,-72.52735097,930.5048627,386.4394368,,,,
539.2639996,2106,192.5654481,-90.5440459,262.8676596,-491.9447009,54.75460617,-40.18140481,-888.0403079,-728.8423386,-242.1977146,273.867053,220.6530435,201.2596425,0,402.5727159,-920.0789762,107.4978415,,,,
539.2719996,2106,-138.4176569,-307.1996149,-198.4811412,50.44660315,189.9679713,-65.67713123,1250.067084,593.1743024,243.273754,-323.6886951,-78.2849805,-177.9471637,0,-660.8799381,635.9146883,-628.077877,,,,
539.2799996,2106,253.755475,232.4088814,51.22813566,368.4020141,-294.0953484,81.78032326,-1031.377439,-173.0674857,-175.7832326,207.9337442,-79.64567394,48.96235608,0,595.7404694,-40.41052384,826.4155918,,,,
539.2879996,2106,-7.3023804,-486.1695343,270.4748684,-1130.710346,437.6586912,-199.6015101,77.6629922,-859.9374052,-163.61388,100.0295014,383.2153505,184.5451364,0,-154.1439191,-1192.453945,-813.2034713,,,,
539.2959996,2106,31.79614217,-84.83920815,-91.11787138,202.4626668,-5.875490967,28.36301191,357.8491093,260.2714625,89.64617371,-116.1902284,-64.83565679,-96.32977849,0,-150.3088764,391.4916902,-10.05473554,,,,
539.3039996,2106,115.413908,-36.41504628,23.90187301,30.55278919,-63.62392456,9.606009975,-298.4048684,-120.2269447,-76.12599039,56.89327659,5.358222721,-4.544435953,0,185.0217532,-81.69624841,243.2449364,,,,
539.3119996,2106,-20.26789863,-183.5056971,-97.52957209,11.94160911,57.93693508,-27.39972467,501.0276506,244.8940002,76.77440279,-162.5979783,-44.0289446,-124.9080624,0,-279.9761337,276.5130724,-218.7127552,,,,
539.3199996,2106,162.4669039,-1.757550806,93.29173546,-40.00110247,-79.3330632,30.22022156,-578.9096107,-250.0826915,-136.7445698,119.3746338,40.98738636,35.85419812,0,280.2118717,-279.6945326,285.7380982,,,,
539.3279996,2106,-60.31702541,-256.3858817,-98.63678954,-70.7638146,137.3829968,-50.31313293,741.9307064,316.6723332,106.6434551,-212.4858932,-37.10292046,-134.3982506,0,-410.7959545,284.961583,-407.8050982,,,,
539.3359996,2106,171.8989223,98.51723049,13.84606571,257.652647,-171.7415803,76.39695191,-478.1146322,16.28288322,-74.38237294,85.81848207,-64.86002069,-11.05905734,0,291.406587,86.64948071,461.1570186,,,,
539.3439996,2106,16.625898,-275.5170214,86.23642179,-464.2265523,201.8043567,-73.62618041,174.5860867,-267.8871792,-48.34074204,-2.051991373,139.837161,26.03215229,0,-133.6005645,-413.230528,-387.5924684,,,,
539.3519996,2106,25.31282189,-3.788854272,-195.9880529,471.517212,-96.20192614,62.15251024,463.5464237,528.0336457,143.8627111,-200.5145638,-199.2894151,-198.4465399,0,-208.0653692,750.975625,112.3809937,,,,
539.3599996,2106,215.1595453,-15.7047794,208.3173272,-265.9154523,-16.836662,17.55765676,-852.9193928,-642.9461717,-205.4470361,230.9809392,142.881378,131.7104474,0,412.5156954,-678.6113278,262.5681038,,,,
539.3679996,2106,-94.91045178,-299.28557,-142.5020975,-47.52876439,202.1281627,-51.06575811,1123.393149,387.1448771,206.6734672,-297.6748012,-55.33241917,-175.7372484,0,-600.7672173,469.6958336,-572.5473931,,,,
539.3759996,2106,254.1492109,225.640155,28.94508574,420.89752,-275.3450169,113.5276116,-765.4237503,-84.52530392,-85.17706036,160.7759852,-88.90078448,21.65969686,0,498.2985974,118.9227262,764.1203355,,,,
539.3839996,2106,-5.333111387,-359.7328265,109.9761974,-637.7233631,274.8689583,-131.2947255,338.1813095,-377.8462243,-24.116034,-8.814372397,201.4737288,58.88044514,0,-212.4121626,-548.5432087,-555.5651064,,,,
539.3919996,2107,30.9713041,39.34693163,-250.4153047,607.7049333,-181.979155,46.09190793,492.4768726,657.8973018,177.5807208,-231.7737625,-260.7602365,-232.3666166,0,-209.4882243,933.8081364,242.5316199,,,,
539.3999996,2107,218.3380318,-30.27533203,222.4416977,-360.2746894,-41.0736508,-28.94385399,-954.0679973,-698.2802365,-234.6714444,252.9070241,159.8600328,152.7475821,0,451.9302547,-800.4840716,268.1025627,,,,
539.4079996,2107,-136.6735873,-348.0598711,-177.7682205,-82.52275992,200.5973699,-88.20717165,1249.098186,503.2523348,225.7613589,-343.357011,-72.97362539,-204.6305406,0,-693.4058597,513.4854853,-661.7728452,,,,
539.4159996,2107,245.1072041,230.757054,7.376288311,443.4702019,-324.9369903,103.4252487,-862.148415,-21.77903331,-113.2299851,157.1009169,-129.8957847,-7.618946433,0,516.5581822,137.2473494,828.3806937,,,,
539.4239996,2107,-30.46327225,-400.8933,111.1829453,-727.925127,301.8205395,-145.7488161,365.712654,-375.7651485,-46.3593637,-26.6594542,197.2290207,42.18518883,0,-265.0872847,-614.3039302,-649.9317077,,,,
539.4319996,2107,41.86404522,69.31203007,-253.5191839,651.0820323,-184.8962697,82.49595012,495.7741422,712.3756512,185.2317445,-229.8612236,-271.9151898,-235.2662517,0,-223.5776841,973.9027812,254.1556823,,,,
539.4399996,2107,244.1469058,-6.850244705,246.2406501,-365.0809136,-21.22066987,2.384565412,-1002.917696,-735.569668,-238.7291469,292.1686797,185.8690452,181.8489981,0,480.242975,-847.3855966,278.9718166,,,,
539.4479996,2107,-138.1725397,-352.0477907,-182.0666103,-90.21442528,221.8287042,-86.92582861,1272.896963,464.7427832,227.4119736,-349.6673809,-71.38495465,-203.1156508,0,-694.7596083,510.396646,-680.8769567,,,,
539.4559996,2107,239.2706576,234.0249676,-6.659326563,466.0929164,-333.4363014,97.50895219,-875.2326438,-71.1790054,-119.4207683,132.2020921,-151.767977,-18.61044608,0,525.2673814,160.1436157,857.5494807,,,,
539.4639996,2107,-38.41775795,-416.2272756,123.0488994,-753.8349189,313.2486718,-155.4530651,358.4453365,-460.878402,-60.28089665,-41.57816968,195.0024708,41.5504724,0,-265.2214908,-647.3553561,-658.2618785,,,,
539.4719996,2107,22.06235475,62.05523629,-256.7683017,658.2530655,-183.2321357,75.50804808,528.6448852,678.609913,183.1846963,-256.5916711,-291.3276026,-251.4806306,0,-227.7355951,1002.78691,251.739776,,,,
539.4799996,2107,231.7082881,1.332100115,249.0746782,-361.5098395,-33.5849308,1.168738327,-1030.37235,-770.7861061,-245.6258757,282.1365706,172.984428,173.1563181,0,500.0695251,-839.5532795,301.9769302,,,,
539.4879996,2107,-130.9761666,-339.1761951,-155.024406,-108.5038596,234.7279361,-71.71357392,1267.237481,458.6525845,239.6742753,-345.3588982,-52.80334342,-196.1958452,0,-710.7535188,489.8074111,-709.4207635,,,,
539.4959996,2107,258.3263289,268.1580078,4.731752134,497.2719989,-331.3286039,115.8276739,-878.7391592,-9.879905378,-91.12724662,144.2810139,-139.7663457,-12.81313627,0,518.6917464,183.5487305,855.4579566,,,,
539.5039996,2107,-22.36217053,-396.5757181,132.6094658,-759.0215321,316.6631581,-157.1461039,310.4554591,-426.0223913,-50.82548331,-13.44685491,215.9205795,56.88958716,0,-231.7580779,-687.3689992,-656.3956365,,,,
539.5119996,2107,20.05178491,60.47959687,-261.0116727,654.4032733,-174.5476783,69.90626861,558.67836,755.5185721,197.3455287,-257.155273,-282.3114174,-253.9795525,0,-236.506811,1001.721512,220.9029258,,,,
539.5199996,2107,218.640771,0.145964825,227.3365133,-353.0770034,-63.83929018,-15.90764886,-1051.706029,-723.792494,-256.8884235,272.8378885,159.7953968,162.9522252,0,503.64044,-826.4905534,328.0787684,,,,
539.5279996,2107,-151.6263953,-351.9386567,-168.183795,-143.2804031,218.7778657,-91.819024,1268.839398,442.6144237,218.1965069,-363.1325534,-51.20143689,-191.1471802,0,-721.019553,470.7178002,-717.7107896,,,,
539.5359996,2107,261.0064878,295.3014045,9.498240073,515.9068785,-339.4327024,144.0246704,-855.7361054,-13.75716694,-85.45174758,134.7530863,-118.2405203,17.33779611,0,529.3558086,224.6144284,867.0924471,,,,
539.5439996,2107,-17.8294244,-379.2840413,152.1429464,-768.6566092,311.7847705,-126.7247872,263.0890363,-499.7897483,-52.32771121,7.27843193,268.3516805,117.5904522,0,-192.2138771,-714.7621615,-634.4469908,,,,
539.5519996,2107,-3.394938275,50.0729961,-262.5067838,637.4198888,-167.4063563,79.78976128,589.7235068,709.3212216,201.1895936,-269.1566276,-254.1065093,-221.5940638,0,-256.9479924,990.524364,198.4696155,,,,
539.5599996,2107,235.6315232,48.41015544,256.4026837,-330.9712408,-58.69969224,25.58866599,-1088.452589,-749.9805673,-251.7023194,285.6582477,189.7101508,205.9893989,0,546.8303057,-841.9099601,355.7435451,,,,
539.5679996,2107,-136.9986567,-325.9201493,-128.574185,-148.3595638,253.8378521,-62.67690051,1256.393507,439.1971538,229.7420389,-323.2180789,9.630341456,-126.9646028,0,-676.7408562,408.1353917,-734.5850802,,,,
539.5759996,2107,234.5767562,297.5235386,-4.106346985,543.531666,-338.9448299,141.4520427,-815.9533186,70.45447227,-86.32084568,140.7650761,-121.6811424,23.0443721,0,527.2068937,249.1872,880.1620211,,,,
539.5839996,2107,-29.8618518,-364.3881977,158.2140419,-780.4737914,301.1112248,-134.7581931,234.4310219,-454.5516862,-85.12743075,19.68937628,259.3648005,118.4762759,0,-171.6779799,-738.4136664,-604.8359791,,,,
539.5919996,2107,-14.54716287,47.91137745,-255.3434922,636.0298418,-149.6541493,61.10571973,653.7528423,776.4106135,194.0655136,-262.4926367,-241.1587722,-208.8146673,0,-262.4790159,999.8120243,170.6087617,,,,
539.5999996,2107,230.0686094,60.69630914,253.8355657,-307.97198,-71.27072615,8.82446482,-1081.748759,-725.1475557,-267.4630605,291.7494376,180.843459,203.6539137,0,566.1611562,-801.9401412,383.2374972,,,,
539.6079996,2107,-135.3655097,-326.5283621,-118.7707876,-181.7861007,255.4440308,-77.86202922,1258.536379,378.3338426,214.225456,-321.7043682,19.17672399,-124.1313886,0,-691.7244643,393.643744,-762.2260488,,,,
539.6159996,2107,244.1850071,308.9904601,-3.708025955,568.8776313,-335.908785,137.6529181,-780.1661324,31.6997798,-76.58433808,132.4464439,-116.9386748,22.91403728,0,509.2991812,292.1443611,861.9616812,,,,
539.6239996,2107,5.231029917,-335.3706362,185.8155294,-775.2102644,308.4039916,-117.0201869,194.427843,-533.5820237,-84.00660822,36.28957037,279.9942335,137.0010888,0,-127.2873026,-760.6211557,-594.7646942,,,,
539.6319996,2107,19.48309111,62.51099524,-241.9238699,638.1255312,-126.0463264,87.5033318,687.6682012,758.295603,226.1311832,-249.3534556,-206.347888,-187.8593682,0,-259.866584,989.4560331,137.9488891,,,,
539.6399996,2107,248.2273571,71.67131794,238.8738867,-279.0701238,-78.97781758,19.93193281,-1102.044239,-698.7134911,-249.6987173,300.5877363,185.4989356,197.8561624,0,578.3603404,-791.9276547,419.1780781,,,,
539.6479996,2108,-132.4176803,-343.0466666,-129.047444,-213.6134726,263.3836561,-86.46910382,1252.319718,413.0329824,207.1924551,-337.2322162,14.77102641,-145.5200474,0,-703.4627516,358.3536768,-763.9498573,,,,
539.6559996,2108,256.3361908,315.4781255,-23.46762198,584.4316989,-335.521838,140.7385478,-747.2042578,132.5836844,-70.5626096,111.8775622,-130.7164383,5.690814321,0,491.0824017,326.5754921,869.1765849,,,,
539.6639996,2108,19.32201768,-324.4549446,182.702933,-789.211088,302.4228253,-121.3678634,154.3352476,-498.9276123,-104.5922165,45.71531993,277.4878481,141.5593092,0,-119.2858024,-779.4177813,-570.3602529,,,,
539.6719996,2108,18.3971932,55.92952661,-248.317524,613.86558,-112.0736991,76.23090652,729.4599669,779.1321315,211.8411753,-257.3640769,-208.2506433,-182.8427892,0,-298.1460224,993.4192589,102.2371248,,,,
539.6799996,2108,263.6317534,98.26957877,235.5357225,-253.3340502,-83.74563964,30.49505752,-1119.568492,-722.6112036,-262.3654586,315.0240413,187.7252048,224.9424613,0,600.7080384,-769.5662625,434.2599477,,,,
539.6879996,2108,-130.5515146,-338.0523488,-126.8850571,-235.566702,275.9367312,-83.08961538,1240.512767,313.6035659,188.7384587,-323.1391562,28.86988329,-118.8618232,0,-688.2184458,326.7032358,-791.2649292,,,,
539.6959996,2108,235.3321486,311.8712335,-50.39703546,601.8500926,-334.4376864,138.3303859,-710.8599308,66.20998738,-75.34211198,103.5891863,-144.9351044,-2.004014803,0,477.902171,360.7922222,851.5536638,,,,
539.7039996,2108,-8.256863222,-336.4529567,163.012501,-795.1280956,293.0963328,-130.5470012,120.2919379,-596.7019822,-130.8090482,49.10185444,262.2299041,131.2078236,0,-99.2322847,-801.4689279,-555.0440324,,,,
539.7119996,2108,-30.55449165,15.01946793,-281.1043776,590.5665408,-114.7382228,53.14018083,774.5452756,744.9243051,189.7386914,-292.6471344,-243.4561215,-226.2855492,0,-328.7700589,990.6411211,79.51320945,,,,
539.7199996,2108,226.3771138,74.1848449,201.3864658,-246.8740289,-113.738496,11.54102355,-1128.406079,-697.8471211,-290.9050728,285.6214727,135.1610273,169.6426623,0,592.0694867,-755.218476,469.9341988,,,,
539.7279996,2108,-158.6828555,-373.4035556,-136.1083521,-281.3138792,271.1417236,-107.0095335,1234.242736,352.6550228,156.7444175,-350.0877279,-2.39389952,-165.1670669,0,-718.0346911,287.9311448,-797.4299751,,,,
539.7359996,2108,225.0195214,296.5039411,-62.44955838,605.0660397,-346.3421738,125.4948673,-683.4014146,173.3164925,-79.83985156,63.32963188,-173.8593301,-46.7366038,0,431.3695498,389.2401704,847.1889397,,,,
539.7439996,2108,17.2565477,-329.6162621,174.126188,-805.7300611,275.5627568,-132.2286128,63.38719472,-548.875738,-142.9664715,46.10204494,264.3556583,122.7235267,0,-95.39580837,-828.9303443,-542.5786315,,,,
539.7519996,2108,-1.075208711,23.47717868,-263.6434995,575.1352468,-101.7917389,58.17715378,800.2430888,783.4157104,192.4959178,-298.6661993,-230.2095318,-227.5772683,0,-354.9358761,986.8578325,36.95929379,,,,
539.7599996,2108,267.5683533,116.3100958,225.3554526,-212.0815529,-119.4634916,35.84713837,-1154.177106,-693.9419829,-280.0289281,308.9913701,156.8858517,187.6905963,0,612.0941905,-735.1862719,484.6193515,,,,
539.7679996,2108,-131.8672493,-358.7760709,-118.0592111,-297.4300735,271.2992118,-94.86757155,1206.68609,280.9716811,160.943402,-317.4042753,32.04726359,-140.4020433,0,-703.9382405,254.2305137,-814.9521601,,,,
539.7759996,2108,237.2272946,308.3062302,-74.83571252,627.2304996,-354.7059495,140.2502847,-657.0490932,138.2427369,-75.9197861,65.65398661,-181.0935654,-56.49225619,0,421.1036877,427.2543407,839.3975977,,,,
539.7839996,2108,49.99113534,-305.4936997,187.9027291,-798.7114946,273.5856953,-105.5330779,17.21091204,-606.5762094,-151.6770034,74.73696229,274.7300018,134.8107029,0,-62.27009515,-849.8564449,-518.3967055,,,,
539.7919996,2108,13.48834101,9.460490643,-268.9446912,565.0584525,-84.95357929,57.30937892,840.5700943,781.5758278,201.4454866,-292.2994471,-219.8337635,-223.5438358,0,-362.690597,977.1978376,13.47348017,,,,
539.7999996,2108,273.5521251,105.5164467,204.0059218,-189.2336265,-128.720024,23.51052823,-1148.34619,-655.055284,-292.4948382,290.6227361,125.5052529,162.2116306,0,621.7694296,-711.6171888,520.6683412,,,,
539.8079996,2108,-105.3487523,-362.1603227,-94.8701858,-322.222669,289.7047008,-94.51894128,1204.913359,300.7456585,146.9786955,-324.9478485,36.19526981,-139.1480573,0,-709.990531,226.0150639,-813.1317245,,,,
539.8159996,2108,270.9033651,318.8921484,-56.85562481,653.7535013,-339.037733,136.9876997,-613.2055597,204.4061389,-51.51397977,68.7468337,-160.2270868,-39.93062619,0,406.3784642,465.634427,837.6479297,,,,
539.8239996,2108,69.42012983,-301.194573,200.4733937,-790.7935896,276.6197945,-131.4933376,-2.511764796,-602.5049351,-151.1146298,84.34868882,286.981864,143.8014667,0,-36.67137922,-849.8603063,-488.4925402,,,,
539.8319996,2108,28.71893994,16.25414323,-253.5969731,550.6123253,-64.15452044,52.57565824,892.1700034,775.5955297,212.5877369,-302.0046041,-206.2407832,-220.1905374,0,-393.3033867,995.7566825,-8.361269983,,,,
539.8399996,2108,310.3475033,145.7075789,220.2150735,-152.430251,-131.850006,44.44409692,-1151.664145,-666.292894,-269.1519452,320.3343195,150.8519006,192.2162588,0,638.2417785,-680.8898983,541.4960831,,,,
539.8479996,2108,-105.2710473,-373.8359257,-101.0705401,-335.4449181,295.6745248,-115.0921997,1217.231113,265.4183171,151.5686858,-300.6082985,49.19527826,-124.432637,0,-685.3044102,202.0713391,-821.0919422,,,,
539.8559996,2108,246.2798233,299.818031,-95.30673,662.9115167,-352.4242558,119.5805273,-544.0125854,232.0188254,-57.24184231,40.46698026,-213.7175861,-81.59724307,0,384.008794,519.8141359,843.0583644,,,,
539.8639996,2108,57.47348626,-313.6807897,184.8489262,-802.0156186,245.8087984,-131.2160499,-21.04061777,-603.9994269,-182.811067,77.09477605,236.9397403,114.5280805,0,-29.74814519,-850.4697874,-455.3400654,,,,
539.8719996,2108,-6.988164647,-27.54642053,-278.5572163,521.8864378,-76.27593433,32.93818159,949.5487191,813.6561098,190.1417737,-324.6282563,-248.7528303,-253.7953043,0,-422.4660218,1004.180721,-29.96935616,,,,
539.8799996,2108,296.4131111,148.1716066,203.9693535,-143.5464793,-159.1225467,42.00801345,-1152.55561,-618.7621761,-292.6040062,303.6725304,100.2287559,157.7407925,0,640.5098056,-645.0080917,573.3071012,,,,
539.8879996,2108,-97.133993,-368.2063056,-83.49901334,-373.5271161,299.9433146,-110.4818726,1195.163324,256.3255549,139.1478865,-289.8324178,50.32257935,-119.4466473,0,-689.8457576,170.4854365,-835.3811361,,,,
539.8959996,2108,252.2915883,307.9436082,-92.47235759,676.6408524,-343.0502079,120.4117697,-516.696996,253.0714806,-41.53033024,47.8923517,-207.682118,-73.51735513,0,350.9534137,547.6753417,818.9689259,,,,
539.9039996,2109,78.28162584,-286.8211276,206.9769076,-795.0854591,254.5554926,-125.8047801,-72.60719442,-652.7721588,-184.4947753,105.8940108,249.2150143,130.4656559,0,-7.738790695,-875.9641971,-444.7225733,,,,
539.9119996,2109,1.942175239,-18.80046771,-261.0943202,511.0396944,-40.14230785,36.00946915,984.8335568,767.1322506,209.9921861,-308.9480742,-220.2512135,-237.6754642,0,-430.4171438,986.9949299,-70.29020341,,,,
539.9199996,2109,296.9980245,165.9394414,198.4359861,-103.761716,-153.1894861,42.6428456,-1149.873127,-654.8790742,-275.5246942,320.8080908,112.2941096,166.6442887,0,657.9179702,-627.8301918,591.7824947,,,,
539.9279996,2109,-113.421717,-366.1185828,-81.02887924,-382.1079869,309.7784658,-110.3354739,1190.857237,189.410674,135.0570643,-278.0741297,59.82366632,-117.6898571,0,-674.1855204,132.1079184,-843.4019185,,,,
539.9359996,2109,224.5449218,327.5801134,-100.8627526,702.1117019,-346.0391455,140.0092588,-467.3959314,267.0960613,-27.67657737,42.70788374,-210.5409591,-84.09744693,0,344.9453068,580.6142479,816.9394543,,,,
539.9439996,2109,47.37677017,-270.337383,201.3216095,-787.9813236,233.0311677,-121.9471893,-102.9443417,-648.1017123,-191.3048222,120.1415626,252.4626768,135.0840211,0,18.75925808,-884.5826519,-410.912273,,,,
539.9519996,2109,-55.93737144,-50.19502085,-287.6935553,487.2739095,-49.63686718,7.202491254,1034.214568,812.9927712,195.7159598,-328.3364013,-238.2547294,-252.9828067,0,-460.9064634,991.0561026,-96.37212701,,,,
539.9599996,2109,254.107926,161.4944558,163.8819956,-100.6419252,-189.7683246,18.74770242,-1146.653284,-593.3876168,-303.1600774,291.2133692,62.4200829,130.5789729,0,640.8629586,-586.0820648,621.7628052,,,,
539.9679996,2109,-135.8105169,-374.4043117,-92.92814005,-445.5890333,295.2065042,-136.1260682,1170.799778,185.5583735,101.5854318,-305.6076418,32.30379998,-144.4517315,0,-704.7887688,111.351722,-854.0592278,,,,
539.9759996,2109,209.7025882,312.8821514,-126.1265217,689.1922746,-353.0582053,119.7991576,-435.4283482,292.8179464,-34.25354774,10.36873364,-235.0849112,-109.224624,0,304.5091114,611.7763608,790.0574079,,,,
539.9839996,2109,43.14392122,-273.7726303,182.4972246,-799.7294656,216.4314327,-139.1541458,-157.3711827,-687.6709852,-212.794639,120.9816907,234.1828283,116.8010496,0,30.12675963,-911.1053758,-398.2721448,,,,
539.9919996,2109,-68.70418074,-64.87347731,-313.0439015,447.2637634,-52.50066545,-13.42984908,1056.325271,773.7195717,183.0577032,-343.647212,-264.8346067,-291.8809742,0,-501.2852081,969.4029128,-139.41412,,,,
539.9999996,2109,242.3803029,145.8868033,130.3457855,-82.98274742,-220.0407965,3.289830018,-1142.236866,-600.7231492,-312.2133339,288.96187,31.1176312,97.16765547,0,641.5202309,-572.6220614,631.6311941,,,,
540.0079996,2109,-169.8948118,-428.600439,-121.6226229,-473.91724,273.1102599,-166.311496,1177.225055,153.8151398,79.71990267,-315.7683024,15.32918821,-175.9262835,0,-710.8149465,71.46293164,-867.6518136,,,,
540.0159996,2109,184.2412009,285.149378,-162.2637169,691.4301014,-379.4839919,108.2407107,-373.3006833,317.1521729,-39.75230701,-33.1525469,-270.5854874,-160.3811295,0,257.5594447,649.899695,772.0821722,,,,
540.0239996,2109,54.83063877,-273.0048738,182.8068753,-796.785412,192.9001029,-126.762799,-179.2713762,-702.5341624,-221.6811674,120.6056691,236.0290494,110.8977609,0,52.73949107,-912.5587263,-379.2349659,,,,
540.0319996,2109,-79.55771474,-102.6513543,-319.261943,424.876044,-46.18491489,-14.72142809,1112.285621,766.2320311,189.3353224,-368.4583588,-250.5194116,-300.0408247,0,-527.5882277,980.5778506,-170.6049197,,,,
540.0399996,2109,245.8097518,141.3013986,111.5608612,-64.49615632,-236.887717,11.29167933,-1133.166278,-603.9922691,-306.6752506,256.686224,21.55275002,73.83812166,0,624.0073819,-525.953561,659.1669397,,,,
540.0479996,2109,-140.728348,-416.7026628,-108.4679927,-497.8602745,278.9131296,-146.222069,1152.689301,106.133846,81.43153796,-310.1575296,36.12426448,-165.5788781,0,-691.6081286,41.86259016,-865.8283396,,,,
540.0559996,2109,189.433084,285.6648982,-170.2744427,707.0684903,-372.3959976,115.0918585,-335.1422996,344.0234152,-22.40770119,-42.6164769,-266.2836387,-160.6458102,0,256.5471201,687.0989888,766.6558975,,,,
540.0639996,2109,46.1416604,-281.8553697,166.0005308,-799.3773597,181.1534972,-144.4861181,-218.4665739,-687.980478,-240.9652552,103.7075698,212.522196,90.19905458,0,66.16877304,-914.8072404,-350.6905608,,,,
540.0719996,2109,-76.72284079,-100.3953085,-319.3043764,386.7726702,-26.98108938,-12.98599073,1135.426818,807.1433933,177.248577,-396.1814399,-268.621336,-319.0739625,0,-556.2525419,970.2158239,-211.479905,,,,
540.0799996,2109,274.1322859,187.8647855,130.1758007,-39.91686982,-221.4276159,47.41760756,-1151.908482,-538.16729,-297.0438163,272.491183,33.60639529,99.87450812,0,648.9668114,-510.9081034,655.6122337,,,,
540.0879996,2109,-150.1033458,-431.6756938,-104.5718097,-516.0831886,303.1782172,-155.7162329,1132.010656,114.7323112,71.64306228,-292.0921622,51.28477991,-144.3329243,0,-670.0588174,-0.863008116,-894.4224104,,,,
540.0959996,2109,162.3851174,268.0541752,-195.2093404,713.8783371,-361.0151341,100.3812205,-283.9312483,362.1887887,-30.81222437,-79.58406495,-304.0889891,-194.9830495,0,214.337338,732.2217017,739.8728887,,,,
540.1039996,2109,60.08158617,-252.7674013,179.6070961,-786.3426296,184.8342812,-128.1206444,-256.7941328,-745.8271367,-247.6881521,112.2744681,206.9908963,96.78976849,0,87.72578758,-907.5348246,-328.713615,,,,
540.1119996,2109,-88.54217538,-120.8390625,-323.9727492,380.3304442,-10.48305348,-32.66503096,1184.333022,747.5376126,186.6128517,-386.5301001,-261.4719962,-310.3097791,0,-566.3785903,981.3882715,-229.3263166,,,,
540.1199996,2109,273.7447717,203.7734244,116.7689133,-6.590763453,-239.8726768,35.11800886,-1135.841727,-581.469652,-292.0972154,271.95292,11.97122027,85.77382126,0,640.4552549,-453.0487093,699.8596621,,,,
540.1279996,2109,-107.7078573,-380.9515406,-67.98201331,-534.362669,310.992523,-142.3795882,1103.534729,40.44815027,88.50151532,-251.01603,88.59361516,-109.7449443,0,-653.5343709,-30.40598423,-886.0091216,,,,
540.1359996,2109,198.651051,307.8585104,-180.9580734,732.1535198,-347.3178779,100.1661218,-252.8200971,377.952506,17.10342435,-38.50902159,-256.9782995,-155.1432682,0,213.9484725,750.2597298,726.9737521,,,,
540.1439996,2109,91.46616769,-217.3516986,189.0359847,-776.8307905,178.3935209,-133.2456309,-316.5959947,-737.3757044,-229.973437,154.4244901,239.382318,128.4082148,0,118.3073787,-936.6235827,-303.2834009,,,,
540.1519996,2109,-79.06277246,-113.9214262,-313.6989215,346.7840774,7.736534919,-30.18684336,1181.321868,776.3535759,195.7789893,-376.7326919,-239.117682,-299.2228999,0,-582.3487655,933.0164298,-275.897754,,,,
540.1599996,2110,272.8948897,221.4780573,117.856636,15.11608325,-238.1936952,42.04357286,-1165.806882,-519.8286533,-301.4833874,272.6714125,1.52495593,75.30270157,0,647.8980334,-463.7856966,696.880157,,,,
540.1679996,2110,-133.9234129,-398.6109055,-68.69340486,-557.8326949,319.9121065,-158.2971613,1064.44941,54.39652296,50.47237994,-252.8916966,74.32402827,-123.7101029,0,-638.3771383,-95.61729022,-895.3911313,,,,
540.1759996,2110,146.6906351,275.5116693,-215.5549803,728.0406578,-353.7090773,86.9254007,-224.3816075,419.6002022,-27.2252905,-75.84908862,-307.0438535,-196.4056425,0,183.0444131,753.6208155,708.0479496,,,,
540.1839996,2110,67.80008083,-212.748338,180.7692125,-776.2795504,154.1328644,-131.3994504,-378.7872924,-753.7542354,-296.9210579,146.6792629,197.7909329,107.0694562,0,124.0061754,-972.1818953,-285.2701906,,,,
540.1919996,2110,-105.1572057,-132.6501218,-315.779777,317.4135309,6.065246904,-48.06082017,1194.648879,747.4096145,161.3259588,-383.1270882,-244.1001831,-302.3880421,0,-606.1714179,895.8616444,-318.5125641,,,,
540.1999996,2110,245.5376045,201.4337962,84.07760695,29.74400118,-275.7297825,20.7940897,-1179.819793,-546.4077591,-338.4833531,257.3349677,-22.63279652,58.33886037,0,640.0899312,-460.3901027,694.0727393,,,,
540.2079996,2110,-144.8032594,-418.18466,-84.35182047,-595.5368611,292.2652112,-172.9792281,1016.673108,-31.86004024,-7.241295389,-264.1757013,55.22882256,-143.3996561,0,-652.1390841,-160.460993,-918.2500999,,,,
540.2159996,2110,301.7111246,678.2032953,-339.2353966,1517.378571,-774.0684222,230.4689746,-872.793663,678.273529,-53.03546891,-21.61064417,-551.6373964,-279.4558991,0,569.3639849,1348.717684,1588.283333,,,,
540.2239996,2110,300.3996665,195.2508707,237.5375367,-346.7126545,-264.5147938,-25.32902615,-1785.425659,-1087.764979,-522.1315745,429.0404083,121.0380328,192.5957284,0,872.7243996,-1126.644266,686.2347649,,,,
540.2319996,2110,-327.5083924,-644.45458,-220.0483535,-697.1615039,456.592083,-273.0631023,1958.16925,333.2841515,126.737933,-510.4006317,32.1235915,-248.2174122,0,-1176.99966,101.8372543,-1506.407849,,,,
540.2399996,2110,54.46616265,343.5570564,-502.331255,1317.110431,-508.1202866,108.6817835,458.9653262,1142.014612,149.54048,-346.6058735,-561.6651136,-409.7369105,0,-137.3982098,1702.676865,792.8586557,,,,
540.2479996,2110,-46.23206986,100.8909265,-437.0076585,812.9432194,-264.819721,17.04906739,868.2752742,960.185134,156.2192686,-393.6633309,-414.6151538,-370.8157652,0,-413.6311052,1329.52201,206.7696494,,,,
540.2559996,2110,-126.6348046,-45.27179656,-447.6908168,638.5602722,-128.094089,-31.65283096,1278.907174,1012.63357,207.4536877,-479.7776998,-374.7984556,-393.0772647,0,-655.5435496,1296.685851,-149.1825226,,,,
540.2639996,2110,155.6396099,226.9380812,-105.876955,365.9583564,-335.6836434,34.39308033,-639.1786841,-47.94538522,-201.458475,51.89315395,-175.7569035,-76.04244179,0,349.9614432,157.4196097,635.733278,,,,
540.2719996,2110,-15.62915301,-265.4162677,86.69155712,-747.3552,154.5655378,-151.6356055,-125.0756,-635.3425896,-279.2793738,43.97203952,181.2655572,66.84382147,0,-51.64937317,-887.4159721,-484.4497345,,,,
540.2799996,2110,-79.05166526,-132.9028755,-232.3513582,51.50377495,-18.67912174,-77.9540272,607.3653765,290.1148024,-12.13331626,-252.980587,-127.3948284,-190.7962373,0,-367.195393,348.4364094,-248.8731348,,,,
540.2879996,2110,125.7405285,152.9521874,-115.2710809,233.1419598,-268.391732,9.093273805,-501.3863299,-64.38090667,-196.0983847,-3.62314119,-130.4195113,-84.6727518,0,229.3423065,96.7394653,446.9672353,,,,
540.2959996,2110,-6.265411408,-276.7068419,67.85360007,-719.0949993,177.2566702,-155.639634,12.43795558,-534.6882208,-245.1692519,1.514120179,194.1553052,57.96449072,0,-117.5545009,-796.9198449,-533.5600162,,,,
540.3039996,2110,-15.05825649,-2.722515838,-285.7190342,360.2904415,-121.0187283,-23.963175,598.9379795,526.2582125,36.14434573,-255.610957,-198.5000521,-204.1174386,0,-290.3067711,663.8796487,3.941634647,,,,
540.3119996,2110,178.6543323,66.90358426,70.82350473,-233.4100883,-146.5103586,-29.84121941,-865.3397172,-574.4961933,-344.5645614,180.3482377,69.48746651,90.95693827,0,409.7053116,-643.948899,284.629529,,,,
540.3199996,2110,-98.19143093,-332.3974712,-114.7171273,-457.8375467,192.8034312,-149.1741619,732.4272,-28.10527695,-63.80832427,-212.1353643,57.2018018,-94.61565513,0,-479.3840906,-192.8648954,-696.0314666,,,,
540.3279996,2110,115.0310411,179.9368508,-233.2246871,507.3216987,-326.392729,36.4045943,-207.8518046,261.7633758,-96.4330557,-108.4747352,-248.2234895,-176.1104824,0,95.33896387,524.1700217,502.2574547,,,,
540.3359996,2110,80.05964742,-207.6557038,139.0782592,-740.3811448,92.1639535,-134.5447935,-463.1477188,-770.5756827,-356.7187589,109.9208183,194.7472192,104.7432721,0,114.2514247,-1028.316269,-316.2082354,,,,
540.3439996,2110,-90.12315294,-150.3426184,-311.1277522,216.83212,-13.73958731,-65.98050948,1035.145111,614.2150849,86.43505602,-357.4022848,-194.5737553,-249.5841338,0,-532.1688632,705.4696114,-318.353538,,,,
540.3519996,2110,218.9108691,169.6597669,46.04312133,-10.26332565,-278.2109092,6.129899518,-1080.732328,-501.125778,-362.6557683,207.2962292,-11.35258772,74.50616379,0,564.7723796,-468.0368415,572.0281983,,,,
540.3599996,2110,-131.2193433,-405.5626759,-73.03036268,-623.2374871,253.3250751,-192.260956,800.2688745,-104.0115381,-94.11666909,-220.3651194,93.98840456,-72.77003329,0,-514.3745587,-324.3729872,-832.1916805,,,,
540.3679996,2110,87.30145162,204.0391267,-261.726983,603.9048432,-336.517823,43.91241308,-73.17584106,402.9138298,-51.81997864,-148.0032701,-272.968815,-186.5119009,0,68.98467791,737.0801907,532.1063134,,,,
540.3759996,2110,92.1619577,-150.2231276,183.3539533,-727.0221163,84.2388493,-115.2299131,-635.3321739,-846.4772447,-377.6178223,174.5629388,233.089899,171.2817821,0,234.4482815,-1069.416591,-223.4545861,,,,
540.3839996,2110,-137.8673523,-183.6478299,-304.4841212,151.6482413,58.92082975,-82.30761337,1192.877254,618.1281271,116.3351174,-381.7249915,-168.10811,-233.6800148,0,-620.1417634,734.1110942,-431.0254561,,,,
540.3919996,2110,210.297013,223.7111996,30.18846275,71.66015511,-310.5076305,29.4807469,-1173.500715,-510.0389798,-356.0294666,226.7509342,-20.57596359,88.35046893,0,619.3936847,-388.9815147,688.9673848,,,,
540.3999996,2110,-149.6929585,-417.0042242,-51.17528875,-696.3856715,293.9869354,-176.8276895,785.1864005,-187.264015,-101.4847918,-191.6929329,133.4438588,-36.13154564,0,-507.4723913,-419.886974,-890.3318862,,,,
540.4079996,2110,113.6410036,247.2431594,-243.8939921,645.7661225,-328.0111091,100.0717637,-50.81959317,443.3791584,-21.62957961,-133.914896,-269.6344798,-171.2998253,0,62.03691781,785.4843296,532.6440273,,,,
540.4159996,2111,148.8849601,-111.5806504,225.8142214,-692.5763144,76.39189558,-59.09977452,-736.6514062,-843.2442955,-368.1744267,233.3207483,273.7930716,220.4320949,0,304.1624981,-1125.115465,-190.1275046,,,,
540.4239996,2111,-101.8296516,-197.3849265,-281.2767234,153.203038,81.17458222,-49.94373747,1236.680452,690.4307137,144.6872216,-357.3277881,-130.3923045,-198.3249206,0,-607.6748428,715.883272,-482.9589999,,,,
540.4319996,2111,282.0389174,263.3849047,58.49078499,142.6658771,-323.2815859,76.62016742,-1208.71335,-417.8375402,-333.5164583,263.829539,-9.266844606,125.9635322,0,667.827609,-346.7789429,721.3248174,,,,
540.4399996,2111,-113.2671088,-434.5078336,-25.85840111,-701.1840536,308.072646,-180.1633854,778.4847878,-165.5839724,-98.38269859,-159.4278179,154.5957581,-1.596232336,0,-485.0243198,-445.5886715,-907.3324449,,,,
540.4479996,2111,100.3537762,206.2731194,-274.4009548,663.8254333,-329.3241171,71.74785537,18.70569784,480.5242762,-17.31947063,-154.7408593,-303.1103472,-191.2311847,0,49.80824243,872.1653076,533.0014142,,,,
540.4559996,2111,131.8451873,-136.8491971,196.7099705,-689.947548,63.96765589,-83.3790174,-761.9450537,-898.6450491,-400.3432433,222.0250231,225.4910492,195.0482732,0,318.2477723,-1092.834301,-154.1069914,,,,
540.4639996,2111,-138.978987,-243.3172177,-309.256854,104.2032634,99.87228548,-88.21055856,1287.539094,612.6167246,118.4028412,-390.8515521,-182.1916295,-244.1360206,0,-657.1283343,735.1279446,-497.8965219,,,,
540.4719996,2111,273.1793998,262.1343412,37.19563228,148.0753158,-323.2147086,66.88659247,-1201.585442,-466.8980146,-352.9812732,237.1474946,-65.31837614,77.58962928,0,654.0352551,-301.1760002,754.4036941,,,,
540.4799996,2111,-94.17256675,-432.134331,-20.66638323,-724.8001204,323.9695197,-171.7302614,746.8092426,-223.2228636,-121.1033748,-147.0689183,143.6230226,-13.40699164,0,-476.0738679,-508.2998637,-904.7963876,,,,
540.4879996,2111,121.2726389,212.5684717,-281.1495957,669.638842,-321.6700855,88.71340057,58.28430683,522.5154264,-9.422758848,-146.7391041,-314.3222198,-205.8167419,0,8.936086375,864.8848102,516.9462191,,,,
540.4959996,2111,177.7891055,-103.6556679,211.1821032,-654.6963671,47.31132621,-56.39009364,-812.9516196,-845.957007,-404.3614186,261.458705,226.9787664,203.345701,0,340.0689912,-1132.480086,-132.4648604,,,,
540.5039996,2111,-110.1248071,-243.19071,-298.8235196,110.1060284,97.49894321,-80.46861204,1313.918666,681.9758525,121.4181245,-360.3761844,-168.6506087,-230.4160271,0,-646.3916091,704.0484292,-525.3896886,,,,
540.5119996,2111,280.0802164,263.1595106,18.39122035,196.1149148,-365.8174058,64.09873454,-1167.143262,-386.9222989,-351.5919177,250.9065252,-79.97044254,75.47325982,0,662.6329661,-247.9904219,770.6838158,,,,
540.5199996,2111,-88.32728205,-434.7576138,-17.60589874,-719.8268813,290.5833355,-177.6871296,730.4687092,-243.2283793,-138.3619242,-126.6317353,145.5891458,0.605833463,0,-448.3725245,-521.4840421,-899.1418003,,,,
540.5279996,2111,117.9869777,208.9601638,-286.9430107,677.889252,-337.2407643,82.32207686,116.6787294,500.5279493,-1.501371356,-157.096391,-317.1679305,-202.0025436,0,0.246359561,921.8490358,498.4557112,,,,
540.5359996,2111,173.3904434,-99.05034052,201.8890472,-637.585157,14.92946741,-72.92528339,-840.7596752,-920.6848122,-415.4305736,257.8136765,214.2207454,203.1393762,0,360.5933468,-1098.068011,-105.169646,,,,
540.5439996,2111,-128.8906871,-265.6638691,-305.0751206,81.82263879,102.0460609,-100.3967109,1331.386636,601.7118403,115.4816565,-374.3396039,-173.3317707,-236.1800913,0,-666.4561029,692.8520845,-552.1694551,,,,
540.5519996,2111,270.6923147,265.0752201,14.95102422,210.3324979,-362.3900652,69.3595401,-1163.16249,-406.7277198,-347.8151512,234.2414935,-91.02106345,63.10731861,0,645.0561314,-228.3885,774.9285209,,,,
540.5599996,2111,-97.28124149,-445.7214227,-4.126180213,-746.4627419,305.2966013,-184.95748,684.8891885,-275.3437168,-159.1953883,-132.1579017,146.1099772,-9.839515779,0,-445.2848697,-588.0792209,-903.4225965,,,,
540.5679996,2111,97.52025423,186.6840786,-290.7378629,664.7095817,-317.5791149,76.06556911,166.4789327,553.5883757,0.164818478,-181.0705629,-324.3621629,-225.780047,0,-36.69990418,909.0222394,467.1937581,,,,
540.5759996,2111,175.9237889,-87.09183251,219.9356957,-621.934313,10.98600132,-53.86661588,-876.71701,-873.635072,-426.1046522,262.907342,218.3122028,199.7897334,0,372.2697138,-1129.608584,-84.0484486,,,,
540.5839996,2111,-132.2035116,-269.3172066,-283.9584,51.08270299,116.8294887,-92.05798829,1349.84198,630.6931212,103.9972865,-387.0532086,-166.8989298,-248.8202105,0,-690.5216312,660.2643528,-578.2509179,,,,
540.5919996,2111,285.8303508,292.2105056,22.98894737,233.7569795,-371.1632633,92.13889471,-1132.877906,-355.8925585,-339.8622056,229.126051,-88.29995571,60.68535183,0,637.4868115,-182.162988,781.5174403,,,,
540.5999996,2111,-69.04876186,-429.0239329,18.84472944,-745.1370021,300.9702924,-168.035686,667.695677,-292.6705368,-167.0612315,-99.55907572,176.2770576,20.85360172,0,-407.7752159,-611.9984401,-898.5149658,,,,
540.6079996,2111,95.81470047,163.8148003,-316.1007176,663.8496401,-319.7265407,60.90453474,248.515083,562.4655805,-8.389854505,-206.1436221,-348.4892544,-256.0752421,0,-67.87187333,964.814334,458.0852672,,,,
540.6159996,2111,200.5023576,-87.59659568,197.2732354,-607.017725,-11.89991669,-62.56268676,-886.9607389,-901.6180296,-451.1299892,247.3744013,184.3365,171.2435684,0,373.3619878,-1094.092583,-41.07542293,,,,
540.6239996,2111,-87.70529563,-291.6687127,-289.1919651,25.29785302,129.7461982,-104.3295843,1377.197183,599.6151742,94.78287471,-394.6154303,-170.8100931,-253.8183217,0,-707.7625047,646.6488943,-594.919378,,,,
540.6319996,2111,345.6690355,284.3290899,2.497263881,252.9636998,-372.2063272,80.66926665,-1101.440802,-327.8010764,-339.8887291,204.0770831,-123.7527671,31.42526533,0,614.4329325,-138.4046389,807.1367277,,,,
540.6399996,2111,10.00250602,-425.4167461,32.07783841,-756.1618655,309.9437177,-177.3641663,635.071572,-299.0328321,-180.0619392,-91.91404913,169.9531625,22.30801594,0,-401.9957158,-664.6111775,-874.2237027,,,,
540.6479996,2111,160.6346256,160.8660147,-312.7843707,662.6856073,-300.7848828,46.78747154,306.1939713,623.1952878,6.208627459,-210.0899657,-348.9560968,-253.0396176,0,-93.21162472,959.646057,446.5988897,,,,
540.6559996,2111,263.9626919,-68.93401276,197.9353893,-592.2208291,-28.00270344,-73.89692331,-920.501662,-865.1653812,-460.378446,251.4626686,167.1831706,166.3573446,0,395.8183671,-1106.809603,-2.610579866,,,,
540.6639996,2111,-52.4493534,-297.1428718,-282.6532426,-9.996401461,130.445139,-125.1730964,1384.702957,596.763085,85.55236906,-396.6029378,-174.6489727,-254.5568781,0,-725.5686713,598.5816956,-626.8241943,,,,
540.6719996,2112,369.7675612,307.5930689,-0.087306359,266.3728264,-382.4975925,79.03643277,-1083.066204,-316.6814609,-330.3914328,199.8954881,-135.1635616,31.2967242,0,591.1607338,-115.4441929,795.5106875,,,,
540.6799996,2112,30.3109122,-403.0306931,44.6918877,-777.1768652,310.610315,-171.2320993,586.9261671,-370.5992509,-187.188059,-68.77945318,176.1472044,36.93864898,0,-384.7590634,-706.0254991,-886.5605957,,,,
540.6879996,2112,163.5648772,155.7932268,-326.5391046,646.5260947,-297.2338146,42.51241958,348.8965096,585.4663612,18.50866992,-214.7982734,-354.2849952,-255.986573,0,-119.8730937,976.9404798,402.1669143,,,,
540.6959996,2112,460.1570558,166.5219616,261.3770106,-448.916321,-283.2050024,-8.98351642,-1840.484149,-1186.035981,-619.6663342,448.6734765,139.1331534,247.4777532,0,871.7307534,-1294.377961,559.1044821,,,,
540.7039996,2112,122.560907,-232.3267595,-153.7198733,-245.6244455,-23.90952473,-144.5919505,504.8572229,59.33195506,-153.8873114,-185.7070716,-96.16084559,-132.6290536,0,-337.7754221,-11.67565386,-384.3390955,,,,
540.7119996,2112,204.6455891,-11.29571911,-172.8547395,84.11949941,-240.4042565,-69.52846718,-19.14478875,65.43915051,-200.7338238,-108.4619486,-203.5334959,-146.8351827,0,-45.51400069,183.3913038,126.3183013,,,,
540.7199996,2112,112.2964089,-245.1851322,-77.71792497,-400.2522606,14.33910692,-152.4213473,254.7072848,-195.4023949,-241.230425,-106.3987775,-41.59989175,-73.3866256,0,-221.2008635,-303.8299051,-402.9485506,,,,
540.7279996,2112,219.0673267,57.61250028,-189.1880023,175.1182015,-299.546597,-39.99069408,-217.2708494,25.12728673,-245.9689144,-66.64560886,-254.178319,-141.9184773,0,96.5821954,214.1442195,330.0479096,,,,
540.7359996,2112,69.48899195,-303.3181462,-53.1235201,-574.7421033,69.75208061,-180.7442598,194.4749351,-372.4423758,-306.1934162,-70.62724342,-2.924283598,-45.10527626,0,-209.6731107,-556.9672404,-503.1330878,,,,
540.7439996,2112,66.90256449,-51.92155886,-310.5179381,220.6291117,-218.8479985,-82.35339462,345.0586956,293.5432285,-129.9479613,-229.9887796,-316.8681045,-258.148687,0,-230.6848633,523.6845956,76.10837254,,,,
540.7519996,2112,273.2108531,-127.4218152,306.6504823,-1028.487218,-66.63499372,-154.1106823,-1621.701629,-1518.587688,-747.3810016,398.6111322,243.9075927,252.6592667,0,605.5722814,-1899.624427,-51.76269774,,,,
540.7599996,2112,-36.1160431,-718.805468,292.0985726,-1767.929384,513.6819627,-358.6501787,22.96356189,-1347.397348,-561.251265,101.2776453,447.5181851,209.9730114,0,-308.9837358,-2149.797745,-1468.509216,,,,
540.7679996,2112,56.02510248,-35.75099906,-301.2087203,236.2495905,-214.5334377,-73.04166805,339.5265464,312.1991962,-117.9048776,-234.0131206,-315.3594338,-259.4771604,0,-232.6116059,526.7640936,76.15609325,,,,
540.7759996,2112,74.94002132,-53.27379137,-204.8344996,36.20789727,-177.4366817,-82.32502555,87.66107975,64.73705633,-200.3476008,-147.5174265,-228.7015661,-184.2520247,0,-116.4247078,163.1075752,24.95342283,,,,
540.7839996,2112,82.46161001,-137.6746511,-77.84180149,-319.129067,-105.7267497,-132.1013427,-205.21596,-318.7470285,-331.8940543,-21.21498936,-81.27471029,-64.06671937,0,18.55195384,-423.6176001,-124.5804483,,,,
540.7919996,2112,-4.444464106,-200.469768,-186.8442927,-218.5775951,-78.23053686,-164.2938308,294.7745284,-21.00276374,-221.4669751,-162.7882977,-145.5649383,-155.1687918,0,-228.0606625,-87.15958149,-272.3182811,,,,
540.7999996,2112,23.07589426,-52.21625263,-266.5924322,126.4914666,-224.3602447,-103.3864095,246.4068405,201.8690094,-159.2275777,-213.9073346,-274.5009645,-232.882115,0,-193.9667804,353.4634471,28.11062658,,,,
540.8079996,2112,107.920038,-97.11967549,-7.673613153,-415.1748179,-158.9128866,-141.0436214,-579.3843022,-596.2952997,-421.7324446,48.1419735,-39.02819084,-17.85060192,0,150.2541804,-660.8248967,-41.37395352,,,,
540.8159996,2112,-122.7602798,-289.0040726,-316.3922191,-110.4077624,-19.73340235,-198.1684529,963.4071631,296.5369984,-67.30755831,-367.4306926,-237.817234,-283.1165213,0,-592.4424317,390.4077697,-515.0173263,,,,
540.8239996,2112,155.3745171,128.631464,-134.5426171,104.8401329,-378.9513034,-49.14253118,-686.7327881,-287.1136524,-343.4105911,23.09633896,-231.2929597,-101.6022309,0,284.1399955,-47.45866893,450.3095379,,,,
540.8319996,2112,-60.8210928,-353.8435802,-64.31431373,-662.2539301,102.4095074,-224.5840031,322.6692848,-416.1914241,-296.1642447,-116.8631422,4.443745145,-66.1626221,0,-313.8443678,-626.3896648,-685.4070085,,,,
540.8399996,2112,-14.56530425,6.00019095,-380.2750676,401.6211599,-279.6601643,-68.69160353,491.9414234,475.4731419,-53.68807613,-299.7447531,-398.4364432,-322.9696095,0,-288.4152961,799.1693513,122.9693745,,,,
540.8479996,2112,170.6265341,-27.1331827,85.51767058,-461.3220627,-167.356156,-96.03244295,-952.707337,-798.7655931,-485.0756915,174.9935938,21.9182694,62.96875571,0,340.0791033,-941.5502039,44.43068141,,,,
540.8559996,2112,-140.7352376,-341.2463514,-302.238585,-158.9753525,90.12274057,-191.221197,1247.223533,425.7562383,0.125393082,-399.7332811,-206.5640337,-286.6574403,0,-726.0771525,376.0835498,-728.1465177,,,,
540.8639996,2112,222.8081031,242.8337171,-135.7698599,285.1286972,-456.2133023,6.835610336,-852.0766099,-163.8142683,-325.9639786,63.99532455,-267.9575415,-97.68848404,0,408.9441619,65.56124876,666.399358,,,,
540.8719996,2112,-49.59173689,-411.3824652,-24.55676064,-786.6766402,147.4779693,-252.9518638,322.0679529,-457.159594,-321.3118435,-86.7912927,72.44107706,-19.11983,0,-307.806873,-838.8646919,-801.3429435,,,,
540.8799996,2112,-23.35557141,-8.702951618,-453.1495803,484.1349169,-350.5838701,-101.9331754,598.6723161,617.5734088,-37.9046394,-370.234619,-463.2555363,-380.1359569,0,-332.1458639,956.3846913,174.7540098,,,,
540.8879996,2112,182.7763859,-35.38646433,64.40864852,-505.3188575,-264.9246122,-127.790968,-1090.942345,-896.1619132,-556.5536388,147.342531,-12.43840178,39.75412238,0,366.678444,-1000.280961,105.6269514,,,,
540.8959996,2112,-145.2009735,-395.7917348,-333.8063512,-220.3028374,46.7110406,-218.1175175,1320.555878,373.3318763,-26.74503134,-465.1438753,-228.1631348,-317.9897551,0,-820.7194243,384.683069,-802.9058519,,,,
540.9039996,2112,252.6466408,245.8122985,-161.1303659,322.2882949,-534.8919213,10.22274722,-916.1027143,-216.7612098,-343.7257192,33.65498696,-307.5029244,-126.152043,0,406.1838066,133.6961389,728.2376527,,,,
540.9119996,2112,-33.73783941,-449.2062812,-15.90253258,-855.0291581,144.9252862,-268.2158225,280.6414646,-571.6142921,-353.0841134,-108.0738499,66.52137197,-40.96030251,0,-331.2086147,-912.3106675,-846.340064,,,,
540.9199996,2112,10.03614006,0.25838761,-455.0400402,497.8706982,-334.2254805,-91.80477843,618.9518852,616.2080342,-24.33469568,-396.0696094,-479.3392874,-409.5501569,0,-371.5069981,1000.448313,155.1773555,,,,
540.9279996,2113,231.9520245,-1.169111355,101.2047014,-485.0976222,-221.4008923,-107.3686286,-1182.867059,-918.8433357,-540.8833116,187.7718271,22.66997114,72.82307214,0,412.4528088,-1050.186184,101.9831475,,,,
540.9359996,2113,-155.1203075,-413.5496716,-322.5747451,-228.9709558,125.7335596,-236.0268648,1325.18731,402.5236299,-5.491102715,-459.2253403,-211.1991382,-311.3618906,0,-820.8195134,336.7219137,-856.4812356,,,,
540.9439996,2113,224.7046829,246.4217737,-191.2748673,345.9024545,-502.7899351,-9.873233926,-922.4515959,-145.0424435,-336.4108291,4.745900599,-345.211958,-162.769124,0,390.141517,164.5098452,743.3981958,,,,
540.9519996,2113,-40.37725021,-428.9196563,-3.721232621,-868.6383968,180.5989928,-264.9994841,214.0993905,-577.1016728,-360.7751369,-94.84835203,72.34140385,-23.60481079,0,-316.742299,-972.7320046,-862.9047148,,,,
540.9599996,2113,6.834643911,32.7637091,-428.5065517,516.131147,-289.1175414,-62.01081167,621.7168911,639.0234888,1.0904267,-379.9251713,-463.2888429,-373.3459535,0,-379.6652869,998.5823026,126.9617207,,,,
540.9679996,2113,233.9841189,42.71903801,123.9810673,-451.231407,-212.979402,-74.98315614,-1250.912249,-935.6287231,-529.4127147,218.6206201,32.02416646,108.9150056,0,434.674095,-1060.250351,142.3802307,,,,
540.9759996,2113,-160.8285614,-386.5337466,-290.2681758,-232.5585397,142.0399531,-214.9680962,1285.859348,348.2557297,8.217425927,-428.1344453,-187.4272104,-271.4955391,0,-803.9759852,298.8650757,-866.4922731,,,,
540.9839996,2113,235.2262877,299.9082771,-150.1130503,392.2488022,-495.3096988,28.79875356,-948.7856023,-148.1504209,-294.2859327,37.54023428,-319.7424764,-119.3711125,0,415.9737866,196.373079,761.224146,,,,
540.9919996,2113,-30.2126295,-394.6378546,47.05045206,-853.9425704,191.3404104,-242.2666561,133.0765764,-610.9661578,-335.2686065,-36.60276736,122.6613099,31.62864811,0,-266.1712236,-1010.745865,-835.5542985,,,,
540.9999996,2113,-25.47575871,28.67544785,-412.6113923,514.1367142,-275.0474103,-62.63587217,637.3743347,662.016409,28.77731797,-361.6218717,-436.82121,-351.7407895,0,-372.6141588,1017.795896,117.6626414,,,,
541.0079996,2113,214.008847,56.55759174,133.5633443,-436.4899256,-224.706554,-65.24921431,-1304.426701,-913.0521258,-524.3273311,237.1696587,39.44432682,132.021091,0,478.2341798,-1034.713229,189.7326758,,,,
541.0159996,2113,-186.8231234,-406.2303713,-283.0173733,-266.3049322,155.7297753,-215.0042731,1264.563242,348.3250828,2.511369829,-411.3457787,-162.3030293,-241.4001146,0,-797.8095532,275.0782134,-877.0579477,,,,
541.0239996,2113,207.080618,302.2550622,-162.0079075,398.7002905,-495.4461891,39.76681287,-939.0429013,-95.00982565,-296.0642827,32.15007683,-312.4057904,-103.503891,0,393.8328058,246.9963966,771.7195751,,,,
541.0319996,2113,-16.065846,-363.1921564,73.84813763,-861.7661638,202.3066552,-207.5893758,50.0717968,-623.9001392,-356.1847494,-3.87690578,159.9917271,93.85390091,0,-227.5878298,-1053.256405,-819.7217731,,,,
541.0399996,2113,-11.01569795,34.0191415,-393.5457291,519.9086877,-235.6475781,-25.14019066,659.0539669,699.3693426,39.22826311,-336.0682149,-391.4848252,-288.7991256,0,-359.9131899,1004.152017,80.80998012,,,,
541.0479996,2113,243.1189331,89.54049264,143.5723184,-390.0576249,-221.9971651,-35.22822908,-1342.955907,-868.7843995,-527.5583188,263.5462255,59.25738543,171.4311377,0,521.9010555,-1026.860518,233.978465,,,,
541.0559996,2113,-143.2813231,-389.8040141,-254.3575792,-271.1615919,173.2742172,-201.8960662,1230.532096,340.286026,-5.352399864,-384.0902555,-128.5369326,-196.9164807,0,-770.1802128,224.8597541,-884.4933228,,,,
541.0639996,2113,250.9534624,310.6882545,-150.9566648,441.8110555,-491.1275683,55.10771138,-929.3585933,-49.34262896,-276.6820287,39.09900464,-301.7566474,-78.8906011,0,409.0560782,279.5608625,784.6444405,,,,
541.0719996,2113,16.50382167,-364.7163565,80.59238982,-846.8480669,194.3906642,-217.0555267,-8.89982694,-642.1658644,-366.8841288,12.41096224,155.3320843,104.3837763,0,-172.8468385,-1079.615257,-774.3880655,,,,
541.0799996,2113,-10.45742391,2.049043206,-415.3610289,499.5658821,-234.6701603,-60.22538694,703.215742,694.2447763,39.55668857,-355.6870815,-418.3245036,-309.3740157,0,-378.4689253,1022.427751,62.09314956,,,,
541.0879996,2113,265.6087049,107.1407163,143.2542432,-380.7976523,-241.4441848,-36.22859325,-1381.336113,-887.5997314,-525.0401749,260.21042,36.57737074,163.9676986,0,532.5784752,-995.6269007,259.5279088,,,,
541.0959996,2113,-124.6457158,-370.5624179,-215.99557,-296.3882641,196.5840165,-183.8186432,1196.756497,285.4038685,7.493246883,-354.5828667,-98.5671164,-166.3334126,0,-745.7987259,181.760304,-929.6552723,,,,
541.1039996,2113,248.5788343,320.375407,-145.5541112,466.1912206,-475.3420605,67.93391949,-891.7952403,-26.6762083,-240.6959613,47.58855506,-289.4346419,-68.04119641,0,401.4596178,328.3243714,752.3288436,,,,
541.1119996,2113,25.98562334,-354.0873421,99.26242869,-845.875477,202.3108345,-211.434904,-50.96326185,-667.6966622,-363.3871781,26.63624781,163.7981711,116.1850258,0,-155.2060689,-1093.581742,-771.7348189,,,,
541.1199996,2113,-7.008810818,4.216345333,-389.1067282,495.4874141,-200.5786011,-49.11511258,751.7430274,710.7114848,61.3264212,-355.0081127,-403.2262396,-301.7559403,0,-394.4070411,1028.105706,16.94574364,,,,
541.1279996,2113,285.9822249,131.742682,158.7517692,-332.1353143,-237.5522288,-23.81911676,-1383.746539,-841.5766242,-500.3449961,277.515238,45.80021168,172.9748068,0,566.7028146,-961.4842654,302.2777643,,,,
541.1359996,2113,-105.6809162,-374.6799074,-203.566693,-301.9298374,217.9801506,-193.3599752,1206.416506,305.2935989,20.12678765,-341.6926872,-83.78925741,-158.5526165,0,-727.1823021,165.521182,-912.5490564,,,,
541.1439996,2113,276.9066323,347.90456,-138.1188429,502.9861745,-460.967806,87.34458633,-837.7247438,62.95361743,-208.3310084,43.02349221,-288.7150066,-71.40019245,0,393.3485285,398.8325697,789.5046363,,,,
541.1519996,2113,74.12802051,-304.4365956,130.7851123,-814.1100827,207.4747496,-173.0975006,-87.33817057,-622.5329608,-343.1714158,65.69385585,199.78823,150.5380779,0,-103.5519645,-1091.785735,-702.7080625,,,,
541.1599996,2113,6.395280041,4.731046977,-387.3442179,504.2613868,-182.3236349,-34.47815559,810.1382678,775.5717049,92.50248422,-342.6769837,-366.7310016,-277.0878205,0,-401.6779012,1050.134138,17.66988216,,,,
541.1679996,2113,306.2800722,154.4582658,147.4633507,-293.4828408,-246.61179,-7.094535086,-1385.256084,-797.0879486,-489.8322682,276.4502641,53.20460158,184.8851264,0,576.204978,-913.3045648,346.3044145,,,,
541.1759996,2113,-193.3563502,-437.4386378,-394.6132459,-52.06353094,276.8302677,-203.4546795,2053.210027,820.0905218,228.9600156,-570.3184632,-210.1863267,-306.8031611,0,-1089.766569,834.9593499,-1099.106871,,,,
541.1839996,2114,258.728986,441.8461638,-354.4295443,989.5630392,-582.3264914,132.1642556,-387.7209473,559.3090032,-27.07324595,-129.7362979,-497.1558885,-237.8880812,0,244.9068062,1213.436772,990.0456884,,,,
541.1919996,2114,422.7255283,-92.61050767,669.4570014,-1558.400803,69.40707788,-126.2247807,-2552.411674,-2311.140826,-968.8472156,735.7333805,611.7978531,628.9252863,0,996.9393926,-3134.976463,-209.4562572,,,,
541.1999996,2114,128.9423125,-256.1596574,173.3256816,-857.536012,172.8787373,-161.1406989,-403.2146702,-850.874401,-403.5988827,127.8041986,232.7935876,194.2974357,0,14.78881784,-1299.030687,-628.3302672,,,,
541.2079996,2114,200.7034069,92.8938131,-47.1847653,-4.417008362,-180.0784889,-10.13814129,-469.837451,-221.9393121,-232.6087233,29.14867023,-97.80523545,3.827419779,0,153.1191904,-164.4687681,152.8678833,,,,
541.2159996,2114,5.914600391,-168.7171009,-195.7572081,-58.4356888,73.78744438,-94.67425738,774.1024028,302.3692449,9.623259718,-261.4600133,-135.4303399,-143.9417456,0,-483.7664919,293.2827471,-500.1932403,,,,
541.2239996,2114,254.6990104,234.7939238,-61.68298341,223.9627699,-297.6686917,54.92327844,-718.0900287,-91.20665174,-209.9456919,73.67644453,-152.8414253,0.926595843,0,320.608932,49.77827064,475.3406875,,,,
541.2319996,2114,93.60709046,-192.0643434,55.30813486,-517.2720086,148.0950773,-112.209843,58.89852259,-319.645,-222.4348108,13.39629889,107.4462174,87.54000643,0,-118.0184145,-663.6673854,-523.6095486,,,,
541.2399996,2114,89.92521406,91.56185029,-257.0502722,444.3623614,-123.6116058,36.97990474,594.2165322,653.4816432,95.21147841,-227.840309,-268.8737873,-180.6364418,0,-269.4046487,838.2242645,38.86617745,,,,
541.2479996,2114,333.5666347,206.7165724,204.8487477,-208.0926791,-148.8915754,70.42070637,-1191.124847,-640.362958,-351.8892889,315.4147295,119.9915452,231.30991,0,549.5216095,-795.6621312,288.4548224,,,,
541.2559996,2114,-11.19175933,-221.4941245,-116.7382009,-163.5404083,230.5875741,-75.45631118,1023.403276,315.9356471,92.21408449,-235.1619527,-26.42817908,-84.84906723,0,-563.0507324,215.2462405,-739.1945373,,,,
541.2639996,2114,307.0577441,398.6572389,-42.45604099,523.2285525,-343.0985328,179.3705412,-742.1613025,87.24940064,-92.12211749,97.13765989,-193.2728064,0.050051171,0,386.6057838,417.5342463,705.2046009,,,,
541.2719996,2114,132.9970466,-162.2744771,214.989975,-620.3560026,240.9729297,-50.84683632,-201.616187,-575.5144406,-229.2571889,167.7574195,258.2854933,233.0543418,0,34.55281761,-968.0737601,-543.6843506,,,,
541.2799996,2114,30.72882527,63.17521405,-280.4304564,517.6777264,-53.92363912,45.59115518,807.829564,756.2278668,182.1563997,-254.1360927,-274.0674739,-200.5464295,0,-336.9148594,1000.756498,-12.77529298,,,,
541.2879996,2114,333.8759075,268.6123918,207.4101926,-126.0855669,-175.5075091,99.25725092,-1370.630432,-651.2286883,-356.318772,351.6458312,103.7937211,232.4700347,0,639.0622475,-772.0620597,445.3192831,,,,
541.2959996,2114,-56.80010674,-272.4676095,-101.3756427,-242.2463926,306.0267194,-93.93757387,1069.06124,304.55809,95.8840178,-204.2173832,27.7389004,-51.55668051,0,-578.5665072,84.08100128,-838.0081074,,,,
541.3039996,2114,275.0150984,418.5699813,-99.45860961,629.9670995,-367.5700881,180.2639922,-684.2046784,260.1734208,-65.73123887,81.69098376,-247.6040705,-45.35911816,0,386.198658,566.7773911,786.1664298,,,,
541.3119996,2114,150.6493517,-132.9709521,244.8373326,-652.8660072,245.6000818,-43.25250138,-299.0748566,-586.0856757,-254.7082682,214.7933647,281.2316616,254.5123256,0,92.88483208,-1067.220136,-504.6376484,,,,
541.3199996,2114,40.29940095,81.17921819,-257.9952689,545.8894406,-19.3648632,67.58928062,923.2200616,843.7374031,230.8991327,-228.48922,-241.9519274,-171.6404002,0,-347.9775114,1055.744542,-33.44421067,,,,
541.3279996,2114,379.0777732,341.7174026,256.4464141,-55.36480662,-183.836683,145.6637597,-1434.553026,-633.1507235,-333.3531261,409.7528163,117.2397042,265.5098494,0,707.3729224,-722.5284576,556.2884054,,,,
541.3359996,2114,-32.09668847,-247.5472591,-30.32008696,-263.3293889,361.7666998,-65.36206754,1079.82369,256.0919462,124.0788848,-150.7546392,78.39627925,-3.218811204,0,-562.9498438,45.02404766,-844.6447475,,,,
541.3439996,2114,298.3463028,464.3828747,-60.32328469,704.2828536,-333.7177197,223.9881688,-645.5945144,302.0633788,-1.456456937,114.1709796,-222.4369736,-12.40316502,0,394.629804,663.1573135,833.7182445,,,,
541.3519996,2114,199.2217723,-84.68281677,304.0910029,-642.5900384,287.7117222,-6.188742401,-378.3774181,-620.7374399,-234.7775222,266.9962548,312.5212254,291.8453854,0,140.9137453,-1102.216482,-465.1337427,,,,
541.3599996,2114,64.43546138,95.3681651,-241.7026129,555.0248706,32.23008035,86.69055043,971.3749458,895.651233,274.9661055,-209.5523531,-229.6389718,-160.4322514,0,-347.1687915,1074.144773,-57.01569761,,,,
541.3679996,2114,415.3551805,377.9847065,264.7103648,-3.697937815,-170.1519564,175.6872364,-1461.457913,-553.8951822,-291.2851509,439.9444863,127.7368756,286.3066534,0,750.9300774,-697.7821646,609.1061488,,,,
541.3759996,2114,3.882321721,-218.267468,2.978279462,-268.7273297,400.1974641,-39.26111662,1058.394984,292.4600872,153.39398,-116.0767781,110.3894263,25.76256438,0,-529.3124572,2.225140939,-836.5856625,,,,
541.3839996,2114,310.4652319,493.1154636,-60.73595879,746.8817683,-329.1497138,235.6036908,-608.4745181,394.1021472,47.24633692,125.8211082,-218.5066827,-6.74854888,0,409.6002495,723.8078444,868.1336263,,,,
541.3919996,2114,199.5666357,-72.2300043,309.0426773,-624.6638702,265.8033077,-15.72401788,-430.7477508,-613.240216,-216.7229165,292.2799174,315.1977555,304.5508767,0,179.2536582,-1113.703141,-399.807804,,,,
541.3999996,2114,29.06301918,78.19970232,-237.1178921,542.6051318,33.28830588,75.13761318,1011.187826,903.5364687,295.1797785,-220.7591531,-239.3321873,-175.0528676,0,-379.2613364,1091.326689,-57.2487088,,,,
541.4079996,2114,392.704999,393.6171514,268.7564119,23.45590922,-190.8629232,177.9045643,-1469.966717,-548.2127377,-275.5636489,431.7743316,111.4814096,270.7788987,0,748.335369,-648.5284286,654.210657,,,,
541.4159996,2114,-15.55503608,-222.5496325,10.01807089,-289.8792004,404.115699,-51.9354887,1046.536865,233.7224312,158.696552,-107.5535725,116.3497208,29.8034018,0,-529.4375801,-22.69553309,-848.0161799,,,,
541.4239996,2114,286.0803891,500.613086,-71.04989835,756.6107469,-323.3262694,239.6604602,-555.7733091,391.8660405,73.22526558,116.1553323,-225.8502952,-16.81830185,0,376.5589101,778.8787049,847.8097174,,,,
541.4319996,2114,212.9256037,-22.28655879,334.1344455,-613.4332771,275.1153882,7.821531173,-471.5034047,-666.0871222,-199.1499616,324.7470148,344.4518606,329.0603161,0,219.0758327,-1127.650887,-388.7220098,,,,
541.4399996,2115,49.16764122,127.487967,-198.1576871,546.5361519,82.45277572,113.4656049,1056.382915,873.4814973,346.6725523,-178.5722314,-183.247987,-135.0303091,0,-355.7871356,1088.221056,-100.2960139,,,,
541.4479996,2115,424.042506,469.1732408,305.8595953,84.73036167,-165.7913759,242.4835212,-1469.705729,-531.745983,-210.8576328,495.8160022,160.6935588,320.6316703,0,807.5756829,-611.1162497,696.9189624,,,,
541.4559996,2115,-7.213211629,-200.3093237,40.14146994,-275.2143814,438.9106682,-27.89421264,1050.612508,238.3162997,203.1901658,-49.56991762,163.5488739,70.55400823,0,-470.4493035,-60.04397215,-822.8670468,,,,
541.4639996,2115,282.2324101,517.5191911,-61.76561451,798.853309,-295.7279391,262.1177841,-465.99215,500.6594284,123.5487482,117.4697673,-226.9931145,-27.53974696,0,368.1264962,841.8593231,881.0680421,,,,
541.4719996,2115,230.1424569,18.94064328,365.0910174,-576.5625908,283.7784037,46.46844528,-484.359729,-580.453593,-174.6668581,359.7603246,356.1893413,346.6170364,0,249.6035009,-1111.31527,-306.4922969,,,,
541.4799996,2115,19.3563231,101.4730174,-199.5614279,542.4160651,101.020551,101.258086,1147.468158,979.0301296,371.8133036,-167.5368247,-173.125174,-127.9939235,0,-371.1320876,1108.848486,-95.75897033,,,,
541.4879996,2115,400.9232248,473.7696825,296.2383462,113.2591136,-187.5433342,226.7583146,-1413.657416,-429.7051555,-203.2390962,473.2393917,130.8741074,290.6880648,0,798.4442046,-528.8146294,755.9859691,,,,
541.4959996,2115,-5.841369546,-173.6483941,76.43843061,-297.1706515,436.0007296,-15.91949332,1056.65487,218.6247658,204.167725,-43.44802003,174.8108175,76.03906266,0,-453.9383553,-55.98607999,-810.5609801,,,,
541.5039996,2115,268.6261615,532.9097931,-44.89619843,814.7672035,-291.8379567,284.6413393,-387.4173713,497.3417552,170.4754122,124.4986434,-204.821813,-10.6127157,0,366.8603982,920.6929619,868.5379796,,,,
541.5119996,2115,231.1809163,49.15925382,385.7792121,-552.5683216,277.8014797,63.09802221,-513.351266,-652.7271549,-154.3724983,378.4891564,364.7257051,359.8751559,0,292.8723087,-1080.057721,-264.9971331,,,,
541.5199996,2115,3.725680537,104.935439,-183.2576371,533.9234037,129.4234715,111.5905305,1195.564939,923.3852569,393.1375721,-171.642819,-174.6723524,-131.1218383,0,-375.00985,1132.190061,-118.410224,,,,
541.5279996,2115,396.4941631,501.8807458,310.9573348,153.5302094,-176.0819282,258.751707,-1397.450082,-413.5454715,-168.6515044,476.5718628,127.9366248,295.7826425,0,804.4042126,-464.4214956,797.8138808,,,,
541.5359996,2115,-5.188304804,-153.2864999,107.547405,-296.0023606,470.5247827,5.337093479,1036.077841,224.9756003,220.5144037,-26.76045535,193.912554,94.84729582,0,-438.1557674,-85.31342861,-790.4907047,,,,
541.5439996,2115,243.9890026,541.4350128,-47.0857816,845.5231625,-262.2377047,286.5623352,-313.5380847,612.5262562,202.0668932,105.35819,-215.0052701,-27.58020449,0,358.5039378,972.0563685,884.8876854,,,,
541.5519996,2115,230.7553185,91.00295105,409.7017677,-525.9470884,285.8253181,73.30469511,-539.0526334,-572.247957,-135.1232929,383.4847082,369.5941037,365.9245674,0,340.5832974,-1065.390922,-191.7960317,,,,
541.5599996,2115,6.040833832,143.0673409,-144.1369118,530.9776707,174.2868977,126.5329306,1240.232058,988.9452606,435.536317,-161.7876154,-136.7111763,-95.96866645,0,-362.2533304,1134.456157,-120.2451534,,,,
541.5679996,2115,414.9999196,572.8694861,338.4414388,204.7857165,-151.7582475,277.254476,-1373.978159,-342.8119702,-110.7327724,501.3708635,160.9488222,336.5750925,0,845.6702655,-398.5321164,853.2381647,,,,
541.5759996,2115,15.88582697,-102.5273029,147.9230114,-296.0718965,512.7471947,11.21751389,1021.941195,192.9830163,265.2329617,27.24228077,250.9300153,152.6306094,0,-381.1986712,-91.62477496,-775.4671759,,,,
541.5839996,2115,255.0081388,591.1281016,-20.26545401,873.6110079,-206.4444359,312.3662607,-248.3069846,607.9651368,269.4021482,140.3713383,-176.0960026,14.313684,0,355.8001928,1046.97433,867.855255,,,,
541.5919996,2115,279.3221372,183.8390546,468.8937567,-476.3034512,338.285403,132.0677294,-571.200611,-630.5921287,-76.28414149,453.4831209,419.7204199,431.4640844,0,388.685913,-1026.931775,-153.8504207,,,,
541.5999996,2115,30.99146723,185.5212159,-95.37885822,561.1503398,260.726414,174.8607903,1308.53234,951.9839453,507.9616743,-92.66216235,-79.10478467,-35.74117984,0,-319.4126763,1162.878954,-143.3412581,,,,
541.6079996,2115,429.3689724,625.1077886,363.2866706,283.4376849,-95.26172014,334.5921481,-1304.891057,-305.811088,-44.36276813,551.1310085,173.2396739,362.8558048,0,901.865007,-295.5829513,913.8845251,,,,
541.6159996,2115,70.52090662,-14.3978572,225.4029053,-255.2581954,586.7138568,96.54193156,1041.91406,209.7852389,319.5969557,101.8564158,295.2287089,212.3179178,0,-301.540368,-73.05572653,-717.6279648,,,,
541.6239996,2115,319.3771443,685.896629,57.23179197,959.7199052,-123.1288047,411.578806,-133.8993315,746.4050649,370.7689042,218.6581293,-107.0244454,89.90519104,0,431.1832322,1133.702225,922.623059,,,,
541.6319996,2115,355.8079335,293.6812663,560.3185453,-379.648635,402.2081777,225.2919029,-544.8504973,-490.326183,18.73004083,552.3673377,509.0656264,524.6161523,0,502.3185426,-963.7115507,-27.41465955,,,,
541.6399996,2115,120.3690791,300.5361968,25.84773661,623.2856421,361.1774629,271.3029394,1391.83212,1084.091123,621.1426169,1.282137239,37.96407782,72.86845798,0,-252.9629763,1211.937913,-94.11293352,,,,
541.6479996,2115,525.3649388,756.9871161,471.3269603,400.5465111,-19.35017465,437.0416057,-1233.332169,-158.8341056,88.92621166,650.1386218,283.3305457,473.617949,0,996.0990386,-181.7243991,1017.427353,,,,
541.6559996,2115,145.6923071,78.28381706,332.4575736,-185.0945831,668.1762203,170.1654392,1078.790019,251.1146727,428.4365352,202.3443318,415.0112025,325.5833948,0,-196.4030105,-40.38574821,-637.2654283,,,,
541.6639996,2115,372.5007457,760.1710598,142.0604575,1045.517817,-39.60889738,475.1287648,-9.1893773,799.5434317,492.8135372,277.6843935,-19.52278037,166.0606692,0,483.0987557,1243.418077,970.7331846,,,,
541.6719996,2115,404.0366259,364.904809,633.2665776,-302.8678953,447.6600823,284.6826198,-521.1195994,-495.4241746,102.8723458,608.2705054,565.9463397,580.2322916,0,581.1860401,-875.1588155,82.04350626,,,,
541.6799996,2115,140.8754152,327.3984752,83.58930831,656.2365022,422.0225544,320.6142309,1473.117388,1079.672809,682.6738727,27.26759515,80.99797324,107.46487,0,-225.4691532,1267.68669,-58.43364883,,,,
541.6879996,2115,561.7587287,808.3934061,524.5277708,487.9096707,23.0186652,506.4499202,-1174.718829,-88.50323467,158.2327842,679.9091081,319.203695,508.8176734,0,1049.838848,-80.24424041,1098.296584,,,,
541.6959996,2116,195.9244978,123.7232261,398.6461463,-147.4308474,715.5831981,230.2799037,1069.919984,298.6619842,474.9467907,251.4075012,480.0420449,380.488121,0,-126.0041207,-42.4916655,-580.8142673,,,,
541.7039996,2116,405.3854525,791.9238324,164.7012774,1091.854428,-3.322040644,512.3521002,63.08904679,924.3380495,549.9292673,288.4289124,23.43466101,192.6057298,0,488.4052232,1298.444798,990.0468236,,,,
541.7119996,2116,456.9873004,427.3210251,660.4194384,-251.6041797,456.8218927,319.2963822,-555.2889086,-413.6950036,150.0795442,648.6396875,617.7788824,624.7431661,0,638.2713715,-852.3385878,149.9989597,,,,
541.7199996,2116,178.1565175,369.6863102,111.0726039,672.0485056,459.1673318,342.0793491,1490.067354,1113.240468,730.7371936,67.01681642,142.8112092,153.6378313,0,-193.4908126,1259.29474,-63.6441541,,,,
541.7279996,2116,589.2031145,869.282254,527.7251711,538.6627505,34.67125695,532.8691098,-1158.89308,-66.17286393,208.49721,708.9343404,344.6069878,536.1005473,0,1071.564725,-9.849889178,1141.211202,,,,
541.7359996,2116,232.3750313,182.2822521,428.5621772,-145.7779157,746.553849,263.0148514,1030.733006,214.5615838,505.4896524,305.1141261,527.1398439,434.7206199,0,-87.07227887,-54.84370363,-561.3493254,,,,
541.7439996,2116,430.6459063,834.787244,186.3527945,1125.342544,51.2008648,558.1989496,106.2456131,877.8348012,600.8839765,316.6605793,59.74237584,229.5375496,0,511.1499411,1345.681919,975.2543204,,,,
541.7519996,2116,488.5202481,473.5283265,685.5195297,-217.0125059,488.2142328,371.0049363,-611.9549469,-469.4656118,186.7783245,684.5505661,648.5890122,655.3192301,0,702.8590199,-835.6105194,191.3531135,,,,
541.7599996,2116,186.2997399,366.0299692,130.3040171,653.4003633,507.890039,365.3565251,1487.590071,1091.817641,758.0100855,74.9416891,175.7815984,164.5917031,0,-200.4409006,1225.616307,-93.11375957,,,,
541.7679996,2116,591.1342341,878.4487845,533.5160683,564.9494881,48.05850061,555.7252437,-1171.004673,2.881291674,236.1366357,696.8025818,354.2506157,527.1546019,0,1065.737375,18.33185019,1163.098412,,,,
541.7759996,2116,229.666547,174.1036095,446.2312171,-160.2572935,741.344924,261.4230544,954.8388972,261.610043,509.0969971,315.0449541,557.8298447,448.4292521,0,-47.15714004,-117.2646751,-537.4605847,,,,
541.7839996,2116,397.6694099,797.1880313,172.2315368,1123.77021,33.54637722,530.8837766,125.1225988,981.9368958,610.9527707,287.6688953,60.076927,211.5577454,0,490.9665771,1357.183162,987.1721686,,,,
541.7919996,2116,475.8784283,485.5455058,694.9099875,-218.4445759,446.2853202,373.558377,-696.148336,-424.5676939,179.4230645,666.3766865,649.1277403,653.5610685,0,704.6984017,-819.8896216,262.1933961,,,,
541.7999996,2116,194.4732474,388.0295647,172.7256663,628.3512101,507.3984341,385.025904,1432.944382,1083.169272,768.224168,87.05085437,227.9668061,218.1600359,0,-194.0346175,1187.380065,-110.0296766,,,,
541.8079996,2116,600.8562162,900.497437,550.8526865,597.1786175,44.96449883,575.6194309,-1218.718392,7.847590283,264.5043628,713.2859586,394.7776373,577.0082113,0,1094.918603,40.91892669,1179.44668,,,,
541.8159996,2116,232.3278577,172.3790381,467.6057863,-177.7804171,758.2128225,274.6799687,861.8549718,194.7132819,506.5454521,316.8334017,599.0867628,488.5022275,0,-29.44442432,-178.7649549,-541.4384872,,,,
541.8239996,2116,406.1324622,812.0401933,193.8808457,1136.885578,73.59895715,555.6579235,113.3912189,961.9521728,633.1171431,269.7187652,99.58680551,248.0119767,0,470.4371565,1326.635125,930.2683247,,,,
541.8319996,2116,494.7427191,517.3802606,714.5179732,-184.7000802,461.9290604,384.7628248,-790.6888046,-458.6225267,197.7952327,681.9752099,693.3207466,702.7133508,0,753.4856715,-869.9920748,265.9447137,,,,
541.8399996,2116,169.718617,348.5779804,160.6283374,607.6895012,531.0828647,340.0076994,1419.324102,1046.717579,770.8679039,65.62874776,255.7110531,230.6565388,0,-202.4069102,1114.294887,-155.8348974,,,,
541.8479996,2116,572.3468893,892.5264157,519.6766558,607.1268584,32.32783561,537.235122,-1223.907471,3.504801768,266.4811983,672.0364034,376.6269211,554.3154383,0,1066.15409,48.98100415,1182.704494,,,,
541.8559996,2116,219.6434532,185.0758594,465.1668053,-213.7614256,742.2187997,244.3037497,791.9613264,122.1619957,494.9913622,326.5928608,604.5154613,500.1984405,0,-19.04171981,-248.2258001,-543.8444845,,,,
541.8639996,2116,446.3822208,1135.687771,-27.14891022,1914.001899,-327.4218703,664.6154691,-162.4778386,1459.059436,735.6682967,217.7047631,-218.3214734,83.73264309,0,692.4589015,2278.11309,1725.408571,,,,
541.8719996,2116,742.9552261,1288.754357,501.4510953,1134.243708,-404.6320939,689.0353553,-2322.974746,-14.65100541,163.9797688,822.9334693,199.3353984,540.0455473,0,1635.337945,333.4810034,2159.077397,,,,
541.8799996,2116,243.6453553,338.0990545,382.5109113,133.5182874,550.5902686,307.051074,607.891327,330.5213999,529.7255216,296.4088862,455.0433133,418.9802178,0,92.98113602,177.8488305,-162.4650881,,,,
541.8879996,2116,333.2668219,482.5853135,436.6111997,240.2407083,414.2654057,367.5392255,99.1192681,219.8213187,457.1179434,400.4574185,440.1462499,464.0764848,0,346.7651974,127.1181432,181.3071944,,,,
541.8959996,2116,335.2625485,561.0926533,358.5868264,511.8693208,330.3952573,414.5288611,184.9157977,479.607705,521.2297195,361.4005135,335.0765091,403.8670671,0,357.757959,500.5435701,365.58603,,,,
541.9039996,2116,395.9021392,611.1994719,454.6780827,411.1278808,310.2323854,437.7389004,-229.7410635,253.7574225,423.2220088,474.9873796,394.1430885,476.7406763,0,558.2878921,186.0799937,488.9942832,,,,
541.9119996,2116,304.1307879,379.6309756,488.6975694,53.38586344,570.2864636,345.2373546,296.2428134,197.754671,467.6075624,399.1765202,520.0423099,495.4035487,0,244.8586196,-78.42618341,-103.8440568,,,,
541.9199996,2116,362.5337724,695.4633763,273.9294441,866.1867578,218.0757191,490.6658983,135.0528945,807.9914631,611.3946435,315.3882931,216.3805115,325.9962788,0,407.1802578,950.8902462,635.6760915,,,,
541.9279996,2116,429.1757443,507.6514834,635.530103,-38.51184112,462.9500268,382.4478833,-579.5362517,-188.6798101,293.6665718,607.3072564,607.6566626,630.3137297,0,638.7215168,-565.7842426,240.0188158,,,,
