Time:125Hz,Epoch,FP1,FP2,C3,C4,P7,P8,O1,O2,F7,F8,F3,F4,T7,T8,P3,P4,Event Id,,,
460.1919997,1797,237.9927262,158.9689745,228.2798879,-300.870257,-59.36498616,60.76378681,-1065.002388,-738.1820293,-156.528549,184.3935509,152.7975055,142.9786068,0,261.8583741,-577.7392206,186.2368434,1111,,,
460.1999997,1797,-161.5328743,-183.1368002,-105.5915599,88.84657162,197.0234901,-26.99354158,828.783238,438.3074498,124.4865171,-93.58263471,16.39144379,-38.38275492,0,-278.2876301,108.9266396,-509.715171,,,,
460.2079997,1797,155.3387408,250.2698398,21.69716617,168.7930658,-220.6751089,99.43651735,-624.4161648,1.720612786,-20.24819971,68.64651522,-117.8945661,-43.31802628,0,341.7793219,290.1617799,853.8709489,,,,
460.2159997,1797,80.98468014,-54.43170016,185.1501362,-353.9575006,228.4204143,21.22181226,-208.1454089,-471.3648442,-65.81656452,130.3500676,283.5546574,217.1713799,0,-84.62815414,-729.989585,-641.1930741,,,,
460.2239997,1797,-95.01524378,33.0206223,-180.1683121,433.6978228,-48.30117123,42.20701928,579.8467787,734.1754005,171.3584544,-91.96804338,-179.4044829,-135.1760186,0,15.39629467,714.1254313,398.0459848,,,,
460.2319997,1797,251.7312486,178.6207889,234.0713348,-277.3527183,-57.59165168,59.27412192,-1115.515044,-758.8831567,-156.1571575,213.9737965,183.2489365,193.9720148,0,320.4503344,-585.8110303,232.7589757,,,,
460.2399997,1797,-154.6492374,-175.910252,-97.91618325,90.2614716,211.5890089,-26.22677054,835.9055213,398.1130896,121.7613465,-83.90504522,27.98548463,-8.523152611,0,-278.2784037,97.59835458,-532.2418049,,,,
460.2479997,1797,134.4819479,231.6155539,7.158850305,199.0445207,-230.8786564,78.14579556,-586.5415992,-9.822482087,-14.26809684,68.29397738,-128.7383573,-34.47804558,0,352.8334702,332.6732666,872.2244094,,,,
460.2559997,1797,36.81211035,-103.7742401,148.0752819,-359.8986213,190.9320154,-31.17939426,-219.5060855,-523.4178795,-92.58574305,114.1550655,245.8731735,197.1288265,0,-75.21538068,-717.747191,-608.2084156,,,,
460.2639997,1797,-149.1427884,-16.9107553,-230.4906843,418.8419306,-80.38007059,2.591713433,647.1604969,748.9229493,137.6955259,-144.5594744,-253.5086183,-192.569912,0,-52.07236085,753.3061098,385.9634303,,,,
460.2719997,1797,223.9843751,161.2696595,214.4790127,-286.2294613,-99.82046504,41.7309405,-1116.434597,-734.1480744,-178.1101218,186.6579784,133.5772337,163.1507869,0,289.3772413,-552.0581932,261.8901926,,,,
460.2799997,1797,-186.5071832,-205.3106469,-107.9932284,70.34115365,188.7433473,-51.20031418,855.2581254,444.2689287,106.3502557,-109.9098529,3.329242532,-24.07036254,0,-306.6314844,102.9240899,-554.4525201,,,,
460.2879997,1798,117.674687,222.7292553,-6.98346562,196.4166909,-250.1860338,68.38797535,-551.4798806,80.48723219,-24.37190889,31.01857134,-161.1152233,-55.88470199,0,321.4635518,369.4535858,869.498848,,,,
460.2959997,1798,53.47046976,-88.86151458,163.6277881,-370.4689048,187.3787769,-17.90724082,-245.7403057,-492.8221372,-89.92424734,118.8065217,261.8179345,219.6276464,0,-68.35951545,-734.7970397,-618.9718271,,,,
460.3039997,1798,-138.6039854,-10.39037796,-217.6513216,420.6139513,-56.08523208,16.5384585,679.3852398,776.875337,156.7688356,-139.0229938,-230.9361094,-171.7973456,0,-57.41447109,747.9680683,343.8294623,,,,
460.3119997,1798,255.0972667,193.0512871,229.7423198,-275.7484734,-79.62432033,67.37802663,-1136.686321,-754.2086753,-160.5270809,194.7847449,148.1106542,180.8196508,0,304.3928112,-546.7724697,273.9309375,,,,
460.3199997,1798,-169.2720359,-200.0015816,-99.50940493,72.48941492,217.865385,-35.78828776,839.5356564,374.6301713,124.2439332,-86.65658093,37.72549799,6.699609849,0,-286.1302474,57.99383372,-582.2213467,,,,
460.3279997,1798,100.2565929,202.3758137,-32.80296393,213.878735,-237.9859035,58.89457171,-514.8689038,43.47789895,-17.38747665,24.40492448,-177.6057647,-73.65308061,0,311.694792,376.9052839,871.9880447,,,,
460.3359997,1798,54.15661983,-86.78471674,157.3420266,-378.4046033,188.9416568,-25.97129898,-268.9981162,-561.8720121,-102.4902117,113.5689196,239.251407,206.4223916,0,-72.33799547,-751.6542948,-606.1028136,,,,
460.3439997,1798,-164.6851874,-36.92232828,-236.0794062,417.7139989,-57.11535607,-9.189085349,717.6130441,768.290757,145.6534468,-144.8781287,-246.8045956,-177.3063556,0,-59.22471084,733.0156992,319.4514074,,,,
460.3519997,1798,215.3818601,158.3338337,196.2708256,-283.368023,-114.7603138,27.66732382,-1114.209251,-726.1437503,-187.793937,168.7884108,100.4932243,139.9091213,0,287.5164983,-525.3516996,299.6517887,,,,
460.3599997,1798,-193.4488816,-223.9681289,-109.7481726,36.95009916,192.8988941,-66.50681629,843.0102598,387.075064,98.86388659,-108.4071472,14.06134841,-22.77196138,0,-326.0822836,45.98951427,-604.8714199,,,,
460.3679997,1798,68.0578471,176.7862991,-47.70520067,206.771707,-256.0303939,34.1140021,-476.0733141,101.1430161,-26.52398384,2.105147174,-200.1675615,-102.6816865,0,291.0099496,402.3406186,858.0002227,,,,
460.3759997,1798,38.28194374,-100.5010903,158.4654577,-400.9587179,171.4715765,-37.32909321,-288.3717434,-553.4411111,-119.479626,93.92281994,216.6520193,176.8595238,0,-89.54836583,-750.2007734,-601.3030106,,,,
460.3839997,1798,-161.3048483,-32.38709144,-220.1333808,409.3875729,-50.67682485,1.927427515,735.5477116,775.898372,153.5005097,-153.7812463,-245.8475065,-184.974374,0,-97.16980294,727.7542748,286.2067991,,,,
460.3919997,1798,234.5746069,183.7114926,216.7321857,-264.7179052,-104.9102654,52.20212073,-1120.9455,-724.7472181,-171.0084237,181.1677612,104.3633079,145.515428,0,297.4004507,-516.3315871,311.9658039,,,,
460.3999997,1798,-179.3229727,-218.1300167,-91.18778028,33.23973229,217.5674042,-51.37892987,834.5328665,362.1779238,102.6081475,-97.68981768,17.15545063,-23.21099584,0,-323.4148436,23.46126163,-616.3940507,,,,
460.4079997,1798,82.8156344,184.545126,-35.2555553,223.8396699,-236.7522136,45.26791684,-439.9661332,121.9941181,-11.40020163,-3.094302934,-199.0845938,-113.0313783,0,277.0366452,421.4454168,860.7359783,,,,
460.4159997,1798,62.89518093,-82.63009045,178.7517744,-397.8963819,175.9798812,-36.5275916,-303.7766019,-567.4293106,-115.8087662,94.59385536,231.6036184,176.7892714,0,-76.72192687,-754.0608645,-587.1458051,,,,
460.4239997,1798,-169.0168285,-45.71712255,-230.1680849,409.1150039,-46.71474034,-20.41520685,776.3038511,784.6067754,151.278934,-158.983875,-235.3392836,-190.2660417,0,-104.2973741,733.9369136,266.9381319,,,,
460.4319997,1798,221.9125842,168.1228449,190.8722745,-258.8719772,-121.16791,23.18231068,-1099.09406,-715.0824975,-176.8739663,178.0250397,105.597098,138.7447679,0,289.9013826,-486.1680036,333.7557615,,,,
460.4399997,1798,-183.4190082,-226.8800301,-105.4295565,8.385489591,204.2874696,-70.10984381,833.1982658,325.6789725,89.43738187,-100.5878435,20.50422559,-24.94793601,0,-340.9654188,16.14675119,-635.2806859,,,,
460.4479997,1798,60.55641871,172.3224172,-67.68180384,214.0209036,-254.1182967,33.48036914,-405.0848855,121.0257462,-14.97787333,-10.40119803,-217.8080359,-131.4686767,0,259.8467934,450.4189437,851.131942,,,,
460.4559997,1798,37.53038682,-108.702169,144.3509906,-423.1233232,157.6101669,-60.45111308,-318.0082686,-594.1794511,-126.5489666,101.0819842,215.2136152,159.89268,0,-74.58695741,-762.7719715,-582.6700711,,,,
460.4639997,1798,-187.5149988,-69.22772936,-245.5190832,382.7907571,-44.59358923,-27.72058283,800.4717322,788.7042769,145.7748114,-164.2450513,-252.0175518,-211.4694324,0,-123.9299168,719.2736674,231.9597551,,,,
460.4719997,1798,211.350728,167.5013111,193.0790988,-269.045571,-125.4718638,31.74474247,-1104.159711,-684.9346375,-182.0246665,164.368144,83.33450196,109.7399798,0,281.9060457,-475.5172952,346.189577,,,,
460.4799997,1798,-196.3175071,-240.5104788,-101.7406982,-12.36177735,209.4764848,-83.92339581,816.7966647,345.3837091,79.88010255,-106.3898759,23.35648625,-36.0029199,0,-343.0276333,-14.34728895,-652.5468049,,,,
460.4879997,1798,57.8405441,168.5733019,-66.75938529,221.8853019,-252.1275091,27.02614098,-378.3434331,183.4514005,-14.1853922,-18.95733295,-216.7179188,-136.4671828,0,257.9287678,463.9151919,843.9824793,,,,
460.4959997,1798,47.62204359,-99.38466474,164.3017287,-427.1671017,154.2198086,-53.6470339,-344.9882223,-586.0085552,-134.5314561,94.74999935,223.5138461,165.1766769,0,-68.11539081,-758.5085122,-566.912819,,,,
460.5039997,1798,-191.2523712,-75.08537355,-234.7743057,380.9535713,-34.18341932,-29.93432549,820.8480202,786.6747808,142.6031301,-182.4570106,-241.2372417,-208.6193868,0,-136.6353793,726.6039969,212.103988,,,,
460.5119997,1798,223.4430769,179.3361246,199.2817306,-249.9713771,-127.4238285,36.99067258,-1102.731483,-700.8532158,-177.3089276,155.8275581,90.13726905,115.0786233,0,289.1165399,-446.7641966,364.7361534,,,,
460.5199997,1798,-174.9413006,-225.7448567,-80.79994634,-9.005342718,219.8031418,-72.32441005,800.390378,284.7288672,90.41587657,-96.54026644,50.8145262,-9.262478436,0,-341.4931665,-24.50670285,-664.2950152,,,,
460.5279997,1798,75.61137768,187.8598336,-47.57910732,247.269724,-235.0134958,37.79669055,-354.3631917,162.6994363,7.689539662,-13.29702205,-197.0285001,-116.2972984,0,250.3209542,483.7326377,838.6368567,,,,
460.5359997,1798,75.8348901,-78.89203934,188.3184676,-408.3486117,167.0112056,-50.22782138,-367.6669658,-620.8791379,-119.5062083,114.8913792,251.1571674,189.1669002,0,-53.79922975,-769.3610472,-556.5158942,,,,
460.5439997,1799,-336.0879761,-241.6441533,-336.105893,462.2677101,110.4903975,-84.78389393,1547.585376,1142.017511,244.6167607,-267.2393199,-237.1339858,-245.5758226,0,-373.8903613,847.5383667,-199.0455049,,,,
460.5519997,1799,81.41946497,-73.09476971,176.7138199,-426.9241382,135.1320359,-44.89739781,-433.4859579,-628.1234735,-149.0967562,102.6232971,223.9682234,167.5793198,0,-35.24322861,-769.5929221,-491.8162342,,,,
460.5599997,1799,-124.2866225,-441.4869487,178.0314956,-702.1363802,562.0976907,-147.6846557,544.4803988,-596.2378206,-87.9955096,48.86882899,478.3504324,291.9844987,0,-551.6971865,-1315.025185,-1887.109393,,,,
460.5679997,1799,-124.1241765,-161.4058644,-69.73726573,-6.039798908,132.9936594,-64.34991236,541.4028462,224.7154659,41.33146764,-76.91795157,7.721258396,-28.5736845,0,-209.7102844,-3.349357071,-382.9021273,,,,
460.5759997,1799,-2.702566083,-94.19691317,62.68880736,-213.625136,120.57146,-41.13106716,6.137667147,-214.9159705,-56.35714366,19.76493852,118.7276009,72.02741548,0,-100.9138156,-382.0388834,-393.0067275,,,,
460.5839997,1799,-26.06981267,83.97340226,-134.6161302,319.2531635,-158.7692218,24.83222603,174.1573181,470.362865,68.3921616,-87.30755849,-207.1034484,-159.7433706,0,95.68774137,596.5577705,598.0780897,,,,
460.5919997,1799,128.0289004,68.73169298,127.5013195,-200.2904428,-38.12077957,13.05753104,-610.0655484,-449.0339576,-115.812663,89.49405104,97.24917485,87.0420598,0,140.471175,-379.5665528,87.14925502,,,,
460.5999997,1799,-148.207395,-174.8939945,-93.98231689,30.85610513,139.4142388,-54.12875109,651.8654387,296.2544377,62.51561734,-114.2440331,-10.34051948,-55.82422366,0,-253.5765378,67.89467486,-417.0803455,,,,
460.6079997,1799,93.34304979,204.0545904,-38.40725594,226.2756577,-252.7762089,59.81293549,-427.2919869,121.2754105,-10.98253007,-20.11331033,-200.5611935,-126.2055746,0,270.7496048,463.0745264,881.7110677,,,,
460.6159997,1799,34.03761824,-106.3600662,145.1031817,-351.8788791,186.9657913,-31.28039058,-154.3097315,-474.3920448,-86.93676251,75.91637393,224.8843728,159.4355884,0,-94.18477582,-662.6917355,-597.8986601,,,,
460.6239997,1799,-133.3924757,-20.63437318,-199.1835723,378.0283678,-59.2150113,-5.529320637,630.8937461,678.2507951,125.8711121,-145.8758705,-230.0498671,-193.5568018,0,-39.60761797,700.4723743,356.4732597,,,,
460.6319997,1799,209.52167,176.7765267,185.9645354,-197.7334218,-95.11424097,48.92550991,-922.4299534,-598.7256348,-141.0242273,143.7600049,83.86662834,101.9494593,0,275.2586899,-366.7344318,340.0572834,,,,
460.6399997,1799,-131.7077912,-172.4343401,-44.54803314,-2.168551278,211.5636944,-39.85984849,710.9051032,230.1329228,88.71869453,-66.92775524,63.60428474,9.898952852,0,-269.5897667,-32.22236635,-574.5422471,,,,
460.6479997,1799,93.80774957,214.4737283,-31.36056846,288.9277167,-223.4631468,71.56700744,-297.033337,197.5407909,35.98130322,-4.090635837,-191.398108,-109.4335869,0,270.9509596,537.0553422,879.3720845,,,,
460.6559997,1799,99.62080278,-44.78539213,210.0787291,-365.5451787,168.7027644,-11.55991549,-348.6441967,-601.3016189,-92.72570951,132.7014903,258.3986919,201.525534,0,-15.84028551,-720.8481934,-494.0340482,,,,
460.6639997,1799,-180.4122811,-72.44961156,-224.313445,400.1700166,-26.44356143,-27.44040659,834.6507927,766.7166072,159.3185621,-157.3101453,-224.1681048,-197.8885772,0,-102.2275594,723.7894404,245.836095,,,,
460.6719997,1799,214.5674982,187.7229752,171.4279441,-185.1228378,-145.5586408,46.82684625,-998.8589534,-595.9312427,-156.82696,142.7530308,44.45505895,79.05082095,0,307.365583,-322.6247965,461.8284695,,,,
460.6799997,1799,-151.5804313,-206.2693632,-62.4836092,-29.84904117,209.1258788,-53.01133922,726.5425984,239.9512967,68.28198312,-76.8306317,51.72167919,-1.967601684,0,-296.1328658,-51.25595102,-612.7315311,,,,
460.6879997,1799,44.55041962,175.8091621,-86.08665993,296.8448081,-239.8002925,50.73047598,-214.0241564,295.9776793,23.05097373,-38.28285705,-235.6903812,-157.1668608,0,229.2635924,606.0875373,879.1929304,,,,
460.6959997,1799,116.9794495,-20.96089751,215.054966,-391.4861072,145.1820415,0.532058543,-444.3501669,-613.9106021,-118.1629783,139.8687373,251.0127612,195.0217293,0,-8.297076829,-726.8404777,-452.4823293,,,,
460.7039997,1799,-186.1199823,-81.16003675,-220.7369529,402.5270368,3.554851288,-19.58797849,905.791212,817.899088,170.9343397,-145.662569,-201.3133127,-179.388641,0,-126.6743067,721.4680946,169.1026674,,,,
460.7119997,1799,219.8355251,206.3739659,173.8914706,-172.1096201,-153.1176522,53.11568412,-1037.768776,-599.4803591,-159.6515443,156.2831133,37.44817861,76.24589301,0,333.7330294,-301.890144,509.0912616,,,,
460.7199997,1799,-130.9384805,-185.0924492,-34.43871201,-36.94916893,228.1806373,-34.54101843,708.5777317,187.8434622,82.11484844,-49.9491547,77.27149494,20.29370283,0,-285.2526988,-86.57206632,-647.8226032,,,,
460.7279997,1799,43.32791414,172.1916291,-79.92042595,321.1722739,-231.6527318,50.81187106,-190.8168875,272.011859,51.5965194,-13.97037729,-219.9913419,-142.1061938,0,255.0964986,607.8609646,872.3010028,,,,
460.7359997,1799,82.70747785,-60.62203224,183.7039237,-408.1203101,118.9075028,-43.04858537,-474.194075,-686.2700945,-136.5537661,126.2690768,212.9703154,157.0973747,0,3.686998447,-741.6209287,-421.0309146,,,,
460.7439997,1799,-223.0605702,-121.8239706,-254.0253581,365.9601418,-9.522649472,-54.36904298,940.0818495,782.9828218,147.4901698,-190.3273981,-253.25811,-233.0089571,0,-178.5927002,708.5310066,133.1968534,,,,
460.7519997,1799,212.8388546,202.7588395,162.2926237,-188.0509844,-174.8556976,43.54518434,-1059.594758,-606.7256713,-173.4343233,134.4386509,9.70130134,49.24242309,0,312.586017,-307.3489605,519.1045615,,,,
460.7599997,1799,-148.4557181,-205.7368899,-55.48627531,-65.78692822,218.2611489,-56.91026246,700.5660648,195.904426,59.78956864,-70.19310464,61.38358398,-0.331223323,0,-304.6047101,-120.2290175,-678.7101836,,,,
460.7679997,1799,35.47822243,166.8020991,-105.9526471,318.9652191,-238.0957816,43.75781369,-160.4385451,341.8671048,34.60800316,-45.05512456,-249.5050999,-167.6681665,0,229.9505614,628.5861562,855.7304556,,,,
460.7759997,1799,120.0153231,-27.53611304,200.3652888,-404.1686112,122.6648151,-20.78953388,-513.4642504,-653.9779209,-144.8038051,129.0444424,223.5011217,171.6364994,0,6.348425521,-748.9427479,-420.2899073,,,,
460.7839997,1799,-177.3607123,-83.3242204,-216.0081201,385.3268499,23.91226149,-18.7048022,950.7787995,811.3739392,166.9593298,-164.5934587,-203.0343908,-189.1956441,0,-165.9736095,698.8662981,92.80797492,,,,
460.7919997,1799,257.5945648,240.6271282,201.698244,-148.7115954,-149.9206941,78.13162401,-1064.051292,-599.0620611,-141.8206829,169.4458747,58.05646096,93.41907363,0,350.5582576,-283.334673,535.4126131,,,,
460.7999997,1800,-118.7392652,-191.8155801,-16.7217141,-56.94479777,247.9329062,-43.34049262,682.7457664,141.4467898,80.37760969,-46.91637975,99.50953916,26.47754656,0,-301.6398363,-133.3962988,-681.009899,,,,
460.8079997,1800,48.80701699,180.6076955,-83.9609004,342.8995281,-213.428327,52.06493427,-130.8654592,314.7855157,62.3007618,-38.01203611,-229.5082447,-160.7401964,0,222.4155037,653.04107,861.7887864,,,,
460.8159997,1800,137.6339953,-13.6946985,217.5068299,-389.7627444,132.336799,-11.09960385,-535.3043631,-698.1092762,-120.6066511,148.4048785,253.1065198,192.802413,0,35.92446729,-749.583151,-394.3077798,,,,
460.8239997,1800,-186.0749682,-104.5897115,-231.4534006,383.0140442,31.53783203,-29.34370284,978.4087205,810.0850965,184.2153941,-172.509791,-195.4563802,-192.438074,0,-173.3184711,692.8992497,85.85038653,,,,
460.8319997,1800,243.0991087,228.9461947,169.4546438,-146.5535293,-169.2791094,58.99285113,-1048.460838,-558.798239,-137.2794169,141.0574853,37.00198515,64.79387295,0,351.0194265,-251.9771381,574.5698755,,,,
460.8399997,1800,-126.0933258,-200.4387843,-35.21055773,-79.88590426,227.1266862,-55.30965705,664.9235935,157.142528,76.41012966,-60.90498537,103.8996534,23.0414535,0,-289.2459224,-148.1356441,-680.2492328,,,,
460.8479997,1800,31.20360392,168.0452387,-116.8094223,331.558689,-240.8703857,47.4695757,-102.5733944,361.2123627,60.55326281,-61.78728769,-241.4644093,-172.0446416,0,209.5150678,672.2288524,858.6967159,,,,
460.8559997,1800,147.2254543,8.348245023,215.7155203,-409.1526659,105.0641084,10.25277798,-575.6978838,-715.6465892,-130.6784229,146.2775253,254.9679091,199.8440432,0,46.38627177,-742.9975951,-373.2281411,,,,
460.8639997,1800,-177.2578742,-89.19614222,-211.6779751,371.6211412,34.75659988,2.456428825,964.5550214,765.7385767,192.5857143,-150.3515216,-152.4909508,-151.0776036,0,-156.6597118,682.212459,57.42842463,,,,
460.8719997,1800,243.3579503,236.2780492,181.847474,-138.3523372,-169.8053973,83.53861801,-1062.519453,-598.0423553,-128.2401023,153.1275472,63.56522163,97.69508343,0,365.0452321,-241.7924729,580.3313723,,,,
460.8799997,1800,-121.2809752,-193.3360805,-6.725305149,-91.59835926,250.054586,-28.50309971,628.5761964,98.88532201,75.80503952,-48.32251908,141.5672675,61.55099538,0,-275.0999269,-183.2022851,-694.8138893,,,,
460.8879997,1800,15.94372883,161.9219939,-100.4406869,341.439369,-203.6746489,65.90937327,-85.58599779,376.4956594,72.89107353,-55.82489848,-206.0492561,-143.5851851,0,225.6669421,668.1118586,847.8784325,,,,
460.8959997,1800,137.0896447,1.056722688,227.9570728,-412.6101226,125.8346783,14.51533777,-612.7701786,-695.7433682,-135.3335399,148.4626209,276.0179789,220.2872682,0,56.60033686,-775.5115906,-365.3534138,,,,
460.9039997,1800,-194.3705427,-111.8810735,-217.1237468,361.021504,56.0310571,-10.42837975,972.2479702,822.8335029,186.4943817,-155.8005005,-135.0687153,-136.2055889,0,-176.8685092,633.4022281,24.50793549,,,,
460.9119997,1800,228.6470207,227.9510563,162.5460351,-135.1173867,-177.0048665,65.19085745,-1055.438276,-525.7907737,-133.5801082,146.6387173,61.36815099,96.13600233,0,370.1719046,-244.0965943,598.073843,,,,
460.9199997,1800,-104.1789156,-176.1473185,8.192135844,-108.3525441,239.6397564,-22.33254515,584.5981951,90.79795013,66.85795744,-25.97971574,158.5913659,88.70954858,0,-253.6660909,-225.9285474,-708.8226319,,,,
460.9279997,1800,35.67945897,180.4789862,-85.42185454,357.3417449,-208.3770226,84.21534233,-83.99078006,365.6229153,86.2863546,-22.66627523,-181.919133,-101.8233853,0,235.5936128,657.3702138,821.0466698,,,,
460.9359997,1800,143.0774519,10.05799231,233.737821,-400.2973433,108.1591768,6.954079806,-646.3201366,-762.7524671,-136.3205045,167.5303546,282.0763437,241.5379475,0,78.78216318,-777.1889637,-354.2249161,,,,
460.9439997,1800,-201.7857562,-112.3542016,-205.8916472,362.587128,55.65681375,-18.48604165,980.5203555,754.2949473,181.0974999,-154.3098562,-138.1056881,-126.3311833,0,-172.8932594,634.7089475,-4.613601815,,,,
460.9519997,1800,224.8119236,233.929435,166.2180976,-117.117275,-171.9984165,71.40389988,-1043.088836,-548.2999837,-130.2310671,142.1902271,54.11640939,103.870587,0,362.2596965,-210.3839731,599.7701368,,,,
460.9599997,1800,-119.7586323,-195.8758448,-7.775895147,-119.9881881,249.8409013,-48.21891304,581.7362889,76.11911385,53.38338827,-47.87244709,149.0870455,81.13607237,0,-276.2957522,-230.3555808,-726.9331463,,,,
460.9679997,1800,5.176276033,147.8010288,-118.4644201,358.7574098,-197.1029768,48.63237501,-23.69743873,437.5852274,78.047484,-58.89684644,-207.6323857,-127.9834999,0,215.519707,685.1908906,798.3859108,,,,
460.9759997,1800,128.3702608,-7.763103965,207.7043523,-407.1476315,113.0765116,-15.22805961,-636.8565551,-692.1046982,-151.5033045,140.6928011,259.8543419,221.8467264,0,71.44698885,-762.178829,-342.2323811,,,,
460.9839997,1800,-207.3394028,-125.5944123,-229.489221,342.6425398,66.89736955,-36.90107214,1007.080859,815.7333279,162.924118,-184.0397094,-156.0859561,-145.891012,0,-198.4456884,633.1916338,-22.16704353,,,,
460.9919997,1800,245.8459094,250.3844984,163.3879871,-108.3322562,-172.9263887,81.69952225,-1041.312914,-498.4013692,-125.33612,145.3136073,57.90370807,110.576919,0,382.8228886,-198.6183986,617.3797317,,,,
460.9999997,1800,-99.408874,-189.2221893,-2.876472347,-122.6333279,246.3416618,-43.09796847,548.0884256,58.41454915,60.25076598,-33.14287582,171.6188778,101.3075326,0,-262.1107954,-260.975887,-725.5038885,,,,
461.0079997,1800,6.426926052,146.4093223,-135.5921253,363.7049592,-213.6990126,34.49780162,-5.05734756,430.8944371,79.46274654,-81.39576323,-224.379101,-146.976946,0,178.027924,705.2343819,801.2027016,,,,
461.0159997,1800,161.2394367,26.8686891,226.6297136,-406.7366027,90.93520293,-1.023617433,-692.1694821,-750.4183108,-146.1097368,145.2761802,262.51505,231.5771546,0,74.29552135,-767.3383251,-332.9439983,,,,
461.0239997,1800,-311.647534,-273.2710376,-249.501468,323.742253,230.9007444,-61.57787391,1538.140945,940.5162311,236.5893449,-231.934404,-92.75257849,-120.6871278,0,-422.1679821,551.3752343,-571.831904,,,,
461.0319997,1800,177.5087827,49.14341928,263.1306365,-397.9883459,91.68186568,28.25909305,-785.4395327,-780.6018943,-155.5049829,148.8641658,245.8892917,221.0846139,0,107.4062115,-761.1168097,-267.8756545,,,,
461.0399997,1800,94.16266288,-249.954021,396.2585306,-878.5362784,499.3399293,-56.66623734,-369.4282358,-1199.668248,-197.1401612,194.5207253,606.1561662,446.7265091,0,-297.5174912,-1691.609895,-1657.822848,,,,
461.0479997,1800,-60.00768987,-111.9065459,21.71989672,-61.61267274,169.5259853,-15.14988311,340.246434,37.19775418,32.5426838,-33.09285384,90.77530337,60.2950158,0,-157.577314,-150.2917535,-445.5593101,,,,
461.0559997,1801,64.55782899,-25.37452212,138.8813125,-215.7592122,119.4390601,6.3987925,-243.5756647,-361.8402413,-57.39356729,71.00395883,167.6325241,144.0871967,0,-3.53277327,-440.6117366,-309.9110037,,,,
461.0639997,1801,-72.59681523,32.2137265,-151.5098753,377.7138493,-77.34598983,20.1866585,427.7946917,599.166512,130.2440285,-90.87446952,-184.10655,-122.3865803,0,54.04571754,651.0081594,444.9820316,,,,
461.0719997,1801,161.9206383,132.8524478,140.9058239,-123.4392582,-56.86097864,40.08803316,-680.3625235,-402.037305,-85.36754292,121.721756,78.4899139,113.8737622,0,238.0106375,-271.8017573,254.6920206,,,,
461.0799997,1801,-90.86453713,-138.3786019,-8.465294915,-45.24213676,179.787753,-35.06718113,445.7260577,113.1727179,62.66938277,-32.34714241,86.37603972,54.30719515,0,-186.7425453,-126.6327683,-491.7686794,,,,
461.0879997,1801,15.1964324,164.2428407,-107.7289319,357.532996,-230.0328235,42.70425429,-102.0744272,390.6574202,74.68017171,-63.05568138,-238.1226351,-148.9579845,0,216.213974,676.6340307,852.8041726,,,,
461.0959997,1801,118.9053332,-3.723381702,215.7206045,-372.1942036,120.0654028,-1.249897582,-509.6074787,-641.0842342,-108.9303133,123.1219402,243.6919379,205.8509814,0,12.01007725,-713.9542996,-416.7787117,,,,
461.1039997,1801,-161.9130303,-69.70363103,-191.6351166,365.9647017,-2.259860207,-17.53859651,799.8237705,719.354873,174.2561831,-143.487481,-166.1769573,-134.3161594,0,-111.1813647,644.1375064,125.6793085,,,,
461.1119997,1801,179.3522437,181.4775376,118.8516664,-81.74105752,-177.592493,34.12039531,-876.4060815,-425.0375638,-105.7276387,98.34397605,3.307278833,53.19478786,0,317.2159781,-140.8973178,540.9351348,,,,
461.1199997,1801,-94.69659607,-170.6876983,6.250515877,-123.3627813,193.4438073,-48.46655894,451.4743287,22.73366604,40.28364167,-49.83201276,113.1425391,57.24810635,0,-243.5385423,-233.3423893,-644.4098735,,,,
461.1279997,1801,-10.35196378,138.2903959,-129.6620676,383.4779495,-222.9804779,42.10166767,25.59686237,472.6398749,90.04685387,-88.48488668,-250.68231,-168.1528326,0,174.7588944,734.8865402,790.7490478,,,,
461.1359997,1801,141.5867682,20.14889421,229.9180583,-377.900849,82.77623544,6.876874964,-683.8325643,-699.9507242,-134.4781695,140.1774639,236.43975,204.5519105,0,82.85888774,-724.7610168,-301.3283612,,,,
461.1439997,1801,-188.6515548,-106.0295577,-183.5842875,346.7924174,63.0406522,-9.088189191,922.7246563,748.3493753,187.6892514,-152.0932247,-132.6862955,-119.1034981,0,-167.5163038,590.3086966,-39.62954048,,,,
461.1519997,1801,207.2929672,227.7934418,140.5127508,-52.08411262,-179.9728231,71.20707434,-961.0155449,-432.7734358,-92.75615213,122.6131264,11.21248746,69.91346268,0,368.8266921,-109.8630857,635.4513178,,,,
461.1599997,1801,-82.21547205,-170.5171698,30.96775765,-144.2878659,239.3250193,-35.2058201,407.8829059,-45.81043925,49.27884917,-15.04806581,159.0291081,97.73685462,0,-228.6171025,-309.5957241,-694.0380879,,,,
461.1679997,1801,-15.87602995,129.9750297,-135.9136328,402.9662487,-182.7249406,43.91040545,82.68918773,480.0760986,113.9733774,-83.31606782,-243.6846808,-161.7902921,0,163.8588541,745.2380796,762.0948752,,,,
461.1759997,1801,170.7343194,42.2403873,235.8267052,-382.8034365,79.78780666,2.226190285,-772.679407,-766.8501922,-133.8994271,155.4211374,228.3834474,205.1407025,0,110.7174842,-725.1333313,-239.7800083,,,,
461.1839997,1801,-198.6367896,-129.466957,-192.4446011,325.8353358,87.69729568,-30.17438515,966.5364001,734.7173954,187.3287783,-153.8088927,-135.9936648,-126.0011324,0,-203.1087745,564.4287057,-121.2423662,,,,
461.1919997,1801,210.2489289,241.7321471,141.8066221,-36.06491593,-196.8685762,72.96097659,-984.799892,-413.3914266,-94.69622611,129.8804732,-5.843634979,61.22056576,0,378.2785123,-79.31572498,666.2921739,,,,
461.1999997,1801,-73.292694,-164.9168589,56.04022689,-152.2946038,245.310639,-26.13075845,384.4550335,-51.75887674,50.59548413,1.05108752,177.5103725,113.4946503,0,-234.335767,-338.8688491,-735.5991109,,,,
461.2079997,1801,-44.28398049,107.1644943,-144.6050003,422.9600368,-185.3188732,40.09449101,121.7634876,531.9974989,118.7732699,-87.91589922,-251.6758559,-174.801536,0,151.7290408,769.1478337,742.6190942,,,,
461.2159997,1801,148.1023157,30.23985876,231.7913283,-374.1670749,55.29616691,7.7454046,-802.5697807,-757.5762931,-145.3879623,153.4452598,213.1512634,191.8487348,0,126.1203098,-707.9178674,-209.8976535,,,,
461.2239997,1801,-205.316411,-135.9998452,-177.5826148,327.8497829,98.44049369,-9.33732568,983.1342627,734.2501485,186.0228943,-152.6110758,-127.2797757,-119.1415957,0,-206.5988524,554.8214812,-151.2934322,,,,
461.2319997,1801,201.2461767,236.6359663,135.5574349,-12.71924769,-189.9774555,83.33837019,-967.7852611,-399.6163153,-86.44904359,131.059399,-11.11204384,54.3642014,0,393.61514,-39.99388712,712.8853464,,,,
461.2399997,1801,-77.8213223,-165.4110671,55.29041179,-163.4828389,258.8931688,-16.55248845,374.9534781,-82.05780614,46.38016205,1.161856643,179.8251947,110.9564575,0,-227.5300249,-342.9006444,-719.7242283,,,,
461.2479997,1801,-20.94006211,146.8957811,-117.0633291,435.4049259,-157.3789266,77.33205328,137.9430736,535.6549207,131.9244752,-79.4425245,-229.5563618,-154.2776303,0,161.4554132,773.3655691,740.6719687,,,,
461.2559997,1801,185.2173649,76.11629049,263.7764632,-358.1505151,82.91136696,39.47588763,-833.474506,-762.5322532,-121.8634503,180.0322002,255.3105186,225.447929,0,154.3992239,-716.7009579,-187.0871462,,,,
461.2639997,1801,-203.347381,-133.6971437,-178.6843389,332.1289268,128.9985018,-8.117283422,996.3313191,748.0978446,200.3566814,-150.187374,-105.1662558,-114.2509418,0,-221.2631583,530.4405997,-174.9206401,,,,
461.2719997,1801,192.881048,243.6894971,125.2531452,7.553667613,-185.3072408,77.29754271,-951.3640199,-354.6052716,-84.15847712,114.5906414,-31.12168579,31.4657967,0,386.671077,-24.66946554,729.9762826,,,,
461.2799997,1801,-89.1088573,-175.1444174,43.22217481,-171.8266673,250.3260048,-40.84088525,359.8565759,-71.22633644,35.6675209,-5.219102665,167.8860001,95.9360565,0,-219.7464884,-365.9752837,-726.7453366,,,,
461.2879997,1801,-47.79017359,116.2623005,-153.4110998,435.2287715,-173.0047098,48.9658907,180.4531692,574.9398159,127.2553329,-93.66400065,-249.5948961,-178.6663855,0,143.0053421,780.659029,720.8790321,,,,
461.2959997,1801,175.4417291,70.39310131,248.9882418,-365.5160388,56.74396748,30.76557501,-840.0331733,-770.0084036,-134.3315263,166.0949693,227.3906874,204.3503386,0,140.4092151,-699.8944366,-174.4284548,,,,
461.3039997,1801,-220.9075603,-153.6607518,-192.6717504,314.9772998,113.5403072,-26.89001815,1014.060501,711.2393525,189.2402198,-161.7267943,-116.6266831,-122.8416392,0,-237.7123152,525.273499,-203.2204794,,,,
461.3119997,1802,171.540045,220.7181496,93.32256673,3.22111739,-210.9431739,55.88375651,-916.3115308,-386.041158,-87.55570767,99.78551451,-46.70345633,16.05192564,0,376.792177,3.060296647,738.8637887,,,,
461.3199997,1802,-91.61540963,-181.4264333,34.99228859,-199.5762009,229.6318368,-47.57783621,344.6169607,-149.8981823,20.33342095,-18.34229725,157.4718253,86.52201056,0,-239.8210711,-380.5818,-729.8440718,,,,
461.3279997,1802,-60.86121114,104.5078938,-170.2606649,431.7329319,-182.9179482,38.30208566,216.4870671,555.5413296,118.6299202,-107.9062352,-268.0437092,-197.0857103,0,111.2110028,778.3328709,710.1718453,,,,
461.3359997,1802,159.7371424,56.77939628,220.2126265,-372.8045959,33.88128073,11.5089851,-834.8563432,-766.2905457,-151.6104282,157.6729134,200.0612824,174.0519857,0,132.4127626,-699.168632,-146.5877502,,,,
461.3439997,1802,-224.1767331,-157.932229,-202.986084,296.5167223,99.23835351,-31.88699503,1023.611676,739.9755011,169.1218567,-166.1878507,-131.0238134,-141.8585267,0,-251.7690239,503.7611769,-219.9108483,,,,
461.3519997,1802,187.1849891,243.3305675,103.3063697,12.46001387,-222.41207,73.45151319,-904.5182841,-316.3666703,-88.19371626,111.0777771,-47.06112302,11.04067797,0,374.4462069,11.76642685,746.5391228,,,,
461.3599997,1802,-65.52715584,-157.2343784,61.05628144,-203.7242624,232.9951758,-24.96663351,320.1201016,-126.9574504,24.65106574,8.401679621,186.6950179,100.1207098,0,-237.1914166,-404.9628396,-738.1411942,,,,
461.3679997,1802,-45.23383603,115.2930554,-151.6886844,450.9821166,-164.5908717,61.52920372,243.2114149,582.452844,133.2684292,-91.85546999,-241.505838,-180.8302103,0,118.46642,784.8956753,692.864979,,,,
461.3759997,1802,170.0122694,63.07853257,240.3674586,-355.0573976,45.71208935,30.595096,-851.5078446,-797.6466854,-142.7114077,170.0179474,212.2865137,183.3069892,0,161.0334611,-681.7849707,-123.4515659,,,,
461.3839997,1802,-228.7209857,-173.3865236,-189.197798,301.9814577,123.5651945,-22.32611768,1028.323555,680.1607918,174.862708,-166.0362234,-122.714631,-147.9522298,0,-254.7071452,497.7295485,-234.3165841,,,,
461.3919997,1802,183.6289675,227.0030002,101.3436717,40.47740013,-205.7327032,85.87244314,-873.8986449,-337.9285858,-79.51058145,98.31140769,-56.96347091,-9.598691403,0,375.3727009,40.4698067,771.3217457,,,,
461.3999997,1802,-78.40497051,-189.291954,49.61611003,-203.9814322,238.3014849,-30.66463063,319.2566574,-157.3053584,12.73219948,-9.908412124,166.361476,73.07918848,0,-238.9214102,-408.1704513,-719.2270072,,,,
461.4079997,1802,-75.56137007,78.08422215,-182.5353291,448.2918643,-169.7854814,36.75623448,293.4977386,619.0368274,117.7233558,-130.0897577,-282.7005613,-231.4835372,0,83.23018179,800.0792948,694.4006525,,,,
461.4159997,1802,187.2123716,76.61975555,243.539521,-363.8094879,30.96240196,34.19995579,-864.2520398,-764.197064,-145.0625197,158.6775258,204.3816561,168.6555848,0,139.1179355,-682.058808,-105.7078099,,,,
461.4239997,1802,-210.8235101,-163.8931529,-176.1186298,289.795068,119.8143929,-19.54678489,1024.566257,711.8878091,182.6379108,-153.3261413,-104.2912887,-131.3731109,0,-275.848575,471.0329291,-267.7216458,,,,
461.4319997,1802,179.7275907,229.4699378,90.65292477,36.05945214,-226.1805841,60.67197893,-862.9667495,-297.9387867,-76.84441467,101.6748237,-74.74150031,-17.43614831,0,369.9610479,63.15489888,774.77945,,,,
461.4399997,1802,-61.26231312,-175.4749944,59.07937564,-237.7300469,224.527136,-47.48209053,266.915422,-198.0747923,12.62402416,6.385660418,170.338221,86.74414903,0,-237.0908288,-433.364593,-745.2648948,,,,
461.4479997,1802,-78.14867786,66.4662165,-188.0756509,440.0541017,-170.1007246,27.30013574,299.951844,605.5735767,127.0715389,-122.6642409,-282.2432566,-229.1729231,0,77.41459426,792.5796318,647.2237365,,,,
461.4559997,1802,175.7759781,58.88447257,229.6014417,-379.639413,20.43096092,18.82580289,-883.2719724,-796.2842274,-152.1439048,152.1789206,182.0738784,141.759962,0,147.2670128,-674.1920887,-107.0867639,,,,
461.4639997,1802,-220.4954247,-182.245405,-183.2678275,262.2682226,129.0225645,-30.6616214,1027.128562,672.8333522,171.073319,-167.7536822,-111.9683463,-149.0948028,0,-291.5615127,452.9478736,-315.160234,,,,
461.4719997,1802,169.0593878,216.9897067,73.13158821,35.42175916,-217.2848474,61.93647532,-832.2716618,-290.2297598,-83.57670418,82.28248379,-88.75598341,-34.84444204,0,358.0870304,85.47614341,771.264926,,,,
461.4799997,1802,-64.42833271,-189.6292862,47.99145203,-262.7962288,229.8177948,-45.97506213,256.3274289,-223.770495,-8.23022858,-3.086999053,167.6780864,80.41550719,0,-248.3151488,-447.3324053,-750.4643311,,,,
461.4879997,1802,-82.14496046,52.69538426,-204.4858823,438.3499988,-165.4177437,22.58708402,345.0820368,627.7654335,113.1394068,-138.7136731,-288.4134857,-237.2272175,0,54.4630514,804.1825189,632.8910013,,,,
461.4959997,1802,190.604436,62.89692707,221.5693574,-384.3926801,10.42188282,12.58562761,-883.6060713,-785.0547467,-161.9372381,136.6755195,175.1017053,138.5149978,0,152.1716348,-645.9280256,-70.53837885,,,,
461.5039997,1802,-225.2519858,-208.1380003,-197.8592758,239.8463766,119.627795,-53.68889341,1038.750582,679.8077906,158.1773478,-192.888674,-113.1990729,-150.6717021,0,-309.6946778,449.9124233,-326.5830055,,,,
461.5119997,1802,310.9167456,298.9428534,207.3294363,-175.4627317,-289.7175166,62.95572277,-1514.570462,-776.5246519,-208.3668938,169.8424471,-3.262213596,52.31452117,0,524.0835547,-266.8191807,914.1630131,,,,
461.5199997,1802,70.17272849,-158.0681822,226.5703462,-564.2628433,279.1394752,-39.31967784,-255.9086558,-779.7034819,-110.3835587,100.0508826,356.9970299,232.740726,0,-186.4148263,-983.3673808,-985.3089403,,,,
461.5279997,1802,-502.0808384,-234.8648709,-625.8835602,1086.866336,-14.63499262,-38.31789063,2409.075935,2139.338021,460.8875318,-471.5083639,-538.5260119,-499.8632422,0,-447.1483923,1893.235946,232.6905011,,,,
461.5359997,1802,-118.9463268,19.35140578,-239.4648032,510.9700675,-148.4958196,8.570765342,568.5121128,780.4590434,148.5441103,-165.0356078,-286.783516,-236.4987998,0,21.57206399,889.4799997,567.1928281,,,,
461.5439997,1802,-284.399951,-235.444958,-272.3767065,377.1912053,146.424871,-47.13834551,1397.694484,935.4899494,231.4060635,-238.9921754,-143.3666362,-183.8474432,0,-387.392379,654.9763993,-400.3135011,,,,
461.5519997,1802,-27.37319259,107.5610341,-169.0258963,448.7731555,-202.5483746,37.32137774,189.4981803,562.1389068,97.54857265,-102.93714,-265.5681163,-200.4380809,0,145.5272212,783.0459636,758.889033,,,,
461.5599997,1802,261.7502555,90.99547515,309.0454206,-517.2938758,48.46130046,29.91167631,-1079.406004,-1039.119279,-195.7669855,213.2068714,288.0912413,238.2373245,0,187.2602223,-899.2411366,-178.3961211,,,,
461.5679997,1803,-155.7148391,-139.303359,-148.6842377,218.7969805,114.5950686,-10.72406782,873.1404637,551.0445375,162.0574706,-132.2874778,-53.09211778,-95.12403586,0,-248.4086286,389.9679829,-285.5787688,,,,
461.5759997,1803,93.91897091,151.1150902,-5.15375965,157.4584506,-186.0367843,45.84374125,-417.6111868,-1.057810634,-2.864973178,14.04646729,-101.814902,-69.30371572,0,247.1600843,293.3222234,650.2779594,,,,
461.5839997,1803,103.9003732,-38.54056103,179.6349421,-374.9898988,107.0852156,-6.060866591,-452.4612078,-613.7894693,-99.83219683,87.65811752,225.9950411,150.0436939,0,-6.341623627,-616.9801593,-394.2531153,,,,
461.5919997,1803,-146.4585582,-71.25319047,-182.4660213,340.1319817,3.423389731,9.089635692,766.5430225,695.9417156,149.6999584,-166.5362539,-146.0402932,-155.4272625,0,-151.5395807,621.7576872,74.37962116,,,,
461.5999997,1803,215.6409175,190.8080171,174.9381827,-159.1632675,-118.9517844,68.28904396,-915.0987381,-502.1037595,-117.3777198,128.3984201,91.23503591,98.75697522,0,302.3466082,-251.0561392,435.0927921,,,,
461.6079997,1803,-51.17077572,-129.637348,36.15098279,-139.100169,196.5339582,-7.651888423,330.0279834,-9.93008302,43.04462876,-11.85419288,175.1427671,97.60688819,0,-194.086922,-238.1607325,-584.3511459,,,,
461.6159997,1803,-15.7514629,100.2458474,-105.7407799,339.7288374,-126.9065696,56.72663907,105.0224279,435.9361285,87.26426039,-65.92220242,-138.1130649,-101.3021928,0,118.5998546,566.3192266,543.7434045,,,,
461.6239997,1803,170.8295674,65.28762477,222.2903471,-366.1477916,40.5907733,26.27150177,-801.935501,-739.9257092,-137.7231233,139.249869,238.2523907,192.9596698,0,136.4916174,-634.5129335,-126.8809411,,,,
461.6319997,1803,-181.0018101,-146.7622246,-150.9150973,234.9199826,109.1390705,-15.36088671,871.9701428,568.8928108,150.3580764,-149.4020232,-44.71080782,-78.5998316,0,-233.8793978,405.2683276,-261.6011531,,,,
461.6399997,1803,193.2270264,225.1448604,123.0652637,3.704646746,-181.5100321,80.13809059,-820.4940227,-350.3650576,-75.6809138,101.3261535,1.030947896,43.7084153,0,365.1937888,19.00103076,684.2635332,,,,
461.6479997,1803,-11.72919003,-131.0811502,105.9614027,-259.7640717,209.9843851,-14.45982931,146.3672579,-287.8115374,5.240458113,31.6669783,232.8644672,148.4462594,0,-168.6888202,-432.9099045,-661.3774309,,,,
461.6559997,1803,-72.57756128,45.68710785,-152.3888481,413.6477704,-130.6241124,30.20409737,323.5508605,561.0356794,122.4445358,-98.87902051,-188.0028009,-146.4810397,0,81.43865817,709.6440356,545.5934881,,,,
461.6639997,1803,203.3277924,92.88649699,251.0884015,-373.8793808,1.882512067,36.72890461,-930.7720543,-781.5636802,-152.2996753,154.7230565,207.9099579,173.9041497,0,194.5491979,-603.243574,2.4815972,,,,
461.6719997,1803,-175.8318068,-168.5375322,-121.7722774,193.7053183,150.7700079,-4.59067719,909.4417469,590.5574095,153.638016,-144.0273177,-20.11581213,-70.96327862,0,-288.747545,349.2886036,-391.917763,,,,
461.6799997,1803,168.9759701,207.0528214,84.67503142,75.32659517,-196.6863299,73.94938097,-765.4591904,-178.0441266,-60.81289045,86.20273582,-39.18381726,5.626711981,0,364.5803569,135.6805108,766.284819,,,,
461.6879997,1803,-1.259083434,-141.1032731,113.7916307,-310.356621,231.7628048,-16.37438003,94.73574129,-288.9197416,-15.90626902,27.66287071,245.5508441,148.2985248,0,-179.5740691,-495.7984257,-716.7056139,,,,
461.6959997,1803,-75.51295788,52.49438953,-177.4896115,444.3077657,-108.7011045,41.28697288,406.2141493,663.6011085,135.1079195,-121.4652477,-193.7206876,-158.7672008,0,59.26443562,756.4580155,516.3671859,,,,
461.7039997,1803,204.6338604,95.92732181,223.3030887,-366.5559919,4.052138974,27.20867836,-959.218827,-796.5753946,-156.0820655,156.4183908,212.9509953,177.2634056,0,224.3261673,-608.260402,34.03392883,,,,
461.7119997,1803,-185.8912804,-184.1353254,-156.4432282,179.0256028,163.3282544,-25.05857777,948.2818234,549.6174082,147.6787781,-156.0210323,-21.52827288,-76.37774594,0,-299.9001351,322.0329289,-435.7178287,,,,
461.7199997,1803,167.3698929,217.2558718,51.14338146,93.36173826,-212.1003403,66.00789874,-736.0365467,-197.8552852,-64.82815384,77.9075161,-67.21644694,-14.30627743,0,366.9296188,165.6484234,807.0375441,,,,
461.7279997,1803,-0.261241291,-142.5476354,107.2519971,-347.8346714,225.6974523,-23.67996754,63.73736892,-378.4986172,-39.89883467,31.47030153,235.8372541,141.2824403,0,-187.2652093,-546.5576655,-729.289262,,,,
461.7359997,1803,-80.19384792,50.64520594,-181.5141738,438.4752703,-113.6550313,41.67489541,438.3211609,657.1642534,127.9194579,-126.8709392,-215.6374332,-175.4039589,0,31.98037254,752.4925278,492.4237541,,,,
461.7439997,1803,222.956207,109.9062836,250.4856942,-378.2107307,-2.79671582,35.95287023,-992.6628159,-812.937929,-155.7479191,174.3530796,213.8595428,184.1184334,0,222.2069426,-630.1801667,33.97069805,,,,
461.7519997,1803,-191.2637983,-195.6745916,-138.5125402,163.1732441,173.539523,-24.70730466,954.7606033,560.3489534,145.4185205,-152.553495,-18.3360673,-71.70099078,0,-315.1254101,295.1753693,-482.4705591,,,,
461.7599997,1803,149.870351,209.6209099,49.7921663,107.6374726,-213.9780762,64.50201349,-705.8382522,-139.8715473,-71.90815198,63.11383479,-97.09973609,-32.05648119,0,369.3571636,199.4974146,814.1488289,,,,
461.7679997,1803,13.06339685,-133.0946463,139.0160172,-357.896706,240.019268,-14.70703246,47.57752884,-373.6061366,-39.62466986,45.70221025,249.0182855,161.1797591,0,-178.4625674,-566.4173648,-743.4479296,,,,
461.7759997,1803,-68.22112562,63.29461559,-155.7156377,461.858149,-80.8620345,59.38300408,484.1129502,700.4292664,149.5508858,-111.4301781,-187.0594253,-147.8367776,0,34.37223126,758.6205772,468.1707357,,,,
461.7839997,1803,236.9112685,135.3125512,267.7046599,-353.6735179,15.62252932,55.43252347,-986.5325842,-796.6659039,-149.1085161,181.6708774,219.5353577,193.5330958,0,249.1420237,-610.8312931,64.90586734,,,,
461.7919997,1803,-179.3305905,-180.3069425,-119.0962285,170.6724479,201.3709501,-8.090804546,968.9419865,552.4322659,153.5943464,-138.9591226,-2.147170961,-54.03904446,0,-304.7782855,278.5807921,-490.3497232,,,,
461.7999997,1803,148.7332747,216.3784897,50.88143695,140.015766,-195.8919662,71.61048935,-664.2525528,-116.6890196,-55.40496452,69.90340939,-96.67128431,-27.92697919,0,377.4877652,219.3084096,838.0901373,,,,
461.8079997,1803,6.038668326,-138.0475282,135.0145922,-357.595179,238.1769572,-22.5987212,44.01145753,-394.1450065,-45.83399561,35.6809067,233.2116523,143.7714923,0,-179.5270724,-568.9403446,-716.6544381,,,,
461.8159997,1803,-88.11136198,45.50006019,-174.327235,468.0895559,-95.52688272,48.9280178,524.788626,716.0354945,146.789452,-130.3335671,-209.8375024,-178.1415028,0,20.01133092,771.8756291,474.1182138,,,,
461.8239997,1804,207.9832376,112.1322262,235.9894199,-350.1597658,-23.48683838,31.1214766,-979.8246934,-779.2183439,-159.788397,168.6521403,186.7305406,161.1686995,0,248.3678043,-587.9916611,105.4446598,,,,
461.8319997,1804,-211.890182,-206.9677871,-144.6302445,145.1310615,168.2281701,-39.97200972,969.9262812,561.0632161,126.9300085,-165.5346135,-37.85005732,-88.32751688,0,-339.9871181,276.9828159,-502.702832,,,,
461.8399997,1804,135.9539112,214.9966427,42.77000551,135.0907859,-221.1744678,67.48700414,-654.9408063,-63.77478058,-66.43991526,56.23941271,-113.8387631,-45.56087058,0,362.6172203,237.1669759,829.4431907,,,,
461.8479997,1804,-11.80308814,-159.2360901,124.0125081,-380.8064032,221.6171897,-34.1162646,17.86636194,-368.1470208,-62.81275555,35.32064228,232.3906775,138.1954273,0,-177.1431121,-592.6203776,-733.0166473,,,,
461.8559997,1804,-122.012179,13.46455428,-203.2435064,448.5115836,-99.9338316,24.99764887,554.3977448,756.58273,119.4011112,-165.2430856,-243.2594322,-214.6581005,0,-17.49724542,769.7349032,435.8611675,,,,
461.8639997,1804,213.8596599,124.7720774,238.815454,-360.6503898,-25.88626162,31.9971228,-996.3144696,-789.8632591,-176.3614152,156.1678333,176.3702723,151.8115258,0,243.7864254,-586.930808,100.5193384,,,,
461.8719997,1804,-193.8065542,-198.3152137,-127.7352904,134.7784947,183.3417416,-33.23686549,961.0309089,490.4054459,126.9444555,-155.7193234,-11.93056423,-66.77250555,0,-336.2196401,246.5303106,-541.4005002,,,,
461.8799997,1804,153.9652049,233.7517509,48.55819663,157.6779738,-210.5508766,78.29068934,-626.5129819,-125.508503,-54.71827305,57.66810974,-110.8307957,-41.20872605,0,362.5877906,257.3022725,837.6341372,,,,
461.8879997,1804,26.86216005,-117.1062468,157.6707418,-374.9195127,233.0033077,-7.003248138,-13.97129365,-478.6955089,-45.38670588,67.35924265,257.9037961,170.9651991,0,-157.1393919,-606.619467,-713.6763758,,,,
461.8959997,1804,-108.5286556,27.5804533,-183.097259,461.3321924,-86.57189935,42.32209104,574.2596914,702.5182241,142.7197544,-140.4797818,-227.6020953,-192.4944755,0,-10.98597051,763.6559104,430.1336171,,,,
461.9039997,1804,217.6813291,127.6990077,237.2263778,-350.3241168,-33.66817403,33.39874688,-994.9512316,-788.2671102,-165.4092248,160.999261,163.3425953,139.3273617,0,251.0384073,-574.006988,142.1423193,,,,
461.9119997,1804,-184.3294212,-198.5621289,-123.5160505,121.11523,181.0750233,-31.10202698,950.5204626,532.4972693,137.0179033,-148.6249651,-3.985788831,-68.95758202,0,-346.5175566,225.5889266,-547.2464287,,,,
461.9199997,1804,147.2485117,225.8624355,32.98664977,161.9600824,-226.3978503,69.20085345,-607.6898805,-5.397500525,-49.59597754,43.80336017,-125.1983058,-62.68635134,0,341.8231498,275.6181888,841.5357055,,,,
461.9279997,1804,25.03771591,-123.6957308,138.9216651,-389.6013045,212.301834,-30.20437393,-31.78968821,-391.0355619,-57.28832599,56.85322231,248.156843,157.1213757,0,-168.9307994,-612.7380519,-714.5164747,,,,
461.9359997,1804,-108.1009427,20.8308631,-200.4865123,459.8508963,-88.60692719,27.5359819,602.0150261,785.2688126,143.2188289,-140.7172421,-218.9105618,-184.4915081,0,-31.97608921,769.5240359,390.9770127,,,,
461.9439997,1804,227.1513059,136.8638941,236.4244331,-343.2483502,-35.11846043,34.80590479,-1002.212045,-767.5552253,-166.1045406,156.7694217,163.5645775,141.7598558,0,239.4996898,-553.4649885,140.2619072,,,,
461.9519997,1804,-183.9375263,-199.3820852,-118.9961712,116.262586,196.9533186,-35.3577665,949.6694538,476.9577151,138.0561886,-145.4422438,9.546605245,-57.05474459,0,-352.8529421,208.8683375,-584.2865545,,,,
461.9599997,1804,131.1899183,220.5870796,19.19681291,177.1168212,-215.7600151,62.52811735,-574.5091082,-67.89787053,-43.66869415,47.54470244,-126.3996453,-58.9119567,0,346.6617179,296.478462,833.6062279,,,,
461.9679997,1804,25.35756107,-110.1996089,152.467984,-401.0792507,222.9094513,-19.19265297,-57.95706346,-517.3340744,-62.62053159,58.91856067,250.3911914,158.3423822,0,-171.2503869,-627.2548947,-715.1879831,,,,
461.9759997,1804,-116.5615241,26.02078859,-192.0271514,466.0666493,-68.52571443,31.12593308,629.8242928,708.6957782,152.5274676,-135.9586276,-209.0373102,-180.6519506,0,-40.59371903,752.6054843,367.1748257,,,,
461.9839997,1804,230.6120507,154.0821145,235.9619853,-328.2638317,-37.09501032,36.54810557,-1006.066379,-801.8613175,-162.329279,173.843842,159.7819651,145.1153648,0,265.9013758,-552.7632375,171.0829347,,,,
461.9919997,1804,-161.3625033,-170.5951434,-98.40648169,107.1550801,203.5214849,-14.80092758,924.6687843,468.1549227,137.7347213,-124.743559,21.16582476,-40.18874418,0,-353.6813353,174.6437848,-593.2439681,,,,
461.9999997,1804,90.79271806,289.304841,-90.77472916,533.8235894,-304.8425178,99.80573564,-276.0899412,466.676673,60.63683465,-14.1766349,-277.7064278,-167.0386041,0,376.978365,816.5999433,1212.806285,,,,
462.0079997,1804,74.47687445,21.20300805,121.2862419,-131.5390694,70.25091204,17.973393,-234.105589,-295.4272913,-28.55195085,65.76436593,123.2886467,86.46077611,0,34.02796739,-259.8085193,-124.5619409,,,,
462.0159997,1804,-52.46297797,-38.04777135,-25.05867343,99.7717266,58.71538102,5.807528104,302.5901172,169.1172327,64.58638625,-35.78331489,-9.755726891,-32.74506416,0,-75.19374837,142.5879701,-74.93906366,,,,
462.0239997,1804,94.07392554,73.78211956,112.4436199,-116.0145851,-1.921040294,29.53108769,-381.2447085,-317.4781218,-55.89957218,75.89503436,60.58537588,45.25497198,0,118.0578626,-206.2131196,99.63406347,,,,
462.0319997,1804,-72.34413199,-27.58804974,-70.06123537,198.4409637,43.4839262,24.1663234,463.6640791,372.2591801,97.33070812,-67.96970956,-56.11313338,-78.40432098,0,-98.88711116,285.4429433,-26.31533745,,,,
462.0399997,1804,141.636432,107.6773447,138.7740951,-132.5920025,-40.37602814,37.57148506,-589.5235317,-375.1021674,-75.34571842,108.0138636,80.03022207,61.21744744,0,173.3399762,-258.1607166,205.0076978,,,,
462.0479997,1804,-72.97910268,-97.72202616,-25.44210998,26.97219998,120.7428526,-9.999955922,462.2417407,243.6856634,67.72333374,-62.03552542,35.30532927,-29.62142445,0,-207.2503682,37.50894529,-350.0738138,,,,
462.0559997,1804,65.95003343,128.8526327,-4.532383349,175.1447362,-131.8093525,38.52027379,-211.3077444,144.5257904,4.3323885,9.32062729,-92.14980197,-74.53573715,0,172.2206131,275.819368,519.4027127,,,,
462.0639997,1804,72.27317835,-38.30533791,158.2820649,-326.8621724,124.7362427,-4.246443067,-255.2365563,-443.7271795,-75.25531254,81.42456752,201.4863597,120.6973806,0,-43.3226674,-525.5211354,-414.5696742,,,,
462.0719997,1804,-106.5513229,-2.195121665,-149.5239322,379.4233979,-21.94716396,35.54813138,634.4538182,645.9477157,134.1760566,-119.4473684,-149.5315335,-154.9163533,0,-88.59351527,594.6545482,175.9861112,,,,
462.0799997,1805,215.7088591,164.1608692,207.7678701,-231.8267752,-56.29465642,55.26523169,-894.683562,-661.602526,-134.4954806,158.8569054,127.3257576,105.0609034,0,255.0904423,-414.7645128,251.7378821,,,,
462.0879997,1805,-127.9687449,-155.3814521,-62.41316953,58.49024789,193.3678655,-3.809728573,750.8751907,302.0752485,109.8713005,-95.48327717,50.08812913,-31.69468667,0,-302.6471684,74.05314817,-556.1525317,,,,
462.0959997,1805,88.60182121,184.1247492,-21.02194111,240.5940756,-184.8787854,61.59178373,-355.7040659,86.23134754,-5.505882408,19.79009136,-141.4024188,-97.01660192,0,274.0353258,352.2419551,757.5078882,,,,
462.1039997,1805,58.80805787,-74.09412842,150.9742607,-391.3916448,172.7486374,-22.19710566,-204.7157462,-512.7472727,-85.77360208,68.91701564,217.9767411,121.8814382,0,-115.711811,-634.8299707,-559.7859347,,,,
462.1119997,1805,-115.5590261,3.695519524,-193.2876198,446.356335,-40.76117224,29.51769371,719.4372962,783.8662016,158.1897425,-139.7977403,-185.453108,-184.70667,0,-90.22905062,683.8865685,251.2249896,,,,
462.1199997,1805,246.422384,180.6702239,220.4704101,-259.3759676,-74.63550999,46.08367,-987.8566759,-671.2867321,-139.2698288,179.6845527,140.5739954,122.5140615,0,307.6443504,-468.3776762,297.7847034,,,,
462.1279997,1805,-141.8953565,-176.5037379,-78.66794882,47.79855213,199.4627137,-37.85795445,840.5237923,391.9636691,127.8988046,-112.1448372,41.43361855,-43.0331366,0,-346.1003227,89.74059681,-610.5086242,,,,
462.1359997,1805,113.201065,216.3798,-7.571355945,246.2581475,-208.7165435,48.43998972,-416.8994932,99.95267988,3.201708456,33.30083269,-149.7951553,-96.19098114,0,302.6310987,386.3834691,838.8077561,,,,
462.1439997,1805,81.99309804,-69.3623038,188.9959376,-412.5936875,203.9520784,-20.05917803,-201.072274,-555.0710316,-66.05623889,97.92793712,256.1741314,159.7365392,0,-113.852822,-664.3745727,-611.6335866,,,,
462.1519997,1805,-112.455018,5.413027537,-185.7744029,465.2486136,-21.86255201,30.8377348,753.6342918,772.7813978,180.7747731,-130.0858448,-191.2107756,-182.3111685,0,-97.7044731,731.6909405,269.889926,,,,
462.1599997,1805,250.8641369,195.4838634,231.7081917,-269.9267292,-53.10912563,56.34949766,-1004.881809,-734.8792457,-134.1367446,187.9007704,132.1046043,120.5416449,0,296.0288512,-461.961733,306.6843273,,,,
462.1679997,1805,-141.4166815,-167.8656672,-70.74762431,51.27789094,236.6670854,-17.76798134,875.5686688,372.0241949,139.5587729,-101.5648031,47.99017982,-29.87226288,0,-355.0141508,81.16667121,-651.6694971,,,,
462.1759997,1805,114.8063965,229.4873459,-13.41808024,270.036848,-195.7636698,66.13408586,-394.0111679,126.4487396,9.940612682,38.48910073,-165.1073088,-97.20832358,0,322.189235,408.9134678,861.1558874,,,,
462.1839997,1805,89.22419972,-49.0067483,196.5727991,-419.8586985,212.4382147,-4.271681595,-209.2975661,-539.2328856,-64.95346059,104.1581391,253.4794781,167.9579971,0,-105.0842069,-681.070838,-617.1881647,,,,
462.1919997,1805,-239.496687,53.00913024,-409.0121158,1005.446307,-144.3895957,58.28384126,1380.523977,1647.588936,339.8640251,-266.0010782,-453.5174431,-366.88813,0,-87.99614153,1558.285171,756.8320901,,,,
462.1999997,1805,253.1379596,359.1785145,98.76263854,165.2818685,-305.6851008,87.59193819,-1078.247286,-252.7493758,-87.90200779,153.1587318,-121.882239,-25.76771616,0,571.8080277,193.1594789,1210.309642,,,,
462.2079997,1805,-5.049157818,-227.4299629,196.4598647,-603.4847128,373.5012284,-68.41504641,135.7741554,-603.2359318,-61.53159777,66.99207672,372.9707027,218.285629,0,-360.3941745,-959.61068,-1263.906766,,,,
462.2159997,1805,-108.0955903,67.55054226,-228.0255572,575.8966383,-131.2860857,29.5705717,655.03464,889.5851076,167.547112,-151.5000467,-279.2682265,-233.1303035,0,-18.88239413,923.0020016,563.4332815,,,,
462.2239997,1805,207.7003909,171.4383854,183.0394638,-204.0522485,-78.47674434,31.25218446,-839.2678985,-574.8132636,-121.5901258,151.7795311,94.20172829,93.22195075,0,265.4903571,-327.8642497,329.9697377,,,,
462.2319997,1805,-83.99047976,-171.4771977,18.474551,-175.5659151,234.0241592,-55.86328112,523.4766144,-17.35515909,42.91123922,-33.29404044,150.5519596,57.763298,0,-299.1864384,-262.552324,-744.374398,,,,
462.2399997,1805,-7.888483972,137.3599687,-140.053641,405.4368878,-180.0213555,19.48568449,113.7699965,444.1832963,65.55290858,-65.740366,-229.8129845,-170.3326884,0,157.4252533,645.3490766,714.9733456,,,,
462.2479997,1805,149.3959735,41.1393268,198.8567264,-394.9925325,76.53038618,-8.32905823,-596.8545674,-722.6242899,-126.9017497,121.9899614,197.3610423,139.3555132,0,62.17420745,-625.4893131,-242.8495922,,,,
462.2559997,1805,-111.8137772,-72.43943173,-99.95993041,186.5289534,107.2231393,2.944293561,734.5215605,445.553163,132.9567369,-114.2087622,-36.69752946,-77.8715104,0,-233.1216419,305.6293257,-266.9368768,,,,
462.2639997,1805,143.4918783,215.7986137,54.18756631,118.2815217,-152.7055114,67.34823874,-505.8835151,-99.07855341,-20.71496299,76.02907887,-53.29415933,-9.437983254,0,287.1116845,168.0352528,645.8601803,,,,
462.2719997,1805,39.11413773,-76.56441386,144.0101653,-353.8786494,205.1495937,-14.5089805,-45.39303594,-392.9458808,-40.16514876,66.0134688,234.5253727,153.0377706,0,-146.3074315,-564.7556416,-628.991194,,,,
462.2799997,1805,-73.78796298,65.22393327,-150.7688929,413.8047418,-48.13330534,41.4659706,532.0449264,700.6234652,137.1282246,-102.3269969,-164.8019202,-130.5253364,0,-19.29357361,634.8247109,338.0969208,,,,
462.2879997,1805,220.4160485,166.2864633,226.3840108,-288.1622431,-8.98699329,50.88007161,-889.6885131,-624.7741864,-123.9842679,186.3166644,192.438657,182.9618778,0,261.0424177,-516.9991523,148.462023,,,,
462.2959997,1805,-144.4582987,-154.6259911,-77.29569262,48.27902761,194.8068914,-24.51521075,751.6261274,399.9967603,117.4576398,-95.13272363,70.25850343,4.836703399,0,-304.5897838,63.41616919,-563.1204765,,,,
462.3039997,1805,95.19081926,212.7468105,-10.92031113,224.4749582,-182.5847465,57.23774028,-374.3903089,121.7825064,0.089766158,22.29288722,-114.0814046,-53.24893087,0,288.0179243,335.9249609,746.2313307,,,,
462.3119997,1805,97.16913903,-23.96683384,210.0571457,-415.6711194,200.6249813,14.82218659,-249.5476902,-568.5773349,-61.63594455,107.6816639,301.8700602,223.0593764,0,-63.8694722,-694.261661,-609.7339738,,,,
462.3199997,1805,-119.3143491,14.33256241,-168.8179608,435.9028557,-10.04427562,35.94135162,721.122289,708.4765998,174.5906437,-119.1114814,-124.7762294,-103.9083261,0,-73.21188794,633.9570979,188.7433807,,,,
462.3279997,1805,226.6109223,193.4956723,222.7841835,-251.1244138,-66.47311699,47.13891619,-979.6324449,-740.6528019,-137.5585476,175.5018803,155.568523,162.093336,0,329.3564676,-462.9148336,295.6761283,,,,
462.3359997,1806,-126.8733396,-153.842053,-32.90945189,5.759032871,223.4685249,-6.626891532,768.4502603,247.1593569,119.7801554,-93.34824744,107.2320623,36.02937829,0,-319.235624,-1.413804429,-676.7416735,,,,
462.3439997,1806,92.35536596,215.8048563,-18.1615621,284.1465287,-193.2878494,66.76944719,-329.0618841,140.3053049,17.47375765,15.33195904,-132.4988355,-59.32480817,0,300.4447081,421.3746084,807.1051205,,,,
462.3519997,1806,92.69548247,-42.70120477,205.238618,-437.2493787,189.8588033,-12.7246126,-301.3808462,-596.5111009,-87.93302614,101.9285214,279.6624979,210.3312226,0,-53.82702457,-709.7300269,-578.2253735,,,,
462.3599997,1806,-136.6084967,-10.04343468,-185.8376091,438.5304286,-0.193708766,19.87474958,800.7196482,833.6827315,171.8931214,-139.5066195,-151.5017113,-122.620713,0,-100.1080545,671.0714403,160.8461138,,,,
462.3679997,1806,239.3229968,211.0490929,218.0671998,-238.7501028,-77.01449733,51.13260875,-1008.678468,-608.3449414,-148.1717111,175.1902786,128.5992642,149.1175743,0,349.0504054,-424.2933183,364.2072538,,,,
462.3759997,1806,-130.7421542,-162.8602813,-39.61943901,-18.76905151,242.1978495,-13.21630387,781.4082957,355.3617559,113.7698936,-87.60176534,112.040645,42.76845673,0,-334.335018,-24.32939352,-717.9805478,,,,
462.3839997,1806,72.24908487,205.2614832,-46.33516483,302.0865796,-192.8963723,52.50468518,-285.3044609,265.2328193,22.00767833,21.56656353,-147.1569171,-61.89087112,0,303.8208414,468.493706,820.9016043,,,,
462.3919997,1806,83.58117272,-46.53023022,192.6830514,-460.5692896,187.6194886,-33.81580629,-321.4865254,-612.4412777,-110.8785123,102.8434555,255.7145538,196.9776377,0,-46.69015607,-709.8062528,-572.6679165,,,,
462.3999997,1806,-147.2479224,-14.00272318,-193.3015168,424.8601552,6.490424071,19.01654115,842.1796196,777.7751569,166.3258066,-147.0154815,-162.3284288,-129.1915222,0,-121.8709933,677.9994868,123.0023694,,,,
462.4079997,1806,230.3365558,208.3856058,210.2744042,-232.9532092,-90.42199019,49.23374162,-1004.261946,-705.5882501,-145.8414888,182.669441,127.2690068,155.9148976,0,349.6844464,-406.7320418,386.7035959,,,,
462.4159997,1806,-144.5490276,-179.6484661,-49.79121221,-45.71778094,229.7531466,-35.81258749,787.6088979,223.1338623,98.23167164,-99.62550649,95.5964982,29.12831113,0,-354.7308134,-35.90373972,-731.8614027,,,,
462.4239997,1806,86.23417706,222.3134541,-42.15712162,302.0808609,-212.7716778,67.49606648,-265.1941988,203.3052995,21.75780473,7.706166402,-160.0855492,-72.73532367,0,281.3437876,485.4853219,821.9357139,,,,
462.4319997,1806,112.3552421,-26.9904033,210.6269446,-465.8172061,170.2795859,-13.36356317,-354.8857648,-644.4523534,-99.47172387,123.124301,284.3909945,222.9158236,0,-49.15743037,-735.4929906,-569.5299989,,,,
462.4399997,1806,-155.1462444,-31.00050592,-207.9276653,418.9922106,-5.152603614,-1.497960242,866.223375,835.5649244,174.9943598,-144.5976985,-156.5237884,-127.4269851,0,-132.245292,672.6596851,99.32722929,,,,
462.4479997,1806,225.647382,207.2743992,191.6742847,-235.8538234,-113.3721833,25.1314311,-1003.352018,-608.1461937,-149.2095576,174.7918472,104.4896604,137.8696113,0,357.4034894,-388.2431061,403.1899207,,,,
462.4559997,1806,-141.3625648,-177.2922166,-52.83845623,-73.38903548,228.9691407,-53.37070412,779.7773698,290.4247404,96.29566869,-96.94427286,93.95721561,30.21351073,0,-362.2361847,-58.17510974,-764.0936671,,,,
462.4639997,1806,89.8448814,236.4354421,-40.35036416,307.6635608,-198.2477337,61.20631902,-235.5712241,277.4858532,33.07266467,12.46107191,-162.5276138,-68.17141127,0,284.4564083,500.5552608,791.4613616,,,,
462.4719997,1806,134.0621406,3.681207566,238.0631769,-461.3189085,197.0822167,-8.578317443,-373.5082714,-657.1591672,-91.11768035,151.7289437,299.6537859,248.7167508,0,-13.22289883,-746.2977561,-584.0504662,,,,
462.4799997,1806,-156.3639531,-27.42363312,-197.1588851,420.9274411,33.61358673,-4.700571351,909.4805071,789.8445943,188.3048761,-124.6992434,-147.133094,-112.1422909,0,-129.4962849,666.355237,57.45119978,,,,
462.4879997,1806,220.7554905,216.1720177,192.7900407,-218.8085183,-97.0765127,29.47736778,-969.1188261,-675.89271,-144.5768165,181.6699966,88.90604353,129.8086504,0,361.3305547,-362.8153203,416.8435111,,,,
462.4959997,1806,-350.7731258,-402.21361,-165.3036907,-1.29853667,461.0189761,-89.92161278,1828.888118,680.164769,232.8632923,-228.8471877,117.6868292,-7.466153055,0,-783.74385,65.40698083,-1504.988858,,,,
462.5039997,1806,-388.0690188,-171.9285115,-425.8870912,766.9528297,97.3633685,-18.75833716,1996.965838,1588.634088,367.1915914,-336.9407747,-309.6762259,-288.8910066,0,-469.0101752,1271.183547,-175.0068928,,,,
462.5119997,1806,-85.57990745,-116.3851954,3.824803329,-107.9831402,205.1362033,-33.28667111,532.4131305,46.17521834,57.41963734,-37.82546167,107.7045787,57.97151208,0,-257.1403344,-141.0513198,-626.3776721,,,,
462.5199997,1806,-395.1727969,-302.7345322,-321.9973872,426.1092322,285.1509149,-56.21387263,2032.63731,1230.890434,321.2948202,-302.5340164,-113.326858,-165.4959345,0,-656.7647456,738.2912256,-856.9588389,,,,
462.5279997,1806,29.82813937,150.0886124,-42.89101729,241.7300517,-107.1844095,38.45153772,3.237020623,216.6978949,47.34134261,-4.996916373,-119.0874909,-57.22220683,0,149.8769866,399.523404,484.8889978,,,,
462.5359997,1806,222.1249329,170.6478127,242.7237685,-327.4101078,-14.81969654,35.15570495,-860.7810112,-743.9008964,-133.9602674,188.7648231,173.2435782,181.8493041,0,256.7879017,-515.6516047,120.2920477,,,,
462.5439997,1806,-91.48137392,-72.59110663,-45.03730669,95.84112174,125.52969,-2.623306493,657.3798596,351.0543687,116.1013387,-51.36861292,32.66122522,11.67852951,0,-177.0788127,170.7021936,-327.0560155,,,,
462.5519997,1806,48.22928561,113.4867419,16.00453118,122.4192592,-75.58791381,26.70360077,-66.1044299,115.4138025,19.09375905,36.80811631,-33.24028128,3.038536833,0,158.7058944,191.2758092,336.0528085,,,,
462.5599997,1806,130.8975964,108.357849,152.0852336,-195.8044351,-18.95815889,14.50033685,-488.2401576,-386.1288169,-81.49010113,120.1045362,112.1469987,112.9017944,0,166.5625579,-298.6622102,79.61244839,,,,
462.5679997,1806,-110.2670575,-87.63985311,-60.4637804,73.60761983,108.5011922,-15.24712431,643.3584401,367.3628132,100.3235068,-71.91586604,12.93995563,-21.27040758,0,-205.010266,175.9477239,-335.2566585,,,,
462.5759997,1806,105.7401547,188.2744558,40.5680094,98.17572427,-163.326233,41.49445842,-395.8304427,-26.80432815,-27.64187799,59.79758757,-68.98882615,-21.78742531,0,270.6349839,207.350444,598.1178316,,,,
462.5839997,1806,46.15658761,-30.29516756,125.4843833,-289.7562251,116.7291756,-21.20556298,-80.26319179,-332.2917789,-51.26862038,70.79342972,172.63882,122.0195724,0,-52.20698055,-403.9690893,-401.3073559,,,,
462.5919997,1807,-104.2726524,-8.732490912,-135.4177496,285.6261859,-14.88019725,-0.725331777,611.5030992,555.4222695,111.9971101,-87.15451882,-115.2392182,-101.6951748,0,-70.2084953,496.9963704,121.0504248,,,,
462.5999997,1807,189.0290346,183.7316857,169.4205679,-184.9926888,-102.5204589,37.54522491,-794.985053,-543.7954225,-131.2998812,151.3441313,76.69662586,93.997407,0,303.7316775,-277.1069604,376.1707526,,,,
462.6079997,1807,-106.0576817,-133.8458518,-17.05490316,-57.07814221,190.5583013,-19.60593881,671.7839817,170.8409983,73.19063793,-64.14861644,86.42639799,21.5835102,0,-293.5823235,-30.9321291,-612.2262373,,,,
462.6159997,1807,74.35520584,206.7507341,-25.99589411,276.5522385,-189.1064198,58.5163374,-191.3677935,181.5466442,23.61151138,21.07217751,-142.7457818,-73.87214137,0,261.5135996,469.6075251,755.0597495,,,,
462.6239997,1807,115.4019167,6.269885515,215.5734858,-400.0144154,138.2884681,-0.189366294,-345.3622554,-624.9962675,-94.08052702,135.1380869,255.0411986,199.0637764,0,12.8733501,-623.8012855,-419.3690686,,,,
462.6319997,1807,-133.2055355,-24.22633234,-155.0293902,367.8766347,15.92491661,8.237756178,838.4632703,683.9529631,154.508452,-111.4106358,-123.0860422,-106.8295609,0,-122.0664844,596.8637513,64.98537149,,,,
462.6399997,1807,221.0422167,223.1357385,184.2847117,-162.9971362,-135.2206402,40.24723879,-902.8715496,-584.3300157,-139.0013374,180.6898682,72.92604747,106.6124697,0,378.262691,-259.6383396,509.9474381,,,,
462.6479997,1807,-100.7409365,-148.7152741,4.15884633,-91.91453152,216.8445135,-25.29609187,677.5389428,135.0034164,77.3876933,-43.77047954,132.0544248,54.7776866,0,-304.8227364,-101.9264189,-697.0235564,,,,
462.6559997,1807,54.4277657,200.2360531,-50.74251431,348.3402849,-207.2701322,50.68069096,-117.7321995,301.0618144,40.87863528,6.971311615,-169.0937631,-96.99187661,0,262.4301314,568.310622,813.7955414,,,,
462.6639997,1807,127.3079137,5.001140691,238.5858916,-444.9096995,138.2989767,-12.70401538,-435.9684032,-677.4547962,-126.4652255,144.0474432,261.219921,198.6314709,0,28.59800033,-689.3881633,-421.1470876,,,,
462.6719997,1807,-127.6561512,-13.5539265,-139.7223054,390.9912003,48.00958196,33.06661244,905.142879,772.1349943,174.4919364,-108.0701135,-108.0106274,-100.4250399,0,-145.0696988,620.3552889,27.75943248,,,,
462.6799997,1807,250.5285714,249.7013566,214.4727026,-147.2301431,-118.2507315,71.07259429,-963.6923196,-568.5553215,-123.9682045,215.6665815,101.9007411,134.7703242,0,414.4226388,-279.7674466,539.7388485,,,,
462.6879997,1807,-101.5676576,-164.7058806,6.266661509,-110.0307271,236.8865143,-23.37438184,669.4925125,133.6255329,73.55202819,-42.77201837,132.478641,47.10566914,0,-305.7303427,-147.4534466,-730.5116221,,,,
462.6959997,1807,58.80515422,208.1650365,-55.8242045,370.3717536,-205.1058619,76.95440026,-94.90859113,343.3898247,50.6893146,0.691579655,-187.0934226,-114.7295199,0,259.744141,589.3577506,836.3088308,,,,
462.7039997,1807,144.6489229,12.49392481,251.5084045,-451.9133431,137.8033035,12.26911542,-492.8457325,-719.5103384,-120.9041504,166.4641121,274.5816344,214.1320902,0,40.32008363,-730.682291,-405.2204365,,,,
462.7119997,1807,-153.1202371,-43.40725855,-172.9935155,386.5186533,32.63600285,16.59508649,940.0689834,772.9506584,171.9205416,-132.5800254,-140.2289112,-134.3924368,0,-182.2429641,628.5839671,21.84597501,,,,
462.7199997,1807,231.1295602,241.3554736,184.8596724,-160.1164899,-160.1264803,51.16284085,-967.3453661,-583.5819695,-139.5711343,186.5382478,58.68567787,94.33998799,0,395.8899484,-257.6581627,577.7158778,,,,
462.7279997,1807,-105.57804,-162.401437,2.564459768,-136.7896574,215.7087458,-34.26778337,662.3639976,103.8991064,66.36344629,-44.4704591,130.9203782,48.73772963,0,-311.698515,-159.0989861,-743.9492537,,,,
462.7359997,1807,59.64681481,219.9222925,-64.4568614,371.0539084,-221.3548614,64.32558701,-63.93295281,364.7173663,58.36003034,1.87935941,-193.7106165,-113.8554173,0,256.3161793,625.2776114,831.2005739,,,,
462.7439997,1807,149.2525478,20.37853605,248.5487114,-467.5110076,115.0411367,-14.93841429,-514.158595,-735.0960153,-118.9745581,179.45056,273.8849749,221.4648802,0,55.06121167,-728.2957682,-403.6664816,,,,
462.7519997,1807,-167.0110556,-61.55582024,-185.9340298,378.6257999,24.83151397,-16.56168787,974.0153362,782.9937758,176.6600051,-131.9483277,-146.6659601,-136.9222258,0,-185.3260824,629.6391411,-15.9389651,,,,
462.7599997,1807,241.8641994,250.0588345,189.7130077,-150.6740834,-165.1341303,48.16853333,-961.4240559,-568.7374317,-132.7419528,187.0423082,42.49912644,82.57839916,0,395.2993277,-234.1191065,587.6067632,,,,
462.7679997,1807,-93.94732481,-164.8006144,18.71035778,-149.0060613,221.9734681,-33.30398224,640.2167324,83.80215698,78.46453311,-36.62998618,136.4188488,50.14630751,0,-329.755199,-182.824588,-760.8684958,,,,
462.7759997,1807,32.85674098,181.4583016,-86.10519319,376.6780945,-224.3310453,45.80982015,-28.1337541,398.5960971,70.30725487,-18.30391333,-215.0994765,-145.8369335,0,220.0887749,637.8395471,823.1590657,,,,
462.7839997,1807,144.8349246,7.342757271,241.525364,-478.0467223,103.3289057,-15.80254952,-533.6781978,-721.7804984,-127.6989363,155.0516571,242.9447793,178.0780385,0,35.83295367,-720.3799831,-380.1844286,,,,
462.7919997,1807,-168.0370371,-67.54438428,-179.2130749,370.8376489,31.80629892,-3.639616914,991.721028,813.2629336,180.1190799,-142.9696394,-145.9318645,-144.973836,0,-197.0561424,626.2563996,-38.83367628,,,,
462.7999997,1807,226.8819531,242.976019,181.2823641,-131.3564846,-168.0379421,49.1347246,-930.6299171,-519.8794984,-128.9944413,180.0073844,37.81194942,81.39222413,0,407.2975367,-202.2187413,608.2894077,,,,
462.8079997,1807,-88.93773328,-155.5792622,24.74218439,-149.9250056,229.7501886,-27.84895965,637.1782078,72.16616418,67.42483077,-35.3226163,139.0935015,56.28138856,0,-319.110196,-180.5255169,-762.9183468,,,,
462.8159997,1807,48.07769751,201.6678152,-72.33739586,406.4232475,-200.7048855,67.6908,11.42335754,397.6336915,79.34546628,-6.920131629,-197.6528435,-122.555298,0,245.8160849,662.7342493,807.844809,,,,
462.8239997,1807,156.9418813,21.61095708,257.3375561,-454.8421008,122.2608776,0.077173623,-528.2233148,-770.7978239,-122.4170328,167.8095981,257.3625372,198.7033708,0,67.81798538,-699.3783413,-359.1968762,,,,
462.8319997,1807,-159.0438415,-53.7774357,-163.8610485,379.3543641,62.94744029,16.91773888,1018.795309,752.535436,186.5754489,-136.9542513,-135.5796481,-137.297912,0,-208.3554617,635.4129421,-54.34129196,,,,
462.8399997,1807,240.9812309,267.2577901,196.6063082,-104.1483458,-144.3629465,80.22186518,-916.3855233,-547.3806013,-108.9400547,199.4315638,53.98340252,96.30569863,0,434.2073583,-183.3631107,623.8812398,,,,
462.8479997,1808,-107.0561604,-173.0262987,21.15961244,-149.8856492,240.8501034,-27.16350878,642.0061583,61.10655918,68.05010048,-33.87254504,143.8645729,57.95460464,0,-298.4102083,-191.5016341,-756.0472771,,,,
462.8559997,1808,16.73972419,190.1836174,-94.52209516,413.0015869,-204.5819188,68.06658955,59.46185383,476.6643249,67.55971632,-39.09104664,-233.071099,-157.8699378,0,215.0158353,692.9731109,826.8604861,,,,
462.8639997,1808,178.1053719,62.10200875,275.3122385,-455.1796218,116.2150947,34.56096888,-560.7323165,-687.0266675,-122.6732978,175.7510575,263.2189412,206.3150813,0,74.39109195,-702.8809209,-323.4313372,,,,
462.8719997,1808,-147.1926783,-49.16586761,-153.9278666,388.0463856,67.34066861,28.56038954,1024.175925,866.8917197,200.0349874,-115.0116253,-98.62948754,-103.2076091,0,-198.7811534,614.6282835,-64.02005826,,,,
462.8799997,1808,231.4557782,257.6173995,175.3631234,-90.88465794,-166.5497677,58.31709848,-902.1231524,-438.6667803,-116.67583,187.5962624,37.81651256,81.90559763,0,425.9291939,-145.2822934,668.5512593,,,,
462.8879997,1808,-82.83091643,-147.6794993,41.50414055,-176.627742,232.0471527,-27.53213476,594.7884536,45.79480791,57.95477222,-26.88372477,152.0137862,63.83208003,0,-303.1179208,-202.9461903,-759.5596485,,,,
462.8959997,1808,30.41482126,196.441165,-80.733673,425.0517304,-189.5176681,69.15511237,70.85234343,436.913566,86.80569396,-8.489314922,-202.9437307,-125.242912,0,224.2156245,697.4948864,793.1090166,,,,
462.9039997,1808,165.1336162,38.02191058,255.6148357,-454.821447,120.7354682,5.41920838,-565.4340784,-797.9404465,-128.8111239,185.0737408,250.9191661,203.6346916,0,86.93669201,-681.8786737,-313.3963532,,,,
462.9119997,1808,-147.1106322,-56.53563261,-156.8257125,372.8951582,91.27916904,23.10711941,1040.757548,731.1064019,192.4755071,-117.3658049,-109.8988236,-113.3031154,0,-211.1954214,617.4499341,-103.4710688,,,,
462.9199997,1808,252.7341653,275.8607786,189.9879103,-73.35168777,-131.4300248,84.23691044,-887.4257426,-523.1247176,-94.17620306,207.4585188,51.385283,95.31765918,0,434.9795449,-130.727569,665.0823475,,,,
462.9279997,1808,-56.31596347,-130.613748,63.00647029,-175.5488636,276.31403,-5.059493117,584.8432857,-11.78562124,78.60508491,-2.698828983,179.4694877,89.31243616,0,-292.2497282,-230.95763,-768.867972,,,,
462.9359997,1808,62.60908066,230.6099379,-54.28597826,465.6075365,-147.5190078,101.0855763,110.7903387,494.8021859,122.0660376,13.65979495,-172.5025463,-94.56850256,0,238.8762795,699.0981498,795.6592266,,,,
462.9439997,1808,187.3997674,63.01343513,278.7404713,-421.3037961,136.8391381,20.40564474,-573.1499302,-714.2516229,-99.84457566,205.956116,280.1854933,235.426251,0,120.2669827,-671.6111856,-256.9244976,,,,
462.9519997,1808,-157.9382974,-66.64605074,-154.9652369,377.6299685,97.21715696,10.00910685,1062.119855,837.278396,199.8381786,-132.6273947,-108.5319353,-110.4593331,0,-223.6568408,626.7965196,-87.24403865,,,,
462.9599997,1808,258.8953141,289.4857753,199.2239594,-45.06225772,-140.5277722,91.3341738,-860.596823,-394.6561483,-81.2277104,203.8863723,46.6832961,100.1728796,0,440.9319915,-87.67942078,715.1236717,,,,
462.9679997,1808,-68.21473681,-149.4681052,51.69013392,-175.5205779,262.702339,-16.15180799,594.5613379,53.82041709,78.58223805,1.147697117,178.0769578,93.99974486,0,-286.5258593,-213.4931569,-741.8213416,,,,
462.9759997,1808,11.76935126,182.6019415,-111.6401805,462.2076802,-171.5685141,60.38650223,179.1500275,564.7052015,100.6795602,-28.35704328,-226.3813597,-143.8593405,0,200.128385,753.5650685,804.1055389,,,,
462.9839997,1808,192.5811079,74.07111459,273.3485366,-435.7763593,115.7057222,22.08391625,-582.8223135,-725.4811905,-112.4156661,200.2790076,261.1891509,221.3720406,0,123.3332714,-653.4013292,-245.7498923,,,,
462.9919997,1808,-146.6249045,-63.60095438,-149.697392,370.2165414,100.7150467,26.83858533,1073.047943,789.037429,208.1109769,-108.2342646,-87.54009246,-91.85287642,0,-213.7848905,613.2255613,-135.5848695,,,,
462.9999997,1808,249.3768526,280.0800694,172.7319722,-33.28809646,-154.301759,85.64246336,-835.3654644,-437.7616834,-81.19310247,205.3779756,28.69389857,83.9891824,0,448.216017,-50.30434898,727.5272619,,,,
463.0079997,1808,-40.08022598,-129.2160964,69.39362837,-197.3234959,254.3298058,-0.298960488,553.7174228,-56.93461175,78.15223575,18.15475213,195.7462571,109.7493917,0,-271.7589324,-225.3255687,-746.4065932,,,,
463.0159997,1808,48.53242833,206.5485291,-80.9571369,473.828569,-160.9558851,103.0919419,179.4368125,511.3108535,130.4086123,2.439557535,-177.6150602,-100.5546041,0,218.574515,758.7188143,790.4098227,,,,
463.0239997,1808,214.2081427,88.28896061,290.1205212,-428.4140193,121.3114395,44.12557792,-616.258151,-755.5632725,-92.42163541,226.3291,298.0871944,258.4839877,0,161.4732519,-644.4210263,-206.5851413,,,,
463.0319997,1808,-139.4703935,-54.0417699,-132.5512347,358.1373482,118.152538,38.34652337,1057.903607,806.8552585,214.2183154,-96.54220193,-48.80970847,-47.93746121,0,-204.8796865,593.3067631,-149.0107227,,,,
463.0399997,1808,262.7113279,309.2554543,202.4208493,-18.3863012,-132.8553102,120.1647093,-852.2109066,-345.9089051,-62.23581688,229.9124378,82.97970478,150.9637609,0,475.967067,-57.06404131,733.2115708,,,,
463.0479997,1808,-37.87230948,-120.0063747,96.87184685,-202.8404144,280.1896244,13.68127935,508.5139236,20.55397843,86.65353031,47.79994685,255.6706187,179.6449819,0,-236.2025229,-280.0128873,-772.0785953,,,,
463.0559997,1808,21.87649608,192.390458,-92.73376703,482.1655969,-153.876532,83.87266273,204.8563629,632.4402691,124.2200873,-5.938192712,-171.7681512,-81.02625644,0,212.3376547,745.8971784,755.8803328,,,,
463.0639997,1808,208.4624777,90.60819729,290.4896549,-432.4522381,104.9579907,35.89648829,-639.331247,-705.4570137,-101.6990697,225.9716516,302.6439631,280.0652931,0,160.6632495,-650.8560424,-206.5987937,,,,
463.0719997,1808,-150.3324816,-78.1072455,-132.231434,352.8080674,107.9898513,21.80095146,1066.102958,795.3648035,209.4719191,-93.34811326,-31.19232878,-20.74812232,0,-210.7616946,569.0162328,-198.9252245,,,,
463.0799997,1808,232.6578229,270.5559935,163.3927623,-5.908400748,-164.3580092,77.07501062,-805.2494057,-368.5268647,-81.89358692,200.7469814,39.33190362,118.9343536,0,471.8692313,-10.57568969,753.6128805,,,,
463.0879997,1808,-40.92527584,-133.6528787,79.68160116,-231.5187184,258.7247252,-6.618830205,508.2679944,-93.25952176,60.83629384,33.35996702,227.1857441,163.222789,0,-247.1893601,-261.5632817,-763.0096984,,,,
463.0959997,1808,33.62772967,196.5505425,-91.26784957,489.6794772,-150.5890479,94.57377419,238.5324992,550.9130393,130.0660963,12.60174268,-162.7998288,-56.19037731,0,214.1491695,766.7320705,739.5872025,,,,
463.1039997,1809,221.7044604,102.4667724,288.4347081,-428.6293817,106.4109408,41.91229819,-650.896596,-771.1705739,-98.38596732,245.2303614,295.6393272,284.8226615,0,186.1311177,-629.1471501,-170.9100557,,,,
463.1119997,1809,-129.6665813,-59.79425153,-121.2021485,338.0298019,134.4327866,43.70414142,1067.719017,775.2568087,218.4351781,-82.37347134,-29.42030709,-16.9596415,0,-224.8008805,563.1171808,-218.1016626,,,,
463.1199997,1809,264.3883735,305.3977572,185.9789917,21.93465257,-137.8732094,114.041927,-797.1676883,-299.6060954,-50.81737149,228.1988772,54.09492017,144.039388,0,475.8680878,3.151309648,769.254689,,,,
463.1279997,1809,-18.03316302,-112.474979,101.8979608,-225.3969168,281.3742429,8.406255016,478.6743592,-23.29300526,80.64149772,62.04816077,243.9298755,186.9561725,0,-224.1887777,-287.3129508,-756.2194235,,,,
463.1359997,1809,50.03393498,218.7455681,-69.00290051,513.3493607,-121.9791139,115.5106277,250.8244364,677.3100644,156.589482,24.42396458,-149.6207656,-40.22340278,0,223.3277754,763.2912946,723.775051,,,,
463.1439997,1809,253.2340786,139.0008496,330.6048164,-402.3034574,127.8627074,73.51475727,-687.3561671,-684.0645044,-70.18859331,273.1661226,323.4556443,318.6408173,0,222.4885952,-634.7866667,-145.3990691,,,,
463.1519997,1809,-136.4197091,-68.84081029,-105.9795384,349.1445896,155.7044693,37.00949694,1072.836378,817.4192631,229.7318081,-70.59877515,-13.62166023,-0.104954142,0,-203.0609893,546.0293248,-230.99433,,,,
463.1599997,1809,245.0734522,297.331242,180.661123,41.0031417,-140.7610718,93.97331409,-776.8842766,-280.7322017,-50.81819041,212.9898007,34.21912778,131.1625515,0,481.1945947,35.65649163,800.0050322,,,,
463.1679997,1809,-7.430639678,-100.6711121,126.9912711,-242.2097568,279.7818841,13.14621568,447.6437534,-107.3828384,79.60099983,71.71272868,256.6541572,204.57207,0,-229.2501319,-304.0094087,-751.3707221,,,,
463.1759997,1809,17.54240426,182.1363027,-86.30142994,517.6565788,-126.2011013,93.28565161,301.2875869,614.3288073,151.4912684,16.08701708,-157.6997236,-55.37274496,0,199.9647226,776.0953716,709.083537,,,,
463.1839997,1809,205.0866103,94.55244436,284.7510154,-416.3692597,91.31131944,20.58199655,-667.5303725,-770.8783906,-106.6679389,230.4014653,264.4336676,250.6510297,0,196.7670059,-595.8503335,-108.8139558,,,,
463.1919997,1809,-155.4912257,-87.76950656,-127.2237296,313.9311914,127.5937478,5.869340542,1088.254369,724.8255416,201.5181596,-91.36352723,-40.30830091,-34.23919364,0,-243.7089537,544.7867527,-263.0189477,,,,
463.1999997,1809,231.1087961,287.044809,158.5336539,44.0639615,-169.3309397,77.39439863,-753.8580148,-304.1821286,-60.78922987,212.1986456,19.51535957,109.9263132,0,466.9436124,56.64451514,793.729495,,,,
463.2079997,1809,-15.48607627,-106.7355585,114.9410412,-265.935488,258.0771304,0.3836392,428.2306489,-133.4363926,59.27237204,63.02539459,242.5133628,175.1799753,0,-247.4579811,-313.793519,-753.5510919,,,,
463.2159997,1809,18.86765707,191.0960164,-92.91793592,519.1565366,-129.9977545,95.81428959,322.2950616,667.5843711,153.9229538,14.44346039,-153.8838889,-62.62099531,0,177.7208636,773.3589105,687.0027584,,,,
463.2239997,1809,231.0384372,124.9054303,292.4421979,-400.6297164,94.4546339,43.95936506,-702.4509937,-697.574689,-94.50001361,253.7004914,288.5620272,270.7984122,0,218.3552295,-613.9059282,-97.15701358,,,,
463.2319997,1809,-134.5564642,-69.57038168,-115.5901092,314.099296,154.1945598,38.231988,1073.540179,806.2612144,212.0978509,-81.23265077,-12.6118043,-21.25552031,0,-250.9150268,502.9514755,-298.0698914,,,,
463.2399997,1809,240.4205581,305.7813571,158.8288192,70.83865847,-148.3096113,101.6054972,-745.6854552,-197.566447,-44.65219759,213.9231096,30.52978623,110.2582508,0,476.6956574,54.40257131,793.919761,,,,
463.2479997,1809,-4.248778979,-98.62703804,119.3467865,-265.1727521,276.1491575,4.916586019,397.366887,-110.9018857,64.10997667,69.36548749,263.7757628,182.1885138,0,-220.1252557,-352.1321165,-766.7866719,,,,
463.2559997,1809,9.947785138,177.5748318,-108.0360352,526.8566346,-117.950881,87.50943436,353.7878028,665.9946918,155.8700719,-7.60222844,-154.4355002,-83.99136103,0,158.5935966,770.8458988,653.659317,,,,
463.2639997,1809,235.3011774,134.1508842,284.2186949,-400.4586882,88.72866666,46.90838645,-718.8713624,-784.954629,-97.51175894,241.1745632,281.3811953,254.1210724,0,215.6590226,-604.1227887,-83.42487023,,,,
463.2719997,1809,-126.0336251,-68.05966197,-119.221123,298.6461219,163.478493,44.93034993,1065.59283,664.4539409,215.6403604,-78.27849882,5.863134515,-11.5449887,0,-265.3432723,478.9905517,-332.3012352,,,,
463.2799997,1809,231.3995669,290.4881232,137.0748099,90.05109228,-146.3375442,101.6682279,-723.5596362,-290.5759834,-39.6741922,206.0373117,22.04466998,97.31110224,0,460.1607582,74.60640515,799.0688771,,,,
463.2879997,1809,-8.866081017,-105.8928269,115.8766582,-271.031316,276.993406,11.27905016,377.7358563,-200.9398495,54.48764825,64.78249956,247.2727264,170.0637491,0,-210.8219181,-360.5635207,-757.6080277,,,,
463.2959997,1809,0.377304205,171.2989455,-113.8921307,533.7800612,-110.459716,99.91452366,379.7636951,675.5917931,156.0263879,-15.78727431,-169.6038668,-90.01848006,0,154.6557064,769.5924179,637.399743,,,,
463.3039997,1809,227.7588486,126.5009797,278.9073295,-385.3730658,86.69504042,51.59735713,-727.1214141,-712.4112107,-103.0875678,237.0532159,255.2981153,235.8721473,0,217.8266337,-603.9153321,-55.76329028,,,,
463.3119997,1809,-133.8409683,-78.98983975,-109.4618498,296.8560954,174.5222505,45.2949252,1075.844859,778.6658162,204.8468506,-82.15814489,-16.39795661,-31.00152534,0,-260.0027295,461.8104059,-343.9338653,,,,
463.3199997,1809,442.452738,516.651825,288.0447444,25.39190947,-332.7550948,144.2092948,-1736.696418,-652.7452603,-184.3037228,373.019619,8.318402769,151.3212545,0,918.5621739,-102.1403688,1519.334273,,,,
463.3279997,1809,214.8740364,19.28019559,360.975175,-673.2193376,232.361829,14.70784825,-716.6188427,-970.7815911,-141.9902565,276.2023481,408.4333174,336.111064,0,107.8048856,-1009.083084,-543.6480365,,,,
463.3359997,1809,-282.9905564,-126.8602067,-305.4855745,626.8121589,135.5048305,33.0494892,1689.560251,1387.123488,319.5512766,-225.0508301,-179.5054529,-177.6297535,0,-395.8135945,1006.071567,-239.1360969,,,,
463.3439997,1809,262.1245468,298.8059008,181.386153,-51.2398821,-157.4582157,74.68011542,-1006.724457,-464.3112971,-106.4213967,230.8942852,50.38544886,116.1778521,0,502.9563934,-113.1747172,794.7259831,,,,
463.3519997,1809,7.857296898,-73.078764,112.8471519,-258.3954822,235.7047516,3.874087362,250.4795797,-215.3862841,25.09053046,67.11898057,216.52951,155.7958145,0,-170.0284008,-336.4015631,-629.427078,,,,
463.3599997,1810,-93.2530159,51.18322595,-152.3025227,463.4076458,-6.882423241,59.10738124,760.3983381,724.6554402,168.3652261,-76.52731479,-148.2971371,-92.60567481,0,-43.51138253,714.6632395,231.4081034,,,,
463.3679997,1810,231.9518734,199.896385,226.9964646,-249.8697734,-42.01007205,51.59878925,-871.2445075,-712.3756349,-125.3149177,233.3880296,145.7255257,184.4250575,0,358.1595982,-398.8240082,334.3127666,,,,
463.3759997,1810,-103.0764721,-107.3958594,-28.82578797,11.16219345,217.9428324,14.55303745,786.5653592,252.2278796,127.8133843,-40.10704408,85.11017669,46.59341465,0,-292.3507112,78.11754657,-588.0520367,,,,
463.3839997,1810,78.5970013,203.5615531,-13.83770645,311.5242698,-100.7384354,90.16012091,-46.50321355,252.6980635,63.52829546,53.06388291,-95.5157962,-22.42854386,0,224.3730145,433.5576938,600.118551,,,,
463.3919997,1810,146.6990384,67.28065609,214.5385448,-317.9720684,129.8051447,29.53758911,-425.7169975,-539.4393797,-62.21469957,178.5117943,229.554903,210.317869,0,96.38248129,-507.1648535,-214.4333898,,,,
463.3999997,1810,-138.0906976,-53.84004189,-124.326621,298.8491106,123.3391336,24.84798325,929.9138123,712.6501061,169.9256003,-85.35455624,-62.5778847,-45.51876107,0,-210.8039716,469.1666398,-212.1113272,,,,
463.4079997,1810,192.308808,240.154128,133.0840647,-2.454023861,-117.2284628,61.88300426,-699.6600575,-250.1648476,-81.1161173,186.8522032,9.282338017,89.82448595,0,398.767545,-53.50605882,625.5925085,,,,
463.4159997,1810,-48.20228897,-113.9656932,65.53494371,-215.3668305,241.3854217,-9.119066793,429.6813832,-23.52498175,45.21800225,46.02326477,175.0078818,126.5607362,0,-234.0953532,-279.9288974,-689.7545831,,,,
463.4239997,1810,5.29993098,163.7504714,-87.14299917,428.8672335,-100.0667353,92.72330623,287.9017613,574.2145322,107.0905722,-3.770569032,-172.1221637,-86.38984915,0,122.3854683,619.2933438,528.180104,,,,
463.4319997,1810,207.3322226,128.5866692,260.1235416,-342.0499473,71.25142128,54.01024501,-676.2027436,-673.0700448,-100.5909964,229.4002623,218.6403932,219.907838,0,193.5777641,-577.4632636,-71.53749478,,,,
463.4399997,1810,-138.4878945,-84.10523605,-95.70481777,250.243264,161.3531688,28.57506394,989.428213,617.9333851,186.3747446,-62.87766286,-14.78132756,-15.31373712,0,-273.8357603,369.4560748,-388.3855267,,,,
463.4479997,1810,211.6301677,288.275064,137.2803902,109.5678012,-151.5276431,101.6942144,-674.1554629,-221.9357135,-43.4963192,191.4613391,-21.71260335,72.6203795,0,422.2062078,69.1116132,730.8663514,,,,
463.4559997,1810,-13.67471779,-103.2385186,124.0853668,-283.4443489,251.5326904,0.627693246,277.5790996,-250.2512433,37.81881624,84.44764395,223.8492701,169.1408674,0,-196.1080401,-427.3658318,-745.6506888,,,,
463.4639997,1810,-47.91821855,119.3808586,-131.5111604,487.4442449,-104.5022593,62.25017081,418.5762752,644.0174669,142.8791457,-32.11541459,-199.4308281,-113.5026358,0,96.96386887,690.6911176,502.2428072,,,,
463.4719997,1810,227.4850662,52.94436194,366.1483432,-673.6958989,175.4702648,1.322759503,-897.3122295,-1108.069882,-169.6796454,275.6384284,360.1630964,311.8577124,0,128.2190753,-1068.902153,-479.7507376,,,,
463.4799997,1810,-340.3724079,-470.4274271,-61.37790909,-270.3940888,592.540302,-82.51175505,1815.671373,456.9416201,225.7376629,-155.6030657,263.4529482,106.9154226,0,-900.6350274,-308.917437,-1957.201095,,,,
463.4879997,1810,-160.4667195,-85.76646759,-118.1261573,235.8819751,145.0691698,14.63484197,975.0943881,654.0201344,176.7365077,-88.68257719,-50.80767042,-44.43524117,0,-273.9680395,372.3564783,-363.7734753,,,,
463.4959997,1810,29.69902182,-10.83429755,110.8273485,-194.7289878,150.4451364,12.60404774,59.02866813,-187.7979319,11.04174153,87.97048329,140.6178586,124.1565482,0,-75.24339708,-308.9207576,-399.7152216,,,,
463.5039997,1810,57.93176792,206.1738609,-35.42529898,344.5872168,-133.1913627,88.6479554,-31.27641553,344.7592117,71.82224244,51.41052888,-148.6718119,-50.0252885,0,220.0277016,453.1898139,604.6180895,,,,
463.5119997,1810,118.0818744,73.22245926,181.0168996,-241.880072,95.61431974,41.49007096,-364.8808484,-448.637838,-36.79989272,165.7710164,159.5146044,158.2405297,0,89.62801957,-435.0717852,-202.116985,,,,
463.5199997,1810,-119.6226825,-57.45887382,-80.74512949,185.2200912,112.8063031,16.14162699,693.639001,440.2852176,134.3956033,-43.12433613,-47.58853328,-41.41973661,0,-180.4899899,265.7169338,-270.5105391,,,,
463.5279997,1810,160.9849583,253.4132697,86.53148827,113.026451,-165.3627864,73.45623868,-630.7161451,-162.1253929,-54.29993058,146.8769677,-83.56198565,4.682812298,0,382.6600807,92.75368382,713.5063367,,,,
463.5359997,1810,-37.32435309,-112.0365965,95.23699805,-273.5624399,240.1195946,-11.05532422,281.2100221,-195.0608384,24.32719834,55.28927393,178.2377323,116.1931379,0,-223.0432288,-414.853647,-733.2187182,,,,
463.5439997,1810,-43.93448989,128.3913963,-135.6378127,446.2495492,-133.0631422,60.47351625,277.1595027,607.7353749,108.4622803,-30.84859427,-221.0225397,-140.9069837,0,113.4800706,639.2820273,566.107655,,,,
463.5519997,1810,173.0867452,113.0396463,216.3476251,-319.2122206,27.54884551,40.36978249,-710.3950802,-601.8364371,-104.9576845,190.9669015,157.6458083,148.0452751,0,184.2201573,-535.7494922,-17.09492698,,,,
463.5599997,1810,-147.9388456,-105.3301099,-108.3198959,189.0201213,146.1981913,21.05429216,883.6669259,591.1097881,167.2040202,-82.91252459,-29.2571551,-52.41597641,0,-278.4974479,298.7534178,-412.8853865,,,,
463.5679997,1810,168.0333984,257.0114858,62.42047673,156.019403,-190.6194908,80.31870996,-626.5872303,-72.82052713,-35.18030285,137.8978613,-90.34346893,0.715094991,0,401.564109,164.8185822,790.9784629,,,,
463.5759997,1810,-4.518015781,-101.3203372,113.5191164,-315.0882775,230.6124862,-0.984150283,177.0037215,-290.3995342,16.56547555,74.22158981,208.1555857,145.4384344,0,-183.4157918,-468.4040012,-722.0824068,,,,
463.5839997,1810,-52.18036979,118.3835103,-159.7950469,498.4954249,-114.2384872,75.39539343,442.0736025,659.4378143,152.2139648,-45.03396211,-208.5313622,-129.033632,0,78.87992968,722.1095997,494.7832625,,,,
463.5919997,1810,226.3686407,159.440461,237.3670267,-314.7516267,14.74354379,47.2824671,-825.6176714,-753.3331986,-104.2832045,230.586051,179.3235197,189.824283,0,247.8397051,-552.0958242,48.71857481,,,,
463.5999997,1810,-135.6362066,-98.9236144,-109.618831,199.5270133,170.1561283,20.16718078,947.4792389,525.7791973,188.5441709,-67.80697482,-14.46068119,-24.63707414,0,-294.9334133,302.5357388,-477.4182198,,,,
463.6079997,1810,178.0096381,274.1014103,51.43489993,196.2233528,-194.8509428,83.79398198,-602.4060811,-80.38617564,-17.5419718,158.5911356,-91.60399599,20.28554668,0,417.7397991,202.7693435,813.7897747,,,,
463.6159997,1811,14.04004546,-83.99546736,117.3753666,-328.1695176,223.3483843,-8.020918906,117.7237149,-327.3763607,10.66782402,106.8573353,214.1764711,169.8748464,0,-154.7306991,-502.9715134,-707.8898758,,,,
463.6239997,1811,-73.4694884,104.5730924,-184.6132796,509.8846728,-114.0560648,56.45119338,518.6269665,769.5743944,158.6060747,-50.26052736,-230.2597708,-141.0901809,0,47.01315866,748.2767155,469.6973405,,,,
463.6319997,1811,214.2270771,154.7306369,224.5067974,-321.2121323,-7.646989752,27.47464223,-864.8158437,-676.382524,-120.1472603,229.682879,159.9698588,179.5489445,0,261.9146039,-547.2700436,111.1227346,,,,
463.6399997,1811,-157.0315617,-117.5034577,-117.4615818,184.2794088,172.5508406,10.99639418,979.4546611,606.2753914,179.2351693,-80.25963115,-16.72693104,-28.88928295,0,-305.5698458,303.0942201,-489.3467815,,,,
463.6479997,1811,165.3426665,270.0018939,50.59254242,203.6995366,-193.3757364,83.58333777,-576.1835137,-17.51677275,-24.9820361,145.2228783,-104.2816631,7.40195762,0,409.7874928,239.1952785,846.2439478,,,,
463.6559997,1811,13.62148635,-86.29672093,132.2348503,-342.4454167,239.6952688,-7.405951674,94.8710735,-362.7136287,-0.79284648,105.4147716,218.3272494,171.9598434,0,-146.0617779,-506.073285,-683.970158,,,,
463.6639997,1811,-80.41945569,90.14494162,-183.1670769,518.8787493,-84.49363184,63.86558498,563.0837823,735.5004667,161.0728464,-62.24609411,-224.5677622,-140.0449425,0,48.12478431,759.8040568,447.8258234,,,,
463.6719997,1811,221.40351,159.7353483,227.5009803,-315.0037806,0.325855148,37.12578333,-888.2906653,-751.9804937,-127.6331114,219.8929056,148.1584858,172.6173452,0,267.3411849,-538.7582359,137.5105486,,,,
463.6799997,1811,-160.2228228,-122.3399617,-120.0084241,166.1099171,184.5317732,10.4837495,970.0336475,533.993912,171.7234965,-87.47512973,-21.0361842,-27.36174445,0,-328.3294917,277.0569646,-527.1099521,,,,
463.6879997,1811,144.5280876,249.9011228,13.11874626,208.1989846,-202.12661,60.11273928,-560.5815086,-9.656796663,-32.49059131,125.5805968,-128.5282978,-11.53751916,0,404.2501212,242.2218061,831.7025847,,,,
463.6959997,1811,-1.023654181,-106.0497133,95.21106885,-373.1687089,217.3756805,-41.63694234,68.83758619,-352.5776767,-25.99286829,77.39034115,184.1320209,137.0926303,0,-165.1678936,-527.8488508,-691.387254,,,,
463.7039997,1811,-85.40740717,83.0484675,-201.7169737,499.1617885,-92.91342155,52.62562236,583.5915232,807.0167251,153.2615866,-79.13075391,-235.2503638,-153.2480659,0,1.674325336,747.7839506,400.9053396,,,,
463.7119997,1811,219.6662544,155.6497979,211.5982319,-313.2530842,-11.0003208,17.29015775,-898.5719319,-674.101131,-126.6586221,222.2983262,148.1469356,172.521051,0,272.0778639,-533.2167993,148.829879,,,,
463.7199997,1811,-181.3563753,-150.1890082,-143.1077199,136.8180831,183.7654074,-31.35875232,978.0388592,562.493875,161.4326422,-102.575009,-33.10252861,-49.15135389,0,-350.983418,268.1705004,-545.2726695,,,,
463.7279997,1811,145.0147647,259.9454373,18.04274974,212.3572923,-194.7298144,59.92350301,-540.6328028,-0.385585136,-28.29846977,118.0602081,-132.2539236,-21.72464115,0,369.8059938,263.3278016,831.7484548,,,,
463.7359997,1811,22.92954358,-78.8697266,133.3619875,-368.3717545,241.1819542,-27.01448654,37.30293055,-433.4997299,-8.945819063,104.9732091,222.0209086,171.397381,0,-153.2604783,-540.5938117,-678.9345923,,,,
463.7439997,1811,-98.44247532,69.59514016,-197.7573517,503.8065735,-73.01115138,33.81760132,617.3522134,722.9740418,166.268753,-77.46585951,-220.2595346,-147.2893016,0,7.758757026,755.3941657,393.7338797,,,,
463.7519997,1811,203.9393522,147.0697424,207.1955018,-304.7979131,-22.43982083,-3.003494862,-903.1493405,-765.1728422,-129.8020248,208.2220185,141.5879105,156.7458578,0,283.833834,-511.443106,189.7039629,,,,
463.7599997,1811,-185.0976035,-155.4555688,-127.72916,114.9578209,182.5472412,-38.41011917,959.8221282,479.5234836,159.5969444,-114.5401341,-11.0844223,-38.11754528,0,-348.8994862,250.8658446,-553.6407076,,,,
463.7679997,1811,148.4062807,264.5344707,26.16981636,210.0117025,-200.4284182,62.7239481,-537.2361052,21.89171713,-22.56074645,100.9368219,-112.9826911,-5.611638655,0,383.1210096,275.4649569,835.7243514,,,,
463.7759997,1811,37.18670202,-69.9601435,146.8202759,-385.4944438,231.7055998,-22.49334681,-16.87857881,-387.2810338,-11.91089615,108.3226195,258.9234913,209.7193321,0,-134.1038811,-568.8911721,-672.7965424,,,,
463.7839997,1811,-94.44358552,73.48972527,-186.369769,485.7499297,-66.87888661,43.42025622,608.1838564,828.9966244,168.8441466,-76.87504814,-177.629235,-96.64922852,0,-9.48955162,727.1430872,352.9805261,,,,
463.7919997,1811,226.1035361,178.7065318,231.8019701,-305.8176157,-16.80496956,23.66566774,-943.7808497,-664.5330007,-124.9353713,217.7117346,181.7276172,214.6201392,0,301.8054023,-527.7697087,189.7607306,,,,
463.7999997,1811,-164.638252,-142.3835846,-99.66485512,105.8476421,200.9004861,-13.92842624,923.5752693,507.4460242,168.5313201,-88.65195226,42.48885668,26.92172592,0,-328.6138382,204.3275651,-588.9392903,,,,
463.8079997,1811,135.6366293,241.8159996,13.88974585,226.2610934,-204.0880468,61.06296521,-520.0605639,30.99690464,-17.42795583,104.0138437,-103.7913653,16.62321716,0,371.4337353,277.6927434,823.7021922,,,,
463.8159997,1811,19.96040246,-94.2429712,129.3975749,-394.3071722,207.7904765,-38.36406377,-37.86394577,-470.911044,-32.98625614,93.38824925,236.4242689,197.878455,0,-142.3394126,-580.9992286,-664.1571674,,,,
463.8239997,1811,-106.4260516,63.38159132,-187.8382477,483.9583654,-79.45368438,52.130417,628.0340161,734.4300407,154.8387138,-89.45854917,-197.6984645,-109.7130274,0,-18.0627677,721.7087395,323.8543948,,,,
463.8319997,1811,211.4030118,169.7735892,226.0005058,-284.9480701,-41.21270087,30.2591065,-948.2338227,-741.5543348,-134.9799536,219.3279344,158.3309887,204.0506083,0,313.9437984,-516.9033876,203.2481001,,,,
463.8399997,1811,-202.8149757,-177.0539815,-123.4593222,96.30681207,177.6177174,-37.44610554,924.702806,448.1317836,148.8360755,-106.326567,11.08246344,-0.767682284,0,-340.4569494,194.6452698,-611.4858815,,,,
463.8479997,1811,107.4255245,230.4352179,-0.123521318,237.2128042,-222.7560507,58.01077409,-491.9830094,45.78549157,-24.87778751,77.91903535,-134.1149938,-8.40015359,0,365.3652634,303.24664,804.956231,,,,
463.8559997,1811,7.876033896,-98.22250642,132.0315763,-399.1316162,200.5122979,-37.47678983,-54.96542083,-462.4552459,-42.4732614,82.21332805,225.7354955,195.5983817,0,-126.5729962,-581.6401128,-666.7252509,,,,
463.8639997,1811,-135.6758603,32.92807835,-215.9792201,471.8490984,-75.61168172,33.93893546,666.6147004,786.2159808,150.7911322,-120.3848026,-214.7037781,-127.8205708,0,-46.73103177,730.6364128,289.2891152,,,,
463.8719997,1812,219.3062752,175.2115198,214.2779077,-281.699622,-43.20813964,40.10268069,-954.43887,-697.5587951,-127.2608635,208.069314,154.6070858,199.8484736,0,310.9755536,-508.6344579,206.6172187,,,,
463.8799997,1812,-189.9849239,-174.6200921,-118.6855441,81.8204086,190.3483353,-25.00405822,913.5017146,454.6973982,157.2182493,-99.45861227,26.67368598,11.09145098,0,-336.8370677,160.900036,-632.6975688,,,,
463.8879997,1812,96.83657299,223.3290452,-17.90553059,242.7831207,-220.9114387,52.6839047,-465.77972,87.00509221,-20.32071813,66.85540424,-145.2732012,-22.92567106,0,343.1465596,305.6024138,798.999322,,,,
463.8959997,1812,23.15596779,-75.45393005,146.2220471,-404.9955207,196.5180398,-27.67116241,-101.458142,-478.0744267,-46.0539855,93.16176197,231.7607101,199.6640578,0,-121.6283686,-619.9202052,-671.9563681,,,,
463.9039997,1812,-145.674051,25.47617727,-214.6756423,475.6132836,-77.76999814,33.30363762,680.4725194,790.1989857,148.5025281,-109.9062347,-206.9024347,-123.1411832,0,-44.85843788,697.1802528,251.7637264,,,,
463.9119997,1812,196.8999036,157.4603707,189.8448586,-272.7150414,-76.97013461,21.43617807,-951.1445853,-690.0796065,-149.0085181,195.0270684,128.9950437,177.3577329,0,302.2273886,-506.9985172,219.9317978,,,,
463.9199997,1812,-189.8418207,-171.1823036,-117.8526684,59.45792056,164.1329116,-26.81948113,895.079775,415.2836379,132.3592405,-110.8748264,21.08735276,6.877705747,0,-353.343516,135.3112472,-662.8906804,,,,
463.9279997,1812,89.68434476,223.7406868,-21.92077058,251.758584,-238.6742171,58.4909345,-443.7790383,79.21681849,-23.26283971,59.23972341,-141.2910373,-17.22677489,0,342.1395588,322.1835706,781.901289,,,,
463.9359997,1812,7.355048976,-97.8404404,131.6276434,-413.7465276,178.767829,-49.08182729,-114.4338833,-531.834652,-52.666372,84.55263778,234.846404,199.6129037,0,-120.0858303,-617.3788349,-662.6189231,,,,
463.9439997,1812,-311.0706821,-130.6719018,-342.7167911,562.4451297,20.4360947,-21.48438268,1384.734093,1148.048671,240.1296963,-237.6796937,-246.0617215,-192.6661287,0,-314.149085,909.5867943,-122.8098809,,,,
463.9519997,1812,34.98880707,-69.44439441,150.2350591,-424.5846444,181.7945098,-45.65551033,-201.9600898,-547.8806629,-80.36298638,101.2766788,226.3169385,201.8542084,0,-90.14017798,-657.187566,-633.1943681,,,,
463.9599997,1812,-210.5052506,-430.6282908,88.6382504,-650.3813615,563.2150396,-125.1081202,958.2144246,-332.0627536,53.35213121,-36.96519921,404.3447811,250.3491867,0,-712.3944797,-897.4176423,-1974.539345,,,,
463.9679997,1812,-135.9261904,-106.3393362,-86.57753773,43.56678219,113.6419662,-34.43541453,584.2187683,273.0314177,75.73229547,-64.38838265,3.25575174,12.79198179,0,-212.6681177,87.30721017,-420.0854529,,,,
463.9759997,1812,-26.93791494,-64.28164503,47.52211759,-189.168234,141.0872123,-26.92283899,140.324965,-150.0513778,-7.127696766,28.81817158,118.3173852,111.8496866,0,-132.8576832,-294.8748904,-493.5835784,,,,
463.9839997,1812,1.290267869,145.8480673,-101.5574019,354.4056473,-159.87487,43.92824228,40.37525595,401.3829312,41.95286222,-11.46099781,-169.773258,-67.65428887,0,168.1681362,473.452779,549.7805265,,,,
463.9919997,1812,95.3286684,60.1919518,117.9103878,-216.2902785,3.154236438,-1.777102289,-489.5955396,-446.5240984,-92.53098772,118.8194795,110.5372525,137.7133738,0,120.2209042,-384.3063659,-42.45114235,,,,
463.9999997,1812,-145.8092334,-110.615883,-99.60882621,76.70203764,109.2029447,-12.80962434,678.3440285,338.0374528,87.00156946,-91.15108801,-21.87766424,-11.45163076,0,-266.9054897,157.9898226,-446.81697,,,,
464.0079997,1812,121.6040404,244.3493668,6.518841358,223.1790096,-243.0688925,66.90561958,-540.4030035,-1.899814411,-56.28797762,76.61786326,-142.1293754,-16.13273635,0,357.4470347,273.354755,802.6086508,,,,
464.0159997,1812,-17.40968419,-113.0255967,100.7910598,-348.6787557,185.1436488,-38.57745774,51.31257365,-396.3261447,-35.29282987,66.9086099,208.8274831,175.1281831,0,-159.0154886,-518.240464,-688.1262249,,,,
464.0239997,1812,-100.8082328,59.79246677,-180.1336274,421.9973341,-121.6402249,31.65674167,465.4960379,621.7707972,94.07327734,-92.90070558,-211.8543093,-120.5636007,0,8.31118909,641.0148623,359.2691742,,,,
464.0319997,1812,161.5061372,137.7649045,167.6131675,-236.1607822,-72.10697584,13.16324403,-822.053081,-610.8167919,-141.9216862,156.1329585,92.42816193,144.5416721,0,246.6644651,-408.7442649,203.8957216,,,,
464.0399997,1812,-181.8325943,-167.6607065,-102.4276642,25.38728035,154.8759701,-34.1727684,768.2345542,323.576168,103.3820644,-98.0936537,11.01501163,5.368602068,0,-333.096868,109.0237046,-598.7432954,,,,
464.0479997,1812,82.8469711,218.0471892,-34.59225091,265.2853048,-239.6419419,60.77675228,-429.5277561,112.6621992,-36.80095254,43.19066999,-183.0948152,-50.68581871,0,305.8401738,359.4454138,807.2975958,,,,
464.0559997,1812,10.93263396,-91.79804654,126.2229337,-401.1725068,165.3044484,-38.56394018,-142.6641033,-503.9741369,-72.60560453,80.60958677,189.3639365,169.8744157,0,-119.5848496,-595.8859912,-601.5354197,,,,
464.0639997,1812,-140.5763491,19.3794117,-205.3371738,435.1580596,-85.30161432,29.22797625,644.0135247,730.1588513,119.6213679,-118.3337167,-228.5125593,-139.4322751,0,-55.2659938,657.7608659,236.4312192,,,,
464.0719997,1812,204.7112335,187.5841933,188.5263504,-218.5578108,-97.5681478,40.03666926,-939.1807842,-627.9090843,-150.2416574,192.4497406,86.60885021,154.1880201,0,317.2660973,-438.5710391,299.0712288,,,,
464.0799997,1812,-163.8274219,-157.1110638,-91.03942632,13.12013482,165.470049,-23.35352676,773.8624546,320.099913,107.2928792,-77.88490276,25.91440754,21.5343755,0,-338.4070489,58.60030381,-645.8575796,,,,
464.0879997,1812,83.91601318,223.3836579,-45.83245888,292.786301,-244.5785053,59.29302886,-374.5962724,174.1025438,-23.56096842,47.05925385,-183.64169,-49.86910348,0,303.8419523,386.1909006,795.0221192,,,,
464.0959997,1812,35.74604057,-71.99034891,142.8880501,-424.5937475,149.7006899,-47.19802715,-236.291152,-573.4932105,-90.6221718,107.0795946,209.9362687,187.9326857,0,-86.61580107,-644.29125,-578.8213088,,,,
464.1039997,1812,-163.0070438,-3.76491025,-221.5394094,429.034145,-75.74334441,8.829567968,733.4021104,732.4890978,118.177764,-136.4574487,-229.7202572,-148.0901242,0,-111.76452,671.9880703,158.9231404,,,,
464.1119997,1812,209.0893118,194.7116113,188.4236289,-218.2494439,-117.3622008,27.89693377,-976.1647939,-689.4300995,-165.8910057,188.3268372,76.79296126,145.0763691,0,327.2785772,-420.4853817,333.949908,,,,
464.1199997,1812,-180.4227106,-183.3382245,-91.81751059,-8.913115658,170.7551441,-42.66279665,787.515713,247.7802293,95.89051083,-86.43424863,29.19314521,10.66871007,0,-354.5989688,41.02750531,-686.1338918,,,,
464.1279997,1813,58.7565031,196.9296641,-58.79214082,304.3048895,-251.7509747,39.99683172,-331.8930637,169.7022126,-29.14108806,22.46934158,-210.5817329,-83.59908023,0,280.6782998,414.1682114,794.9640386,,,,
464.1359997,1813,39.15766412,-79.7459867,146.5803981,-429.5028755,138.1868167,-60.20458014,-267.7789222,-591.6716007,-103.1902377,100.1508654,192.3656696,168.8374715,0,-73.02189699,-655.6417451,-547.3768395,,,,
464.1439997,1813,-177.21864,-35.78933568,-236.4910689,423.2005791,-72.85687428,-3.183137871,788.2919536,796.1669717,116.305273,-155.1814289,-243.5987512,-172.310201,0,-136.8714096,673.7302288,143.7380822,,,,
464.1519997,1813,215.3592428,191.5779663,185.3852452,-218.7272517,-136.3247087,28.76170455,-985.2040413,-613.4910082,-171.6234798,179.4323971,59.14580337,120.9326873,0,319.9954182,-408.8247477,380.9385953,,,,
464.1599997,1813,-162.0841463,-177.1079099,-80.97370523,-31.3477642,170.4641637,-42.21154874,778.2791672,293.9083815,95.383877,-83.18414013,35.15483746,1.955916841,0,-358.0712099,20.28900288,-696.6276332,,,,
464.1679997,1813,74.02549562,205.7155999,-61.92651119,306.8100139,-244.9315527,42.90899889,-301.3208938,230.9139463,-15.5159269,24.18612801,-200.9162795,-91.47324591,0,278.2698212,435.9434844,789.7496221,,,,
464.1759997,1813,73.30200495,-56.88705655,164.1771096,-439.0428011,150.8561736,-42.69519762,-296.5096587,-617.0882476,-92.18958913,123.867033,225.0485683,186.1228961,0,-54.58315383,-666.3518133,-547.0737395,,,,
464.1839997,1813,-166.5636527,-31.03204565,-230.2478468,416.9089087,-44.30553655,5.722178424,817.7201863,751.8665575,131.1482753,-143.3137956,-217.8276912,-164.7399768,0,-134.3534004,668.50175,97.3938495,,,,
464.1919997,1813,207.4301666,192.19451,172.8271548,-210.7671048,-122.1262907,23.40443008,-975.2291166,-674.2706308,-169.7365129,177.9317999,53.22893084,104.5321231,0,328.4583508,-391.2176006,392.2165722,,,,
464.1999997,1813,-178.5225307,-188.264622,-86.84970345,-46.8056059,187.5342178,-46.57379897,781.4942234,196.9016326,84.89426803,-81.36109449,31.50916781,-6.577842913,0,-369.9463432,-2.835182487,-717.1674326,,,,
464.2079997,1813,42.56119522,192.3366708,-79.91666278,315.2749041,-249.7590642,43.13480466,-261.2914715,196.1401243,-26.17946332,11.86914222,-228.7607905,-116.8797955,0,254.4282524,450.0780901,788.9826118,,,,
464.2159997,1813,53.73695386,-57.06213746,154.6664255,-447.3020436,128.4833611,-40.52165371,-317.4953759,-648.0693356,-114.720563,116.1414571,192.9313643,156.5994085,0,-67.22918867,-679.383662,-515.4514032,,,,
464.2239997,1813,-193.5175107,-48.36336673,-249.9056595,403.6649737,-60.81049782,4.613444624,844.2164347,785.7158685,120.7541473,-145.2700961,-241.6147937,-189.6377494,0,-160.7591116,651.6139252,89.02608818,,,,
464.2319997,1813,182.7773213,173.1635171,140.3962729,-210.0247666,-158.3878551,14.05136948,-966.6825279,-591.8220733,-183.8020536,172.0954262,12.42580342,72.90977376,0,329.5121118,-379.5702599,429.1142892,,,,
464.2399997,1813,-182.5428921,-199.9512611,-97.33608804,-75.13231003,169.6455567,-50.81697379,765.0555154,257.7487391,65.62911189,-87.58912034,4.931377848,-23.27286192,0,-373.2718166,-28.08580077,-721.0996284,,,,
464.2479997,1813,34.4905983,177.8315338,-95.37886742,317.2944745,-260.1788655,45.56113722,-232.4689451,290.2899819,-27.56686803,8.465981269,-248.8138149,-127.2635795,0,241.6096313,462.0544378,777.3024582,,,,
464.2559997,1813,39.4619047,-76.05590456,139.1997136,-453.7140158,109.8842306,-53.5171174,-335.1775309,-637.5604229,-135.9979034,112.9600428,162.5146337,141.2286194,0,-67.90275656,-677.6806611,-504.7239813,,,,
464.2639997,1813,-195.6163623,-53.1137357,-242.3703277,392.6452236,-51.48557168,9.776538093,852.8735568,739.7069607,106.6112625,-149.5274577,-257.8888469,-190.0719179,0,-178.8169612,645.444774,53.19283629,,,,
464.2719997,1813,205.4310845,193.1776188,163.3801133,-189.6213832,-148.1999062,40.75398806,-985.6599507,-665.9977049,-176.9010161,186.4527949,23.63861567,95.32880547,0,345.4615843,-379.0453742,433.8496994,,,,
464.2799997,1813,-176.4654372,-200.6153812,-89.88048651,-80.80563006,180.1399823,-52.08669779,739.9548528,139.7328861,60.46084356,-88.6063812,13.11135657,-19.6282166,0,-371.0590885,-59.65527413,-731.8562134,,,,
464.2879997,1813,38.26568207,187.2162872,-97.74893743,328.1145739,-246.4220713,46.48837239,-216.8232817,240.8571423,-23.22207935,-9.049981952,-252.8326392,-139.9422696,0,231.554327,467.5882253,776.4103053,,,,
464.2959997,1813,62.96855366,-58.09171379,153.8631868,-452.3646624,119.5513734,-55.94488381,-372.0663127,-660.0855364,-120.1169313,122.1172353,190.3561944,159.5952282,0,-43.1117508,-700.2386178,-481.6248533,,,,
464.3039997,1813,-210.0079771,-71.94951077,-256.6800636,372.171235,-44.91379598,-23.69172109,880.7593852,789.0111785,115.5397479,-163.8813068,-248.4164035,-195.4584905,0,-210.6095133,635.7483455,37.51705397,,,,
464.3119997,1813,192.7134371,195.3634843,146.6378087,-194.5267879,-153.0050861,29.18852193,-973.2673506,-580.9020139,-181.6104429,168.1974108,12.14640775,74.29014557,0,323.5162406,-354.7967403,457.8919725,,,,
464.3199997,1813,-175.0115675,-203.2846007,-83.88762341,-96.50650237,186.6751866,-44.32136127,730.7715286,170.1166015,62.30243613,-68.30448591,40.40470036,-0.674838316,0,-347.4513253,-74.49334222,-739.2530177,,,,
464.3279997,1813,10.27506896,152.9925743,-122.2461312,328.5855904,-259.2060461,39.15448516,-169.604408,276.0131541,-26.48048929,-9.963944343,-265.5859635,-154.986324,0,226.2831266,501.7292783,779.0846389,,,,
464.3359997,1813,48.19891235,-73.3566494,141.6898746,-467.6409864,96.53104221,-52.72603257,-389.7324896,-703.3057874,-152.5252166,104.3235081,147.6534975,118.0545784,0,-50.938444,-687.1344419,-450.375581,,,,
464.3439997,1813,-209.5009821,-82.70001674,-252.9030519,362.0641989,-46.7275978,-5.227703942,893.0670913,734.2315816,102.0374346,-171.0962946,-263.3297191,-213.478788,0,-206.8021596,627.237423,14.16532181,,,,
464.3519997,1813,182.5450432,172.1706527,122.986105,-182.1759801,-181.0818261,17.81954026,-961.9532376,-594.7490963,-188.778669,158.1569073,-20.09348252,43.26395971,0,332.1026747,-342.0053553,476.4515106,,,,
464.3599997,1813,-192.4055917,-227.5907576,-113.2129285,-129.3871374,150.2087021,-78.74030998,722.4011149,153.6418234,36.4802829,-105.2686652,-10.11711867,-54.97540585,0,-381.1037548,-94.18549657,-745.7904393,,,,
464.3679997,1813,12.47254222,162.4048066,-135.044014,311.83614,-291.1247546,30.43565441,-160.9805301,321.1943224,-30.37808,-43.16182188,-288.3421965,-185.2363737,0,187.9515393,500.426964,748.4661608,,,,
464.3759997,1813,63.83240265,-60.40952282,140.525958,-479.9455203,70.03161251,-68.32499491,-444.7774563,-682.9827201,-145.3427497,110.6519554,165.5157874,128.0141952,0,-48.77418977,-725.6945885,-466.7315134,,,,
464.3839997,1814,-224.31568,-103.107191,-278.9687133,331.0972556,-60.86518757,-47.90778549,891.414343,738.5874205,99.53866061,-187.7887634,-268.1391972,-224.5915879,0,-242.2871411,599.8422191,-33.50029733,,,,
464.3919997,1814,190.516495,184.7870697,114.7803219,-197.5009568,-195.6068098,10.19563573,-988.5817985,-621.9064579,-197.9565913,145.3218965,-28.19442899,39.77495413,0,305.329028,-343.5254589,470.7106455,,,,
464.3999997,1814,-170.4505286,-216.7021475,-94.15774504,-155.6795755,169.9912217,-64.5107289,671.4916435,59.65821823,33.74553531,-84.73957614,19.16426907,-26.64152504,0,-388.3848328,-142.4551567,-776.3249717,,,,
464.4079997,1814,7.570002209,148.9560932,-146.5956399,308.3432647,-269.7837427,36.79990436,-149.1302784,270.8398072,-33.76623366,-49.18403356,-300.2875867,-194.6458633,0,167.988895,501.0898026,727.6777236,,,,
464.4159997,1814,86.74223134,-42.1758081,150.1304588,-485.2080401,85.59621215,-41.56369734,-490.3969411,-745.4133683,-159.2216255,114.6500185,151.4139845,126.3974805,0,-31.88980188,-749.2522323,-457.2971415,,,,
464.4239997,1814,-342.3752982,-247.584257,-337.0426385,324.5957933,101.4159395,-60.67589559,1487.003175,953.6337757,186.8637702,-248.3789664,-228.0412011,-219.9316001,0,-476.7519611,619.1401095,-530.4864694,,,,
464.4319997,1814,82.29442566,-37.72600948,138.584085,-477.9028533,45.56913634,-59.02794612,-556.9538308,-746.4538605,-169.9377562,124.5288836,141.541748,133.6649023,0,-0.593336636,-728.0501027,-368.6856328,,,,
464.4399997,1814,-56.73024455,-359.8719155,210.7384688,-940.8168939,448.1429049,-146.19656,97.04328121,-1017.411457,-131.6413999,96.32381713,435.6076268,288.3410643,0,-493.5027968,-1382.96809,-1740.260927,,,,
464.4479997,1814,-126.0531961,-146.4951222,-88.27829123,-102.2762203,80.42726365,-62.15922815,437.7592657,64.66108868,2.498614642,-56.67809629,-28.70521172,-32.69473911,0,-241.194358,-93.69779421,-475.4563303,,,,
464.4559997,1814,-3.606418353,-70.21861124,38.04282355,-283.2658093,52.25100861,-44.68859602,-91.6469201,-347.7820654,-85.38854457,43.1307976,56.50378223,55.46547371,0,-97.6581587,-399.6525409,-381.6972334,,,,
464.4639997,1814,-67.10051015,66.26469224,-177.2941609,334.3952604,-175.2746739,30.34294425,304.2606097,494.7244599,37.43225998,-70.58955532,-259.3043436,-164.7010602,0,36.21268393,536.0492155,413.9090255,,,,
464.4719997,1814,117.2102909,91.72631946,89.00623355,-186.2471527,-91.07494421,8.761317252,-609.4297566,-458.023234,-129.4743327,126.5121377,20.01720471,62.21798598,0,169.2801662,-352.0537558,146.2344823,,,,
464.4799997,1814,-130.9517901,-145.2811953,-89.28315571,-66.82003957,106.5662945,-41.85404392,525.7298377,129.8937743,38.88380108,-59.21654341,-13.89182538,-33.30403632,0,-273.6970642,-55.34821203,-530.3243076,,,,
464.4879997,1814,44.19291726,185.912401,-115.6983972,317.7193571,-281.2847463,44.95266826,-241.1879679,278.8626509,-19.34677097,-5.88704936,-258.2944889,-149.6551504,0,227.2613537,474.7822882,783.0273621,,,,
464.4959997,1814,42.72330784,-75.3801636,111.5786219,-426.0925769,91.8859671,-64.63962501,-303.7444355,-586.7794957,-118.4888746,102.7425095,165.7169782,132.3147587,0,-83.1908493,-670.2535013,-505.6339541,,,,
464.5039997,1814,-172.9562639,-46.07733643,-247.950114,331.7957003,-102.0561933,-30.2350621,699.2398871,667.0208681,82.4128006,-145.4848638,-248.710717,-193.9742297,0,-152.422188,589.0398924,132.754623,,,,
464.5119997,1814,161.2649282,167.0668196,96.04598441,-167.1745079,-196.903049,1.546246297,-868.1927601,-514.5812871,-174.8504716,125.6219498,-16.41584276,44.14552886,0,272.1563093,-282.0915848,433.4846462,,,,
464.5199997,1814,-136.1712919,-165.1856738,-59.86726447,-160.7021233,129.7660413,-52.34718588,531.1411836,26.92324654,23.93762224,-57.66684536,51.28026541,15.54241534,0,-306.0927196,-154.4176968,-672.8524877,,,,
464.5279997,1814,24.22890935,181.816511,-118.7532362,335.3774162,-278.3543717,57.99512013,-147.9807533,319.3267539,-1.455176025,-19.23013894,-232.6059801,-120.887233,0,205.2117066,525.6178992,736.3192006,,,,
464.5359997,1814,99.55756938,-12.05371358,172.9315679,-432.7225795,63.21629356,-23.29233491,-524.9789407,-708.6100804,-144.0985835,145.6659753,209.3711388,197.9201898,0,21.54381474,-732.5305024,-400.1503012,,,,
464.5439997,1814,-182.9457454,-62.1674723,-220.9363451,330.6516617,-42.69046791,13.83036048,823.9934088,700.5442687,110.9427033,-137.3690106,-185.8124623,-136.0418033,0,-176.0298354,547.2009978,-26.00570142,,,,
464.5519997,1814,193.6961487,206.3867098,117.9210456,-116.928792,-214.803133,51.87950615,-952.9051055,-487.7377181,-166.6769415,156.7839074,8.560766106,82.32374887,0,342.7070867,-282.7795242,529.6877516,,,,
464.5599997,1814,-126.9959939,-173.7347507,-39.72903985,-164.9614117,145.8325129,-39.21211268,523.5691645,27.9121949,23.88732593,-44.94725382,81.94354118,45.66407805,0,-310.0607172,-223.9419846,-710.0012055,,,,
464.5679997,1814,13.60633818,172.6881077,-120.494091,358.5995212,-276.0830625,64.35440309,-77.89990406,395.409294,3.036468757,-44.60353004,-248.4630766,-140.4810323,0,177.1210755,559.8825394,728.7981163,,,,
464.5759997,1814,111.0975316,-4.907803577,179.8583062,-433.7407129,37.39859255,-31.27075085,-605.2057271,-726.5696743,-164.8366097,141.5268256,197.3164063,183.7090335,0,61.93394716,-735.8555719,-327.1470822,,,,
464.5839997,1814,-210.4653924,-103.0911342,-240.0810234,311.7973341,-35.86633788,-21.01028135,898.7684833,715.4035619,105.3737499,-165.3801312,-198.0729851,-152.0247837,0,-209.9944471,558.8190878,-85.65714439,,,,
464.5919997,1814,194.5339171,211.3958373,107.6522148,-111.418958,-237.3291328,33.64731012,-980.4316713,-491.3331911,-187.3574039,135.5013313,-29.76503747,59.57759818,0,342.6059302,-230.369511,581.6750573,,,,
464.5999997,1814,-139.8683397,-197.7011731,-54.45925369,-188.0960787,159.1394552,-63.25359622,517.4632319,-11.43342855,8.603523008,-51.4304612,71.2555163,44.34977206,0,-314.2083457,-236.3411171,-744.0991327,,,,
464.6079997,1814,-5.669908488,151.2249819,-151.2138988,359.195046,-263.2454985,55.66240676,-44.4556664,407.0941366,5.045640871,-58.42784592,-272.5402082,-144.4745047,0,154.0451659,584.78553,694.0404871,,,,
464.6159997,1814,124.7394378,6.135397768,178.4148984,-434.6291167,52.19510146,-17.86783806,-660.3408629,-754.179521,-169.8275791,150.9127025,186.5213756,201.1977758,0,49.29300305,-755.528684,-330.64388,,,,
464.6239997,1814,-231.2704909,-133.2258141,-259.6046426,302.4278613,6.54722371,-29.17095054,925.4040349,709.4648844,110.2654235,-165.1013456,-203.0285708,-140.3481988,0,-237.5972778,523.8122616,-146.6186684,,,,
464.6319997,1814,186.9125023,212.4896478,93.3384651,-102.2324634,-222.3075841,34.99574503,-999.1422493,-487.0385987,-189.3604448,127.4744931,-52.277759,57.97001081,0,349.9760243,-238.3934865,593.8508725,,,,
464.6399997,1815,-121.3517772,-176.3114706,-33.77654224,-199.8220623,182.0189064,-49.77886658,470.6201223,-46.05579322,7.383626634,-36.8202633,88.04294391,76.57588803,0,-303.4217525,-296.7455016,-764.6917947,,,,
464.6479997,1815,-20.09400443,137.3478982,-161.5135981,364.6762765,-257.8503934,44.91020534,-26.88710155,427.9493736,11.26794848,-58.17691803,-266.3873126,-127.9547272,0,154.2253981,571.2734325,680.4824664,,,,
464.6559997,1815,105.1126744,-12.97899966,164.7805114,-444.4951606,24.92558816,-39.76297873,-696.0038951,-757.1834285,-189.5587137,136.6023681,168.1729604,191.1624703,0,63.89534392,-767.2560192,-304.2540466,,,,
464.6639997,1815,-250.6702116,-156.3390979,-255.411136,272.5293418,-10.22137597,-32.01005821,923.2251087,704.8800174,98.18876227,-183.3369142,-205.8157576,-144.7036263,0,-251.7144925,513.4363825,-181.8335099,,,,
464.6719997,1815,152.0825305,171.6931703,90.46597102,-101.6378913,-254.6107856,34.62825555,-1009.855098,-466.7623377,-195.9851964,111.4073953,-47.43385766,61.61138021,0,344.1819639,-219.541021,585.1748826,,,,
464.6799997,1815,-204.7397028,-275.5634178,-57.75855106,-224.8602554,148.5263993,-88.06945176,458.3313184,-63.75062031,-32.33735388,-71.68066342,72.29647143,55.81326092,0,-311.9824788,-302.6587878,-790.0404906,,,,
464.6879997,1815,-136.9910541,21.45455501,-197.9548888,339.5895188,-286.2698988,13.39382586,10.55517126,435.8092968,-38.79082535,-131.2117236,-321.0755226,-189.2079589,0,115.2580705,615.1459794,650.9842761,,,,
464.6959997,1815,11.05992202,-98.16986446,172.5458875,-460.9993927,14.33231949,-29.81196694,-737.153306,-787.5513027,-237.0502671,82.47758824,146.1236571,166.9004813,0,52.69213326,-763.2141616,-310.3190841,,,,
464.7039997,1815,-381.7657026,-281.3791591,-254.0054492,257.28749,7.825570262,-32.17543309,933.3112677,684.9353628,53.37283913,-231.8436048,-217.4395336,-153.5462968,0,-255.4324316,496.6323076,-223.1293328,,,,
464.7119997,1815,-12.91665975,28.5930227,50.29834555,-105.0075784,-257.8075993,18.7011753,-983.0740252,-439.7903952,-259.4555399,34.01775927,-121.3166632,1.958078026,0,328.7940105,-194.2613907,600.6535689,,,,
464.7199997,1815,-336.745432,-388.9014558,-81.40549815,-262.6711044,155.7932625,-88.45109728,440.6238686,-70.27054422,-101.6643779,-154.3150537,5.050424917,-4.088947393,0,-347.4469007,-330.5000441,-791.8809251,,,,
464.7279997,1815,-246.2773147,-70.84411517,-221.3073735,325.9964656,-270.8684047,20.90565928,39.40045488,473.0427538,-79.40736876,-198.4784265,-359.3771303,-227.3544302,0,89.66325529,604.2901726,627.6335603,,,,
464.7359997,1815,-64.39113207,-159.3591698,148.731408,-468.3707646,7.211682504,-35.69067016,-758.9585776,-771.9042711,-280.7141247,39.7803839,104.2334821,128.0881637,0,68.50537244,-785.7619238,-295.9713485,,,,
464.7439997,1815,-407.146565,-304.9893109,-257.2929615,230.759477,10.41857626,-33.42589416,928.1765297,675.2452652,27.81829302,-268.0969495,-244.6244822,-186.9493476,0,-268.556448,464.4004218,-255.9965586,,,,
464.7519997,1815,13.89266634,52.7768543,72.37240316,-90.65628055,-256.1666005,39.62556991,-1000.02981,-438.6921289,-255.0105013,30.90987497,-110.1816735,2.968252478,0,331.7572427,-198.7182167,592.9308844,,,,
464.7599997,1815,-286.7426069,-348.4188638,-44.29313259,-257.6588422,162.1535164,-74.0518401,403.3671375,-109.9344474,-95.13198106,-126.1127166,31.80987308,11.48883385,0,-315.5534379,-356.06986,-796.5186052,,,,
464.7679997,1815,-180.4540974,-11.11675611,-189.4935732,345.3322269,-268.4375218,40.82174069,61.9847923,466.5995322,-50.00052852,-169.7284291,-340.1884279,-216.8074326,0,93.41876028,633.8686095,617.1492168,,,,
464.7759997,1815,21.47150449,-86.82388479,178.6881533,-429.835482,5.411443386,-17.90838946,-777.1742595,-782.990175,-246.4735793,93.78697312,144.0195979,160.731405,0,82.36943717,-766.4078094,-269.7783643,,,,
