Time:125Hz,Epoch,FP1,FP2,C3,C4,P7,P8,O1,O2,F7,F8,F3,F4,T7,T8,P3,P4,Event Id,,,
551.7679996,2155,1119.022446,0,37.53926946,-91.98606931,13.64034644,-153.1322703,815.9148312,-129.5387095,-89.29999671,-105.0378411,1209.148287,0,15.42323232,-212.6599115,858.5131919,-44.74184786,1111,,,
551.7759996,2155,-1714.525116,0,-200.1885633,80.09607936,-177.3577755,26.11122363,618.7185819,121.6737974,-252.2666572,68.56085811,-785.4405618,0,-7.006699371,25.92791716,78.52254548,-50.54658605,,,,
551.7839996,2155,1161.675289,0,324.4885409,-75.05842994,87.91267986,-163.9746283,853.6876883,-171.438961,-26.22954271,15.69679211,-22.19618083,0,88.69068746,-59.64201758,215.1982443,-7.31443387,,,,
551.7919996,2155,-586.5408518,0,-276.9553368,29.38334894,-140.8888614,-17.17445649,588.3270771,59.98552827,-244.0992739,-56.38169206,711.0425503,0,-43.21277941,-142.0194887,750.7528851,-62.38493624,,,,
551.7999996,2155,-633.2661797,0,164.768935,20.06035931,-41.66416057,-62.24722624,602.9474245,-16.73504019,-128.8030597,114.5671026,-1250.58352,0,56.99270763,73.81414499,-287.3736428,-15.48564414,,,,
551.8079996,2155,1135.392993,0,57.17482399,-69.34754194,12.1940178,-150.6506327,561.4323101,-119.2716169,-70.19787689,-90.19148195,1217.315248,0,12.07243608,-199.4195336,787.6786119,-60.96798661,,,,
551.8159996,2155,-1713.27669,0,-191.1783205,94.31938571,-192.7603193,12.01147368,266.8961087,128.5060721,-229.7768805,87.52348628,-769.3332731,0,13.86095926,36.42295702,-16.29904749,-77.566828,,,,
551.8239996,2155,1162.670002,0,336.3733524,-77.34713092,56.3762957,-192.8935563,421.9694692,-178.3677755,-15.06826157,17.38204206,-31.73268206,0,101.7329887,-59.80982895,83.35006308,-39.65544216,,,,
551.8319996,2155,-565.4873528,0,-256.3648319,43.20758026,-168.7525272,-41.52624985,111.4630445,69.15148089,-219.323847,-55.55079027,725.2586955,0,-13.68118091,-141.4839445,598.7109323,-104.9732712,,,,
551.8399996,2155,-630.6111254,0,177.3721476,49.96855263,-62.2964912,-69.47236904,133.1860957,11.93723783,-94.39584325,131.4545214,-1245.047003,0,130.4260088,92.95732924,-462.5981942,-60.90719764,,,,
551.8479996,2155,1182.809699,0,51.3550393,-63.07231128,-8.262358526,-157.7113321,141.2745673,-112.2935571,-55.22248394,-88.59944384,1240.032421,0,59.34117546,-181.3827144,626.5654924,-88.4672336,,,,
551.8559996,2155,-1675.346962,0,-222.8343751,87.02107879,-210.7779605,10.1701044,-92.73065796,132.3572401,-240.9976658,75.09814206,-723.4101934,0,7.086310552,39.80794324,-149.8411401,-97.87847336,,,,
551.8639996,2155,1192.579654,0,302.6882936,-79.02107313,56.12024735,-178.0631754,149.6427338,-163.3016304,-28.06010525,14.5249054,-10.34181282,0,106.2637982,-54.44933199,-45.68591995,-60.91945434,,,,
551.8719996,2155,-502.7020301,0,-297.6507662,33.24085807,-158.0345104,-22.88562305,-57.16586157,69.01496226,-225.1347513,-52.40798174,769.0968897,0,-7.721293185,-129.8393885,507.6015573,-116.9384136,,,,
551.8799996,2155,-593.7910977,0,116.1148068,25.01400913,-56.16176565,-60.24332276,61.2064998,-6.55705778,-123.4283057,126.5658355,-1219.014599,0,92.98303494,88.57416202,-519.2633962,-60.63503975,,,,
551.8879996,2155,1236.780474,0,1.871525957,-80.22840371,7.373815199,-150.7858111,157.1331791,-122.7157052,-105.6450159,-117.1332492,1246.513869,0,23.53779853,-213.4161517,610.5071191,-78.48100532,,,,
551.8959996,2155,-1638.379686,0,-250.5610854,99.54521247,-180.8699413,28.78735216,-9.143789496,146.5188282,-267.111406,61.37424188,-720.492359,0,7.340034362,30.69538357,-138.4759013,-89.74479526,,,,
551.9039996,2155,1221.062897,0,283.6376674,-68.13401319,89.96952474,-165.9754989,289.2552018,-155.352749,-35.79728253,23.12518654,-23.43376905,0,102.3305607,-41.22367589,-33.60472704,-50.47542769,,,,
551.9119996,2155,-455.1391779,0,-325.1416944,26.21053003,-128.4282678,-26.97602425,109.1476284,62.63702449,-247.2409309,-73.52040346,779.7868367,0,-24.22048437,-137.5640159,551.8540499,-100.4179441,,,,
551.9199996,2155,-594.609688,0,87.9567943,29.78262777,-30.76033852,-58.98258778,219.7358515,-2.176094888,-149.792384,105.7444121,-1242.19013,0,96.2324468,92.41767968,-485.4551461,-58.03087287,,,,
551.9279996,2155,1262.585675,0,-11.11110486,-73.34144913,32.09962704,-142.2363915,311.4009724,-123.0750746,-120.5075819,-108.6452797,1231.362914,0,29.523174,-195.1785606,635.4766377,-77.15256141,,,,
551.9359996,2156,-1625.662555,0,-261.9287061,101.4829464,-167.3722955,34.97783684,112.1144714,141.8241106,-271.8096857,63.1868925,-706.7770196,0,14.28412808,38.52769587,-93.15250655,-75.00175376,,,,
551.9439996,2156,1200.418956,0,286.8120335,-53.15460347,93.5234315,-163.271042,356.7618834,-150.9522429,-33.39170689,17.90504837,-51.38877253,0,124.5314487,-33.41413982,-18.72783011,-46.03749725,,,,
551.9519996,2156,-440.9080146,0,-307.3345382,42.03798792,-131.0463641,-20.97663883,150.6568507,70.30991731,-243.0519184,-62.29877442,776.7149665,0,-11.28871855,-126.6008321,556.8577629,-101.3246716,,,,
551.9599996,2156,-611.6524276,0,115.4335047,48.4619149,-35.72694548,-45.05215213,227.2600924,27.47267283,-131.4264423,131.5306261,-1243.450817,0,107.1526535,114.1976895,-489.1615845,-52.28398999,,,,
551.9679996,2156,1254.854342,0,25.15562524,-51.82879063,27.97095522,-131.698348,283.4012632,-85.52013964,-83.21829769,-81.23255545,1231.502295,0,52.93437543,-165.8543359,595.2288033,-90.53943828,,,,
551.9759996,2156,-1617.978181,0,-261.5551014,96.21917531,-185.7638119,35.77893592,86.38409832,146.9875951,-264.6767806,75.95195302,-675.9867527,0,22.6264056,42.85700937,-134.3848798,-96.82152537,,,,
551.9839996,2156,1210.01948,0,272.0023278,-69.12891831,74.67287049,-166.0663342,345.4156823,-157.6696714,-55.76096158,10.05781204,-38.92572457,0,117.7341569,-52.11647641,-40.01094774,-48.91547878,,,,
551.9919996,2156,-421.1457527,0,-305.293609,46.96386027,-137.7954787,-21.81935082,140.0861816,80.91071754,-249.057714,-69.30929799,796.4557275,0,-2.006206757,-134.0732679,542.201287,-109.7458678,,,,
551.9999996,2156,-617.42893,0,110.3191423,51.22809801,-43.72126533,-46.85817656,233.4488979,29.46366982,-137.8217957,125.5644218,-1238.019498,0,113.0301583,109.7507877,-515.337267,-71.23580978,,,,
552.0079996,2156,1286.024346,0,22.22428895,-59.82106646,21.57650904,-135.4941201,319.5743231,-100.9671263,-103.8424231,-105.1699743,1236.314615,0,30.99229734,-181.6587664,593.8140855,-92.78654331,,,,
552.0159996,2156,-1594.26832,0,-259.1428681,96.30230641,-194.2526026,33.89716801,125.3218868,135.0768508,-290.0020353,48.46765225,-663.1767873,0,1.897550362,34.27260635,-105.4719313,-81.85655707,,,,
552.0239996,2156,1217.278691,0,269.0905261,-74.35128605,65.28397679,-171.9632866,382.5831934,-169.5666961,-84.80289489,-12.26399119,-54.5645027,0,96.72232595,-57.39233317,-15.48013957,-29.25392795,,,,
552.0319996,2156,-391.917973,0,-315.1993775,35.99110153,-142.7896459,-30.60665204,189.1959439,68.56241299,-272.612534,-94.65241422,789.5755769,0,-28.06764474,-144.2604622,579.3731881,-92.27601146,,,,
552.0399996,2156,-618.6716279,0,91.8476287,43.86941045,-54.3410163,-61.44876483,296.1640864,7.087372466,-158.7421648,96.98435348,-1269.98465,0,113.9753967,100.6334065,-478.7868211,-54.8688932,,,,
552.0479996,2156,1293.454751,0,5.594140379,-59.80268162,17.72772079,-156.263736,390.2922647,-120.2757812,-126.641991,-135.2652431,1197.583809,0,34.4115107,-199.6165101,630.3987139,-77.48260766,,,,
552.0559996,2156,-1608.931844,0,-263.5537151,113.5674129,-178.9646148,26.91707335,203.1779006,152.8138192,-289.4272402,38.85036756,-687.205864,0,-3.23983,31.28581391,-78.33101571,-82.55494168,,,,
552.0639996,2156,1201.319456,0,270.2485817,-66.37690255,86.1534006,-176.6603051,484.121922,-159.3084367,-72.42332932,-9.912164271,-82.31330623,0,112.1875847,-45.1319876,-9.750401964,-41.14731691,,,,
552.0719996,2156,-372.0806445,0,-327.851812,29.20067874,-127.7543143,-43.72843717,285.6380105,56.44203699,-291.3437022,-116.2730796,801.3616282,0,-27.34322023,-161.4450177,614.8126412,-96.57938096,,,,
552.0799996,2156,-631.4236868,0,83.52222617,44.30085981,-38.70931743,-63.21831526,350.4173416,17.83408244,-179.0276638,77.36154552,-1277.135861,0,101.6516796,82.15697257,-448.0342013,-59.83304209,,,,
552.0879996,2156,1305.372325,0,6.944758039,-68.42508609,37.7314862,-153.8027778,428.7687506,-106.8338462,-128.6756803,-136.3035406,1189.399047,0,53.27127974,-201.1664357,642.8119379,-89.19334851,,,,
552.0959996,2156,-1607.558916,0,-275.0046874,101.1543942,-164.0117546,22.82357929,227.3828788,156.2183292,-304.6664928,32.50559272,-678.0373829,0,19.42277871,21.75573272,-59.1874539,-98.35672892,,,,
552.1039996,2156,1180.034841,0,277.3172315,-60.65330774,103.0225976,-178.1807193,472.6401478,-144.3786291,-82.46794594,-13.12744627,-108.9501575,0,128.2165195,-48.0375596,-19.98247475,-63.81039505,,,,
552.1119996,2156,-370.2843929,0,-296.6484822,44.71118677,-107.1275686,-35.36987449,253.7881616,81.87432154,-276.771456,-104.3998841,801.9366093,0,-5.687309891,-145.8294939,587.5776049,-123.561192,,,,
552.1199996,2156,-655.1852998,0,107.0783285,57.82717216,-23.89268791,-55.11338222,320.2165485,35.49822868,-166.9603611,92.7030381,-1266.458825,0,119.9850504,100.7153917,-479.9540708,-80.25324814,,,,
552.1279996,2156,1312.873896,0,21.69076787,-60.16298734,47.9383221,-161.1817074,400.4321763,-111.7120972,-132.2473933,-137.1282095,1208.278216,0,64.1248235,-203.8205591,617.8539179,-99.31909113,,,,
552.1359996,2156,-1609.132196,0,-263.9410481,117.5359151,-161.3422521,17.84593761,181.7306233,157.1324634,-308.6247854,21.07672618,-646.8742395,0,8.193303557,6.31505764,-71.22315159,-104.1186168,,,,
552.1439996,2156,1159.039271,0,294.2565986,-38.11079628,103.7482587,-173.7184796,421.7129272,-128.0704298,-70.86512061,-7.324318705,-107.7252698,0,120.096229,-41.62634485,-49.85008921,-71.71829971,,,,
552.1519996,2156,-350.2634642,0,-294.9853346,45.4431866,-109.0588295,-40.76725315,224.3699078,78.49131409,-277.8915715,-109.3733762,823.129182,0,2.239484735,-144.3436456,563.7587989,-134.819126,,,,
552.1599996,2156,-655.7403356,0,91.99925092,56.50417396,-27.68819327,-59.25944297,305.3903876,28.90477377,-192.0978117,60.42373982,-1260.939349,0,109.8635591,77.16354999,-489.8341376,-83.88482961,,,,
552.1679996,2156,1325.851819,0,25.89334022,-35.72219809,58.30333717,-147.5110958,402.9291883,-95.44344859,-128.5545167,-144.584329,1204.132257,0,63.0533044,-201.1542742,599.8346558,-105.6247553,,,,
552.1759996,2156,-1593.362052,0,-262.8179968,132.7408863,-149.6763999,37.91838842,214.2035883,162.3503237,-296.2741188,22.34886204,-626.26059,0,23.94781599,23.80741075,-86.17421341,-112.0914641,,,,
552.1839996,2156,1170.260248,0,290.8152896,-38.52973412,112.4434635,-162.2382532,469.9525155,-143.5132969,-86.25657758,-33.51230296,-99.26012156,0,105.4401337,-55.77250459,-45.07585537,-60.81958621,,,,
552.1919996,2157,-321.5979121,0,-285.2967892,60.91796641,-92.90386162,-30.38236886,270.8653587,73.72583641,-286.7429448,-121.1210163,850.5507679,0,-18.11252203,-159.2171713,590.2360653,-120.4681366,,,,
552.1999996,2157,-658.6922481,0,108.7751227,71.99821278,-13.28763541,-40.97704281,346.0873844,35.1130158,-187.4976286,74.2176102,-1252.967351,0,118.3237166,91.07965392,-473.7272826,-73.35798274,,,,
552.2079996,2157,1340.11559,0,41.05663002,-48.07244103,60.4039064,-142.9341113,435.6056411,-104.8982535,-137.3858786,-149.0067903,1198.740353,0,62.5808668,-197.5229394,615.3290557,-94.63794373,,,,
552.2159996,2157,-1597.275908,0,-261.1183417,117.9956348,-158.4997881,29.99511298,247.5013492,151.2711719,-322.1459736,5.195226094,-629.4301895,0,8.504880236,5.341453638,-61.95611482,-110.6513773,,,,
552.2239996,2157,1154.609345,0,305.0604645,-37.8724177,111.3220442,-159.9578108,531.9473882,-137.5112147,-86.70462971,-26.51877093,-129.7112457,0,119.6310284,-49.81208735,-38.92362518,-67.15868076,,,,
552.2319996,2157,-305.024794,0,-273.2167748,53.05397634,-94.22918539,-29.42705877,365.2046787,72.14623744,-272.0590557,-112.1539185,854.6366801,0,-3.947787504,-147.4482343,613.2397995,-123.1821422,,,,
552.2399996,2157,-677.0255672,0,106.1033135,66.21180839,-24.31845879,-46.18140803,460.6889926,28.48506116,-192.281599,69.35735655,-1257.954368,0,102.2502497,81.2611289,-444.1317421,-76.12761242,,,,
552.2479996,2157,1349.821181,0,49.57626689,-49.91998874,61.55742699,-145.6434664,580.9005269,-108.2769277,-141.4776168,-155.0979925,1194.507455,0,58.52878448,-202.8115407,649.705892,-97.75708043,,,,
552.2559996,2157,-1587.788022,0,-261.620692,101.67841,-152.0783744,25.60050686,409.8656685,146.3852374,-331.6320988,-9.182204569,-606.9499088,0,12.57421963,-1.599102202,5.516976504,-106.7701718,,,,
552.2639996,2157,1142.950025,0,299.3114257,-55.29801795,113.0830229,-166.3536069,702.7386929,-143.6914352,-106.250536,-46.34206065,-142.9030824,0,116.0161423,-72.53018452,23.98452874,-69.53813389,,,,
552.2719996,2157,-280.0091478,0,-281.5452719,32.69589356,-89.44673478,-33.81300199,562.7421334,53.68072693,-303.3045707,-136.4298229,854.6965762,0,-15.7207494,-178.1556511,697.9085799,-122.5001791,,,,
552.2799996,2157,-678.4180886,0,89.39865363,32.93479491,-17.94177448,-53.65646187,681.6498005,0.48500449,-237.9329379,40.73798698,-1274.87049,0,69.20619491,50.07851717,-331.4450752,-60.14166226,,,,
552.2879996,2157,1360.412753,0,41.52296894,-80.40338116,74.36522207,-155.7296267,830.8870809,-135.6517369,-178.2933344,-187.2203987,1163.513213,0,29.70844918,-238.8148247,771.918543,-79.15585976,,,,
552.2959996,2157,-1584.13127,0,-272.3956393,88.08235495,-132.8454229,20.423633,691.5843512,128.3050946,-357.2652614,-36.36548943,-618.4769201,0,5.086778473,-26.86995959,147.8940607,-83.25349492,,,,
552.3039996,2157,1118.659546,0,286.4530941,-69.87947317,130.9466258,-177.2964826,1002.611829,-161.5644813,-130.4415546,-65.94156003,-179.1842667,0,101.9795667,-82.47580187,161.658045,-44.79793661,,,,
552.3119996,2157,-283.7411539,0,-295.4477501,9.679756815,-70.55551313,-48.10568071,884.4475652,31.63978582,-327.9631631,-167.2333001,841.0705017,0,-17.13808029,-197.1787314,841.0363346,-105.4633685,,,,
552.3199996,2157,-704.5426063,0,78.48677231,20.53602331,8.000987468,-57.31251627,1022.697221,-4.798441584,-255.6420102,9.37695243,-1286.855453,0,94.27428657,34.70675036,-185.0308516,-44.67203571,,,,
552.3279996,2157,1350.692006,0,52.32291482,-81.52309425,103.0103871,-150.8619518,1174.5772,-125.1502933,-182.0632883,-200.8638435,1157.233441,0,33.74309978,-240.4094509,914.9357596,-67.44535999,,,,
552.3359996,2157,-1590.055571,0,-261.9629729,86.64275499,-113.8489727,32.14227125,1038.65675,136.9460771,-360.9598444,-41.09834904,-597.8637717,0,5.042912518,-26.32756929,290.8103617,-75.95486438,,,,
552.3439996,2157,1109.336452,0,290.9102578,-68.89911694,144.7254018,-165.8663609,1362.178376,-158.4386179,-145.2028397,-79.06828972,-178.160533,0,116.3119278,-91.99081833,306.4502191,-26.49907072,,,,
552.3519996,2157,-279.5976748,0,-285.1106364,31.25231344,-62.29785236,-38.26946658,1246.247137,45.30754995,-330.9668956,-169.3853383,849.0110993,0,-13.35438856,-199.6021276,988.1247852,-92.1568219,,,,
552.3599996,2157,-728.3468202,0,79.92291606,43.02709219,-0.516358133,-50.57508388,1388.699588,2.360811171,-255.9987163,20.5801121,-1294.414306,0,101.8095917,45.17053092,-61.3360701,-40.73719501,,,,
552.3679996,2157,1358.090061,0,51.94772896,-73.87657279,93.36661253,-149.7030696,1543.286636,-130.6928246,-202.2974396,-204.417528,1143.792171,0,45.86035983,-242.252239,1048.281822,-47.45807257,,,,
552.3759996,2157,-1587.462183,0,-251.0401503,105.4540026,-120.0481665,39.61522838,1386.417032,147.5087669,-365.783659,-30.04736004,-603.1818368,0,4.849654026,-11.8280549,429.915662,-52.11174882,,,,
552.3839996,2157,1105.343253,0,302.4244768,-58.63232417,130.4661906,-158.2341314,1687.409139,-155.8602434,-136.382985,-60.28462665,-188.4960724,0,113.9996982,-66.87648966,422.5189412,-5.412025541,,,,
552.3919996,2157,-254.0366412,0,-275.5034,26.32238245,-73.568668,-29.03310851,1542.766218,50.32001155,-332.5837752,-172.0137017,870.0466454,0,-19.9565671,-195.2204453,1111.71228,-68.634977,,,,
552.3999996,2157,-726.5803846,0,101.9134078,54.62157426,2.219287703,-27.56988623,1657.820585,30.9766236,-244.2758453,30.36395555,-1285.028386,0,97.98734898,64.0993188,45.07554346,-18.92080115,,,,
552.4079996,2157,1379.529434,0,60.81762963,-64.40350785,95.2311763,-131.8378264,1796.783018,-117.4052473,-184.6841948,-193.9145102,1159.856128,0,67.19958935,-215.65472,1142.304832,-26.79860497,,,,
552.4159996,2157,-1580.573032,0,-272.2940982,102.5736826,-123.8639146,53.08006833,1616.841238,156.6267549,-372.6532448,-44.84646393,-580.4765281,0,18.52300002,-8.097100323,533.7195453,-31.50001275,,,,
552.4239996,2157,1115.777223,0,293.4016838,-56.91807704,142.5249058,-136.8611305,1906.009274,-142.3812312,-149.4519101,-64.73214512,-193.9050368,0,104.0213586,-59.15145876,519.3164754,24.81342171,,,,
552.4319996,2157,-206.6847278,0,-284.0254913,19.20224203,-61.3597484,-17.74767481,1748.720737,37.95627825,-344.5239069,-168.6234334,885.4822839,0,-33.52553653,-185.8228843,1226.795436,-27.86438014,,,,
552.4399996,2157,-713.261268,0,82.58428815,34.14153697,-0.60919753,-34.37717804,1844.351153,2.64104413,-262.5373074,16.48515584,-1294.959932,0,68.25554,53.58909156,164.5855258,23.63371148,,,,
552.4479996,2158,1408.518633,0,56.47746821,-81.49825713,98.84676076,-147.1489876,1981.676486,-139.6087794,-189.9642281,-204.1877265,1143.844078,0,35.89123478,-231.1448537,1252.106489,7.82186908,,,,
552.4559996,2158,-1573.232898,0,-274.5766893,94.86548606,-118.238598,39.27989229,1807.640994,143.6360376,-375.2869203,-51.68903413,-584.4818547,0,19.03800841,-19.30062213,638.0736976,-11.78621432,,,,
552.4639996,2158,1103.807969,0,306.0914601,-50.89643235,150.7745358,-146.4167614,2127.284348,-148.1861921,-152.8258647,-82.27495061,-217.3604168,0,125.1871408,-65.65669236,611.2083214,42.39590982,,,,
552.4719996,2158,-194.6960757,0,-252.961161,45.23240945,-37.81823809,-16.37572608,2023.050491,52.96176973,-335.7576941,-178.09854,899.707486,0,-10.60856648,-183.1359763,1341.440288,-0.853001762,,,,
552.4799996,2158,-730.8555835,0,110.2010291,61.40807643,24.6505887,-21.14480435,2152.641624,26.91161788,-255.1503615,26.33207489,-1287.099701,0,96.03326231,72.39813161,285.2329838,53.42809623,,,,
552.4879996,2158,1420.773794,0,77.82497208,-72.97954388,117.2220531,-137.1208495,2302.573804,-140.0361953,-197.9155973,-203.4369117,1143.74038,0,52.63940989,-217.4745413,1377.162375,40.07175965,,,,
552.4959996,2158,-1564.247463,0,-265.413997,99.21917139,-102.4232302,49.03677704,2131.20499,138.1170933,-396.8369357,-63.00321779,-580.9894171,0,2.517684986,-19.97547727,792.4633203,29.92339571,,,,
552.5039996,2158,1099.466949,0,317.1741933,-49.88537778,169.4611628,-133.8192643,2443.12794,-145.8915973,-158.755067,-74.67074929,-230.9924628,0,117.8741696,-48.58680258,759.9013427,82.50971478,,,,
552.5119996,2158,-188.674309,0,-243.4800359,32.92572741,-20.73192353,-9.912157782,2295.446001,49.29547369,-337.2635567,-170.2395306,899.7048291,0,3.911130566,-167.5832873,1483.361453,22.16728991,,,,
552.5199996,2158,-773.106157,0,119.288452,50.66557331,36.50021775,-21.07047006,2363.634884,26.66080637,-259.5916166,30.30934824,-1320.754035,0,96.73283962,74.72560578,402.8969046,61.70567977,,,,
552.5279996,2158,1400.910899,0,96.95798784,-78.05477346,133.4379004,-139.9948642,2497.036541,-140.2542904,-178.4123193,-184.8634593,1125.637732,0,59.4050243,-201.4207381,1468.575203,36.84297997,,,,
552.5359996,2158,-1574.107512,0,-261.8311356,85.88653251,-87.32682409,42.80680062,2327.898412,124.3241581,-397.3556651,-62.19371323,-576.0170083,0,16.83866538,-16.61427172,902.666181,27.54543026,,,,
552.5439996,2158,1091.904038,0,305.1546747,-83.77281697,174.3330231,-155.6140931,2612.147615,-178.5620671,-188.9891761,-106.4391547,-247.9920798,0,101.7908103,-83.29713312,897.9004193,104.4784562,,,,
552.5519996,2158,-183.6743959,0,-269.3261805,-6.38070862,-26.33850963,-42.51545908,2412.122636,12.84889526,-355.9756389,-203.6675453,890.0313218,0,-26.33755387,-207.4510508,1625.059179,38.9173048,,,,
552.5599996,2158,-801.3365393,0,91.96068199,32.0446395,26.02896856,-41.57651085,2410.677239,4.058635078,-279.8561734,6.708462548,-1363.455072,0,89.65748975,48.65727308,520.5890661,60.91326736,,,,
552.5679996,2158,1394.323029,0,82.25676097,-83.31509154,119.799974,-155.2238087,2442.174337,-156.6920623,-197.3681943,-208.4148321,1108.669946,0,52.82244422,-227.486636,1584.095756,47.55366813,,,,
552.5759996,2158,-1611.405491,0,-274.2666739,94.45367917,-111.2853642,29.41793516,2143.009807,123.4573049,-382.700055,-59.51794851,-576.9326061,0,13.93364365,-17.00178187,971.0145443,11.13801319,,,,
552.5839996,2158,1034.906746,0,305.0468313,-59.24716201,148.5173232,-157.1894712,2327.077042,-159.0971563,-156.6878837,-73.15074274,-269.4125927,0,132.6081267,-49.76628352,883.4729162,55.150188,,,,
552.5919996,2158,-212.3538396,0,-280.2365811,12.42637538,-53.65284758,-42.39516558,2086.865366,32.92269549,-339.057454,-180.9210284,909.7058586,0,-1.60034496,-178.7764564,1592.714552,-9.656710648,,,,
552.5999996,2158,-835.2289524,0,67.67584372,38.17850482,2.78389694,-41.85094585,2120.06956,19.9275897,-273.4861514,21.18855577,-1356.490893,0,90.52369013,71.88023013,474.1692749,13.89153232,,,,
552.6079996,2158,1406.174962,0,68.32207367,-85.43798105,116.8530622,-151.912716,2234.335427,-138.2924422,-193.2146193,-191.5507235,1128.341374,0,59.69383163,-203.6031043,1551.520794,20.61970796,,,,
552.6159996,2158,-1613.634969,0,-296.8205381,87.75927987,-111.2675027,28.64736752,1983.023153,142.0141498,-381.651687,-52.04694733,-552.1489153,0,24.76204562,-6.796337507,965.9884967,-3.388856992,,,,
552.6239996,2158,1040.252375,0,286.640562,-75.03311074,149.1765726,-164.7374913,2222.8618,-157.4199403,-158.2546412,-78.42118465,-266.6681309,0,129.2463526,-55.37213077,874.9373044,41.27801194,,,,
552.6319996,2158,-155.1349063,0,-287.0781182,-3.003888893,-42.77086634,-47.19910301,2065.608321,22.66322295,-346.8237709,-193.4069137,956.3339634,0,0.140552557,-180.6489168,1623.373948,-3.484583545,,,,
552.6399996,2158,-811.9485982,0,58.68607302,38.03486283,9.696002586,-42.29652448,2131.223458,15.40295522,-283.1426636,11.47959039,-1328.388387,0,114.5988808,86.57439517,529.5060778,32.93747228,,,,
552.6479996,2158,1436.157372,0,68.01037504,-85.19485998,119.4402986,-152.9031255,2278.322398,-136.43731,-194.324659,-194.2889802,1147.389237,0,67.84479386,-185.7543478,1598.695573,30.4059316,,,,
552.6559996,2158,-1597.095799,0,-291.2837598,88.95154575,-110.5185715,33.50690653,2097.852697,147.5513079,-381.7910951,-43.43570309,-530.6109144,0,13.1133436,16.23055896,1019.273209,-0.943127317,,,,
552.6639996,2158,1038.947691,0,286.5909819,-68.00905295,149.2722736,-159.5683144,2363.447315,-154.9058574,-177.0219793,-77.27506138,-272.6283812,0,117.8064312,-38.44210443,943.1140044,56.2564774,,,,
552.6719996,2158,-149.6666536,0,-292.5438659,2.967982771,-37.69767166,-45.17440888,2166.833889,36.17552736,-358.7375874,-198.869914,962.4974663,0,-7.985074603,-173.484975,1695.926774,7.78796701,,,,
552.6799996,2158,-828.5679448,0,54.65781416,43.15828479,10.2536965,-42.70760684,2194.119015,34.49996226,-269.0456691,21.49042058,-1343.759522,0,127.4804367,102.0777502,570.3212788,30.17311146,,,,
552.6879996,2158,1449.701897,0,46.51580243,-92.89248844,111.6232579,-172.9388783,2311.084551,-144.0460862,-206.5559821,-212.8801739,1147.34641,0,74.23262743,-199.7325278,1653.140504,48.39426574,,,,
552.6959996,2158,-1599.259251,0,-328.5278622,75.6177013,-116.5122019,4.989159596,2084.080645,137.0874964,-415.9342638,-88.28790666,-533.6897624,0,0.905767435,-15.54727893,1087.597062,22.79333269,,,,
552.7039996,2159,1029.585992,0,279.9356647,-67.70236164,148.3982253,-180.4486513,2307.732628,-144.2310896,-174.7035088,-88.6957655,-309.7822112,0,125.1020456,-33.67342552,968.2647366,62.67004462,,,,
552.7119996,2159,-151.3293868,0,-282.8976696,6.760487264,-46.58991029,-68.63921932,2063.48721,47.73154551,-347.0671744,-191.470968,956.4103041,0,7.893267666,-159.0882595,1708.376512,6.4827884,,,,
552.7199996,2159,-873.2400002,0,62.90116382,41.27529594,-6.222999044,-64.44191614,2028.016078,35.93009423,-275.0228767,28.52732232,-1372.026859,0,128.3631316,109.5765932,557.1552861,14.68397307,,,,
552.7279996,2159,1426.322994,0,76.14994117,-86.2683901,103.7635715,-184.359612,2075.328519,-138.1335517,-195.0641473,-190.7489126,1124.78209,0,86.35598751,-178.2763067,1601.820528,15.0386457,,,,
552.7359996,2159,-1639.684999,0,-295.4514016,100.9505417,-125.1815908,6.422792476,1783.557713,154.620242,-391.9037757,-55.73753113,-540.168021,0,39.38612717,12.7269586,1011.29959,-24.3509528,,,,
552.7439996,2159,994.9199561,0,300.0793726,-43.51490509,135.3789402,-174.7222477,2036.340107,-139.2316963,-156.6136568,-60.13404727,-329.6765603,0,162.1816944,-9.21293525,871.4259163,22.91394179,,,,
552.7519996,2159,-147.6951026,0,-283.5420552,10.9678233,-59.47755509,-74.10858783,1879.750338,33.16809904,-341.2744595,-184.803903,963.8437215,0,13.94953734,-146.3277825,1633.958715,-19.38840715,,,,
552.7599996,2159,-901.381162,0,48.51686154,41.12188516,-24.56794833,-71.15544582,1821.313547,25.53563051,-286.6609177,14.53176666,-1400.17011,0,110.7901045,104.0230415,487.9455355,-7.28572905,,,,
552.7679996,2159,1428.642347,0,70.97175498,-79.54742108,88.00831176,-180.4800029,1806.235312,-137.4042795,-189.5767865,-191.9583353,1105.220503,0,82.83242631,-181.6857096,1514.419413,1.157406635,,,,
552.7759996,2159,-1635.91316,0,-306.0406226,104.0827178,-146.8700016,14.44215239,1497.623517,149.0403329,-369.7778158,-41.62993685,-530.1060419,0,54.7849215,26.03705201,909.6254078,-43.74220002,,,,
552.7839996,2159,981.5248358,0,283.1205965,-48.74777329,99.79920433,-170.5422531,1661.551294,-159.4309136,-160.4797565,-59.97007159,-342.5895414,0,174.7962244,-7.437481829,751.3443663,0.331966769,,,,
552.7919996,2159,-148.7515342,0,-296.997567,10.11248388,-93.68387715,-70.66199845,1407.108967,14.26116572,-356.7682812,-192.522697,970.402912,0,26.18140165,-161.27579,1502.448112,-44.29094291,,,,
552.7999996,2159,-917.9062295,0,54.9497507,64.92054548,-49.74977307,-59.33596662,1368.237614,14.6987572,-278.7187935,26.52377265,-1406.753024,0,124.5118048,113.8016942,326.2498779,-46.58422083,,,,
552.8079996,2159,1438.639279,0,94.77184273,-46.4695977,64.98850916,-171.6298835,1374.372916,-154.3132845,-182.8532089,-173.8809465,1109.840319,0,78.48031079,-155.3459984,1354.703434,-31.3558765,,,,
552.8159996,2159,-1642.616146,0,-293.4607728,126.0699762,-175.0732925,12.2945148,1041.110016,130.7281902,-375.7429972,-31.0623535,-525.3008445,0,43.49134819,50.02842262,755.5021223,-75.83054092,,,,
552.8239996,2159,987.3204182,0,301.4835468,-29.78203645,73.16815739,-176.9303362,1204.536287,-173.2007838,-151.6434543,-48.24208208,-356.0052573,0,169.6021298,19.41632831,580.0931747,-36.34407412,,,,
552.8319996,2159,-109.4926837,0,-278.9790677,25.89851969,-124.9155961,-77.20531429,911.0074536,-1.089830162,-350.0941999,-185.6121079,991.9172741,0,15.97677006,-143.9222631,1351.615054,-68.87607915,,,,
552.8399996,2159,-918.8761516,0,65.60772853,77.83576271,-85.27549005,-63.07999006,811.6431599,10.62127314,-279.2559739,33.55168741,-1426.380406,0,135.1174201,131.6143181,157.1803391,-74.10527367,,,,
552.8479996,2159,1460.74442,0,105.2956191,-39.95840249,35.19908264,-181.7767157,804.8105167,-146.2310592,-171.8006878,-167.2901752,1095.173897,0,115.3758439,-139.5717958,1166.190222,-66.99928426,,,,
552.8559996,2159,-1643.320241,0,-297.9641581,124.6879944,-206.6064342,-0.552416852,471.1069203,137.6984958,-369.9271497,-28.97369587,-521.6368749,0,56.00700252,52.99056335,573.1770983,-116.855635,,,,
552.8639996,2159,966.7097239,0,305.7154719,-29.19373795,52.9757798,-183.0128193,646.4177954,-163.1720906,-149.5595043,-42.44475481,-382.7467172,0,161.5614939,23.16443509,373.5210855,-80.23849537,,,,
552.8719996,2159,-95.62474838,0,-267.2680027,30.80531606,-133.9512637,-81.32402128,383.9623712,19.76056221,-340.8452008,-180.3201422,1009.025315,0,29.75862913,-135.4735072,1146.12653,-109.4817694,,,,
552.8799996,2159,-934.1709733,0,64.84003298,75.57682357,-104.4752257,-71.87879431,332.3672463,17.63230775,-280.1078213,33.18319496,-1424.88932,0,144.629298,133.4822657,-40.94183358,-105.9753547,,,,
552.8879996,2159,1470.602467,0,111.3343278,-47.02659035,14.63294387,-195.330494,352.1272399,-157.1607948,-174.3421498,-170.4455969,1088.978686,0,101.367574,-152.3819222,975.700613,-92.74655101,,,,
552.8959996,2159,-1637.416293,0,-278.5792989,137.2472608,-224.949851,-6.632418334,-15.29658917,141.7022369,-361.1941655,-23.19733189,-512.5730925,0,45.46564845,50.37742675,381.6680458,-155.5459781,,,,
552.9039996,2159,965.6821555,0,330.9700992,-11.33014985,33.00635115,-187.5446685,111.4093398,-162.660909,-140.8469308,-29.26482048,-392.1670075,0,163.9494611,32.81391681,166.6239272,-122.5365378,,,,
552.9119996,2159,-65.92507591,0,-250.4049088,39.50871062,-149.968997,-88.01213817,-195.4405236,12.02802216,-324.6807279,-165.8347212,1033.562052,0,35.94112841,-130.9476524,944.3234711,-155.3177388,,,,
552.9199996,2159,-930.3844075,0,74.60147408,80.52009489,-120.49147,-70.40718258,-265.7072398,13.67413062,-261.4429984,47.92779014,-1418.209433,0,148.9599287,146.3676712,-265.2677564,-166.9681293,,,,
552.9279996,2159,1518.625727,0,117.5302323,-60.41832656,0.955610347,-194.0869069,-178.6240269,-172.0687539,-182.8487307,-177.3417485,1107.706977,0,105.0644294,-147.3547333,769.0710528,-131.8704494,,,,
552.9359996,2159,-1590.643662,0,-287.340924,119.5890643,-230.1387348,-6.83028634,-422.7182907,138.084411,-389.1554984,-48.30356183,-473.0294089,0,43.54699184,34.32863733,228.4707374,-161.7713891,,,,
552.9439996,2159,989.7093298,0,333.9803249,-10.75963363,38.46193276,-182.6595103,-166.5052952,-153.4069679,-156.431764,-43.89769961,-396.9308513,0,169.2835576,22.82036206,23.96533203,-116.2902377,,,,
552.9519996,2159,-14.83755714,0,-234.1915558,56.10410882,-136.394129,-82.18611228,-357.6961024,27.53220174,-331.2460823,-166.0171965,1053.158631,0,47.61328218,-123.6849123,839.020113,-135.0655571,,,,
552.9599996,2160,-925.4539882,0,90.39912935,108.3192804,-101.8118975,-62.66812643,-357.5671801,46.89738677,-261.7357684,60.06283288,-1416.32818,0,152.1294166,167.8578686,-360.0888387,-151.1737082,,,,
552.9679996,2160,1541.303632,0,142.2876971,-36.56227395,24.85496776,-184.3497425,-258.5987881,-153.2105182,-170.7231036,-165.158746,1102.444448,0,112.244812,-127.2953545,668.8653549,-128.3710348,,,,
552.9759996,2160,-1569.193222,0,-273.2016288,133.2048753,-215.5460992,1.272282674,-554.4711297,140.9647678,-383.1288709,-43.63334682,-451.6140973,0,62.34731875,49.86416778,150.5492334,-159.1367293,,,,
552.9839996,2160,982.3603609,0,341.5417491,-11.11509301,41.15562169,-179.7208717,-365.5678336,-146.9071484,-149.1629342,-37.17957658,-407.8455991,0,179.5802021,46.16314672,-78.54828712,-129.5827668,,,,
552.9919996,2160,9.463930352,0,-236.355204,37.73188612,-132.719189,-83.43696216,-597.6712046,26.0051691,-325.3832618,-172.5922556,1067.037679,0,37.29199684,-118.6589759,728.5836432,-159.9399062,,,,
552.9999996,2160,-927.328883,0,75.16942424,86.41779033,-96.75630326,-65.34656301,-614.5700258,39.70096626,-279.1211575,41.27861381,-1407.076702,0,153.9884969,154.8946865,-463.4139577,-165.4953923,,,,
553.0079996,2160,1549.983189,0,145.6548522,-53.78268432,35.1774815,-188.6991029,-493.1933831,-148.0828262,-173.6892789,-168.6650326,1099.657693,0,124.8527654,-124.6299025,555.2693314,-144.4061815,,,,
553.0159996,2160,-1570.458467,0,-265.3089124,122.8465101,-199.2470488,2.620050088,-727.8459832,162.1569996,-360.5436833,-36.86972487,-433.4715749,0,63.7162909,59.15696197,40.36149644,-185.7737015,,,,
553.0239996,2160,968.1208954,0,344.2314949,-28.13997676,58.36231107,-178.1531424,-437.5840844,-144.6226505,-150.1318957,-47.03842811,-409.0673399,0,188.7256232,37.50299457,-171.8399756,-143.6167956,,,,
553.0319996,2160,28.77991731,0,-229.0373548,15.99096773,-114.9036674,-81.26189766,-571.3348046,17.7621344,-340.3134071,-189.0561602,1085.381641,0,39.50655038,-136.110679,688.1888666,-159.5265341,,,,
553.0399996,2160,-949.5933646,0,83.97215925,82.02557983,-79.77147707,-51.95191455,-519.9805406,52.33653775,-276.0943447,44.12102273,-1406.88835,0,131.7527368,152.2028705,-476.7858678,-163.6216718,,,,
553.0479996,2160,1539.989379,0,151.2537093,-59.45782447,56.34112992,-176.1999525,-322.0761632,-142.5019704,-179.3946839,-174.6340573,1095.614216,0,109.8983193,-130.3327633,558.4181287,-132.5644021,,,,
553.0559996,2160,-1596.767583,0,-275.6477423,108.6757102,-175.3258308,15.37671741,-498.9541825,167.0959628,-383.3474878,-57.00955854,-414.141011,0,63.87069721,46.15548279,79.49566603,-164.5644436,,,,
553.0639996,2160,910.3942491,0,340.5026569,-30.32473343,87.95590727,-158.9772642,-161.191995,-126.4153062,-156.504411,-49.76176173,-429.992997,0,179.0503051,37.50179867,-135.7345023,-120.339038,,,,
553.0719996,2160,8.606960247,0,-226.3993807,17.97030774,-80.33847149,-67.60309733,-238.1601771,25.95534959,-338.7312857,-194.9566054,1090.077462,0,27.57869901,-142.2272768,743.7392823,-126.7715372,,,,
553.0799996,2160,-1008.439811,0,75.6924368,76.35656677,-51.96249054,-41.56352698,-157.5287562,56.59721763,-282.682859,25.78618348,-1405.790717,0,137.2659054,138.4564623,-404.6498937,-126.4210231,,,,
553.0879996,2160,1503.620735,0,147.8607398,-69.42990038,81.66582624,-168.8010817,55.43331346,-145.1019399,-185.5049845,-191.8396153,1076.570204,0,102.0308473,-146.5679424,629.1199637,-98.87937497,,,,
553.0959996,2160,-1618.032853,0,-286.5688484,102.1352956,-156.1651662,15.45296971,-122.6388746,157.6601414,-403.1985712,-81.15225134,-414.5729001,0,33.86941447,18.15531663,176.237828,-127.8268506,,,,
553.1039996,2160,857.7461347,0,328.8177619,-36.68627721,100.7843469,-157.5144325,193.548664,-118.3022708,-176.4359923,-69.57206299,-460.8433903,0,167.5474471,21.6534039,-43.52151244,-86.73287899,,,,
553.1119996,2160,-5.201577798,0,-233.8144447,-3.505698006,-69.95541511,-61.74137522,112.4861511,40.85032078,-346.8932432,-209.9933924,1083.854947,0,20.4411765,-147.3449945,832.391915,-99.20176353,,,,
553.1199996,2160,-1036.303802,0,65.52568233,54.28737061,-41.60413729,-31.85761967,210.5493171,75.3971609,-295.2700099,9.903518611,-1413.655388,0,115.9562994,129.8817543,-311.0839964,-92.9401727,,,,
553.1279996,2160,1491.684958,0,144.9306272,-85.62732098,95.23946899,-153.6093749,445.9112798,-119.3585724,-191.1853808,-198.1476504,1064.074713,0,99.87001797,-146.4449206,729.7020811,-58.5866563,,,,
553.1359996,2160,-1619.441226,0,-294.0494092,79.32480003,-150.4268562,38.31708937,286.419296,176.6229998,-402.1668454,-80.00477657,-398.8995534,0,41.72051734,26.59434579,292.0750729,-85.56883634,,,,
553.1439996,2160,844.9862704,0,324.5595889,-58.2428998,106.9886784,-134.7561923,627.2774238,-111.3377822,-178.7708498,-69.90136015,-471.4324205,0,155.7488221,23.40249275,71.12064754,-39.94532148,,,,
553.1519996,2160,19.7374993,0,-248.426686,-28.73414219,-60.10072179,-46.54101222,581.8054356,31.70024236,-368.0408031,-234.6601316,1094.244323,0,8.848792113,-168.6403786,983.2578774,-42.26153515,,,,
553.1599996,2160,-1041.166778,0,31.1906582,16.44968729,-38.55484773,-24.66310988,682.653845,57.91413218,-335.420378,-35.14495544,-1428.289225,0,107.1793986,99.05899619,-134.5097644,-27.22980471,,,,
553.1679996,2160,1502.475176,0,113.166887,-131.9233165,97.8920166,-159.2685704,883.3803452,-143.0499392,-232.2130943,-247.5789163,1022.0075,0,65.10240521,-180.9966141,909.4110621,10.53326546,,,,
553.1759996,2160,-1612.1372,0,-332.6231452,38.13817286,-148.9409797,26.98856342,682.9657771,159.9641612,-447.1630515,-135.128099,-425.1716728,0,-13.39246624,-16.77488614,481.8469615,-23.27264714,,,,
553.1839996,2160,799.7842982,0,312.3071734,-72.69064997,111.1857231,-144.3446348,949.7830209,-97.62087744,-194.9674406,-96.44692368,-537.7112282,0,134.4973945,6.163838758,215.5070193,-6.423009914,,,,
553.1919996,2160,-8.867263973,0,-226.27368,-19.79997653,-55.46013355,-52.63804975,790.7599243,56.76629128,-346.7915181,-220.6851067,1052.887936,0,28.04753023,-149.4122651,1071.082133,-43.60514529,,,,
553.1999996,2160,-1092.020257,0,45.38259314,21.87601565,-48.59713846,-30.57182304,796.8854186,64.03602412,-328.2881148,-24.52782757,-1449.838988,0,112.0787081,116.212623,-83.19328911,-39.09607185,,,,
553.2079996,2160,1466.595612,0,138.5720321,-121.2144886,89.96560557,-163.6922151,968.8017395,-135.3690386,-228.1755842,-240.9174068,1004.200612,0,79.08710382,-173.3966296,940.6176795,-4.010203715,,,,
553.2159996,2161,-1634.304671,0,-299.5336918,58.49483609,-147.8867478,36.80656973,787.1119254,177.6603953,-429.2678647,-109.1102896,-415.6194739,0,37.69424826,6.4723764,505.7069116,-42.02221988,,,,
553.2239996,2161,768.1094542,0,322.322145,-79.11237861,103.5844585,-135.0612971,1074.156161,-105.0494652,-194.6573008,-88.29569814,-535.6846289,0,152.0403407,21.54386908,246.211848,-2.458025574,,,,
553.2319996,2161,-10.57527736,0,-225.080926,-29.22743808,-60.74453542,-45.41074066,965.5042671,54.2944328,-357.289853,-238.2866511,1067.8181,0,-9.743636646,-159.920157,1132.28284,-20.33621868,,,,
553.2399996,2161,-1106.849149,0,59.81352947,37.73473057,-37.59166177,-5.905607496,1068.921105,85.74455824,-326.0216137,-20.48746577,-1451.746681,0,87.64041467,117.1325628,-17.77681803,-10.82803113,,,,
553.2479996,2161,1475.647118,0,155.8537415,-110.5292909,100.0229297,-140.2233279,1285.417662,-129.3514084,-224.4463506,-232.2031286,1017.046389,0,70.99570354,-168.119995,1029.067538,44.72644156,,,,
553.2559996,2161,-1627.661374,0,-296.2133359,70.77004109,-152.2783388,52.28134117,1077.7184,181.272854,-436.2365992,-119.2639397,-389.0085478,0,11.26118531,-1.787871654,614.1416029,14.05521734,,,,
553.2639996,2161,769.6444901,0,332.5469754,-57.2386033,96.15496264,-116.9268031,1308.650014,-103.7832817,-202.0062269,-94.27911175,-549.6828406,0,143.9422697,20.78920963,332.1151229,53.2745656,,,,
553.2719996,2161,15.66926274,0,-214.1808635,-13.19039961,-81.66508982,-33.52329738,1029.492176,38.51908224,-357.3888471,-236.8383295,1078.551964,0,16.71274317,-151.8236367,1206.004603,31.16808682,,,,
553.2799996,2161,-1136.191035,0,63.74069412,61.04820827,-82.4729695,-0.562633611,898.7020094,83.32622753,-311.2063085,-6.570632054,-1466.994329,0,115.0852859,140.3238522,-22.20522935,1.653575033,,,,
553.2879996,2161,1466.514354,0,174.1943534,-84.29045054,50.94897142,-135.1608059,942.9305683,-124.9701773,-199.109404,-204.146006,985.8848546,0,86.90900368,-125.0265305,937.9833037,26.73751522,,,,
553.2959996,2161,-1622.809242,0,-276.7296415,87.63857387,-203.2085651,62.27926925,606.2389869,179.6887297,-422.6801991,-91.70595254,-391.0480511,0,22.90240699,40.16311772,499.3140919,0.810406325,,,,
553.3039996,2161,750.3755624,0,357.6157499,-41.20623705,52.57725475,-107.6111945,815.2258003,-96.48374113,-189.8258059,-70.89944679,-571.7713925,0,157.2941648,51.37165185,181.9962931,41.00268289,,,,
553.3119996,2161,39.47036468,0,-188.3779605,-7.901588782,-105.2518175,-33.91570516,613.3554151,34.60725053,-353.0900694,-230.1507628,1084.117202,0,21.72153867,-139.5054309,1066.729764,20.32598405,,,,
553.3199996,2161,-1128.338251,0,91.30369632,68.42744306,-90.54118,0.056937166,509.9686827,69.67816992,-324.7958738,-9.397677556,-1475.951446,0,122.4298277,147.0164578,-127.7136336,2.488565739,,,,
553.3279996,2161,1469.774435,0,224.0445664,-54.56641729,52.17119365,-139.1592082,493.8012221,-127.4291441,-179.2035293,-184.2480398,961.6623378,0,123.6801149,-93.82650761,807.8543104,4.489045638,,,,
553.3359996,2161,-1622.5242,0,-231.2455409,117.3953025,-215.1109802,39.5101633,17.81042047,164.2460325,-381.5020877,-65.75293936,-391.9890732,0,59.33293237,73.13120702,325.35349,-60.76327305,,,,
553.3439996,2161,729.569082,0,412.8575024,-1.871220711,24.63099813,-138.9774031,13.02517732,-112.5369564,-158.8052844,-42.58721337,-592.1965818,0,180.5888741,75.95606796,-46.11700649,-43.85299964,,,,
553.3519996,2161,28.77994814,0,-120.1028975,56.10471082,-142.9065288,-59.20694689,-409.7071853,51.92752092,-293.1591365,-162.7662437,1085.323837,0,64.92042272,-79.04706622,754.3573319,-108.692679,,,,
553.3599996,2161,-1152.055392,0,142.3366699,121.5635467,-143.5694402,-18.02337416,-654.8537438,87.69313188,-259.4633022,62.52924569,-1478.329425,0,175.838129,214.4160914,-522.2561787,-148.262399,,,,
553.3679996,2161,1482.921721,0,261.8592593,-26.69353615,-3.425433874,-159.3863042,-732.5357905,-123.9754994,-151.9526332,-151.7044949,972.9944823,0,163.8612025,-71.16826458,397.4233623,-123.5076338,,,,
553.3759996,2161,-1608.144524,0,-213.8670617,141.8381196,-262.5516681,28.32026344,-1208.85908,183.793676,-361.8881716,-42.60468748,-354.5840402,0,95.27468397,93.66773834,-91.34911738,-187.7178638,,,,
553.3839996,2161,751.2439329,0,419.2510995,12.12281831,-16.36445357,-134.5998604,-1151.063114,-98.05714576,-131.5861699,-16.93387516,-575.9202344,0,218.5837712,112.5492526,-482.4820049,-165.1786236,,,,
553.3919996,2161,116.58584,0,-130.2866158,45.36787722,-185.2549867,-62.88036493,-1496.10123,46.98227778,-291.3316881,-163.2303898,1144.858628,0,77.1180033,-74.21053252,357.5314669,-204.2966531,,,,
553.3999996,2161,-1092.608421,0,114.8038677,109.3448615,-181.5797611,-31.76976964,-1664.754401,95.65448379,-270.5094246,53.82468148,-1428.30953,0,169.8553395,206.4616219,-903.4767603,-239.7958459,,,,
553.4079996,2161,1562.927222,0,249.0941409,-31.02168804,-21.92934215,-169.365765,-1640.456781,-112.2463949,-142.0811969,-142.1500249,1009.95444,0,170.6587157,-60.65022942,10.39638701,-216.2280589,,,,
553.4159996,2161,-1515.105862,0,-231.4594991,141.8133901,-272.1452991,16.21624873,-2021.574951,190.4635043,-352.2739488,-27.22082814,-289.7697939,0,97.53965543,98.40798103,-453.2769672,-279.6549354,,,,
553.4239996,2161,807.1400772,0,394.6967651,20.88819785,-11.3662842,-152.2647044,-1875.111958,-86.17565403,-129.9149914,-4.574365134,-542.166956,0,208.14604,111.0740843,-833.4141771,-253.8226126,,,,
553.4319996,2161,193.5160562,0,-138.1133662,64.04012509,-157.1073901,-66.50321189,-2118.083733,62.63249274,-275.666852,-149.2041553,1198.029365,0,87.74366314,-63.43427684,39.11809287,-276.0294875,,,,
553.4399996,2161,-1049.90649,0,106.9027446,130.960859,-159.365028,-22.51778733,-2210.971351,106.19403,-239.1624474,83.86351947,-1383.478639,0,204.7438408,235.9895835,-1206.640775,-301.7226179,,,,
553.4479996,2161,1612.571707,0,227.7956829,-30.18926679,-11.3016717,-167.6734476,-2125.181084,-121.6428416,-126.9184181,-128.7651028,1033.344069,0,180.5584651,-43.24904045,-278.8645528,-267.1911136,,,,
553.4559996,2161,-1468.658458,0,-256.0787447,130.0569778,-265.4538261,23.42394689,-2464.673522,181.2457519,-354.1563952,-44.3438192,-257.234891,0,94.79534451,98.82614992,-701.4039033,-317.4275319,,,,
553.4639996,2161,811.47057,0,387.975933,14.99148887,-11.05103295,-137.5985454,-2315.858023,-85.94507926,-110.8807879,3.363315548,-553.1829497,0,241.6642291,137.0027581,-1104.229576,-305.5458098,,,,
553.4719996,2162,234.7306419,0,-141.5073839,50.60995819,-156.5214239,-63.02277249,-2554.131026,50.63151807,-266.170262,-138.3812269,1204.968875,0,110.6568113,-43.0993309,-229.603066,-331.0910003,,,,
553.4799996,2162,-1020.48866,0,86.19547005,109.2939285,-160.2463247,-29.772721,-2645.910324,80.62290563,-263.4717484,56.62783823,-1375.405151,0,184.6976332,221.8047344,-1440.579959,-340.6273032,,,,
553.4879996,2162,1649.359129,0,218.7294306,-38.6827754,-6.936629786,-177.6313737,-2554.533731,-142.5935116,-134.2959595,-147.7883029,1019.361368,0,176.0805345,-52.03629741,-520.6486061,-313.1520434,,,,
553.4959996,2162,-1423.694694,0,-252.4901006,141.6747517,-251.3986861,21.76305964,-2852.345492,183.3957028,-341.3271555,-34.23259716,-244.4548787,0,97.12667382,107.3452202,-936.7661312,-361.8437767,,,,
553.5039996,2162,836.2089583,0,385.2180098,22.86320665,4.556490758,-138.0711198,-2650.610695,-82.17516967,-114.9120109,-2.695710125,-549.6995962,0,211.1706996,129.8470276,-1321.007625,-321.8503743,,,,
553.5119996,2162,281.4737112,0,-151.3288591,49.94269441,-141.5356659,-70.44147712,-2837.799485,43.32610364,-274.0973429,-152.9760564,1227.950087,0,89.90685619,-64.20572058,-425.736973,-335.9240881,,,,
553.5199996,2162,-1012.285853,0,78.04852821,117.8483569,-144.3899116,-26.4046548,-2880.047957,93.5547662,-263.4052803,70.20164036,-1368.375905,0,184.6699674,222.9263513,-1636.095274,-348.1517042,,,,
553.5279996,2162,1666.784069,0,222.3594296,-31.12400631,16.2812891,-163.1891875,-2759.513413,-122.7739629,-140.1092044,-140.7385329,1011.477416,0,167.8612368,-50.86092172,-710.0953854,-310.2957566,,,,
553.5359996,2162,-1393.850899,0,-266.4440009,130.5771087,-233.1925963,27.36070094,-3039.481299,175.848174,-356.6106173,-46.54077633,-217.194482,0,95.03621487,91.80423754,-1096.603313,-350.7550064,,,,
553.5439996,2162,841.536529,0,357.0604462,-0.248334778,17.42938509,-141.8201569,-2787.335809,-101.5853142,-143.699701,-23.41549226,-557.4099692,0,213.8549084,109.905091,-1469.437469,-307.3861629,,,,
553.5519996,2162,315.009342,0,-166.8783831,28.87742507,-118.6345206,-68.58617237,-2901.552329,35.98587057,-300.7589359,-190.4442894,1225.233999,0,74.13637683,-92.77654669,-540.9792382,-314.1845655,,,,
553.5599996,2162,-1014.232597,0,66.05539206,97.43877593,-119.7862922,-19.20485596,-2872.041159,92.98038347,-270.79523,38.51374766,-1368.254242,0,156.5056746,203.7177478,-1728.052037,-320.8762369,,,,
553.5679996,2162,1666.592568,0,218.3087465,-57.24963037,48.05796292,-161.1374086,-2650.739363,-125.831094,-142.5758865,-162.3146528,993.6847893,0,151.0952997,-66.74334481,-789.7409215,-279.4987988,,,,
553.5759996,2162,-1388.283401,0,-268.9143231,108.4043242,-194.6993547,32.11849829,-2841.62696,182.4763023,-362.1963056,-64.40875558,-214.3679686,0,103.0346029,74.04537231,-1137.607608,-320.2228088,,,,
553.5839996,2162,819.7211365,0,354.4366373,-17.55852883,41.766619,-131.7739032,-2574.733872,-97.81092865,-145.1750532,-28.86968969,-573.3408323,0,214.1320073,107.3458802,-1495.916257,-272.9744801,,,,
553.5919996,2162,322.2765963,0,-162.1015529,10.81021508,-104.1546417,-62.44798097,-2727.771854,27.79579192,-305.0535171,-199.6808389,1225.825,0,50.57754257,-98.74373303,-556.2231053,-277.5141445,,,,
553.5999996,2162,-1034.055502,0,72.03361155,93.65400771,-108.1519084,-9.218824645,-2748.564643,95.10781261,-279.1005497,29.14045412,-1371.784104,0,163.4083007,200.0002269,-1756.370896,-298.992776,,,,
553.6079996,2162,1667.666806,0,224.3041583,-52.786788,47.33961661,-147.7700769,-2561.269059,-131.4926733,-143.2384113,-158.0274877,984.7892181,0,164.2767836,-55.2237424,-842.1606638,-264.1293376,,,,
553.6159996,2162,-1371.253914,0,-272.9283326,111.1921326,-202.0258353,44.53777286,-2764.255571,175.0074629,-367.8999286,-65.55775787,-188.0186856,0,67.20776288,76.07633207,-1176.829127,-294.0147524,,,,
553.6239996,2162,803.3782049,0,347.5087632,-11.81908207,48.12862707,-113.1822718,-2445.985468,-85.9071101,-143.2266668,-27.85474612,-571.4098658,0,200.4285199,108.7117586,-1545.857798,-250.3652856,,,,
553.6319996,2162,346.5225213,0,-178.4151093,4.963750276,-88.25939197,-41.42799168,-2490.996884,30.0065009,-299.7123204,-193.5856185,1251.064237,0,65.05211383,-92.69698671,-583.4154819,-249.0896299,,,,
553.6399996,2162,-1030.176139,0,36.87668295,76.30126335,-95.91796179,4.177532995,-2457.232318,91.2577269,-303.4660597,20.82033956,-1353.17402,0,141.0188771,188.9390277,-1738.974324,-248.3661335,,,,
553.6479996,2162,1654.920068,0,197.9521306,-70.60098317,58.31747295,-145.1482243,-2287.075238,-125.8177,-153.724161,-165.632731,965.3771832,0,142.7183458,-66.68509341,-832.6545795,-219.1158763,,,,
553.6559996,2162,-1391.034346,0,-294.4333369,94.53936321,-201.2815589,46.68937153,-2548.211859,179.5419913,-358.2271125,-67.77798151,-184.43132,0,65.77994004,74.8208438,-1179.390885,-262.5757023,,,,
553.6639996,2162,755.9048902,0,335.3415189,-17.10031259,36.76083662,-105.4518535,-2345.855061,-80.91595317,-145.674204,-26.92660375,-596.5669919,0,190.4889296,110.7116364,-1580.884728,-228.3987552,,,,
553.6719996,2162,319.3664908,0,-173.4833911,18.86464996,-110.4659702,-32.04149021,-2549.558756,43.3400498,-282.2426669,-172.3222342,1235.128865,0,74.56192747,-74.42899021,-659.6969534,-247.132691,,,,
553.6799996,2162,-1083.528992,0,40.48983465,96.06566069,-136.8300935,15.4183775,-2668.671663,102.6660899,-270.3912237,51.3004025,-1349.902894,0,166.9525443,216.2932363,-1854.634554,-259.9518616,,,,
553.6879996,2162,1623.546491,0,209.6190614,-55.66353259,15.55556992,-132.8898006,-2618.619015,-129.4417175,-143.4007812,-155.7332978,961.0191049,0,131.1255916,-56.13632218,-977.8495151,-235.495151,,,,
553.6959996,2162,-1404.34724,0,-276.8435636,120.4387661,-234.953541,60.24349095,-2972.059815,180.1345804,-347.5957986,-60.50755969,-169.7674885,0,59.87500951,87.2691191,-1338.314133,-285.1225596,,,,
553.7039996,2162,723.1230644,0,360.5366039,17.27442625,14.43445409,-92.32025172,-2788.711189,-65.86138078,-108.9653077,0.170374995,-592.9676639,0,228.9974177,143.4536298,-1780.469307,-261.7568325,,,,
553.7119996,2162,334.1767616,0,-144.5513084,37.92388611,-112.3039058,-22.26249138,-2903.223029,55.3447446,-261.2622939,-164.1948351,1264.611513,0,89.08024722,-62.11187218,-854.1181029,-280.0541989,,,,
553.7199996,2162,-1076.028104,0,57.03835405,108.472985,-120.1625747,22.50551622,-2878.826096,113.182221,-264.0859836,46.00178875,-1321.569605,0,170.5092802,216.760761,-2012.376216,-278.9121895,,,,
553.7279996,2163,1645.329562,0,226.8922056,-42.47644169,48.77762282,-125.5225115,-2660.818717,-111.0668251,-119.6746985,-139.375253,975.6761551,0,171.3058717,-37.94848402,-1110.007309,-250.2383257,,,,
553.7359996,2163,-1367.010125,0,-268.0887925,118.3194574,-195.8297051,72.43492833,-2851.716027,197.7619912,-343.7700874,-53.29066431,-133.8650167,0,65.30107206,89.21069467,-1410.393024,-289.9075553,,,,
553.7439996,2163,735.5954458,0,361.212985,10.9373382,52.26807924,-82.92869178,-2561.256557,-62.42120569,-116.050767,-1.611336602,-589.7089948,0,194.441251,135.9179274,-1805.159077,-248.841449,,,,
553.7519996,2163,368.803545,0,-148.8925091,36.96713988,-75.52672453,-19.84843363,-2610.4363,50.29042315,-260.4295491,-156.043041,1277.493004,0,75.76553808,-64.38971832,-840.3493467,-261.0215771,,,,
553.7599996,2163,-1076.092469,0,44.73946666,105.448686,-87.15371658,30.76844386,-2539.062325,120.911589,-276.8098986,49.14424594,-1319.347774,0,147.3611615,209.3733105,-1980.533994,-263.0693796,,,,
553.7679996,2163,1653.086774,0,222.4247095,-48.42943694,81.48223675,-115.009044,-2282.3297,-105.4864143,-122.5265737,-139.8321354,954.8249506,0,149.4175475,-40.12464632,-1076.702857,-235.9540107,,,,
553.7759996,2163,-1332.967804,0,-287.112453,101.611031,-173.8786302,71.4371201,-2443.30485,183.3073101,-359.4933732,-70.93539315,-117.0737316,0,60.88484317,71.29672476,-1328.769772,-257.3076834,,,,
553.7839996,2163,735.7222506,0,337.7514938,-9.281316674,59.40771506,-90.35002523,-2157.279924,-69.30615903,-157.3892395,-38.06029869,-596.1051332,0,167.6071714,100.9389981,-1701.859037,-208.1142946,,,,
553.7919996,2163,383.2408845,0,-147.0766437,27.95820623,-74.97827434,-21.97656903,-2235.980853,54.61384458,-271.4796923,-179.3868911,1268.643642,0,52.81763247,-82.18093662,-751.8630154,-236.0814072,,,,
553.7999996,2163,-1067.250172,0,55.29135761,102.4588894,-91.88090117,31.2008573,-2196.063349,112.4744228,-276.9010727,30.58604396,-1316.925059,0,131.7372112,193.5976636,-1888.63543,-232.0742675,,,,
553.8079996,2163,1659.293316,0,240.0687822,-43.06154853,77.00158487,-119.5314018,-1988.093121,-114.6975691,-135.2847874,-159.3080178,943.130159,0,123.5923769,-64.92305226,-983.7860769,-196.0200091,,,,
553.8159996,2163,-1339.782429,0,-257.7900387,126.5262116,-173.8027158,74.65537704,-2197.54443,193.3082768,-342.6762443,-59.24022695,-126.9838596,0,59.4058408,74.41584023,-1269.483924,-239.5868416,,,,
553.8239996,2163,728.5351536,0,361.0312409,1.540848186,64.58375434,-85.0080304,-1917.051809,-82.88396586,-134.5374162,-25.90655014,-612.2829473,0,166.9613978,110.974799,-1664.101194,-190.9565549,,,,
553.8319996,2163,410.2759539,0,-153.4887231,11.2881459,-72.9648062,-32.18786459,-2025.252741,6.345025562,-288.4584152,-201.5491369,1273.176802,0,29.91731592,-102.8998697,-679.969797,-195.8135604,,,,
553.8399996,2163,-1086.821267,0,39.92155652,97.46300532,-101.2511947,20.84227488,-2066.72324,85.23812218,-293.11039,20.89376736,-1339.490246,0,129.3194198,188.5607902,-1836.699236,-206.5538166,,,,
553.8479996,2163,1650.416798,0,242.0799256,-42.09093726,65.36935318,-122.7170925,-1885.552129,-124.9666058,-129.1050785,-156.0023579,911.6650804,0,120.645577,-48.49870473,-978.0099402,-192.5378691,,,,
553.8559996,2163,-1329.761611,0,-258.0882021,127.1062492,-180.505727,79.69049042,-2065.070999,191.1462734,-340.5642474,-66.18785276,-113.3655117,0,44.31834968,82.71912203,-1254.602077,-226.6581715,,,,
553.8639996,2163,706.963905,0,370.7981369,10.21881867,62.19552826,-68.79333926,-1741.876556,-62.50833295,-130.6379637,-25.41977923,-619.0863156,0,177.3643036,125.4077428,-1652.040086,-170.1676823,,,,
553.8719996,2163,421.8143578,0,-129.6908672,13.06455952,-66.03329689,-11.64408321,-1758.176705,32.48560316,-275.8443315,-196.5911939,1279.597145,0,28.76093083,-86.63280267,-658.6946614,-177.8934693,,,,
553.8799996,2163,-1080.420651,0,52.78204384,87.50176233,-82.21445355,42.12966552,-1694.372041,101.7650876,-292.581369,21.09802298,-1320.084586,0,108.9589478,191.3524304,-1778.229238,-170.498995,,,,
553.8879996,2163,1650.65903,0,258.8399416,-56.78204319,93.30291782,-107.002517,-1481.599321,-116.4216574,-138.6307058,-160.3254638,913.2582993,0,126.0536985,-55.55623868,-889.5128078,-138.9710469,,,,
553.8959996,2163,-1337.819348,0,-245.7493394,111.8885473,-154.3037889,87.3499555,-1698.438883,194.2682542,-341.1108644,-63.21822261,-111.2170691,0,59.61769259,83.15765925,-1156.890361,-188.1562538,,,,
553.9039996,2163,675.6770887,0,372.5053487,-4.268220654,81.74415188,-73.28273881,-1441.959607,-72.34669921,-125.9839078,-11.60427503,-641.5158335,0,197.9948415,128.1789867,-1576.544646,-150.6723783,,,,
553.9119996,2163,403.3115855,0,-114.0771756,19.96858287,-46.24570813,-21.05045279,-1554.078335,30.91744182,-258.4398172,-182.4589375,1277.91912,0,58.74170718,-87.11285458,-604.9049638,-173.264349,,,,
553.9199996,2163,-1117.726187,0,61.22090322,111.3291453,-66.20127165,40.90687372,-1569.307399,108.1259223,-263.2541728,37.1291562,-1309.945013,0,116.2407347,208.1718883,-1754.261879,-180.867501,,,,
553.9279996,2163,1645.853552,0,238.4032757,-55.4392466,104.3938824,-109.6533147,-1364.350683,-136.5398082,-133.8769876,-155.6642605,924.8822914,0,118.1600233,-49.70956531,-869.0581187,-147.4072726,,,,
553.9359996,2163,-1341.49483,0,-272.6385093,103.5192952,-143.7334385,83.97500428,-1569.415196,181.1914398,-355.3626678,-73.327918,-84.18369879,0,48.16198405,62.92703426,-1109.810008,-188.7455838,,,,
553.9439996,2163,638.6687489,0,361.133557,-3.683501823,93.88890423,-68.45911154,-1296.42975,-62.54542226,-125.4952515,-20.01591256,-650.0651373,0,178.8742267,121.9194652,-1542.48488,-158.404438,,,,
553.9519996,2163,396.4578452,0,-123.5592579,11.80661567,-30.56151761,-9.352401602,-1355.346897,42.87522238,-257.0118969,-190.3555471,1284.323497,0,49.21783234,-86.31917588,-557.4634725,-184.0530359,,,,
553.9599996,2163,-1160.236021,0,48.6642192,97.34592187,-54.95445983,50.42694767,-1319.441715,130.777216,-261.1641335,38.98425966,-1310.292349,0,121.4513211,203.3395242,-1693.213141,-194.2863885,,,,
553.9679996,2163,1610.080672,0,243.0659084,-64.99213552,115.4398231,-110.101025,-1075.738233,-119.3110131,-120.2157566,-157.5553546,901.9323287,0,121.6686707,-55.93671429,-819.5816538,-172.7140502,,,,
553.9759996,2163,-1355.314835,0,-260.6127593,106.1826275,-125.5693341,90.85436862,-1249.364741,195.3169446,-349.2241201,-86.63425417,-77.15825915,0,46.57839229,56.19649836,-1031.997651,-204.8314301,,,,
553.9839996,2164,606.602723,0,364.2078156,0.386185763,110.6205581,-59.80013416,-963.3434524,-49.89498677,-121.6893791,-16.47352328,-657.3960031,0,186.497623,126.5973252,-1459.550254,-158.6980078,,,,
553.9919996,2164,392.5316849,0,-134.0884849,-0.082157417,-18.23788639,-17.16238989,-1022.41283,31.79624015,-260.224484,-195.3008719,1284.040263,0,52.86157941,-94.39229562,-468.1045118,-178.0307483,,,,
553.9999996,2164,-1186.519785,0,45.28525834,90.76071357,-41.50171626,49.19235017,-1006.160386,126.2522175,-271.9863736,23.46881396,-1320.170903,0,120.8210969,184.6926477,-1588.693011,-176.3038481,,,,
554.0079996,2164,1586.84017,0,262.5366186,-62.71198436,134.4466613,-101.9104475,-779.8201615,-108.2608971,-110.4486919,-148.4508608,885.7917977,0,132.6281508,-51.27324426,-728.0208153,-148.7607277,,,,
554.0159996,2164,-1367.867072,0,-256.2041914,98.15748318,-109.9605081,91.59288655,-950.6393287,187.7269526,-344.7737161,-79.33121666,-65.16770386,0,50.41749038,59.2353922,-935.9958206,-182.6812073,,,,
554.0239996,2164,579.620272,0,360.0809477,-5.881610324,123.834695,-59.43415644,-665.6628034,-64.28990316,-141.6794129,-26.17819336,-666.6546028,0,169.9872707,108.2605411,-1354.930832,-130.3794206,,,,
554.0319996,2164,374.2435231,0,-124.4370451,9.899005312,4.548082176,-9.941488232,-730.4868866,37.02130596,-261.3430334,-186.4248476,1284.50153,0,40.92342854,-95.86443538,-366.3917105,-159.0962874,,,,
554.0399996,2164,-1220.80965,0,48.80960129,98.03032997,-16.84783887,61.86228629,-707.9489366,129.8607361,-259.8706848,42.03417353,-1317.880095,0,128.3843504,204.4866992,-1497.956562,-172.6159228,,,,
554.0479996,2164,1579.666313,0,259.3755246,-69.53504199,158.2657414,-89.60901976,-480.7586007,-116.3270062,-116.6477135,-154.6068081,889.7175959,0,132.9215152,-52.0438017,-627.6832434,-134.2743812,,,,
554.0559996,2164,-1392.897504,0,-265.9719853,90.61586748,-94.36838836,98.75261287,-671.6568953,185.8343564,-343.062627,-82.95360541,-56.60686495,0,43.9304274,54.45301426,-831.9649305,-174.4081126,,,,
554.0639996,2164,546.5741686,0,351.7312916,-23.96890318,127.236124,-58.13171103,-389.7777859,-79.59570911,-126.3984669,-22.84390676,-681.3997104,0,171.7617872,115.0134014,-1273.021337,-133.6011249,,,,
554.0719996,2164,388.5156889,0,-142.1043981,-29.77619884,4.826014779,-17.23888655,-439.2923501,2.996189138,-275.7875611,-226.5220607,1297.462373,0,29.07247918,-124.3481963,-249.2942242,-140.0433018,,,,
554.0799996,2164,-1242.403733,0,22.43081108,64.82605915,-23.57891931,50.47932902,-420.9528754,111.9306021,-291.9125602,-13.64193071,-1333.065702,0,105.2558756,154.4906325,-1356.804204,-143.5731418,,,,
554.0879996,2164,1572.523845,0,261.6970174,-85.24037352,156.4744435,-92.18191113,-175.7724029,-115.6814639,-114.3545465,-167.3150984,854.419509,0,122.6438174,-67.3516875,-516.1785075,-122.3278197,,,,
554.0959996,2164,-1393.596722,0,-263.8822405,70.56669833,-87.5753265,106.3847566,-302.7287259,185.2242207,-342.7688069,-93.53090751,-59.62110478,0,24.46456561,50.45434869,-698.4176578,-157.4627021,,,,
554.1039996,2164,525.7023129,0,355.8599706,-41.0867262,139.2002208,-44.83300099,31.77068142,-68.6478663,-150.1277879,-54.03686224,-704.6540687,0,145.4537232,94.33442768,-1105.110663,-95.18216108,,,,
554.1119996,2164,388.652062,0,-110.6244433,-34.98239972,28.80890614,5.129170212,14.09647198,30.63521286,-273.1821253,-232.2106562,1287.14876,0,28.33364885,-123.1335671,-83.41421519,-109.6960807,,,,
554.1199996,2164,-1256.025742,0,42.66546017,51.69077069,-3.986774245,72.57210411,77.29155937,114.5986336,-291.5554583,-8.507878637,-1346.844206,0,92.53575245,174.7207124,-1183.210929,-112.0846437,,,,
554.1279996,2164,1589.616151,0,264.3313405,-107.2276939,162.8468242,-87.44803868,346.3223104,-138.1939237,-146.600058,-189.2878915,835.8644303,0,80.76501933,-73.57783206,-304.9167711,-61.54900673,,,,
554.1359996,2164,-1387.727066,0,-265.2899891,53.35830379,-89.15907404,104.4990853,177.0520224,171.396844,-369.0646997,-120.8209836,-81.70523674,0,2.658712813,34.43546316,-473.0077003,-94.91520153,,,,
554.1439996,2164,515.799507,0,354.013928,-58.97410088,131.257146,-45.65048182,450.1920271,-91.03391133,-157.0334801,-65.00984766,-760.5747244,0,134.012301,90.26795416,-910.8174195,-42.41722204,,,,
554.1519996,2164,399.9317645,0,-114.455639,-45.7987205,15.77705493,-1.096951345,398.4267388,4.874633331,-271.5191955,-235.6158256,1259.782697,0,9.364727435,-128.5547717,101.2622783,-62.43107024,,,,
554.1599996,2164,-1278.675197,0,46.21800843,63.72239797,-18.10560369,70.53419302,441.3524107,107.862312,-282.726335,-1.752004615,-1379.747733,0,96.89448446,179.1050764,-1009.63317,-76.73115032,,,,
554.1679996,2164,1597.491032,0,281.2612212,-90.53485617,150.4645602,-86.29816213,665.7265699,-145.5370401,-128.9101589,-175.7179118,818.6329577,0,94.05946758,-59.37192914,-143.3397596,-25.71414082,,,,
554.1759996,2164,-1390.775689,0,-243.2615472,78.87153076,-106.2987278,109.3782232,420.7223191,175.9381139,-345.0833662,-101.7107799,-78.35940717,0,6.197975491,52.6937918,-326.8258716,-75.35316006,,,,
554.1839996,2164,505.6762961,0,386.2119625,-20.94225631,111.0954166,-32.80855354,637.4666216,-74.17144479,-129.722159,-36.05985366,-773.41415,0,134.8374345,122.4772375,-798.5916522,-34.93730075,,,,
554.1919996,2164,438.5978987,0,-96.31696091,-22.21954426,-9.833279495,10.81883249,522.8585809,14.20782535,-252.5453708,-218.5489859,1296.414615,0,4.808740402,-102.3516451,224.7386638,-35.94945582,,,,
554.1999996,2164,-1285.241257,0,61.27346361,83.09041877,-51.451937,87.63663523,464.073694,134.7663984,-269.8287621,6.858475437,-1378.382473,0,106.2721279,197.5470581,-909.5354936,-55.64791007,,,,
554.2079996,2164,1599.04487,0,309.0776746,-67.22166267,122.0615434,-66.1606145,633.223151,-106.5615578,-103.7377887,-162.2179737,799.8103529,0,126.4489153,-34.1529558,-101.9218959,-25.01755681,,,,
554.2159996,2164,-1380.568836,0,-243.3280777,98.2743821,-125.6600885,125.7628407,421.6115139,204.3771706,-318.0694278,-93.06979718,-68.42038925,0,33.12633243,73.72315967,-293.5680198,-77.33269175,,,,
554.2239996,2164,510.1081076,0,382.3568289,-1.452247338,109.4791469,-14.62094606,711.3719743,-47.81736217,-113.9332778,-26.43229949,-779.1197628,0,150.0249176,139.8613947,-753.0662782,-19.47099803,,,,
554.2319996,2164,474.5507152,0,-87.81642438,-3.107487997,6.586096966,30.47316451,660.0719881,39.10147705,-237.082688,-195.1513582,1327.831015,0,22.91417411,-78.38173612,285.808713,-9.081571793,,,,
554.2399996,2165,-1268.161755,0,50.4069619,96.48751751,-33.38937242,105.4366135,665.9358249,137.740161,-255.1815695,30.16282298,-1362.13326,0,114.8187909,219.9742732,-841.0969301,-24.78864755,,,,
554.2479996,2165,1653.603234,0,278.2591673,-69.72642362,143.3563839,-57.55407581,914.2146918,-125.2392636,-106.9983404,-159.0190145,820.3895627,0,113.6908062,-35.01150025,11.04615983,37.37032189,,,,
554.2559996,2165,-1324.923568,0,-290.6471644,83.49350928,-103.3800397,130.1023995,756.7074105,189.9349837,-338.2623825,-97.76319063,-36.70232701,0,24.34153024,58.51631926,-138.0910201,5.728466017,,,,
554.2639996,2165,545.3700032,0,339.7986142,-16.25677247,123.5662759,-8.822776152,1084.307779,-61.52154224,-127.1418021,-34.20839461,-800.7934784,0,157.2737244,126.7380373,-601.92998,67.27914616,,,,
554.2719996,2165,539.1281908,0,-125.3572061,-21.54490178,16.29900106,29.57762722,1070.574781,19.18700639,-248.0851068,-221.6665694,1326.080721,0,9.863177508,-103.4850503,465.2439111,91.57925593,,,,
554.2799996,2165,-1239.08302,0,9.759491343,75.14884254,-19.38877661,101.5286806,1092.35774,124.4343323,-279.1940699,-1.854507754,-1384.975254,0,84.91586088,189.4848454,-651.4963218,82.04077913,,,,
554.2879996,2165,1688.091467,0,248.8732839,-86.95692162,157.3468578,-62.31208794,1329.096383,-141.0309663,-127.7556905,-179.4875334,786.5838899,0,108.7467066,-58.21852567,191.5045784,149.2995157,,,,
554.2959996,2165,-1298.17385,0,-317.8625706,69.70007132,-100.8334293,126.0246538,1129.451141,168.0261146,-358.2765878,-116.1015489,-55.08046009,0,20.4883337,40.40518765,47.45817794,120.478536,,,,
554.3039996,2165,548.1153102,0,324.2751117,-26.0932599,127.4346121,-6.176235575,1408.097138,-73.9937394,-141.4905202,-45.30720952,-845.1182545,0,138.5402339,126.6869804,-435.9622844,179.069179,,,,
554.3119996,2165,561.3836334,0,-139.7770607,-30.93342415,21.11936923,30.111593,1377.867129,8.485752854,-242.3222423,-220.2187027,1316.787334,0,4.771427044,-90.45900048,622.4475869,200.7029332,,,,
554.3199996,2165,-1239.689479,0,-9.077374225,64.50329928,-20.86873513,105.7022126,1428.876605,112.0897569,-269.5244121,1.493758408,-1403.191721,0,83.38592154,199.1144172,-500.3539857,188.4652743,,,,
554.3279996,2165,1710.677253,0,243.7733744,-104.2924918,165.4752209,-46.57123412,1713.792292,-151.3409754,-122.2438298,-181.107441,784.7630135,0,83.70991701,-52.75210427,362.1408965,269.5620995,,,,
554.3359996,2165,-1281.386912,0,-327.8707421,51.65927329,-85.13920361,139.5315166,1543.802642,154.1680033,-359.0556841,-127.0247187,-30.32653918,0,-13.21569968,39.91353015,243.2887625,247.7329344,,,,
554.3439996,2165,548.6258356,0,323.3112192,-32.0817661,145.142879,4.582313504,1828.490031,-88.62131054,-145.3135122,-53.28126195,-848.0218114,0,136.3255458,121.7809292,-244.5879809,304.5810418,,,,
554.3519996,2165,588.1275799,0,-137.1610706,-41.38245529,36.26197732,41.09635173,1747.925828,-5.613312514,-252.1032657,-225.4915746,1352.712752,0,13.22514405,-99.51511624,836.9187987,327.8709054,,,,
554.3599996,2165,-1243.280929,0,-16.12048227,49.65400258,-14.15509767,105.7318293,1695.729002,88.44798191,-288.3213575,-6.394357894,-1400.313434,0,84.30394534,190.8986758,-301.6890641,293.9422812,,,,
554.3679996,2165,1726.980541,0,252.8518088,-104.1394824,173.4075498,-59.35847161,1884.512268,-173.7657729,-126.8721786,-180.4964549,771.9686187,0,100.0956241,-53.91689918,526.5085047,354.4692992,,,,
554.3759996,2165,-1273.858251,0,-316.02611,65.78528205,-77.96192119,128.0552332,1635.02932,160.3083857,-345.5704915,-111.9796624,-11.71251951,0,6.722446726,51.41374763,387.6622724,310.1165907,,,,
554.3839996,2165,529.5070258,0,325.14451,-30.60919965,145.375177,-10.97135979,1876.893461,-89.69054213,-142.2671182,-44.15509594,-867.9062673,0,142.8109189,127.6897022,-141.6864807,344.5028645,,,,
554.3919996,2165,597.0817573,0,-145.5362259,-55.74162353,38.14243527,15.34968127,1801.061077,-23.60260088,-268.1028873,-246.1294298,1341.656828,0,-7.38047294,-124.4534102,936.5479397,369.8814668,,,,
554.3999996,2165,-1263.917682,0,-29.40263328,51.34474992,-2.165558564,89.94187164,1779.338825,98.96648181,-299.0264052,-27.76854431,-1419.548444,0,54.7002687,168.5309353,-205.124951,335.0848083,,,,
554.4079996,2165,1715.506958,0,247.5493365,-97.50366634,189.8298025,-67.3841334,2005.740846,-163.5660891,-127.1820933,-187.7352344,753.9715362,0,89.17711443,-63.5774603,618.3360018,394.8425402,,,,
554.4159996,2165,-1277.228932,0,-328.2360957,59.92614421,-69.5825488,114.7167957,1763.997678,147.0997204,-343.1157138,-119.4506211,-10.5628041,0,0.253790855,38.18755397,489.1647054,350.7381921,,,,
554.4239996,2165,509.6056435,0,303.0963829,-29.30511039,147.3470184,-29.11232534,1971.197987,-100.3958625,-132.0900763,-48.50104841,-881.2724049,0,138.9480513,121.3511386,-49.06336679,383.3160084,,,,
554.4319996,2165,590.0338124,0,-159.1727583,-40.86043161,31.98664597,-4.437974355,1826.563198,-31.99877118,-244.7784413,-240.1337028,1354.784175,0,12.66524023,-116.7884027,1015.911476,395.9621843,,,,
554.4399996,2165,-1286.043582,0,-33.79002558,55.92412633,-25.11329009,64.34012916,1726.102314,70.57466724,-272.782469,-20.74012818,-1410.361986,0,70.86236987,181.2155672,-151.264477,350.2407306,,,,
554.4479996,2165,1716.026722,0,245.1403984,-110.2649535,161.7689629,-109.5817309,1886.331471,-203.991054,-123.6517338,-205.5065853,766.569873,0,64.09352864,-77.73526787,672.7539399,423.6585132,,,,
554.4559996,2165,-1289.152413,0,-315.0865225,62.82050354,-90.30721621,74.40119248,1588.068908,135.057787,-341.7603843,-133.9404221,0.885234445,0,-21.37862426,21.80861553,535.7308314,366.7408682,,,,
554.4639996,2165,473.6430677,0,338.9389608,-15.16350123,138.2622404,-58.88030529,1765.588531,-98.02627296,-111.4031747,-39.58022243,-897.5167705,0,135.4230271,126.5157693,-41.55950318,376.5760925,,,,
554.4719996,2165,576.9892234,0,-134.0320074,-36.57139483,37.61389323,-38.0989007,1598.88383,-33.04898877,-231.8994839,-237.7671422,1369.649904,0,12.55303842,-125.6613662,1024.466999,387.0440564,,,,
554.4799996,2165,-1332.803056,0,-15.85665383,66.58073673,-13.80161581,38.47957947,1450.277329,92.26718148,-254.6133593,-9.025503942,-1415.442132,0,101.2022507,182.2466204,-162.7528111,322.0871478,,,,
554.4879996,2165,1675.391602,0,269.6676576,-100.6897065,172.2877111,-122.8104572,1571.547826,-177.8196714,-86.36669982,-184.5258389,759.2780118,0,98.36037085,-57.85670593,621.8012337,377.4939281,,,,
554.4959996,2166,-1315.616891,0,-315.7957023,61.80441968,-79.2002387,69.10940874,1259.613635,148.0778715,-316.7955888,-125.8708582,35.36072591,0,-4.891114148,28.94241314,484.9938412,324.2635322,,,,
554.5039996,2166,447.1559772,0,331.703205,-16.66032887,147.2607758,-57.18125881,1438.424733,-88.71754845,-98.9525587,-30.13613479,-879.7957996,0,144.1089573,137.1203046,-94.17682906,343.0214766,,,,
554.5119996,2166,586.7712822,0,-132.4536507,-36.51533726,44.34860399,-33.75653282,1313.974217,-30.43935032,-226.528384,-231.6115762,1412.57929,0,-11.53027132,-115.9497119,990.5634226,373.047742,,,,
554.5199996,2166,-1330.642982,0,-13.29333421,80.05495363,1.567213425,51.19786852,1257.446072,97.52772145,-260.4565061,-4.156863066,-1368.973081,0,74.13133919,180.9967834,-167.1235165,329.521566,,,,
554.5279996,2166,1699.004374,0,293.9848409,-75.14160259,201.3382518,-107.241119,1484.864056,-169.616604,-81.92243337,-168.8207845,793.0182378,0,102.0909888,-46.87957505,636.5492902,389.5925398,,,,
554.5359996,2166,-1290.364101,0,-285.4557728,78.61786785,-52.69983341,73.96162643,1259.59106,148.3808425,-305.2807503,-112.4276208,82.0473802,0,-5.686254768,46.34829654,531.2375845,338.4165028,,,,
554.5439996,2166,449.6463416,0,359.5142096,-13.15320294,171.0779152,-56.78304338,1511.720784,-92.68012657,-99.59622322,-25.73399655,-870.0691633,0,144.3714333,139.9607234,-35.19120907,362.9103146,,,,
554.5519996,2166,608.0943134,0,-105.7092317,-36.13052217,73.92364557,-27.74365649,1430.883171,-27.44630382,-230.0048769,-233.6241232,1420.657277,0,-0.019434006,-117.3856761,1063.324276,393.9430753,,,,
554.5599996,2166,-1342.869621,0,0.522327758,78.57638674,19.74479294,54.5042616,1343.018345,108.1147301,-254.903416,0.41328432,-1373.639857,0,76.68865059,189.8419296,-99.65111065,340.09995,,,,
554.5679996,2166,1693.47976,0,297.3474632,-87.60168876,204.9794667,-112.5497537,1505.379858,-170.4764827,-77.06498614,-158.7799349,769.9779883,0,107.7780832,-40.97366009,672.8775715,386.2237343,,,,
554.5759996,2166,-1277.076845,0,-300.3768539,64.37650534,-55.83359852,67.20545046,1217.06003,135.4104709,-314.3089568,-117.8656974,76.14763971,0,-15.27276875,33.97546806,566.4969927,334.8803088,,,,
554.5839996,2166,444.4046277,0,346.494996,-10.38251715,164.1008586,-64.72425439,1387.680928,-94.46998499,-92.30199527,-25.49814142,-890.6473426,0,117.3828356,130.7052444,-19.82936247,353.2379614,,,,
554.5919996,2166,621.8608551,0,-104.3651299,-24.48215547,64.88855422,-37.30063302,1256.648758,-23.01875712,-196.2793446,-215.4022624,1425.271049,0,2.45442451,-105.7790182,1044.385336,362.0892774,,,,
554.5999996,2166,-1335.35308,0,-9.871976625,82.03107714,2.830337292,43.82766224,1173.078235,93.48915857,-238.2411083,-1.693421556,-1359.693372,0,79.98781559,190.2367361,-124.5917966,305.8371824,,,,
554.6079996,2166,1702.602555,0,283.4641116,-85.60533956,188.0137918,-126.0732189,1332.979931,-183.7419714,-74.42807687,-176.0736172,765.5833668,0,96.03982899,-59.63467744,648.8265412,363.0942944,,,,
554.6159996,2166,-1277.840953,0,-300.837792,71.97601397,-74.81877274,58.4535251,1039.472077,147.365348,-301.6778786,-121.4643233,75.55318629,0,2.05370203,30.74969842,528.631,304.5347551,,,,
554.6239996,2166,433.5281229,0,345.4763215,-20.57494102,126.8209312,-75.99879963,1225.233607,-98.40078393,-82.44227559,-37.76657095,-904.7234403,0,136.9868798,128.6977554,-72.50165033,321.0906189,,,,
554.6319996,2166,627.4586327,0,-116.497884,-58.88740871,16.53558097,-61.64808793,1081.753556,-45.65525545,-203.0823204,-246.6040123,1413.56143,0,-8.146617567,-133.0517951,1006.387094,340.6429758,,,,
554.6399996,2166,-1354.538117,0,-5.186741138,56.6594051,-42.36616799,22.30161402,964.4068864,91.80193744,-245.454023,-16.46396848,-1397.912919,0,72.80384483,169.7336735,-171.717575,279.3944116,,,,
554.6479996,2166,1699.540069,0,307.463969,-99.77867073,148.8005768,-145.2002185,1108.889621,-185.2518426,-62.2193807,-170.4603588,729.0930515,0,99.4774419,-61.40488262,579.7790408,328.1599058,,,,
554.6559996,2166,-1287.713529,0,-291.3699747,51.61820269,-108.6598644,33.04799842,793.5109179,136.268994,-293.4832848,-121.6173935,70.27828153,0,-2.865115436,20.42317866,468.9604094,270.1043053,,,,
554.6639996,2166,399.4096566,0,361.3803007,-31.51494719,101.3307067,-97.57706267,956.6907145,-102.895712,-86.29847857,-38.20247323,-934.2655652,0,130.5271403,114.0315966,-141.3012533,281.0396477,,,,
554.6719996,2166,628.6631837,0,-93.5120446,-51.10539523,-0.609187302,-74.70863127,814.6614569,-51.83335538,-197.4006868,-237.9995749,1410.590139,0,-6.097097504,-140.5072581,936.2388988,296.2930868,,,,
554.6799996,2166,-1370.909672,0,2.298322164,69.70582844,-52.6877694,15.59686667,699.4802588,88.68479258,-239.4945552,-11.03652267,-1386.772123,0,79.41511934,163.6584673,-230.4115362,240.2146135,,,,
554.6879996,2166,1687.878174,0,323.4057261,-84.33914082,148.8234475,-144.1876187,858.6062127,-180.0584207,-55.2256138,-169.382968,727.9679372,0,103.2637336,-64.76676987,510.4620548,281.0006773,,,,
554.6959996,2166,-1285.418544,0,-278.5038952,67.05010575,-101.4328454,43.93343792,593.7526996,142.4386783,-281.4074589,-119.9624928,92.13834206,0,-0.440954181,18.91605024,405.7118117,221.8540439,,,,
554.7039996,2166,386.8261311,0,373.5482199,-15.73037194,118.2725216,-79.82081566,820.7779987,-85.776256,-71.50704738,-32.53461102,-925.5779723,0,145.241051,120.0081819,-195.0008404,244.4528498,,,,
554.7119996,2166,643.2763932,0,-65.690003,-30.25947988,25.24247341,-48.31109691,760.5975005,-24.26882384,-177.0711922,-230.6769307,1437.074882,0,7.401482673,-126.8376753,892.7296665,261.0275921,,,,
554.7199996,2166,-1361.540825,0,19.67447178,78.45210181,-32.96660699,46.42639743,736.9926945,107.9642711,-231.1998132,-14.34180596,-1353.056609,0,63.3763856,170.9522054,-244.4065634,225.8658968,,,,
554.7279996,2166,1707.206732,0,333.3676598,-87.09555834,160.980635,-122.8184036,953.2954948,-167.9265203,-54.26674535,-181.6271058,738.8534441,0,85.59448386,-63.57834923,519.9654303,284.4953888,,,,
554.7359996,2166,-1257.010182,0,-276.783761,66.64279872,-96.77590159,57.58236914,718.1689545,143.0813675,-283.5805873,-140.5247861,109.3766237,0,-12.14302602,8.111193204,436.5336393,227.1946558,,,,
554.7439996,2166,393.5659532,0,368.969025,-18.29255683,122.1795431,-68.61850118,957.1926112,-93.42683628,-86.34538869,-62.45475791,-936.3129666,0,113.2234542,98.30911155,-152.7673444,258.9584158,,,,
554.7519996,2167,648.8058648,0,-65.02995757,-31.51374518,35.28372993,-41.21665159,887.6253522,-22.49643275,-180.3335086,-249.3834385,1420.943898,0,-4.424300341,-139.4249025,930.410526,262.7638329,,,,
554.7599996,2167,-1380.872064,0,21.48574293,75.27556178,-31.79590506,47.82979219,859.6277956,97.12153441,-224.5645204,-27.71642342,-1367.702979,0,76.58802568,160.6774699,-209.4453,217.2492899,,,,
554.7679996,2167,1693.730677,0,351.8209369,-95.79865678,160.8446005,-124.8326443,1071.536227,-186.5304098,-59.2985013,-209.782589,721.1165885,0,74.42415081,-85.32151101,569.6888721,287.1978149,,,,
554.7759996,2167,-1278.155042,0,-247.1598164,57.88017965,-92.69225592,56.00724161,807.9623015,141.4884024,-282.0105162,-151.5477775,102.6818976,0,-16.91078375,-0.249855089,483.0037438,221.3162183,,,,
554.7839996,2167,367.8033655,0,396.8443777,-33.44496954,116.0915147,-74.44730233,1008.326462,-102.6546113,-77.03690684,-55.22569504,-952.7043038,0,129.2843563,102.1583346,-125.349614,246.8944084,,,,
554.7919996,2167,644.7535424,0,-34.85627932,-36.93135615,28.06445403,-48.80794159,887.5734578,-21.73501713,-167.979337,-246.5712568,1430.209141,0,-7.930742884,-137.6214673,960.416376,255.1353,,,,
554.7999996,2167,-1418.247832,0,55.87038469,88.74545194,-33.21721836,42.27728173,800.7867449,124.6667975,-193.0765226,-0.287355525,-1368.70968,0,86.5473151,188.2375689,-219.4193776,191.5652027,,,,
554.8079996,2167,1691.328815,0,379.2731775,-91.82693207,156.5208436,-135.9957697,966.9364443,-178.7072144,-33.25605746,-181.4395724,720.0971172,0,104.0736221,-59.37988933,531.4021786,256.3565016,,,,
554.8159996,2167,-1274.544828,0,-236.6594808,62.10036007,-105.4030844,42.01906343,641.2438065,145.0340188,-274.8939193,-154.6427074,131.6476797,0,-21.14449339,2.688779525,457.3147649,198.8452574,,,,
554.8239996,2167,331.9453684,0,414.2852498,-17.86396346,100.2057689,-91.21520962,778.8074149,-84.64194586,-56.69442914,-52.70326105,-952.0999785,0,132.9902363,120.7327502,-186.0521957,210.897063,,,,
554.8319996,2167,650.5774323,0,-26.58596203,-39.75360402,4.696334982,-74.57031437,623.0436251,-35.87050288,-157.2707285,-249.865887,1448.442098,0,13.72376526,-127.6827344,884.6154756,212.1535635,,,,
554.8399996,2167,-1425.475596,0,47.33044248,78.50923641,-66.85818117,14.24903167,493.5448725,97.63642411,-207.7836211,-28.94318897,-1360.365172,0,73.15898682,173.0985536,-286.183553,157.7849738,,,,
554.8479996,2167,1679.931354,0,389.066637,-88.28950827,131.8703003,-158.2345191,627.7132114,-184.25042,-28.38692229,-198.0556969,709.1662048,0,98.74547157,-64.98598541,450.0295374,215.5405678,,,,
554.8559996,2167,-1276.915562,0,-230.7985515,61.02686724,-121.9259563,30.12561429,314.3978227,135.4677356,-266.7648197,-161.5210121,143.3042828,0,-5.776856381,0.13046396,367.6509773,142.7563145,,,,
554.8639996,2167,315.8117863,0,414.2047083,-32.16170881,88.29294725,-99.84085755,498.7657948,-101.5967817,-65.72029562,-77.26343409,-967.4626686,0,130.8300906,99.3935558,-271.2159273,162.0039435,,,,
554.8719996,2167,650.8063524,0,-18.46607656,-54.3484925,6.235096489,-81.18547299,409.7974224,-39.5737888,-161.8774368,-281.1437335,1450.250085,0,6.881701516,-161.7378531,827.2543298,174.2815464,,,,
554.8799996,2167,-1455.829494,0,48.39064287,65.91491673,-58.97463483,18.6567991,359.0978687,100.8060106,-220.3757256,-54.40961685,-1358.110622,0,59.90310989,146.118415,-327.6283552,121.4329438,,,,
554.8879996,2167,1656.826781,0,382.3785542,-108.5091534,140.4165876,-156.4210283,585.4064592,-192.1625898,-49.10233806,-226.4676729,699.2316615,0,71.93316833,-85.53399065,422.9240301,189.7002139,,,,
554.8959996,2167,-1292.504517,0,-242.8734522,52.10426559,-104.1001842,31.51892168,358.9988028,140.5069058,-273.1393312,-187.9444215,154.0365341,0,-21.02795093,-15.57898708,367.4252726,128.1964486,,,,
554.9039996,2167,292.4225589,0,409.3829078,-26.89314459,117.5031394,-94.69198266,610.9850247,-85.68400741,-60.46430464,-88.68677142,-981.5372814,0,124.9950217,98.65112948,-263.1041214,154.2087508,,,,
554.9119996,2167,660.0105589,0,-24.65518948,-59.84796208,30.67761899,-90.19561109,556.7832505,-39.01452087,-154.1415817,-285.2270152,1452.616816,0,2.134094103,-158.2900313,858.0568488,169.7652399,,,,
554.9199996,2167,-1470.820483,0,39.21070822,59.63769448,-38.78356341,2.865216797,503.9106448,102.9654221,-205.9049224,-57.81565916,-1361.988822,0,68.42775276,145.9144825,-293.3157571,108.2346372,,,,
554.9279996,2167,1657.669901,0,386.785688,-111.8517825,165.9675091,-173.3931413,707.5103968,-192.6212452,-29.74878006,-229.8429312,682.674448,0,78.84415179,-88.90510787,452.6770981,166.4388207,,,,
554.9359996,2167,-1295.065484,0,-240.126116,51.80818615,-87.74355058,11.9763365,443.64476,135.7916686,-259.7489852,-187.4410744,162.3598084,0,-20.81333635,-16.23283608,407.930683,97.04016641,,,,
554.9439996,2167,254.3156419,0,414.5358767,-18.98970983,123.6847223,-111.5032934,674.8662661,-94.91081602,-55.65521039,-88.53945878,-997.3644108,0,122.6472419,98.26872575,-238.8745083,114.7899765,,,,
554.9519996,2167,658.7268014,0,-28.39583113,-61.21905541,32.30215212,-107.813349,602.394158,-71.62731892,-166.1600999,-305.5210982,1463.096845,0,-20.56078335,-175.2683959,896.4879061,134.5112284,,,,
554.9599996,2167,-1502.004926,0,22.85607685,60.4247347,-47.5897549,-12.3472066,477.9517985,79.15769644,-228.4979794,-86.30747502,-1357.39197,0,43.75102503,127.489602,-254.8080029,74.01845267,,,,
554.9679996,2167,1624.501654,0,391.1685388,-94.35580479,152.0362875,-185.9178131,579.4224795,-191.6475557,-33.10144291,-244.6893331,664.3331014,0,79.72599718,-92.24955285,451.1295059,120.3021075,,,,
554.9759996,2167,-1296.690778,0,-238.0434991,62.1951231,-111.5677567,-2.395126822,193.9626193,128.6498338,-254.9674014,-194.9082739,186.9021505,0,-15.12392381,-16.6356547,394.1291661,51.64981354,,,,
554.9839996,2167,225.2359051,0,418.2349962,-13.65484929,88.76207559,-124.711809,268.4773261,-96.11611548,-46.69220444,-84.21220735,-1003.077986,0,124.7738142,103.4427766,-295.8283395,60.94623536,,,,
554.9919996,2167,645.2754758,0,-13.26016707,-41.60992677,-2.885254758,-118.5174493,77.8453938,-47.55702643,-137.1967657,-288.2161347,1456.637853,0,-4.701249904,-160.2919927,783.184061,54.24865201,,,,
554.9999996,2167,-1504.965013,0,23.63440258,79.51271085,-78.78717664,-18.99091415,-57.10927139,101.1041018,-201.7538473,-72.93201594,-1345.12689,0,67.36176882,142.1729849,-392.614876,-6.848613743,,,,
555.0079996,2168,1645.493177,0,395.6249103,-89.17087327,129.8348303,-186.8180578,107.7808678,-182.2221449,-9.74558536,-235.5780387,666.6457025,0,99.6023984,-77.024158,311.674827,50.73192099,,,,
555.0159996,2168,-1258.145659,0,-244.1839871,56.04355874,-128.438331,-1.268495775,-169.0497621,131.1033653,-238.2614842,-190.4609177,212.8857211,0,0.282311367,-9.916217739,274.7051955,-14.88240769,,,,
555.0239996,2168,273.2952033,0,393.9380304,-33.91367873,86.65449947,-126.3243392,74.99576777,-110.9491031,-56.59379183,-105.9223372,-981.9365646,0,135.7480061,83.03411848,-377.7819107,17.60929958,,,,
555.0319996,2168,737.3641318,0,-28.76155884,-62.313312,20.17571761,-118.2867138,53.06833718,-60.10238772,-151.2688399,-323.0189881,1498.71407,0,3.916420669,-190.8039779,774.2328914,42.74436315,,,,
555.0399996,2168,-1447.111799,0,8.890478609,66.88403869,-44.69495622,-19.50892767,39.96187533,105.0098528,-199.4289756,-76.67935397,-1304.945251,0,61.73414794,135.3178921,-364.7325241,-12.20445077,,,,
555.0479996,2168,1708.448405,0,370.3369169,-106.4778769,171.8955532,-197.3999873,334.0865427,-188.8660307,-16.35492488,-235.9098943,699.0990647,0,70.18158996,-80.73886413,367.4242953,53.55103162,,,,
555.0559996,2168,-1184.552263,0,-290.2223447,40.42498529,-84.35985827,-17.01727629,155.3590483,122.4624957,-262.6288082,-215.8573513,265.7259102,0,-28.41160762,-28.71691325,393.1810285,12.68939747,,,,
555.0639996,2168,291.6609055,0,343.5954435,-42.59553738,124.6276705,-145.9384229,408.2149161,-109.1130732,-64.80346808,-118.3435046,-983.4296329,0,118.0798312,78.65895593,-258.8170792,40.67546858,,,,
555.0719996,2168,765.5654283,0,-65.19146457,-58.19506739,54.67350532,-130.8277624,341.140336,-54.25322046,-136.8105628,-313.8105904,1496.617254,0,-8.193416257,-178.7847094,871.8931399,39.56762444,,,,
555.0799996,2168,-1432.963224,0,-34.45029223,80.43640255,-27.10584081,-20.15441423,251.7611227,103.0479657,-185.8855556,-62.94728433,-1294.360745,0,69.22584053,148.4760432,-277.8702589,-18.41362485,,,,
555.0879996,2168,1728.354954,0,322.3186894,-109.7624644,165.3335714,-202.3306173,447.7485413,-211.9119904,-8.986579182,-228.1585427,684.563873,0,88.01514372,-83.05291957,436.8876924,48.3162103,,,,
555.0959996,2168,-1157.648453,0,-333.6398602,28.51744111,-105.8576366,-15.28087391,175.5927044,112.0298367,-254.4157461,-208.7184506,266.7002957,0,-22.35761372,-39.2911328,441.1071375,-6.608561806,,,,
555.1039996,2168,290.7223158,0,306.4880721,-53.0153095,99.63669378,-132.0545944,397.408906,-103.4926103,-54.27543171,-101.3412968,-991.5702338,0,122.6911065,87.67090764,-243.832217,16.24103485,,,,
555.1119996,2168,808.2090965,0,-99.36888066,-89.95815225,28.80188334,-120.7351065,372.3825393,-72.60102634,-137.1099767,-308.795837,1522.790352,0,-20.08254157,-178.6669625,909.5351269,33.18362175,,,,
555.1199996,2168,-1401.902826,0,-78.06817859,31.72813489,-49.74606503,-12.12332413,329.894756,81.83714791,-204.7507477,-84.88204938,-1252.910473,0,20.84278496,122.5424329,-202.5544285,1.554140234,,,,
555.1279996,2168,1745.463724,0,288.3449033,-147.7489861,159.9525117,-193.2211215,550.9248959,-215.9607348,-23.27337889,-251.5209749,692.6801923,0,50.25417315,-102.1887099,516.0687807,68.36865084,,,,
555.1359996,2168,-1131.372638,0,-351.9928801,5.812731456,-103.9597904,-5.651495541,280.8568396,103.3981945,-260.3247219,-218.4149808,286.4781304,0,-40.68195519,-46.90066854,525.6587007,0.667707872,,,,
555.1439996,2168,295.391718,0,297.3444314,-64.18181121,99.64785401,-124.0277418,465.2710719,-117.4640725,-56.39955162,-107.6764858,-990.6090225,0,100.2401971,81.4544318,-166.2481954,24.83397112,,,,
555.1519996,2168,827.7069999,0,-104.3594418,-92.36564684,25.33212219,-120.2837077,373.0636386,-83.61091888,-135.1106807,-311.7340647,1525.684267,0,-32.71587108,-187.2635386,984.0521147,38.48293417,,,,
555.1599996,2168,-1416.512407,0,-74.15319452,42.32987457,-57.78782724,-8.332548591,275.5107486,89.67131514,-199.4769196,-72.83703657,-1261.067251,0,26.38560528,123.7094613,-161.8516282,-13.83154403,,,,
555.1679996,2168,1733.971123,0,314.8726067,-130.4431035,155.8832692,-180.9790386,495.0417252,-200.5510701,5.622038955,-226.8635962,676.229205,0,66.6636677,-81.75095112,519.5159335,37.41479849,,,,
555.1759996,2168,-1130.360326,0,-339.4296284,18.64781109,-114.61729,8.412820424,244.6093114,110.3733717,-231.1261983,-196.443959,312.9123301,0,-33.77164842,-31.52326429,540.7605803,-20.62051967,,,,
555.1839996,2168,258.7119872,0,298.0367748,-41.25775791,85.5234398,-100.1250993,447.8181579,-97.86220611,-42.57706802,-85.33744711,-994.5657787,0,105.796493,98.79981651,-172.3788429,5.217720922,,,,
555.1919996,2168,815.1688569,0,-95.41067841,-67.70791681,15.83168565,-85.50661109,403.4321655,-63.10695922,-121.7810184,-291.7623704,1526.80602,0,-12.97045959,-155.1318811,970.752225,15.80231556,,,,
555.1999996,2168,-1445.681684,0,-76.41751815,50.07050558,-70.85444519,25.2658661,349.0453317,99.99906872,-192.9796052,-60.73438161,-1249.541905,0,46.82207082,148.678983,-156.3220309,-18.95452907,,,,
555.2079996,2168,1703.383656,0,310.9526517,-128.3348325,146.5215856,-152.4951881,564.2998392,-192.8153669,7.951450368,-222.550973,658.0526158,0,66.88540132,-74.91538298,520.5025088,41.09498149,,,,
555.2159996,2168,-1146.201743,0,-346.0485104,22.62923555,-123.9176324,33.88738624,269.1335223,114.3685551,-235.6914455,-204.7534757,317.0705984,0,-41.59174676,-33.82358745,546.7279604,-14.05963212,,,,
555.2239996,2168,227.5905017,0,291.7304357,-40.4119237,72.26738208,-82.02290144,402.2530652,-92.37870682,-40.523303,-92.23237293,-993.4078948,0,112.7218088,92.29579604,-174.8713654,16.96753072,,,,
555.2319996,2168,802.540595,0,-93.03139276,-53.06147181,4.006415747,-67.06582492,244.6243067,-47.41760216,-97.09496621,-280.1256294,1533.108774,0,-5.468204075,-163.8762292,942.3751963,15.52619312,,,,
555.2399996,2168,-1486.478293,0,-79.26990451,87.28458439,-92.88505827,48.75356592,43.36270751,118.257446,-162.4546684,-26.60245327,-1247.286286,0,73.15407206,155.1962817,-236.2117925,-34.68945098,,,,
555.2479996,2168,1677.041594,0,308.7142164,-89.56360261,115.0372155,-136.360213,153.3975183,-188.2252797,34.34109203,-189.0519444,663.221899,0,111.6503664,-64.41385308,402.1052585,20.75593036,,,,
555.2559996,2168,-1153.570532,0,-346.9854422,52.22275304,-150.8167731,51.64971129,-184.1925682,119.4453077,-207.1064602,-173.0340248,346.5527551,0,-29.58981609,-23.11934385,414.9621626,-41.13576057,,,,
555.2639996,2169,194.1738184,0,290.0626006,-31.59353797,48.76315487,-65.41813451,-65.13772297,-84.49109774,-17.25288511,-54.74304954,-993.7428029,0,103.5897959,112.3538528,-333.03685,-13.42099566,,,,
555.2719996,2169,793.4434739,0,-102.8515663,-65.34460357,-24.33241743,-63.21118268,-221.3280878,-52.62741626,-90.53730461,-269.20961,1550.010602,0,-6.537180102,-157.2581072,789.4867023,-15.20566488,,,,
555.2799996,2169,-1501.061854,0,-103.0591649,64.19683827,-119.3155721,52.3287784,-404.4569155,105.0335183,-168.7571824,-37.9084883,-1232.954063,0,52.0204573,150.2853894,-382.9268517,-64.97939768,,,,
555.2879996,2169,1660.589729,0,300.9230746,-113.8198708,101.6263765,-129.6206042,-288.3091933,-181.0139078,30.92972832,-192.6892771,649.8076395,0,84.25414696,-65.49825657,251.875012,-8.392069215,,,,
555.2959996,2169,-1189.881845,0,-337.6813931,51.69885779,-162.3123823,64.12502711,-639.6553992,159.5481853,-181.8665456,-156.9620872,344.5629579,0,-12.34438248,-5.160928571,240.6815907,-93.71393767,,,,
555.3039996,2169,154.9114946,0,294.6463743,-24.76664244,33.78678476,-53.6522149,-502.2672962,-68.55340863,19.69818604,-32.79387065,-1010.299751,0,134.5113719,143.6894324,-540.5561157,-75.38262387,,,,
555.3119996,2169,790.5379251,0,-99.34588143,-66.30322354,-33.74558006,-58.70678824,-626.6892396,-61.12795754,-83.1073058,-267.4181898,1561.185268,0,-8.383374665,-149.8858672,618.3337384,-53.46093799,,,,
555.3199996,2169,-1541.993269,0,-89.0485997,87.60706714,-123.1920221,63.60762064,-780.9167762,124.0788097,-160.263609,-26.7701698,-1226.17857,0,46.54624136,159.3977043,-553.3375767,-105.4633072,,,,
555.3279996,2169,1644.25885,0,313.5829489,-90.25311688,95.72456614,-124.7254052,-612.8200049,-177.1868138,59.22956877,-161.7204572,649.2261671,0,98.31802316,-38.64666378,68.33043534,-54.71646321,,,,
555.3359996,2169,-1196.091474,0,-341.6577775,56.30362842,-172.6973277,60.54512397,-922.4773789,144.8497668,-180.0168712,-147.9174152,376.4058559,0,-11.97194471,-7.490457389,100.4205166,-125.6987831,,,,
555.3439996,2169,117.9628072,0,303.026858,-5.492200965,31.54805244,-43.01233547,-744.376742,-57.26295665,12.22954153,-28.57698688,-1004.90492,0,125.6287945,130.7704627,-679.340597,-106.6263546,,,,
555.3519996,2169,778.0395346,0,-85.79924629,-49.84026065,-33.25758332,-46.99101238,-830.1081548,-45.72954879,-70.09499688,-244.7348624,1586.738011,0,3.163067928,-144.3483784,480.4867969,-92.84745652,,,,
555.3599996,2169,-1584.84152,0,-95.2179786,81.12875694,-129.9886275,67.33617373,-963.5187078,132.0351382,-148.3058709,-7.584832293,-1208.189829,0,59.42372012,162.441431,-693.9808066,-154.5804564,,,,
555.3679996,2169,1628.297106,0,305.8187931,-101.5791769,92.66430279,-118.1869598,-754.9806732,-178.1948582,54.64570941,-166.4113609,645.0918456,0,94.05536154,-50.39212533,-66.10434704,-97.6630141,,,,
555.3759996,2169,-1190.555042,0,-362.2879245,51.81630056,-178.2002405,69.21311122,-1031.09959,133.3546495,-202.4481577,-164.3922247,395.7792898,0,-21.42164554,-22.98178191,9.967387053,-144.8731576,,,,
555.3839996,2169,92.21065332,0,285.696918,1.838606454,23.75393452,-35.17684952,-858.9991454,-54.74973016,7.047655735,-28.22011098,-1027.490254,0,119.3574248,129.8468569,-778.1444654,-124.9120357,,,,
555.3919996,2169,771.9157833,0,-80.24528746,-34.97802661,-36.64069763,-36.56292593,-951.7690673,-31.8047086,-45.83050542,-236.4064313,1571.829691,0,0.507735293,-130.8072497,370.2023957,-125.5368015,,,,
555.3999996,2169,-1611.830286,0,-92.59349568,94.9923301,-132.3321076,76.30799693,-1072.018399,137.8049891,-136.0604326,-7.075810043,-1214.727754,0,64.92949865,173.7762423,-800.1712894,-185.7407796,,,,
555.4079996,2169,1610.531192,0,319.5747369,-81.85134463,105.2333777,-114.2752343,-852.7304144,-166.3097642,67.54163875,-158.9990851,627.7416069,0,100.1839288,-43.73643182,-178.4887354,-130.393518,,,,
555.4159996,2169,-1213.062753,0,-337.7125356,77.28987786,-153.7002522,77.67159889,-1118.83629,159.7506417,-165.2910987,-141.1673468,403.9861947,0,-8.763395749,-8.122373332,-107.6372657,-193.3045536,,,,
555.4239996,2169,64.61740082,0,299.3273992,6.96246042,52.14527961,-31.25104231,-893.3354728,-43.52231391,32.89536362,-15.21769355,-1033.413075,0,150.4722683,131.5548029,-896.9176212,-166.7385392,,,,
555.4319996,2169,803.4197595,0,-90.02889226,-56.55890713,-3.670484811,-43.63108885,-889.8453348,-44.31740692,-51.98407594,-250.5919492,1588.844116,0,8.658424095,-163.0979891,304.3136954,-140.8492365,,,,
555.4399996,2169,-1593.858762,0,-115.8854539,72.10387473,-102.1501449,73.73439653,-921.1229243,130.7169993,-156.100466,-28.20600986,-1212.791023,0,34.75530471,132.4091398,-818.5354141,-184.866262,,,,
555.4479996,2169,1649.263151,0,303.4841607,-107.6923496,136.040001,-114.8221102,-614.5500267,-171.6523914,52.89633844,-180.5827218,607.8000502,0,68.24105397,-83.32428275,-167.9161104,-117.8738692,,,,
555.4559996,2169,-1167.064162,0,-364.914672,41.43167784,-122.5687969,78.62504126,-781.4814972,148.6969843,-190.6356169,-171.7157286,404.2805519,0,-44.24405732,-48.90114319,-45.65316087,-169.8419271,,,,
555.4639996,2169,84.77418351,0,282.5713478,-16.39844333,92.19951161,-21.02577372,-462.1910537,-39.9955242,3.865405403,-38.77536593,-1064.598923,0,113.4855632,107.3504926,-808.2311239,-139.7568784,,,,
555.4719996,2169,853.0199031,0,-96.95847878,-71.72971806,40.71483028,-33.82667454,-375.1617266,-42.50863537,-59.97094614,-261.7285287,1584.165442,0,-15.35218034,-176.8545653,423.5168588,-113.2477396,,,,
555.4799996,2169,-1563.46156,0,-135.0041417,56.11021614,-68.27216963,83.89914866,-331.6144187,117.9464947,-169.7670112,-41.68578271,-1206.685731,0,5.914576105,115.9456593,-663.5019653,-145.696765,,,,
555.4879996,2169,1698.659992,0,299.7092814,-119.3488114,170.4848615,-101.4829218,41.17085468,-185.6693141,23.75160488,-203.4228798,613.0410012,0,33.58296608,-97.24127107,27.64203092,-57.70325387,,,,
555.4959996,2169,-1119.557046,0,-374.0629138,24.8288986,-95.32786513,85.94019647,-88.80620408,130.4257416,-221.4437763,-200.744508,425.5981189,0,-75.84967572,-66.6403842,184.3363586,-107.5098878,,,,
555.5039996,2169,112.227139,0,270.5305491,-31.28842305,114.0205925,-15.70743288,242.3637571,-57.56564775,-19.85168985,-58.63122975,-1085.082604,0,85.27607502,90.25378332,-575.0432238,-81.27794685,,,,
555.5119996,2169,901.4556799,0,-90.68839278,-71.98925817,68.92498601,-24.42523132,320.1529884,-42.27273645,-70.92439396,-268.2405008,1582.782779,0,-29.61929559,-180.2577637,675.3392752,-55.08730365,,,,
555.5199996,2170,-1558.246192,0,-136.1407318,55.10889311,-42.38386007,94.55566026,334.6737651,120.26153,-180.4636623,-48.55887821,-1214.58915,0,4.932763648,116.3919108,-421.5029307,-97.78287627,,,,
555.5279996,2170,1713.129287,0,298.468175,-122.6709161,200.0524539,-91.18571948,661.153833,-185.996622,20.99938624,-203.2163282,593.4323812,0,48.43237605,-98.53621533,253.6209903,-11.74538442,,,,
555.5359996,2170,-1119.125025,0,-360.4948744,43.59706515,-64.85424306,102.7928709,458.9852629,153.0584621,-205.0772086,-169.6010901,428.192352,0,-50.31347286,-47.50079486,392.58961,-77.23909525,,,,
555.5439996,2170,93.7289869,0,292.2607533,-7.724415165,138.7627458,4.113706539,734.9922066,-40.56312798,-6.98245847,-29.11539139,-1096.53612,0,86.70920807,114.9733825,-400.2433409,-56.32302092,,,,
555.5519996,2170,912.5186902,0,-78.63054804,-58.44484643,89.42222706,-12.54829179,745.9682175,-36.85572712,-63.81062364,-263.087498,1614.552958,0,-32.00644009,-173.4105385,868.9833037,-11.0811906,,,,
555.5599996,2170,-1603.448282,0,-129.2575734,73.48748806,-30.20890595,100.6951576,664.2130709,140.9761958,-157.108964,-23.07488136,-1209.080319,0,31.13913192,135.7385602,-266.0435147,-81.00568207,,,,
555.5679996,2170,1692.850425,0,311.7772409,-115.9572759,210.3219903,-96.10120737,925.0102494,-181.2587617,43.77812834,-179.1295687,573.8806622,0,56.01692394,-85.45905229,367.5181105,-20.32488533,,,,
555.5759996,2170,-1113.939706,0,-375.8158408,27.22905241,-61.11618674,85.35219756,655.420252,127.4362982,-211.5640909,-184.2740348,449.5401087,0,-57.24798964,-69.49770737,538.4388595,-73.84269051,,,,
555.5839996,2170,71.96011653,0,258.2146009,-29.92029669,135.4229274,-19.06388739,860.8209057,-79.6015796,-16.54562907,-40.38298224,-1119.004518,0,98.90230665,92.6683987,-270.6458482,-59.5736724,,,,
555.5919996,2170,910.6698537,0,-109.278193,-71.25598104,90.11076619,-34.79349357,822.7850975,-67.04410866,-58.82726505,-259.2613969,1591.864573,0,-36.88770485,-187.2804917,980.1705984,-35.28636817,,,,
555.5999996,2170,-1633.412236,0,-167.1410068,63.66269939,-25.64367212,86.16796117,705.8533406,122.7708667,-153.4603022,-21.91725437,-1226.198279,0,26.72837877,126.5333936,-168.0643141,-114.697653,,,,
555.6079996,2170,1680.707674,0,284.3287695,-128.1135337,216.9150786,-114.9377755,959.2166767,-205.8048622,58.49731686,-170.8092408,554.1509614,0,76.00740777,-84.10064956,455.7348489,-53.18648287,,,,
555.6159996,2170,-1129.864274,0,-400.7098391,26.83404973,-57.73926735,62.66372466,690.4939562,113.7489823,-188.5625269,-168.2867505,449.7708284,0,-58.18091572,-61.25948496,629.1070135,-115.3188151,,,,
555.6239996,2170,37.5282879,0,234.6362025,-31.72797714,145.3205172,-39.80670639,910.3456479,-83.5623624,-4.173812432,-29.94235352,-1139.978997,0,88.14010567,92.66680967,-195.8627775,-106.7129367,,,,
555.6319996,2170,919.3978081,0,-119.6735357,-84.94053994,106.7671043,-61.03584437,918.4176973,-77.27720151,-52.46261406,-258.2619791,1596.058686,0,-36.96645439,-206.4433428,1074.194261,-80.90945768,,,,
555.6399996,2170,-1635.610494,0,-178.2317871,50.89809267,-10.9501431,61.50653039,919.5689388,104.9072505,-160.9596374,-36.15001105,-1229.049999,0,7.861727492,98.84048521,-48.81587047,-151.0238953,,,,
555.6479996,2170,1711.544537,0,265.2125897,-147.4605099,242.5373638,-138.1039294,1340.293796,-238.7190991,25.91090364,-208.8415376,546.0674083,0,38.76251375,-129.0452051,634.969176,-54.17828156,,,,
555.6559996,2170,-1103.233322,0,-435.988741,3.1576246,-31.66119189,36.96944149,1150.327521,85.55666454,-230.6712752,-211.0581997,455.924416,0,-97.22118497,-117.3815559,869.8068781,-105.0102639,,,,
555.6639996,2170,25.29862336,0,200.4588978,-56.23816766,162.7310182,-65.48858145,1403.697577,-106.9440605,-42.56491419,-65.6791036,-1181.048064,0,55.26177648,45.90243951,34.65701303,-108.6757675,,,,
555.6719996,2170,932.1084728,0,-143.2506328,-105.9923967,125.5294147,-81.66399809,1446.3575,-100.760166,-93.30358705,-294.0731237,1574.787891,0,-65.21628366,-250.0492825,1330.451344,-72.38010491,,,,
555.6799996,2170,-1674.941625,0,-190.6452051,53.62342637,3.887185465,53.55911848,1360.231548,108.000893,-185.3820128,-41.5707531,-1258.515733,0,-3.354174089,79.43018705,199.348096,-149.2295622,,,,
555.6879996,2170,1663.216696,0,284.0555582,-132.1133987,248.8221114,-141.2110172,1606.083714,-223.2194792,41.38369755,-175.7160678,496.2237907,0,53.43687532,-114.5605462,806.577776,-86.7266542,,,,
555.6959996,2170,-1138.527501,0,-406.7033749,24.42535331,-36.82067003,33.08820458,1259.810195,92.0619135,-196.1166425,-172.6027172,449.6865023,0,-83.75152307,-97.69699009,994.6518445,-154.4809975,,,,
555.7039996,2170,-31.07007597,0,233.9887976,-18.46800913,148.5150749,-71.83806423,1323.906521,-103.7486963,-1.282916652,-21.82702449,-1198.554304,0,79.27794652,73.29459734,101.6778836,-167.3679716,,,,
555.7119996,2170,910.3098423,0,-110.3882728,-76.21246655,95.50300034,-101.4593255,1096.306376,-113.9739836,-51.24340347,-252.2128474,1582.210261,0,-34.86875111,-217.6005495,1337.440669,-158.7445894,,,,
555.7199996,2170,-1707.63277,0,-182.9065222,64.12068302,-50.49053443,21.48971868,731.8030998,73.82048199,-158.8192256,-15.74164865,-1248.334673,0,-2.368552978,100.0323719,136.2599963,-262.3106098,,,,
555.7279996,2170,1645.87564,0,294.8943488,-112.7067383,187.7850172,-168.3619128,744.0936108,-243.3185549,63.72005947,-151.6880837,482.4657714,0,65.23035049,-95.96593018,670.3675257,-211.9078526,,,,
555.7359996,2170,-1152.209504,0,-383.5298656,56.41570188,-101.6817375,25.36976119,228.919663,106.9139488,-165.9862657,-140.8080656,459.3562662,0,-41.58076805,-65.74099176,800.8714115,-295.0636821,,,,
555.7439996,2170,-59.53930731,0,248.0666196,-6.864680028,74.99608308,-67.60884377,237.2052717,-94.0665793,20.34798393,0.54178277,-1205.133499,0,102.6171795,107.0378733,-147.4224018,-303.3479723,,,,
555.7519996,2170,924.4749149,0,-103.5364321,-74.04760673,25.72343616,-87.18088232,41.46971122,-101.2951322,-39.2232024,-245.201271,1595.284028,0,-31.35529187,-198.8056258,1084.305148,-266.0484608,,,,
555.7599996,2170,-1733.624797,0,-158.2006317,93.49895163,-103.7244539,62.07414629,-236.824519,140.8785054,-121.7150811,16.13843704,-1247.722299,0,19.99152151,137.2324194,-144.81656,-366.2074931,,,,
555.7679996,2170,1640.221139,0,327.3958949,-91.9959986,149.3034553,-118.9475285,-86.66362654,-186.9549664,112.3827695,-110.4457971,480.3223254,0,92.16134212,-50.51954003,374.7172282,-300.5739939,,,,
555.7759996,2171,-1118.959285,0,-380.1120999,59.1602616,-136.1766632,68.45802303,-502.2362983,130.9407723,-138.6063936,-118.9945925,508.5261993,0,-28.43067898,-46.01321798,546.6248131,-349.8781641,,,,
555.7839996,2171,-61.22459947,0,254.2148512,18.06364342,49.77551248,-22.01446132,-452.8955071,-50.01502779,58.73885805,44.55887059,-1194.940774,0,132.1232925,140.9553311,-419.2174861,-358.1394596,,,,
555.7919996,2171,967.8688817,0,-93.27731405,-46.10470211,4.763367873,-48.7118091,-612.9784112,-79.06208873,0.833629897,-194.4117308,1620.104182,0,4.723363068,-164.6710315,813.5275794,-314.2726861,,,,
555.7999996,2171,-1682.95895,0,-178.9419508,103.8169056,-131.275037,88.91753294,-868.7050971,128.1057197,-121.8964759,28.433055,-1202.851172,0,23.43217786,131.3291402,-378.0571811,-378.2077079,,,,
555.8079996,2171,1693.066112,0,301.1368985,-86.81269727,124.1080839,-101.3136153,-704.1162349,-197.3913163,101.8834032,-114.86824,494.1933691,0,75.95531981,-67.79300214,164.0071874,-287.4685117,,,,
555.8159996,2171,-1060.091109,0,-398.8235982,65.48475116,-158.560653,81.86426375,-1101.444198,128.0930254,-135.5476493,-114.9320153,523.5855843,0,-45.32807758,-52.10631017,340.5215087,-339.0894499,,,,
555.8239996,2171,-27.96325012,0,248.0342866,17.78239582,35.03163143,-4.70069316,-1007.873735,-51.33584256,63.96979058,45.92053969,-1207.792039,0,99.91600217,137.1241738,-638.9453562,-343.7364967,,,,
555.8319996,2171,1028.430633,0,-89.91580483,-54.05637458,-4.897958934,-35.24905938,-1117.184745,-79.75838607,5.808194175,-195.0198472,1632.316517,0,-21.27192487,-169.9028757,625.4669977,-280.9634558,,,,
555.8399996,2171,-1660.504393,0,-177.5257092,103.5040585,-144.9622955,94.56213223,-1362.389797,135.0301179,-113.9537461,40.9962652,-1188.778129,0,33.13980209,136.8920175,-568.2060745,-354.9035457,,,,
555.8479996,2171,1705.80348,0,317.906431,-83.69029532,115.4179762,-99.42545577,-1192.830762,-196.06717,116.6295347,-99.85133958,476.917759,0,99.31860708,-57.07265196,-59.37494069,-287.3192991,,,,
555.8559996,2171,-1021.573496,0,-386.5683613,63.04101106,-174.6399744,81.39427779,-1575.010896,116.592806,-127.9356457,-104.6634377,542.6330633,0,-21.53314785,-48.72965763,131.7944629,-336.1796905,,,,
555.8639996,2171,-28.64410102,0,249.7184863,22.64962867,14.78943819,-3.899288433,-1482.779403,-56.08066939,59.48585716,56.54432681,-1207.373353,0,125.8876342,138.3199565,-851.4480348,-338.1742642,,,,
555.8719996,2171,1034.410354,0,-75.2777991,-39.12536383,-17.55185171,-32.40875836,-1624.322387,-71.76209789,13.39850542,-185.8494941,1632.838856,0,1.002824368,-163.3501362,406.3689995,-285.8862744,,,,
555.8799996,2171,-1670.783824,0,-163.441251,122.5805748,-168.4818466,99.86714524,-1909.398986,148.3149378,-89.93751046,60.8712241,-1171.315371,0,45.34863181,156.6583759,-810.484121,-370.3572989,,,,
555.8879996,2171,1692.758919,0,326.6703196,-56.94360962,86.9533758,-89.8297818,-1755.492413,-179.6356294,133.1420493,-73.22753187,482.548457,0,97.82041541,-36.45101394,-327.5730059,-306.0471329,,,,
555.8959996,2171,-1024.469745,0,-383.470096,99.12926525,-197.5020058,97.95904232,-2156.851217,150.809191,-121.7863114,-80.81774647,576.838944,0,-22.1574797,-29.03447678,-125.1404639,-347.8433181,,,,
555.9039996,2171,-52.68944975,0,258.4044316,61.88888169,-4.336325909,18.85559449,-2068.944179,-13.41833006,83.40713837,95.51807122,-1187.864851,0,144.4642147,173.195101,-1134.605728,-355.386003,,,,
555.9119996,2171,1058.409018,0,-65.21735558,-14.77565214,-35.34694363,-9.942409599,-2164.306341,-58.49639642,38.06007027,-155.8650996,1662.917227,0,9.198985958,-142.6778248,123.4731695,-303.5406957,,,,
555.9199996,2171,-1647.836324,0,-178.028431,124.6067644,-189.4646157,120.6432045,-2394.501873,145.4644992,-98.58604065,62.72945866,-1127.519448,0,26.50220808,150.8645278,-1050.828792,-359.3226057,,,,
555.9279996,2171,1710.218841,0,322.1131299,-58.77044274,71.08545635,-68.88222746,-2199.950643,-171.2781595,134.5977164,-59.90093123,489.56369,0,90.97087811,-33.0008155,-564.4372022,-291.5479633,,,,
555.9359996,2171,-985.648348,0,-376.8601634,95.46943841,-214.7913423,115.9591029,-2568.12284,151.0293831,-93.80935689,-59.18984249,594.9233927,0,-27.41749767,-18.53142055,-366.2337837,-351.3267312,,,,
555.9439996,2171,-41.52620104,0,241.7205609,48.19053965,-29.40448341,24.45509217,-2449.438368,-25.54814677,88.65281449,96.18192743,-1187.326263,0,127.4405822,168.5572259,-1373.29782,-353.5804418,,,,
555.9519996,2171,1082.798814,0,-77.70068873,-14.81307882,-51.01773738,-3.805681334,-2502.321596,-50.36735048,33.43006181,-152.4286194,1656.821444,0,12.25559425,-147.149055,-111.3769874,-307.8032889,,,,
555.9599996,2171,-1639.576921,0,-170.7610734,151.6929491,-187.5871665,147.3060799,-2679.071826,176.1859106,-74.74779081,95.35290567,-1120.150824,0,49.88271409,171.7683477,-1295.360117,-378.9457775,,,,
555.9679996,2171,1713.633956,0,326.2946858,-34.21352446,86.84521707,-38.54463208,-2423.745361,-149.7317863,160.5539323,-23.32523464,487.0412654,0,115.2471925,6.046548437,-806.143923,-301.5879728,,,,
555.9759996,2171,-969.9185423,0,-388.9492147,99.29821624,-194.6950551,140.0405502,-2718.81932,162.5798948,-93.82244469,-43.34248613,617.3582779,0,-8.403077025,16.04019524,-572.1881525,-350.1426587,,,,
555.9839996,2171,-52.93705369,0,230.6181497,38.61981358,-8.039987836,48.73611205,-2523.700729,-14.17966912,91.8725109,106.2447619,-1181.438015,0,139.3748117,196.579494,-1564.69506,-349.7636979,,,,
555.9919996,2171,1098.555876,0,-89.37376805,-38.93136333,-33.63962269,13.10670714,-2516.144402,-52.36363685,41.68439709,-152.4628267,1659.498903,0,3.896517596,-131.1693075,-269.0466411,-293.165346,,,,
555.9999996,2171,-1634.11508,0,-193.6252761,122.2210122,-179.6031503,154.7944364,-2644.38398,172.3497015,-88.78017049,75.50331612,-1112.246728,0,28.56133409,162.8351272,-1412.244219,-356.5229202,,,,
556.0079996,2171,1717.855524,0,320.9256801,-48.98927196,99.90197967,-34.75655557,-2333.949495,-142.3403612,156.0135974,-36.03585488,471.1934904,0,102.7745373,-18.1925556,-912.6741138,-283.1565688,,,,
556.0159996,2171,-937.7288074,0,-386.9097278,103.7960664,-185.0456533,145.891132,-2595.895592,165.096567,-83.58379559,-43.3281745,627.5422188,0,-17.03217935,-9.918285938,-653.4866258,-329.9799868,,,,
556.0239996,2171,-43.74640982,0,230.2991968,54.47614366,-7.272240414,58.77171559,-2403.852209,-12.94249716,93.68476652,103.4847465,-1182.144971,0,137.290462,177.9068119,-1636.227497,-326.09873,,,,
556.0319996,2172,1109.305849,0,-71.93079543,-13.21963718,-20.38077148,29.04488112,-2414.60478,-30.42197027,62.4391218,-141.626106,1654.106456,0,14.63441098,-128.6943555,-348.036465,-281.9052954,,,,
556.0399996,2172,-1640.277543,0,-179.0858734,147.4238361,-163.5478425,176.269788,-2562.757168,194.9564674,-50.25345684,112.306708,-1105.781459,0,42.25697982,192.406443,-1514.946578,-363.6914893,,,,
556.0479996,2172,1724.784465,0,326.9801625,-50.07058667,112.421491,-21.73261742,-2249.764679,-148.1115557,172.039429,-15.816379,474.2214629,0,107.4241513,3.053741446,-1013.93391,-285.4569514,,,,
556.0559996,2172,-917.4317601,0,-379.7596034,94.51071767,-157.0631017,152.0252722,-2495.117928,165.1933741,-87.85321057,-45.90025391,653.4864818,0,-30.57902051,-15.6575762,-714.1378457,-319.6892187,,,,
556.0639996,2172,-40.09807452,0,230.4263927,47.4389896,33.93710836,61.59684551,-2268.416443,-11.49607311,86.12277455,105.5311425,-1177.686483,0,113.6208653,162.7657406,-1689.7675,-312.3910432,,,,
556.0719996,2172,1156.585021,0,-88.25347895,-38.65338359,20.63560158,17.59984035,-2219.895505,-62.9773475,35.33305978,-163.1448752,1670.039706,0,-13.17400393,-171.5220187,-355.107644,-246.7510362,,,,
556.0799996,2172,-1612.02843,0,-204.0885078,126.6454492,-123.2352288,162.4948538,-2315.508068,170.330145,-85.25078437,81.50105624,-1089.881985,0,13.15552009,142.4063246,-1472.553865,-313.943577,,,,
556.0879996,2172,1745.096841,0,315.5461825,-57.31134627,150.4834952,-29.95795309,-1951.855845,-157.2669671,154.3131194,-29.06907377,446.1668274,0,93.24351497,-25.73539679,-971.9825422,-246.5403743,,,,
556.0959996,2172,-882.0056829,0,-392.09107,84.86453096,-131.6606541,144.8582947,-2146.592432,149.6551631,-98.38075745,-59.53527548,648.4634082,0,-39.59897306,-41.43668086,-644.4583461,-284.6128783,,,,
556.1039996,2172,-50.71645179,0,218.6570508,42.25118429,53.49689958,58.21072951,-1888.569618,-11.24301587,93.8892895,116.6250421,-1200.569197,0,106.9008968,159.4437435,-1624.034716,-289.6725811,,,,
556.1119996,2172,1157.568586,0,-90.6358506,-43.64879367,38.56664037,14.20082653,-1822.004683,-59.78498363,51.95693212,-138.3964068,1643.150458,0,5.192575641,-162.9250046,-303.478054,-245.6854899,,,,
556.1199996,2172,-1618.621287,0,-215.5961791,115.1143128,-113.7868789,157.7773081,-1905.952838,159.4100342,-88.22186765,79.46483758,-1090.811656,0,27.23019963,133.2094406,-1402.317421,-308.4046856,,,,
556.1279996,2172,1737.862868,0,304.7150864,-70.93114807,165.64097,-34.91521386,-1545.406437,-168.3946789,161.2826085,-29.9923175,431.432554,0,73.57518513,-28.39053797,-900.524244,-232.8310876,,,,
556.1359996,2172,-877.141176,0,-407.9613838,70.85944447,-109.5695475,145.5116699,-1760.842837,145.1499806,-91.90057727,-57.98906594,643.3480687,0,-55.25881835,-43.33558315,-566.9449765,-271.6079837,,,,
556.1439996,2172,-69.8622301,0,207.0962805,39.49165033,74.29134041,70.31418169,-1517.102496,-8.944145297,80.9921301,108.952984,-1223.092782,0,113.1686911,147.6870426,-1544.705819,-266.5494793,,,,
556.1519996,2172,1169.390902,0,-79.15877397,-28.30931539,60.40930782,35.50674394,-1462.858455,-51.13318609,60.76717367,-127.2315088,1633.60543,0,-1.958865884,-157.6666019,-223.9677843,-216.5008541,,,,
556.1599996,2172,-1634.289785,0,-203.0974107,135.6574385,-93.54926848,185.0651808,-1587.649511,181.930926,-70.87436697,104.3719414,-1093.229374,0,18.61222644,150.5049222,-1335.734711,-287.1900068,,,,
556.1679996,2172,1717.740162,0,314.3495769,-64.32519608,179.4384588,-16.31991783,-1268.621251,-155.4424809,152.2295641,-23.56087965,410.4180618,0,89.94455013,-32.01570313,-849.0405338,-212.7969862,,,,
556.1759996,2172,-863.1748497,0,-407.250584,66.5350925,-110.5190179,150.3234549,-1536.261392,134.4816175,-110.8353005,-69.89620882,652.2070156,0,-59.53694577,-64.56681494,-503.158633,-246.73742,,,,
556.1839996,2172,-93.30742673,0,207.1461063,36.21647882,67.99126662,68.38630386,-1387.503949,-14.68569229,73.27851809,107.6251729,-1243.436114,0,79.99609202,140.4820751,-1505.30306,-252.0012748,,,,
556.1919996,2172,1157.481542,0,-63.9153289,-34.84860284,56.1641088,26.80700292,-1433.919406,-48.86951007,65.38990159,-117.0950759,1613.446762,0,-13.7071173,-154.1054841,-212.3179484,-218.8995531,,,,
556.1999996,2172,-1645.425041,0,-189.6396708,129.111819,-111.7827036,172.8782591,-1630.839773,172.7408296,-59.39805664,112.2873792,-1093.077739,0,22.06502112,152.574818,-1338.677635,-293.1282269,,,,
556.2079996,2172,1715.699713,0,325.796782,-72.92173069,153.0681836,-31.46946776,-1350.451707,-177.5428469,157.3242148,-14.92710505,391.1947717,0,68.12595339,-31.63575774,-866.0069919,-216.0150177,,,,
556.2159996,2172,-867.4225203,0,-390.3956178,63.06163262,-127.3407293,144.3028866,-1637.360785,140.3928643,-106.982271,-48.80206723,647.4337504,0,-81.39815272,-52.07976563,-525.9029868,-261.0062937,,,,
556.2239996,2172,-121.4001887,0,220.4199555,39.76710063,59.66605663,77.0654935,-1449.155948,2.086756605,84.87191333,130.7105057,-1257.505325,0,94.95511641,167.5112576,-1553.710337,-272.1407361,,,,
556.2319996,2172,1179.597273,0,-76.61769965,-47.75291544,51.06641041,31.36353888,-1410.574657,-63.0431742,53.39728314,-121.7234983,1622.375041,0,-10.16368895,-156.4144404,-231.2628103,-221.6820823,,,,
556.2399996,2172,-1650.858955,0,-219.6906061,107.0655147,-111.0637393,179.3786271,-1558.938319,170.9938079,-91.24158284,98.79495222,-1078.721878,0,-8.290473562,130.3324738,-1317.134375,-284.3431195,,,,
556.2479996,2172,1697.497348,0,314.3227312,-87.06103095,164.9913353,-15.19909641,-1240.183998,-169.6847013,148.0264777,-18.42180919,381.7509531,0,53.07071493,-39.66341541,-847.2957623,-205.4059082,,,,
556.2559996,2172,-850.6002123,0,-402.893185,50.39547324,-113.4049547,156.2001413,-1487.102405,126.1058603,-107.7318882,-60.36940655,666.5884986,0,-85.80557068,-65.86421303,-481.3316102,-242.9384501,,,,
556.2639996,2172,-126.3646531,0,202.3833315,18.78555995,69.23078528,79.59578491,-1282.476477,-13.32906226,72.60153364,111.3349485,-1259.767845,0,66.74232876,141.4722853,-1489.032163,-242.4979162,,,,
556.2719996,2172,1190.06485,0,-76.38252611,-63.34198222,62.07816812,28.96663038,-1234.023754,-72.27399015,47.39220334,-136.393026,1618.048298,0,-37.32826245,-175.6338175,-156.9098153,-187.818844,,,,
556.2799996,2172,-1649.945391,0,-219.2211484,110.008406,-95.93092116,179.6960981,-1374.801048,164.5224125,-94.0283191,93.67766568,-1078.73241,0,-3.328542336,129.2432357,-1244.981857,-260.2169089,,,,
556.2879996,2173,1687.48166,0,323.7361496,-73.77053895,187.7878174,-14.41850481,-1081.275006,-156.3513154,154.1072344,-13.56459398,357.5598665,0,77.45146474,-28.3179882,-795.0261345,-192.080461,,,,
556.2959996,2173,-860.9723537,0,-385.0370127,68.92427951,-98.64634714,151.2271993,-1386.238902,149.1128139,-84.36187122,-43.25061659,667.3168697,0,-58.8187494,-51.72773357,-448.5914127,-247.9732253,,,,
556.3039996,2173,-149.8773459,0,211.6781904,39.99674858,74.22074191,76.86092105,-1226.839751,-4.91475807,96.67961007,135.1689313,-1267.394673,0,90.60899444,155.4731674,-1487.395041,-262.4754944,,,,
556.3119996,2173,1188.038631,0,-60.52888509,-38.09722363,72.2636438,33.59770409,-1235.058562,-56.01091124,75.96063645,-116.8502286,1614.695179,0,-19.47114187,-159.9913377,-164.7636604,-207.831119,,,,
556.3199996,2173,-1676.703092,0,-210.0191372,128.4445105,-101.1732617,180.7630523,-1449.608433,181.0898498,-71.73478024,105.2153167,-1079.84647,0,10.13631601,143.6966912,-1277.556316,-289.4373318,,,,
556.3279996,2173,1674.66658,0,323.4786759,-71.66139373,167.1857273,-17.61724962,-1191.224571,-164.832071,154.7914088,-13.07319553,341.8123101,0,84.0597737,-26.80358107,-852.9193996,-223.3149393,,,,
556.3359996,2173,-850.9714827,0,-380.9173513,72.26435799,-117.8201194,160.4160596,-1522.025593,146.9531567,-85.64881717,-45.23240473,677.2513218,0,-55.78933667,-51.74045992,-498.6863702,-270.3058811,,,,
556.3439996,2173,-168.5427237,0,217.9576947,48.41752032,50.12518792,92.70378415,-1406.854907,3.512020348,105.0388095,148.009477,-1271.295618,0,102.8025652,169.929768,-1563.740532,-286.0524973,,,,
556.3519996,2173,1198.20738,0,-56.9614748,-30.99121444,42.09258286,44.26660272,-1443.308015,-59.67659943,89.61376035,-90.87148413,1635.857497,0,-4.117426016,-139.8292675,-255.6964799,-232.4849871,,,,
556.3599996,2173,-1680.090621,0,-214.2303913,137.5545424,-134.526842,191.4834745,-1678.312074,172.7361762,-55.18460543,129.4699116,-1040.070913,0,15.27398305,161.5805899,-1371.025471,-314.6863195,,,,
556.3679996,2173,1664.008214,0,319.7713451,-65.42761106,138.1207891,-14.24889379,-1445.12162,-174.1819085,171.7119427,0.480801815,353.8769687,0,89.9271334,-22.59714243,-964.1325539,-250.038632,,,,
556.3759996,2173,-840.0223619,0,-389.1161796,76.80591054,-143.1177915,156.3877654,-1775.173677,135.2039819,-77.94336647,-39.71273077,705.3049386,0,-41.14046372,-59.79803059,-603.834952,-294.3336296,,,,
556.3839996,2173,-175.71703,0,207.48981,46.54993151,23.24360085,88.49872168,-1619.938774,-11.26124208,100.6849412,141.9543033,-1265.419974,0,107.7124647,158.1473096,-1665.700497,-305.838013,,,,
556.3919996,2173,1202.156853,0,-64.63951025,-43.32801421,23.66037659,41.14675916,-1592.762699,-69.43556817,79.89351763,-116.9273263,1633.643845,0,-22.37077385,-165.3687588,-339.1651469,-251.1720471,,,,
556.3999996,2173,-1694.971804,0,-219.4125169,141.8405696,-140.1080314,205.5608375,-1758.290808,186.9809138,-59.19823846,115.6391595,-1042.812225,0,-4.515998938,149.8759756,-1440.682341,-334.673353,,,,
556.4079996,2173,1654.083095,0,324.8394925,-49.89118587,137.7412663,10.44440698,-1472.672623,-156.8156564,184.2724075,11.09891453,346.6589503,0,83.36202508,-6.055899661,-1034.412408,-262.9104705,,,,
556.4159996,2173,-848.1325977,0,-392.6863065,79.46090576,-143.9145139,175.2607575,-1785.033243,138.2734202,-66.59843396,-38.74474691,717.2962808,0,-54.93812741,-51.71276825,-658.3198894,-306.2464875,,,,
556.4239996,2173,-219.6425472,0,210.6660124,54.07646491,25.39725061,108.5311015,-1642.945963,1.260379515,106.2543057,145.8160431,-1287.824121,0,98.97488021,168.7283762,-1730.947912,-323.258902,,,,
556.4319996,2173,1172.975054,0,-39.18243852,-29.01674518,24.24192308,56.95224525,-1668.260435,-46.33565986,101.8490074,-90.76409237,1616.50657,0,2.702939381,-134.1995242,-425.6499813,-272.7969406,,,,
556.4399996,2173,-1744.627649,0,-193.6945207,152.7954202,-147.2663403,212.6100704,-1904.354505,209.1574519,-27.8757638,148.9776553,-1057.519139,0,37.2800682,179.6851724,-1560.62011,-366.3534923,,,,
556.4479996,2173,1614.746298,0,360.2530813,-34.88902654,133.4028613,16.46542168,-1647.398749,-132.0167135,213.5990499,44.00251618,322.9827668,0,114.8087333,22.08120021,-1179.771517,-292.5843311,,,,
556.4559996,2173,-883.3867766,0,-359.1344919,99.51025891,-148.4889444,186.3892959,-1954.075829,172.998853,-38.19592655,-4.154866826,718.7490799,0,-36.77595481,-12.3399946,-810.498665,-344.4274313,,,,
556.4639996,2173,-274.4988913,0,233.4263685,78.40553667,22.11829817,127.7700066,-1787.117069,34.21667978,129.3426205,181.4016362,-1298.450819,0,116.4831579,206.4173078,-1904.28998,-365.0882325,,,,
556.4719996,2173,1166.376722,0,-18.25760303,-4.335287118,29.34629944,78.65838788,-1773.866647,-29.43442261,114.0129795,-64.49600274,1641.709815,0,22.21864311,-111.3219034,-568.5654195,-284.0983956,,,,
556.4799996,2173,-1760.819392,0,-185.8429186,168.7556044,-149.5579492,231.9887759,-1990.776573,212.8864987,-26.56666466,162.7810392,-1034.859429,0,40.16126437,191.8259578,-1676.720603,-372.2680619,,,,
556.4879996,2173,1620.237249,0,364.1349394,-32.63779808,126.4558545,26.70625264,-1743.090534,-147.0030786,212.1855644,51.39246919,323.2405315,0,99.81091145,21.48767222,-1295.471837,-299.4093681,,,,
556.4959996,2173,-850.1623273,0,-361.1607923,101.7140167,-156.9263115,187.1556069,-2100.667481,150.9367532,-38.50543909,-1.754832316,744.5753528,0,-41.23157132,-20.74827607,-902.3045713,-339.1019391,,,,
556.5039996,2173,-257.509081,0,227.7288951,87.95024825,8.971430423,126.8888715,-1991.309565,18.44262146,129.6462607,180.4542094,-1306.976727,0,109.3085819,201.4083857,-2011.039502,-366.6631572,,,,
556.5119996,2173,1216.604343,0,-22.29692148,-4.458719516,27.38620025,71.99367383,-1975.314598,-40.44548582,121.806425,-64.09758705,1644.868074,0,-2.19475553,-114.3370678,-684.4609035,-294.2601517,,,,
556.5199996,2173,-1726.843308,0,-201.8660382,162.7010404,-134.9025873,221.984321,-2118.037512,212.4018952,-19.49009932,162.3590528,-1028.637495,0,25.77772904,186.1036458,-1776.643939,-383.6513856,,,,
556.5279996,2173,1660.032766,0,351.0801937,-32.13208644,157.343195,17.20752669,-1750.21369,-137.6776065,207.8421931,48.4526522,319.5606027,0,91.98479128,10.05498746,-1369.153464,-294.2249818,,,,
556.5359996,2173,-806.3479558,0,-366.8012987,99.45745963,-115.4113484,177.2790897,-1976.029138,167.1664665,-32.87110657,6.400483842,771.304905,0,-40.28045358,-23.10467358,-935.9428787,-328.7392178,,,,
556.5439996,2174,-228.6560729,0,225.708974,74.16874439,57.73073474,119.9960286,-1736.307321,28.35604914,135.889592,184.9903943,-1305.066815,0,119.096332,205.6167999,-2014.544766,-352.5325307,,,,
556.5519996,2174,1267.703267,0,-26.54716936,-19.85912079,80.76418977,62.42100946,-1632.147197,-37.40227089,105.3658615,-81.63273961,1658.511709,0,-11.1069844,-128.0807464,-626.4152001,-252.3347915,,,,
556.5599996,2174,-1719.542546,0,-217.0891475,157.8969193,-91.39569279,217.0431718,-1734.203855,216.8913084,-28.30891165,156.1724856,-1036.231248,0,23.25540563,185.1779027,-1694.62864,-350.0345326,,,,
556.5679996,2174,1691.648507,0,334.6086494,-43.08291969,197.8338323,19.00514947,-1303.05556,-154.0393764,205.7471145,45.45609618,287.0794089,0,102.8097562,23.41682624,-1280.970197,-260.7682761,,,,
556.5759996,2174,-750.8528506,0,-397.9783178,79.12871417,-75.39457821,171.1911965,-1459.995489,139.3408948,-60.89710743,-24.18145068,771.8141818,0,-59.82233594,-44.24267044,-780.5067635,-266.3095303,,,,
