Time:125Hz,Epoch,FP1,FP2,C3,C4,P7,P8,O1,O2,F7,F8,F3,F4,T7,T8,P3,P4,Event Id,,,
642.9599995,2511,174.3243652,274.6656039,0,-29.92911862,-316.7642204,0,-427.3158604,-869.3563968,-6444.679545,0,-8.919479279,-235.2754182,-70.93855812,0,0,-9873.579461,1111,,,
642.9679995,2511,-124.5365683,-56.58223626,0,31.61281025,445.1131909,0,520.4432795,-33.20075542,-5619.6095,0,73.38651601,-615.3557296,238.0296152,0,0,-11034.74928,,,,
642.9759995,2511,36.48720288,233.2713366,0,290.5482786,-91.58526563,0,107.0866745,395.6297773,-4833.369166,0,-227.4779191,-395.7777432,19.54158172,0,0,-8928.982871,,,,
642.9839995,2511,-14.73171429,56.91443902,0,-74.25907966,370.8860987,0,-0.090982904,-484.3993057,-5034.363114,0,80.83246167,-369.4488959,87.99556865,0,0,-9739.088368,,,,
642.9919995,2511,-203.2206476,-8.309624959,0,384.6890418,566.0213901,0,783.45743,1212.075059,-3423.335882,0,-221.6813705,-626.1134469,264.7331491,0,0,-8840.996064,,,,
642.9999995,2511,60.80322019,228.7157067,0,149.2419495,197.574995,0,-167.0030561,91.86325838,-3589.772829,0,-148.7084635,-207.3440812,-34.59218653,0,0,-7494.059485,,,,
643.0079995,2511,-245.2447675,-109.4663773,0,217.1966696,986.7644532,0,772.1292889,933.5909352,-2563.187068,0,-43.50207717,-579.8771186,308.9234071,0,0,-8316.048218,,,,
643.0159995,2511,-70.93077194,192.0858457,0,489.1341462,466.6692846,0,352.3374077,1387.913971,-1556.361304,0,-341.11685,-366.8791104,120.6757382,0,0,-5862.136554,,,,
643.0239995,2511,-104.6254297,30.60878088,0,115.2770877,916.1068882,0,203.6028023,457.6932879,-1646.2072,0,-16.91162807,-327.9011156,163.7932105,0,0,-6368.81322,,,,
643.0319995,2511,-311.7177479,-60.75594284,0,546.5321959,1093.261806,0,968.5376866,2116.945365,45.22223924,0,-311.2401628,-606.74662,311.9227089,0,0,-5271.364707,,,,
643.0399995,2511,-26.92064023,193.7937575,0,293.575752,685.0475014,0,-9.17380046,955.1849078,-60.87606683,0,-250.9755141,-208.048273,3.154975672,0,0,-3694.016676,,,,
643.0479995,2511,-323.3194994,-138.1683451,0,338.9483421,1460.494836,0,910.9873807,1721.956331,956.3384309,0,-124.9887145,-566.493075,329.9768781,0,0,-4389.458197,,,,
643.0559995,2511,-164.2577203,144.7854502,0,595.1896818,908.3834496,0,508.0270455,2172.261553,1992.851917,0,-427.9081711,-354.0517023,103.7775577,0,0,-1798.519065,,,,
643.0639995,2511,-185.3049251,-3.41666725,0,230.5089267,1350.108504,0,369.7545272,1235.948326,1959.345869,0,-100.5643777,-309.9749943,156.1399024,0,0,-2099.206738,,,,
643.0719995,2512,-417.7575367,-103.0033631,0,729.2633495,1632.493226,0,1214.888748,3000.888022,3824.06102,0,-368.3837264,-558.9009129,356.6871472,0,0,-761.2361757,,,,
643.0799995,2512,-174.4520357,126.8549915,0,552.8808589,1340.040669,0,313.0586051,2020.804195,4049.334477,0,-341.011587,-121.9525438,62.33926793,0,0,1286.210291,,,,
643.0879995,2512,-528.651638,-249.1144906,0,695.9830267,2320.225423,0,1345.509778,3039.498546,5571.25153,0,-246.6734491,-450.1100311,445.5848517,0,0,1222.779013,,,,
643.0959995,2512,-485.1334031,-40.01422893,0,1122.311683,2087.715926,0,1124.048856,3944.396112,7447.812814,0,-599.4911732,-191.8429016,293.0818817,0,0,4784.954794,,,,
643.1039995,2512,-597.3210776,-254.452091,0,867.7771438,2802.17547,0,1095.486183,3428.608373,8452.440051,0,-383.8512317,-124.7938899,356.7523749,0,0,5790.883151,,,,
643.1119995,2512,-865.3975919,-378.0649415,0,1417.552507,3305.58604,0,2038.154006,5566.051419,11469.25107,0,-728.6266134,-390.0244234,586.2586612,0,0,8524.452186,,,,
643.1199995,2512,-603.9194751,-125.8838412,0,1166.387203,2981.563663,0,1028.503488,4660.320227,12642.88277,0,-709.0827239,13.36490295,289.4723686,0,0,11889.73949,,,,
643.1279995,2512,-838.8577113,-440.5893688,0,1005.363343,3550.808221,0,1716.427234,5211.585972,14286.36636,0,-596.1834114,-465.6723064,536.1322845,0,0,12402.60065,,,,
643.1359995,2512,-563.9439216,-87.23022034,0,1056.893109,2637.634551,0,1096.449219,5330.37736,15432.27377,0,-861.3502012,-370.0686082,182.7666235,0,0,15644.97642,,,,
643.1439995,2512,-419.9877149,-138.4106854,0,425.1834768,2506.891341,0,580.6144267,3683.643222,14813.1092,0,-436.4382054,-392.1349767,50.92752092,0,0,15422.00449,,,,
643.1519995,2512,-527.025735,-182.8427221,0,732.2157227,2337.133801,0,1217.715156,4786.604471,15651.25955,0,-580.353218,-709.9826787,131.1477297,0,0,16168.0039,,,,
643.1599995,2512,-165.7530637,123.4063647,0,418.0996311,1619.404962,0,114.6367022,3199.500328,14857.50637,0,-450.0976829,-246.0072689,-189.1673248,0,0,17620.93886,,,,
643.1679995,2512,-378.9915586,-181.2017612,0,323.3024731,2067.15231,0,850.8852841,3346.029914,14881.21286,0,-242.3181467,-626.118272,165.1008182,0,0,16418.77121,,,,
643.1759995,2512,-148.1409601,158.164381,0,586.3348842,1310.726171,0,467.8111741,3507.068547,15039.34232,0,-474.0150451,-409.4956901,-47.13973072,0,0,18444.82175,,,,
643.1839995,2512,-74.04047942,74.97398947,0,118.5759891,1401.988054,0,129.6683692,2016.174269,14011.45117,0,-79.8331341,-305.2035082,-41.8573881,0,0,17606.15212,,,,
643.1919995,2512,-289.6646087,-53.73933462,0,512.0097858,1443.196239,0,896.4369139,3307.786168,14629.34394,0,-298.6855369,-617.8467745,163.3077401,0,0,17886.71218,,,,
643.1999995,2512,69.09734093,270.8559235,0,260.8040315,852.6457211,0,-114.8083162,1906.004801,13741.75633,0,-228.6354986,-167.2914845,-121.0732185,0,0,19076.89204,,,,
643.2079995,2512,-185.1723133,-57.74489727,0,202.7591061,1416.330038,0,657.2218952,2152.669137,13636.13093,0,-7.352481508,-524.1934729,247.8225758,0,0,17582.50456,,,,
643.2159995,2512,-71.27451583,171.2331537,0,500.2048907,793.7628069,0,318.6397787,2499.130213,13758.56794,0,-326.0364469,-343.3928463,41.49810404,0,0,19405.67847,,,,
643.2239995,2512,21.58548709,108.0019432,0,27.37433277,939.9915613,0,-17.66614158,1102.861851,12749.64039,0,-7.586847596,-285.2830696,3.464705322,0,0,18494.51453,,,,
643.2319995,2512,-180.0429119,9.028848247,0,444.0157709,1062.760729,0,798.2728403,2494.644552,13337.80265,0,-189.1222153,-591.2159341,222.449272,0,0,18587.28214,,,,
643.2399995,2512,134.0741685,295.0111406,0,223.290185,522.9981334,0,-189.1275006,1218.334739,12471.86299,0,-144.9125769,-126.1879131,-79.89768419,0,0,19706.75638,,,,
643.2479995,2512,-112.5062202,-30.21104006,0,154.9100707,1110.663264,0,581.5630508,1508.559205,12360.06112,0,43.24026485,-504.732622,224.6956639,0,0,18115.97946,,,,
643.2559995,2512,27.86195331,241.4301882,0,470.786199,552.3001488,0,296.0370626,1963.495846,12500.05598,0,-244.6141572,-313.6708055,67.80702936,0,0,19828.80387,,,,
643.2639995,2512,78.65912468,139.5239048,0,4.746123689,741.1602278,0,-57.90555319,621.3663209,11509.12808,0,79.91181948,-229.3992992,78.90634833,0,0,18890.79603,,,,
643.2719995,2512,-152.7409,1.671418862,0,414.3323283,895.95865,0,757.1541619,2057.609553,12106.38816,0,-150.1040673,-581.077797,266.6648354,0,0,18905.7387,,,,
643.2799995,2512,209.2942926,343.0338687,0,198.1466679,359.473388,0,-207.2480603,837.5965773,11247.84901,0,-98.6279468,-120.4262379,-42.72432741,0,0,19983.58019,,,,
643.2879995,2512,-68.81522035,-4.938615114,0,125.0117242,974.1454709,0,550.4140746,1141.554509,11117.11048,0,112.7163228,-477.3954823,274.6300517,0,0,18321.13029,,,,
643.2959995,2512,25.60989205,221.7182725,0,446.5095506,438.3280101,0,264.5153995,1661.45499,11294.32132,0,-230.193467,-319.2823267,91.04815784,0,0,20001.90137,,,,
643.3039995,2512,122.0123235,158.6554364,0,-34.92859726,597.1600711,0,-108.1126071,304.9924196,10293.1575,0,90.88235433,-244.6695157,55.75829222,0,0,19036.72351,,,,
643.3119995,2512,-114.7960336,18.81601083,0,370.0536238,780.6998678,0,713.680232,1749.017872,10871.51415,0,-109.4889412,-593.3738029,243.6590589,0,0,18932.45739,,,,
643.3199995,2512,232.4007721,346.3563571,0,160.6339754,246.7372664,0,-268.1672609,567.1658342,10056.6141,0,-85.13729426,-137.0818234,-52.09328807,0,0,20000.84657,,,,
643.3279995,2513,-12.73295928,20.28162348,0,72.40164629,832.7645146,0,473.1004663,832.2590637,9923.705327,0,131.015419,-505.5490732,256.9380062,0,0,18268.32617,,,,
643.3359995,2513,105.0592695,281.5449879,0,424.9928259,333.8167602,0,231.79735,1389.837058,10110.24985,0,-175.4825262,-332.3527601,85.7561115,0,0,19837.53548,,,,
643.3439995,2513,193.7521626,220.9636342,0,-39.2720556,507.4302738,0,-154.6137618,46.22512581,9143.433913,0,160.1195401,-213.7642878,82.479698,0,0,18852.67673,,,,
643.3519995,2513,-85.84326154,39.30721814,0,355.1407408,679.0821312,0,662.2328349,1501.916496,9773.029828,0,-59.31336241,-580.6534246,281.1999854,0,0,18688.81987,,,,
643.3599995,2513,256.6844306,366.0245511,0,160.6502512,145.3657653,0,-311.9040757,354.1340888,9005.415484,0,-56.07028505,-133.1609145,-53.69056186,0,0,19746.47775,,,,
643.3679995,2513,5.959070477,25.73946735,0,64.47533492,763.626424,0,418.161649,606.0229051,8893.550069,0,160.6077008,-483.9215388,243.2682136,0,0,17979.65742,,,,
643.3759995,2513,94.40009429,255.3153186,0,407.4239847,282.6741473,0,194.9624142,1211.468649,9139.364149,0,-167.4230036,-325.9676916,100.2475408,0,0,19530.4907,,,,
643.3839995,2513,207.9425366,212.3501297,0,-65.60538256,435.2209895,0,-193.977005,-138.7087293,8186.575128,0,172.4183802,-197.9202884,73.70359509,0,0,18563.25356,,,,
643.3919995,2513,-37.47192949,55.84179547,0,331.7988569,625.4605848,0,652.8548036,1316.514204,8804.765057,0,-16.17252461,-551.2309099,263.8223515,0,0,18321.8737,,,,
643.3999995,2513,304.324992,396.5896686,0,161.8987277,108.6162476,0,-304.5453978,218.8717864,8052.355808,0,-8.240498755,-81.47113831,-52.2027547,0,0,19379.20962,,,,
643.4079995,2513,43.08572671,50.41900811,0,60.23018963,737.3485743,0,420.6336421,466.042381,7929.064109,0,217.2927335,-420.5517547,237.8009451,0,0,17598.41839,,,,
643.4159995,2513,122.6929445,267.6509391,0,407.5944178,255.8391488,0,211.5195243,1113.452726,8181.947936,0,-120.0800418,-288.4861676,105.1221249,0,0,19115.29788,,,,
643.4239995,2513,225.2406295,221.5839903,0,-67.87718307,392.8107106,0,-204.3968351,-229.3007749,7242.973446,0,190.7786001,-170.3889642,70.56552026,0,0,18188.57011,,,,
643.4319995,2513,-41.18504394,50.8585501,0,315.4310533,617.8738546,0,659.8675308,1238.601634,7889.903957,0,-6.175258535,-537.6714652,260.2144728,0,0,17933.05288,,,,
643.4399995,2513,291.0482291,372.6540845,0,139.1985684,84.6900669,0,-303.7319301,165.6338076,7173.31079,0,-10.89703751,-76.18642493,-30.25677409,0,0,19019.80583,,,,
643.4479995,2513,48.10937153,27.54760971,0,2.428027468,665.264026,0,387.4372219,359.5944044,7055.433016,0,198.252349,-432.9887073,224.6309124,0,0,17225.27374,,,,
643.4559995,2513,145.2712191,275.9587665,0,365.8792297,208.7642214,0,209.9760326,1024.003827,7327.775737,0,-121.2869551,-301.0880382,73.41664112,0,0,18681.52569,,,,
643.4639995,2513,247.9220585,240.3223131,0,-77.4951657,362.7269881,0,-216.1854492,-322.5318169,6395.698475,0,214.5701044,-143.2153035,77.50064955,0,0,17750.33588,,,,
643.4719995,2513,-20.73027724,51.80337781,0,290.903053,565.3071953,0,638.3428422,1121.710572,7057.955098,0,4.414763361,-534.3918652,254.6093479,0,0,17439.65544,,,,
643.4799995,2513,318.132898,388.327027,0,128.0708276,31.03295487,0,-319.2738042,64.88225865,6349.480877,0,5.275088759,-92.22188764,-48.28661338,0,0,18497.62686,,,,
643.4879995,2513,62.25022324,46.70119407,0,14.94786839,652.5516903,0,380.4151705,258.2976492,6229.314931,0,236.7119634,-443.1909767,256.526782,0,0,16673.09646,,,,
643.4959995,2513,146.8464565,278.3453097,0,368.006847,178.3723466,0,221.9391205,953.0908814,6545.204661,0,-109.8568424,-339.245986,99.73652419,0,0,18121.81572,,,,
643.5039995,2513,251.5003032,238.7207533,0,-102.5453107,301.1208791,0,-231.3942384,-411.8054294,5607.508474,0,219.0225144,-180.9476395,76.77232248,0,0,17194.07661,,,,
643.5119995,2513,-31.17929694,40.98521987,0,269.3218442,542.0554209,0,631.9323192,1043.038079,6279.425899,0,7.541777273,-575.7948439,275.0668881,0,0,16845.59844,,,,
643.5199995,2513,307.2482245,376.7573267,0,113.493876,-8.39054848,0,-331.2324298,8.084841304,5601.114038,0,-15.13986769,-139.268156,-46.61254017,0,0,17947.20702,,,,
643.5279995,2513,49.18412172,28.34378939,0,-12.82416581,593.7443368,0,345.103432,172.0290461,5464.155919,0,230.5528951,-476.493312,247.6477148,0,0,16106.25725,,,,
643.5359995,2513,133.907219,262.9890865,0,354.5022738,119.6003749,0,202.2872099,896.4566318,5802.188994,0,-116.1505943,-369.1811926,90.41930808,0,0,17539.07536,,,,
643.5439995,2513,245.0852159,226.5283981,0,-110.791894,216.210742,0,-272.6027435,-485.0709945,4856.987191,0,206.9824038,-203.1977761,37.61388617,0,0,16640.45842,,,,
643.5519995,2513,-63.20676686,6.65111067,0,256.2768139,468.2464129,0,602.747322,981.3652696,5544.9708,0,-2.745923456,-609.095311,248.6035049,0,0,16265.90523,,,,
643.5599995,2513,283.5260039,358.508397,0,97.50919539,-79.62344081,0,-356.9373248,-26.43355396,4909.115476,0,-42.79082861,-173.1592111,-80.76477472,0,0,17404.67618,,,,
643.5679995,2513,30.40701282,5.903399776,0,-50.00834425,526.0469371,0,295.9151155,100.858508,4766.514359,0,211.0076384,-502.3470548,195.646006,0,0,15539.93493,,,,
643.5759995,2513,104.7323357,229.718122,0,320.1609615,57.4374868,0,160.307751,851.9739132,5158.235432,0,-147.2430723,-417.9410317,51.69321719,0,0,16960.85381,,,,
643.5839995,2514,268.0161788,249.1662356,0,-131.1679531,158.4810068,0,-323.0336275,-552.5308962,4242.746023,0,188.0318131,-229.5332079,12.28522798,0,0,16083.88735,,,,
643.5919995,2514,-47.42236624,16.5891122,0,246.9402849,445.189566,0,575.3335902,906.5662015,4943.748349,0,28.33184555,-598.2994636,259.1395317,0,0,15635.01334,,,,
643.5999995,2514,264.3585844,335.5013573,0,90.17029891,-118.8091006,0,-391.4382497,-80.19598184,4344.458896,0,-48.19407401,-179.8787091,-102.3797924,0,0,16804.15439,,,,
643.6079995,2514,118.01352,44.49824995,0,-216.9490744,515.6107064,0,83.62416393,-514.8258249,3812.342085,0,319.1701643,-430.0077444,114.9588783,0,0,14722.14249,,,,
643.6159995,2514,143.3882279,229.6279142,0,225.1757571,219.92225,0,247.3613863,479.5798961,4189.813661,0,33.05690872,-395.9060123,96.05903292,0,0,15844.00405,,,,
643.6239995,2514,230.8397774,298.358213,0,107.889113,124.5043879,0,-29.43862784,24.89264683,3835.932775,0,84.93738183,-247.413587,34.43010945,0,0,15829.06566,,,,
643.6319995,2514,90.5053643,162.8717621,0,171.5075125,292.8950491,0,305.2366741,427.9147093,3970.65681,0,71.20283418,-388.6758599,130.8947512,0,0,15318.33616,,,,
643.6399995,2514,228.744823,280.6907438,0,42.33953151,101.9288613,0,-149.0142544,-181.0024243,3538.950612,0,94.46062528,-203.5179366,1.253523737,0,0,15584.09224,,,,
643.6479995,2514,33.56972732,99.05528003,0,153.4818569,358.288321,0,376.8243955,482.7790171,3835.853051,0,46.05438808,-465.6008238,158.0246059,0,0,14944.95574,,,,
643.6559995,2514,219.7478465,304.7504603,0,98.13678019,22.23357227,0,-124.6011327,42.82589457,3543.808005,0,-8.57896405,-218.3099834,-22.83222234,0,0,15637.0224,,,,
643.6639995,2514,136.4350383,154.9243947,0,-33.13836572,357.1152724,0,166.7588639,-74.45335566,3314.88572,0,177.2839481,-346.2821423,94.08760421,0,0,14504.60732,,,,
643.6719995,2514,136.2164445,344.7709896,0,502.8736794,-83.0508907,0,262.711291,1190.221321,4037.665853,0,-250.3878978,-304.5879807,-9.665942865,0,0,16051.55001,,,,
643.6799995,2514,414.4864926,495.3259592,0,23.15602802,-258.2468857,0,-620.6290507,-521.5768184,3010.212434,0,16.50797431,61.13243309,-197.4521289,0,0,15830.58781,,,,
643.6879995,2514,-13.62261391,-56.95093271,0,-93.92307805,699.9248979,0,565.7114136,-0.177854771,3084.727032,0,332.608145,-518.4986496,276.4760434,0,0,13054.95282,,,,
643.6959995,2514,146.6599986,295.4644881,0,348.406073,-31.01874627,0,163.4772869,738.1481997,3534.926637,0,-132.131888,-274.2091081,19.66039915,0,0,15271.81911,,,,
643.7039995,2514,286.7828523,303.7656048,0,-98.24330363,61.42496855,0,-314.5080287,-578.9642832,2691.775462,0,146.7786271,-114.4568651,-52.03737909,0,0,14481.34387,,,,
643.7119995,2514,-12.88090379,17.5279584,0,81.14392036,524.7315182,0,559.0890055,411.9092349,3093.796236,0,156.4296785,-494.4133289,231.796617,0,0,13336.39809,,,,
643.7199995,2514,225.2463221,358.8790064,0,216.3560783,-134.3684511,0,-138.9513732,253.3238514,3015.756341,0,-84.3039662,-132.6389124,-62.23848286,0,0,14987.03323,,,,
643.7279995,2514,142.3871257,139.462414,0,-149.1841064,297.9849912,0,-10.80757139,-466.999231,2473.107641,0,226.3574389,-240.2366044,46.33598719,0,0,13346.68775,,,,
643.7359995,2514,9.598733006,123.6297012,0,223.6074941,258.6278909,0,436.5143921,687.3859982,3075.060449,0,-35.73328343,-400.1918618,117.2404849,0,0,13748.92724,,,,
643.7439995,2514,256.9692033,346.3228591,0,24.63389301,-90.62917086,0,-312.254832,-279.4905925,2498.759453,0,12.48797093,-53.06784969,-89.56135134,0,0,14301.87071,,,,
643.7519995,2514,30.36053798,45.85508202,0,-47.79151108,428.9778391,0,321.7895157,-6.270994934,2488.032958,0,184.7750099,-349.3708959,130.0947774,0,0,12725.09779,,,,
643.7599995,2514,144.0222466,286.4219124,0,253.3611286,-27.66785196,0,105.8724114,529.6831184,2781.873417,0,-107.8532494,-203.8891707,-34.99772088,0,0,14075.92752,,,,
643.7679995,2514,221.1192339,235.8437716,0,-149.6278504,124.7320505,0,-238.1059048,-657.1620918,1992.810568,0,207.8163306,-82.02208649,-27.268653,0,0,13079.84508,,,,
643.7759995,2514,-27.50866079,65.00928221,0,191.1850802,328.2376279,0,516.5377077,631.5223806,2639.882716,0,16.82005146,-403.1375499,159.7521306,0,0,12784.28344,,,,
643.7839995,2514,294.5992752,394.2420131,0,65.3219383,-173.1201384,0,-315.7717151,-220.4343507,2158.33299,0,-19.26605664,-4.527240753,-116.4260416,0,0,13804.05382,,,,
643.7919995,2514,70.40644862,68.37518317,0,-89.07536417,381.7978378,0,252.0185907,-197.1386405,1989.309918,0,240.7627464,-256.9183861,123.8391981,0,0,12017.40875,,,,
643.7999995,2514,86.53088858,220.4124972,0,281.0359782,-15.01573868,0,196.3005531,625.4614615,2464.321337,0,-112.0024635,-205.651749,9.956154276,0,0,13297.05304,,,,
643.8079995,2514,263.9165895,266.4782596,0,-163.6485925,38.02714608,0,-337.8504099,-765.4743548,1613.600678,0,188.877394,-22.57464385,-60.55662435,0,0,12556.73337,,,,
643.8159995,2514,-28.46354767,39.03510716,0,179.0954783,362.016153,0,554.7373915,602.4531545,2298.469254,0,62.1540233,-391.6075645,190.7777662,0,0,11977.70507,,,,
643.8239995,2514,266.7012676,349.8894051,0,86.30149308,-197.1786273,0,-346.580076,-210.9554176,1864.39707,0,-30.90596766,6.186946035,-98.58981152,0,0,13202.64926,,,,
643.8319995,2514,60.9246325,35.90171472,0,-112.594803,387.3808141,0,201.8984352,-280.1394657,1657.985784,0,225.9907496,-283.312684,127.5801797,0,0,11360.15506,,,,
643.8399995,2515,79.08347642,203.8283113,0,289.2790548,22.14195552,0,231.8751486,654.4910117,2180.474436,0,-115.9615517,-245.8297335,29.8838539,0,0,12624.88299,,,,
643.8479995,2515,281.6572931,269.8290318,0,-163.112521,10.30973755,0,-363.4854245,-796.616405,1284.299112,0,189.9037786,-19.1757878,-69.90764139,0,0,11970.20688,,,,
643.8559995,2515,-15.86586749,31.90635845,0,163.2440349,351.1022383,0,578.2379551,589.3483172,1961.411459,0,75.1392971,-405.9371202,175.3785018,0,0,11285.3646,,,,
643.8639995,2515,271.0226859,350.328125,0,86.80799527,-214.5134486,0,-334.6092147,-201.7239378,1523.904891,0,-27.54486573,11.26884383,-136.2151747,0,0,12571.8968,,,,
643.8719995,2515,50.89559142,14.79991014,0,-121.8963012,383.0070839,0,194.8916801,-304.697426,1300.543068,0,225.922239,-271.6429504,109.37091,0,0,10712.19922,,,,
643.8799995,2515,79.48487608,189.1527338,0,272.9067895,6.187154869,0,245.377855,664.3711202,1869.163537,0,-125.8140639,-248.4996354,27.07147268,0,0,11987.59304,,,,
643.8879995,2515,279.0607454,263.0137309,0,-187.6337225,-17.1890694,0,-386.5585354,-827.4812947,949.5211152,0,193.6577876,-4.599379252,-98.88240589,0,0,11350.9213,,,,
643.8959995,2515,-51.06823068,-8.648330664,0,144.047114,355.8885304,0,564.0016904,560.8594495,1638.044657,0,66.93966436,-409.5543472,174.5676781,0,0,10620.37804,,,,
643.9039995,2515,285.0844741,350.4665973,0,75.11252244,-245.8346953,0,-351.2785272,-223.1857042,1248.259261,0,-51.24756936,2.948331067,-120.2717071,0,0,11975.02618,,,,
643.9119995,2515,94.66643156,50.34518826,0,-131.4443539,341.7944521,0,182.9581275,-362.2303303,985.760556,0,265.8434938,-246.2501888,121.6491185,0,0,10056.14391,,,,
643.9199995,2515,65.17210798,175.8762516,0,284.3506895,-8.853185956,0,258.451832,653.5378127,1564.24728,0,-91.72129813,-225.7223476,55.80431419,0,0,11295.89144,,,,
643.9279995,2515,374.6757314,362.5210035,0,-186.7851255,-262.4638057,0,-729.6291057,-1106.357093,521.3782233,0,141.1516022,141.79602,-182.040821,0,0,11287.65703,,,,
643.9359995,2515,58.71545547,67.33921434,0,59.50550336,198.9387831,0,212.5289071,44.662877,988.8534311,0,120.5937322,-294.2730222,88.23831909,0,0,10204.95107,,,,
643.9439995,2515,102.2603484,144.6114931,0,124.9669086,3.741743039,0,48.17943381,112.6971876,1035.739265,0,-14.90764717,-248.3465234,1.620064242,0,0,10672.27814,,,,
643.9519995,2515,92.13140351,73.73809924,0,-23.31391165,132.8928225,0,72.80257878,-184.8151942,826.3348396,0,102.3261611,-293.4321506,28.95649843,0,0,10029.33896,,,,
643.9599995,2515,146.6932056,187.4530434,0,134.1603345,-81.3177425,0,-29.65226263,82.82264029,937.0206509,0,-31.4481757,-216.4276797,-50.43319338,0,0,10641.18641,,,,
643.9679995,2515,107.1597675,65.19115571,0,-58.49931348,197.8921272,0,57.14597941,-302.9124554,624.5690467,0,146.3245056,-283.061618,46.89111701,0,0,9646.511792,,,,
643.9759995,2515,78.9257792,115.0745733,0,178.0044526,33.294816,0,179.7819784,339.0689667,958.1573841,0,-21.38478901,-304.0324338,46.76106412,0,0,10163.20636,,,,
643.9839995,2515,190.799961,167.6151909,0,-80.17823148,-60.12217821,0,-274.2816585,-524.9410717,430.2176748,0,104.785231,-144.4343468,-65.86779614,0,0,9972.829856,,,,
643.9919995,2515,-19.33460192,-28.34049605,0,51.92047692,275.1067831,0,371.8400764,252.328668,818.5988136,0,61.66137943,-452.401116,139.6939034,0,0,9192.925463,,,,
643.9999995,2515,215.7384945,255.9877672,0,83.86092319,-234.5507323,0,-249.8190474,-95.78690308,658.0005395,0,-66.1586003,-151.5849313,-70.5525672,0,0,10378.27807,,,,
644.0079995,2515,-23.77724389,-161.7740242,0,-293.0653456,563.4427066,0,345.8600269,-592.7948782,188.9405062,0,383.3975302,-474.8756388,220.0266073,0,0,7716.776083,,,,
644.0159995,2515,-232.8289538,-267.7302404,0,99.39400686,686.624598,0,1041.247556,780.8791185,941.2069196,0,156.0357708,-745.813867,369.2216011,0,0,7729.571613,,,,
644.0239995,2515,178.7939066,200.0066987,0,44.33737908,-151.1016975,0,-183.5456526,-156.114467,504.8727987,0,-11.54069803,-173.9513423,-56.2683094,0,0,9716.556697,,,,
644.0319995,2515,129.5882794,132.0999468,0,20.01507674,-37.22770073,0,-75.79324288,-139.4318416,442.3606789,0,27.45442905,-233.1172141,-28.81842001,0,0,9289.918689,,,,
644.0399995,2515,105.8883067,81.95428056,0,-23.7177543,82.45565517,0,36.27803612,-154.6330215,398.1996426,0,78.95965197,-307.3708266,38.96067628,0,0,8823.870125,,,,
644.0479995,2515,94.61221014,92.22162691,0,45.4905701,52.08073435,0,98.65621504,25.84438307,477.7406985,0,46.83591317,-320.2363435,48.12782482,0,0,8821.061549,,,,
644.0559995,2515,158.6411721,174.866058,0,62.31989623,-125.0186636,0,-145.256779,-119.5545618,372.1793763,0,-5.455880899,-196.6790948,-52.08661743,0,0,9188.902555,,,,
644.0639995,2515,75.43329534,21.71607385,0,-87.21677543,190.8181659,0,69.88664528,-311.8027453,182.5225491,0,146.0065732,-322.6212404,71.90514235,0,0,8144.982286,,,,
644.0719995,2515,90.07988871,137.3272254,0,187.2822412,-49.77709151,0,134.2794509,357.0194624,559.5470531,0,-69.77125163,-298.8349808,22.71694749,0,0,8909.119057,,,,
644.0799995,2515,211.9658189,169.5174765,0,-119.0296696,-78.34719396,0,-304.2745503,-653.0848327,-59.72130018,0,139.5566179,-133.6516291,-49.66382251,0,0,8460.387742,,,,
644.0879995,2515,-12.75037457,-22.69547144,0,77.31917629,221.7193495,0,366.8198791,275.3422302,419.3131904,0,60.8804689,-440.6166159,154.8018356,0,0,7841.600751,,,,
644.0959995,2516,216.3186509,248.1578642,0,69.81651116,-254.3983849,0,-290.953403,-160.9915736,215.5505125,0,-64.90091704,-141.9337784,-78.37949329,0,0,8978.757885,,,,
644.1039995,2516,81.76849958,9.912684988,0,-151.7642179,214.6158892,0,52.57405407,-464.2999054,-95.1306836,0,212.069419,-330.1444328,83.27472137,0,0,7374.851338,,,,
644.1119995,2516,47.64809031,113.4324783,0,232.2052604,-39.96500142,0,219.5785937,537.8574569,482.3374951,0,-96.89642615,-355.2598449,21.24327883,0,0,8361.504726,,,,
644.1199995,2516,238.504604,193.9768892,0,-181.9406266,-128.2571016,0,-439.6368324,-828.8584345,-310.8890266,0,125.962565,-123.7927956,-104.697009,0,0,8008.101996,,,,
644.1279995,2516,-38.72743166,-47.69437553,0,60.13327479,243.2883086,0,444.5129137,340.1086605,282.2213657,0,57.23571811,-514.3430232,142.4845321,0,0,7157.046107,,,,
644.1359995,2516,235.2150572,272.3631941,0,45.87544122,-335.7774851,0,-344.3166618,-196.9634074,31.49446295,0,-78.54284321,-141.9282875,-145.0617378,0,0,8515.873778,,,,
644.1439995,2516,73.29884531,-6.352200102,0,-209.4359231,203.0874776,0,34.9760108,-532.6430547,-302.6018192,0,214.0240911,-355.6940201,70.70371014,0,0,6737.507445,,,,
644.1519995,2516,39.08410637,103.8564264,0,215.6834651,-73.65109059,0,239.5110634,580.251347,340.4544152,0,-112.1573518,-384.0624576,30.04650421,0,0,7788.633401,,,,
644.1599995,2516,266.2134247,209.2720321,0,-221.5053378,-175.3210315,0,-482.7844944,-909.5541258,-520.890578,0,151.4405242,-106.4540939,-116.7933948,0,0,7445.789123,,,,
644.1679995,2516,-43.60812096,-56.88084637,0,53.15573689,260.7755659,0,474.7276902,347.7911919,126.4680966,0,76.35135294,-522.3309909,155.3412244,0,0,6518.518991,,,,
644.1759995,2516,245.6798608,284.681175,0,56.63898703,-363.1797086,0,-358.0474967,-214.7721662,-128.4096558,0,-80.98412222,-122.5953072,-155.570751,0,0,7963.128756,,,,
644.1839995,2516,74.10659701,-12.18755508,0,-203.3417265,209.3415345,0,39.33275166,-568.8327148,-485.1186997,0,224.7295301,-328.2429311,70.47326236,0,0,6116.951643,,,,
644.1919995,2516,3.112252495,72.77262141,0,246.6707301,-43.261466,0,260.2040532,611.307785,205.7124187,0,-135.7574663,-356.9848975,40.69154353,0,0,7211.062572,,,,
644.1999995,2516,259.1643011,211.0864049,0,-197.4743843,-196.3040866,0,-501.6565088,-921.8219899,-659.6802564,0,113.6706715,-69.4794452,-133.100883,0,0,6927.567222,,,,
644.2079995,2516,-42.19417991,-54.67008727,0,65.15542003,262.3336727,0,478.4252001,329.76617,-26.73608058,0,69.76792845,-495.2729857,159.8875767,0,0,5944.33527,,,,
644.2159995,2516,221.1023928,259.1439146,0,69.79254821,-347.4137426,0,-369.7692561,-211.9628119,-270.3710555,0,-92.99515894,-103.4772285,-146.8271219,0,0,7433.076772,,,,
644.2239995,2516,75.72465561,-15.09251468,0,-197.1904407,183.2197594,0,12.14922536,-595.2304646,-631.032297,0,219.125862,-321.1490353,64.28459585,0,0,5595.236766,,,,
644.2319995,2516,28.31007545,93.11943146,0,249.7946672,-72.59106597,0,258.502586,589.9841414,51.62132438,0,-114.7079504,-349.4393298,38.39100769,0,0,6648.971834,,,,
644.2399995,2516,261.1935106,209.0776476,0,-204.4546774,-199.4614661,0,-512.98747,-941.200782,-818.1583782,0,118.9353389,-55.66159884,-147.1810185,0,0,6386.149337,,,,
644.2479995,2516,-45.53345754,-59.15987265,0,57.32369899,257.6164916,0,482.3860313,314.6184415,-176.7423578,0,66.36536428,-488.3379715,168.804034,0,0,5386.16679,,,,
644.2559995,2516,237.4735938,282.1563642,0,68.33489163,-366.3349782,0,-342.8960712,-206.4974734,-412.0505098,0,-89.61049657,-78.87806939,-118.6997161,0,0,6883.239296,,,,
644.2639995,2516,76.60876808,-15.88428918,0,-223.8723501,182.649606,0,20.555079,-612.0369229,-777.4073079,0,209.7964905,-287.528374,73.55286626,0,0,5053.471693,,,,
644.2719995,2516,5.148632404,65.65306309,0,223.3197858,-69.31169584,0,266.6168454,592.0627404,-75.37282014,0,-136.3288667,-336.3919265,52.20749587,0,0,6103.35433,,,,
644.2799995,2516,253.4742253,202.5867118,0,-217.9608122,-224.8052863,0,-515.98248,-940.7192135,-950.9236106,0,105.6621754,-38.72617697,-133.8268318,0,0,5880.427156,,,,
644.2879995,2516,-43.69497616,-63.32577943,0,34.08689234,241.0520654,0,480.207045,292.9562191,-325.8332269,0,68.91350686,-483.1919757,158.0378655,0,0,4857.842675,,,,
644.2959995,2516,224.0836036,273.156362,0,60.63398783,-369.9399926,0,-341.8421133,-204.5216915,-548.079955,0,-84.99272336,-89.26991331,-142.7239832,0,0,6374.009664,,,,
644.3039995,2516,53.28971065,-21.56881542,0,-227.8322405,177.9486872,0,4.750488116,-630.1669733,-924.6950154,0,214.9771663,-292.4688209,37.56745737,0,0,4560.648386,,,,
644.3119995,2516,-19.17346501,58.52089832,0,215.0784488,-60.90113958,0,274.5011659,588.7283888,-206.358041,0,-147.0996568,-348.0412713,25.14083277,0,0,5591.470369,,,,
644.3199995,2516,226.850045,191.9162285,0,-228.6744887,-223.8021918,0,-513.210732,-939.1733672,-1056.757766,0,80.47353755,-29.38578656,-158.0227906,0,0,5414.67065,,,,
644.3279995,2516,-71.83788891,-80.71189134,0,16.68141524,236.497564,0,486.6644847,284.7357706,-431.3300182,0,51.35627612,-451.0368498,110.556808,0,0,4367.208517,,,,
644.3359995,2516,210.7960026,267.1582894,0,54.06474668,-384.0461049,0,-316.5687205,-182.3595509,-631.5415279,0,-105.3356214,-44.14033344,-170.7390696,0,0,5894.641875,,,,
644.3439995,2516,55.93509723,-16.34494117,0,-246.0052558,150.8926664,0,9.809132573,-643.3129624,-1009.920083,0,201.8611206,-244.2201753,31.67904974,0,0,4105.078483,,,,
644.3519995,2517,1.612484456,82.36643867,0,202.5127826,-70.97134719,0,305.1306335,582.7281611,-306.415651,0,-136.4193005,-311.4317689,12.71667723,0,0,5091.170932,,,,
644.3599995,2517,256.0468908,224.8495365,0,-227.3939162,-228.3972659,0,-483.5500157,-941.0493419,-1184.018587,0,113.7760829,19.85277153,-153.9578344,0,0,4913.738968,,,,
644.3679995,2517,-69.45527181,-74.4558496,0,8.358870263,232.5603817,0,498.5561688,264.9972384,-571.0069353,0,73.96076882,-420.9701537,142.6877417,0,0,3844.028986,,,,
644.3759995,2517,219.195328,284.5758185,0,59.83963256,-386.2818955,0,-294.0030084,-170.626501,-750.0418941,0,-105.9142999,-20.22669478,-152.5487393,0,0,5395.415211,,,,
644.3839995,2517,82.04775559,11.59777037,0,-232.1351658,154.8974549,0,19.15324528,-660.8294771,-1145.522155,0,220.0941165,-192.376926,26.08173197,0,0,3603.24418,,,,
644.3919995,2517,-4.944811196,77.66456795,0,228.7999512,-60.77870058,0,319.3692075,580.3052491,-429.2668198,0,-123.9685575,-265.4895249,6.635396874,0,0,4556.702557,,,,
644.3999995,2517,240.6048646,214.1604747,0,-197.6569533,-231.4675586,0,-487.3481525,-933.9990586,-1280.867367,0,96.64584319,70.55927708,-163.8497333,0,0,4435.404323,,,,
644.4079995,2517,-172.3048042,-140.3751504,0,173.696261,304.6128633,0,795.4193202,810.2752995,-369.2594142,0,-24.06121275,-497.6804702,185.8102001,0,0,3345.854826,,,,
644.4159995,2517,117.7896081,333.5185605,0,511.1566478,-582.4398418,0,48.00087208,1085.286179,-125.3660344,0,-448.7422796,-74.5449497,-206.5418905,0,0,5891.947113,,,,
644.4239995,2517,207.5239571,266.3037195,0,35.6494967,-373.0749273,0,-315.3876182,-253.1753176,-935.4398886,0,-91.84948739,45.15743282,-208.9393777,0,0,4755.783555,,,,
644.4319995,2517,15.675574,56.57978858,0,95.38068209,-38.20043023,0,220.1619458,262.6259922,-688.7827322,0,-56.49425747,-204.3763297,-7.064719197,0,0,3892.660511,,,,
644.4399995,2517,159.88759,102.1187721,0,-246.3408007,-69.09011905,0,-283.555971,-823.1227589,-1336.775987,0,150.0050474,9.465843272,-84.59015115,0,0,3569.766054,,,,
644.4479995,2517,-10.25279533,-10.08396609,0,17.53549667,90.03740719,0,319.6439996,196.6536811,-775.4529525,0,20.93957189,-254.868451,73.24773152,0,0,3337.381543,,,,
644.4559995,2517,179.9103424,207.7547255,0,-0.782879297,-283.1518127,0,-220.9903148,-240.8302203,-985.1115977,0,-46.09981357,18.28071477,-116.4968238,0,0,4158.088254,,,,
644.4639995,2517,54.19677692,-27.22053914,0,-240.7249465,133.4804941,0,14.43997224,-626.0455166,-1303.397751,0,202.5744002,-113.4912884,29.45662876,0,0,2743.10368,,,,
644.4719995,2517,-0.803418827,59.03864928,0,181.9308148,-112.4611487,0,249.4921454,499.2851862,-648.2907306,0,-138.1937355,-190.900067,-27.165653,0,0,3711.672675,,,,
644.4799995,2517,214.7232099,159.0336342,0,-228.715058,-181.415669,0,-415.9997202,-908.4437617,-1449.5499,0,114.676406,80.70602445,-165.4233836,0,0,3385.899396,,,,
644.4879995,2517,-46.22855325,-71.44299565,0,8.460427383,192.8163502,0,419.5340888,191.7329859,-872.2151759,0,73.73662535,-289.3298382,119.7009123,0,0,2579.449822,,,,
644.4959995,2517,177.8612757,218.087622,0,56.79885577,-339.4918684,0,-261.9845082,-170.4312837,-1026.570573,0,-87.36451871,46.95146232,-142.6794449,0,0,3906.339016,,,,
644.5039995,2517,65.62354685,-26.8745193,0,-258.8566138,138.4289649,0,-20.1036966,-694.5231419,-1418.204612,0,199.8383736,-119.7463978,-6.279093518,0,0,2301.230154,,,,
644.5119995,2517,-0.824221886,49.40450115,0,175.1316186,-66.93462622,0,305.5463376,527.4667884,-736.6744873,0,-115.1200091,-224.6223186,-3.582807027,0,0,3162.679197,,,,
644.5199995,2517,221.5275876,175.5155283,0,-220.9362889,-223.6314364,0,-472.7789096,-917.3987731,-1554.129476,0,109.2649901,106.9123951,-155.2336134,0,0,3069.201204,,,,
644.5279995,2517,-70.3193901,-100.7622488,0,-14.99613316,227.5949086,0,432.2656237,174.3030487,-965.3204237,0,83.55265402,-312.1907448,135.5337999,0,0,2045.96324,,,,
644.5359995,2517,188.7140938,228.5610561,0,60.56874762,-359.7579706,0,-277.6167698,-154.180049,-1089.458961,0,-89.69128502,58.72613019,-154.8321039,0,0,3530.669296,,,,
644.5439995,2517,62.92059946,-32.66655645,0,-264.0323413,128.4752383,0,-50.44009848,-731.8605984,-1500.037375,0,215.2907664,-102.3269374,12.86687893,0,0,1886.657603,,,,
644.5519995,2517,-21.051512,26.86565117,0,183.5526855,-65.9987943,0,307.3726741,528.8316976,-786.9609585,0,-114.0662654,-230.2700956,23.9238832,0,0,2704.396641,,,,
644.5599995,2517,233.5299513,180.0086876,0,-218.089127,-264.6302368,0,-505.4273703,-941.1071846,-1619.951351,0,106.4968526,133.3143362,-170.1191037,0,0,2699.323781,,,,
644.5679995,2517,-86.46894179,-129.4166928,0,-26.49756391,238.7542345,0,435.5301217,145.2759492,-1041.930247,0,91.23822602,-310.6303466,149.9559965,0,0,1573.782474,,,,
644.5759995,2517,171.1626081,207.7038532,0,75.08894298,-369.8108757,0,-281.8012737,-143.395209,-1145.108987,0,-115.1286642,57.08411482,-140.7652198,0,0,3143.270859,,,,
644.5839995,2517,69.2843596,-38.25935193,0,-260.4331239,104.3190326,0,-57.73737139,-751.5958831,-1575.349156,0,209.3290941,-85.06844268,18.3305624,0,0,1481.716794,,,,
644.5919995,2517,-19.59335154,18.97214048,0,202.5689994,-64.99400084,0,324.7050758,539.9650345,-843.2564734,0,-101.3963689,-205.3735554,61.57433008,0,0,2271.111121,,,,
644.5999995,2517,239.6392039,178.9323913,0,-188.2101195,-270.6614358,0,-509.2285478,-931.2919764,-1664.183507,0,104.1660888,167.5533219,-156.7292024,0,0,2328.194584,,,,
644.6079995,2518,-81.18973322,-140.0930481,0,-3.01507993,221.7328995,0,428.9955245,121.0788786,-1105.553344,0,90.98068065,-290.9561611,130.4158983,0,0,1139.920689,,,,
644.6159995,2518,169.974207,194.0061897,0,121.4987359,-397.9041409,0,-285.1334879,-140.928799,-1200.963984,0,-115.8920963,67.61933876,-135.87524,0,0,2719.14513,,,,
644.6239995,2518,58.55531859,-63.93662871,0,-238.8382513,89.02590004,0,-80.61709038,-773.3857935,-1632.721229,0,201.0158296,-89.13906553,4.371916507,0,0,1088.367625,,,,
644.6319995,2518,-40.82624941,-16.17890546,0,212.8684536,-62.68409245,0,308.7999726,522.9917777,-898.6939756,0,-121.9850548,-237.9727589,9.294130454,0,0,1860.409679,,,,
644.6399995,2518,234.0463052,160.3158155,0,-159.4091774,-271.7934208,0,-523.5744168,-938.4450077,-1723.732319,0,87.84364383,137.1818585,-192.2018609,0,0,1952.548985,,,,
644.6479995,2518,-69.06812739,-147.2481231,0,7.181767913,226.8176114,0,424.1581701,96.06678241,-1168.560018,0,96.93617488,-323.4381209,111.8997752,0,0,741.934157,,,,
644.6559995,2518,198.6468371,212.5863607,0,131.2430937,-393.6870517,0,-273.5455044,-144.4727645,-1255.854972,0,-95.6458805,50.82853977,-147.1781219,0,0,2307.597293,,,,
644.6639995,2518,79.19044004,-51.78172506,0,-215.4927403,104.4219853,0,-69.58172927,-791.9940433,-1713.400671,0,242.0012268,-75.25284857,16.45675152,0,0,653.5098779,,,,
644.6719995,2518,-57.62509298,-44.96048201,0,233.2712512,-34.43614788,0,330.3906148,521.8007327,-964.5035595,0,-106.5187184,-252.6831296,42.24442419,0,0,1401.268116,,,,
644.6799995,2518,226.6530442,149.7813284,0,-161.7124883,-263.5814332,0,-519.0970112,-936.2363532,-1765.675914,0,72.24535176,105.4311206,-145.3021301,0,0,1550.24639,,,,
644.6879995,2518,-80.54561898,-157.4834071,0,-4.77436185,244.2247236,0,428.2540213,84.52443639,-1224.506619,0,104.8665666,-343.5662508,163.2215197,0,0,314.6495767,,,,
644.6959995,2518,144.2849165,161.4925535,0,125.9192632,-382.9659871,0,-273.6345152,-117.4712327,-1290.630586,0,-119.5983292,18.48332951,-130.9866846,0,0,1913.036238,,,,
644.7039995,2518,46.52120091,-88.33124045,0,-251.3324935,81.24160094,0,-103.1690448,-792.76341,-1740.399343,0,182.7602312,-127.1048694,1.927639877,0,0,322.7571867,,,,
644.7119995,2518,-44.80937219,-36.38562575,0,197.3538456,-61.44797735,0,320.0433971,520.6002896,-1000.24766,0,-122.3648132,-292.9658154,35.40573394,0,0,1030.40656,,,,
644.7199995,2518,229.9307738,162.3610289,0,-174.4778803,-302.0338904,0,-526.801425,-931.5812393,-1820.83764,0,88.26743763,109.7920467,-167.1396291,0,0,1179.557236,,,,
644.7279995,2518,-101.8817729,-174.4816778,0,-23.85245065,222.1280904,0,419.6680257,72.65086936,-1293.753831,0,100.7706374,-350.8488411,133.0540799,0,0,-76.45184377,,,,
644.7359995,2518,149.624479,161.8233076,0,109.2305218,-383.3264781,0,-270.728164,-109.6935795,-1339.497352,0,-135.17061,-17.52577616,-132.5747814,0,0,1535.64426,,,,
644.7439995,2518,69.45551364,-69.2850184,0,-273.196611,73.02725417,0,-118.9744527,-825.2458941,-1811.084713,0,208.0943345,-141.2286972,-8.469931056,0,0,-62.50840762,,,,
644.7519995,2518,-62.73721382,-54.64513813,0,191.518966,-61.33938815,0,326.1074415,502.4461692,-1077.218276,0,-92.5834376,-297.192771,15.41087473,0,0,598.8902758,,,,
644.7599995,2518,207.6988827,136.1275591,0,-167.2975489,-306.1337005,0,-529.4243494,-932.210586,-1877.365689,0,80.09199337,103.3242916,-157.5136452,0,0,812.0347514,,,,
644.7679995,2518,-111.8453133,-189.0494943,0,-31.76246602,206.9787489,0,407.1172312,47.6368696,-1349.546104,0,106.4011569,-354.9691491,131.9784485,0,0,-452.9183806,,,,
644.7759995,2518,123.2436992,141.7144122,0,113.3874021,-405.7045779,0,-265.3696517,-100.9873295,-1377.514839,0,-129.556616,-7.549792197,-137.6995097,0,0,1153.793303,,,,
644.7839995,2518,57.58372733,-76.25507984,0,-266.9124858,61.09590875,0,-123.5462569,-830.0006069,-1842.810375,0,195.7147723,-124.2382561,36.78086214,0,0,-411.7903323,,,,
644.7919995,2518,-62.16903121,-47.13239627,0,197.8121283,-52.27577547,0,340.3430367,508.1361265,-1093.762953,0,-92.85041348,-290.9959571,47.99597346,0,0,223.294492,,,,
644.7999995,2518,203.225722,142.1747179,0,-166.2233339,-305.6294979,0,-526.4851403,-913.1775851,-1882.472712,0,69.26896078,115.213213,-162.9839942,0,0,472.9130671,,,,
644.8079995,2518,-115.8116703,-189.7834353,0,-47.08210289,208.5751373,0,400.5296088,44.48738131,-1359.352771,0,91.57700021,-342.603301,160.9119249,0,0,-790.1689424,,,,
644.8159995,2518,105.5147243,129.0308142,0,107.2353981,-405.3845303,0,-263.3036436,-84.00067041,-1388.929348,0,-144.9977623,-2.674917128,-135.6707195,0,0,819.6348867,,,,
644.8239995,2518,47.47073215,-88.2000184,0,-286.0693084,60.62257883,0,-145.0803864,-833.1910062,-1876.140889,0,162.560029,-131.6532568,-1.394805694,0,0,-717.251938,,,,
644.8319995,2518,-51.02118316,-49.56330578,0,177.1397891,-54.57171106,0,331.6577268,504.5575455,-1139.250344,0,-103.8359067,-297.233654,57.38530684,0,0,-112.1804571,,,,
644.8399995,2518,216.5296803,142.5852207,0,-170.3239475,-326.0818645,0,-539.2820922,-918.0441814,-1948.30654,0,80.15486051,132.9919775,-168.0158998,0,0,136.3356889,,,,
644.8479995,2518,-95.23555668,-179.5386825,0,-57.89960799,200.6511062,0,384.3051134,21.02059801,-1431.650004,0,96.71978063,-337.8660791,152.5416174,0,0,-1150.063652,,,,
644.8559995,2518,133.0318866,152.0100077,0,115.0820896,-429.4240099,0,-257.742574,-80.95441604,-1444.831996,0,-127.5201399,2.4291961,-111.3641983,0,0,445.9891294,,,,
644.8639995,2519,44.85103,-88.49225794,0,-269.8774984,30.61831498,0,-147.7372854,-837.127566,-1930.206615,0,181.087656,-106.3377975,-10.73343786,0,0,-1082.588546,,,,
644.8719995,2519,-90.2224123,-79.68575852,0,182.1709863,-40.5880092,0,332.8599397,515.7939419,-1152.658011,0,-122.9886707,-308.506007,63.6220129,0,0,-471.6498636,,,,
644.8799995,2519,196.0271617,130.6761559,0,-169.430246,-321.8268526,0,-547.6820918,-916.2942098,-1948.01117,0,48.11458488,101.6996874,-142.856635,0,0,-185.5552526,,,,
644.8879995,2519,-217.5546933,-272.2755834,0,67.39917045,317.5303447,0,707.3809888,525.4022592,-1159.394716,0,27.76373268,-511.0132522,228.0691487,0,0,-1652.614563,,,,
644.8959995,2519,35.36393334,113.0240213,0,297.4192761,-431.2950106,0,-69.67036968,444.532573,-1166.181408,0,-249.8187728,-91.52918352,-84.80501505,0,0,326.5783142,,,,
644.9039995,2519,139.4274856,-19.65254166,0,-419.2441071,-107.2410805,0,-580.673463,-1495.44742,-2309.045924,0,231.6019983,75.27953766,-104.4268226,0,0,-1221.923622,,,,
644.9119995,2519,-198.6390967,-206.8070548,0,164.2897546,130.0447609,0,578.9234176,668.9427002,-1040.578915,0,-109.1248783,-456.6031151,140.138172,0,0,-1283.211947,,,,
644.9199995,2519,193.7050788,189.30848,0,-12.79284521,-481.0647764,0,-547.3235995,-554.4954642,-1690.672067,0,-107.6890579,102.964112,-205.5903066,0,0,40.48606393,,,,
644.9279995,2519,-45.1148958,-273.3893675,0,-509.9225203,426.063936,0,71.51990886,-1206.887279,-2162.388433,0,385.3294521,-253.9695863,116.8539949,0,0,-2756.375211,,,,
644.9359995,2519,-203.2180621,-314.8492731,0,-110.3062223,418.9895882,0,611.2844465,68.80501398,-1424.755693,0,136.9185919,-478.0251615,209.3136962,0,0,-2432.946953,,,,
644.9439995,2519,91.19626512,38.76825413,0,-84.93941283,-202.3259837,0,-234.1629953,-488.7826142,-1702.011963,0,4.9980372,-38.65391355,-92.03981918,0,0,-926.2271957,,,,
644.9519995,2519,29.29648084,18.5038012,0,67.74404379,-195.9079047,0,9.591858303,21.65517891,-1442.682468,0,-72.83943027,-123.8066292,-54.65970003,0,0,-904.7485429,,,,
644.9599995,2519,83.92330502,11.64402133,0,-138.8489319,-141.0151933,0,-188.0374075,-590.4466274,-1816.465895,0,67.9194976,-40.92844207,-50.3098579,0,0,-1324.700177,,,,
644.9679995,2519,-21.82061133,-67.50132445,0,-32.65588494,-27.2427136,0,116.4613959,-134.5488901,-1553.192633,0,19.66158801,-186.5303394,51.45082583,0,0,-1559.81041,,,,
644.9759995,2519,63.2530834,77.32115618,0,66.08487382,-308.1135264,0,-169.0534173,-126.8248314,-1529.084717,0,-104.4546239,-38.90973671,-67.82565615,0,0,-813.3377087,,,,
644.9839995,2519,31.60354658,-65.20972837,0,-223.0880228,-2.15001026,0,-135.364548,-735.3060206,-1912.729031,0,115.7373148,-90.52691118,18.53616527,0,0,-1879.717716,,,,
644.9919995,2519,-40.72992731,-25.42447433,0,141.3027563,-125.1966958,0,221.9120697,329.1372097,-1300.430061,0,-119.7720018,-197.9152161,39.25790653,0,0,-1318.006375,,,,
644.9999995,2519,163.9673978,115.5845706,0,-138.1105497,-289.5013169,0,-414.1498073,-799.5141969,-1955.286816,0,53.62163846,134.1414752,-123.9535319,0,0,-1266.222077,,,,
645.0079995,2519,-66.54963146,-123.5670302,0,-45.6966234,129.6237843,0,294.3732815,-86.18107418,-1546.180656,0,76.35111005,-200.5145884,116.1323777,0,0,-2252.876474,,,,
645.0159995,2519,101.3293008,136.0677733,0,102.7328854,-368.1747851,0,-192.9332036,-77.66431014,-1480.965543,0,-123.8821976,53.87280718,-77.88311835,0,0,-928.5745273,,,,
645.0239995,2519,37.17059406,-58.3097341,0,-254.0245595,-3.022376837,0,-170.8295709,-844.5178186,-1975.038751,0,161.2374937,6.755889669,-8.76514949,0,0,-2237.860498,,,,
645.0319995,2519,-104.3835865,-78.02137107,0,164.1153461,-67.18977983,0,315.1094801,454.774567,-1226.545939,0,-127.2373673,-188.220271,43.48389972,0,0,-1709.257638,,,,
645.0399995,2519,145.9745707,107.9085767,0,-148.7258418,-317.4734909,0,-514.2511161,-845.5796577,-1959.482444,0,14.51543983,193.8442257,-124.0137503,0,0,-1376.805306,,,,
645.0479995,2519,-122.0368992,-178.5173333,0,-68.81119231,193.1680662,0,323.0043058,-54.12120662,-1515.254911,0,56.23266659,-219.2774133,147.9073114,0,0,-2596.888177,,,,
645.0559995,2519,107.1385515,150.1906142,0,114.4113659,-393.5369285,0,-210.1880973,-42.08706308,-1469.519123,0,-149.852995,81.45748014,-107.6667984,0,0,-1083.714595,,,,
645.0639995,2519,51.50062727,-45.68302828,0,-257.5476723,12.82438976,0,-181.5257187,-879.2870622,-2021.350353,0,188.7937157,62.03427041,10.56458941,0,0,-2500.083674,,,,
645.0719995,2519,-96.12387973,-63.47986661,0,162.7120094,-34.98959332,0,350.3402679,489.4210444,-1218.814448,0,-116.2169287,-152.7852386,75.05017174,0,0,-1983.594819,,,,
645.0799995,2519,201.2429275,164.89864,0,-165.5669466,-355.2787032,0,-522.0940616,-882.1152887,-2011.439654,0,38.59188471,256.9757944,-148.716011,0,0,-1608.487819,,,,
645.0879995,2519,-102.2589693,-160.6155903,0,-73.37068426,192.3466058,0,376.5615156,-51.30252801,-1559.90504,0,105.8600811,-158.3781335,170.7432364,0,0,-2951.444027,,,,
645.0959995,2519,103.9311917,156.7510228,0,111.1447517,-397.7939845,0,-190.0658449,-26.20730066,-1482.587559,0,-142.6201457,141.5698176,-87.84872968,0,0,-1343.078133,,,,
645.1039995,2519,58.25281249,-36.41614417,0,-275.0801208,14.23839443,0,-169.5082775,-899.4483976,-2057.469703,0,195.3459232,103.4404315,22.84848438,0,0,-2795.22777,,,,
645.1119995,2519,-114.2858625,-78.18846802,0,164.849541,-27.57983738,0,388.2578341,515.3217706,-1234.478526,0,-115.4572737,-123.728703,117.1774135,0,0,-2285.307384,,,,
645.1199995,2520,183.9126168,154.4782767,0,-172.663655,-352.7680826,0,-514.2651198,-869.6929766,-2022.282971,0,14.2870527,280.0693001,-131.4501081,0,0,-1847.363343,,,,
645.1279995,2520,-93.81794682,-155.3708941,0,-95.34730302,205.5274329,0,385.5754104,-60.29360047,-1585.42997,0,100.1598614,-139.5877234,184.2653472,0,0,-3236.795227,,,,
645.1359995,2520,93.34965446,140.6811098,0,95.6709143,-405.2073778,0,-183.040713,-14.33371029,-1516.28268,0,-148.533129,156.0317771,-71.54038903,0,0,-1617.803873,,,,
645.1439995,2520,48.05840197,-53.51000868,0,-298.2811457,9.630792269,0,-174.8689376,-896.1272004,-2097.775756,0,176.5223412,101.8582462,19.40744441,0,0,-3055.138492,,,,
645.1519995,2520,-101.5292229,-74.62279681,0,141.6639877,-25.49065589,0,391.891806,521.4957597,-1260.97509,0,-111.0337912,-111.582971,116.3380342,0,0,-2547.457509,,,,
645.1599995,2520,178.5065244,143.3919974,0,-186.6629686,-371.3666826,0,-517.6615904,-861.7360389,-2058.47226,0,28.51505422,315.2763528,-142.762241,0,0,-2097.209879,,,,
645.1679995,2520,-110.8862375,-178.0691383,0,-103.1489295,197.5719151,0,377.5829064,-52.58093156,-1616.885168,0,96.0015916,-122.0042343,166.3102388,0,0,-3493.815594,,,,
645.1759995,2520,109.4657813,150.5884514,0,109.2698816,-403.1253216,0,-185.9579397,-2.304298666,-1517.452476,0,-149.9507386,166.2017055,-66.87415284,0,0,-1848.877241,,,,
645.1839995,2520,61.23926001,-43.47134186,0,-265.0197041,18.11710029,0,-184.7645809,-903.3987138,-2114.750104,0,193.7499677,134.0348303,44.88077599,0,0,-3302.26785,,,,
645.1919995,2520,-124.9781772,-100.6943097,0,182.5747818,-6.594289308,0,389.214556,536.8583944,-1268.400857,0,-117.7244811,-96.00661902,131.5229672,0,0,-2810.263006,,,,
645.1999995,2520,164.6011165,124.5251915,0,-149.1948189,-370.7077077,0,-527.2571857,-846.6703818,-2048.999206,0,-4.654000123,305.0486157,-147.0433709,0,0,-2316.436116,,,,
645.2079995,2520,-109.72672,-184.1132924,0,-87.73053615,190.4888496,0,367.2552897,-60.57009697,-1616.743514,0,75.93662175,-129.8297781,170.4211441,0,0,-3732.411932,,,,
645.2159995,2520,107.684027,141.4227592,0,114.0978583,-403.7746043,0,-177.8960748,8.604346,-1521.422225,0,-150.3289929,176.6884725,-76.10392179,0,0,-2107.457807,,,,
645.2239995,2520,75.11517192,-38.83961871,0,-258.9998178,4.619342636,0,-185.4400182,-909.2902525,-2130.76411,0,202.9222537,155.1481723,4.64249889,0,0,-3555.088913,,,,
645.2319995,2520,-83.69194726,-70.45931225,0,191.5298373,-27.7119157,0,395.7772491,530.3878081,-1272.305242,0,-104.1386245,-81.73341344,90.46362119,0,0,-3070.243018,,,,
645.2399995,2520,202.1556709,154.5500106,0,-129.1902408,-362.1970601,0,-515.2955902,-845.5863709,-2073.995026,0,38.52445418,349.5210402,-161.4463816,0,0,-2587.265361,,,,
645.2479995,2520,-99.21473388,-179.953739,0,-64.76760826,224.690941,0,379.9498515,-59.63660176,-1661.567591,0,119.4921365,-75.66464335,170.0983038,0,0,-4025.688585,,,,
645.2559995,2520,117.876011,146.9111434,0,128.8359441,-393.8624424,0,-156.2783744,36.19404509,-1529.135171,0,-157.0348083,193.4213717,-83.97566404,0,0,-2357.077161,,,,
645.2639995,2520,64.39705947,-48.44346504,0,-268.4111742,12.11716917,0,-171.9533936,-890.0551819,-2148.679299,0,203.4120008,172.7041809,29.38815069,0,0,-3790.911808,,,,
645.2719995,2520,-133.4363297,-118.652918,0,155.9183496,-10.29341775,0,408.2446224,561.5125323,-1290.929955,0,-108.7725413,-78.28106478,125.0857975,0,0,-3318.281529,,,,
645.2799995,2520,198.0017009,139.5194444,0,-175.4311215,-378.2740202,0,-525.8225941,-829.4663078,-2067.368736,0,-6.668134152,318.580363,-156.5626536,0,0,-2775.140991,,,,
645.2879995,2520,-91.55715139,-185.2917499,0,-102.7740872,214.7682485,0,369.2315345,-64.59856847,-1675.766376,0,128.1725545,-90.01410972,191.7307186,0,0,-4248.53294,,,,
645.2959995,2520,72.20268791,99.77025462,0,95.88572423,-405.090731,0,-166.6211894,63.40463712,-1538.57972,0,-145.0872534,183.1851258,-86.85819424,0,0,-2577.378303,,,,
645.3039995,2520,65.69601322,-62.82739722,0,-314.4431905,-19.88261805,0,-214.3431062,-904.3704906,-2147.400823,0,170.3816045,134.187395,-18.9845303,0,0,-3960.129658,,,,
645.3119995,2520,-105.3468282,-113.4531992,0,124.1376235,-7.118883072,0,396.8239738,547.7063988,-1302.622375,0,-88.80675068,-114.7176065,117.1361564,0,0,-3549.719029,,,,
645.3199995,2520,167.4615738,105.1744733,0,-197.870825,-379.1788402,0,-540.3291059,-810.9902219,-2073.930921,0,7.377202302,291.5157341,-165.2799402,0,0,-2987.826094,,,,
645.3279995,2520,-119.2708372,-214.405317,0,-128.4507456,201.0834295,0,341.6470367,-59.68067586,-1666.474847,0,90.50120751,-131.895951,155.6387098,0,0,-4420.682342,,,,
645.3359995,2520,83.77668145,103.1465094,0,87.6094847,-398.7713365,0,-163.6262389,81.69863919,-1527.130518,0,-167.6170939,146.1541243,-114.5566857,0,0,-2750.033845,,,,
645.3439995,2520,59.6081535,-80.18981112,0,-324.3522303,-21.29109579,0,-238.1578449,-911.807912,-2159.345234,0,158.5790236,107.5266741,-50.55814458,0,0,-4133.729853,,,,
645.3519995,2520,-125.0656674,-140.7221426,0,129.6843286,-21.46314859,0,379.6021733,549.5000017,-1302.155637,0,-112.8628756,-152.530282,112.2355793,0,0,-3729.167475,,,,
645.3599995,2520,255.8152133,228.252885,0,-94.75706236,-625.6333572,0,-713.7178794,-730.1595988,-2015.570504,0,-104.8627416,379.1803886,-280.6126006,0,0,-2518.310374,,,,
645.3679995,2520,-106.9330955,-136.9542056,0,124.321854,-20.53450739,0,396.3931159,535.8351504,-1329.563014,0,-88.53085164,-111.7921036,84.54694675,0,0,-3873.711877,,,,
645.3759995,2521,-122.5941522,-11.73152792,0,515.924524,-333.2533314,0,499.58985,1504.397486,-725.9199688,0,-388.3239232,-115.5702407,63.26300443,0,0,-2737.151071,,,,
645.3839995,2521,66.98280979,41.2298472,0,28.88855202,-319.5107358,0,-136.878115,-49.31918103,-1640.519567,0,-102.3512485,130.9961216,-91.14577636,0,0,-3290.130802,,,,
645.3919995,2521,-28.71105362,-63.21917846,0,67.215066,-145.5875067,0,144.5798229,227.4826829,-1499.461358,0,-78.10129815,8.230720836,16.29356861,0,0,-3730.653754,,,,
645.3999995,2521,102.2697047,-23.63202907,0,-257.970848,-171.5431559,0,-357.6259769,-867.7819012,-2148.008309,0,103.313094,200.3683893,-81.38482509,0,0,-3989.007191,,,,
645.4079995,2521,-93.45604852,-189.856868,0,-49.82828687,65.51965809,0,218.4880519,21.85460877,-1618.307544,0,-3.654434721,-98.77906554,95.67463991,0,0,-4359.505781,,,,
645.4159995,2521,84.30071479,43.76092066,0,41.3666926,-342.9651303,0,-193.0319229,-78.28148045,-1626.064596,0,-138.909365,108.0762874,-87.84598896,0,0,-3320.817977,,,,
645.4239995,2521,60.73983224,-104.4800533,0,-302.1707557,-2.836348888,0,-175.0118769,-872.6221417,-2147.491254,0,173.5747792,78.29895638,-40.77920663,0,0,-4597.000706,,,,
645.4319995,2521,-91.302735,-115.5550796,0,143.6436721,-100.0627343,0,297.3721248,502.8763557,-1343.328891,0,-132.1304009,-107.5191041,29.25854391,0,0,-3926.664889,,,,
645.4399995,2521,164.6635394,57.50719847,0,-207.315509,-312.8057362,0,-479.797841,-850.1127468,-2128.688129,0,34.28753199,219.231986,-179.4430711,0,0,-3751.105858,,,,
645.4479995,2521,-105.9323294,-229.5735482,0,-101.977267,154.8227044,0,287.4321084,-75.88704822,-1703.887966,0,83.11361109,-164.5167619,104.3727348,0,0,-4841.970395,,,,
645.4559995,2521,55.77418581,33.17172149,0,78.43578484,-368.9340148,0,-164.6317188,46.07341673,-1573.530801,0,-165.8286734,63.97696044,-101.198656,0,0,-3383.890475,,,,
645.4639995,2521,61.15054975,-104.4050011,0,-314.7181652,-23.48940074,0,-236.0164933,-909.1366647,-2172.910361,0,153.605518,61.78175869,-63.93117613,0,0,-4656.276147,,,,
645.4719995,2521,-121.1164432,-160.1079411,0,121.9007924,-32.68942664,0,352.2051621,519.8130448,-1342.310937,0,-115.7481373,-177.1198508,57.0467897,0,0,-4236.63928,,,,
645.4799995,2521,165.7579123,67.92634279,0,-191.9423521,-375.1947495,0,-520.7570839,-794.2195678,-2099.644897,0,-4.978992076,227.331391,-180.9934485,0,0,-3723.669128,,,,
645.4879995,2521,-125.9449515,-263.6236076,0,-151.2770522,160.2850687,0,280.6585111,-118.3209925,-1725.165716,0,79.99236863,-180.3601345,103.9968081,0,0,-5072.588354,,,,
645.4959995,2521,43.50297801,22.72691014,0,65.02258511,-399.8143203,0,-171.7307578,72.8848921,-1551.92219,0,-191.9171512,41.62649947,-118.5096207,0,0,-3508.401697,,,,
645.5039995,2521,61.31788196,-101.8989269,0,-336.2477022,-46.93242953,0,-273.7736911,-942.4123378,-2187.616472,0,150.3338648,62.43386442,-41.05595965,0,0,-4764.081724,,,,
645.5119995,2521,-156.8025009,-197.708584,0,94.28594593,-12.90164399,0,357.6141924,501.9706839,-1337.335103,0,-120.9911976,-201.1433369,74.18603884,0,0,-4448.093129,,,,
645.5199995,2521,143.3120791,52.65166297,0,-183.2478653,-385.1784781,0,-547.3196818,-789.1889597,-2068.833803,0,-43.82642656,219.7160034,-205.5593471,0,0,-3797.075619,,,,
645.5279995,2521,-115.3611478,-252.028728,0,-139.0831599,205.1616588,0,282.2466175,-152.531127,-1722.444702,0,91.43979403,-183.4989049,144.2730275,0,0,-5264.545053,,,,
645.5359995,2521,55.13460496,49.57102079,0,114.9442686,-387.1966145,0,-159.6638152,93.3337148,-1537.798162,0,-171.1446867,66.84400453,-74.65877889,0,0,-3662.570274,,,,
645.5439995,2521,56.71096406,-96.44664077,0,-290.3345165,-60.34554192,0,-283.0895433,-944.0065844,-2186.723377,0,161.4906995,92.27028485,-31.09688987,0,0,-4908.197453,,,,
645.5519995,2521,-148.4684329,-183.0370605,0,135.7781453,-23.82244111,0,360.3411897,498.2998971,-1335.777017,0,-101.0724773,-196.3146638,108.7864195,0,0,-4635.417979,,,,
645.5599995,2521,139.3626877,67.45568785,0,-131.9071641,-410.5191941,0,-553.2412163,-770.9930469,-2069.326833,0,-24.51878063,239.2555898,-162.542402,0,0,-3937.651259,,,,
645.5679995,2521,-154.1513687,-279.6042763,0,-111.1307356,201.6711528,0,270.2369927,-143.5836329,-1716.29791,0,86.526797,-173.5033774,158.3686448,0,0,-5407.877794,,,,
645.5759995,2521,37.2767277,36.13004629,0,134.3275923,-385.6189827,0,-170.6090282,116.9264249,-1505.856067,0,-196.6608748,55.51752154,-91.05156929,0,0,-3773.104115,,,,
645.5839995,2521,62.16865744,-83.74082017,0,-272.8593352,-51.33965448,0,-296.2780775,-938.6354932,-2160.376064,0,157.9576937,104.704011,-34.42752482,0,0,-5012.995502,,,,
645.5919995,2521,-161.6993991,-184.7989677,0,144.4968758,-4.381356585,0,362.8256071,515.3021227,-1296.498974,0,-93.088551,-165.9613894,117.6402445,0,0,-4756.121026,,,,
645.5999995,2521,121.3900371,60.61798772,0,-142.3918483,-412.8503174,0,-557.9903413,-747.4982038,-2021.992299,0,-42.00531012,256.4660519,-206.0715544,0,0,-4027.810712,,,,
645.6079995,2521,-146.5681277,-266.8230473,0,-136.7392305,189.8203792,0,263.8746659,-151.198676,-1677.546458,0,71.89233939,-167.2099021,104.7063876,0,0,-5520.699838,,,,
645.6159995,2521,41.05831125,47.62434423,0,122.5178681,-397.7496238,0,-160.0409408,120.8317181,-1466.415789,0,-182.7013146,74.83860798,-100.8054132,0,0,-3911.390413,,,,
645.6239995,2521,57.57522444,-83.93696487,0,-284.5731014,-64.52045752,0,-296.7956991,-949.453829,-2137.359183,0,157.8046333,118.3311238,-59.24975914,0,0,-5150.060862,,,,
645.6319995,2522,-133.2557756,-162.5441664,0,130.7344671,0.888565865,0,375.6175275,499.4972705,-1276.944886,0,-97.07113347,-172.621045,105.154357,0,0,-4910.772106,,,,
645.6399995,2522,158.2895269,96.59026792,0,-139.3461619,-400.885786,0,-533.4407772,-752.257993,-2017.44279,0,-2.114569165,278.1111256,-174.8675532,0,0,-4187.157354,,,,
645.6479995,2522,-137.9379925,-251.2321552,0,-136.9475515,198.9224812,0,283.1241249,-163.9840404,-1691.157406,0,110.1811286,-134.8107591,118.0832077,0,0,-5694.521246,,,,
645.6559995,2522,39.15354413,54.61823352,0,107.187163,-386.1613806,0,-126.8173664,129.9171253,-1471.822837,0,-179.4074673,84.94474731,-87.4241059,0,0,-4069.231099,,,,
645.6639995,2522,43.11166654,-85.61148065,0,-318.6062188,-57.36478539,0,-274.9534223,-946.4292526,-2147.433554,0,156.5617791,133.6668928,-40.72883212,0,0,-5280.533521,,,,
645.6719995,2522,-160.4848777,-173.3403585,0,89.24487355,-2.565166502,0,391.788217,504.4659381,-1277.602754,0,-111.1830107,-164.4244134,97.8780022,0,0,-5049.24332,,,,
645.6799995,2522,150.1839296,105.5582605,0,-168.5774666,-402.2880247,0,-515.6531692,-745.1968757,-2025.761151,0,-24.47222438,291.1450108,-179.1762285,0,0,-4317.357381,,,,
645.6879995,2522,-151.3050744,-250.5159397,0,-164.4794798,223.2882034,0,292.8464342,-168.6707832,-1701.413009,0,102.1045412,-97.70515739,145.0448893,0,0,-5826.701485,,,,
645.6959995,2522,38.7105375,66.75465288,0,86.80746513,-370.0790556,0,-117.0934353,138.7406008,-1457.053118,0,-189.6190314,127.6445242,-61.13054431,0,0,-4187.412729,,,,
645.7039995,2522,86.49007153,-31.7963767,0,-318.9130059,-46.45171902,0,-264.9661118,-961.4123017,-2150.857146,0,182.000173,206.8898099,-25.36250255,0,0,-5409.523201,,,,
645.7119995,2522,-142.4845522,-144.6340189,0,95.22306787,27.25055109,0,414.9035807,498.454,-1271.357999,0,-62.3318631,-86.57152228,122.9666518,0,0,-5204.223166,,,,
645.7199995,2522,155.3605487,124.5971796,0,-169.6771649,-395.2349674,0,-500.3755943,-743.0575943,-2011.745338,0,-13.65932955,342.3490215,-181.5383055,0,0,-4446.443547,,,,
645.7279995,2522,-128.0998521,-216.1758927,0,-171.9357845,226.5752689,0,312.7768565,-186.0299661,-1699.448593,0,118.4608618,-45.82337728,106.8443645,0,0,-5980.817306,,,,
645.7359995,2522,18.20234393,53.78827379,0,80.5582814,-356.416951,0,-93.84133256,152.9401155,-1435.679989,0,-181.8241683,159.4359809,-93.29615106,0,0,-4342.479601,,,,
645.7439995,2522,38.62700443,-76.86178486,0,-326.1115597,-25.68770804,0,-271.2260167,-947.5372557,-2125.212397,0,139.768817,213.6518263,-32.11299155,0,0,-5521.998228,,,,
645.7519995,2522,-153.5017361,-154.1414683,0,91.82617822,67.48085162,0,426.6463563,509.6418674,-1230.460705,0,-98.30101906,-72.33763886,108.9307299,0,0,-5316.724699,,,,
645.7599995,2522,157.4061481,126.5821439,0,-162.3217665,-369.4409079,0,-488.423661,-729.7185578,-1983.334782,0,-26.39871971,377.634779,-199.6170203,0,0,-4550.447066,,,,
645.7679995,2522,-138.9495471,-233.8002732,0,-167.0206411,245.5870058,0,313.1540484,-183.178775,-1682.976393,0,101.1377487,-7.43140074,128.4559781,0,0,-6086.504049,,,,
645.7759995,2522,28.16340845,62.84183821,0,80.67672727,-338.3088928,0,-75.60498957,166.4276234,-1411.193465,0,-187.5885343,193.2771693,-83.65185775,0,0,-4446.285529,,,,
645.7839995,2522,42.50145386,-67.45280544,0,-335.545129,-23.02404364,0,-267.8208574,-951.6029796,-2136.726946,0,146.1351287,259.1511825,-63.50179335,0,0,-5633.073164,,,,
645.7919995,2522,-192.3465441,-188.28712,0,60.67974228,59.48088943,0,422.9837559,519.4017653,-1219.434036,0,-126.0448488,-57.95538413,102.9249313,0,0,-5423.811275,,,,
645.7999995,2522,134.7013712,110.0564398,0,-206.0223971,-387.7524246,0,-501.9433478,-715.9459476,-1947.071543,0,-57.96760306,368.0076972,-158.9515479,0,0,-4612.773287,,,,
645.8079995,2522,-145.1209792,-234.731139,0,-204.7796227,239.4361342,0,295.4605476,-189.2807117,-1659.501087,0,99.81239579,3.108453149,159.2966905,0,0,-6163.477115,,,,
645.8159995,2522,21.21563197,65.35411155,0,58.1155371,-357.3475981,0,-78.32899974,178.779923,-1367.052298,0,-201.121317,199.7478504,-101.4195633,0,0,-4519.94605,,,,
645.8239995,2522,66.2888942,-32.96234017,0,-344.3410131,-49.14934361,0,-273.6519888,-959.4164058,-2103.012667,0,157.1793056,287.8210806,-71.42072258,0,0,-5703.555098,,,,
645.8319995,2522,-173.6469181,-167.999417,0,62.34857978,52.24807241,0,423.7959873,511.640867,-1188.983908,0,-94.8267338,-14.54604968,106.458145,0,0,-5532.715041,,,,
645.8399995,2522,189.9292667,212.9073328,0,-102.219017,-644.7385031,0,-647.9257684,-566.3614682,-1808.528981,0,-171.4809863,454.1944357,-278.1216782,0,0,-4083.813998,,,,
645.8479995,2522,-45.0366134,-109.5707838,0,-183.401659,-44.99653571,0,-23.91075743,-386.2131905,-1759.241292,0,56.47095924,160.2770969,38.129679,0,0,-5672.442425,,,,
645.8559995,2522,112.5186903,81.92513757,0,-187.8829218,-395.8771433,0,-497.8268515,-718.8547039,-1938.51269,0,-24.97727159,375.252693,-150.5941958,0,0,-4828.940841,,,,
645.8639995,2522,314.8596241,176.4916132,0,-593.8014943,-467.4557497,0,-1143.924888,-2116.760989,-2802.492584,0,207.2731799,643.1324643,-322.9391569,0,0,-5099.057673,,,,
645.8719995,2522,28.87342448,-32.23960827,0,-215.6436922,-179.3780135,0,-257.4899275,-624.4767996,-1887.505287,0,45.45494564,262.3617107,-48.48981316,0,0,-5428.92295,,,,
645.8799995,2522,45.27980577,-18.14842,0,-231.4250858,-209.5419054,0,-309.2616195,-682.108516,-1917.64321,0,37.83344886,280.3418809,-69.11529588,0,0,-5399.628241,,,,
645.8879995,2523,-158.797428,-198.8022347,0,-43.10111247,59.90952239,0,337.6821673,233.6085287,-1364.590623,0,-22.42094745,-9.525087656,139.7504451,0,0,-5916.914214,,,,
645.8959995,2523,39.38186375,38.69668217,0,-55.45793223,-372.694256,0,-202.8502276,-137.1947664,-1553.368408,0,-111.8199388,239.5638209,-71.06606709,0,0,-4908.335917,,,,
645.9039995,2523,-10.61570541,-116.9944825,0,-326.1910457,-42.14891012,0,-174.9893884,-758.7785144,-1958.923156,0,127.7992944,198.7771952,17.98821207,0,0,-5974.919288,,,,
645.9119995,2523,-168.5746137,-164.0452344,0,57.27976752,-79.72366684,0,346.2202361,563.8697432,-1117.025426,0,-155.5010612,-28.28292839,106.4845157,0,0,-5507.47134,,,,
645.9199995,2523,135.9725602,75.41341033,0,-283.2284914,-396.0107191,0,-516.7139217,-840.8348646,-1979.509793,0,-2.457526426,354.3439949,-171.9707084,0,0,-5141.515287,,,,
645.9279995,2523,-147.113241,-220.9562675,0,-143.4518885,147.213897,0,306.9393627,-27.75544829,-1524.387933,0,85.50156294,2.384019178,164.3622426,0,0,-6333.584352,,,,
645.9359995,2523,-1.012218121,22.77098686,0,25.97378411,-379.9134741,0,-124.8173619,104.6798282,-1381.413875,0,-151.6909775,203.5797107,-77.86808963,0,0,-4904.054505,,,,
645.9439995,2523,28.29430063,-79.99390987,0,-345.4986062,-105.8637195,0,-277.7124109,-890.2822031,-2021.569438,0,144.4018422,236.1600866,-82.13488409,0,0,-5988.815315,,,,
645.9519995,2523,-184.0420974,-188.8684695,0,68.66542185,-20.6754565,0,397.9167153,546.2135774,-1132.523866,0,-89.4795441,-42.38298622,100.8456898,0,0,-5771.927198,,,,
645.9599995,2523,82.40812373,40.89307382,0,-205.7781524,-436.3228021,0,-527.7558301,-703.7360194,-1870.121167,0,-43.4399609,343.1784777,-208.3129967,0,0,-5034.979046,,,,
645.9679995,2523,-187.2729804,-276.0520503,0,-189.8775336,168.6500455,0,249.3258809,-141.354433,-1555.579055,0,75.18609889,-32.82227974,112.1811534,0,0,-6469.135748,,,,
645.9759995,2523,-24.00045645,4.803043841,0,43.79428482,-373.7348476,0,-98.19391531,203.4184051,-1276.963935,0,-193.2860302,151.1641335,-73.46192247,0,0,-4914.901857,,,,
645.9839995,2523,17.7756367,-92.42618822,0,-352.445866,-117.2014847,0,-329.9353506,-915.4683959,-1996.763808,0,127.0101634,226.3629156,-106.1329495,0,0,-5982.149355,,,,
645.9919995,2523,-191.7127274,-204.116175,0,49.62337015,20.03416895,0,396.5736576,527.3312145,-1111.610643,0,-87.72472585,-71.90577588,85.48866253,0,0,-5887.223738,,,,
645.9999995,2523,122.6354079,82.82676945,0,-190.3192219,-430.3397104,0,-520.5618632,-657.7042151,-1812.142744,0,-37.81687198,347.7383436,-173.819224,0,0,-5015.60791,,,,
646.0079995,2523,-155.7981627,-264.836463,0,-202.3194393,197.997235,0,250.6250325,-185.8793602,-1585.566483,0,120.1168331,-15.90613369,118.5549216,0,0,-6580.653658,,,,
646.0159995,2523,-11.17522506,4.580017858,0,66.86626102,-352.4631263,0,-59.33397746,266.6595336,-1245.273241,0,-185.1960699,145.0287477,-79.8063518,0,0,-4969.033393,,,,
646.0239995,2523,55.41070619,-67.61263642,0,-342.8245499,-92.57830341,0,-319.6217287,-921.1842033,-1992.998674,0,154.310851,238.590945,-38.47396622,0,0,-6022.592153,,,,
646.0319995,2523,-181.0295927,-206.2071623,0,73.22230495,61.81401691,0,433.6320948,549.2917507,-1101.760633,0,-61.09025401,-69.2437811,147.8874987,0,0,-5976.545163,,,,
646.0399995,2523,124.9339892,74.98625107,0,-164.1483595,-425.3651463,0,-501.3016689,-614.5050868,-1775.116031,0,-50.87326478,342.0098306,-189.2084129,0,0,-5032.377153,,,,
646.0479995,2523,-123.739466,-250.3840423,0,-208.4847483,209.3828065,0,253.5342252,-214.43766,-1585.391585,0,123.9278158,-27.30811419,124.2599476,0,0,-6647.424984,,,,
646.0559995,2523,31.65713075,33.97979638,0,96.75534925,-339.3533693,0,-29.55685875,278.967182,-1242.867756,0,-153.3848656,146.3355217,-45.84165139,0,0,-5056.651515,,,,
646.0639995,2523,80.66736223,-55.74350752,0,-310.0622565,-109.5838764,0,-318.3061865,-941.5430268,-2026.274049,0,187.2945446,252.9289146,-36.1871253,0,0,-6115.705619,,,,
646.0719995,2523,-180.1475441,-215.731538,0,96.46165136,67.09552196,0,445.6925155,541.3023737,-1129.310947,0,-60.36050762,-84.82152485,162.3758128,0,0,-6090.589009,,,,
646.0799995,2523,135.749129,79.97622557,0,-133.6843215,-406.0807094,0,-477.5662879,-588.6748693,-1768.411718,0,-46.29956603,332.0947803,-166.431042,0,0,-5091.028062,,,,
646.0879995,2523,-145.3954073,-278.0078025,0,-193.6588141,218.6470264,0,262.657813,-206.256921,-1589.409002,0,140.5602516,-33.99813483,135.296586,0,0,-6717.421667,,,,
646.0959995,2523,-36.67327122,-35.25969308,0,104.7538511,-323.1918982,0,-30.06979684,325.2891052,-1193.114677,0,-198.1084727,101.7614002,-41.85191051,0,0,-5079.362461,,,,
646.1039995,2523,61.40729149,-85.7980793,0,-327.3907358,-102.1601338,0,-346.2714373,-929.3671675,-1953.868101,0,134.014573,198.0438602,-46.57883216,0,0,-6081.240764,,,,
646.1119995,2523,-159.5076991,-210.2670026,0,80.28096016,53.93221296,0,437.5718101,534.3004663,-1092.583474,0,-51.75356289,-112.9022178,179.1423303,0,0,-6133.810839,,,,
646.1199995,2523,139.2197165,77.4489381,0,-128.9963193,-436.4554107,0,-488.8937192,-584.0247286,-1738.019128,0,-43.46999855,341.9407254,-127.3512349,0,0,-5128.136674,,,,
646.1279995,2523,-137.0186071,-274.1245519,0,-196.5084832,192.6950848,0,242.1369711,-230.8833297,-1580.826538,0,127.9088076,-10.3011108,153.4142615,0,0,-6760.618555,,,,
646.1359995,2523,-0.539143265,1.650935745,0,116.4253848,-354.6351125,0,-17.16523697,319.5075921,-1203.543404,0,-183.2830965,142.5583707,-33.2511262,0,0,-5165.969401,,,,
646.1439995,2524,88.44611119,-60.81694794,0,-315.1554567,-150.8002144,0,-347.1790135,-943.5920054,-1988.421701,0,153.8950824,248.3305093,-34.38422433,0,0,-6163.609529,,,,
646.1519995,2524,-182.6556522,-234.9870735,0,87.0916359,24.70664485,0,437.3353873,545.7920137,-1122.489364,0,-60.89600348,-113.9214391,174.7711285,0,0,-6220.968878,,,,
646.1599995,2524,120.1190803,63.63674525,0,-113.8913353,-467.1427869,0,-490.7308068,-547.8774614,-1735.796957,0,-74.20135107,301.6684211,-148.2567345,0,0,-5158.793608,,,,
646.1679995,2524,-134.9536446,-276.1205164,0,-189.132491,169.6290208,0,223.9493247,-232.2824055,-1594.717782,0,111.0695162,-58.97753513,161.76732,0,0,-6796.84435,,,,
646.1759995,2524,-18.59109166,-18.97072357,0,128.3874932,-354.0213719,0,-17.91375431,354.2920975,-1206.125151,0,-199.431115,94.19208132,-5.712763113,0,0,-5207.567643,,,,
646.1839995,2524,75.62920185,-71.2037752,0,-307.1504428,-164.8989893,0,-358.8403874,-918.1309826,-1984.143094,0,130.6170126,226.9428571,-28.31441491,0,0,-6159.238059,,,,
646.1919995,2524,-191.3470395,-247.1692767,0,89.32419658,12.03848032,0,419.1699124,542.7128692,-1132.064855,0,-79.12261255,-116.7689461,186.6153792,0,0,-6246.273261,,,,
646.1999995,2524,116.0409537,58.11692457,0,-106.314171,-496.001496,0,-511.1095804,-541.0549707,-1736.733756,0,-93.47400456,313.2430564,-157.1918899,0,0,-5165.210951,,,,
646.2079995,2524,-129.2664907,-273.2281385,0,-182.9363429,120.9461682,0,198.0321025,-251.7750886,-1619.436184,0,114.9297049,-35.74887707,106.3826518,0,0,-6822.789261,,,,
646.2159995,2524,-32.69185237,-40.68440255,0,142.8717189,-394.1341523,0,-34.78284763,352.4828288,-1219.782249,0,-199.0033687,109.5563826,-52.12265767,0,0,-5249.568043,,,,
646.2239995,2524,69.41192778,-81.99675573,0,-304.0805874,-202.7662643,0,-383.0760943,-930.1228816,-1973.805537,0,112.6162181,231.3612075,-91.2435276,0,0,-6156.324088,,,,
646.2319995,2524,-183.1345875,-241.4191739,0,84.70416149,10.11992366,0,413.4047798,522.8410356,-1126.529812,0,-75.2080595,-117.2009199,119.2651025,0,0,-6285.698986,,,,
646.2399995,2524,111.7004832,46.67810938,0,-101.9584952,-471.1183779,0,-513.5637074,-528.1517401,-1704.84349,0,-87.99174387,313.8373628,-160.7317586,0,0,-5182.914686,,,,
646.2479995,2524,-136.218027,-289.1494237,0,-191.9478963,149.1219941,0,185.5502437,-251.1193165,-1575.060904,0,108.0815664,-56.67799519,105.2187169,0,0,-6818.705262,,,,
646.2559995,2524,-31.15237324,-37.93353197,0,143.1944639,-346.4983533,0,-24.23074495,373.4620176,-1173.137128,0,-207.2104229,79.19197654,-71.79307543,0,0,-5263.539358,,,,
646.2639995,2524,72.09980303,-75.57582368,0,-296.3446119,-165.8724679,0,-380.324375,-910.1118477,-1932.852131,0,112.2519483,222.2652094,-82.31026134,0,0,-6138.601452,,,,
646.2719995,2524,-189.4670505,-247.017291,0,84.09579129,21.47253191,0,416.6129899,537.9167807,-1101.891865,0,-75.17384626,-134.6186991,116.5588374,0,0,-6287.645745,,,,
646.2799995,2524,129.9440226,73.30093432,0,-93.75696618,-463.5421757,0,-496.9508632,-499.6860759,-1687.715313,0,-86.4878607,310.9098727,-176.8894348,0,0,-5180.863745,,,,
646.2879995,2524,-98.53384515,-241.7318178,0,-192.5650705,159.0374213,0,204.8688874,-251.6362772,-1578.331056,0,138.0352818,-17.22300739,126.620537,0,0,-6829.853421,,,,
646.2959995,2524,-19.44785329,-20.55989544,0,136.7615151,-342.345044,0,-4.767366723,392.9847881,-1172.112433,0,-180.4454592,122.4118545,-38.24362659,0,0,-5292.642172,,,,
646.3039995,2524,91.40343841,-54.90087329,0,-308.074582,-152.8566982,0,-380.2472721,-901.4121125,-1931.41671,0,130.1058511,254.9191324,-49.88852768,0,0,-6141.804409,,,,
646.3119995,2524,-166.0230444,-214.7427865,0,70.71944753,60.3691675,0,435.3335306,539.9712547,-1103.846761,0,-50.92807179,-116.8757156,164.6978223,0,0,-6314.837241,,,,
646.3199995,2524,149.6236761,178.5875456,0,18.31845832,-621.0520867,0,-548.4708434,-224.5966822,-1513.859421,0,-208.2154815,355.7150048,-205.2943479,0,0,-4599.499296,,,,
646.3279995,2524,-176.0534867,-192.782408,0,26.71854224,65.42463648,0,428.2699388,501.5252094,-1107.609787,0,-63.20751333,-142.2573648,155.9873727,0,0,-6302.659032,,,,
646.3359995,2524,-282.4008942,-171.79259,0,436.2254825,-76.81894232,0,812.5685659,1715.220218,-388.5589376,0,-340.1838517,-294.4611801,190.1256801,0,0,-5605.534946,,,,
646.3439995,2524,-20.99505994,-10.85395707,0,31.7053833,-268.0610324,0,-34.03959883,180.4047664,-1268.78278,0,-140.9553717,93.22688039,-20.73985356,0,0,-5477.905174,,,,
646.3519995,2524,-105.929968,-107.7554353,0,23.15380027,-77.85856097,0,205.1027664,315.7233173,-1193.883312,0,-79.13248295,-14.85984106,66.62319745,0,0,-5958.304931,,,,
646.3599995,2524,75.99496362,24.71126856,0,-226.8381398,-252.4077481,0,-410.4627275,-717.1806756,-1770.271771,0,36.29628185,287.6036789,-108.2649412,0,0,-5719.60692,,,,
646.3679995,2524,-104.1351077,-159.0811869,0,-116.1683248,55.93197934,0,186.2338465,-42.60246849,-1358.294771,0,30.86878399,1.295077574,88.56989409,0,0,-6414.494298,,,,
646.3759995,2524,9.308857724,33.21203943,0,53.36620234,-291.3604635,0,-46.4862422,182.1211945,-1205.927469,0,-129.3483591,153.1458365,-35.87969299,0,0,-5412.497906,,,,
646.3839995,2524,70.39967854,-29.07301107,0,-316.3970843,-81.10094387,0,-324.8631625,-892.4436429,-1808.371314,0,155.2490984,275.8448838,-21.53824162,0,0,-6215.12187,,,,
646.3919995,2524,-141.857148,-134.9150683,0,93.74412889,6.129090642,0,379.8639233,528.3035449,-972.9035666,0,-80.8651937,-44.58966048,141.6083777,0,0,-6109.338643,,,,
646.3999995,2525,144.6160661,120.6266619,0,-129.3575531,-355.9626594,0,-448.4829588,-599.4411641,-1635.56827,0,-6.173568516,386.2048728,-110.4057686,0,0,-5390.503501,,,,
646.4079995,2525,-93.38055421,-172.2364554,0,-170.0005576,156.0294672,0,194.9656834,-217.8354844,-1419.99058,0,126.5717969,75.94154011,146.6576324,0,0,-6660.533686,,,,
646.4159995,2525,-26.10066452,24.68023059,0,109.4780756,-286.4331304,0,8.572647976,326.9835063,-1105.926681,0,-161.5213632,180.7541301,-29.90861175,0,0,-5352.501997,,,,
646.4239995,2525,84.91297478,6.487858997,0,-299.0041119,-113.3949498,0,-358.6304989,-891.7439484,-1809.852022,0,130.8602931,349.5381907,-62.47270279,0,0,-6087.941615,,,,
646.4319995,2525,-159.006686,-152.680418,0,73.38752757,75.42223936,0,429.8205485,505.8787881,-988.7904171,0,-45.16326448,-3.334216379,167.3353904,0,0,-6231.176887,,,,
646.4399995,2525,132.0805485,131.7768828,0,-89.04916105,-387.9584907,0,-440.8073677,-494.4323752,-1571.825796,0,-47.20686132,425.5234309,-117.5141616,0,0,-5220.715882,,,,
646.4479995,2525,-78.19845253,-158.2212232,0,-195.0485754,194.4493782,0,203.8398536,-278.026295,-1445.375831,0,137.1755012,105.2840014,146.1356453,0,0,-6707.841613,,,,
646.4559995,2525,-24.23476067,39.87984411,0,138.8689711,-249.9526162,0,55.3608605,382.4865471,-1062.525284,0,-150.6441728,206.1768993,5.897001844,0,0,-5351.861594,,,,
646.4639995,2525,82.15171442,11.11171402,0,-280.5655443,-118.6390891,0,-369.1582706,-881.4391081,-1767.860503,0,123.3579299,372.8827565,-31.56926747,0,0,-6025.352512,,,,
646.4719995,2525,-150.4094028,-144.0955983,0,56.8087733,92.92333359,0,438.7313139,481.4203574,-954.7678208,0,-51.93570878,-18.34124954,169.5561997,0,0,-6274.422611,,,,
646.4799995,2525,141.261325,153.9484683,0,-69.64418523,-402.5681259,0,-449.7891022,-458.9364459,-1524.903133,0,-55.70063606,429.9182054,-128.2626389,0,0,-5170.93737,,,,
646.4879995,2525,-95.6760152,-182.662926,0,-197.4542082,196.9958431,0,183.3621448,-314.1303087,-1440.720256,0,146.5765916,108.059394,161.2476588,0,0,-6741.405455,,,,
646.4959995,2525,-38.18669026,25.98924129,0,156.5502989,-247.3444757,0,57.74763336,396.9083068,-1018.732308,0,-175.3045378,183.5817708,5.482697778,0,0,-5346.313843,,,,
646.5039995,2525,96.76295859,20.5044964,0,-274.1081197,-127.8372975,0,-386.6152494,-901.7434225,-1745.605055,0,116.3419675,368.0227783,-51.69276621,0,0,-6005.362935,,,,
646.5119995,2525,-148.8307484,-160.7462488,0,51.54190695,87.03062762,0,436.8880963,454.3363444,-938.4950989,0,-41.69209143,-28.09800017,149.64756,0,0,-6315.281678,,,,
646.5199995,2525,141.341084,144.6078685,0,-49.84177339,-394.1878031,0,-450.5874497,-445.1125015,-1473.484039,0,-66.39518938,418.043903,-157.3937921,0,0,-5156.776433,,,,
646.5279995,2525,-74.7204573,-181.8059228,0,-210.7091561,218.4404228,0,174.4801471,-340.0202183,-1399.467978,0,152.6200979,101.6527681,133.4643298,0,0,-6740.216884,,,,
646.5359995,2525,-28.00655275,11.40829302,0,127.3995816,-252.5526496,0,60.30265679,403.6900383,-973.6239014,0,-167.6896891,154.4902751,-17.1339522,0,0,-5363.683101,,,,
646.5439995,2525,89.23644645,-2.677939269,0,-289.8889556,-125.6342312,0,-398.1783062,-895.2528642,-1709.197289,0,118.9258322,335.8052749,-76.35899955,0,0,-6000.381997,,,,
646.5519995,2525,-167.5016516,-197.3521088,0,30.14227474,118.5287922,0,441.3097611,458.564401,-897.4348659,0,-41.31494812,-72.87580803,146.2099508,0,0,-6324.053476,,,,
646.5599995,2525,125.3333125,114.8033732,0,-76.4808243,-407.2633712,0,-452.5083771,-417.9127607,-1423.827094,0,-88.55044192,356.439418,-169.603065,0,0,-5131.456109,,,,
646.5679995,2525,-74.48242168,-189.405896,0,-231.9844843,197.9002781,0,159.8797135,-343.2520618,-1371.383858,0,135.3344134,53.64505786,81.50961364,0,0,-6718.331347,,,,
646.5759995,2525,-27.704514,1.144248508,0,131.7103273,-238.7787558,0,64.42910814,415.3588352,-940.6743834,0,-166.4025148,126.5761229,-44.16029587,0,0,-5369.324682,,,,
646.5839995,2525,90.44322855,-12.06022556,0,-283.3425726,-123.9294312,0,-409.851097,-893.1937301,-1681.517113,0,118.4113057,324.6271934,-88.72858523,0,0,-5985.460303,,,,
646.5919995,2525,-157.8021124,-191.4637261,0,40.37372528,127.0991711,0,444.9517776,458.1605693,-866.3542485,0,-44.46584152,-90.81284615,120.0843258,0,0,-6327.821821,,,,
646.5999995,2525,120.1255048,113.3896769,0,-38.69802959,-394.6247872,0,-444.0435737,-391.2513019,-1376.536418,0,-80.70801699,349.5112372,-165.447422,0,0,-5120.795378,,,,
646.6079995,2525,-84.30555139,-195.2933858,0,-205.3554847,203.7929934,0,159.4902579,-340.2593109,-1327.399725,0,141.6951807,57.48599231,87.65744463,0,0,-6696.141082,,,,
646.6159995,2525,-20.43767918,16.35983321,0,148.6074834,-234.7211757,0,81.76503155,429.2006987,-888.5876633,0,-173.7994944,128.4895349,-55.88175907,0,0,-5357.461275,,,,
646.6239995,2525,86.93200021,-7.123155794,0,-264.5941279,-128.2533737,0,-412.8359132,-884.1218732,-1652.243205,0,123.1151059,365.2302071,-83.5335961,0,0,-5967.734931,,,,
646.6319995,2525,-162.0608555,-198.0347341,0,48.33780018,131.5652049,0,447.0640387,456.0990781,-838.4921548,0,-43.17040859,-42.56503614,117.9327218,0,0,-6325.698544,,,,
646.6399995,2525,144.0825455,130.9757439,0,-33.77250957,-393.8885695,0,-445.7603772,-395.3291842,-1342.957716,0,-90.72944099,395.4990916,-179.3828957,0,0,-5107.885096,,,,
646.6479995,2525,-85.07800925,-204.8246474,0,-210.9070458,204.0651499,0,138.8211273,-363.6000719,-1320.586747,0,154.0048526,114.6019593,111.2901821,0,0,-6714.406736,,,,
646.6559995,2526,-48.84494009,-18.76480446,0,138.5485785,-241.0423924,0,75.12029874,437.2675816,-851.5843274,0,-178.6551672,140.5567493,-35.004222,0,0,-5374.965882,,,,
646.6639995,2526,77.81569462,-18.37521266,0,-276.8630566,-145.7249603,0,-433.7921417,-882.7566,-1603.323854,0,93.15678498,345.3216876,-98.13159414,0,0,-5933.991917,,,,
646.6719995,2526,-181.377836,-223.1371241,0,25.4185526,126.4259763,0,430.2273282,450.6344711,-799.9823273,0,-60.00228713,-72.53716635,106.7197685,0,0,-6318.449677,,,,
646.6799995,2526,124.199509,109.2286316,0,-49.39346722,-418.2542191,0,-459.026099,-382.7415945,-1303.525412,0,-114.3972569,348.9472203,-215.4502022,0,0,-5094.929548,,,,
646.6879995,2526,-97.50484442,-216.1556642,0,-213.6501351,193.0307021,0,124.859809,-357.0267939,-1287.443964,0,122.3002419,78.73856294,73.79008983,0,0,-6683.766513,,,,
646.6959995,2526,-65.21212354,-42.40490245,0,143.2388831,-223.253247,0,80.4455127,463.7425417,-802.7920758,0,-199.5501403,114.6268047,-52.11444597,0,0,-5343.737322,,,,
646.7039995,2526,83.79699501,-22.81775631,0,-264.3509284,-145.8873554,0,-439.9547441,-878.6559233,-1573.333779,0,89.99439731,333.4593675,-127.4311125,0,0,-5904.846786,,,,
646.7119995,2526,-185.8734952,-234.8069777,0,44.48889096,141.4929561,0,438.9366069,461.0960943,-758.8272364,0,-65.704441,-76.74311216,114.9013324,0,0,-6304.83,,,,
646.7199995,2526,109.5616501,90.04796476,0,-34.538924,-406.5992628,0,-441.354637,-344.4771076,-1234.046308,0,-124.9937752,342.445099,-199.4132384,0,0,-5044.707028,,,,
646.7279995,2526,-99.19784866,-224.999674,0,-211.384639,189.7394664,0,131.8005114,-347.5382095,-1244.009365,0,129.8820229,76.93654693,56.07483414,0,0,-6642.339905,,,,
646.7359995,2526,-68.12830029,-54.21681354,0,144.7661012,-213.2128566,0,97.11845012,486.1780803,-750.1978537,0,-198.756944,100.8104161,-50.36494302,0,0,-5308.564974,,,,
646.7439995,2526,80.5212473,-30.81893579,0,-273.857481,-142.7930563,0,-434.8748466,-858.400152,-1524.85358,0,97.09450997,333.1414809,-104.4050949,0,0,-5843.184038,,,,
646.7519995,2526,-202.6628058,-254.2694508,0,16.91638235,149.3897844,0,448.9491033,475.7661075,-719.6085119,0,-44.60089513,-66.09786406,133.1363581,0,0,-6266.49243,,,,
646.7599995,2526,91.71244017,68.87204463,0,-60.24855014,-394.7311642,0,-445.1744355,-328.8411921,-1180.552476,0,-128.7995832,333.6246962,-201.3849024,0,0,-4984.227401,,,,
646.7679995,2526,-100.0668197,-227.4082309,0,-232.5367098,195.1972079,0,113.3364478,-353.1460252,-1198.071238,0,127.8731737,78.71251649,55.12928421,0,0,-6583.364844,,,,
646.7759995,2526,-75.6430779,-57.45162128,0,132.4571288,-216.6150657,0,95.35301064,502.4974086,-684.4333019,0,-193.4412856,107.6564453,-44.37374371,0,0,-5264.829119,,,,
646.7839995,2526,59.02999453,-48.06194115,0,-278.1178634,-152.3635252,0,-462.3526852,-858.4075175,-1454.068835,0,76.91207973,319.1750095,-128.9315991,0,0,-5775.349908,,,,
646.7919995,2526,-203.5180495,-254.9138757,0,16.49344253,135.1625775,0,434.0759955,457.8716461,-665.9432135,0,-53.20240125,-80.79368915,109.804184,0,0,-6233.61573,,,,
646.7999995,2526,92.18031111,70.2980743,0,-53.82350265,-422.4251118,0,-446.4257209,-336.9952108,-1148.00803,0,-109.9439406,339.7441573,-207.0851708,0,0,-4980.862714,,,,
646.8079995,2526,-76.28973688,-253.2401197,0,-395.1054277,209.4003273,0,-122.2133866,-890.4474386,-1471.765905,0,222.8894187,153.4491521,-2.07643607,0,0,-6755.160058,,,,
646.8159995,2526,85.5101267,59.51768058,0,-78.87195309,-410.6015849,0,-448.1748394,-317.8193472,-1095.161446,0,-148.0752932,297.9872543,-226.9261498,0,0,-4925.966219,,,,
646.8239995,2526,354.7918175,280.1991261,0,-339.9565015,-721.6853664,0,-1279.027428,-1526.601913,-1801.309146,0,-26.5477865,673.3046443,-454.9957662,0,0,-4435.627441,,,,
646.8319995,2526,16.87229441,-83.69915273,0,-238.234416,-118.7547641,0,-311.9530695,-622.9145575,-1277.217644,0,33.06687895,233.1066628,-124.6424376,0,0,-5784.238811,,,,
646.8399995,2526,48.78665762,-8.545522291,0,-127.0075967,-256.5756706,0,-339.0422491,-401.0280243,-1145.453003,0,-50.15857125,263.00096,-161.3486872,0,0,-5352.795965,,,,
646.8479995,2526,-176.990533,-262.9253196,0,-69.79427112,186.9644718,0,318.9887495,142.5265346,-845.5016135,0,35.47428889,-13.10833038,72.41508677,0,0,-6375.096918,,,,
646.8559995,2526,-44.46705572,-64.73099921,0,25.67527712,-216.4506183,0,-73.37549077,127.168796,-834.7715986,0,-139.1984507,157.2271152,-103.6384304,0,0,-5310.885683,,,,
646.8639995,2526,14.88660953,-92.34291816,0,-241.0156438,-119.2267452,0,-323.7861202,-666.7954335,-1285.39966,0,61.6909292,242.9451757,-100.281064,0,0,-5841.640159,,,,
646.8719995,2526,-213.6655636,-267.0782655,0,45.6565433,118.9689005,0,440.4840472,523.4944936,-574.3749181,0,-73.33287488,-91.57706335,110.5302501,0,0,-6142.542136,,,,
646.8799995,2526,92.80850767,35.34759811,0,-101.9153969,-381.9996101,0,-487.3140089,-470.7637194,-1143.152234,0,-94.49602949,314.8207269,-177.735422,0,0,-5040.330525,,,,
646.8879995,2526,-148.6205724,-281.2066781,0,-158.6459535,196.4905211,0,189.1356545,-171.4662315,-989.4460675,0,87.00695452,13.51568895,81.81956535,0,0,-6487.900521,,,,
646.8959995,2526,-81.23277502,-104.6514382,0,113.6629638,-198.0161245,0,61.22882912,390.6945862,-645.2587802,0,-189.0839077,84.0283726,-77.13368747,0,0,-5251.683097,,,,
646.9039995,2526,55.44235684,-78.73225043,0,-239.1004625,-142.2118806,0,-419.1563611,-792.4590429,-1329.332462,0,62.54167462,259.6839094,-119.9260904,0,0,-5731.550693,,,,
646.9119995,2527,-180.9250991,-256.5996121,0,65.0524144,167.2525447,0,456.1666347,482.8621666,-583.8459916,0,-33.87743405,-103.2513094,116.0369914,0,0,-6187.506599,,,,
646.9199995,2527,106.5356776,52.39878801,0,-14.26120749,-374.5091731,0,-423.0598238,-331.5072912,-1059.408532,0,-90.89504152,296.7095199,-209.0073223,0,0,-4938.49417,,,,
646.9279995,2527,-119.7763199,-272.2875032,0,-157.9690829,205.1774279,0,133.9628578,-298.4311967,-1065.499674,0,125.6352404,10.65143172,61.56088061,0,0,-6493.006436,,,,
646.9359995,2527,-82.29571072,-104.7656678,0,166.3596844,-183.2609951,0,123.7341771,498.664331,-588.2879004,0,-182.1373093,21.18424431,-55.54204024,0,0,-5228.58702,,,,
646.9439995,2527,61.65235151,-76.30414875,0,-229.4623796,-157.8814183,0,-441.8274028,-814.5423603,-1347.727449,0,70.88780604,225.6796594,-162.3938921,0,0,-5676.326427,,,,
646.9519995,2527,-193.8859965,-276.5966419,0,58.86934088,175.2199826,0,450.8066042,464.3624208,-590.0436303,0,-45.57553617,-160.2630505,96.33338474,0,0,-6182.711343,,,,
646.9599995,2527,110.9020737,62.40736848,0,-4.1107202,-386.7168355,0,-405.9279803,-280.1059836,-1020.157997,0,-99.10102391,252.2702246,-195.486084,0,0,-4868.973743,,,,
646.9679995,2527,-100.1412573,-251.5226989,0,-191.3392044,193.1601497,0,102.9641502,-367.1288084,-1099.743975,0,145.30547,9.727182949,46.94601546,0,0,-6475.045971,,,,
646.9759995,2527,-77.91806869,-94.22179693,0,160.803435,-182.8354035,0,145.8939885,526.2825717,-561.7858252,0,-187.789721,6.711689819,-42.6177634,0,0,-5203.803145,,,,
646.9839995,2527,88.56368972,-44.42284974,0,-234.9850612,-170.4288747,0,-446.3073607,-843.5629697,-1355.058902,0,102.4245486,251.0231143,-115.3865636,0,0,-5647.510481,,,,
646.9919995,2527,-199.61176,-270.9153164,0,57.39477302,176.3299465,0,459.3058433,460.514887,-579.78404,0,-24.94096778,-139.5015305,141.7605099,0,0,-6181.258505,,,,
646.9999995,2527,86.18322873,50.33625646,0,-4.97029386,-394.0260669,0,-404.1931152,-251.7569941,-972.6399491,0,-128.0672324,239.1302327,-169.4345997,0,0,-4811.45275,,,,
647.0079995,2527,-99.44377211,-244.2086753,0,-205.3242883,183.5351217,0,92.23924592,-385.1274838,-1079.492159,0,139.6304332,2.745270616,80.75054566,0,0,-6428.815628,,,,
647.0159995,2527,-84.04449483,-83.27679899,0,160.3654454,-176.7625746,0,166.9468712,555.1483521,-526.1326845,0,-189.351364,-6.784258255,-12.72378952,0,0,-5162.926774,,,,
647.0239995,2527,64.82536087,-46.12008139,0,-247.5996625,-167.2097428,0,-449.886987,-829.6627277,-1328.510279,0,81.98069256,220.6704923,-106.3341158,0,0,-5567.557276,,,,
647.0319995,2527,-211.508782,-269.4550463,0,26.63983991,181.1487768,0,458.3264665,457.9441645,-568.4643926,0,-42.35323402,-195.4983523,154.8709598,0,0,-6115.855292,,,,
647.0399995,2527,90.66303204,72.22157255,0,-20.4284957,-385.6655102,0,-391.1103991,-247.5117591,-976.4058566,0,-130.0267743,191.4556822,-173.9771655,0,0,-4749.718137,,,,
647.0479995,2527,-112.4992277,-237.1300552,0,-207.5700892,197.4838525,0,92.48198223,-396.7637081,-1095.607332,0,147.2723473,-16.65220259,63.89365395,0,0,-6373.824433,,,,
647.0559995,2527,-88.65034097,-75.40767461,0,167.022386,-160.4679328,0,177.1404507,558.6439494,-517.0671615,0,-187.8963958,-27.70580908,-9.150218698,0,0,-5101.492417,,,,
647.0639995,2527,92.13118322,-5.560015231,0,-225.7896772,-171.0565333,0,-440.8605732,-839.8364889,-1311.90893,0,108.971934,243.8208036,-97.64086924,0,0,-5494.293563,,,,
647.0719995,2527,-206.889726,-254.9972474,0,44.53252934,161.5270093,0,465.6392164,442.3504469,-545.0869437,0,-15.47636137,-134.5295204,152.1214456,0,0,-6081.024817,,,,
647.0799995,2527,85.37966488,71.19359653,0,-25.69347537,-413.3610365,0,-387.3123425,-246.2746396,-924.3259398,0,-148.8519435,227.1618976,-164.6896474,0,0,-4693.259731,,,,
647.0879995,2527,-91.80473415,-208.7638921,0,-228.4102949,165.2813058,0,91.49370926,-416.1764381,-1049.750538,0,146.380847,20.19482191,80.09420094,0,0,-6314.34542,,,,
647.0959995,2527,-90.80338435,-65.27878948,0,148.3065418,-170.2064952,0,197.5922837,558.0479857,-500.8064062,0,-174.7858146,12.29754164,-18.23994406,0,0,-5086.378599,,,,
647.1039995,2527,79.7200472,-8.205932674,0,-258.8035615,-162.9951917,0,-428.5684812,-830.7362149,-1304.955818,0,81.386941,264.7571047,-122.057477,0,0,-5442.530744,,,,
647.1119995,2527,-211.0411121,-250.1059401,0,4.265301808,177.4953972,0,471.1436161,442.6986383,-556.0856977,0,-29.38990701,-101.6916591,125.1431319,0,0,-6027.048518,,,,
647.1199995,2527,51.86235449,58.49195363,0,-35.03026156,-381.935756,0,-370.4925752,-214.9033803,-952.7683885,0,-141.2508375,268.2248905,-192.6829784,0,0,-4639.474801,,,,
647.1279995,2527,-126.6404785,-222.1637262,0,-235.2182502,173.5227767,0,87.39049288,-394.3483249,-1057.286635,0,116.7994424,31.42082729,46.63652359,0,0,-6211.283179,,,,
647.1359995,2527,-99.04665037,-61.95007839,0,127.8841597,-205.7566444,0,189.5678676,561.9557975,-507.3773478,0,-205.7496409,10.13482582,-75.55011283,0,0,-5002.385099,,,,
647.1439995,2527,82.41999844,6.17485069,0,-262.6879078,-188.2115343,0,-432.2700711,-837.978218,-1326.894237,0,86.4391607,277.1742357,-168.8906043,0,0,-5388.635132,,,,
647.1519995,2527,-215.6391394,-246.2552578,0,14.27471129,174.2128309,0,462.2582924,426.5087961,-554.5790709,0,-24.71276806,-105.7061338,133.6458775,0,0,-5979.394863,,,,
647.1599995,2527,53.39982476,57.35665531,0,-25.80142296,-395.3065923,0,-376.605213,-218.714041,-927.6815067,0,-145.9955237,253.4158744,-172.3327272,0,0,-4582.359629,,,,
647.1679995,2528,-101.4008562,-205.0005178,0,-238.8027801,175.8211575,0,79.82085236,-418.2728236,-1032.867022,0,134.4750246,54.58777315,68.66170663,0,0,-6157.942424,,,,
647.1759995,2528,-87.52937217,-52.70027984,0,131.0405677,-179.0513466,0,197.3863574,545.8226165,-485.7877974,0,-176.7063963,56.92347646,-17.95958905,0,0,-4972.681693,,,,
647.1839995,2528,66.44801935,-9.571036128,0,-240.2914339,-186.557867,0,-431.0991298,-834.6876162,-1288.654774,0,90.73875458,320.8688217,-128.160281,0,0,-5325.922402,,,,
647.1919995,2528,-219.5160056,-255.419906,0,34.68552555,156.316463,0,452.258587,417.2937692,-509.5488263,0,-24.67741687,-71.11905444,135.8816164,0,0,-5913.143748,,,,
647.1999995,2528,71.25851065,69.20651138,0,11.97542782,-390.7414924,0,-359.2971954,-213.2529403,-895.3348279,0,-124.4661964,301.1077719,-173.3316481,0,0,-4533.443686,,,,
647.2079995,2528,-99.97593676,-217.1801981,0,-191.2188466,176.834601,0,89.53429828,-411.6094029,-993.5207725,0,154.837913,143.42547,45.93277653,0,0,-6097.609742,,,,
647.2159995,2528,-102.0508385,-89.27237162,0,172.1465408,-182.6070633,0,190.8532597,559.7993114,-443.7771634,0,-170.8405475,174.5862729,-40.94057069,0,0,-4923.333485,,,,
647.2239995,2528,84.29913457,-9.410285086,0,-194.5094548,-162.1258874,0,-422.085657,-807.7955133,-1241.515104,0,101.4357209,455.9188029,-127.2367503,0,0,-5250.376309,,,,
647.2319995,2528,-193.8982706,-245.8250536,0,63.78859784,166.7278909,0,468.9279448,431.2647268,-467.5899467,0,-0.243685057,59.77377545,110.9194319,0,0,-5844.7212,,,,
647.2399995,2528,56.62401946,40.97384202,0,30.8607614,-392.8776738,0,-352.800175,-186.231592,-883.0986356,0,-115.2414456,406.9021764,-193.055773,0,0,-4493.290467,,,,
647.2479995,2528,-116.3017292,-240.9136302,0,-170.2726196,207.6144052,0,92.29621644,-374.705171,-966.4690164,0,135.9595732,195.9454169,71.65564824,0,0,-6014.519988,,,,
647.2559995,2528,-99.84116734,-90.74530718,0,185.184364,-161.0524689,0,209.5652522,602.1904021,-413.0926397,0,-187.4658265,156.0102218,-39.97606925,0,0,-4828.058552,,,,
647.2639995,2528,69.28803779,-27.90200054,0,-186.6999789,-164.2793439,0,-412.0055782,-761.6663698,-1238.260766,0,96.44012595,417.8101652,-143.1684248,0,0,-5160.10842,,,,
647.2719995,2528,-203.4725356,-265.5374486,0,59.96398813,177.3398482,0,471.1163903,468.019709,-441.2745543,0,-14.9124387,3.314776739,123.3972959,0,0,-5735.035642,,,,
647.2799995,2528,81.17766003,57.63688999,0,22.39666564,-387.9543891,0,-342.2865658,-157.0624836,-847.9239324,0,-127.0740674,314.1526353,-202.2289057,0,0,-4375.053009,,,,
647.2879995,2528,-100.0889745,-222.5930021,0,-166.1232009,198.0203511,0,93.95157029,-361.6424599,-952.0738767,0,155.930868,108.6451402,67.36207766,0,0,-5922.444728,,,,
647.2959995,2528,-99.52265587,-90.70440612,0,191.4011141,-169.2124683,0,211.9448664,620.0414029,-381.6424113,0,-174.4994149,61.68556645,-24.30316939,0,0,-4743.521187,,,,
647.3039995,2528,67.8342074,-33.76860659,0,-198.9025514,-154.0113366,0,-422.9074751,-756.4235058,-1195.594642,0,80.81006719,308.184999,-145.8032211,0,0,-5046.65113,,,,
647.3119995,2528,-214.2170371,-274.5195809,0,38.93880529,205.9360568,0,450.5825491,456.1640785,-401.1540492,0,-26.23272885,-85.85764637,142.7347091,0,0,-5641.108078,,,,
647.3199995,2528,86.5148429,65.04494521,0,2.987868758,-377.4022611,0,-350.3458637,-160.6895272,-807.573208,0,-133.9078784,263.4850675,-190.8338329,0,0,-4282.50618,,,,
647.3279995,2528,-84.07684233,-214.5748144,0,-199.396875,208.6468451,0,81.12536219,-390.7397072,-921.8987412,0,155.7358664,82.24771137,51.16325228,0,0,-5835.808443,,,,
647.3359995,2528,-95.84345433,-96.5848871,0,161.793074,-143.7891511,0,201.5370552,594.239809,-349.8824079,0,-170.3202653,32.98107068,-31.21921898,0,0,-4693.400746,,,,
647.3439995,2528,189.8390846,16.8375181,0,-436.0491774,-149.3481328,0,-806.605922,-1586.903717,-1678.835063,0,240.0831261,455.1977177,-239.4542052,0,0,-5169.440115,,,,
647.3519995,2528,-182.1975205,-333.34618,0,-186.6570012,421.1441605,0,376.8523831,-164.6417916,-747.5776489,0,196.5884594,-56.94805556,178.8942855,0,0,-6299.326192,,,,
647.3599995,2528,-29.11901835,16.84202929,0,274.5504739,-379.5400003,0,117.2877612,822.8347183,-170.878743,0,-293.2521521,57.02153284,-74.17229857,0,0,-4050.38272,,,,
647.3679995,2528,66.48494503,-67.79530256,0,-277.2791265,-71.2892088,0,-406.193444,-917.0828326,-1213.286813,0,153.728205,276.3557373,-102.29959,0,0,-5222.494564,,,,
647.3759995,2528,-183.6061041,-252.3668972,0,9.264869267,185.163033,0,394.8705117,348.8046326,-416.0991893,0,-14.54726929,-73.44955417,95.57165811,0,0,-5522.502389,,,,
647.3839995,2528,22.55633328,15.33744925,0,87.36805102,-299.4892968,0,-142.1076537,173.9892567,-550.5930003,0,-170.2207613,160.602378,-145.4671605,0,0,-4268.803013,,,,
647.3919995,2528,-29.07378939,-163.8989513,0,-223.2549844,114.3554514,0,-144.5246971,-624.7337844,-992.35603,0,154.858643,158.6515299,-3.589141409,0,0,-5460.174293,,,,
647.3999995,2528,-144.3131984,-175.8599321,0,120.2395713,14.70879775,0,327.5598752,573.5996265,-220.2367735,0,-130.5026221,-69.56988233,63.00126257,0,0,-4930.649129,,,,
647.4079995,2528,84.30831046,15.4472495,0,-72.29389062,-251.7887939,0,-343.3373134,-376.4132914,-828.0691591,0,-47.74498192,226.6549471,-144.4421269,0,0,-4477.172819,,,,
647.4159995,2528,-109.0460518,-230.5882081,0,-109.8047961,197.3817399,0,173.2604453,-143.2135611,-676.0356227,0,105.3210007,26.50675308,79.15759899,0,0,-5551.254671,,,,
647.4239995,2529,-66.69202656,-86.39864757,0,129.1914153,-185.0384843,0,93.29041836,453.6919861,-330.7642381,0,-173.2549292,39.80140294,-54.46333186,0,0,-4443.484757,,,,
647.4319995,2529,43.67800345,-85.14339491,0,-216.8848718,-78.59021482,0,-336.568733,-680.8120276,-995.2763602,0,71.54847382,203.4272821,-106.3950425,0,0,-4946.124553,,,,
647.4399995,2529,-168.1570932,-245.7715876,0,54.26448914,141.5234079,0,401.2845595,465.6320699,-229.4978875,0,-45.36990173,-108.808673,104.2233371,0,0,-5209.686958,,,,
647.4479995,2529,78.1706805,16.69172779,0,-9.879909173,-320.2671697,0,-325.98311,-190.0046747,-661.319786,0,-86.47989327,212.9943762,-151.7798679,0,0,-4173.046745,,,,
647.4559995,2529,-94.93142448,-245.828398,0,-179.2156458,197.6789213,0,82.32213086,-313.1340388,-708.0327438,0,127.9856896,19.95682565,85.06469217,0,0,-5487.80756,,,,
647.4639995,2529,-86.16841154,-107.1123325,0,153.1779684,-139.8398346,0,188.3163215,568.6934867,-197.6028525,0,-171.6760177,-25.27067184,-17.67526844,0,0,-4430.768365,,,,
647.4719995,2529,84.18474749,-32.24974278,0,-182.8417906,-129.8864707,0,-392.377667,-703.2996427,-981.3508675,0,85.92526474,242.7747575,-148.4993553,0,0,-4724.659333,,,,
647.4799995,2529,-170.2200554,-252.3132098,0,45.04592256,196.5087968,0,429.1656033,433.3493802,-212.5337055,0,-17.46743911,-127.7676759,117.6402702,0,0,-5263.291525,,,,
647.4879995,2529,100.4862236,56.44787634,0,32.14872263,-356.9954603,0,-329.5361883,-133.7742243,-608.7816933,0,-115.0575208,202.9147992,-174.9737976,0,0,-4006.322309,,,,
647.4959995,2529,-80.20689767,-226.1168659,0,-155.9417569,212.5395707,0,66.10647557,-362.9029667,-734.5159313,0,155.2099248,33.45341917,63.15918122,0,0,-5452.230298,,,,
647.5039995,2529,-104.907327,-116.6440226,0,191.9332298,-122.8055168,0,213.9432671,623.0778581,-129.9743515,0,-184.4003408,-53.19678619,-10.58589458,0,0,-4354.225795,,,,
647.5119995,2529,89.06580288,-24.16376175,0,-172.8549422,-172.1147061,0,-423.2706001,-718.5892432,-944.2422527,0,64.65798012,215.3015793,-160.7433339,0,0,-4579.406611,,,,
647.5199995,2529,-177.1103246,-259.4888967,0,56.84127666,198.1408072,0,442.1589174,424.1909265,-185.9280677,0,-0.618287471,-166.437046,129.6329828,0,0,-5236.598151,,,,
647.5279995,2529,81.88272932,46.66546487,0,74.08552992,-370.8813825,0,-332.2697244,-99.55564072,-557.0109468,0,-117.1642991,176.4002211,-172.3892823,0,0,-3883.696472,,,,
647.5359995,2529,-83.61783469,-232.1146464,0,-135.9099402,213.7261778,0,53.75557567,-378.2803852,-705.4161162,0,153.1060696,-0.499513581,33.5143033,0,0,-5355.500055,,,,
647.5439995,2529,-98.21904104,-112.5224516,0,219.7305979,-96.34707299,0,227.3793851,641.5569749,-85.09039648,0,-182.5141372,-103.0965799,-18.34814273,0,0,-4263.361106,,,,
647.5519995,2529,88.82368014,-29.63548419,0,-135.7805142,-140.9453435,0,-428.5181012,-711.3579442,-918.9275493,0,79.09953707,174.090879,-135.5383861,0,0,-4469.564297,,,,
647.5599995,2529,-175.2618537,-266.6482931,0,84.53504196,232.8168048,0,455.2039308,437.4021766,-144.3911077,0,4.28383202,-224.6191824,163.1597351,0,0,-5148.40382,,,,
647.5679995,2529,93.97509876,59.64387994,0,85.14581867,-363.058416,0,-317.1581627,-77.95382615,-494.2644442,0,-120.5363089,119.5817607,-146.7253049,0,0,-3761.160328,,,,
647.5759995,2529,-87.90122798,-239.2362731,0,-144.2610759,207.1128127,0,49.43001678,-389.925857,-670.1698766,0,166.9953939,-39.45427203,47.24620989,0,0,-5275.411134,,,,
647.5839995,2529,-107.2963236,-126.0777092,0,208.0695891,-130.8409981,0,221.5254967,638.8377219,-40.35221927,0,-185.9429402,-139.0251029,-24.44440852,0,0,-4192.920455,,,,
647.5919995,2529,97.14870343,-15.81478313,0,-149.499453,-183.8181266,0,-441.4819685,-725.4311928,-886.2491852,0,73.63191099,159.6741177,-160.7238316,0,0,-4385.949335,,,,
647.5999995,2529,-180.9232631,-265.7480444,0,79.49333064,242.1146428,0,448.6798924,429.6921996,-116.3496596,0,23.02188386,-217.7496525,145.2739458,0,0,-5093.043002,,,,
647.6079995,2529,90.79222791,60.16514453,0,82.81059954,-350.3098901,0,-325.4062781,-78.10104604,-445.4483075,0,-118.215595,113.8076716,-155.7444035,0,0,-3673.590919,,,,
647.6159995,2529,-70.16509414,-218.5361741,0,-150.7889744,210.1933865,0,44.7989173,-402.2904641,-633.4117373,0,166.6911026,-48.25824708,51.47239966,0,0,-5192.182368,,,,
647.6239995,2529,-97.48808317,-112.6031145,0,222.9559001,-97.85866489,0,239.0669068,657.5215321,1.597618759,0,-151.2491845,-121.7414502,-2.702069519,0,0,-4127.800262,,,,
647.6319995,2529,92.50775222,-16.66521868,0,-136.1003421,-160.6862637,0,-441.8279986,-709.5054956,-832.1790354,0,85.05694565,171.5746799,-139.2499329,0,0,-4284.842155,,,,
647.6399995,2529,-192.5255663,-272.6664168,0,71.37142777,235.2289267,0,440.2281785,437.5908843,-54.78233883,0,0.568236397,-231.823859,137.2145704,0,0,-4985.02203,,,,
647.6479995,2529,89.68705882,67.46965582,0,81.35693987,-366.9328686,0,-329.3649785,-68.57685169,-394.4704696,0,-120.2888644,108.4167001,-194.9842487,0,0,-3570.73099,,,,
647.6559995,2529,-65.55283309,-204.6665072,0,-141.7618406,207.2895675,0,36.46129935,-400.0451393,-584.4989896,0,175.5381808,-38.90392761,32.83278519,0,0,-5093.118638,,,,
647.6639995,2529,-90.63047579,-94.62184231,0,229.5957302,-89.07274963,0,246.9811565,675.0654479,81.63584363,0,-144.5904233,-115.6469843,-3.716245442,0,0,-4020.151846,,,,
647.6719995,2529,97.29512816,5.659210114,0,-127.1037074,-142.4539278,0,-431.237243,-698.5071398,-762.5385928,0,101.3935088,194.4726672,-147.8617831,0,0,-4171.437714,,,,
647.6799995,2530,-204.72833,-272.7680598,0,74.37375832,270.3643502,0,456.7681243,462.1320641,26.92706325,0,5.485442327,-197.4017409,143.0961663,0,0,-4868.258999,,,,
647.6879995,2530,89.03820392,66.85851574,0,64.90668124,-339.4515482,0,-307.7144499,-40.58669296,-308.2134505,0,-127.6641709,129.9410755,-176.253837,0,0,-3440.938341,,,,
647.6959995,2530,-59.5745316,-193.4954322,0,-151.2437911,242.4672995,0,69.38637419,-381.9976309,-535.9927815,0,183.6958415,-4.410965342,54.89608366,0,0,-4982.901738,,,,
647.7039995,2530,-101.0661794,-93.93663986,0,219.3296063,-57.74190229,0,289.1548543,717.5707903,142.6006078,0,-154.5253747,-87.92012592,11.00133038,0,0,-3884.918592,,,,
647.7119995,2530,100.2370088,19.31342984,0,-154.9758176,-140.6787708,0,-412.9406721,-682.3117724,-732.8317571,0,85.24525835,194.0094219,-160.2470269,0,0,-4035.114959,,,,
647.7199995,2530,-172.9913675,-224.5114825,0,64.88709545,273.6573272,0,485.4803325,460.65709,24.95497457,0,21.2379307,-200.5828548,129.8833019,0,0,-4777.449979,,,,
647.7279995,2530,99.09850706,96.92384129,0,73.2174253,-334.5242703,0,-282.8823698,-36.83328446,-306.2352315,0,-108.5987276,122.9399783,-172.0945922,0,0,-3343.57716,,,,
647.7359995,2530,-89.21553086,-198.1825294,0,-141.6028455,247.3086293,0,62.95240907,-394.2523467,-540.5043625,0,182.993092,-20.79442917,45.59045062,0,0,-4888.832244,,,,
647.7439995,2530,-105.0217251,-67.29107632,0,232.0733024,-73.57135115,0,283.5988576,693.8678356,162.2053667,0,-166.5616143,-109.8243409,-16.68726584,0,0,-3791.481155,,,,
647.7519995,2530,105.1058179,48.74869748,0,-139.7078344,-166.9619419,0,-423.7416174,-727.6493621,-731.4847471,0,92.55353699,193.2384319,-155.247143,0,0,-3975.148123,,,,
647.7599995,2530,-199.7594566,-233.1783375,0,80.19588025,280.0068495,0,482.5663973,437.9363914,51.92568538,0,21.50395535,-172.1746078,161.8726051,0,0,-4724.147303,,,,
647.7679995,2530,86.60450027,108.0296044,0,73.66254171,-345.8850225,0,-285.023989,-55.68129841,-247.0457666,0,-131.5560384,173.975897,-179.2624254,0,0,-3252.027257,,,,
647.7759995,2530,-94.1681779,-178.6143811,0,-155.7992188,228.8843963,0,53.51545688,-431.4749774,-525.4468896,0,171.9047493,58.28373509,39.06492567,0,0,-4838.984188,,,,
647.7839995,2530,-114.8763033,-65.90810692,0,205.2435025,-64.17958616,0,286.0021568,681.683152,188.4859098,0,-176.8694821,-33.26240626,10.04570443,0,0,-3729.373112,,,,
647.7919995,2530,117.7033027,66.29569295,0,-171.3469789,-173.0404345,0,-431.4503205,-757.9626771,-730.511853,0,92.65167143,246.9668402,-163.7825051,0,0,-3907.506011,,,,
647.7999995,2530,-184.4154216,-207.5097624,0,65.21181567,264.1803062,0,483.9132552,414.3451105,21.41577731,0,46.08908898,-132.2418331,134.0561287,0,0,-4705.903618,,,,
647.8079995,2530,87.91421582,123.6687498,0,61.41065672,-373.4263892,0,-282.3807334,-58.54952316,-265.9716675,0,-124.2204022,193.6475855,-183.8413246,0,0,-3208.494975,,,,
647.8159995,2530,-97.34240996,-169.2975064,0,-171.8227228,197.5905212,0,43.10018856,-442.975634,-556.2764685,0,159.6930314,51.46922703,28.77971949,0,0,-4795.294756,,,,
647.8239995,2530,-111.6672574,-53.2276614,0,197.0845114,-80.33724613,0,292.3004594,689.100741,182.6248399,0,-180.377988,-32.05765538,-8.928651024,0,0,-3683.174219,,,,
647.8319995,2530,102.8884956,63.94274496,0,-176.9248548,-186.0872758,0,-432.6782459,-760.3283885,-748.4221318,0,82.36236772,281.9987152,-169.5425197,0,0,-3858.399748,,,,
647.8399995,2530,-211.2849567,-221.953491,0,58.28338616,267.2076424,0,484.1560211,420.872262,7.569475096,0,18.09747118,-100.196913,144.6299614,0,0,-4655.597653,,,,
647.8479995,2530,103.134135,146.7207502,0,48.83917728,-362.7731896,0,-279.4668659,-56.77604084,-257.5842126,0,-135.9530297,217.3220087,-181.253239,0,0,-3124.965733,,,,
647.8559995,2530,-85.76844362,-147.6537631,0,-170.7886334,226.8899192,0,46.22243964,-461.0047402,-591.5724207,0,173.2187423,93.92431899,26.64052031,0,0,-4762.563858,,,,
647.8639995,2530,-109.7018934,-39.62228237,0,206.7257733,-47.66983675,0,308.711706,696.2368481,160.5056866,0,-179.255686,9.826992813,-1.488166394,0,0,-3646.990354,,,,
647.8719995,2530,136.2818452,106.2683855,0,-181.1663812,-172.1839087,0,-436.2363693,-777.8065767,-779.9852513,0,94.04243361,331.7105139,-163.5161084,0,0,-3805.873836,,,,
647.8799995,2530,-210.0482711,-207.4657794,0,68.14836422,295.0296383,0,483.2223844,415.1850578,-34.41940894,0,36.25009123,-35.15757656,145.3791705,0,0,-4638.581623,,,,
647.8879995,2530,104.6927513,156.0952522,0,61.64686768,-359.7982518,0,-280.1535315,-53.03156957,-264.5818176,0,-148.0935003,263.7312105,-198.2685194,0,0,-3064.026764,,,,
647.8959995,2530,-54.20900212,-119.9674814,0,-153.4034879,218.5508256,0,42.23249866,-486.0909064,-621.9676444,0,194.3158776,140.557693,29.61637146,0,0,-4731.278045,,,,
647.9039995,2530,-127.9647195,-54.53609587,0,244.9169551,-50.03224838,0,310.0080086,711.3126006,161.3896897,0,-166.8616756,44.31054305,3.895497079,0,0,-3614.206942,,,,
647.9119995,2530,112.3927943,83.57711728,0,-161.0292817,-194.8834312,0,-460.0083832,-773.1451911,-754.8767055,0,53.13177642,317.6831541,-190.0360669,0,0,-3718.486263,,,,
647.9199995,2530,-207.4714185,-207.8258926,0,84.81530272,310.4293484,0,476.093361,418.0993831,-8.828567281,0,26.73989179,-47.6704581,183.5191898,0,0,-4579.516374,,,,
647.9279995,2530,88.85933635,145.1858642,0,68.39380246,-352.4203009,0,-296.0602646,-36.72201741,-200.4003524,0,-146.3250318,269.7815259,-140.1360856,0,0,-2975.276713,,,,
647.9359995,2531,-68.69242274,-137.5982297,0,-181.0239542,201.9665667,0,2.663684914,-505.2148952,-583.6018666,0,179.381219,125.1606632,38.50817949,0,0,-4658.293982,,,,
647.9439995,2531,-134.5832772,-65.24876132,0,218.672779,-20.29455813,0,304.506003,721.059255,212.4949523,0,-164.9708689,29.25801836,59.81837107,0,0,-3564.532624,,,,
647.9519995,2531,92.44954933,61.02040453,0,-198.220791,-177.0399922,0,-473.2911165,-765.5850864,-678.9864401,0,61.01262333,317.1792867,-127.3233479,0,0,-3629.65439,,,,
647.9599995,2531,-218.4333034,-232.009407,0,38.65778524,294.5826942,0,464.7556459,411.6090153,45.48933786,0,13.3183932,-76.70781402,168.7588543,0,0,-4509.912272,,,,
647.9679995,2531,100.1682168,145.4488461,0,40.06963636,-369.7545477,0,-292.6187443,-26.74408539,-148.6872192,0,-154.2129443,239.3789952,-161.9961842,0,0,-2900.611278,,,,
647.9759995,2531,-71.08327844,-149.9194638,0,-205.9137149,193.4798776,0,-7.264842826,-509.8516453,-552.3763354,0,193.518167,109.4267045,56.8108976,0,0,-4584.794738,,,,
647.9839995,2531,-132.8000669,-76.78552045,0,213.4819702,-24.83641707,0,309.0638975,740.3337171,251.223587,0,-165.8273349,-1.499027211,73.78444895,0,0,-3471.561615,,,,
647.9919995,2531,118.0649983,74.59174397,0,-193.1180275,-195.9519743,0,-474.9186682,-761.2336035,-671.2059581,0,70.56619865,299.6453078,-149.1124199,0,0,-3525.865515,,,,
647.9999995,2531,-223.3230766,-244.8382725,0,44.46896924,294.0237755,0,462.7141746,408.792314,7.925409321,0,33.48695589,-84.84857449,154.913101,0,0,-4462.753869,,,,
648.0079995,2531,86.09726041,125.9967236,0,63.60087777,-356.062922,0,-283.0118581,8.956177474,-155.9735334,0,-162.6922605,226.0053869,-153.2599287,0,0,-2806.708925,,,,
648.0159995,2531,-54.38235318,-143.3634199,0,-199.4907061,189.5888611,0,-1.966406077,-501.604456,-572.1170899,0,187.0559046,98.86887394,41.93357233,0,0,-4485.331527,,,,
648.0239995,2531,-140.9688508,-88.47645101,0,210.0195426,-39.23918233,0,317.6794486,756.881289,235.8228209,0,-172.7108881,-13.04622408,58.81383996,0,0,-3408.351597,,,,
648.0319995,2531,97.58523581,54.02704158,0,-195.9400404,-216.352519,0,-488.3874202,-745.6899557,-659.6924862,0,46.2871737,274.994568,-137.2293297,0,0,-3416.613457,,,,
648.0399995,2531,-206.9794573,-234.7571976,0,34.96773745,283.3871457,0,460.0897832,402.4364968,15.25893496,0,26.10011182,-119.9520433,164.3346641,0,0,-4374.632138,,,,
648.0479995,2531,90.59819134,133.5232736,0,69.43553841,-360.6675168,0,-271.9278266,23.45212841,-135.6953984,0,-155.9659531,223.6760143,-138.5367906,0,0,-2721.144445,,,,
648.0559995,2531,-75.67305139,-157.9951042,0,-190.2111975,199.3514357,0,-8.262393777,-496.9717407,-561.5762539,0,174.7950736,102.9289812,68.60509251,0,0,-4381.465686,,,,
648.0639995,2531,-137.3793377,-85.58681487,0,220.4993698,-17.95851028,0,328.1028044,772.660156,249.3068456,0,-189.4928716,-20.26698823,45.43241088,0,0,-3304.051568,,,,
648.0719995,2531,123.9534724,76.82439004,0,-188.1127667,-215.8872837,0,-480.3437584,-737.3568979,-666.7114687,0,60.07816162,295.0179499,-182.5891837,0,0,-3308.714305,,,,
648.0799995,2531,-193.8415379,-221.9105803,0,50.17341076,303.5366944,0,475.2838265,418.2235354,-14.8696751,0,50.54903571,-97.86323832,149.7129802,0,0,-4300.058909,,,,
648.0879995,2531,114.4740523,153.2372304,0,92.35113387,-341.8835512,0,-258.0704723,60.98954448,-129.4883081,0,-155.372613,235.4258998,-161.866871,0,0,-2594.470444,,,,
648.0959995,2531,-47.30683162,-141.8653975,0,-179.1907062,185.2335206,0,-19.43317928,-499.4890974,-585.6982556,0,188.4180816,101.4298366,10.29445732,0,0,-4265.165886,,,,
648.1039995,2531,-137.2629992,-88.18080897,0,249.4194489,-21.24275142,0,335.9574302,800.4120116,224.2929197,0,-167.760769,-43.40520696,11.18733249,0,0,-3220.929454,,,,
648.1119995,2531,133.4847287,84.58208512,0,-169.4175114,-218.5859335,0,-487.4723581,-715.9502184,-660.5895616,0,43.38476565,255.9730693,-209.7194943,0,0,-3150.812541,,,,
648.1199995,2531,-199.0979964,-230.3615048,0,56.7322254,312.1827222,0,459.9818934,413.0447847,-41.65382554,0,37.15859956,-157.2736036,128.6943805,0,0,-4173.624705,,,,
648.1279995,2531,94.24161001,134.9106315,0,108.5751547,-341.6892377,0,-262.5910961,92.38272039,-136.4719256,0,-155.486362,171.007908,-149.1993937,0,0,-2451.914504,,,,
648.1359995,2531,-39.46622345,-142.349312,0,-195.0158951,164.8472097,0,-45.50362067,-507.5464461,-593.11923,0,177.2119758,32.90833918,9.925392598,0,0,-4100.121883,,,,
648.1439995,2531,-133.2038188,-89.00263344,0,238.4301106,-17.87557301,0,325.4366214,795.2552416,211.2372629,0,-171.226676,-84.69099625,19.04283343,0,0,-3101.68859,,,,
648.1519995,2531,129.9446952,80.44119716,0,-174.8802561,-237.9775649,0,-502.5299328,-713.9889172,-647.8956224,0,44.53566963,252.0953052,-192.4123234,0,0,-3001.818216,,,,
648.1599995,2531,-199.7324002,-240.1119845,0,36.11940658,277.995754,0,438.8221009,389.2104242,-43.82469383,0,30.21037137,-180.6686132,108.1157431,0,0,-4066.907632,,,,
648.1679995,2531,84.46166266,119.995487,0,116.065458,-343.2513532,0,-267.758026,105.9086816,-116.2112436,0,-164.0390854,156.9948733,-159.6002401,0,0,-2341.351939,,,,
648.1759995,2531,-55.96881669,-166.4830926,0,-185.6301723,160.7112446,0,-70.60766757,-512.8588211,-572.4828339,0,160.4980403,13.97117889,20.12430276,0,0,-3954.818315,,,,
648.1839995,2531,-134.2323755,-98.46930396,0,257.0746512,-23.76868678,0,320.8036481,795.5191886,204.4406563,0,-191.6503878,-143.1101569,25.15124665,0,0,-2991.177602,,,,
648.1919995,2532,141.5774542,84.71598326,0,-137.9110022,-239.8091211,0,-498.1869799,-692.8088745,-659.5960513,0,51.42655328,218.1204875,-161.6616501,0,0,-2861.889804,,,,
648.1999995,2532,-206.8453206,-264.455122,0,56.12850503,259.0175629,0,422.697168,384.2354437,-83.46424349,0,32.93306477,-216.8010773,141.444442,0,0,-3943.355833,,,,
648.2079995,2532,76.2171826,102.5331527,0,133.1469506,-377.7815213,0,-272.2768168,118.7442166,-159.2449929,0,-191.6446408,106.1736692,-164.2826484,0,0,-2220.471097,,,,
648.2159995,2532,-48.0547145,-160.2718935,0,-182.5909473,139.0375701,0,-73.93519598,-514.4841073,-616.457582,0,156.5904667,1.933062177,17.99429458,0,0,-3816.050921,,,,
648.2239995,2532,-132.2789354,-107.7156783,0,250.0135331,-27.01498336,0,323.9730942,798.2257594,166.4353816,0,-181.1939088,-128.7924858,24.13693389,0,0,-2881.337506,,,,
648.2319995,2532,153.7803372,78.830547,0,-155.562033,-265.1973215,0,-509.9120709,-694.5110674,-674.0012592,0,43.46933602,234.9545775,-195.2299617,0,0,-2724.09493,,,,
648.2399995,2532,-188.2182058,-259.2822471,0,27.47285026,235.5137177,0,401.7611404,348.7528715,-110.7514401,0,45.2275651,-217.7282676,136.8580002,0,0,-3840.577262,,,,
648.2479995,2532,91.26673439,110.1928835,0,123.4679385,-386.3684723,0,-274.7530332,115.0913352,-171.9962937,0,-165.5376175,91.53411047,-137.3344,0,0,-2124.635645,,,,
648.2559995,2532,-31.02678694,-161.0961174,0,-200.3744279,118.0013562,0,-94.40886049,-536.3340674,-623.6750601,0,169.6475871,-30.6896992,12.22298202,0,0,-3698.422257,,,,
648.2639995,2532,-104.8719541,-45.22669276,0,358.8318509,-221.0562955,0,240.6544418,1027.265084,312.1520187,0,-294.3710325,-157.9474273,-45.18570239,0,0,-2241.983631,,,,
648.2719995,2532,414.464299,418.0104177,0,-57.58035919,-884.0274474,0,-1170.900837,-897.7231257,-724.0652813,0,-146.2071852,499.3960316,-473.4890412,0,0,-1000.776354,,,,
648.2799995,2532,135.8425836,41.49301907,0,-171.822513,-231.5260247,0,-481.3295175,-706.209938,-669.5781975,0,83.08471358,164.0145979,-169.5245822,0,0,-2754.924638,,,,
648.2879995,2532,182.3680727,218.0871687,0,147.6200279,-598.2723663,0,-526.6900584,18.83899076,-211.278059,0,-228.3784083,201.9376188,-283.7527749,0,0,-1462.436823,,,,
648.2959995,2532,119.1636143,7.507038065,0,-219.0184421,-151.3973231,0,-440.7832653,-785.4741796,-703.4408087,0,118.2350909,131.3891083,-148.3060134,0,0,-2944.500809,,,,
648.3039995,2532,-246.4903893,-319.8674547,0,59.30266649,334.6625007,0,570.3949866,565.6282683,32.44562468,0,11.9519031,-349.0383075,147.3576769,0,0,-3817.635473,,,,
648.3119995,2532,67.74617344,73.63859074,0,94.51744118,-323.2664678,0,-262.264672,105.3563411,-194.6842238,0,-167.0474748,49.72222866,-187.8581903,0,0,-2047.380989,,,,
648.3199995,2532,-1.25643564,-119.7460472,0,-204.4011932,64.73217301,0,-139.7814405,-487.3447332,-551.4976174,0,121.7920339,-48.77424508,-67.26771809,0,0,-3319.234574,,,,
648.3279995,2532,-151.9244367,-188.7554854,0,97.78904586,96.56602828,0,356.1128259,568.0131023,71.74817174,0,-87.67132849,-298.8392235,19.3351468,0,0,-3119.729111,,,,
648.3359995,2532,112.2392665,77.11138212,0,-30.72220423,-299.287881,0,-383.8707779,-261.7514959,-383.0732983,0,-73.62736358,57.81658971,-210.5750584,0,0,-2210.939716,,,,
648.3439995,2532,-114.9389531,-216.419793,0,-118.7219789,217.7024452,0,151.0470419,-120.0383633,-343.1694389,0,107.6347971,-198.7116685,6.007669239,0,0,-3552.522696,,,,
648.3519995,2532,-90.38608846,-71.46035433,0,170.2104062,-108.6086226,0,135.1671743,553.5260322,58.96737973,0,-174.4593228,-158.9763155,-101.6290657,0,0,-2429.128972,,,,
648.3599995,2532,68.68289002,-8.904059733,0,-166.1577494,-124.7269509,0,-366.478935,-545.09082,-544.9731365,0,26.85047121,78.52233394,-179.2368527,0,0,-2627.062466,,,,
648.3679995,2532,-148.0896734,-209.5812146,0,16.45113924,223.7983593,0,384.2193713,400.131747,9.61181359,0,-12.53523295,-274.1522591,46.82019235,0,0,-3301.839821,,,,
648.3759995,2532,131.3860732,136.4312903,0,83.2956063,-297.3134763,0,-238.7278252,44.16790709,-171.202874,0,-103.36946,71.66808194,-187.3954269,0,0,-1949.746772,,,,
648.3839995,2532,-21.22006952,-124.9775295,0,-156.291434,195.9959239,0,12.6268569,-392.294259,-461.8944165,0,183.1012895,-51.99021193,4.316553479,0,0,-3353.692214,,,,
648.3919995,2532,-110.5501406,-77.63975308,0,215.6079966,15.86949114,0,296.4168825,697.0976119,177.1074921,0,-149.8817057,-195.3946816,-12.31342278,0,0,-2494.349604,,,,
648.3999995,2532,118.7788505,77.82447334,0,-116.2946349,-160.8306309,0,-418.0488959,-577.8884064,-523.3165704,0,42.76351245,130.7275388,-168.2834078,0,0,-2340.404533,,,,
648.4079995,2532,-169.1543718,-205.0507428,0,36.22641042,303.1164285,0,426.6132994,340.0001695,13.81083363,0,41.19173459,-275.434791,106.3251419,0,0,-3329.85758,,,,
648.4159995,2532,78.84741022,139.9421098,0,143.6527475,-281.6876296,0,-198.7686315,154.470903,-43.25005287,0,-162.8233858,45.30303814,-187.5137054,0,0,-1754.407926,,,,
648.4239995,2532,-26.65312094,-96.05405243,0,-178.5884994,171.9512693,0,-47.11077757,-485.0822419,-435.132258,0,154.2709349,-32.59368399,-42.54704071,0,0,-3171.524749,,,,
648.4319995,2532,-96.89682545,-30.9048892,0,239.7606807,49.46770543,0,371.8251159,750.0275343,263.1174854,0,-140.9252708,-181.7655517,-8.133954378,0,0,-2430.105217,,,,
648.4399995,2532,151.2358135,146.6484188,0,-85.61365829,-158.6485453,0,-423.3511295,-595.4959,-492.7472584,0,67.77448717,236.5401996,-177.8324839,0,0,-2177.815484,,,,
648.4479995,2533,-175.0652048,-185.2476029,0,42.45312431,346.5577102,0,448.0765511,327.3558192,58.62714597,0,54.70364239,-188.0226328,117.3087133,0,0,-3256.530988,,,,
648.4559995,2533,96.5492828,182.8330649,0,166.7690973,-241.728668,0,-170.6791765,185.6123874,20.87809775,0,-157.8181594,116.5226661,-152.4825107,0,0,-1628.999827,,,,
648.4639995,2533,-15.54263629,-69.16420805,0,-176.5205752,199.0752436,0,-49.13873961,-513.5520162,-415.2709404,0,186.2251727,45.14298825,12.70239238,0,0,-3066.073889,,,,
648.4719995,2533,-123.7435142,-39.05973704,0,247.2042208,67.78053038,0,402.0539491,786.5439458,331.5003633,0,-143.8042351,-138.8491412,29.61094807,0,0,-2324.407286,,,,
648.4799995,2533,170.4446393,183.2304031,0,-89.3341405,-167.2727491,0,-419.8335941,-596.4662399,-440.0098156,0,56.89689192,283.6641689,-175.3672243,0,0,-2015.83686,,,,
648.4879995,2533,-150.6948403,-150.6123676,0,19.16429381,346.3761133,0,472.2382732,311.7884603,86.95346537,0,76.97161865,-141.5556883,146.7699479,0,0,-3167.837108,,,,
648.4959995,2533,91.47990533,190.0919293,0,162.9052563,-243.601222,0,-144.3123821,209.0468101,64.36739931,0,-145.7512663,174.8021007,-138.3732783,0,0,-1527.586262,,,,
648.5039995,2533,-1.424011241,-49.33887769,0,-181.9045384,205.4759667,0,-39.00151526,-523.4517165,-380.1716504,0,193.2975986,113.3249168,7.487420228,0,0,-2954.539934,,,,
648.5119995,2533,-133.7008064,-46.12695616,0,236.8779504,89.28965292,0,425.1783129,795.9484265,369.7753627,0,-142.7339068,-98.86951725,55.6888385,0,0,-2245.862412,,,,
648.5199995,2533,105.1864931,120.1589324,0,-96.84056537,-147.1904239,0,-426.0229788,-567.2993228,-393.215536,0,25.88969038,299.835562,-168.8455697,0,0,-1886.902126,,,,
648.5279995,2533,-206.2682537,-214.4613594,0,3.333957878,364.9603974,0,459.3325461,329.8902356,148.6822031,0,26.26136775,-158.5766684,130.4752481,0,0,-3016.860926,,,,
648.5359995,2533,63.81480573,153.5786016,0,148.9932572,-252.0833133,0,-154.5968,232.3209017,125.8914318,0,-198.2016471,141.6391065,-151.2633193,0,0,-1367.299844,,,,
648.5439995,2533,-30.53673237,-87.39411222,0,-200.1885116,181.004314,0,-64.00831123,-516.2775357,-347.0055168,0,157.9453478,95.64178736,5.931139805,0,0,-2792.012185,,,,
648.5519995,2533,-142.2229822,-71.0871407,0,210.477519,66.33077366,0,419.2828774,803.1555951,399.3684785,0,-163.9403633,-121.5785419,53.69068701,0,0,-2108.681585,,,,
648.5599995,2533,131.388453,128.4493971,0,-124.7729928,-183.3629751,0,-434.9039374,-577.3408842,-385.2969276,0,21.99039632,287.85995,-183.821811,0,0,-1761.89548,,,,
648.5679995,2533,-176.6252897,-201.9785996,0,-16.3276066,333.9173403,0,450.8797389,305.1441555,124.7079861,0,48.12623041,-149.5935331,151.08298,0,0,-2944.198114,,,,
648.5759995,2533,82.69258649,159.7358652,0,150.7438766,-269.3205184,0,-144.4708031,235.0852779,110.9732843,0,-173.337893,152.5957809,-104.9747553,0,0,-1303.642428,,,,
648.5839995,2533,-28.7012344,-95.3630093,0,-199.7096602,176.9724584,0,-69.61808835,-525.6158815,-349.1461216,0,166.1527213,97.43981562,20.36489469,0,0,-2699.628026,,,,
648.5919995,2533,-140.2544721,-80.16178083,0,209.2001289,65.12385144,0,403.5344976,791.3716627,424.3982338,0,-169.1737331,-141.4420461,57.98633883,0,0,-2021.069421,,,,
648.5999995,2533,143.3820152,137.0446274,0,-116.0421719,-200.0219469,0,-450.5466849,-585.6584453,-354.436181,0,30.57462972,275.5116311,-171.6508156,0,0,-1667.203403,,,,
648.6079995,2533,-194.5975323,-214.918954,0,-15.63869621,334.4786431,0,447.7283029,300.6644165,151.1449375,0,58.53564817,-151.9645235,139.6439082,0,0,-2855.345639,,,,
648.6159995,2533,76.74387307,151.8212014,0,133.7036793,-258.8645207,0,-153.7795185,239.9783555,159.2059209,0,-182.6109662,134.5686944,-122.0728135,0,0,-1197.34057,,,,
648.6239995,2533,-2.289721423,-80.99303451,0,-228.2334465,182.1499891,0,-86.1103482,-547.3678668,-321.9196029,0,178.8245152,84.79163556,14.05729774,0,0,-2613.666403,,,,
648.6319995,2533,-151.258923,-99.59495677,0,185.9435074,79.26109289,0,412.334891,794.111109,447.8796869,0,-154.2622155,-146.9015542,42.15496672,0,0,-1964.686439,,,,
648.6399995,2533,140.4888951,122.9272116,0,-141.2705473,-196.047809,0,-463.7687897,-580.4887414,-311.4598801,0,9.406095809,258.1676705,-186.039119,0,0,-1563.157406,,,,
648.6479995,2533,-177.5178619,-215.2199319,0,-35.44216993,344.1198145,0,430.3291184,285.1459259,194.5375367,0,52.12858396,-172.8327278,149.9279067,0,0,-2768.725517,,,,
648.6559995,2533,58.58890204,128.5428623,0,139.9499444,-258.0374306,0,-158.07944,254.3070958,215.4462414,0,-192.1030486,116.8453072,-126.410602,0,0,-1109.241896,,,,
648.6639995,2533,-16.57135355,-92.95759491,0,-210.7260966,177.3381503,0,-103.422226,-537.2149647,-265.8732147,0,139.5228261,67.8978529,-13.66730758,0,0,-2485.229247,,,,
