Time:125Hz,Epoch,FP1,FP2,C3,C4,P7,P8,O1,O2,F7,F8,F3,F4,T7,T8,P3,P4,Event Id,,,
559.0639996,2183,60.17554457,64.1703147,-23.46644231,14.45217521,0,-6.83760809,0,-211.6619951,104.4694025,-12.69265624,254.2815499,74.16004268,165.88374,-43.72779371,0,-443.1666508,1111,,,
559.0719996,2183,31.34579005,37.0590004,-50.95055655,-10.74202101,0,32.06917946,0,-175.7305922,-175.3556269,19.4964389,-235.5014398,6.126476392,-130.1297281,-8.583051121,0,-385.0326979,,,,
559.0799996,2183,54.19097306,21.74672508,138.6035341,-16.25329205,0,-23.52458212,0,-190.430253,71.6032839,-36.60883559,133.1668716,19.52897383,90.7134825,1.226374718,0,-380.8529361,,,,
559.0879996,2183,51.63821832,67.3111657,-142.9476429,9.803817564,0,51.41503113,0,-181.5405732,-55.14191623,-1.117634914,14.37432501,53.67617022,15.30287092,24.58539809,0,-403.299883,,,,
559.0959996,2183,44.68528735,22.39597053,128.7299499,-11.71555849,0,-11.94235717,0,-159.4541414,-70.83743406,0.522144954,-152.4230142,-23.66429636,-3.822260909,10.40043665,0,-330.8720792,,,,
559.1039996,2184,66.00697154,66.18853924,-33.11134441,17.59194649,0,-6.075386625,0,-203.6477661,109.7156221,-6.905162133,263.2623588,66.18761503,170.7241075,-13.21427498,0,-415.7464105,,,,
559.1119996,2184,41.83039214,50.34296573,-45.63840945,0.242248874,0,32.05694522,0,-180.6651478,-162.9949623,24.82224149,-233.0385878,-7.383905113,-102.7284748,33.78744534,0,-369.1149026,,,,
559.1199996,2184,37.14065811,11.33032206,139.8496837,-9.376608742,0,-37.32842909,0,-199.064248,77.61188959,-27.73467813,139.2756282,9.728157706,115.7214064,-16.95137708,0,-386.215167,,,,
559.1279996,2184,34.77959236,46.06792022,-152.730797,-0.592418466,0,45.46828174,0,-173.7953006,-49.54833451,-7.378024465,18.40686567,49.6380567,17.88037584,-14.65551612,0,-403.7345285,,,,
559.1359996,2184,43.8595633,25.91402994,123.3805662,-21.61352647,0,-3.579220036,0,-159.1041466,-64.58062029,-0.45817616,-158.7373391,-19.50055598,-36.07761375,-1.831763079,0,-322.7127762,,,,
559.1439996,2184,50.98064403,56.90796425,-33.3023392,13.16439845,0,-12.91404103,0,-205.5055555,114.3001452,11.45605747,256.9614414,78.76300393,140.6841566,-5.571677011,0,-408.9157268,,,,
559.1519996,2184,32.82602119,40.34514518,-44.5836393,-3.068087558,0,22.16473673,0,-169.6035352,-142.300737,35.19448844,-229.6545592,7.98089736,-78.30241111,25.46867787,0,-352.0273598,,,,
559.1599996,2184,56.11796778,39.49390076,145.4071906,0.86332936,0,-37.14037272,0,-217.8656122,94.96438193,-8.248274201,137.6241011,24.89222417,129.800632,-32.41368308,0,-385.673777,,,,
559.1679996,2184,55.00100206,74.98229098,-132.5767029,20.05071751,0,39.96902761,0,-212.5042717,-39.98966871,40.51781142,21.65210724,69.32825913,24.09386523,-0.432508592,0,-429.9859189,,,,
559.1759996,2184,43.44449638,22.33209945,143.4623589,-11.49156115,0,-5.133624905,0,-176.9619226,-39.33387346,32.09986397,-133.6399829,1.667780326,19.90533934,1.94863666,0,-347.1185526,,,,
559.1839996,2184,34.85253062,36.67664412,-32.21955013,21.57603333,0,-7.870172093,0,-206.7199681,127.2900027,11.75317536,275.4271239,93.55981596,176.7055489,6.516573543,0,-419.1962281,,,,
559.1919996,2184,24.59544061,33.10246389,-43.85869048,10.08687586,0,26.81604973,0,-154.45241,-149.9002638,33.00164579,-228.9898711,20.44965567,-92.00715371,34.51085295,0,-334.8337027,,,,
559.1999996,2184,53.53615203,34.64106006,153.0971956,3.950462281,0,-31.88411868,0,-190.3370809,99.55389957,6.373556266,136.160596,35.75834225,129.400246,-46.05843785,0,-346.3758699,,,,
559.2079996,2184,43.54926091,53.57257439,-131.0414676,20.67770104,0,36.78484544,0,-190.3643291,-31.42689611,49.09296268,6.7313677,67.80981849,24.20179003,30.39610778,0,-388.106632,,,,
559.2159996,2184,29.12960901,0.068549996,144.5488694,-22.83654175,0,-11.9237655,0,-154.7067161,-44.7067431,12.94097871,-164.0788599,-12.42364851,-5.827057813,-13.46523222,0,-297.9314083,,,,
559.2239996,2184,32.70837101,26.55958819,-30.00173876,-21.39732836,0,-6.464712773,0,-195.4624777,115.744936,-26.35581725,243.5794678,65.46693603,145.3377874,-91.67953491,0,-378.2149452,,,,
559.2319996,2184,37.25323235,34.9784324,-30.90448297,-13.30695959,0,43.00655867,0,-147.8305467,-147.3814526,19.27153305,-249.6520343,-4.668867094,-130.1645515,27.63797148,0,-312.8452432,,,,
559.2399996,2184,59.21719397,35.00233369,181.3669656,20.00815567,0,-12.41669284,0,-152.8862365,109.4473654,27.04410819,137.1157807,39.49825008,110.3901535,6.176413312,0,-307.0640272,,,,
559.2479996,2184,46.21496172,53.79461018,-122.0913807,14.37958623,0,35.00207601,0,-162.6222116,-42.11354994,42.78346181,8.106790814,73.09124523,42.33566371,13.8777808,0,-336.570341,,,,
559.2559996,2184,51.44522744,22.45100733,151.5813854,-22.29506473,0,-8.076146885,0,-151.1915715,-55.17617389,8.013276879,-168.9349512,-14.33438992,7.468391491,-24.11263501,0,-270.9117853,,,,
559.2639996,2184,46.15136191,47.8154244,-2.030299306,17.63208937,0,15.30969204,0,-178.7600586,120.2685009,15.54839302,251.0030775,85.93142681,156.1975172,-61.11400246,0,-357.2441598,,,,
559.2719996,2184,24.58767802,25.6869593,-32.11360861,-8.816020738,0,39.89277845,0,-144.4852721,-154.5993238,34.34549473,-248.9071378,13.71501314,-102.8705222,32.89856605,0,-286.5067294,,,,
559.2799996,2184,69.05917498,34.05373675,159.5220408,-1.290551897,0,-20.90288197,0,-174.1801615,101.512997,-10.01790373,117.1513221,26.81871597,108.869291,-41.5422912,0,-309.2871725,,,,
559.2879996,2184,67.88095014,72.30115011,-116.8441484,39.11280134,0,61.30930072,0,-159.5040224,-24.60937021,34.9649244,3.441798038,69.81854817,11.86036725,5.091842856,0,-350.4762406,,,,
559.2959996,2184,41.71500844,16.65930154,152.5653568,19.19634896,0,7.257272107,0,-133.1041356,-36.98587628,39.69206264,-157.4354752,5.386009078,-3.784487332,42.75695735,0,-257.7140662,,,,
559.3039996,2184,45.68112989,37.14529517,-16.74192852,34.41664161,0,-2.145485564,0,-181.7171482,129.3262981,20.55663994,241.5108489,87.04625139,155.406376,-48.70728527,0,-347.3740921,,,,
559.3119996,2184,30.61396544,26.03223547,-27.98380589,12.9398474,0,36.53729631,0,-137.9582986,-130.2809431,31.8533397,-254.8758857,11.20272056,-89.93131364,15.81191709,0,-293.547499,,,,
559.3199996,2184,31.19166697,0.906987064,150.6249925,0.696123821,0,-22.07661868,0,-159.4776592,114.6962642,-0.235654952,127.8718135,38.45080648,132.2266521,-45.84989155,0,-299.2500553,,,,
559.3279996,2184,38.93806953,36.57828987,-148.8403277,6.805891328,0,46.94196971,0,-158.7433017,-42.05174451,20.98653224,-3.873381373,64.56867585,-12.98872841,-68.84859586,0,-331.8286202,,,,
559.3359996,2184,57.8353771,19.35022022,138.1302639,12.78153124,0,15.09991986,0,-125.486248,-44.29170305,34.5200267,-161.9246559,5.132523089,-43.7466748,38.83264617,0,-243.3988526,,,,
559.3439996,2184,47.94276557,35.2344923,-20.78581922,43.37511982,0,23.52842152,0,-157.0634503,140.2627169,41.16985442,259.2944226,113.1416742,164.740579,23.90032555,0,-318.5721844,,,,
559.3519996,2184,33.4737946,28.44904769,-26.43497022,20.94272831,0,58.38383728,0,-110.9829652,-123.0598754,46.95437824,-240.6091209,32.03484164,-68.13991619,8.235184881,0,-252.3035553,,,,
559.3599996,2185,50.4671761,17.24502079,153.6505976,18.10881948,0,-7.733563621,0,-145.0780428,122.2632837,22.5243717,138.5017692,61.48203348,144.5644194,8.179131324,0,-259.1947741,,,,
559.3679996,2185,20.06711728,19.21654064,-155.2629206,0.420819109,0,48.1171542,0,-151.753233,-35.22302503,27.12329367,-4.506904701,82.94457427,0.497734269,0.575858837,0,-317.2385539,,,,
559.3759996,2185,23.11407077,-5.716293709,135.5768464,-18.20218992,0,16.07299791,0,-110.0008734,-48.29064011,-2.64249555,-181.3240632,-3.632133996,-43.07407288,-16.40071511,0,-241.8389721,,,,
559.3839996,2185,33.46249502,28.91796011,-23.56543622,12.48020405,0,35.01971946,0,-135.7376888,123.1231974,14.94749605,241.2932123,108.2387789,132.428958,-14.53987587,0,-295.8363865,,,,
559.3919996,2185,24.86381831,19.53425573,-30.95538631,-4.205284294,0,67.72852352,0,-88.69552986,-138.3867281,39.67660269,-259.6318575,35.3112678,-121.4577417,23.69004698,0,-233.4386656,,,,
559.3999996,2185,50.16649277,18.60095672,152.7309662,-6.431121688,0,2.374366605,0,-114.9812755,129.4577571,12.28862851,121.2050252,64.15999298,125.6404369,50.90941513,0,-242.8550058,,,,
559.4079996,2185,34.75134314,36.9574326,-160.8467617,-21.43357508,0,52.30798092,0,-139.3917403,-23.38465868,36.83283722,-14.2097884,88.46760332,0.142629583,57.29850096,0,-298.0229822,,,,
559.4159996,2185,35.97105015,7.28099738,136.1314888,-20.66949092,0,7.743445077,0,-116.5491418,-42.18998974,21.19610742,-188.8271943,1.34321133,-57.96448266,20.81782194,0,-244.0513734,,,,
559.4239996,2185,41.1809611,40.41525475,-17.50723575,16.41832423,0,31.27576206,0,-129.6798146,128.6707012,25.88003649,245.5896099,122.137353,139.8972881,32.35288751,0,-292.9435475,,,,
559.4319996,2185,46.34657495,52.37053002,-40.56649099,-9.75450159,0,59.17799475,0,-108.7113792,-150.4745635,57.5809187,-253.0873464,46.94096849,-132.7662562,52.06850467,0,-228.8622132,,,,
559.4399996,2185,82.67306182,73.02955229,160.9506854,11.27058112,0,-2.404553413,0,-163.2896796,115.5091702,63.80603714,120.747117,72.2531072,60.08741653,26.49165519,0,-268.7935259,,,,
559.4479996,2185,65.11852074,91.64015125,-118.2419781,23.53951167,0,79.99779276,0,-142.5767941,-19.35500696,105.1540211,4.116960649,128.0189795,-25.61142728,64.01742233,0,-298.37364,,,,
559.4559996,2185,69.87185375,59.75390094,160.9856679,4.683035379,0,36.67944619,0,-102.7832588,-33.92127832,82.74284581,-159.6506722,53.27908179,-38.11043072,80.29237723,0,-205.3591138,,,,
559.4639996,2185,76.4119714,98.16879393,-6.648798765,31.28894268,0,45.14847954,0,-140.7316972,142.9732691,84.26636727,260.5148805,152.7613214,136.198927,83.99149243,0,-273.9458041,,,,
559.4719996,2185,42.98676918,70.85009293,-33.71265348,1.005179285,0,76.70339884,0,-105.5005758,-139.6610789,102.4816516,-240.9715845,74.71541178,-136.0007238,110.9507805,0,-215.1340205,,,,
559.4799996,2185,46.96581128,42.51116025,143.8459448,-12.1886282,0,13.46585127,0,-145.1456939,98.91556319,46.87732625,115.1411835,75.95777738,49.00239818,37.66727558,0,-249.3206418,,,,
559.4879996,2185,57.51948642,89.1739012,-132.0104732,-0.628100632,0,96.38675402,0,-137.7567438,-39.76282684,71.2688137,-14.664877,105.1722305,-39.71419481,48.78417775,0,-279.7078816,,,,
559.4959996,2185,67.99654937,66.60909508,144.7835748,-5.358862699,0,38.18432238,0,-123.6663152,-43.32246077,91.28135825,-168.2295548,35.74474984,-33.1444191,100.8072096,0,-197.5016271,,,,
559.5039996,2185,46.83366156,59.65812121,-34.68141955,12.31532022,0,35.48906275,0,-150.1351461,131.796061,71.96316393,238.8594549,121.7578051,111.4822067,50.83459193,0,-286.6960816,,,,
559.5119996,2185,31.57555293,47.66988648,-39.07778446,-8.184071208,0,88.65228108,0,-66.33015145,-136.3517262,72.50193975,-254.8105732,48.11755323,-136.0737397,91.41020085,0,-190.2610723,,,,
559.5199996,2185,47.84737233,44.40145667,137.9211784,-12.40842873,0,14.41191729,0,-108.0659218,112.5480923,48.12889358,126.8593672,71.31353216,107.7761288,65.86191817,0,-188.9276081,,,,
559.5279996,2185,37.67263789,71.69065076,-156.2705827,-7.975534771,0,78.74399127,0,-125.741916,-37.37284111,63.52762237,-15.3839189,86.09581865,-25.11269011,31.84722594,0,-253.3240035,,,,
559.5359996,2185,57.46279375,57.67534577,136.7561788,-7.28658501,0,48.14326716,0,-95.00321322,-42.05484502,72.09837441,-173.9128883,13.47393547,-66.20112348,76.76956256,0,-186.6801661,,,,
559.5439996,2185,51.44838116,69.41708579,-33.55617478,12.33346703,0,49.047744,0,-127.2568467,143.1139695,77.80482131,247.2281152,122.7140729,117.1142342,38.12984103,0,-259.76645,,,,
559.5519996,2185,41.95698203,58.76300419,-35.0377892,3.237929585,0,88.14834712,0,-69.29500775,-124.7773261,76.0218577,-248.5761355,48.54657353,-121.9408833,53.82479678,0,-184.2440132,,,,
559.5599996,2185,75.39246439,66.78420401,159.1094421,35.20149646,0,28.3139379,0,-97.16162921,130.0285928,61.76716192,138.5972451,79.41058749,87.1129274,70.97435046,0,-183.5130824,,,,
559.5679996,2185,52.61701485,84.82387212,-138.4031306,40.2637772,0,91.56433386,0,-99.5531564,-7.420891534,98.34285046,7.515790658,119.00156,-21.17126578,79.24059519,0,-207.2084609,,,,
559.5759996,2185,48.43739698,50.60397373,147.6665883,27.05890066,0,57.41234596,0,-56.90279011,-18.46100804,62.97345338,-158.3777317,39.49705076,-47.65930265,78.00657515,0,-128.336976,,,,
559.5839996,2185,54.56555403,74.38942258,-26.45523776,55.17223883,0,57.07092849,0,-88.88183101,161.355504,58.79020114,260.4943728,141.2016634,103.2115428,44.7147322,0,-194.9001625,,,,
559.5919996,2185,53.51016983,68.05078263,-42.42446675,31.12536696,0,81.59082545,0,-53.39381723,-106.4775595,90.02545052,-232.3009834,68.25153928,-127.5225934,45.59783607,0,-121.9935629,,,,
559.5999996,2185,76.91453228,64.54824223,161.6948125,57.0267573,0,36.69756927,0,-64.95465578,149.3667453,65.21120322,156.6147349,92.74208801,108.9746275,53.99137969,0,-146.0430481,,,,
559.6079996,2185,50.60268963,81.38525501,-129.1351306,65.31972555,0,101.1067655,0,-52.21051842,14.65087759,101.7954723,34.2086173,140.1815481,-6.710395081,118.003495,0,-165.1407989,,,,
559.6159996,2186,40.98989481,38.91420315,135.5040118,20.69569497,0,36.69270705,0,-44.90515631,-12.26710534,71.0238602,-141.2785459,54.58398408,-51.76444827,43.85501935,0,-87.15045572,,,,
559.6239996,2186,45.48318065,58.63046482,-31.86081851,37.74077234,0,48.72053935,0,-80.7527389,150.7608856,40.03579294,256.969126,129.8730873,79.59859291,-37.03006937,0,-184.8965873,,,,
559.6319996,2186,54.69091728,68.69642064,-27.12550138,25.56638552,0,91.83006815,0,-18.98603666,-102.501995,79.20199417,-225.6589888,63.14551028,-130.228663,71.37509425,0,-101.8131623,,,,
559.6399996,2186,71.12887012,62.02593346,161.2241326,30.97239669,0,21.42794639,0,-46.30856211,166.3876277,74.3588031,166.7861581,92.79648701,147.1890985,99.31190365,0,-105.7637823,,,,
559.6479996,2186,37.83568142,62.50593201,-145.528717,23.76918762,0,75.44804498,0,-51.25690613,9.280271541,73.63725616,14.71095266,108.2120219,-17.36257152,42.06243543,0,-149.4471514,,,,
559.6559996,2186,54.7621968,46.38345816,136.8682302,9.652472787,0,33.04318327,0,-34.4091544,-19.28631578,53.01656726,-161.39381,22.30607972,-78.76967687,-2.805445349,0,-75.32681288,,,,
559.6639996,2186,78.16314392,96.41661082,-15.98720609,55.98328419,0,54.00962675,0,-74.08283197,164.7512859,89.25764074,257.2071627,127.2873962,108.1472804,71.6324263,0,-154.4350104,,,,
559.6719996,2186,63.65103636,79.52813052,-17.43825765,39.59664804,0,90.51372356,0,-26.15119202,-96.65062404,116.1103932,-230.825747,63.31215888,-134.3226465,119.7845141,0,-85.04974466,,,,
559.6799996,2186,66.42680478,57.34815618,167.8274183,34.15642209,0,17.23118298,0,-59.76501622,160.0766172,69.29073686,156.0149126,89.13852931,113.1210979,24.16440091,0,-104.3318009,,,,
559.6879996,2186,49.83033249,82.28222996,-127.7598435,37.04638331,0,82.79318014,0,-58.79864478,12.15098456,90.28228182,20.80983668,116.5976397,-13.06417961,45.07978322,0,-150.1111552,,,,
559.6959996,2186,58.56172337,59.04374029,159.7509093,27.36925404,0,44.40019539,0,-22.68756193,-0.232448929,87.14730676,-139.0257684,45.90132233,-50.40764412,79.71587132,0,-73.61942061,,,,
559.7039996,2186,55.48947467,83.47047435,-13.98209603,41.71314527,0,37.49367188,0,-64.50366587,185.729231,93.81676557,279.265613,148.9200475,143.3308398,90.2759406,0,-144.4152229,,,,
559.7119996,2186,28.23302345,54.13476983,-38.63133745,-0.93811073,0,60.13496927,0,-28.73459984,-97.27421386,93.10101902,-225.0901898,56.44330516,-133.9620292,61.59674187,0,-88.20726452,,,,
559.7199996,2186,44.07358591,41.5376802,154.212834,16.78993718,0,8.882170523,0,-40.50879286,144.0783144,46.46259233,144.8246638,68.68207807,94.58295803,0.681086168,0,-104.0266904,,,,
559.7279996,2186,47.51529061,84.49795827,-126.1943023,46.50176236,0,82.43905767,0,-29.83736532,18.14472155,94.94781935,18.6164062,112.1155584,17.51501561,92.18320556,0,-122.6941667,,,,
559.7359996,2186,48.50147113,47.28182737,151.5319853,20.43245142,0,32.38275465,0,-8.510999299,13.02208741,86.23336945,-139.144691,31.82936724,-34.01654201,46.13852675,0,-53.61055761,,,,
559.7439996,2186,44.94863153,61.8755305,-26.8925658,30.19954129,0,20.58814023,0,-55.76895074,180.1901723,60.34410461,260.435527,115.2435338,131.8130816,-4.01400711,0,-139.7453329,,,,
559.7519996,2186,46.29426905,62.95986106,-35.70133157,17.72289622,0,52.90246971,0,-24.43408684,-83.24596084,76.75379444,-237.783811,39.58878834,-114.1640806,71.56585476,0,-87.097877,,,,
559.7599996,2186,71.36099675,68.18660019,164.2858057,52.76778316,0,11.63846575,0,-31.80994715,174.1709074,69.53648683,150.5192293,76.55121174,97.31792073,40.56775717,0,-108.3960946,,,,
559.7679996,2186,53.7409303,83.74256813,-129.0015636,60.18039774,0,64.0222716,0,-23.89996409,24.02554457,119.4074241,21.60367247,125.2651697,17.30717963,80.16769554,0,-120.7720203,,,,
559.7759996,2186,56.10951715,35.92332981,138.0471262,9.223774944,0,4.167953408,0,-16.50828543,14.82411128,74.82011294,-144.1038703,36.96123906,-9.072962436,13.86915359,0,-49.00907432,,,,
559.7839996,2186,67.97445283,77.71927043,-28.37026598,42.37073272,0,24.66492098,0,-56.90832373,195.9424131,55.3175982,259.1117675,123.0629368,132.9784734,-15.44128414,0,-143.0157038,,,,
559.7919996,2186,45.55927867,73.70943263,-35.38104127,39.90846547,0,66.2537077,0,-11.51287133,-76.67306388,116.0105252,-231.1541484,65.90186783,-100.696076,112.3082924,0,-73.67022296,,,,
559.7999996,2186,46.85876172,41.31954174,135.8113778,25.17288736,0,3.159093413,0,-36.61403403,161.8423848,68.0841176,142.4747104,85.68994758,96.77830644,6.658302221,0,-90.76101413,,,,
559.8079996,2186,50.99879669,69.52881128,-152.1679879,34.77674435,0,64.72156265,0,-41.88803282,13.9400579,63.33241006,-3.345833499,105.0673102,-41.07824341,22.33574846,0,-129.9781551,,,,
559.8159996,2186,62.11631644,55.36075287,148.6447791,46.40661524,0,31.63990221,0,-10.06950554,22.15234901,88.80611464,-145.1542461,47.32906579,-13.39399083,116.9456377,0,-48.99982529,,,,
559.8239996,2186,52.23330119,66.5454294,-30.93023285,55.36508174,0,35.95450983,0,-60.23531709,196.7832494,94.33839119,264.2000146,145.8805115,146.881551,49.05061247,0,-135.2527218,,,,
559.8319996,2186,36.20630757,49.16730577,-40.39736814,23.43806333,0,63.96059053,0,-32.1714038,-83.73339527,86.2284244,-239.785646,60.18245807,-136.6388911,61.03791855,0,-85.6611547,,,,
559.8399996,2186,49.79523792,53.12129803,160.0294292,45.31796361,0,25.00544332,0,-30.57193132,168.6661369,72.99009421,152.4409276,98.52421567,93.83886917,23.61942866,0,-87.26299104,,,,
559.8479996,2186,44.50734022,73.94235547,-141.7631016,27.79260097,0,78.87380517,0,-33.40217204,17.17180265,102.5594113,7.767198512,131.3372956,-43.37845172,13.46905718,0,-103.1491764,,,,
559.8559996,2186,57.10977983,42.60589485,145.2228206,10.51699133,0,16.03417908,0,-17.77816145,11.1271739,68.21295168,-151.1983884,44.6487621,-50.39006977,31.4617372,0,-29.85491138,,,,
559.8639996,2186,61.75543891,75.37987625,-14.78428267,57.20526277,0,22.26245016,0,-63.30535397,191.0559237,84.95965191,265.9156982,140.3216335,136.0236008,50.89694846,0,-122.5623668,,,,
559.8719996,2187,48.47553132,53.40923138,-29.90015236,27.18095157,0,51.66446797,0,-36.12780914,-79.62756581,108.2859754,-236.5795839,60.28044483,-133.6172647,89.88356227,0,-68.53665816,,,,
559.8799996,2187,58.2272056,42.49954641,164.1248814,43.40228222,0,2.950212932,0,-40.30961844,174.9780642,55.1256469,144.7138897,82.44310991,105.3989334,4.062890505,0,-76.43675625,,,,
559.8879996,2187,42.41362376,67.75166244,-124.9082385,49.08566952,0,67.16426363,0,-42.04389788,30.7183467,84.10488612,6.683950783,116.9642594,-2.550765107,9.912053411,0,-108.679957,,,,
559.8959996,2187,22.54336621,9.054551665,136.6050447,1.533533218,0,13.9100705,0,-27.60314806,12.76648922,51.02385477,-157.6068627,34.22295437,-41.48152498,21.4920711,0,-34.7056677,,,,
559.9039996,2187,28.74923498,47.19674992,-34.84407415,41.66412336,0,19.30024522,0,-58.61610752,172.8633222,42.89741435,238.1847599,121.3461455,122.9597293,36.1183107,0,-109.8577613,,,,
559.9119996,2187,46.97725401,63.49352217,-18.55712492,53.21091086,0,53.34793603,0,-19.76650039,-74.99954761,100.8070908,-255.5969846,53.30945069,-106.7901765,71.68149748,0,-51.26032872,,,,
559.9199996,2187,57.91999557,53.8134038,174.3425332,54.51473989,0,5.84941595,0,-50.3492445,200.3347152,76.40883128,144.564827,88.47441757,125.5005053,17.95038987,0,-55.5987395,,,,
559.9279996,2187,33.44539697,74.62352452,-125.0902061,54.23232386,0,68.93878754,0,-61.6766949,44.27499641,101.0088801,2.116657949,116.8041137,-12.7492422,68.0632564,0,-90.08972061,,,,
559.9359996,2187,17.81732967,16.94769089,143.4183021,20.83391654,0,18.45068679,0,-29.03076759,24.57534739,67.44091974,-166.7082587,30.42585538,-51.00508272,1.235334981,0,-26.23291023,,,,
559.9439996,2187,20.79952516,48.28773795,-38.20994354,37.4682748,0,27.97133774,0,-57.31094114,185.8375233,45.1625225,237.6203538,118.1454034,103.3176667,-21.8015855,0,-87.96159428,,,,
559.9519996,2187,18.41099855,42.238131,-31.57697269,46.16201301,0,57.57289898,0,-4.89069093,-77.4258616,89.44550579,-255.7824321,41.98234542,-123.332095,94.94195041,0,-25.25112562,,,,
559.9599996,2187,23.72931294,18.24934241,158.1569887,56.65172113,0,5.251660399,0,-1.364718979,187.3090207,51.90053106,133.0203794,68.38238138,135.0783583,18.0954961,0,-28.4865401,,,,
559.9679996,2187,14.0394367,49.73484705,-150.6982726,41.30886856,0,71.81813971,0,7.266451675,31.38438848,64.44494946,-14.94129315,94.85981083,-9.825697551,1.844262644,0,-34.47767081,,,,
559.9759996,2187,25.23689318,23.76375123,132.1076917,27.53713056,0,14.93532939,0,23.57660867,15.70673067,60.49909864,-176.2908155,12.62407678,-45.95666285,18.38486647,0,31.37418407,,,,
559.9839996,2187,39.17530947,63.6108542,-30.16931586,58.54847513,0,12.1824355,0,-32.61521785,189.6040289,68.98950317,242.7704221,111.6764254,122.9293293,36.42409628,0,-59.32989777,,,,
559.9919996,2187,21.29681399,35.42168703,-36.21764489,19.60049616,0,35.52706433,0,4.763711013,-77.06221747,72.16673936,-255.4177142,30.86867171,-147.4532874,31.22183222,0,-6.971965339,,,,
559.9999996,2187,48.83613456,36.75305917,161.7438722,36.89076134,0,-24.17612344,0,-20.60766759,181.1097638,30.65342859,126.1584734,47.73749801,96.51329563,-31.55947347,0,-20.71925671,,,,
560.0079996,2187,66.14553522,99.41749982,-106.2616878,83.85041204,0,39.32462358,0,-41.15663196,60.40323267,117.3980161,8.093314619,96.95510175,6.587705274,112.4176458,0,-51.33373257,,,,
560.0159996,2187,35.92499784,38.11969603,176.4292522,57.66778074,0,2.323988045,0,-14.59325692,53.05158756,102.2946712,-141.1008758,28.14333717,-22.747146,78.7103112,0,10.09432973,,,,
560.0239996,2187,11.33796834,44.06635429,-15.29867618,55.6107483,0,18.3986257,0,-46.86753147,192.6853361,59.96283427,253.9998826,113.4507534,134.5716808,3.495908372,0,-61.05677046,,,,
560.0319996,2187,2.99241198,30.22284782,-34.89325736,25.58202038,0,39.07485792,0,-12.64642591,-82.09064014,79.20373815,-252.6802237,31.15478777,-139.1828156,39.35837489,0,3.46568873,,,,
560.0399996,2187,22.57043323,25.00744052,160.0821749,35.84681403,0,-16.51032418,0,-30.47567316,165.2682216,33.01857202,122.6669864,49.48640945,60.5022431,-37.51054185,0,-24.42370768,,,,
560.0479996,2187,27.91245813,66.87304202,-112.675441,63.51474383,0,51.84884279,0,-17.40410543,26.55177513,83.27391679,-5.716060374,94.99361457,-28.5007579,100.433356,0,-49.71706758,,,,
560.0559996,2187,23.21281301,26.51633301,162.6302738,39.15050011,0,5.72260474,0,6.043648512,29.61287101,80.3968472,-153.735314,27.99655781,-26.02605766,52.95372702,0,31.09504466,,,,
560.0639996,2187,22.63332985,49.86825381,-6.451534933,58.41150496,0,21.83880947,0,-44.83725593,185.2344208,60.91932981,238.3035675,109.0083987,125.211686,-50.56356116,0,-63.32933632,,,,
560.0719996,2187,8.982546469,27.47098191,-4.155708425,44.44608937,0,45.53565592,0,0.199829311,-81.18468935,77.62879368,-261.408403,31.44156507,-117.6133924,80.35350234,0,-1.081243182,,,,
560.0799996,2187,14.36696208,10.69064198,165.0375838,37.24434005,0,-20.44677249,0,-19.81083615,170.7314604,31.3985014,123.1347526,56.8784917,106.3298245,13.69127515,0,-4.491768548,,,,
560.0879996,2187,14.1410651,45.9495945,-128.5715273,44.82177949,0,44.92061339,0,-25.00679112,14.88754119,57.4092241,-25.09310886,78.00862801,-34.49687687,15.0785599,0,-51.49330028,,,,
560.0959996,2187,12.48355385,13.36402399,149.1975659,34.35629527,0,-0.026066294,0,5.901476586,4.388111509,45.39927533,-174.9916188,3.485642276,-68.1356187,20.16447504,0,21.42458989,,,,
560.1039996,2187,23.24234078,52.56035839,-23.45605242,64.1687541,0,16.51327977,0,-34.47810818,177.0572835,48.48496686,239.8006973,102.2655669,95.53291498,4.987902024,0,-53.51763259,,,,
560.1119996,2187,24.06298729,38.00144848,-15.44045149,54.77043387,0,48.46176166,0,3.664192254,-74.59779749,76.56316364,-253.9343697,23.46957198,-122.6855627,58.42781499,0,-5.393750088,,,,
560.1199996,2187,30.25829003,18.4756619,159.4672036,63.11996155,0,-20.13598874,0,-7.238022639,181.4060261,40.60749829,137.879238,57.20467647,116.7333011,6.695820226,0,0.767491534,,,,
560.1279996,2188,16.9513927,47.39754223,-140.8270652,68.81480187,0,44.1159455,0,-3.126287689,27.67078377,64.11789922,-5.398817473,89.29902054,-26.15044776,48.37270407,0,-16.54331654,,,,
560.1359996,2188,19.38852083,11.29007747,145.6817262,50.97825966,0,0.650353369,0,9.639038578,17.25564082,46.38702318,-163.8800934,-0.180454779,-47.28486553,34.055907,0,39.18887626,,,,
560.1439996,2188,26.76090069,41.78455649,-29.29485561,69.4481894,0,10.05434245,0,-30.40904061,186.716485,46.43830221,249.1003208,96.35298932,118.8808976,19.1062094,0,-37.33060884,,,,
560.1519996,2188,-2.494959157,12.84166124,-45.21552772,27.09980449,0,51.81211495,0,17.7727645,-82.95856858,56.95667893,-254.4259562,18.56933836,-145.9309142,42.49280772,0,28.71277777,,,,
560.1599996,2188,-10.40013849,-15.71028151,128.5995841,13.71159826,0,-6.659921962,0,-3.142375294,155.7260372,3.415503608,113.8633259,27.06413944,70.5147574,-29.42709324,0,11.13968628,,,,
560.1679996,2188,-17.21113031,18.76738889,-160.0476278,28.11779397,0,55.03249796,0,18.51673676,7.19661316,35.66161809,-31.49698075,60.27196968,-38.36495027,25.34405321,0,-3.475927401,,,,
560.1759996,2188,-12.12948309,-9.305523987,120.0655298,3.580291202,0,14.18385967,0,55.8795818,6.238541914,27.07966867,-183.829927,-11.03277149,-56.71685855,-21.1778817,0,89.90778442,,,,
560.1839996,2188,-9.53071114,19.67100003,-58.11750188,12.00610547,0,14.19962513,0,3.534503568,175.8151571,20.10055845,218.4954469,74.51976542,90.05109867,-12.92430218,0,4.04998464,,,,
560.1919996,2188,-19.21331855,6.939948528,-56.96506909,-3.324412992,0,34.84568974,0,38.49595399,-84.11317131,49.24504709,-277.4622449,-1.651909939,-143.8604768,134.9763521,0,55.90635797,,,,
560.1999996,2188,11.74969965,7.660955353,126.3010924,-1.056248606,0,-24.80070577,0,-2.224985378,173.178695,14.20421039,111.1125119,15.67751997,85.79885344,36.59913641,0,29.62855057,,,,
560.2079996,2188,13.20573094,50.03167159,-161.218111,21.3918446,0,42.39516336,0,-19.79103202,35.88000861,47.19520443,-32.25189625,40.04932332,-66.80976928,38.9415513,0,-38.18142313,,,,
560.2159996,2188,-3.705676414,0.692774518,126.498996,15.2114808,0,0.250528979,0,29.55298929,37.70113917,36.35414437,-170.2430434,-17.62607556,-71.80017467,65.56463502,0,37.59812248,,,,
560.2239996,2188,-12.34750215,12.08524995,-68.09256766,2.987228726,0,5.34419265,0,14.17419075,200.2775115,12.13681654,244.6594772,80.48904317,133.0593227,24.81929305,0,-6.598608449,,,,
560.2319996,2188,-12.76504741,8.566023078,-87.75372346,-31.35145949,0,29.81090041,0,43.21515395,-69.35458646,25.73399415,-267.7777766,-11.18390359,-146.081572,47.21985218,0,50.18645443,,,,
560.2399996,2188,18.98141508,11.84293866,114.8021314,-8.934175653,0,-23.69069868,0,17.66520458,193.3383854,-4.009994234,128.0255606,16.24105514,67.266593,-21.40227229,0,27.30741668,,,,
560.2479996,2188,8.952644914,42.71514547,-167.0014146,1.183511474,0,43.83903554,0,23.74795969,61.32519234,36.96243196,-1.064484498,54.03109921,-16.88180217,86.27432391,0,2.749478653,,,,
560.2559996,2188,-1.475932183,1.852828102,115.5744527,-10.75031992,0,-1.335505487,0,52.22891216,51.89135668,23.83143011,-154.67147,-23.65320924,-67.84403439,97.11009317,0,75.05700284,,,,
560.2639996,2188,-2.420203656,18.10178972,-51.06411842,17.10933305,0,10.78464567,0,26.23342502,202.974245,5.172327516,255.2252436,69.95450991,82.40578581,15.75868128,0,1.318377875,,,,
560.2719996,2188,-2.750224826,8.674174037,-58.11531401,-9.479140078,0,29.1232456,0,52.24421982,-65.44250105,17.36061498,-254.2961837,-16.61292197,-149.7402154,89.43497476,0,65.22580824,,,,
560.2799996,2188,35.76016171,23.32386661,135.308763,7.854336448,0,-25.88874794,0,7.567897709,202.4616594,-6.8374182,142.313229,9.993389305,67.68416696,26.0088856,0,35.43223235,,,,
560.2879996,2188,13.41864092,42.76699969,-150.0692293,21.27506952,0,52.06804418,0,14.89087617,51.21193174,42.120927,13.54809359,57.15704602,-53.25820103,63.62238946,0,-4.996899668,,,,
560.2959996,2188,-7.16147186,-15.01952427,116.4589065,-16.60176629,0,3.148334868,0,39.50616194,35.60423641,1.063794801,-146.5086371,-13.70586212,-74.45764822,88.30391628,0,86.93522566,,,,
560.3039996,2188,1.734568211,17.29817878,-73.15452643,-18.14478464,0,16.61764053,0,-13.05968186,202.7446255,-30.24488186,253.5624738,82.90114979,84.55691342,28.81757869,0,18.13430917,,,,
560.3119996,2188,-0.821115166,16.45845599,-79.93636729,-44.65287468,0,36.16181142,0,14.31030862,-70.3522106,4.963745067,-260.5517546,4.137955489,-171.4446063,76.25160058,0,64.87103064,,,,
560.3199996,2188,26.13090231,24.41721914,107.5696512,-27.36244808,0,-40.95312232,0,-23.37260103,203.355355,-15.09471543,146.9170974,39.78017051,72.44975841,42.05464076,0,47.8873308,,,,
560.3279996,2188,5.195941298,46.10813752,-196.3711461,-28.72571121,0,20.27035009,0,-37.04718786,58.90667271,15.49652447,12.22747681,81.9294273,-51.8300794,65.55295991,0,11.84954967,,,,
560.3359996,2188,-10.69147987,-9.92633598,74.73505237,-67.40194649,0,-33.22766132,0,-22.8656334,39.90976149,-16.80571923,-157.1142783,-4.788707904,-93.40954311,63.22874462,0,77.09638072,,,,
560.3439996,2188,13.9058198,36.98060839,-99.50851218,-43.47059643,0,-7.763386084,0,-64.7779982,216.2293151,-33.66386271,258.5131293,84.68887049,67.65987523,13.35077072,0,-0.735640664,,,,
560.3519996,2188,25.00640084,53.13303995,-79.56235071,-35.75932413,0,54.51233151,0,-16.36993771,-48.27249749,22.76628159,-239.2407116,17.22562554,-186.1364112,78.85220495,0,57.2740407,,,,
560.3599996,2188,20.7758317,24.27688758,117.3154771,-19.76414092,0,-12.79583311,0,-30.99133514,220.8325501,13.33979775,169.3023494,55.64038294,74.78898775,63.23300247,0,54.63835113,,,,
560.3679996,2188,-4.000886862,33.97087028,-192.9415424,-28.18306818,0,35.51996991,0,-30.11281703,67.30510845,4.940264019,14.67241444,79.42106651,-55.53577658,46.04428672,0,27.97518791,,,,
560.3759996,2188,9.162317041,12.7644022,99.73484125,-36.76987307,0,-7.998290398,0,-5.191312428,56.78780845,-4.037241186,-147.8820601,6.744906942,-96.62862918,77.64276467,0,108.1889648,,,,
560.3839996,2189,14.26819285,39.15202047,-72.49021194,-9.052506727,0,-2.868510074,0,-51.18232762,241.0421824,9.697710761,287.4632482,117.4639394,108.92926,65.99276719,0,46.96174169,,,,
560.3919996,2189,-1.292340547,22.71580574,-75.30785099,-31.05164248,0,42.1998841,0,-0.235386865,-41.88305016,-2.994110055,-231.7835414,28.51945685,-167.7266281,35.82881404,0,97.40917606,,,,
560.3999996,2189,10.65623985,16.03807097,117.812743,-14.68624876,0,-8.42772984,0,-1.017334034,207.2482018,-24.95346575,162.8741559,56.96981408,42.02290508,21.42433952,0,94.87064672,,,,
560.4079996,2189,15.00000674,52.6748337,-174.9845188,-4.559850076,0,43.17709558,0,-0.993913975,66.53729212,26.01500212,23.51210041,96.72901047,-29.06454617,94.05850383,0,83.43430708,,,,
560.4159996,2189,11.55587162,9.762180413,122.9722411,-24.4492016,0,-1.318228027,0,32.82393169,66.080032,-3.026992028,-129.1261959,13.20555295,-43.56370949,74.36533296,0,162.5307487,,,,
560.4239996,2189,-8.288506867,11.59704333,-71.18162209,-15.86126323,0,-0.239902275,0,-3.044429212,223.0300626,-17.17076572,287.0851486,94.41937602,86.64968482,21.11847404,0,95.43934171,,,,
560.4319996,2189,3.984762623,14.99742319,-68.06282236,-35.6357412,0,26.7213331,0,30.51533776,-58.09337138,1.467840844,-243.7819185,2.665350646,-182.5058452,52.27342085,0,153.1396722,,,,
560.4399996,2189,20.4275207,12.03089335,138.8862932,-28.91950339,0,-34.95164134,0,3.923331107,216.7718657,-25.21207666,167.7349752,36.32779224,59.34019906,22.23481686,0,141.0741802,,,,
560.4479996,2189,-12.15407302,14.16449028,-177.0358367,-37.04983043,0,30.2987036,0,12.42855926,51.27117055,-11.01362414,15.90359014,64.17432182,-81.28811378,30.53987247,0,101.5111325,,,,
560.4559996,2189,17.32114334,-3.851147304,121.8828542,-41.82336943,0,0.758185223,0,55.27686944,38.74932286,-31.85714209,-144.2363922,-14.02821374,-109.8819346,16.47062814,0,191.9932614,,,,
560.4639996,2189,47.47023653,55.60981701,-45.57876636,1.521047244,0,-2.193467524,0,-11.79116255,238.2431833,10.29072858,305.9979896,96.75839819,104.770805,59.90801724,0,134.3390601,,,,
560.4719996,2189,27.65510466,38.44904956,-43.66756283,-14.03066129,0,23.62636444,0,4.176401328,-32.46935503,47.63104995,-215.4135905,17.28544001,-146.3031325,112.1902949,0,158.2036074,,,,
560.4799996,2189,39.76529492,20.87616435,158.4163389,-17.08607378,0,-31.38438072,0,-26.73427409,223.6361503,6.949767488,186.9952737,45.69553582,74.87649986,39.22752827,0,136.9320888,,,,
560.4879996,2189,19.78132544,37.22220169,-152.583439,-25.05983222,0,28.74224001,0,-36.87819103,66.78539387,24.28449955,33.90297691,66.72435726,-39.69226269,74.3312172,0,90.85161888,,,,
560.4959996,2189,0.917145551,-12.03004046,135.7016079,-49.68181595,0,-9.472930544,0,5.534029748,54.72163794,-21.72728371,-138.6704277,-19.84885758,-80.25213939,33.19473281,0,157.7627418,,,,
560.5039996,2189,6.768730684,21.545023,-52.93068176,-29.85523694,0,-5.809534076,0,-32.38839629,222.1739835,-23.32037169,290.2327622,82.72480399,85.8090346,25.78960907,0,108.71478,,,,
560.5119996,2189,2.57480421,12.14283234,-56.25898017,-37.42508883,0,30.25716266,0,14.98666185,-61.64646252,10.14067145,-240.4793327,-1.018844088,-154.3901918,91.52710437,0,155.3275971,,,,
560.5199996,2189,28.65224992,17.7316701,153.5775698,-11.69531907,0,-12.80617132,0,1.61189368,217.1208256,-0.207549387,183.3759002,41.12609345,92.17181385,22.79090244,0,155.7512656,,,,
560.5279996,2189,9.5464636,39.81142507,-159.6599833,-3.612423688,0,47.09456285,0,-3.236406852,64.34174544,33.16920824,39.9307328,74.36306525,-42.85815361,48.86581001,0,121.9164177,,,,
560.5359996,2189,-10.52145383,-22.09587624,126.3066604,-39.78572923,0,-9.666197805,0,32.10352077,46.4355,-16.59653607,-139.1898761,-15.55288257,-77.94792043,21.27661749,0,188.5681212,,,,
560.5439996,2189,-5.077933267,15.03737448,-63.44896515,-31.63741953,0,-5.257021662,0,-17.55089161,222.8663037,-24.86260119,296.1852667,78.83422708,88.48505069,-20.27849523,0,129.743835,,,,
560.5519996,2189,-21.51210212,4.676767515,-64.86645536,-27.0076532,0,32.22107479,0,36.6216502,-61.33556482,8.81669074,-237.5440249,-9.972188831,-189.989247,68.93333786,0,169.7783805,,,,
560.5599996,2189,2.068526981,3.995513622,144.2378451,-11.0684612,0,-30.50186134,0,28.75672915,216.6960672,-5.733384484,185.8131168,35.40423636,88.16616942,47.11301423,0,193.3332795,,,,
560.5679996,2189,-1.331798082,35.94815304,-181.002847,-27.51698763,0,30.88614428,0,-0.277676623,57.83199315,20.00330452,38.12654649,61.65070802,-36.84827221,21.35011544,0,155.7127079,,,,
560.5759996,2189,0.173626436,-9.862802616,119.0417519,-40.71695693,0,1.195140993,0,26.55352517,44.58699357,-14.37672401,-136.7444254,-32.20806909,-106.2792819,-9.981312878,0,200.7995058,,,,
560.5839996,2189,17.4827214,40.36024608,-53.24474919,-5.635202394,0,10.82730298,0,-18.56119414,242.2663431,5.031116284,322.3867144,85.91796851,110.0285677,-25.84155875,0,168.8012033,,,,
560.5919996,2189,-3.918488563,18.9840737,-66.01750628,-10.59037957,0,23.99033689,0,8.695894671,-52.88617149,40.15147121,-226.4125455,1.211344428,-166.6614541,88.59201278,0,202.6041508,,,,
560.5999996,2189,-0.621829055,-17.94700237,132.6146439,-7.278356134,0,-42.60417781,0,-1.274390519,209.7096488,-18.84983246,172.3842805,18.02894698,52.70940907,49.68656842,0,183.366632,,,,
560.6079996,2189,-22.20732421,8.38591526,-186.7296621,-10.06708478,0,33.55348118,0,4.960274461,49.91576426,-6.710685449,24.15246094,46.57487171,-48.04521107,0.55299232,0,165.8349057,,,,
560.6159996,2189,-24.94121662,-28.87353414,119.9799356,-13.58731193,0,-7.496325798,0,35.45744434,23.88362833,-21.31949339,-155.64673,-32.79214652,-100.6120445,17.83116644,0,231.3053537,,,,
560.6239996,2189,-14.7385207,0.37058391,-61.19311859,-0.750241531,0,-4.906900352,0,-20.9487993,216.9643542,-24.77624216,297.9690343,70.85047516,81.56869781,-12.97279462,0,169.5321315,,,,
560.6319996,2189,-35.75556145,-16.15402771,-64.98433245,-12.31979764,0,40.82841789,0,22.54082394,-67.86895102,-7.630508964,-248.5399633,-21.77581485,-186.8429053,11.62275357,0,203.3484419,,,,
560.6399996,2190,-9.398318587,-15.97146603,149.1910765,9.907117839,0,-11.3007011,0,15.87901479,201.8873921,-32.39422708,165.7009947,12.94348766,41.82443958,-0.95107292,0,212.6473018,,,,
560.6479996,2190,-3.416201441,24.19580346,-177.3649031,1.64690816,0,39.3086747,0,-16.32965269,53.1879355,15.30053776,25.53588386,52.88599228,-75.98669254,52.81567207,0,174.5786349,,,,
560.6559996,2190,-12.16053139,-25.70448196,131.4657945,-22.05814481,0,-9.332253861,0,-1.327937151,46.91995606,-13.30420917,-158.4116072,-37.86488042,-100.7620204,30.0433363,0,205.7251072,,,,
560.6639996,2190,-19.8625549,-10.27958129,-55.02375613,-19.59227346,0,-9.905212035,0,-43.40805061,236.5301182,-29.58240217,292.8242704,64.99763141,107.8942563,-57.55948322,0,153.4908891,,,,
560.6719996,2190,-26.03967531,-26.31448951,-71.40940331,-44.14138984,0,21.96715357,0,0.371046636,-64.07148795,-5.59289653,-259.9827673,-24.88848709,-185.2154668,8.907211774,0,193.3275268,,,,
560.6799996,2190,10.21263641,-14.06242007,152.9534789,-18.43919764,0,-24.42734979,0,-7.78755138,221.7204414,-25.92368719,164.6876262,0.600752706,48.17065992,28.21858233,0,194.7153894,,,,
560.6879996,2190,-0.145472116,24.7718435,-171.3783192,-15.57296095,0,31.63112687,0,-33.27344732,81.37070432,41.15648082,38.92969208,48.37033168,-36.40945428,32.13914078,0,165.9271144,,,,
560.6959996,2190,-23.36635597,-40.49377788,126.1687965,-46.27594671,0,-26.3733956,0,-4.142609932,47.54004687,1.905601082,-153.4946591,-40.19972846,-88.59940782,-2.877367921,0,210.4404237,,,,
560.7039996,2190,-39.60576,-25.33272459,-53.07367514,-42.157818,0,-24.98279031,0,-40.54048283,228.7114851,-31.87240284,290.0861806,48.98079186,82.5548878,-15.31526087,0,155.7206868,,,,
560.7119996,2190,-52.64853185,-36.47715915,-54.23040687,-61.95760934,0,18.46119585,0,-2.202654353,-66.71672442,-4.639280617,-267.9003869,-40.99123672,-183.2865569,1.785495523,0,188.7778329,,,,
560.7199996,2190,-11.27438289,-26.24565479,171.7883119,-34.89413578,0,-35.26156087,0,-10.91235901,207.5230966,-44.57650093,149.895749,-10.50912804,70.46941649,-27.39194085,0,198.3957791,,,,
560.7279996,2190,-19.75128908,7.34839477,-152.0506329,-18.99292758,0,16.41835519,0,-36.95885111,68.27265911,17.35296734,24.71447907,47.54903051,-43.01176572,61.00564165,0,176.1315402,,,,
560.7359996,2190,-39.15128299,-52.46328261,162.3418208,-38.4281497,0,-19.57156394,0,-0.826432061,43.49866966,-21.03414286,-174.7351941,-28.91295781,-110.3445762,-8.718403918,0,210.523404,,,,
560.7439996,2190,-23.47056375,-4.320533707,5.777843511,-8.892605219,0,-1.44560092,0,-19.30083769,230.6989909,-42.88460976,269.4657499,83.73323481,78.4799318,-73.31423849,0,165.7526887,,,,
560.7519996,2190,-36.87581404,-12.73696707,3.56661476,-8.021098288,0,29.90553476,0,15.52176575,-59.93166288,26.26766387,-281.9349022,32.5240455,-169.0656013,60.4726971,0,220.7972037,,,,
560.7599996,2190,-43.28854597,-53.20367684,212.1563041,-4.821605888,0,-34.35850559,0,-5.460131093,197.9305597,-35.64293268,107.31793,58.58046671,75.16230363,9.851259681,0,200.4894701,,,,
560.7679996,2190,-39.80670575,-12.37337222,-120.6327074,1.877188585,0,24.62656813,0,-33.14860362,35.08345979,-23.05054311,-50.71936376,85.87447567,-70.76013798,-26.306706,0,140.468761,,,,
560.7759996,2190,-12.27399668,-22.54445806,189.1764929,3.752217888,0,-19.66412434,0,-25.65675661,17.00987853,-30.39716636,-239.2014124,12.95562007,-127.0703571,-24.80976684,0,162.5837951,,,,
560.7839996,2190,-15.91629088,1.922163508,15.94416975,24.98285655,0,-15.56889935,0,-70.0145662,225.1302216,-19.38958856,233.4942239,127.1854105,98.30082947,-24.72653932,0,76.46508687,,,,
560.7919996,2190,-40.5358868,-21.64738376,-19.16311805,-7.359758257,0,5.743751048,0,-41.58044215,-66.15869911,32.73264544,-311.3370769,47.82396884,-158.3758775,48.58271416,0,97.8198824,,,,
560.7999996,2190,-12.55671397,-21.69972799,177.5131086,-28.71829404,0,-71.2889374,0,-88.13638042,197.1123434,-28.34634601,83.16211027,51.60311193,63.63385964,-22.84908982,0,72.19451612,,,,
560.8079996,2190,-32.80946014,3.942708821,-149.6515068,-48.56589445,0,1.047105778,0,-94.09945654,55.68413764,3.352559957,-42.03812135,86.19445793,-54.77391617,-7.069631247,0,26.39960357,,,,
560.8159996,2190,-51.02163016,-51.1625912,138.924233,-100.142834,0,-33.50873607,0,-42.06347823,30.55410199,-5.274599494,-218.4109987,12.75989769,-74.21167529,-4.370238453,0,104.5687153,,,,
560.8239996,2190,-31.73862968,-5.42372638,-49.96391191,-115.01402,0,-39.30771166,0,-119.1601221,212.2588396,-27.89249389,233.8823712,87.7815834,95.61374235,-74.51443893,0,42.70033774,,,,
560.8319996,2190,-39.84686773,-4.980114015,-67.47705962,-130.7526967,0,-3.676131065,0,-100.4738751,-81.80786615,23.5323505,-301.2066877,5.9309075,-201.5139118,28.00010581,0,64.56885958,,,,
560.8399996,2190,-27.39391752,-22.62897052,152.5350769,-129.1455773,0,-63.46451323,0,-95.53963847,192.559311,-2.180813251,107.3694223,39.95286873,89.49473213,40.6586685,0,82.29243022,,,,
560.8479996,2190,-33.96723897,16.23541349,-165.3063999,-129.9184785,0,6.985207564,0,-99.85384239,52.11644404,14.84956671,-27.33703591,61.01718951,-17.64752218,14.59505175,0,66.98532496,,,,
560.8559996,2190,-53.61075047,-33.20227728,123.9103894,-146.1280827,0,-21.76388636,0,-51.23678243,23.05149195,-6.470008384,-210.7098902,-22.27977398,-102.856696,-20.71368476,0,150.5918526,,,,
560.8639996,2190,-50.31999029,-17.78009629,-52.85595368,-118.7017953,0,-19.94407256,0,-73.79979986,214.490964,-25.20759943,234.6941356,71.62469914,73.22858093,-35.19301241,0,124.5290256,,,,
560.8719996,2190,-39.71675582,-6.798870378,-56.15256324,-103.3577686,0,9.786542092,0,-27.77998511,-59.44155363,8.183213359,-297.8741275,0.086107623,-170.6202417,35.92892697,0,198.2935347,,,,
560.8799996,2190,-34.4570747,-21.0791073,158.2258537,-94.62600541,0,-49.98868891,0,-33.39766199,213.9947036,-13.23151176,118.3574463,35.12379213,107.5148554,-17.29027435,0,219.4875769,,,,
560.8879996,2190,-58.82489481,-6.826370243,-179.1727577,-111.0637009,0,10.43469338,0,-48.23931353,54.60586571,0.489980521,-29.58880341,54.4842636,-34.48495236,-46.80784229,0,185.1366449,,,,
560.8959996,2191,-57.18207607,-36.80980895,101.0134069,-132.9393199,0,-46.2951825,0,-23.32800955,14.49084404,-32.68772603,-234.6087135,-33.52379527,-99.63449135,-70.27834186,0,256.9030277,,,,
560.9039996,2191,-52.3648204,-3.940731457,-82.47222965,-114.342888,0,-54.31103767,0,-75.47500554,204.2201192,-24.88826625,210.3658092,58.14297089,93.95924177,-32.69627368,0,194.048639,,,,
560.9119996,2191,-51.14666787,-2.403865546,-100.4403454,-136.4135493,0,-23.37930771,0,-59.86837548,-71.9623262,19.87010216,-324.2469399,-16.33823181,-191.860973,45.71650868,0,217.9542322,,,,
560.9199996,2191,-36.58881007,-6.149741131,120.9864295,-140.4674138,0,-79.85956014,0,-69.61449063,198.0769439,-9.769113816,93.21091078,20.00487872,59.72357554,-25.56965481,0,220.5914314,,,,
560.9279996,2191,-58.5264671,12.05139439,-205.4951854,-162.7936198,0,-20.23039529,0,-78.42037974,48.29759706,12.10685346,-23.17899794,47.62083338,-52.33977582,8.029886182,0,199.1964899,,,,
560.9359996,2191,-52.01685179,-23.77505933,82.30719963,-195.7056638,0,-68.32331666,0,-57.98459147,20.61222507,-27.69867078,-214.0934095,-49.16547048,-127.2140839,-19.92453304,0,266.7423734,,,,
560.9439996,2191,-52.81519902,6.884051914,-79.02992291,-146.6080903,0,-40.60396772,0,-71.18763053,209.2530272,-29.25042644,240.8719926,40.03539442,59.54868629,-48.08511833,0,224.6080386,,,,
560.9519996,2191,-76.27828022,-12.70386004,-89.89273026,-129.0891431,0,7.557996041,0,-2.596378364,-75.9034863,12.69966212,-275.4144404,-27.78086994,-200.3487094,70.75306243,0,304.5801228,,,,
560.9599996,2191,-52.60783605,-18.07747354,140.7956358,-89.86629744,0,-47.19846271,0,17.40835154,192.6951328,-37.90585862,124.4984963,-1.157651968,27.2964298,20.78109635,0,335.6379309,,,,
560.9679996,2191,-48.81983533,21.00181314,-160.4800982,-54.30435845,0,21.49573298,0,30.90477136,62.57251124,-7.623074291,-7.362280645,35.54967663,-81.90029875,24.54360671,0,333.2373953,,,,
560.9759996,2191,-55.33826692,-29.75855095,117.7448963,-76.22208508,0,-48.98071442,0,31.01297946,35.41480264,-26.82396187,-211.3200825,-57.62574312,-150.8506414,4.149314585,0,383.3434538,,,,
560.9839996,2191,-47.35434799,-1.117190115,-45.74879495,-42.05068835,0,-38.83199882,0,-6.38281763,214.6583078,-60.0519052,215.8469416,10.89381593,11.96688595,-83.33940011,0,289.8361001,,,,
560.9919996,2191,-20.41035393,27.20251374,-17.83516244,-8.123466385,0,28.30507019,0,66.18281191,-34.31972427,-4.258776975,-288.3155655,-35.26101503,-194.233405,46.52200798,0,359.3908786,,,,
560.9999996,2191,-21.2140781,2.774166406,190.2395699,4.785235303,0,-44.63203807,0,49.22857054,239.9597952,-9.371649161,128.5312984,13.62243565,57.46455156,101.2607528,0,366.2806634,,,,
561.0079996,2191,-64.01848661,-6.859745578,-150.9592206,-9.770353526,0,14.18873084,0,55.09735657,61.06219146,-30.33668151,-23.9459768,18.74016083,-109.7736489,-8.037163126,0,315.6336455,,,,
561.0159996,2191,-25.64483867,-13.75087579,155.057149,-16.24330865,0,-29.24635871,0,99.97323393,43.5622227,-53.53141256,-211.9517115,-67.52817402,-145.0429764,-42.82692547,0,389.6503526,,,,
561.0239996,2191,-2.1742103,31.92855556,-10.78927127,20.94690298,0,-37.18358858,0,48.01348311,251.124903,-21.24089615,253.8676049,39.66228497,67.46964342,66.64416298,0,321.1515526,,,,
561.0319996,2191,-16.76477505,13.45133258,-23.88346377,3.708941331,0,12.02725619,0,93.60837086,-28.13110344,-9.409253379,-258.5724562,-26.030717,-203.789533,54.70952817,0,359.5363604,,,,
561.0399996,2191,7.772024688,13.64108847,182.7294498,7.41655061,0,-41.06980542,0,81.60469171,243.4785428,-41.2209684,151.4281766,4.060187331,41.45856482,-10.88005443,0,362.4768612,,,,
561.0479996,2191,-17.37203907,33.85773398,-154.3805504,17.9020577,0,25.85093258,0,88.10177591,90.37071654,-2.461075582,21.85030166,41.48490296,-67.72036241,91.28696402,0,336.0548392,,,,
561.0559996,2191,-26.19568077,-11.51706322,126.9945122,-9.147212853,0,-18.48156905,0,145.6031951,58.3513444,-43.25696437,-161.9786342,-30.07706205,-125.8823802,29.11259123,0,426.9123774,,,,
561.0639996,2191,-14.80727503,26.66580757,-62.4576518,3.723623992,0,-24.39361356,0,102.6394509,240.8307096,-43.99519238,276.9923022,55.19722487,49.71274719,-12.16337847,0,363.193962,,,,
561.0719996,2191,-28.12664764,10.89213537,-93.86972658,-24.09583222,0,6.344999032,0,153.3420113,-45.24060416,-15.81592092,-251.6146783,-15.55561146,-205.5353021,46.63979178,0,416.9350118,,,,
561.0799996,2191,-10.15669132,0.189133654,96.08251369,-45.247007,0,-71.12355349,0,141.9481315,230.1362421,-64.03621693,155.2142169,5.810998037,46.68908522,-27.86587356,0,430.2365421,,,,
561.0879996,2191,-21.55227205,35.10228153,-240.6277537,-40.48157387,0,-6.218374738,0,116.612194,74.15601861,-24.67966294,9.280670411,16.34207067,-102.5021096,-0.417138374,0,362.5456775,,,,
561.0959996,2191,-15.50465916,-0.141697512,58.6283009,-52.75606289,0,-49.0458967,0,153.6986032,50.71531133,-36.13878466,-163.8951949,-45.35290309,-157.1503108,31.66173369,0,433.6595401,,,,
561.1039996,2191,7.59933105,36.13944832,-117.9740699,-30.89992634,0,-65.22706886,0,99.44734064,255.6745151,-32.52513364,302.8533997,54.30530429,57.63676954,58.26894877,0,377.2724133,,,,
561.1119996,2191,-19.04217432,3.361618045,-128.2640995,-47.68861251,0,-11.50615076,0,157.461573,-34.31062667,-8.643118986,-225.2591066,-28.0585071,-207.0840958,71.09415589,0,403.0252654,,,,
561.1199996,2191,-5.480469478,-4.122312068,94.3078275,-39.80637754,0,-53.13006028,0,185.0090689,232.4347958,-55.21675853,198.3035532,10.90330493,37.91915355,3.82967267,0,431.6006251,,,,
561.1279996,2191,-3.696583003,49.62685579,-233.7317499,-19.15512649,0,-6.628637945,0,157.0560133,83.25581311,-8.547498886,70.42098296,42.90742271,-93.9868367,54.76251739,0,397.530485,,,,
561.1359996,2191,-25.32151495,-12.65544016,64.54101032,-45.70418893,0,-54.87737187,0,192.1105659,51.43769829,-41.76752798,-121.2850109,-37.23200473,-144.0120853,2.231383361,0,449.4437674,,,,
561.1439996,2191,-9.390873906,25.21025253,-108.3597194,-17.195334,0,-44.96627166,0,170.8083718,243.5712661,-52.03823512,337.6449167,63.94285361,60.20930994,8.626668174,0,409.9749293,,,,
561.1519996,2192,-20.40071455,15.23759265,-120.8183792,-26.56728565,0,-9.530028443,0,209.534112,-38.2298107,-5.155944855,-191.9370797,-3.413078127,-208.9928564,87.17342088,0,462.6832578,,,,
561.1599996,2192,-35.29815421,-23.98090176,94.60170084,-44.03018219,0,-69.94293747,0,205.1188454,227.9119093,-69.66394975,210.9408779,14.62897113,42.66520075,-16.81196487,0,470.0076126,,,,
561.1679996,2192,-25.86598439,34.67852779,-228.1406722,-20.87760835,0,-4.445429327,0,196.7620956,64.05354192,-31.86608715,71.70345498,37.42148063,-104.9815776,19.6998613,0,437.7163068,,,,
561.1759996,2192,-9.45942332,-0.972703728,90.92942027,-30.91545154,0,-51.40493299,0,243.3474658,47.84611245,-22.67533625,-108.9492719,-29.38186372,-162.464093,16.9537838,0,507.4423006,,,,
561.1839996,2192,-9.024742129,8.316406629,-80.99985449,-19.54474187,0,-49.15244197,0,218.6969161,255.302965,-41.36773111,354.388867,68.92951666,78.89114994,22.8418247,0,465.0197071,,,,
561.1919996,2192,-15.71157608,4.45134384,-104.8892682,-34.69067652,0,-16.85304032,0,246.5585616,-48.68676606,-28.62015508,-194.2332665,-13.47581326,-199.1781036,58.57052232,0,512.7501837,,,,
561.1999996,2192,6.554731143,0.745592441,124.0038426,-24.46699227,0,-88.86957194,0,220.9346805,224.9734533,-61.42697396,208.9884951,1.9355762,19.48263868,-36.49699593,0,509.3979389,,,,
561.2079996,2192,-1.908036365,39.64803532,-192.2913962,12.21367189,0,-16.33497667,0,209.3963184,90.61340943,3.221536313,85.31858912,38.17882148,-85.32568164,77.77300702,0,469.9389786,,,,
561.2159996,2192,-17.73467078,-11.72488857,111.0061624,-14.67659899,0,-57.09526529,0,240.2620616,63.66322346,-21.17495265,-109.6531211,-30.12611772,-128.496116,53.97481868,0,536.9431597,,,,
561.2239996,2192,-4.693262518,19.5255959,-55.28074221,2.638634884,0,-57.16053967,0,193.7847558,262.8505283,-52.77691268,341.039784,55.35537661,57.13896645,-31.63047493,0,469.3666484,,,,
561.2319996,2192,-0.469660963,22.96202625,-60.70885046,13.20373637,0,-1.729513625,0,247.7900562,-20.81288828,-3.831711137,-190.0725206,-7.078316971,-198.2772687,65.89625827,0,514.3234202,,,,
561.2399996,2192,-2.814524613,-0.220365791,156.6915252,1.625911788,0,-63.18795814,0,247.4794045,247.4638128,-39.65228868,218.1588159,26.61758832,62.47662638,14.97459484,0,530.8936996,,,,
561.2479996,2192,-14.0802884,37.72601844,-179.3176814,16.38896731,0,-8.729532077,0,220.0025003,81.69424269,-4.052697978,75.37920739,46.70734787,-83.94818537,33.53272828,0,477.2723106,,,,
561.2559996,2192,-6.321495414,-2.974615291,131.4863819,1.421460367,0,-48.74008019,0,249.1454647,58.01903924,-10.55619463,-119.635841,-26.47563397,-134.800058,44.23653069,0,524.5218958,,,,
561.2639996,2192,-6.113318645,13.04123046,-28.76971021,16.57897612,0,-38.83577833,0,219.6641367,266.8510531,-41.9608514,338.7682692,62.42164868,72.94889395,9.262249775,0,455.22734,,,,
561.2719996,2192,-3.88611671,28.18712943,-34.2699563,42.08476656,0,15.19126632,0,275.9465713,-31.88341619,4.066567565,-197.0254709,4.283157197,-181.5213465,69.40079858,0,511.1435183,,,,
561.2799996,2192,17.80803065,20.39247027,185.804445,32.62992471,0,-52.41421958,0,254.2388629,243.6792763,-9.502250766,214.6923101,48.72406653,88.77549129,13.2566959,0,523.4659863,,,,
561.2879996,2192,-5.559712934,32.81644243,-154.6202563,18.46771039,0,-1.822768156,0,202.2615884,89.43151399,5.369057684,70.99496407,62.49419571,-74.9158307,17.5238241,0,429.9121846,,,,
561.2959996,2192,-3.378269645,-2.695879529,160.851298,6.175940448,0,-33.37472656,0,232.8362608,53.32185847,-13.62959442,-123.8824128,-10.37576897,-123.5733656,43.75847681,0,477.994176,,,,
561.3039996,2192,10.62414127,23.65317837,-13.62055022,-8.428873982,0,-31.83185027,0,175.1447295,267.153867,-22.25626532,350.4759813,88.51026527,116.3937999,20.35224225,0,432.7409525,,,,
561.3119996,2192,-15.00746484,0.565943142,-53.70557309,-42.8003535,0,0.208626035,0,183.6331909,-30.38986157,-10.94622277,-207.1177331,-2.511301276,-199.4938547,43.02462694,0,439.3212305,,,,
561.3199996,2192,-9.994569355,-10.13668034,176.082074,-37.07222277,0,-61.39933932,0,186.7905388,224.8087758,-55.37835717,179.3780263,19.70493835,36.84050393,0.836453898,0,430.7520448,,,,
561.3279996,2192,-5.814639749,36.70312011,-146.8534059,-31.31988489,0,-7.188389916,0,169.5401793,76.27758981,4.149736778,55.81870123,66.55714848,-61.60376965,31.42330158,0,392.9414643,,,,
561.3359996,2192,3.604818152,7.462730705,164.1567845,-49.44247605,0,-48.95329902,0,188.1704257,47.97265105,-9.071169767,-153.9957855,-5.858525629,-140.5155273,18.21592721,0,437.7147087,,,,
561.3439996,2192,19.39523383,46.9897213,10.76453618,-13.70788687,0,-40.11793309,0,123.8264369,255.2185426,-13.26993168,295.7933424,86.8930109,78.22940688,18.28420194,0,355.4893405,,,,
561.3519996,2192,-3.546017603,26.15464907,-20.76603939,-24.00208341,0,-0.527750337,0,124.311411,-39.6532712,30.62775192,-253.3317871,20.29202013,-179.45209,55.2838822,0,363.3356817,,,,
561.3599996,2192,-16.78204709,-10.92522269,190.5344371,-40.68932243,0,-54.43752038,0,122.1575309,217.2948351,-50.16816451,125.8243629,26.69665606,37.07074315,-45.92805859,0,351.7094217,,,,
561.3679996,2192,-9.894716445,38.38458342,-138.7377702,-26.45492026,0,17.67468929,0,112.966354,71.88927466,-14.31888402,0.732668408,54.51514757,-67.6579721,23.47496784,0,319.537644,,,,
561.3759996,2192,-2.371573728,8.934591859,158.8785554,-42.5494352,0,-26.15828937,0,128.971418,55.74266344,-2.665672155,-196.1505471,-14.86400806,-105.9547268,48.38945448,0,377.5822387,,,,
561.3839996,2192,-13.47808892,24.42705588,-16.8156309,-21.02987233,0,-31.30970202,0,81.0416684,256.3877081,-29.31994414,261.3347209,63.42561158,80.08516686,13.85774811,0,307.7183045,,,,
561.3919996,2192,-23.54177175,10.9279334,-52.91510975,-43.35895664,0,9.031276944,0,110.0062121,-52.65309297,-0.836978481,-272.6783437,-6.816216511,-191.5524484,38.11361323,0,352.8392311,,,,
561.3999996,2192,-3.909969483,-3.665350575,171.0125036,-54.1894775,0,-43.98943485,0,107.5757803,220.78703,-41.45572321,124.8812231,7.615439452,67.83797115,-36.87892128,0,349.7290958,,,,
561.4079996,2193,5.52752561,47.98070624,-148.0491331,-10.2935276,0,20.58340696,0,86.05534923,79.39467581,3.498520069,10.12637341,38.8387582,-54.31426366,56.71768303,0,299.5756794,,,,
561.4159996,2193,-1.256994739,5.259651741,155.6855198,-24.69577572,0,-20.81314717,0,108.3399528,52.05892237,6.205005128,-179.6807426,-21.90005191,-96.75803508,56.62205685,0,359.4136772,,,,
561.4239996,2193,-34.90120378,-3.171026389,-23.18215704,-26.35418285,0,-17.02020062,0,86.68479762,255.7274643,-30.06771405,280.7667541,54.97162515,107.936818,-32.10348813,0,293.7640971,,,,
561.4319996,2193,-46.0315599,-11.3411413,-65.40480254,-39.81903257,0,12.28811574,0,117.6665405,-65.66126318,-10.79482381,-266.1191412,-18.2086755,-203.1818584,25.88147357,0,345.2766014,,,,
561.4399996,2193,-6.507492122,-4.585578478,174.1500014,-34.09611994,0,-50.21703256,0,103.4146875,209.3955066,-26.14329301,130.0741515,10.00196679,64.69225508,0.681685906,0,347.6257664,,,,
561.4479996,2193,-17.67236385,19.42500872,-147.7669791,-23.19829361,0,16.80877008,0,97.86076793,84.11738639,11.43633301,31.5484073,47.23361746,-21.6114267,6.407751222,0,303.4988105,,,,
561.4559996,2193,-32.71583016,-34.38040151,133.6893818,-65.62182014,0,-42.57786174,0,116.6712262,35.48239867,-21.90300687,-173.1261575,-31.89096937,-101.8085079,-4.2243099,0,374.0240763,,,,
561.4639996,2193,-16.48969009,5.803085451,-36.86425411,-36.55364163,0,-44.5727489,0,63.23866204,233.8288585,-36.33770623,274.9762027,41.00155127,87.18906643,-20.55296369,0,300.1308675,,,,
561.4719996,2193,-18.92888572,8.147149301,-62.27880835,-20.73278115,0,5.017982851,0,89.54187866,-58.39645174,23.51054775,-252.8872687,-17.36510408,-194.1305159,37.70194644,0,325.3028153,,,,
561.4799996,2193,-21.47108929,-20.35568897,174.0970989,-26.63400287,0,-54.09752472,0,87.69896682,216.6723844,-13.66728206,145.0062143,3.51171556,68.30840305,13.65011128,0,318.8541467,,,,
561.4879996,2193,-43.8132484,-2.33259855,-168.4025389,-28.96706985,0,11.75566497,0,73.56653114,70.93552407,-15.04409692,23.94947797,25.49597579,-45.05414542,7.010526025,0,274.4500962,,,,
561.4959996,2193,-36.02816321,-33.69162823,115.4890577,-56.26889042,0,-37.02337712,0,75.13043974,21.91480441,-39.47682919,-199.4777222,-55.96429573,-148.9759271,-6.751941987,0,323.9418808,,,,
561.5039996,2193,-3.404326361,28.11148913,-5.865371214,-1.5024751,0,-25.29402589,0,28.64320796,249.5719339,-27.13865149,265.5464759,26.21736478,68.8342517,-14.2242992,0,233.4075071,,,,
561.5119996,2193,-11.80976137,28.55980044,-11.88398593,13.03660788,0,20.56475636,0,63.61116078,-24.79949321,47.49250656,-240.8285426,-18.65090003,-168.2003793,21.38962193,0,261.952001,,,,
561.5199996,2193,-32.29503896,-32.38456935,197.9563873,-17.67054129,0,-63.29578391,0,50.80033137,232.4912986,-6.937466145,140.5908083,-3.054555023,59.39477984,-16.65917644,0,265.8104427,,,,
561.5279996,2193,-48.11799007,-11.95480088,-130.9200663,-8.170859503,0,6.005690283,0,41.38403788,80.06595912,-28.58188169,14.06017316,5.82001614,-88.24904214,-28.16221487,0,221.3285052,,,,
561.5359996,2193,-12.45041392,-11.07245148,182.2779518,-7.552017671,0,-22.59017216,0,63.74085152,46.90269655,-18.49203324,-182.3761562,-62.91685884,-132.8962826,-13.1597335,0,274.847734,,,,
561.5439996,2193,3.993430051,22.4730733,31.29534756,24.23823493,0,-10.27232211,0,26.35085595,272.8399402,4.376180797,289.5977837,34.37246696,142.1045313,29.31047018,0,204.311733,,,,
561.5519996,2193,-31.46096217,-11.60121354,-15.15479623,6.34821298,0,31.06088135,0,56.76470362,-33.45817355,16.96436026,-251.3176938,-29.31679802,-165.3625037,30.48751524,0,233.247486,,,,
561.5599996,2193,-23.95930546,-36.45245045,202.6917477,-10.8368734,0,-53.49919097,0,36.51002389,206.3690459,-44.33940436,111.2514243,-28.54431948,27.03804626,-38.46351273,0,219.5836925,,,,
561.5679996,2193,-25.56239923,2.760262974,-115.2914067,11.37723937,0,20.41836419,0,29.98935656,68.35035095,-4.961357464,-1.041054768,2.572210673,-52.13756115,5.030939613,0,175.7456153,,,,
561.5759996,2193,-18.60093075,-32.97630888,177.6863881,-13.24423984,0,-19.70492373,0,60.54118726,34.63343032,-13.01961132,-204.1754273,-54.47813739,-112.9852136,-17.95945011,0,246.6246022,,,,
561.5839996,2193,2.837003068,8.276011652,23.2920345,18.06610116,0,-25.60978846,0,18.56073662,249.127301,-21.2196307,257.4887579,33.29434849,117.2361595,-39.69944997,0,179.7329398,,,,
561.5919996,2193,-19.81108221,-5.128212237,-12.20755672,16.70619546,0,24.45469676,0,54.88153707,-42.3637128,44.00571763,-261.9750079,-13.60400078,-157.965102,26.35887562,0,217.3959334,,,,
561.5999996,2193,-29.87316426,-53.82837118,192.3052549,-20.02655227,0,-53.82872162,0,61.20071901,205.6773361,-25.9404571,116.3254488,2.255388719,49.01743715,-48.30022606,0,243.5703926,,,,
561.6079996,2193,-20.12027778,0.834477659,-138.1856085,-10.48879569,0,8.831572513,0,48.94259544,61.9736798,-18.24354089,4.148308708,24.00790065,-58.78368748,-27.57676009,0,220.837531,,,,
561.6159996,2193,-5.802459633,-8.408194194,144.9751119,-40.90491565,0,-34.44460487,0,38.39363964,35.67756951,21.5129425,-192.1743977,-33.92664546,-128.614742,16.4611822,0,264.8560853,,,,
561.6239996,2193,-6.64542303,9.777586618,-27.69346817,-33.18543593,0,-44.36456361,0,-24.24296276,239.0174462,7.305304755,270.8303852,47.41384782,73.21377488,-21.47846875,0,168.8727555,,,,
561.6319996,2193,-16.997865,-0.272913772,-55.76492096,-36.0051649,0,-0.434584217,0,21.19972773,-61.26931641,28.52502641,-247.8229882,-15.4404698,-214.4263667,20.46249979,0,199.7174258,,,,
561.6399996,2193,-2.371376201,-10.58873125,171.3136287,-48.43840469,0,-67.48715073,0,21.9225645,215.2646268,-2.641593944,146.1491725,0.331309557,37.52349066,-8.622294449,0,200.1558691,,,,
561.6479996,2193,-10.75892346,24.3954203,-159.8241591,-29.77374819,0,4.3691847,0,16.38703118,82.41491029,28.35409076,43.0670839,29.9575301,-50.19181717,49.15889934,0,157.9674114,,,,
561.6559996,2193,-29.52466941,-35.17601815,120.1334811,-63.02618488,0,-32.084891,0,75.40672438,37.00487234,6.913711636,-165.4294676,-33.0343926,-118.6725974,56.19510429,0,244.9085598,,,,
561.6639996,2194,-39.23617744,-25.19361249,-49.75797368,-52.52911421,0,-30.12210462,0,66.34717718,238.1934936,-39.51148034,284.10152,38.1720585,88.15106097,-34.52131714,0,201.2068378,,,,
561.6719996,2194,-43.54404122,-28.89821084,-87.17401902,-53.93715633,0,15.00783727,0,103.5956743,-65.16144828,-20.20084565,-247.2966201,-27.26100395,-207.8719858,37.1752901,0,250.9309871,,,,
561.6799996,2194,-15.91321762,-32.97841894,140.7972513,-48.59225882,0,-53.21942027,0,95.35173045,201.4626137,-57.67846137,133.1450389,-10.50594162,24.90916959,24.83908143,0,247.471563,,,,
561.6879996,2194,-18.48746382,2.541886844,-180.9414122,-5.599942567,0,14.89527498,0,94.27571655,80.64217584,-13.75014562,37.00321012,26.89106769,-70.10172982,16.16058129,0,196.233958,,,,
561.6959996,2194,-25.0102265,-43.82887928,104.1293631,-31.44405137,0,-27.74727318,0,134.3129961,36.10177663,-36.75454549,-166.2416673,-29.7043425,-151.7453835,1.899159,0,274.7774127,,,,
561.7039996,2194,-2.590932349,1.058958559,-46.93561488,-2.767343017,0,-29.58465418,0,95.69354433,248.5917829,-57.66916517,287.1235298,55.45728229,61.83786949,0.393502275,0,206.3817307,,,,
561.7119996,2194,-15.62296151,-13.57945345,-69.2212326,8.902316723,0,10.78290195,0,135.4361086,-26.06051075,6.792673399,-220.9218499,18.98180558,-176.0674912,83.1717382,0,243.0266334,,,,
561.7199996,2194,-18.16357615,-48.60011721,142.1408202,-21.97306782,0,-65.17182707,0,117.4820552,222.0618841,-57.37611057,158.3639147,39.64308951,49.8105436,11.24292279,0,264.0045971,,,,
561.7279996,2194,-26.619163,-12.93512189,-195.6603578,-21.6095686,0,-0.912154908,0,84.8935582,76.67440479,-43.5901996,36.00394307,57.56165755,-87.89014713,21.01474172,0,221.6543856,,,,
561.7359996,2194,-36.26334358,-58.1590624,97.15446575,-59.13124695,0,-41.23593528,0,121.636398,35.30010382,-52.17501416,-173.1540775,-14.3737326,-151.2313329,12.77081464,0,281.6844048,,,,
561.7439996,2194,0.341861247,-0.646025186,-44.69024935,-31.84130064,0,-35.01133152,0,86.92226502,247.448301,-68.39946261,295.7833211,61.13334971,74.23913518,-37.45214923,0,220.7522082,,,,
561.7519996,2194,-2.885462937,-0.973965055,-63.74042946,-15.63166701,0,16.66210353,0,131.6391387,-24.1706875,11.0775341,-197.2993523,24.02157469,-182.0465679,67.37765021,0,276.7439926,,,,
561.7599996,2194,-20.0346748,-47.73070226,140.8110399,-43.4310187,0,-74.18293626,0,121.4519767,227.1584334,-45.14353064,180.257973,30.4019954,32.68639666,54.36424212,0,283.0302561,,,,
561.7679996,2194,-18.49347779,-6.502411096,-189.8591522,-20.47929625,0,-21.72266389,0,90.1891738,77.94120613,-45.21719843,53.33319045,31.98410749,-89.38927637,35.22131385,0,214.2372396,,,,
561.7759996,2194,-13.01377931,-36.69079863,129.2722321,-14.57060296,0,-42.12135584,0,134.4248043,37.0504488,-37.62511734,-153.7193803,-12.34761242,-129.7273142,17.02340539,0,277.5198189,,,,
561.7839996,2194,-5.270687573,-6.396749669,-18.96154988,15.81446634,0,-32.56486981,0,99.19616519,240.6292166,-51.95877528,295.8963216,89.48150046,85.99498977,-0.814801279,0,216.761889,,,,
561.7919996,2194,-20.76759843,-17.04397352,-49.73721476,16.69550186,0,12.61913373,0,117.0275653,-42.76121314,-9.063276152,-234.9269641,32.8082377,-192.1311047,57.08265953,0,246.718994,,,,
561.7999996,2194,-19.04927602,-39.04991694,171.0450965,2.293725622,0,-51.05107531,0,106.1225776,216.2669627,-57.41690699,136.857659,42.44897191,24.48353195,-19.98457796,0,250.0050907,,,,
561.8079996,2194,-25.78477412,-7.277821114,-172.0302069,19.27341674,0,21.38214618,0,113.4486373,67.99112243,-30.92472789,20.3791923,73.48938455,-114.5157624,7.971716167,0,211.1511666,,,,
561.8159996,2194,-18.84617145,-42.82038338,120.6207642,-1.831842701,0,-24.61688024,0,148.3422075,27.91994628,-36.88139195,-192.4755384,8.440923908,-182.409044,38.5237176,0,284.898136,,,,
561.8239996,2194,-1.725178104,1.089264675,-25.14132481,24.81753123,0,-32.5023721,0,92.5813305,245.7070758,-45.18599474,271.6321804,83.66675501,44.99089576,-7.642239276,0,210.7568139,,,,
561.8319996,2194,-35.87226539,-24.04202267,-62.13793442,8.86489035,0,11.15991543,0,137.8543654,-49.59159569,7.931130204,-240.9706252,32.72414565,-217.4260772,76.93203277,0,250.3595833,,,,
561.8399996,2194,-29.37131937,-48.37819456,147.574098,-35.69564355,0,-75.05361802,0,120.4897962,198.8790612,-62.72845304,136.3120097,35.13557198,22.13552446,-17.65434884,0,265.6870268,,,,
561.8479996,2194,-8.44713127,10.68595708,-174.2042025,-12.36637331,0,-4.205730262,0,98.09459098,69.74720328,-23.24404691,39.12357975,57.98607074,-81.12114372,-25.22307836,0,210.7218243,,,,
561.8559996,2194,-18.18251349,-33.00320443,125.2452904,-40.18979232,0,-29.90617287,0,135.9859627,32.59574293,-2.778884752,-154.4541607,2.583316962,-135.046524,66.72171008,0,290.6131132,,,,
561.8639996,2194,-18.3787838,-9.835243651,-51.42351726,-49.23819247,0,-40.56789195,0,72.95086249,228.7840014,-43.77842118,302.9042295,68.72538936,69.91192742,-27.0266053,0,238.7884239,,,,
561.8719996,2194,-25.81216,-18.62887149,-91.09756348,-50.64492738,0,3.541451605,0,108.3372017,-69.58936715,-4.392821888,-234.2576291,-2.488643479,-214.9818507,-0.556773298,0,265.3037398,,,,
561.8799996,2194,-36.15000158,-58.17750721,133.7348655,-63.16200335,0,-66.93651177,0,126.0550204,186.849764,-56.46372773,141.9727918,10.9441229,36.43054346,15.44469835,0,291.7980781,,,,
561.8879996,2194,-33.34202936,-15.16347049,-197.1464189,-39.72705352,0,4.891560567,0,135.5366668,44.23713993,-42.3905768,34.79800669,39.73880583,-75.17149196,15.55107478,0,279.695098,,,,
561.8959996,2194,-6.455767346,-28.80239434,106.7069323,-50.6960555,0,-37.95879369,0,163.2468073,13.95349565,-23.91768995,-187.509879,-33.53593473,-137.2536928,-13.4016889,0,346.7413195,,,,
561.9039996,2194,-16.16447838,-13.10458449,-51.96882133,-21.7085575,0,-49.16245607,0,120.5913924,227.5799194,-44.57240212,275.848141,33.87829113,96.7829435,-53.76317251,0,271.2810679,,,,
561.9119996,2194,-37.32784434,-28.30607854,-91.3384394,-7.159793249,0,6.182731597,0,191.6580065,-77.96919283,-12.968231,-247.2713021,-17.00485216,-185.2967349,43.30292271,0,329.9508834,,,,
561.9199996,2195,-18.95872756,-45.52586749,121.1930768,-31.24509622,0,-79.07853965,0,174.2519797,188.0360517,-59.59724909,131.4985464,-4.396548529,42.48108481,-14.92733549,0,359.0712306,,,,
561.9279996,2195,-23.46334782,-14.00226576,-225.9331615,-12.49504639,0,-19.62932409,0,138.0021951,48.16584659,-46.05363921,20.36578984,-2.251274483,-104.1812347,-35.06632448,0,289.2996722,,,,
561.9359996,2195,-8.967379841,-33.19771964,89.7059167,-6.963601823,0,-38.22593305,0,195.4115515,15.76859621,-33.48609133,-185.7754505,-59.9784964,-176.7067392,6.56264136,0,365.5323035,,,,
561.9439996,2195,3.700831074,-2.761399879,-58.83859572,11.80641464,0,-41.43707579,0,164.0774318,252.8055951,-42.65324321,305.5612941,41.00850291,107.9788536,-9.622636376,0,339.6637061,,,,
561.9519996,2195,-14.7621372,-23.21624216,-121.6711056,-6.906237176,0,-5.801281874,0,174.5241075,-61.97501414,-19.70904411,-236.8355793,-37.47608173,-183.8456174,10.17954483,0,358.6428586,,,,
561.9599996,2195,-3.062552231,-30.14396444,109.5581051,-5.907415244,0,-68.46471625,0,161.218451,193.2963806,-50.64816535,141.497117,-31.42618299,19.38633079,-32.57262556,0,358.6105876,,,,
561.9679996,2195,0.023886868,14.27810057,-208.5978149,36.81603148,0,17.54208784,0,173.9788305,71.91883657,-0.539799691,64.35807223,16.75631925,-53.0759461,31.86301141,0,342.9062006,,,,
561.9759996,2195,-4.765514901,-38.22860422,85.93660917,0.998091465,0,-22.16915123,0,216.2784706,25.93287298,-18.59826777,-152.0221095,-47.13515335,-118.0787665,34.9198856,0,424.179359,,,,
561.9839996,2195,-10.35680605,-18.2299458,-71.76337772,7.606169331,0,-36.35547074,0,168.0704748,237.7141644,-51.56272154,320.7430635,22.44278676,93.89427425,-10.57847202,0,359.2158692,,,,
561.9919996,2195,-17.26189564,-19.58865476,-104.7533197,8.268135262,0,10.06019895,0,201.5112878,-79.83608593,-10.3697055,-219.0086232,-42.64340454,-184.8594748,11.97310792,0,389.0427267,,,,
561.9999996,2195,-1.230775026,-31.16725743,144.7631622,1.802407931,0,-60.34476667,0,190.6226889,178.6459114,-50.92298835,153.6826676,-27.33909449,38.85244339,-69.79047915,0,393.8719752,,,,
562.0079996,2195,-0.901365433,15.03697922,-179.7930881,48.81592462,0,14.05857546,0,182.331603,56.27890392,-2.574592799,59.32391519,12.56606253,-64.97037188,8.384717142,0,353.0276703,,,,
562.0159996,2195,1.80404625,-28.4838054,127.6947089,35.7869901,0,-24.49612598,0,221.3788698,13.70100456,-0.474709437,-167.1378778,-49.0277019,-103.9343935,26.37991219,0,427.7133124,,,,
562.0239996,2195,3.323094956,-8.696962412,-24.82473199,47.06470254,0,-39.81372972,0,175.8894354,231.9489176,-31.95023721,306.0901288,21.47360731,123.3292,-31.13121699,0,365.9021558,,,,
562.0319996,2195,-5.082471643,-12.28837668,-71.95409838,52.38282461,0,20.41615635,0,222.4100043,-77.25476905,8.906822956,-231.20712,-36.72380857,-172.2608149,43.29466211,0,410.3463927,,,,
562.0399996,2195,4.642377418,-33.00546289,168.3378701,36.87055924,0,-41.77234795,0,214.0171265,191.7719861,-37.79430728,151.6139208,-17.02222035,73.38185453,-29.38188919,0,439.0131705,,,,
562.0479996,2195,-7.515519041,3.334203535,-183.3417935,56.77776762,0,0.577059134,0,163.5281665,50.98351316,-15.94906029,45.89094747,-5.361738007,-61.15466587,-39.08337675,0,376.7259583,,,,
562.0559996,2195,-6.678958472,-42.25493539,118.4370713,55.38908189,0,-39.79022458,0,201.2857922,-12.245705,-25.16800012,-194.7772761,-80.94825392,-150.4298193,-52.87815636,0,425.2735716,,,,
562.0639996,2195,18.00376619,-7.756868229,-12.13200856,93.87264112,0,-32.54060228,0,184.6126629,227.4188795,-34.8083397,304.9066603,20.40529385,120.7271521,-27.77208326,0,390.7321148,,,,
562.0719996,2195,6.728168588,-8.115198331,-68.36535835,92.81968167,0,5.658262636,0,211.7080219,-72.10525816,23.90258676,-226.0180716,-26.5783321,-143.7969701,63.38730661,0,439.8612151,,,,
562.0799996,2195,-3.269594756,-48.16758592,153.550845,54.35913669,0,-72.09408706,0,197.508453,175.1343736,-40.31527652,141.7951918,-20.99413535,69.19693677,-70.96897146,0,443.6117273,,,,
562.0879996,2195,10.23333546,4.85368446,-190.3563472,62.75249325,0,-10.73552805,0,162.2496834,45.60683575,-20.24279346,53.81589896,-0.419600392,-44.16972927,-33.05221266,0,384.0415494,,,,
562.0959996,2195,12.34885782,-23.66745948,111.9802486,44.4783604,0,-40.44889909,0,197.9435056,10.289966,-7.590217199,-162.682529,-60.63125191,-97.55938557,6.198565054,0,445.0848127,,,,
562.1039996,2195,1.190996089,-11.18013339,-47.06915429,45.77577635,0,-39.85021355,0,167.8831791,234.2069683,-32.09821034,334.3871834,28.48351755,135.5963533,-23.3155729,0,405.053237,,,,
562.1119996,2195,0.108607159,-9.839081546,-106.8937646,36.48897023,0,1.003086588,0,186.8959497,-82.7552295,12.7034493,-204.9531582,-37.32263025,-168.824373,40.38367493,0,435.1639818,,,,
562.1199996,2195,7.289945916,-34.51905248,133.5190049,17.35876919,0,-71.09850246,0,182.7236001,183.8426747,-30.06651296,176.172931,-23.84196986,65.33216613,-64.06745832,0,441.5465688,,,,
562.1279996,2195,7.574042225,6.208865846,-213.8074932,28.4928213,0,-8.957623434,0,160.6792798,56.40012653,-5.742967027,89.37069251,9.22812346,-35.84909696,-8.842511448,0,399.2850658,,,,
562.1359996,2195,11.34148221,-27.56318622,91.30326198,6.750983495,0,-37.13174204,0,197.0122078,3.19200796,-4.359479368,-147.8423214,-58.3481203,-101.4222049,21.07612501,0,467.5289937,,,,
562.1439996,2195,12.07795569,-7.38256739,-60.23780808,10.0221399,0,-44.2761457,0,151.3410265,230.6145158,-24.55873389,340.7869484,22.31170483,130.993385,-62.44506618,0,425.7106586,,,,
562.1519996,2195,6.947299683,-13.26822117,-114.5691219,5.598307316,0,-3.063265085,0,163.8277741,-82.12958825,17.74340716,-205.3921566,-41.3826617,-177.7711481,-4.108185367,0,448.9292997,,,,
562.1599996,2195,10.9954132,-38.7663047,143.1086817,1.96043669,0,-64.44017745,0,171.4656898,182.5350909,-31.7037282,172.872298,-24.58968157,58.74626706,-59.57138497,0,459.4254865,,,,
562.1679996,2195,5.459117323,5.106129601,-193.7130177,35.96535889,0,0.833142248,0,159.9582489,52.54704395,2.514366522,90.37065651,13.57739946,-57.18613485,-11.18969151,0,419.8332458,,,,
562.1759996,2196,2.087592019,-36.60716183,114.9017122,18.88236514,0,-36.11825101,0,194.1170294,-5.929610055,4.075590298,-153.3214033,-49.50748068,-116.2875197,18.37926555,0,485.7802074,,,,
562.1839996,2196,8.504176361,-12.5914576,-35.23465476,21.83564045,0,-46.56960072,0,150.3601109,225.4883266,-30.7860636,335.5054452,29.12193259,152.1251659,-61.92212156,0,441.0861629,,,,
562.1919996,2196,4.265566219,-9.024072805,-91.98931425,26.6814538,0,1.227052899,0,176.0939902,-90.68679834,12.30869525,-212.8037959,-36.99456932,-181.505227,-11.59654347,0,454.956388,,,,
562.1999996,2196,2.274467932,-36.10142745,170.9621026,23.18005639,0,-65.03703233,0,177.0275772,169.319982,-25.07479543,154.9525324,-21.70712693,54.90981741,-39.80528012,0,458.886799,,,,
562.2079996,2196,3.08048947,5.19030899,-171.5000698,45.47133009,0,-7.334289883,0,138.8154783,47.1587562,5.473978453,71.68180075,14.60577076,-14.97526555,-6.417025238,0,405.7606107,,,,
562.2159996,2196,5.502121503,-36.14386704,125.6707901,21.21196837,0,-38.14898454,0,163.4065292,-13.6593795,-7.893999845,-178.9321406,-57.69382909,-117.8270751,-31.57027105,0,444.1314517,,,,
562.2239996,2196,8.416086943,-7.700873624,-4.498880549,45.61598776,0,-34.2002908,0,124.0748043,218.2396008,-27.58776663,318.2855564,22.12473909,125.1585076,-64.09748829,0,381.3475138,,,,
562.2319996,2196,13.66633259,3.735170932,-47.52058299,64.97743406,0,15.11981337,0,138.222764,-82.72112511,43.79073312,-207.2993688,-24.38388881,-141.1891304,61.81974607,0,401.7110785,,,,
562.2399996,2196,8.919994187,-31.04790318,194.1806894,38.17921976,0,-63.74239244,0,127.3756196,179.304861,-8.028383369,162.627884,-10.6888775,89.98149645,-19.70707386,0,413.5683664,,,,
562.2479996,2196,-9.008068558,2.219395434,-166.6407166,38.98299707,0,-12.80228274,0,85.12030758,41.46565945,7.298402485,78.94352216,16.29632202,-27.94031179,-22.18925251,0,360.6498471,,,,
562.2559996,2196,-9.222807427,-35.00867162,129.1986926,12.6314528,0,-49.4792722,0,103.0117819,-29.03560762,6.769407444,-179.0209383,-55.07210738,-132.7926443,6.200634213,0,394.8150664,,,,
562.2639996,2196,-15.23838746,-16.8996897,-12.13178784,28.78283645,0,-52.75847362,0,64.3806651,203.0557663,-23.13970734,307.1785805,21.0328662,105.975596,-50.30466277,0,333.9829329,,,,
562.2719996,2196,-18.9767137,-19.80275302,-70.10574449,28.92778281,0,-0.70184877,0,86.54494272,-105.4236879,28.00115313,-223.3804019,-32.72803979,-169.3075826,19.30803209,0,360.9888752,,,,
562.2799996,2196,2.795759969,-40.44149771,188.921106,13.13384047,0,-66.59223248,0,84.01936198,161.5523125,-15.40507651,140.9841209,-31.10264811,82.77581396,-16.98213084,0,363.6082223,,,,
562.2879996,2196,-9.852718065,-0.57388215,-158.8889173,31.36759576,0,4.106140667,0,72.92563554,41.69831167,4.305951694,66.23681632,-0.094435341,-6.695560164,-5.483202559,0,321.0303286,,,,
562.2959996,2196,-31.1896272,-55.11524832,119.5115799,-10.69125511,0,-33.48321379,0,120.505222,-32.44971883,-6.573968015,-191.9052632,-64.52058608,-113.2318668,4.138782336,0,387.8038514,,,,
562.3039996,2196,-13.4752721,-19.24199607,-30.57272865,3.491863441,0,-57.50320935,0,63.97429447,199.4685158,-34.36667228,287.1154291,6.397315672,113.5670728,-34.95870492,0,331.3914138,,,,
562.3119996,2196,-12.05721146,-11.52709908,-85.75638457,15.77693584,0,-3.216246384,0,85.55135381,-101.4341866,15.58865008,-237.0800675,-35.32143624,-174.8059132,18.67091588,0,344.6385018,,,,
562.3199996,2196,-15.6015342,-54.39309897,170.885272,-5.028454177,0,-67.4744202,0,94.93950674,159.4455088,-37.47398956,126.4950055,-24.44173921,52.44788968,-14.70206974,0,345.6812521,,,,
562.3279996,2196,0.724171835,11.70407975,-175.5819016,23.34820605,0,-13.41152202,0,49.42698171,41.26715629,-7.717391101,57.74330106,7.06691934,-45.06377708,12.29117492,0,302.9828967,,,,
562.3359996,2196,5.639958873,-15.29280457,125.558237,6.268005711,0,-40.65902302,0,81.23809577,-18.57934409,15.7148919,-180.3036067,-43.04249344,-110.4436969,22.25148415,0,353.1257868,,,,
562.3439996,2196,-15.24176989,-19.45355213,-20.98676283,0.428519971,0,-48.5785016,0,50.61213873,214.3380706,-20.60480138,305.950757,28.63154371,139.4394888,-18.61593273,0,289.3782696,,,,
562.3519996,2196,-30.66760963,-23.71200721,-107.7062893,-22.73897872,0,-13.66006232,0,66.18803072,-105.2252958,-14.56629355,-237.8558475,-36.40696509,-178.9426167,9.473515512,0,318.0384433,,,,
562.3599996,2196,-12.70705877,-39.15776113,153.9445848,-28.01970673,0,-77.32433759,0,68.1951942,147.4806323,-54.79400972,112.1989439,-33.85501223,48.41561723,-52.94591853,0,310.2130561,,,,
562.3679996,2196,1.44571829,17.35099897,-175.4584303,19.88600245,0,-2.452723463,0,56.8696495,39.65457468,-3.465343298,61.46808448,14.01507777,-20.66768509,16.84648641,0,264.0100857,,,,
562.3759996,2196,9.59967311,-10.98610415,113.1152198,-4.456576028,0,-49.3443213,0,69.92757494,-15.98058309,2.827754269,-175.4463559,-43.67129408,-107.0077849,54.17865983,0,327.3713819,,,,
562.3839996,2196,2.380226013,4.955383286,-27.16742376,4.4539239,0,-62.25484815,0,-2.645276541,215.914383,-28.41774701,300.4992072,9.12800232,109.6616361,-43.66418617,0,238.2082812,,,,
562.3919996,2196,-8.082215158,3.102425911,-89.7522049,10.49650689,0,6.21797237,0,39.00885874,-92.21265003,7.883286087,-223.4802361,-30.94375014,-184.4802272,15.65669856,0,267.5641447,,,,
562.3999996,2196,14.2607577,-14.39204392,181.9157041,2.309663203,0,-60.08795109,0,54.11960077,180.8879365,-27.5292924,150.2979154,-5.746642361,83.20548686,-3.049525797,0,296.9030917,,,,
562.4079996,2196,6.091402302,23.36332824,-164.1254847,19.24499051,0,-15.82807106,0,2.42460271,69.62256436,7.830294895,90.00491577,23.00591643,8.817378765,10.72781443,0,230.2644237,,,,
562.4159996,2196,-7.033586582,-26.6569999,110.3813979,-20.74747495,0,-52.2517274,0,25.25555328,-13.2690888,-2.466864926,-175.5814226,-49.52207632,-107.0251129,9.072689116,0,263.6300737,,,,
562.4239996,2196,-11.10061995,-13.36405811,-25.50457901,-3.210261354,0,-50.17524134,0,14.36343112,216.8431854,-31.84179054,309.8002893,20.35703664,127.1551087,-65.25563635,0,208.095532,,,,
562.4319996,2197,-30.08149035,-19.31039565,-104.5016758,-4.828437762,0,-12.49692828,0,55.43730622,-98.59277843,7.723998887,-212.2963045,-20.97978572,-168.8808185,30.45281074,0,255.8804387,,,,
562.4399996,2197,-8.174532779,-27.18333681,154.0647896,-23.35015492,0,-86.59302932,0,38.78893495,146.7822699,-48.06123172,122.1539407,-29.62862055,46.93000149,-18.63736245,0,250.1666978,,,,
562.4479996,2197,-19.20488143,9.200909763,-180.7025693,10.94754506,0,-10.88602315,0,15.34478671,41.79836057,-11.38591734,56.94334255,-1.911257143,-37.44350382,-50.25960558,0,169.0937849,,,,
562.4559996,2197,-28.35643105,-40.33641759,98.18779196,-19.38669038,0,-42.923826,0,62.0709225,-32.74083786,-10.64343711,-200.6901613,-55.06506589,-139.8332519,3.827162449,0,234.4002661,,,,
562.4639996,2197,0.10359846,-1.049253125,-31.02255888,-5.686932398,0,-52.65031436,0,7.277264963,205.7736362,-34.34931037,279.5502431,6.864338749,107.7556234,-17.11235969,0,171.1846822,,,,
562.4719996,2197,-20.95777115,-13.07225655,-105.0126114,-11.4921189,0,-14.94587817,0,4.658919785,-94.77125229,9.67965256,-240.0717639,-49.14283722,-192.0184597,-9.105646749,0,159.4835012,,,,
562.4799996,2197,-18.37662761,-38.36368396,145.3130828,-43.40867748,0,-91.11336931,0,-4.027725634,138.2159523,-57.91251455,94.16318919,-53.38121629,3.919811404,-81.65001495,0,143.7584524,,,,
562.4879996,2197,-3.987451896,20.78202478,-184.6861174,-7.436515637,0,-13.25549348,0,-18.19108595,36.06178573,-11.24230422,36.31285645,-14.01704006,-46.60621403,-12.15753935,0,79.05727149,,,,
562.4959996,2197,-0.546617807,-16.22736764,100.6554517,-34.1407724,0,-56.65510113,0,-1.214621157,-23.20066159,9.325697791,-218.8078732,-65.96560004,-112.5724437,15.3250339,0,116.8525806,,,,
562.5039996,2197,15.14544228,16.78750186,-32.5423146,-30.61939671,0,-81.4715213,0,-71.06177952,207.0678983,-26.01532671,250.71509,-8.553867377,105.2336332,-58.31557938,0,18.56836037,,,,
562.5119996,2197,12.37923807,30.80725249,-102.880317,-30.30832015,0,-32.84235194,0,-73.12027212,-89.61488259,27.82584498,-267.4074711,-57.86761941,-199.8094171,-11.70671128,0,-10.3606823,,,,
562.5199996,2197,9.705077719,0.351764032,155.3263363,-51.4665595,0,-108.8961892,0,-94.77748971,155.2044172,-12.87874342,71.37820862,-55.55931539,7.400439529,-58.1351651,0,-58.94020824,,,,
562.5279996,2197,-1.716452533,25.78467136,-173.5846552,-15.86695916,0,-29.66302378,0,-90.74471767,46.16178201,6.243406999,11.85623083,-16.687375,-67.55567188,14.82352274,0,-135.6934043,,,,
562.5359996,2197,-11.34369853,-19.67824829,109.0075106,-53.41050703,0,-47.97043354,0,-42.03042988,-18.62097006,-4.351850047,-248.7944644,-57.34351098,-131.4380919,-1.741673865,0,-74.49020847,,,,
562.5439996,2197,-5.195458688,9.273911006,-15.01359993,-48.59165778,0,-62.89082853,0,-106.3158392,200.2027106,-38.02117309,203.9780309,9.939228053,94.75014887,-97.2547409,0,-173.2003361,,,,
562.5519996,2197,2.47709985,23.09760025,-75.85766121,-42.56663304,0,-23.94342813,0,-99.0283782,-106.3763357,19.58620264,-328.3290859,-22.7394161,-201.9469609,17.99586896,0,-197.2486133,,,,
562.5599996,2197,9.625886238,-1.361354001,189.2270051,-86.59422195,0,-101.4387095,0,-111.0399751,144.2901737,-11.75956729,6.103381249,6.948019114,27.01050723,-20.43218312,0,-224.8361022,,,,
562.5679996,2197,8.395083366,45.35374745,-125.2834435,-51.27155063,0,-21.76115233,0,-132.1906662,22.41713146,17.54304618,-51.65864757,52.54768212,-55.03129291,-12.83916879,0,-313.672935,,,,
562.5759996,2197,1.12156735,6.84427201,165.6488841,-67.098622,0,-45.7968022,0,-100.5971567,-60.38616201,16.99763191,-299.5038415,10.25480421,-132.8824741,-24.75085652,0,-278.3869135,,,,
562.5839996,2197,-6.662798954,18.89621201,41.87973453,-71.35870029,0,-51.6959331,0,-136.6707779,162.2102711,-17.73741119,191.4067584,83.40139839,108.1653357,-103.2155783,0,-350.7587659,,,,
562.5919996,2197,-4.34557906,33.74653114,-29.62494888,-63.39260009,0,1.268939718,0,-114.7862498,-142.4348109,29.76984678,-308.3275502,40.71446899,-185.1763266,-4.393851712,0,-324.8508349,,,,
562.5999996,2197,-4.744075607,9.744775312,222.874248,-78.30526066,0,-75.04363296,0,-140.7989084,108.9673811,-2.797764053,25.3701909,41.96222451,26.59507384,-27.43263638,0,-342.5594651,,,,
562.6079996,2197,-13.74892489,44.73335277,-107.0146565,-40.0897963,0,7.381767705,0,-150.3414209,-2.036263258,18.32189767,-22.81566026,68.23392505,-41.01879529,-17.53338982,0,-404.1609793,,,,
562.6159996,2197,-0.723594296,18.37147297,170.7520095,-53.41514417,0,-18.06758586,0,-96.95798148,-68.82898468,27.83610098,-260.7656286,12.89432829,-105.5111281,-18.11693573,0,-323.348338,,,,
562.6239996,2197,0.900957395,38.86232432,45.77162788,-39.09027512,0,-37.41607805,0,-128.1357162,175.274927,12.01951487,239.5956479,87.9384298,135.7423784,-61.40171703,0,-364.3640861,,,,
562.6319996,2197,-18.09653178,29.32092406,-43.43160771,-44.68204522,0,13.12879411,0,-88.57861961,-131.072175,33.0329625,-250.8533157,52.79482417,-159.7116994,8.335152763,0,-303.3580518,,,,
562.6399996,2197,-18.13986242,-2.668506985,197.6922264,-69.80461725,0,-55.96144309,0,-80.54250833,107.4017408,-15.93385301,76.4946368,49.7679386,35.3774479,-66.46119629,0,-294.9283787,,,,
562.6479996,2197,-26.04419349,36.43284992,-132.0186139,-26.11835644,0,22.36456252,0,-60.89876667,3.849328927,19.88787207,41.29485856,97.51726194,-44.67934525,-56.41159951,0,-310.3244533,,,,
562.6559996,2197,-21.52980986,3.456707328,129.8441368,-46.28782179,0,-14.78004538,0,4.668823022,-66.15135882,15.88082611,-205.6152527,60.64762115,-113.7235024,-24.07013971,0,-182.5606838,,,,
562.6639996,2197,-11.1745685,25.68678327,5.195652617,-32.65788027,0,-39.94440792,0,-31.88100039,175.3354704,-4.705694644,266.5470788,125.0994988,146.1218187,-69.96852434,0,-231.1074023,,,,
562.6719996,2197,-12.60206464,30.75813812,-74.2798734,-33.42267591,0,10.77255374,0,-10.45186429,-120.6617465,40.39521267,-233.0611604,91.14269995,-137.5382656,-14.49329206,0,-186.7944045,,,,
562.6799996,2197,7.936567166,17.18714803,174.8656859,-39.80396557,0,-57.4406087,0,-23.70922798,126.9591667,2.25125246,80.80176916,97.6175121,63.53999297,-46.97903725,0,-183.483888,,,,
562.6879996,2198,-0.480779187,52.22954698,-142.085633,15.07578719,0,19.00683073,0,-26.58367478,33.847168,42.33337717,43.21966435,141.0449642,-8.583526083,0.111130352,0,-228.937348,,,,
562.6959996,2198,-6.751380611,8.676539951,120.6921434,-24.16827541,0,-11.51523305,0,18.11839871,-43.13039694,30.93579198,-211.2937036,90.56279593,-113.5383503,-1.906359871,0,-137.4918975,,,,
562.7039996,2198,-3.278989747,30.93723909,4.813652412,-14.33668667,0,-11.86928892,0,-1.861719233,188.0229991,-14.81521578,253.2685132,146.7004086,128.8696584,-117.3193847,0,-189.4446688,,,,
562.7119996,2198,-14.13224768,31.54587461,-66.00994255,-0.858822517,0,37.55759872,0,55.20252665,-109.8772389,37.35760888,-232.2796646,109.1764876,-142.8398866,-38.61276836,0,-125.8977287,,,,
562.7199996,2198,16.75888875,23.3597576,187.8517539,-11.30974149,0,-66.42342888,0,39.00558956,133.2397177,27.59920615,75.41802385,105.1189542,45.31727512,-5.03956157,0,-124.7088342,,,,
562.7279996,2198,9.026960686,59.68531978,-111.1302805,31.73790015,0,7.079132336,0,32.31890049,40.41409237,48.63283532,33.03939364,133.7908349,-4.617614892,-26.57249961,0,-186.3700003,,,,
562.7359996,2198,-20.4183038,1.449065391,149.9606091,-6.187622482,0,-9.173284097,0,96.98906154,-52.90090606,26.43595495,-216.5614388,75.12106451,-94.21128378,-55.94403041,0,-100.2845679,,,,
562.7439996,2198,4.047679704,41.35473213,22.17816159,0.130055257,0,-30.32241369,0,59.31047899,161.9132262,-3.960714185,237.9996263,126.0365529,112.3606452,-96.87713205,0,-161.3984017,,,,
562.7519996,2198,25.88419696,75.12265155,-37.95694483,20.01057817,0,23.92082438,0,81.10389211,-111.2011092,51.92350083,-235.9204352,89.16093544,-137.3672741,-16.51747412,0,-118.2191845,,,,
562.7599996,2198,23.36675463,41.27892408,213.2637571,13.25692647,0,-43.33511704,0,74.43242128,138.4674101,48.47165165,93.75097936,95.54100727,75.26109366,-8.294916387,0,-125.3612115,,,,
562.7679996,2198,0.629313805,53.03568097,-116.352918,8.947047895,0,17.3020087,0,70.6505567,15.41739383,46.48924934,48.31802713,117.3622521,-9.848913153,-74.90995421,0,-164.0546473,,,,
562.7759996,2198,-3.055623084,9.988996484,133.6420684,-65.51333734,0,-17.51482065,0,119.5981777,-73.62950171,16.56563276,-207.2516945,42.14837952,-103.7951647,-88.8197294,0,-64.71477924,,,,
562.7839996,2198,13.07357035,43.29992762,19.52336814,-47.12195618,0,-25.4684169,0,99.93532277,165.1784468,16.7825157,262.1818097,95.82595062,132.924924,-19.87474605,0,-115.2158482,,,,
562.7919996,2198,19.99892126,61.344152,-47.24874319,-30.44090563,0,16.3277935,0,126.7539662,-117.6960904,65.34292493,-208.3128944,50.2084337,-121.0832919,-1.607540916,0,-47.81076884,,,,
562.7999996,2198,14.08164077,25.21421285,192.1807366,-41.11280223,0,-55.93939541,0,116.7616804,120.2333478,29.01553463,101.8163999,31.38682605,64.12494161,-91.42829575,0,-50.84111251,,,,
562.8079996,2198,7.751446614,66.53226045,-127.2880565,13.93314482,0,22.69974654,0,123.6372066,18.65190111,49.35316773,64.33410292,58.06726155,-6.326486331,-26.98123032,0,-80.91753449,,,,
562.8159996,2198,21.06210238,47.33950997,126.0618496,1.191624452,0,-19.46769238,0,154.7384771,-57.5266806,56.47708235,-178.7235323,-0.326712425,-84.06844481,-8.705936488,0,7.812218648,,,,
562.8239996,2198,10.5297988,49.4619706,10.70201338,25.76933092,0,-26.57617216,0,122.5108083,175.2848805,42.15472362,272.8112445,48.94940743,134.5932178,-56.76903614,0,-92.21882254,,,,
562.8319996,2198,-10.50327609,41.50460296,-65.46521176,30.41175284,0,31.24948228,0,174.4998199,-118.0030822,54.11140987,-210.0267028,11.66865298,-131.8015289,-23.91797396,0,-28.16949278,,,,
562.8399996,2198,-4.310106893,12.57693494,156.0575255,4.688941874,0,-44.86553907,0,180.2837197,103.4146848,-6.499033126,97.02734316,23.99636577,32.79238204,-118.6398473,0,-9.477648179,,,,
562.8479996,2198,11.73129004,59.20990984,-146.7064115,53.70708742,0,32.55688196,0,177.2778521,11.62228029,32.09237375,59.31911094,70.85145543,-44.79689802,-77.29357879,0,-59.16971999,,,,
562.8559996,2198,27.56493278,43.2320841,137.2563309,51.30860072,0,0.728006562,0,220.986073,-44.54467344,50.64981152,-165.8339038,29.85269159,-71.19570337,12.00685987,0,35.78844021,,,,
562.8639996,2198,8.191009974,38.55149151,10.11326083,62.39861824,0,-15.05166922,0,200.8562272,183.3206301,24.74396646,297.6535496,97.60154279,150.6902101,-51.53927741,0,-36.44401436,,,,
562.8719996,2198,-3.125189575,20.92084187,-83.32236854,43.67315439,0,26.18307504,0,235.0202365,-119.8155828,45.23365736,-200.9718753,49.46440362,-146.4499062,-31.78195417,0,21.69726118,,,,
562.8799996,2198,44.93034329,29.96724094,163.7491319,40.09490392,0,-48.10595829,0,227.641367,108.6051514,6.040687328,99.43702234,44.91167023,74.32997643,-63.94621071,0,28.519859,,,,
562.8879996,2198,67.4476882,94.71438443,-123.5179811,105.5743103,0,37.40093052,0,217.7943979,34.21466187,67.28830141,74.33109235,91.41142913,10.11792089,-69.96867006,0,-43.48356265,,,,
562.8959996,2198,60.62853387,46.88758997,143.3346929,76.50968143,0,5.189225403,0,236.830107,-20.16221131,85.6895094,-148.7647526,46.43949019,-74.25106483,-32.47480224,0,36.37706118,,,,
562.9039996,2198,54.53051944,50.08174035,16.38248763,82.68339592,0,-5.490092726,0,198.5953831,196.7603103,43.55517629,315.1706904,105.701178,152.658642,-48.38508895,0,-32.15803848,,,,
562.9119996,2198,38.15993105,41.95789061,-61.16725339,81.48044251,0,44.32701582,0,242.7480199,-98.36285099,70.39345943,-164.8821222,56.29808617,-112.9548441,-14.73677811,0,16.71536697,,,,
562.9199996,2198,47.62630824,17.45884732,179.3824178,69.29804853,0,-45.79220537,0,232.329946,141.5624156,39.69705742,151.5516787,61.13979163,117.5275755,-38.51599767,0,31.95692986,,,,
562.9279996,2198,35.15657757,49.81278023,-131.9247828,110.454406,0,26.46611449,0,232.5037827,40.23247844,66.80166928,110.4011145,101.5856231,45.45084868,-31.61978688,0,-9.767809929,,,,
562.9359996,2198,16.18269233,-2.970527581,121.8532457,67.24405686,0,1.574517108,0,281.3785043,-41.80885081,53.37425156,-136.0672161,33.79068338,-62.47320771,-88.12664409,0,82.18540116,,,,
562.9439996,2199,28.84532313,24.27560017,-0.641258843,76.0011336,0,-14.26003702,0,229.2928974,180.5905095,24.90522873,320.5404066,90.83201865,147.8600268,-96.76728572,0,17.00777663,,,,
562.9519996,2199,23.47349314,27.40568317,-70.65776527,80.12690431,0,27.70839255,0,252.3806341,-108.4242415,67.35978109,-166.415369,48.56227932,-124.4758245,44.34835663,0,67.2067868,,,,
562.9599996,2199,25.73994046,-10.73266089,162.9658544,45.6020211,0,-55.77791831,0,252.5465625,136.785663,26.09745465,149.0443681,47.73708949,118.8633219,-62.20335478,0,77.77749777,,,,
562.9679996,2199,25.00949385,37.40046358,-160.5326496,63.77470987,0,17.80777876,0,240.5361625,36.30882493,51.3205265,101.8711232,76.57233546,44.56969781,-82.54712719,0,30.84919079,,,,
562.9759996,2199,20.76964692,9.036933998,93.83427797,24.64081613,0,-8.069162771,0,259.4247603,-51.3256862,54.80224554,-150.796199,5.761114012,-81.63722146,-34.93297398,0,106.6175763,,,,
562.9839996,2199,13.07166909,13.28475937,-34.04202684,24.51842755,0,-22.58678828,0,227.450452,171.2121944,24.41951448,316.167076,67.70799137,148.9159855,-70.06910755,0,34.25871365,,,,
562.9919996,2199,6.317386845,13.72316499,-110.4217019,27.44780133,0,19.65292382,0,272.0478207,-115.1830137,58.80547841,-169.736049,19.97402537,-109.5392665,37.6182577,0,95.53682828,,,,
562.9999996,2199,18.33469629,2.52460175,123.3750882,8.428149494,0,-53.90497522,0,246.2127894,127.1170032,14.07336095,143.2808294,14.16809395,97.83688983,-56.06470936,0,97.96823489,,,,
563.0079996,2199,6.370297626,41.10758336,-196.2554236,42.12814926,0,23.40591562,0,233.9184119,17.66987829,32.06776992,94.54693089,53.06280088,3.098900737,-59.3171377,0,39.91249858,,,,
563.0159996,2199,16.62574242,9.795998542,75.60596734,38.29693987,0,-11.02307896,0,277.7608575,-49.52110271,44.50013696,-151.7203776,7.170994504,-76.97246939,39.86199234,0,143.6019285,,,,
563.0239996,2199,16.04030399,21.89258761,-53.28469138,38.97612789,0,-35.25613011,0,225.7085007,193.2427853,9.830902882,314.2145935,80.63630935,175.4473438,-45.5449712,0,89.88831293,,,,
563.0319996,2199,4.914784983,16.83456486,-129.6779389,24.27868171,0,8.378936304,0,237.2083382,-107.263892,26.89291923,-192.1097203,23.8324152,-121.2167536,2.237858546,0,130.1487792,,,,
563.0399996,2199,28.37450617,7.720691944,126.4522532,29.90282616,0,-47.37169408,0,218.5385714,139.9043592,4.426816898,133.2869946,32.08642079,79.10826845,-25.27395434,0,126.7676552,,,,
563.0479996,2199,11.95441625,40.07742408,-191.911968,67.06288641,0,34.65603212,0,214.962013,41.65483524,42.18671839,92.50570978,79.4137407,0.224752919,-14.95602049,0,74.73657481,,,,
563.0559996,2199,15.6294213,-0.315653938,66.70820435,33.01617307,0,-6.340646526,0,249.8959923,-38.57909031,28.9101657,-166.4511356,18.18619651,-89.9591553,54.13237212,0,173.7328321,,,,
563.0639996,2199,28.18394995,28.90615811,-54.70849363,45.68107734,0,-13.50202228,0,203.6943261,201.414761,1.372835115,310.5391684,93.76281224,170.241692,-24.51296525,0,106.5863465,,,,
563.0719996,2199,10.1206621,24.24744939,-122.7131142,48.73247856,0,41.4229175,0,233.1696403,-97.09023317,50.87209553,-176.7629685,46.99528815,-107.9196333,14.34164968,0,143.5420473,,,,
563.0799996,2199,21.31625412,-4.476258543,108.3184217,24.09529843,0,-49.29973815,0,205.8661371,130.6208859,1.396156885,159.129624,49.57875267,86.54475899,-13.06799021,0,165.1085573,,,,
563.0879996,2199,19.55127729,34.46550813,-221.8285629,53.546313,0,15.27842912,0,179.01156,20.83449983,20.52067421,105.6443112,77.02937402,-3.608698494,-23.26578369,0,103.3192541,,,,
563.0959996,2199,19.46434984,-10.73406157,53.79910368,29.83126938,0,-4.108158944,0,225.3502384,-54.38496689,18.27253592,-155.7286716,10.3055602,-118.5443657,13.4536316,0,181.4682088,,,,
563.1039996,2199,24.74823389,7.952917382,-72.08015428,30.26210028,0,-9.954261665,0,198.9262509,178.7156485,-23.95867048,330.5148928,91.52904671,136.5091749,-24.67145526,0,145.8635632,,,,
563.1119996,2199,18.12957756,16.71668652,-137.6469426,55.61179834,0,50.13951283,0,240.7919823,-120.1348208,27.36114472,-173.9858952,40.84311093,-125.729956,36.33708219,0,202.7878192,,,,
563.1199996,2199,28.88850613,-9.45364394,111.3453065,51.37575821,0,-34.08892566,0,221.5106854,126.356996,-1.750102451,160.1067834,50.68773856,75.24658463,-15.62297416,0,223.8035094,,,,
563.1279996,2199,23.45352474,30.81547908,-218.8084095,56.19554093,0,12.17860367,0,178.9030424,21.69039901,16.43824932,114.5870455,73.59978986,5.950102434,8.978088274,0,169.5525174,,,,
563.1359996,2199,18.06438124,-9.453466843,56.53835964,29.48716526,0,-9.944003813,0,209.6441827,-60.36536068,16.22474889,-147.4795012,-8.436901767,-116.2180894,50.28975511,0,250.5136182,,,,
563.1439996,2199,19.51876851,0.683445624,-73.81364728,26.45040783,0,-25.24009647,0,163.1145716,172.0089245,-24.47150921,340.9537651,64.64958816,104.4598152,-37.61908466,0,212.3720388,,,,
563.1519996,2199,29.38856406,20.48872671,-127.4947325,42.04042515,0,23.77050623,0,186.7675101,-116.4040549,21.24679523,-159.147978,-4.098772139,-126.9548268,33.25938612,0,255.4910369,,,,
563.1599996,2199,45.74090353,4.959487216,143.82127,47.84809222,0,-34.72350684,0,178.5192629,140.0857053,5.130087624,197.0921704,13.00270771,101.8835105,5.913627775,0,270.4922636,,,,
563.1679996,2199,27.22667966,24.47646417,-198.6898255,45.11164317,0,25.69081423,0,148.815031,24.71392283,16.56038325,153.8955337,43.86984917,5.492841642,5.905649978,0,218.7725853,,,,
563.1759996,2199,15.74292849,-26.52570676,68.39599126,19.85936535,0,-4.225120804,0,189.3484666,-65.24838924,-2.977009187,-122.2710861,-48.37909048,-94.70193081,27.4696884,0,296.6709825,,,,
563.1839996,2199,19.47079586,-7.391768455,-64.49228258,25.99780394,0,-24.03759743,0,139.0291901,162.5932278,-39.88999593,357.379959,28.28675896,118.1782431,-73.19202571,0,247.4550061,,,,
563.1919996,2199,21.10825249,1.21603705,-128.6938966,40.40264783,0,29.77335088,0,164.0400902,-136.4690113,-1.301976362,-167.9183238,-45.10112862,-169.4140275,5.933755523,0,279.8033207,,,,
563.1999996,2200,17.60420408,-37.53491403,140.211916,59.38358215,0,-22.17987302,0,191.2288433,123.1713948,-35.27099687,170.1118028,-30.28032682,88.17536864,46.36301276,0,324.9620201,,,,
563.2079996,2200,4.310164578,-6.802200736,-209.9619422,59.42250279,0,29.48267986,0,164.0117533,12.3774545,-23.21997835,100.3882907,0.533882347,16.86477217,-21.20965435,0,299.1524699,,,,
563.2159996,2200,19.44682882,-27.30381137,61.91203895,40.44427138,0,1.04904829,0,191.9194725,-68.61775966,-14.68815381,-194.0372149,-87.43720502,-109.5441834,-35.62394067,0,371.2510166,,,,
563.2239996,2200,34.26684314,0.241924436,-57.85307896,60.47084602,0,-10.43917379,0,163.932657,184.3607695,-20.84363862,316.1730078,17.95062906,130.3567243,15.81571144,0,336.128306,,,,
563.2319996,2200,18.55490637,-8.626590384,-144.3205731,31.87809961,0,27.71099216,0,182.7262294,-122.015866,6.531982453,-196.4626197,-47.46180606,-135.7868161,30.76405079,0,373.5871077,,,,
563.2399996,2200,21.35844949,-34.84572547,110.8928736,14.39936144,0,-26.90447858,0,185.9496346,111.324484,-38.55161544,136.0709798,-46.24924051,74.02384729,-44.5178477,0,395.0111526,,,,
563.2479996,2200,31.71799211,27.18568171,-216.9881588,42.45006617,0,34.99789306,0,170.3996098,19.28195023,10.7630401,97.84893553,-6.022582521,12.41002087,9.459319091,0,360.1599075,,,,
563.2559996,2200,12.54325135,-27.08373863,50.76420705,24.23232374,0,-3.811759075,0,210.5365416,-60.46217137,19.0151979,-171.7674861,-88.50033049,-59.81451451,34.61448688,0,444.113225,,,,
563.2639996,2200,-12.30058207,-40.15190697,-91.35360743,13.40697926,0,-9.763935967,0,176.2335735,152.9248805,-43.12795623,319.0120707,-10.57046547,153.9764259,-57.6619513,0,405.0731672,,,,
563.2719996,2200,3.000158221,-11.58738542,-179.0969804,6.975038484,0,37.50376053,0,170.2509023,-153.3864488,-21.49357198,-219.9288069,-92.95120172,-149.4015137,-56.7220124,0,427.6522591,,,,
563.2799996,2200,36.26561953,-10.33012585,88.18355924,40.56571578,0,-32.56137486,0,149.1669865,107.3395368,-24.97805737,119.7170129,-67.98200121,79.31267124,7.465023867,0,444.2839994,,,,
563.2879996,2200,13.3889605,9.150649375,-236.0486255,63.30751756,0,33.19546199,0,142.8385632,16.45188715,21.22925926,95.63369415,-3.282460799,25.65230143,51.28363736,0,411.9028448,,,,
563.2959996,2200,2.105380013,-32.12827568,32.12883086,25.24612972,0,7.936675824,0,171.699404,-69.77255431,0.861325078,-184.5727294,-85.36085109,-58.00332754,-0.253983573,0,498.3227667,,,,
563.3039996,2200,10.91696102,-4.052680002,-95.7265369,37.38762409,0,-1.722154493,0,117.330133,162.5815631,-38.9767373,308.5984015,5.026629147,173.1410325,-31.3630083,0,447.2889312,,,,
563.3119996,2200,-7.445357248,-15.14929436,-173.0501896,37.32401129,0,50.74008516,0,143.8746127,-134.5660506,0.942554926,-211.7827171,-57.03408806,-117.8944936,-8.90636861,0,466.1878794,,,,
563.3199996,2200,12.17208046,-33.25618957,90.18029957,44.61810442,0,-17.71271196,0,137.7926085,109.4005382,-35.88878626,128.5168652,-41.83646865,91.80515046,-55.09263486,0,491.824896,,,,
563.3279996,2200,5.085781861,3.531326701,-236.9605466,62.29417754,0,36.29501626,0,116.5255788,16.64993298,-6.245012774,98.50396728,2.188730761,29.74377421,-10.77073561,0,449.1036002,,,,
563.3359996,2200,-16.06330796,-47.33191978,39.6081891,40.580339,0,6.944922066,0,158.2263019,-63.00258344,-11.24232928,-175.5784337,-80.34198692,-63.04159737,9.661852793,0,525.7368373,,,,
563.3439996,2200,-15.78123819,-32.14926762,-87.84748738,47.16524718,0,-10.51083719,0,128.1738009,161.9698262,-49.41095489,323.9410579,17.46526936,146.2668109,-54.7871052,0,488.7286267,,,,
563.3519996,2200,-25.47653899,-39.33699851,-169.0402323,33.15167026,0,35.95646972,0,165.1882498,-140.446697,-16.02794372,-203.703065,-49.89499789,-115.4593655,-10.23495404,0,529.9068604,,,,
563.3599996,2200,0.43543935,-46.19451069,100.6794012,39.55405286,0,-24.60008206,0,156.70146,107.9511824,-43.52840051,126.8517319,-39.49444695,124.1738024,-30.10984715,0,572.530366,,,,
563.3679996,2200,-4.644334852,-8.545939606,-224.0392074,61.9330995,0,37.14148954,0,134.4988053,11.72869395,-4.532067765,85.3342888,3.539305356,35.43896981,-14.23620336,0,529.9255976,,,,
563.3759996,2200,-18.22662644,-61.05901252,54.02862343,41.67942624,0,8.811229343,0,163.4481884,-70.496788,-10.55062696,-195.3715518,-85.54284833,-54.73699339,-3.732612263,0,592.7198559,,,,
563.3839996,2200,-14.01711084,-36.71063765,-68.24366502,45.68868355,0,-13.24341883,0,110.0681705,159.6849251,-51.00008099,309.2506197,3.725983027,169.0312089,-72.49370171,0,539.940204,,,,
563.3919996,2200,-18.69988208,-30.19556241,-138.2531551,50.42118032,0,36.23041066,0,153.4563757,-143.7650166,-10.59206521,-210.8266353,-64.4069302,-117.2584882,-7.875886572,0,568.3897415,,,,
563.3999996,2200,-3.728616031,-43.38258803,138.0289739,71.25869857,0,-20.16959574,0,153.2382258,107.1052685,-23.1636284,133.6783898,-40.91736028,116.7424138,-40.4961521,0,598.4144477,,,,
563.4079996,2200,-29.95381804,-21.74844093,-197.4383536,79.87418233,0,32.11980138,0,121.4028776,9.027621387,3.414315247,89.10725275,0.920635353,48.89074007,-15.34526015,0,542.173006,,,,
563.4159996,2200,-48.15016742,-78.89750122,69.91817972,51.76823568,0,6.142985649,0,162.902268,-80.46924598,-18.89399976,-208.1348121,-98.29160075,-36.04703927,18.18138965,0,616.2028912,,,,
563.4239996,2200,-38.21314576,-51.98246064,-64.06372205,53.16957196,0,-10.28155072,0,110.0037168,152.9860791,-48.13095532,289.1977004,-9.096639095,182.4321473,-72.03844811,0,580.6135795,,,,
563.4319996,2200,-37.66392572,-45.50356487,-144.8867195,51.81173972,0,32.71198575,0,131.3263527,-143.8638152,-11.06371006,-238.5824402,-85.95241782,-107.7889151,-13.88141941,0,592.9663263,,,,
563.4399996,2200,-23.48523131,-66.51479551,124.0998446,66.41832744,0,-25.51867662,0,128.1755493,107.1654947,-33.42532811,115.3493607,-60.86616925,124.8916501,-51.18142897,0,621.2717882,,,,
563.4479996,2200,-32.17878907,-29.04753709,-213.1536028,78.46952066,0,24.57719285,0,96.03704107,3.601001587,-5.027996775,89.16165893,-5.587215787,51.85600548,-41.20795906,0,580.8035196,,,,
563.4559996,2201,-22.41447563,-61.66406391,71.40020592,70.16439416,0,-0.580148413,0,133.0315531,-72.25791863,-6.97667764,-188.7269477,-94.97825202,-36.07061713,27.10446805,0,644.3945662,,,,
563.4639996,2201,-4.736552483,-36.05743166,-54.78685576,73.67914987,0,-8.51450129,0,73.85540712,179.4579805,-13.21362359,332.3296211,4.377376921,198.9742642,-50.04288083,0,602.5541494,,,,
563.4719996,2201,-17.22611673,-45.12056558,-136.1055037,73.84132178,0,49.07952751,0,108.0922496,-127.3821474,13.41959558,-196.7530709,-74.53128197,-91.74116916,-33.45075491,0,618.0405929,,,,
563.4799996,2201,-14.94087731,-80.61128853,135.8372928,99.95940507,0,-3.444179623,0,131.2637146,114.1969883,-17.10629596,144.9069797,-48.69254563,119.9910344,-25.29740921,0,653.4548148,,,,
563.4879996,2201,-12.17484852,-41.32769473,-212.4992114,97.66227097,0,36.43877466,0,93.28186629,7.180323178,4.868967057,101.9355501,6.07440378,34.22861754,-31.03302497,0,618.2481697,,,,
563.4959996,2201,9.536433298,-61.75589295,78.0784797,88.81915363,0,12.45849549,0,135.7062521,-77.91188846,-10.39330015,-188.3492207,-85.39845447,-40.90208632,-24.82641565,0,676.9330404,,,,
563.5039996,2201,14.54240643,-34.24145836,-36.41511901,101.4043452,0,3.136850975,0,100.2045758,182.6838073,-1.361608362,347.1676796,36.83112695,232.2919293,5.395280434,0,647.4537978,,,,
563.5119996,2201,-10.86898139,-51.20687734,-133.904796,72.82159857,0,39.45115663,0,116.2618838,-122.7516869,27.37829358,-190.8659306,-40.19565481,-74.19096558,38.78168398,0,660.9474809,,,,
563.5199996,2201,1.497856995,-83.15039991,134.18442,64.57792097,0,-20.73082768,0,126.6277884,107.1821393,-34.53170545,132.1059892,-37.78777153,120.5334181,-74.33686947,0,682.3046299,,,,
563.5279996,2201,-0.983538611,-37.00160586,-213.1126153,52.33899928,0,22.50271338,0,107.1786621,9.301000831,-9.818751958,101.663565,14.59443811,63.66243286,-41.06857383,0,662.5370385,,,,
563.5359996,2201,-0.982527083,-61.10554941,66.47743404,55.5298269,0,-7.244680433,0,137.2376573,-76.15406737,-0.833573337,-189.1192706,-81.93970228,-41.06790527,19.35799502,0,724.9905012,,,,
563.5439996,2201,1.309742801,-40.95512805,-48.73224882,70.6001103,0,-12.02532242,0,79.87640585,172.7884134,-9.976541353,338.1616658,27.81346525,196.5871767,-69.55236188,0,688.3927587,,,,
563.5519996,2201,-12.36542601,-44.8029116,-143.1595538,41.51452895,0,33.60153392,0,90.87240842,-131.6908683,12.59090018,-198.6383733,-51.41405881,-90.04967853,-40.15098446,0,706.7518342,,,,
563.5599996,2201,15.75291846,-47.68603846,137.5565412,61.59056605,0,-18.40352881,0,92.41966304,109.9457644,-5.823177099,130.6423233,-42.30378948,129.4461152,10.95007856,0,718.1973047,,,,
563.5679996,2201,7.277300034,-12.93871364,-208.1886999,48.71020789,0,39.08778912,0,63.40423834,22.91986637,24.90947618,106.0669258,13.40254091,68.14088986,9.638363089,0,680.7090174,,,,
563.5759996,2201,-10.593082,-66.18816572,53.15510941,30.72184121,0,4.055864229,0,90.62848057,-74.66983805,-0.375208881,-198.0631966,-96.10845058,-58.38946499,-36.03788132,0,731.2526059,,,,
563.5839996,2201,3.075104779,-35.65998154,-57.27710245,71.77951663,0,-19.0517917,0,51.82434807,160.3848567,-11.16853371,322.423492,10.62957468,177.3934863,-33.02965874,0,691.9340226,,,,
563.5919996,2201,3.828032279,-23.48045271,-131.1157199,74.17002096,0,31.59007778,0,80.86719006,-136.6274132,32.21950892,-208.7382679,-55.18245842,-96.92601854,20.80693629,0,711.0234884,,,,
563.5999996,2201,2.083387891,-53.48517092,158.1454948,100.2657663,0,-11.7570605,0,90.81344621,105.8072755,7.320410492,121.1018732,-36.7055165,133.3820701,-24.64184296,0,720.0168031,,,,
563.6079996,2201,-26.22815168,-36.71103434,-191.9234806,86.36473952,0,30.09382407,0,72.91095792,-0.805584924,8.052525573,86.16752442,17.70866498,65.22994666,-32.34866351,0,691.0252362,,,,
563.6159996,2201,-13.26589174,-60.17937718,78.70823262,63.55603115,0,2.772809786,0,112.000086,-100.3442216,-17.04553321,-232.7280472,-91.89167013,-64.40560386,-64.90571084,0,745.4330204,,,,
563.6239996,2201,9.83161764,-20.35521767,-14.61384029,97.83318473,0,7.868058897,0,87.80410094,157.3956486,-2.968004567,297.3770492,27.96328543,198.9938674,-38.14201806,0,704.4513302,,,,
563.6319996,2201,-11.95576667,-33.91964061,-111.7798544,76.04683545,0,40.08825959,0,107.2279501,-144.6036073,25.08630374,-234.0239102,-41.11263489,-80.58807362,49.14682034,0,729.0721861,,,,
563.6399996,2201,-1.262954605,-59.47883242,158.7683483,84.75599374,0,-28.02569994,0,97.29774187,84.50690652,-19.768422,79.55810126,-41.43900426,115.1407041,-44.22864964,0,728.1873587,,,,
563.6479996,2201,-8.111495161,-25.04690717,-176.0467273,79.91670765,0,22.26257602,0,79.282528,-1.233894362,15.28052571,63.90981686,11.88861214,55.80122818,-27.95026579,0,684.6980006,,,,
563.6559996,2201,-16.03559468,-68.95981617,85.34824797,46.8857085,0,-5.610889932,0,112.7828221,-99.98505045,-3.140966078,-246.48989,-103.5190604,-71.23364796,-12.90761041,0,732.5427379,,,,
563.6639996,2201,2.951773444,-29.2401299,-20.55981374,68.34711402,0,-2.471658186,0,71.8669795,138.8277759,-18.11536943,270.2456205,0.486802907,179.8288765,-69.1390211,0,679.6779987,,,,
563.6719996,2201,-8.324879025,-24.29067754,-112.2958461,49.13718876,0,39.8016459,0,88.16671319,-158.771591,26.8937334,-248.8886974,-68.2729219,-86.85496647,-8.75071277,0,699.4664602,,,,
563.6799996,2201,-7.914648994,-61.45502635,155.8831088,51.97077766,0,-30.16101457,0,87.07762571,71.15587336,-6.539299491,76.60105131,-69.58189002,108.1494535,-58.80944299,0,701.3551096,,,,
563.6879996,2201,9.381500555,-5.230553478,-170.7445546,77.031145,0,17.09447894,0,74.79374895,-7.893131655,28.96822996,70.07741642,-12.26422076,66.27868727,-19.94321146,0,661.630281,,,,
563.6959996,2201,17.76333352,-28.36938405,103.5805629,79.96794456,0,-11.50013308,0,108.9761377,-85.92047641,39.46451591,-223.2358632,-105.4402576,-40.46058779,30.62409075,0,718.2328895,,,,
563.7039996,2201,3.017042178,-28.69851753,-8.897115011,82.77541375,0,-17.09859695,0,80.049519,153.6164381,6.720287802,297.0927362,-0.146607507,183.6347894,-60.28123951,0,673.9005896,,,,
563.7119996,2202,-5.06060107,-26.03073705,-108.5284432,57.46632601,0,24.6907513,0,114.6075426,-153.2787969,21.05158664,-230.9013736,-78.70092126,-94.18387685,-34.59563831,0,707.8944246,,,,
563.7199996,2202,18.6120664,-32.92729554,166.5000513,70.93864382,0,-27.23311983,0,110.8097258,80.29357512,10.33152003,89.54964115,-72.00698203,102.2522302,-26.57928964,0,711.9792842,,,,
563.7279996,2202,10.09768839,0.79600755,-156.1808003,77.50420572,0,36.23249832,0,99.28457191,3.023510371,45.41985651,80.95380205,-7.424920076,54.49925994,1.873648013,0,664.2370567,,,,
563.7359996,2202,3.42516126,-42.98539625,106.8837644,57.34944345,0,-4.523142206,0,134.9630155,-84.88957213,33.52866087,-224.7104639,-101.7000884,-45.38704546,8.224747435,0,725.731888,,,,
563.7439996,2202,-3.511130177,-37.30988347,-18.65098199,39.54158421,0,-21.91292137,0,92.0415332,148.8794176,6.216902796,289.8764655,-2.587144562,180.9437567,-45.33654937,0,668.047018,,,,
563.7519996,2202,-14.80530248,-34.34999477,-121.2749418,7.876662838,0,31.3667863,0,139.5025048,-162.5134136,18.46316369,-233.538067,-79.04567795,-114.8679077,-3.531097579,0,695.052825,,,,
563.7599996,2202,21.73144997,-28.26133647,163.2215968,39.35592925,0,-22.11062261,0,154.1141419,75.62905635,8.285196697,93.55280435,-56.3856352,73.78277823,6.934792362,0,720.539856,,,,
563.7679996,2202,14.92523963,3.812651046,-167.1619412,32.24802436,0,28.73329113,0,129.5300108,4.500907453,49.95335789,91.19654252,5.67748372,52.86521825,24.98820065,0,667.8552924,,,,
563.7759996,2202,1.612495378,-43.42072735,84.55278718,1.256990202,0,-2.742581241,0,162.6760438,-99.84664327,18.6089173,-229.905433,-105.5981719,-59.01531531,-11.97338284,0,712.3603385,,,,
563.7839996,2202,4.793917801,-17.65418208,-18.08654712,29.76417513,0,-14.58731855,0,135.1355664,135.9980102,4.821032703,278.4128064,3.266876348,153.9944286,-3.215661274,0,657.2294073,,,,
563.7919996,2202,-26.88042061,-37.04455245,-119.3626016,10.288914,0,19.26076923,0,180.5837226,-154.5947583,30.30844071,-236.1437123,-60.49414601,-89.86619466,65.57311176,0,690.0721164,,,,
563.7999996,2202,-10.1802253,-56.02263183,139.3276498,11.59660182,0,-46.74047151,0,176.2660466,75.5329592,-28.59292586,77.71146325,-51.96566806,88.13166942,-31.60047995,0,708.9859486,,,,
563.8079996,2202,7.901360317,3.24075806,-184.8709615,18.03720169,0,7.248003376,0,142.1021735,-4.23807728,12.72023961,69.49240072,4.595285548,4.107121665,-1.109608132,0,635.7169005,,,,
563.8159996,2202,5.766704423,-35.37512133,89.21014075,21.36687048,0,-13.92109584,0,195.0979892,-86.37732877,25.27594913,-226.4577037,-78.18564721,-80.31593614,41.17743452,0,691.045271,,,,
563.8239996,2202,7.413525201,-18.47149646,-8.423654373,44.15084548,0,-15.65920648,0,170.2942546,164.1777727,2.103566596,307.6222092,56.32912033,166.4985185,1.765120698,0,666.31947,,,,
563.8319996,2202,-1.940210176,-19.57586051,-113.9222484,16.26600066,0,22.54872044,0,174.9746981,-136.822064,27.4304781,-211.1613112,-17.78973099,-104.7983832,34.76071966,0,673.2004998,,,,
563.8399996,2202,9.074767712,-42.28500778,148.8897857,31.37643402,0,-31.49060624,0,168.7612084,88.23938342,-8.693360781,95.08171389,-13.11303656,90.60302765,-15.99905054,0,663.8884198,,,,
563.8479996,2202,0.362366789,-5.839298788,-177.1913588,25.31558764,0,36.14919243,0,163.9467619,4.761027184,11.25316636,91.15104585,53.61014193,34.33912234,7.769293137,0,615.6428641,,,,
563.8559996,2202,9.06080175,-38.23249956,78.47581831,3.273355045,0,2.664596226,0,195.2925267,-92.2777283,2.34918422,-223.4533154,-47.90216468,-69.71267296,32.62319537,0,670.3627796,,,,
563.8639996,2202,24.9218772,-10.04809802,-31.09269178,26.34063148,0,-23.12345852,0,139.5742509,154.1813394,-14.70392207,293.9146371,65.35957568,140.845471,19.0469969,0,609.6692556,,,,
563.8719996,2202,4.954218359,-11.15133478,-133.2890163,-3.38977818,0,16.69409127,0,146.5856867,-145.3658734,13.30544534,-229.5208147,-15.0208826,-155.4355601,33.67571614,0,599.3345096,,,,
563.8799996,2202,16.63676103,-34.66192375,145.311229,12.59396128,0,-24.15696215,0,155.2079812,82.17109354,-18.13245671,71.14448071,-12.9998925,57.05524409,-23.73405866,0,592.7910716,,,,
563.8879996,2202,17.38700505,9.608331209,-175.0242238,34.38967861,0,35.66239992,0,149.0115571,14.53835959,18.75666106,85.01686152,62.65390089,27.57250901,51.68120475,0,562.0066064,,,,
563.8959996,2202,19.88806219,-13.53795605,75.94233803,15.62285628,0,-9.092949423,0,154.9027116,-84.60102008,16.89218116,-224.66129,-45.22323592,-79.27377614,55.63811084,0,611.3038417,,,,
563.9039996,2202,20.71404563,0.698808359,-20.59153253,32.4686231,0,-18.4745811,0,107.4673865,157.4955272,-3.74712643,293.5791171,55.34682525,137.2223148,-7.95184713,0,526.8816258,,,,
563.9119996,2202,-10.68470112,-21.01795492,-128.3557953,9.278630132,0,28.53845541,0,141.0954682,-135.6548898,17.66149657,-206.8089678,-15.92046799,-137.3826175,51.65018581,0,546.4619711,,,,
563.9199996,2202,4.752392322,-40.41486626,128.6134612,-1.360669545,0,-31.28100112,0,132.3717703,70.16893115,-34.84646597,85.29380009,-26.83859129,43.12553951,-0.761333841,0,560.4248282,,,,
563.9279996,2202,12.36532047,10.38047897,-181.1260266,6.965465044,0,38.48905932,0,119.6129622,-3.685172198,1.523734628,86.46529873,29.62337891,-16.26088962,22.30576575,0,497.551357,,,,
563.9359996,2202,9.691142113,-29.28180732,81.53163216,3.641468131,0,17.31563128,0,158.4228764,-89.98986357,10.63147739,-219.8855618,-64.97076221,-95.10340542,43.0645373,0,553.0118759,,,,
563.9439996,2202,15.76765033,-16.35679023,-19.89279412,21.08254334,0,7.02611325,0,129.4469287,143.5910961,-21.12621168,288.1397229,40.24156884,138.6226388,-0.235591643,0,496.6606888,,,,
563.9519996,2202,-3.499433487,-14.34778297,-116.8120329,16.89567115,0,55.21081632,0,174.7648304,-143.1661436,10.51879371,-212.8603053,-26.75674046,-123.347886,49.80761893,0,524.6785723,,,,
563.9599996,2202,3.40697344,-41.67733662,146.2292932,24.75869455,0,-8.131919995,0,163.5785207,72.08779747,-33.20208828,78.68295547,-27.64184113,68.59028918,-27.26481847,0,545.8452358,,,,
563.9679996,2203,9.781296422,-0.878448042,-182.7738669,21.15519377,0,47.68865628,0,120.9004106,-14.67312534,-14.66734313,59.39834897,10.55363537,-19.19369059,10.48115134,0,472.3852577,,,,
563.9759996,2203,23.69413718,-14.41476568,81.93774617,29.78650218,0,20.89883972,0,145.0763684,-99.94467335,14.76425195,-259.5199832,-94.48116195,-116.6939327,88.90985803,0,505.03873,,,,
563.9839996,2203,22.99877133,-9.462258392,-7.582757581,45.55261651,0,-1.471998455,0,106.9341767,148.182944,-6.427120704,263.8017472,22.71529768,143.0306459,-13.54203982,0,446.7936559,,,,
563.9919996,2203,-4.848918218,-25.00617598,-122.3215279,1.654331831,0,39.08705618,0,131.0976989,-141.2693239,-0.76789422,-230.5538596,-46.48987172,-120.1213331,8.280097192,0,477.207828,,,,
563.9999996,2203,14.38417218,-30.19290623,146.6896903,12.04043273,0,-20.18268627,0,110.7016115,69.72036371,-29.34387163,55.35732509,-50.53689413,57.35164949,9.376820056,0,482.3135961,,,,
564.0079996,2203,8.423548329,-3.514153911,-162.9150662,20.20085139,0,35.71415922,0,96.46663262,-9.910924646,-6.332799629,59.9845048,6.275532694,-2.662618057,-3.28652858,0,426.1263314,,,,
564.0159996,2203,2.794890915,-43.54772548,81.62123596,-1.236756673,0,14.16618918,0,146.7855129,-103.2901523,-7.547710283,-247.4375151,-88.57154326,-86.06009282,-2.607450186,0,502.3148892,,,,
564.0239996,2203,19.19135114,-13.26659047,-11.51152217,14.12982627,0,2.782759731,0,102.0115131,136.8791008,-22.51030951,262.2901107,15.73231595,153.6905471,-50.3972132,0,437.7110081,,,,
564.0319996,2203,9.981843789,-14.03004188,-108.2305955,11.95979229,0,47.51651899,0,143.7052442,-139.843236,11.3401617,-222.834637,-49.93051714,-112.5105912,49.34466511,0,464.6860465,,,,
564.0399996,2203,30.66067485,-26.84157707,150.6196696,31.56185376,0,-24.05427181,0,136.8851165,79.95513935,-7.208685898,72.36409773,-36.66352597,90.03963369,41.04372873,0,492.9811156,,,,
564.0479996,2203,23.64375502,4.81727926,-167.9487031,28.90234676,0,25.47070958,0,100.4411646,0.245851593,11.48905618,65.74893685,8.378366811,23.34301244,-7.158763224,0,403.5096358,,,,
564.0559996,2203,7.696847111,-43.62279058,80.34898731,12.58894897,0,18.44475957,0,152.2139086,-98.81746791,-1.018878273,-247.589683,-97.21001051,-88.86754061,15.13216026,0,460.2672977,,,,
564.0639996,2203,11.66491798,-27.11737775,-27.90216433,12.75667687,0,4.378880822,0,107.3070117,129.1633471,-35.68694495,261.0430157,14.23098396,151.2590385,-42.24907706,0,431.261817,,,,
564.0719996,2203,3.410986773,-22.29133345,-125.34527,1.169254451,0,42.87718187,0,124.629334,-154.8252076,-9.110371661,-242.4114904,-73.60951135,-125.83279,-8.271263898,0,425.9891348,,,,
564.0799996,2203,34.24866312,-28.66656518,165.6292558,41.14330552,0,-9.057408931,0,129.4995467,73.64935833,-12.66412447,59.0067642,-63.31248376,83.76592818,20.83170507,0,431.3157959,,,,
564.0879996,2203,22.4030622,-2.408670499,-152.8499169,31.11294803,0,41.72909842,0,112.4483886,3.940744392,6.644331143,85.51821411,12.48538269,61.68414436,25.44673341,0,399.1370254,,,,
564.0959996,2203,-2.422037356,-55.10626238,80.26617848,4.763281112,0,15.52517461,0,152.114886,-107.9775059,-9.399721424,-241.1150473,-102.0110515,-71.11497239,-9.784908028,0,451.6368814,,,,
564.1039996,2203,8.612847928,-33.18376113,-13.07511075,16.93018987,0,5.330694469,0,117.0292608,119.1877816,-25.54861926,266.5000361,12.04610636,147.1475349,-44.38667144,0,409.5346052,,,,
564.1119996,2203,-4.595803276,-32.28227334,-119.2087603,-14.65671662,0,53.67399473,0,142.4107892,-158.107154,-8.453928687,-216.436933,-55.72316659,-99.55255765,6.17590694,0,445.9460079,,,,
564.1199996,2203,14.51280371,-49.88630927,149.3545315,4.407829413,0,-4.900546906,0,126.1643114,52.34661341,-31.65334045,53.88379697,-68.20268066,77.53069354,-27.68828302,0,439.6852635,,,,
564.1279996,2203,-0.077360605,-26.51352492,-168.1243187,2.322787795,0,39.16953315,0,110.424813,-18.58750592,-6.108741126,64.37664412,-7.835704029,16.30418742,17.08313777,0,389.4853123,,,,
564.1359996,2203,-18.21455069,-68.90253024,65.48379774,-19.54864481,0,14.20776038,0,151.1650238,-116.0301723,-34.63284019,-254.3141889,-120.0077349,-88.0547051,25.21244928,0,464.1900139,,,,
564.1439996,2203,17.6842535,-18.94714942,-17.96946938,14.35875367,0,3.408589757,0,99.53001888,123.7008506,-42.04926419,253.9879426,-13.45804355,150.41508,-57.89248571,0,414.5509568,,,,
564.1519996,2203,5.167029511,-16.0342467,-120.1179624,4.757397994,0,42.27943467,0,132.1742109,-138.468847,7.028042981,-207.583096,-74.63296553,-101.0851462,-10.90848125,0,442.3931412,,,,
564.1599996,2203,-1.942741,-61.35989383,133.5027849,7.562430397,0,-21.1006732,0,123.2338875,73.7459515,-38.00428199,76.23753726,-84.69436878,84.9729526,-7.861108824,0,439.0642736,,,,
564.1679996,2203,-4.190822891,-26.46092256,-183.4410717,0.645637562,0,40.328736,0,97.96006328,0.582711862,-32.3365754,89.16939369,-37.82480993,38.82455249,-20.35937415,0,370.5150619,,,,
564.1759996,2203,-14.71146287,-55.81630608,55.52938533,-4.105898076,0,32.2020898,0,157.1643467,-98.50814327,-30.43593481,-220.8193206,-132.296171,-70.53363615,-9.866691656,0,445.9992708,,,,
