Time:125Hz,Epoch,FP1,FP2,C3,C4,P7,P8,O1,O2,F7,F8,F3,F4,T7,T8,P3,P4,Event Id,,,
432.1519997,1688,-14.38491996,4.612149622,-272.6399555,40.52990353,0,34.94638669,0,30.27297985,-133.7204304,41.58775048,-172.8043218,126.7424133,-106.3598856,29.3477045,0,-84.29251143,1111,,,
432.1599997,1688,-2.659689363,-40.84160537,33.75756369,20.9791862,0,-18.33301119,0,57.76315726,12.22233221,-14.08435183,-36.07302808,91.30402183,0.725326733,-28.70229198,0,-31.58662725,,,,
432.1679997,1688,24.49579751,38.36990625,-262.2071299,33.8889188,0,8.086852382,0,-3.515369431,92.53597548,14.26370835,167.4513877,186.8731258,85.81696222,-34.50204722,0,-96.85636959,,,,
432.1759997,1688,9.691117898,-5.321578892,-69.7174399,33.48904176,0,13.52071008,0,38.07764086,-172.5505863,45.40779652,-315.4858542,62.9688999,-152.2288888,5.172228687,0,-67.91464353,,,,
432.1839997,1688,15.01814222,-4.548746662,-87.83829439,27.25803036,0,-22.74600184,0,19.82484547,200.5482989,-12.82238448,263.5212103,170.9297434,162.662213,-54.24639743,0,-72.29956925,,,,
432.1919997,1688,6.111488522,21.60556903,-282.5845029,21.84759241,0,29.62765416,0,13.23931397,-139.9930077,38.69513823,-182.8464257,127.6222565,-130.0538286,3.796651274,0,-92.87124902,,,,
432.1999997,1688,4.434077084,-40.63785641,32.46471339,14.47470103,0,-24.98309936,0,41.83463689,20.41793008,-7.032964102,-28.82522309,85.04880133,-3.800871556,-44.87696958,0,-51.00487683,,,,
432.2079997,1688,4.932196501,23.34977862,-270.3893939,21.23233465,0,10.02012561,0,7.226726214,92.87319793,8.423036356,174.8401172,186.7674518,80.52230491,-18.73236155,0,-98.27769822,,,,
432.2159997,1688,5.863911054,-2.389224155,-71.50245823,20.80892513,0,18.86478483,0,47.19066036,-187.148224,40.50852177,-314.4620102,69.08731476,-159.9301023,39.08673938,0,-54.5618663,,,,
432.2239997,1688,5.00586275,-11.70234265,-82.51114582,18.43605329,0,-17.43598204,0,17.09442168,195.0623907,-9.234498082,266.7051429,171.4068543,167.4813589,-50.87999396,0,-77.40985331,,,,
432.2319997,1688,-4.816035691,14.86157185,-284.3436588,7.448390037,0,38.18082645,0,6.120493101,-140.3127476,24.22144495,-185.1407936,123.0398438,-123.4698776,-16.90269546,0,-102.2534597,,,,
432.2399997,1688,15.9942714,-26.26766282,34.30650702,17.5001332,0,-13.04041432,0,27.49945646,22.89092264,-11.32326218,-32.86404307,83.84340755,-8.742691806,-10.75369491,0,-65.97651379,,,,
432.2479997,1688,3.95102961,22.32531473,-272.1883382,29.75024609,0,20.18544817,0,-11.24629066,100.4500368,3.189692282,172.6417992,183.7122735,78.97435829,2.596642682,0,-121.8677064,,,,
432.2559997,1688,5.637391413,5.570742871,-66.20851765,33.32501111,0,31.47149023,0,26.64170765,-175.9150706,41.90620936,-316.6349201,62.59840008,-154.7626114,15.16540125,0,-75.67555358,,,,
432.2639997,1688,15.51273845,4.340772879,-64.42262489,36.89160579,0,-8.534906096,0,-5.324248163,214.8478854,10.55459648,273.278936,170.7522669,168.702587,-25.08194733,0,-99.90350003,,,,
432.2719997,1688,-20.86386236,1.832091018,-281.2350326,4.895800191,0,32.66675697,0,-10.80882213,-123.0451717,12.5376759,-178.669417,121.1844007,-107.6958108,28.07521142,0,-117.4774999,,,,
432.2799997,1688,-1.018924839,-25.40336204,31.2841925,17.24141519,0,-15.96350232,0,21.8324778,26.44729609,-17.98190677,-34.2957217,79.15865872,13.11404742,-13.30994213,0,-68.32906202,,,,
432.2879997,1688,3.11239198,32.81885579,-275.4673292,32.66208537,0,19.84103218,0,-15.66895304,98.98164121,20.93510672,173.6830383,184.5857281,68.11932681,-11.76657288,0,-122.7623755,,,,
432.2959997,1688,-4.15128321,-9.793723956,-83.99788566,14.03742577,0,17.19037677,0,19.88536272,-185.1462054,14.28031762,-320.8048593,55.20571105,-181.8948622,0.421956683,0,-74.71238598,,,,
432.3039997,1688,11.77202005,1.267176464,-82.96752179,29.2122787,0,-26.86441547,0,-8.035371371,196.9956026,-22.29833305,260.2825699,154.4059831,148.9184735,-36.24025473,0,-95.279035,,,,
432.3119997,1688,-12.53414925,16.14758494,-287.2014975,18.36230143,0,24.65624618,0,-5.718365249,-130.37957,26.42886846,-177.9196425,119.5760012,-134.8886934,56.60571457,0,-109.4572977,,,,
432.3199997,1688,8.853606332,-16.01350354,27.54619175,19.51984049,0,-31.08791934,0,15.75170343,29.0855767,-13.69435343,-29.11115822,82.70382743,-12.09751541,3.552468996,0,-56.95114474,,,,
432.3279997,1688,14.62925149,41.66012809,-276.9819783,34.3270283,0,-8.163747751,0,-37.8609414,103.5439194,11.16638339,162.2874212,169.226342,66.42685989,-5.45014222,0,-131.6014638,,,,
432.3359997,1688,-5.545448753,-12.74139882,-82.63074745,27.16216414,0,8.277679431,0,26.42337579,-172.1210767,19.07722048,-321.9748826,44.83547771,-163.6264513,19.97986068,0,-87.68982964,,,,
432.3439997,1688,7.790363572,-1.713202124,-92.31183583,34.83581858,0,-21.25759929,0,18.42298027,208.6857634,-16.14780545,271.9794264,164.9122584,169.6275964,-43.89362107,0,-76.72969779,,,,
432.3519997,1688,-2.805746658,26.8029507,-297.5407444,23.16557762,0,19.53010827,0,-2.24552453,-125.6337807,33.33758652,-177.4459968,121.3207274,-119.3096392,54.83346668,0,-100.232032,,,,
432.3599997,1688,8.889407276,-19.42383735,19.65734359,27.81376623,0,-34.96460787,0,23.67275992,36.05632941,-21.29917319,-23.82921085,77.68558251,5.200604688,-12.23769848,0,-63.86353505,,,,
432.3679997,1688,-0.322136999,30.18868862,-291.4776751,34.72671842,0,8.613037746,0,3.304116869,108.2092453,-6.286958836,185.9155475,186.8328763,79.42758005,-37.62948762,0,-98.72790134,,,,
432.3759997,1688,-7.873916285,-9.905395401,-102.8937724,15.24170564,0,16.47894614,0,42.88741434,-174.1516606,21.73370783,-298.9404859,64.94110002,-172.7509468,42.94245716,0,-46.1734288,,,,
432.3839997,1689,14.62589515,-0.255104965,-118.5322559,14.98475746,0,-39.83424601,0,-7.656572317,202.466969,-33.42837361,281.276975,153.4614131,141.7638696,-38.32336002,0,-79.76297552,,,,
432.3919997,1689,-1.925460616,33.13825221,-310.0984714,23.82455679,0,18.98234822,0,-9.938645794,-131.0934457,6.29209897,-163.1018449,108.7427243,-137.7100266,25.62734829,0,-106.2772894,,,,
432.3999997,1689,7.563698287,-8.110957776,24.16136199,42.1808439,0,-20.19238246,0,22.43575806,32.67089299,-3.345401801,-0.964893592,82.96791861,9.016872547,26.52768768,0,-61.01224124,,,,
432.4079997,1689,-7.745430723,21.37685914,-294.4002124,33.80382741,0,13.10437937,0,-5.760755363,101.3411105,-1.987192784,194.3024074,181.7082637,92.52588171,-4.406938063,0,-110.0984765,,,,
432.4159997,1689,-10.05046388,-10.24587923,-113.4298717,13.75453586,0,23.68544619,0,47.6125549,-183.4597482,-5.241498559,-302.6235727,56.48803999,-163.3796909,22.6032689,0,-41.19488539,,,,
432.4239997,1689,22.96959416,19.75936472,-116.9224979,28.57102009,0,-25.35240046,0,2.337520923,201.2229428,-22.84664937,277.0560303,156.1520026,151.7273854,-24.35703367,0,-66.71666995,,,,
432.4319997,1689,-0.032806855,33.47264795,-310.2399221,30.42187545,0,34.03363855,0,2.906811848,-118.5348737,30.88798772,-167.2582752,115.8701608,-124.2497183,36.57925053,0,-98.48340336,,,,
432.4399997,1689,7.135546499,-15.68907321,3.522042302,32.17684601,0,-13.93696707,0,26.27969856,46.68670208,-12.68746769,-9.201030336,86.0861507,7.409978105,-1.319119208,0,-44.21222236,,,,
432.4479997,1689,10.34779663,49.10298484,-301.2193032,37.55672143,0,11.83262001,0,-30.60582534,109.829482,4.915596599,184.4365394,180.0450101,76.10258106,-10.7660975,0,-109.8370451,,,,
432.4559997,1689,9.855804181,15.71948843,-97.09057967,31.79501098,0,26.57495287,0,19.63511531,-163.2950793,42.2836241,-293.0287789,65.66823326,-168.0265378,45.58599166,0,-60.09464072,,,,
432.4639997,1689,18.88223598,10.77732841,-113.5782904,37.2834503,0,-18.7809622,0,-4.745407649,223.8321045,-0.517906862,296.6130665,171.4064466,156.7884937,-10.00676919,0,-72.86551699,,,,
432.4719997,1689,8.401695163,45.78539501,-314.0156328,38.53370304,0,36.43966593,0,-8.926103798,-118.0355271,35.03877036,-160.0922936,125.5999205,-120.6520971,51.06486023,0,-90.29373879,,,,
432.4799997,1689,39.63191921,19.31439075,17.64703766,53.56765676,0,-9.415978534,0,1.550707047,48.53817859,29.88411462,6.525553493,101.2417075,13.29645291,47.87130807,0,-43.60973078,,,,
432.4879997,1689,27.12333433,54.11859233,-294.7070408,54.15851561,0,17.71095781,0,-47.99826343,124.8371391,35.36480861,205.1714149,195.5749801,83.9943088,32.88146349,0,-112.0586784,,,,
432.4959997,1689,6.318148575,5.658266783,-110.5212388,35.46013356,0,32.00355077,0,13.25025517,-159.653789,24.02442928,-293.3527859,72.42226994,-144.6693356,42.52860081,0,-50.25399751,,,,
432.5039997,1689,14.26238758,13.76200285,-119.7951209,42.68995487,0,-14.43455309,0,-14.84979725,218.8789401,-15.01624564,288.1816859,179.6248629,190.2148026,-21.53878335,0,-51.75599548,,,,
432.5119997,1689,-2.202639198,38.05195182,-316.040733,41.05160359,0,27.44451686,0,-25.67650748,-115.009742,28.13182264,-168.3411422,124.6917968,-103.8807829,36.18862255,0,-79.31555433,,,,
432.5199997,1689,9.968661291,-10.08976701,2.226750458,44.14934392,0,-25.19919124,0,-7.313274271,49.97257738,2.155580242,-12.96599883,89.14043496,24.44722823,13.43702869,0,-45.99987102,,,,
432.5279997,1689,-1.993221971,27.40500191,-317.664413,37.91350441,0,-2.629723805,0,-57.98720624,112.2187334,0.781851414,175.8875765,182.2165629,90.6101972,-1.463282162,0,-106.0552655,,,,
432.5359997,1689,-7.803105364,-12.9183064,-126.2579503,26.20964148,0,9.112368915,0,-12.31742426,-176.0694277,2.227879179,-318.4898138,44.78627789,-174.8893077,17.429745,0,-61.25583818,,,,
432.5439997,1689,3.920403058,-7.129669437,-128.5131575,36.11924365,0,-20.4009255,0,-30.38348557,204.8126038,-30.65156101,273.6992269,153.0187855,153.1435992,-41.55590219,0,-73.24736382,,,,
432.5519997,1689,-6.865347239,18.91602072,-322.1477512,25.14694367,0,26.57294477,0,-19.25706923,-123.3408148,6.660133639,-173.0147686,117.0399878,-100.964115,20.44371326,0,-65.97470852,,,,
432.5599997,1689,11.81545281,-12.72236871,4.31507013,38.74612072,0,-30.93523326,0,0.35693185,49.18569327,-16.53991589,-8.638445346,86.81172226,28.23639865,13.39608148,0,-21.36878697,,,,
432.5679997,1689,-5.130730119,38.12069026,-309.0885153,53.93079075,0,1.738110134,0,-46.17634615,106.2875797,2.801079728,187.910646,189.2119281,83.27827987,8.623298343,0,-86.40011941,,,,
432.5759997,1689,-10.01578173,-8.560760519,-129.8498364,30.59379474,0,-3.866200252,0,-13.02283658,-182.6074928,12.52429824,-300.3296584,64.89580935,-150.7935554,27.00882142,0,-30.75844905,,,,
432.5839997,1689,13.25121778,-0.476602336,-132.7497446,27.91518184,0,-53.82535185,0,-66.05691373,210.4895619,-33.28498187,283.33541,157.9783122,179.2857539,-35.42909506,0,-74.46468554,,,,
432.5919997,1689,-1.128431416,37.02873281,-313.1377022,34.35033541,0,20.06272302,0,-55.03235909,-113.4167158,15.5020787,-167.6439594,114.6473808,-99.14726909,30.53136919,0,-96.08985805,,,,
432.5999997,1689,8.262438893,-8.958073352,-2.673797201,37.49221997,0,-28.99903298,0,-26.22655173,54.90775548,4.165480476,0.246412797,99.75919937,45.64290717,-9.490066216,0,-24.48069662,,,,
432.6079997,1689,-5.712117787,27.07660651,-318.876785,36.83086667,0,-10.64566475,0,-78.97649633,116.9324289,3.117513651,180.9784342,186.9532003,107.8411081,-39.75703024,0,-88.78068047,,,,
432.6159997,1689,-14.73823457,-15.13742241,-119.5137034,38.59823824,0,1.045571456,0,-23.50670824,-165.1839814,6.676057524,-307.8922547,53.65694725,-140.2709595,70.57272667,0,-27.22988354,,,,
432.6239997,1689,-4.10310826,-16.40750001,-133.7545142,32.24468229,0,-44.9061222,0,-57.32507043,217.0646634,-38.7058201,284.2214041,159.4455872,196.5646211,-10.74632812,0,-35.23075047,,,,
432.6319997,1689,-20.80786387,7.610810584,-328.471734,9.711648958,0,10.37953591,0,-59.10271733,-120.7411949,-14.96644695,-183.8441014,93.37427707,-95.47190487,-55.08350147,0,-70.19002412,,,,
432.6399997,1690,2.163745142,-25.39482548,-0.933910769,22.18803454,0,-26.52130425,0,-29.75525927,47.50107265,-40.21841948,-16.60394289,56.68973421,23.62521725,-49.99853464,0,-23.10452079,,,,
432.6479997,1690,10.3339319,32.74543577,-301.2503634,40.02891717,0,3.316090785,0,-73.15583326,114.0578478,-21.46798606,183.3049039,162.8368791,93.44777519,-35.62504157,0,-74.16611587,,,,
432.6559997,1690,16.20409737,6.069914211,-103.9405877,48.40481873,0,-1.294351183,0,-37.20138649,-162.5066774,7.486975291,-305.942591,43.56849303,-144.048658,39.6994383,0,-21.38074317,,,,
432.6639997,1690,23.23156927,10.8417995,-108.9090029,59.27812242,0,-35.79502426,0,-80.91271206,226.9991485,-20.37528777,281.62523,147.9472847,195.4985032,-31.19081523,0,-65.76363754,,,,
432.6719997,1690,-3.933778405,30.46732342,-299.110234,46.86769054,0,38.22575858,0,-61.6965568,-109.4459846,12.08709554,-175.1889265,106.3825119,-83.29173236,-27.58894412,0,-82.60325357,,,,
432.6799997,1690,7.439317001,-14.31401605,-1.52383004,43.27111979,0,-21.33583518,0,-35.29375068,51.47134076,-16.32994816,-10.37190077,86.70081655,44.97478795,-22.10686024,0,-9.040573644,,,,
432.6879997,1690,0.671847189,26.63685982,-314.0192325,45.91253961,0,3.870486121,0,-83.25016308,111.107294,-9.601118971,173.0552327,171.4188658,114.9136776,-30.94655554,0,-85.10394802,,,,
432.6959997,1690,-3.340230391,-10.16449032,-113.535365,39.59255496,0,21.17081093,0,-10.29380031,-163.5932383,-6.521237963,-309.3130242,48.38270611,-117.7185118,29.48716116,0,-17.86157432,,,,
432.7039997,1690,8.605708609,-1.954821691,-136.915061,40.25887693,0,-19.56862725,0,-32.20813563,221.7947667,-43.56985657,281.4969208,162.9859451,206.9497339,-16.68375033,0,-14.99163592,,,,
432.7119997,1690,3.931098437,28.74402664,-321.4013928,38.12962082,0,35.61777797,0,-35.52895954,-121.6457897,12.30915895,-185.0666282,112.4687917,-91.29896922,6.291514651,0,-35.76695614,,,,
432.7199997,1690,32.43058079,-6.692676508,-8.253142438,36.97773359,0,-32.90852125,0,-29.89572981,52.70013299,-11.46075085,-13.15177476,82.36325694,44.03365345,-8.834842751,0,21.8247756,,,,
432.7279997,1690,21.22321872,35.54028774,-325.6341514,40.8499094,0,-14.73172357,0,-96.8490629,123.6214794,-3.878700152,170.2806573,160.5121433,98.83242416,3.838504176,0,-62.27241954,,,,
432.7359997,1690,12.10590749,-2.485759955,-115.2325115,47.16544743,0,2.231182094,0,-46.67519609,-158.6827679,14.22732525,-317.3211438,33.39108386,-150.2465515,27.76052446,0,-26.23993231,,,,
432.7439997,1690,26.26512753,7.208200829,-134.1960351,50.5110672,0,-31.54734076,0,-59.51384865,230.6226858,-28.83237018,290.3263729,156.8757183,205.4316517,-44.01184592,0,-23.70371524,,,,
432.7519997,1690,4.615897155,30.37786882,-330.64698,51.09525371,0,32.29389512,0,-30.34180598,-97.79827499,21.4343861,-158.6519622,118.990653,-73.61816558,58.62971734,0,-15.97874584,,,,
432.7599997,1690,18.35988201,-11.17160258,-16.83513945,55.27217766,0,-28.32040566,0,-9.622383747,72.13929041,1.973027801,10.89041947,93.02162106,44.88753703,12.74851147,0,45.08848818,,,,
432.7679997,1690,16.08967308,34.57577716,-336.4815366,51.64656728,0,-0.928597423,0,-67.22778829,132.713675,3.536804669,189.3536791,174.865873,94.27967397,-26.41793939,0,-27.59253072,,,,
432.7759997,1690,16.51173386,1.507547777,-131.7784678,56.83286369,0,21.34314868,0,-7.404491626,-142.2606885,21.4275536,-292.115225,48.51488811,-146.0713348,77.63213243,0,26.49371467,,,,
432.7839997,1690,40.0144104,18.23866148,-147.588434,55.81561329,0,-28.92223228,0,-52.93986448,251.4636223,-9.643008622,312.1631001,162.0872909,190.0799942,7.665155069,0,7.716301746,,,,
432.7919997,1690,15.11898768,31.04689958,-339.157955,38.00123479,0,25.83586748,0,-51.73934975,-84.93387234,29.51202526,-154.2801503,109.4203217,-110.6732964,33.47726051,0,-23.291864,,,,
432.7999997,1690,21.8071138,-17.11432978,-15.79314441,49.56118125,0,-16.36780277,0,-5.146557434,83.15537191,-13.57907051,12.3352002,85.73466393,35.97014981,27.80537065,0,39.99739058,,,,
432.8079997,1690,22.11911021,35.90216812,-332.4843139,47.8237622,0,10.12494869,0,-48.88779979,148.5523131,-8.023523524,196.8205134,184.4387548,114.4427247,3.425751421,0,-9.244691569,,,,
432.8159997,1690,13.40216419,-5.628194727,-136.9009704,24.52836034,0,14.92627839,0,-1.066035316,-128.4120101,9.048649199,-295.9649315,55.8352395,-138.2491535,22.12172743,0,46.23891958,,,,
432.8239997,1690,28.26151097,10.91902394,-150.9264856,28.68279553,0,-24.54084255,0,-33.26168777,245.945981,-32.14114377,291.0511118,161.1987774,181.9477366,-22.29936162,0,32.18083306,,,,
432.8319997,1690,14.11874155,28.10072116,-339.3878466,24.09122993,0,34.65781075,0,-25.7900095,-103.982991,17.37093744,-171.9742952,116.8323941,-100.5052877,57.29867427,0,17.70611461,,,,
432.8399997,1690,29.85447295,-25.69034356,-19.45592817,19.73068789,0,-27.1141813,0,-7.343680795,75.51717942,-21.39290179,4.703055437,89.44910223,54.04814561,27.65990492,0,72.09180168,,,,
432.8479997,1690,16.12719878,26.83181527,-324.9874074,28.50853571,0,4.090200808,0,-54.02956285,141.946659,-14.93012234,189.9391313,172.2562418,104.101005,30.74703827,0,-1.075228606,,,,
432.8559997,1690,0.369832493,-16.18769968,-123.3512155,22.03832432,0,17.45322644,0,9.839594728,-145.7725948,5.935775342,-293.5379438,46.19720764,-150.6979636,58.80105432,0,59.0116196,,,,
432.8639997,1690,26.04860879,-2.601328581,-137.724673,19.67756905,0,-32.78008915,0,-36.40372213,239.8509998,-42.41637978,306.19786,154.5099943,173.402858,-52.42445765,0,42.47994911,,,,
432.8719997,1690,7.81274175,14.76681662,-317.7085767,27.00158936,0,31.4105707,0,-31.37179256,-92.92536777,-2.783622827,-156.7419925,99.11488353,-121.2784494,13.985608,0,4.887859029,,,,
432.8799997,1690,20.39191056,-31.07358678,-6.953654647,37.32385249,0,-18.4167216,0,10.5443154,82.04455325,-29.88672676,15.90886504,82.25423349,37.27178066,30.04495834,0,76.73559957,,,,
432.8879997,1690,26.24887156,36.2197152,-320.3650548,38.35873154,0,8.330216266,0,-44.66691858,143.4378342,-4.051852921,202.8752561,184.4676352,93.73859137,23.40108848,0,25.06758019,,,,
432.8959997,1691,25.73899954,4.519930301,-109.13251,32.70793154,0,21.26324275,0,-3.680369097,-130.2147045,11.28431658,-275.3168829,52.92232294,-152.5855019,49.92645805,0,60.64073725,,,,
432.9039997,1691,44.39995222,18.08560941,-133.8114898,36.64905368,0,-24.47601069,0,-49.28685549,263.0805738,-25.09545243,329.7689408,166.2942366,184.5957038,19.71972524,0,35.79947528,,,,
432.9119997,1691,11.20104741,24.90612892,-328.0123457,28.13380205,0,33.1013988,0,-57.57662228,-76.32400005,33.34998257,-133.432984,121.0015581,-116.6186265,88.15308205,0,2.474096936,,,,
432.9199997,1691,9.078020666,-41.92134059,-17.22356331,13.53085825,0,-23.90807348,0,-38.97545342,87.07707175,-25.35740621,25.68440837,78.85354409,20.89533619,-4.199759392,0,43.5220548,,,,
432.9279997,1691,3.688164391,10.37050086,-339.0373448,13.22691883,0,-1.557860096,0,-81.86129735,131.4036444,-35.22702625,196.8857389,162.2390732,69.38979386,-31.4434311,0,-14.29724348,,,,
432.9359997,1691,1.098084867,-17.60037325,-126.0108052,25.97661723,0,14.97523793,0,-10.5571381,-149.7830518,-0.476593407,-285.5011345,53.79376405,-169.5328085,75.5581313,0,59.79651082,,,,
432.9439997,1691,26.44202834,0.265714673,-136.9281166,28.42929541,0,-25.15346953,0,-39.19934036,246.7298132,-33.81011499,315.0876709,180.993652,189.1397376,5.185852167,0,69.05900506,,,,
432.9519997,1691,5.183954659,17.15283526,-327.9412896,22.99269191,0,28.83763558,0,-46.31234768,-89.41621782,13.72077513,-148.6189922,124.9866979,-106.1436772,47.32367697,0,47.8031757,,,,
432.9599997,1691,12.74656993,-37.12531377,-9.981602773,35.82828816,0,-18.78036508,0,-23.01097358,78.67727799,-10.28646966,22.94225556,89.06306892,17.86487179,81.11207729,0,86.68829722,,,,
432.9679997,1691,15.54497086,11.7985903,-325.9649978,31.08496846,0,7.294363932,0,-71.50913507,134.3868987,-18.00215219,204.644543,176.1716147,79.25011267,37.79596551,0,28.45921062,,,,
432.9759997,1691,9.667745215,-23.09075487,-123.0441035,26.67651028,0,9.804509686,0,-38.16146946,-139.0935228,-0.619188358,-279.5869597,37.84348007,-164.9324584,54.99995163,0,71.2423225,,,,
432.9839997,1691,17.67390892,-10.71330282,-139.6871162,35.7778382,0,-24.23378919,0,-78.76753709,245.2236675,-27.56136923,309.3061285,146.4679683,161.9330223,28.00820832,0,38.86238934,,,,
432.9919997,1691,-6.693033178,-0.506673714,-328.270797,15.50106425,0,41.22523708,0,-64.38988648,-97.90918715,1.228968649,-153.3524315,107.4634764,-123.766703,62.83970123,0,31.09710666,,,,
432.9999997,1691,9.492906938,-44.43299201,-18.33401923,9.502439793,0,-9.147569189,0,-46.45358721,77.08617722,-42.74120678,17.503162,73.19182848,14.16343114,26.4404738,0,79.90249297,,,,
433.0079997,1691,4.349390341,9.175700209,-336.4580613,28.45297143,0,27.94901279,0,-88.55934584,130.7080891,-22.51088679,186.0415301,157.8675113,76.13483875,35.0596967,0,7.810393018,,,,
433.0159997,1691,-3.293973863,-38.57530392,-126.2865699,31.921631,0,34.03874028,0,-29.84369537,-141.923852,7.713752237,-289.6389936,40.65508486,-153.81968,99.02223961,0,68.85391482,,,,
433.0239997,1691,25.21762236,-11.33539847,-138.2972111,28.02054669,0,-20.95663822,0,-88.71533066,249.488903,-42.9629075,309.3468708,148.2618009,164.7225677,0.415800859,0,37.92282534,,,,
433.0319997,1691,2.753641475,11.25685053,-317.2668614,28.45383385,0,42.55987688,0,-79.19052533,-95.80410719,-1.591885572,-153.0784325,102.8112679,-125.6364137,34.63199483,0,9.132414723,,,,
433.0399997,1691,6.641117794,-45.66389445,-7.959999135,32.32544399,0,-2.167885108,0,-29.5529686,75.20348141,-23.74636111,28.7617075,89.82693596,32.02358695,71.85872248,0,80.77048336,,,,
433.0479997,1691,5.957772343,17.12969769,-330.2058407,26.8069372,0,27.0924757,0,-76.66737018,127.1670051,-17.82676701,195.9599658,177.7325865,85.99208876,40.43681113,0,26.19563286,,,,
433.0559997,1691,-0.121463189,-21.22341083,-118.5846373,19.43252863,0,32.86784526,0,-37.19297072,-152.1701471,9.682361798,-291.2088068,46.45951293,-166.2628714,55.83762617,0,72.12040257,,,,
433.0639997,1691,12.35509772,-19.80621199,-144.0451586,20.85680559,0,-21.62753772,0,-82.57514167,236.5127502,-25.52275999,308.1607312,157.1328969,151.8943062,23.45397815,0,41.36204454,,,,
433.0719997,1691,-10.64293912,-8.522466467,-336.0276634,15.23736217,0,30.23340611,0,-71.48158413,-104.9958495,-2.598796399,-153.5151068,110.1019133,-128.1077608,57.52275444,0,17.49617678,,,,
433.0799997,1691,4.771062121,-53.9343543,-20.19578918,17.76571025,0,-18.3239378,0,-41.88042719,64.654599,-43.90536447,26.46321945,89.21546846,23.95734275,12.97740202,0,79.35197204,,,,
433.0879997,1691,3.210574503,5.925174736,-333.8774806,29.502775,0,17.95199478,0,-81.66236474,121.9630538,-25.70061518,197.8609988,183.7199627,67.00326521,10.72110609,0,19.69447393,,,,
433.0959997,1691,4.55968759,-24.54518311,-120.0000878,33.93006315,0,28.18009788,0,-18.36357399,-139.6385918,8.331282275,-275.6441289,66.29825325,-157.7700705,112.9871314,0,85.53126681,,,,
433.1039997,1691,27.0045137,-5.109314021,-138.0630526,27.36654704,0,-23.30219963,0,-70.21104019,249.518368,-20.94732556,328.8410543,176.6119931,189.2780074,58.40736851,0,69.71852095,,,,
433.1119997,1691,10.2626583,22.45333977,-314.4610993,22.85854373,0,27.68252606,0,-88.56942789,-100.8338908,22.37320613,-143.7165764,109.1721787,-112.0370447,55.14878554,0,21.29814448,,,,
433.1199997,1691,21.15523477,-26.52174993,6.465425218,36.03013962,0,-15.87173194,0,-52.90482034,78.80040123,-6.968912149,41.2852238,86.12899883,36.52653364,47.73501092,0,69.2281724,,,,
433.1279997,1691,-6.168505397,-1.14173884,-323.438448,21.94163002,0,16.54951083,0,-75.41349554,130.4547241,-13.76689107,219.6233977,187.7728447,93.25871103,12.98968447,0,29.61953771,,,,
433.1359997,1691,-29.22066144,-55.03125685,-121.934259,1.110956359,0,12.58190791,0,-13.33901562,-160.1846203,-16.90101445,-274.382379,52.28577032,-159.9307151,42.51858475,0,94.44557832,,,,
433.1439997,1691,-4.231680099,-32.91207371,-131.8970389,14.96146973,0,-22.93410756,0,-37.52092022,225.0036607,-52.36492815,309.4004901,161.2928701,179.5869524,24.26048064,0,84.55885049,,,,
433.1519997,1692,-0.207113199,11.87095591,-298.0572677,26.5685151,0,51.23910303,0,-21.99783033,-104.7033366,5.859051522,-159.4201169,117.8941322,-101.9240298,56.91015343,0,83.63926244,,,,
433.1599997,1692,21.79062814,-26.26484592,23.57671308,32.4583666,0,-5.995821346,0,-6.469291163,77.61898848,-3.134595474,24.80389967,94.74856502,33.49530065,52.44169364,0,146.1691203,,,,
433.1679997,1692,15.1090172,16.35834133,-292.1122443,30.72781002,0,12.44462028,0,-82.93330564,127.5294385,5.332391982,185.3412928,173.4159458,80.97720418,39.45269935,0,66.51782526,,,,
433.1759997,1692,0.49940895,-27.40837694,-78.81513221,32.7701124,0,26.25702207,0,-32.41979328,-142.0538884,13.10171653,-295.0995092,37.80493298,-148.5526179,56.5249574,0,104.3487427,,,,
433.1839997,1692,8.89844,-24.48282617,-111.4833475,35.71553573,0,-17.76950828,0,-57.9931717,240.5159359,-20.94557703,309.0361149,156.2114135,196.2931214,43.23638562,0,91.64397973,,,,
433.1919997,1692,-0.897822593,0.003484568,-296.8036158,24.80275397,0,28.45617547,0,-71.49509276,-111.6972885,7.029942555,-167.3773936,96.43257969,-99.82057987,62.13994594,0,63.02448566,,,,
433.1999997,1692,-10.46540457,-62.41892157,14.56921234,24.683696,0,-18.88583293,0,-38.51795378,65.19761329,-28.6292801,14.86919486,65.48640799,30.43318522,-0.676050908,0,100.2961398,,,,
433.2079997,1692,-24.10526988,-27.59623976,-322.2007925,8.098399302,0,0.027737148,0,-89.94345228,103.5577395,-30.05293977,167.9220132,147.7118437,72.05850504,-1.253512002,0,34.8246715,,,,
433.2159997,1692,8.694619012,-31.44200647,-98.10487088,16.70380451,0,6.822980719,0,-54.39414024,-162.6946044,-20.22963436,-314.9436813,6.196911422,-146.2764422,47.69159691,0,73.76685763,,,,
433.2239997,1692,23.67456503,-11.68614279,-103.8859357,54.51123574,0,-9.085228369,0,-61.10144578,241.2361626,-14.77039249,310.1230114,138.1097288,208.5165008,23.82055096,0,52.870424,,,,
433.2319997,1692,-15.38093255,-21.32456645,-304.5114412,28.01583683,0,40.09833231,0,-46.42523153,-116.2741625,13.20591696,-164.8351479,91.10110731,-87.86403864,46.79023783,0,49.06120427,,,,
433.2399997,1692,-2.98195102,-73.68656397,0.449327164,11.9445728,0,-27.18220248,0,-26.2594455,55.54905209,-58.01999757,6.362181293,46.09400172,59.95685338,-13.87692214,0,98.2438198,,,,
433.2479997,1692,-6.376813227,-13.21487398,-306.6252875,27.79330578,0,4.328473629,0,-64.98310704,108.5935791,-26.79555229,175.0052971,137.7911809,100.8943691,16.84132084,0,29.83983333,,,,
433.2559997,1692,-10.34735692,-47.91456822,-93.99454678,19.49016378,0,8.807965767,0,-7.213504417,-159.578304,-5.600095291,-300.6361649,19.11044103,-141.0133364,73.54669344,0,97.18922013,,,,
433.2639997,1692,-4.716197391,-41.75289535,-127.4800429,14.44671178,0,-35.00832306,0,-37.59415026,228.2521813,-46.16210812,295.2815771,133.4151964,195.8250179,-7.564530637,0,85.89716063,,,,
433.2719997,1692,-30.94919852,-25.62887652,-311.631556,2.304810842,0,14.80661348,0,-46.22980905,-129.9749487,-4.127625816,-193.5540085,72.19988356,-123.9159906,23.94895441,0,56.25961408,,,,
433.2799997,1692,-7.041435511,-64.07853086,8.683896993,10.20111139,0,-39.51119073,0,-34.33057092,50.96785494,-37.56667728,-12.07776214,47.21679249,17.76746178,-3.052210549,0,101.6186743,,,,
433.2879997,1692,3.890197128,-3.037473897,-294.5227791,30.76118591,0,-7.644086587,0,-86.63943386,111.449291,-9.150913343,161.1767988,143.4106719,96.67596798,29.67990265,0,31.82574444,,,,
433.2959997,1692,-18.53155778,-55.97417681,-77.4875627,26.05692193,0,1.582024196,0,-39.36343992,-157.716292,2.571002048,-306.4035096,8.988295459,-142.8947828,52.59694576,0,67.90198453,,,,
433.3039997,1692,-24.60528488,-55.58356806,-110.3748374,22.85731534,0,-29.20496041,0,-57.33460897,221.7204898,-44.21697617,292.4496463,126.7379392,178.1169435,-34.82911225,0,57.2208895,,,,
433.3119997,1692,-27.78975908,-22.55657208,-287.0946076,11.74889404,0,28.81962692,0,-45.45083239,-129.8049098,4.091329983,-190.8153571,76.79522463,-107.1939673,39.68473999,0,60.42893991,,,,
433.3199997,1692,-23.44579187,-85.02443488,25.0099336,5.63001274,0,-26.26530251,0,-24.43988025,50.63803282,-43.39471302,4.887842849,41.96435767,33.70509484,-13.40948385,0,108.3696536,,,,
433.3279997,1692,-30.99624207,-36.6244851,-300.7723116,6.188547262,0,-0.626396485,0,-67.94177732,91.49805961,-52.00697546,167.4783428,125.9961683,87.36429039,-9.498653441,0,47.97278073,,,,
433.3359997,1692,-11.25939278,-46.95237454,-85.85464244,11.11864563,0,-1.007456504,0,-33.75131903,-174.7790758,-17.21091062,-312.8484877,-6.029847086,-150.0828867,61.98119457,0,95.79687377,,,,
433.3439997,1692,-0.167929895,-41.70801703,-110.8662979,23.41609986,0,-33.66442019,0,-67.28764762,217.8760643,-36.43177943,298.4519691,114.6681071,168.7752408,-18.03909535,0,66.98746361,,,,
433.3519997,1692,-13.60054096,-25.73923295,-286.2995103,7.310388327,0,23.74550873,0,-52.80981643,-128.0924327,-9.369718978,-173.4191441,63.59218292,-104.2670413,20.53336078,0,63.6071974,,,,
433.3599997,1692,6.4899695,-66.29251163,28.33823653,1.428034318,0,-42.27999045,0,-54.15511869,60.96385455,-46.53325995,17.41442444,26.40432099,43.18485201,-7.750427079,0,102.579601,,,,
433.3679997,1692,-18.61520346,-28.86434826,-295.2785932,13.17440162,0,-8.825701665,0,-94.98955355,102.384089,-30.23732906,177.6462759,116.4086417,82.60290729,6.408578785,0,31.12735781,,,,
433.3759997,1692,-33.64741263,-71.93974627,-87.36739757,12.49315117,0,6.336954833,0,-18.20179598,-172.8067759,-14.5925616,-296.657792,-4.130958924,-140.5329345,62.91498583,0,108.5987762,,,,
433.3839997,1692,-16.15624298,-56.95572448,-124.147385,4.251816315,0,-36.57537783,0,-56.43099263,207.3973403,-53.76039373,301.2790735,104.1609642,172.5282992,-29.97670031,0,96.50881096,,,,
433.3919997,1692,-32.58195705,-39.46263204,-298.4411085,-4.139818745,0,23.22519786,0,-45.61124331,-142.5537165,-16.10998273,-181.4387483,41.35531351,-120.49578,11.48866241,0,79.96960355,,,,
433.3999997,1692,-16.13227429,-84.44442035,16.94055036,2.669843065,0,-28.28446383,0,-23.83835149,49.48141154,-47.72765607,19.4445127,14.06366913,50.50922356,22.03708849,0,133.4571396,,,,
433.4079997,1693,-16.37778,-27.22336735,-304.0527869,6.060900529,0,-1.717312615,0,-84.48526717,90.36250519,-29.09537469,179.0200297,95.10415075,80.95716295,-3.556947252,0,58.55354234,,,,
433.4159997,1693,-17.49217873,-60.26371213,-75.99719463,18.88717215,0,8.910839811,0,-28.89862595,-173.26233,5.002010644,-290.0307415,-30.17967406,-156.2467608,31.10201961,0,104.6659329,,,,
433.4239997,1693,-7.180540866,-53.10267938,-107.9786034,18.76600924,0,-37.88064863,0,-70.33240746,215.922243,-27.52904786,311.575721,93.664704,184.6329544,9.790336779,0,84.41195749,,,,
433.4319997,1693,-31.53495403,-42.60738999,-286.7571217,-8.082334243,0,18.39215846,0,-67.56382809,-135.5499831,-0.354886444,-182.5919029,28.17559521,-111.2239647,33.73136497,0,57.33670635,,,,
433.4399997,1693,-12.11461824,-81.88582629,34.17821448,-3.45998652,0,-19.26281774,0,-30.4135531,61.56335011,-39.17031675,20.87315824,1.394372436,48.96609242,-6.43490063,0,108.025596,,,,
433.4479997,1693,-14.23459155,-22.83150361,-287.9521044,4.397381623,0,20.61144012,0,-57.53618019,102.2160492,-25.72814441,179.8505615,102.0613978,99.14653713,11.72300697,0,62.65141273,,,,
433.4559997,1693,-32.27747951,-74.16793499,-71.22575907,1.953624968,0,38.36003526,0,27.08503778,-163.3051364,-7.384674707,-290.9572614,-14.05215579,-123.5953711,37.24718764,0,144.4233986,,,,
433.4639997,1693,-24.06247388,-72.84067044,-115.5661949,-11.81577853,0,-11.27818863,0,-7.250652596,218.438967,-59.32310141,308.9902126,97.85255749,201.0504546,-44.2354014,0,144.3663082,,,,
433.4719997,1693,-24.2771249,-37.54788906,-291.8479867,-17.03460799,0,25.61093623,0,-28.5479992,-145.562424,-19.72234043,-196.0770003,24.48727085,-120.6772531,29.0318537,0,109.7568767,,,,
433.4799997,1693,-0.173562597,-76.74334826,33.5289339,4.513183741,0,-30.15966714,0,-10.6827017,59.44048887,-36.34848263,16.50861906,9.977636417,32.16964743,17.55731128,0,143.1071895,,,,
433.4879997,1693,-19.96442442,-46.16761849,-304.5113688,-19.86810853,0,-10.83384487,0,-55.48863275,103.028636,-41.39379206,183.2365139,106.1001378,78.80198843,-14.38895945,0,84.0879727,,,,
433.4959997,1693,-32.90829437,-91.67453361,-94.90303324,-34.7411266,0,-6.425092723,0,5.364436303,-173.2423541,-39.86813955,-293.6496669,-31.56090466,-152.6363713,38.16546473,0,134.8978563,,,,
433.5039997,1693,-6.47750089,-57.6723411,-119.6230043,-18.6438411,0,-34.98534884,0,-23.98188031,217.7480181,-62.83715599,318.3679787,93.88592164,177.5471233,-18.13694609,0,120.4879037,,,,
433.5119997,1693,-10.78759617,-19.63493785,-286.0517863,-19.46052454,0,22.35617701,0,-36.08964132,-137.2955087,-3.659518148,-177.0577236,43.39056998,-136.2903977,30.22795855,0,101.762256,,,,
433.5199997,1693,-4.242871352,-85.23086895,29.32389726,-11.33109695,0,-22.91992336,0,-5.853872713,57.63262893,-42.91060194,21.11168447,24.11580365,21.49097239,26.79291516,0,149.5944743,,,,
433.5279997,1693,-12.46442816,-44.70896286,-306.3988355,-26.0930849,0,11.21964842,0,-39.25353448,99.61363279,-49.26135563,176.4142815,116.9699493,84.05237962,-3.744808678,0,112.5490209,,,,
433.5359997,1693,-1.745885361,-62.98053978,-82.09765706,-23.69098176,0,13.08358348,0,-3.871894446,-172.7891897,-20.34313316,-301.8751329,-22.1274031,-156.4328892,53.62722609,0,158.5046679,,,,
433.5439997,1693,15.34614061,-51.59852775,-104.408683,-9.466525395,0,-22.19166223,0,-43.44488428,215.4935608,-47.4550384,309.5999063,95.68755078,156.8018251,0.793177934,0,116.6013302,,,,
433.5519997,1693,-2.128119416,-35.32664469,-274.8964545,-16.67555782,0,36.43448731,0,-27.50385306,-139.6668193,-9.668140216,-177.9752787,43.04034369,-138.7687029,41.20124068,0,105.4142429,,,,
433.5599997,1693,12.76671971,-76.18770899,48.95836343,0.595013012,0,-11.82659703,0,3.019342501,55.79059649,-31.96930319,29.71396874,27.12563436,23.78376641,64.14148849,0,158.2937501,,,,
433.5679997,1693,-5.384254378,-41.96419234,-279.6236282,-15.02540726,0,16.22116243,0,-46.64691764,95.84906249,-32.67798898,183.7359243,118.5627201,56.63296698,30.09082395,0,94.41393741,,,,
433.5759997,1693,-10.1445968,-90.30728972,-63.93615676,-24.32077702,0,24.37652132,0,18.50355723,-176.3033555,-43.38548451,-293.7120605,-21.91860538,-179.881571,45.61223498,0,148.5071068,,,,
433.5839997,1693,13.71724452,-67.15251033,-96.48367895,-9.920702237,0,-4.818144439,0,7.526051799,212.9823143,-66.11353225,320.7823933,108.0602374,161.8128149,0.863158177,0,151.5019565,,,,
433.5919997,1693,-9.942656175,-52.99179265,-283.8337425,-36.88742296,0,28.05753459,0,-3.891051327,-151.387375,-19.47965036,-181.1293727,50.21932058,-151.8668515,23.39093077,0,143.8930387,,,,
433.5999997,1693,7.461758458,-96.51215785,28.48025329,-34.65027141,0,-37.84338806,0,-2.087868055,30.10882796,-67.29814841,5.83872185,7.373668513,-14.37096835,-0.538549811,0,169.3466493,,,,
433.6079997,1693,14.75951827,-26.08056523,-279.9933647,-19.55720465,0,2.531687031,0,-49.96904563,79.99651922,-36.03050085,161.5041895,98.48305847,40.64557366,18.15901402,0,98.47451028,,,,
433.6159997,1693,1.966622804,-73.56707342,-57.52649565,-16.98737218,0,6.244331154,0,5.643178273,-172.7566865,-13.80647534,-301.7990092,-28.11998861,-170.6959468,62.1304876,0,154.165157,,,,
433.6239997,1693,13.84768962,-66.64661346,-103.9529324,-8.790501197,0,-22.37499171,0,-19.97051142,211.3376883,-63.59079945,303.0713093,92.69865355,159.8901409,-8.175589501,0,146.44791,,,,
433.6319997,1693,12.07210289,-30.54375247,-275.40652,-12.56927112,0,40.12172475,0,-20.37539697,-140.1967665,-7.899986258,-194.3277736,38.65748015,-130.7425575,53.81993993,0,136.7744805,,,,
433.6399997,1693,9.932002336,-94.41993133,30.11020023,-17.55110865,0,-20.29117804,0,0.753309607,52.56579695,-44.55266629,13.26052853,13.9147174,44.60371216,28.73818016,0,178.7658723,,,,
433.6479997,1693,-16.00660819,-64.68414342,-318.9295837,-46.51253259,0,6.401795276,0,-38.77011658,67.60632141,-69.99503836,141.1635973,90.12393284,78.57694132,-23.63075547,0,122.8605978,,,,
433.6559997,1693,-11.62418378,-87.92601743,-92.32182362,-45.61387877,0,15.96872827,0,17.28516983,-192.7456776,-55.12851448,-342.1182661,-51.37253298,-144.6470795,16.85936422,0,183.2849045,,,,
433.6639997,1694,0.953899747,-71.80563301,-120.153824,-20.17590684,0,-9.320290326,0,-0.407674738,204.6721038,-61.9943005,280.1865305,76.49720191,185.5616407,-0.522474303,0,178.2526041,,,,
433.6719997,1694,-12.96784562,-56.36882186,-295.3591861,-32.01221305,0,44.34465052,0,10.10827165,-155.1043736,-22.25553925,-214.3293258,17.86944082,-130.8134251,53.9017512,0,176.3612111,,,,
433.6799997,1694,1.780941883,-105.5130515,21.50194536,-23.900733,0,-13.97621632,0,37.73429112,41.5002019,-66.1708921,-4.895346821,-7.271085362,23.24462949,-1.541852152,0,224.8189012,,,,
433.6879997,1694,-10.52835778,-59.51098807,-306.7886002,-25.65716707,0,19.27151013,0,7.48692174,70.79714924,-48.76390872,143.7652876,92.80706728,57.98023037,-5.102763383,0,180.8971204,,,,
433.6959997,1694,1.138008219,-85.00220839,-78.27799686,-38.06085277,0,12.45797482,0,40.52337994,-187.8460565,-33.11079383,-327.2301187,-41.33886439,-162.1885678,61.92669915,0,238.5738272,,,,
433.7039997,1694,17.35416855,-68.8391342,-104.161384,-28.12216068,0,-29.01133895,0,-22.56408468,208.2112436,-62.14573163,286.2801955,70.11905797,161.9716372,-19.88926578,0,194.8391609,,,,
433.7119997,1694,-15.13883807,-60.78501979,-279.8563039,-37.83290224,0,28.92481217,0,-18.63495239,-149.8759337,-20.7526433,-212.3622858,10.2655756,-136.7476118,15.9638104,0,175.6589667,,,,
433.7199997,1694,-1.034426006,-106.0814922,36.63628079,-33.38404513,0,-29.20921426,0,8.53829656,49.40327624,-66.65665289,-3.486908685,-14.29759716,34.40176494,1.791621924,0,222.067386,,,,
433.7279997,1694,6.1409986,-40.83312835,-271.2961264,-26.45196853,0,10.03931118,0,-28.92107126,90.82817699,-53.78582326,146.476788,81.01274539,65.24184704,5.428740532,0,163.7977124,,,,
433.7359997,1694,10.09193379,-69.12573179,-43.83415556,-25.80167799,0,21.41396732,0,29.67609438,-162.9024241,-31.928316,-315.8162405,-38.96978027,-143.227323,51.3935623,0,237.4618948,,,,
433.7439997,1694,10.20133552,-69.71788884,-91.09088502,-23.21513092,0,-11.44408977,0,1.782740756,224.1231825,-54.18801575,299.9102083,90.48702935,193.8264093,-38.83419817,0,226.1091219,,,,
433.7519997,1694,-28.94705881,-71.55874799,-278.1595245,-51.34374181,0,37.20107752,0,14.66262019,-146.3051559,-29.74368387,-206.7051291,28.10788394,-122.8349602,9.091554518,0,223.8387098,,,,
433.7599997,1694,-3.274520987,-107.779103,24.43986591,-51.20508056,0,-42.08408691,0,9.647925862,38.67581933,-84.29780911,-16.15420006,-11.94722962,16.2591911,17.8167091,0,266.2908254,,,,
433.7679997,1694,8.33593442,-40.63319903,-285.3158401,-43.10715923,0,-9.092387833,0,-57.97103974,81.78296905,-52.15091175,130.8735538,73.50740443,29.65814814,-15.32005752,0,177.0672201,,,,
433.7759997,1694,-18.5297348,-93.29950373,-51.21026049,-46.82617581,0,8.124575454,0,16.40347547,-169.3023871,-33.87637181,-323.1443087,-50.27053004,-180.9389989,19.07401739,0,233.5354709,,,,
433.7839997,1694,-6.79901151,-80.08636376,-99.26804354,-34.3692955,0,-38.19429127,0,-6.032175227,203.0753392,-72.50549583,278.354697,76.40901331,159.0301269,10.84234159,0,239.900407,,,,
433.7919997,1694,1.073558115,-38.03954844,-263.9167512,-39.06619366,0,14.84574952,0,-6.359589933,-151.7549576,-16.65758846,-223.1895085,19.46387942,-147.9215898,37.25483406,0,232.347251,,,,
433.7999997,1694,10.04079695,-79.89669583,58.90530283,-24.34565174,0,-24.63410483,0,18.59766538,56.43819973,-35.43155835,-0.434839807,-0.429398872,16.82649277,-0.720076067,0,272.4605372,,,,
433.8079997,1694,-13.26331746,-45.40122475,-272.7050782,-21.94043464,0,11.64832462,0,-16.36030946,75.79986961,-24.84842022,142.8178198,95.0571606,43.29942228,14.05819574,0,215.4918261,,,,
433.8159997,1694,-16.98477022,-85.45369295,-57.32884267,-36.07154931,0,10.06938099,0,37.179249,-188.7113414,-22.32219514,-330.2206437,-38.74375493,-186.4100799,35.03479152,0,280.8565559,,,,
433.8239997,1694,12.25577101,-55.76146467,-94.81818881,-23.94086505,0,-25.16096803,0,-12.13199762,197.0776497,-45.15419909,279.9299686,78.6860101,138.5584152,-23.25188383,0,266.1721218,,,,
433.8319997,1694,-12.23848809,-53.73832013,-256.3000962,-36.429353,0,31.88572931,0,0.891864136,-156.0544807,-5.279421671,-208.7407339,12.5833239,-155.3624072,25.73400056,0,244.5611208,,,,
433.8399997,1694,-9.569507911,-111.4905461,46.3214472,-41.12074025,0,-24.23581874,0,38.32739767,48.39644568,-60.14192772,7.918626306,-15.3599117,25.46455655,7.278147532,0,302.5686123,,,,
433.8479997,1694,-1.342701465,-38.54118638,-281.2938737,-30.75460018,0,5.291182196,0,-16.14456963,70.06961211,-37.78468813,146.0397189,77.54385888,52.08318959,14.63038594,0,249.1972644,,,,
433.8559997,1694,-8.141718491,-79.56372173,-46.67080342,-26.37498689,0,12.11187306,0,32.08247867,-186.2574334,-16.87979624,-313.5062094,-58.18872397,-169.2977881,38.36378922,0,283.9672848,,,,
433.8639997,1694,-4.119378378,-77.48347433,-97.38759144,-22.54382589,0,-19.4193185,0,-7.21568854,200.0348742,-54.94578792,291.5953744,59.4577616,158.7049848,-11.90331716,0,265.278165,,,,
433.8719997,1694,-28.12800178,-63.21139615,-269.9631855,-37.38842987,0,34.25945748,0,-6.086102903,-162.9256074,-15.50565945,-217.3112955,-2.468083689,-157.186919,38.41630781,0,252.5222597,,,,
433.8799997,1694,-18.3070941,-105.2621568,42.33825265,-27.15670194,0,-15.42281619,0,25.29456296,33.99998944,-65.89137634,-1.714530464,-31.7876825,9.546126018,-16.65293633,0,294.1592652,,,,
433.8879997,1694,-11.59022995,-32.58691864,-276.1292583,-12.83108967,0,31.37595018,0,-11.71360804,59.76975415,-34.15355362,148.2972217,69.7854904,42.04361222,1.713145438,0,246.9718001,,,,
433.8959997,1694,-16.10415025,-73.05381492,-43.75130437,-23.78869851,0,38.15195092,0,38.76722801,-190.2262788,-0.082627961,-302.9315264,-52.47013983,-181.5744997,69.37057915,0,300.2889476,,,,
433.9039997,1694,-2.802001022,-68.64411078,-96.81856269,-27.88450331,0,-19.2340333,0,-16.78152036,191.7660109,-58.76826117,296.4465696,51.41621508,144.515933,-27.96331484,0,261.3289404,,,,
433.9119997,1694,-13.84391038,-45.22896868,-250.901172,-26.68581479,0,27.47867261,0,-13.93166359,-159.9423575,-15.59862733,-202.4615311,-12.96852272,-143.302554,17.16769824,0,240.1952159,,,,
433.9199997,1695,-9.342365962,-98.86088366,64.78874395,-13.13207791,0,-11.84163026,0,30.31130431,50.50629716,-33.79399189,25.93830952,-22.90135452,38.21755885,44.61925451,0,303.5357934,,,,
433.9279997,1695,-16.19917394,-44.59599148,-274.8188187,-19.10034205,0,20.57633745,0,-14.50205345,60.02265536,-29.29386494,155.1590815,70.56394818,50.11582128,20.16753957,0,261.6306167,,,,
433.9359997,1695,-13.16515736,-73.9373174,-40.30347297,-27.74889703,0,12.6063242,0,22.47674993,-193.7935284,-8.195018654,-311.4234109,-67.40418705,-182.9827119,27.89259363,0,302.9389558,,,,
433.9439997,1695,2.271362718,-65.8327118,-84.04149634,-24.14496938,0,-30.03854906,0,-26.38693291,191.3269369,-37.12043853,288.9862198,44.06363404,131.8545068,-22.34674272,0,267.4584507,,,,
433.9519997,1695,-15.39136653,-45.48178569,-243.2214278,-32.92729489,0,27.86927976,0,-14.60473998,-172.6554431,-7.286218515,-207.5138222,-15.95876907,-169.6356219,16.14155679,0,258.0333857,,,,
433.9599997,1695,-2.391789883,-84.71093219,77.38220848,-14.51126738,0,-21.87803213,0,19.44366325,43.75102023,-22.67855527,23.19643605,-29.76988513,30.49035402,24.77349405,0,312.6477365,,,,
433.9679997,1695,-9.991077076,-40.52717951,-250.52513,-16.70303441,0,8.923217138,0,-26.73464965,65.53592475,-6.360142529,150.075549,64.14856501,51.12644543,14.17830507,0,253.9387882,,,,
433.9759997,1695,-16.37831194,-83.07640956,-20.7277184,-28.28869931,0,13.05633402,0,32.90409782,-187.7142062,-17.07268035,-309.1347104,-64.64572965,-172.3455041,19.52606889,0,313.0467307,,,,
433.9839997,1695,4.602494208,-57.05192305,-72.39876448,-11.08841991,0,-27.9986474,0,-9.418692133,197.4538516,-42.50070716,291.2457222,59.26554288,175.3036294,5.24653111,0,309.1690395,,,,
433.9919997,1695,-11.91239821,-39.0394757,-236.8210791,-18.03585868,0,20.07002125,0,-17.51257278,-170.599388,6.922346032,-222.5156532,-4.208840665,-136.6693999,46.67452444,0,288.4931419,,,,
433.9999997,1695,-3.593956233,-87.82330728,65.48526968,-16.41725808,0,-32.63482841,0,-5.131829886,30.31444103,-32.83878861,-5.36251275,-34.08216705,21.34557664,-1.337957557,0,321.0624259,,,,
434.0079997,1695,-8.883932454,-36.40135244,-266.6693938,-12.1990709,0,2.987392093,0,-62.20104258,47.66806689,-20.59475135,116.2923217,48.65354955,38.37149323,25.56197308,0,251.2179173,,,,
434.0159997,1695,-11.8589116,-76.47166825,-27.72542419,-12.80124924,0,9.56055918,0,-7.660535776,-192.9007566,-16.20708436,-333.5020049,-82.76269229,-159.1747958,50.39005179,0,295.1136719,,,,
434.0239997,1695,10.19561564,-47.05244748,-79.02546262,-4.229976536,0,-30.30366031,0,-54.10772331,197.9889531,-39.22380092,274.1428169,39.82436726,185.5224374,0.664990488,0,279.1657859,,,,
434.0319997,1695,-17.76644923,-39.04624582,-236.9063521,-16.197561,0,18.34322262,0,-54.21331603,-162.5875066,15.93500384,-239.4777068,-24.24587599,-139.0097725,71.90995113,0,249.661173,,,,
434.0399997,1695,-30.92245254,-113.6701948,67.28328503,-17.19434835,0,-29.66155869,0,-10.99811524,40.1919354,-41.36879345,-14.85321407,-50.42712758,39.65822997,-4.728640805,0,294.5243269,,,,
434.0479997,1695,-33.52801498,-56.10096027,-271.6331343,-17.79606482,0,4.473694582,0,-48.7480724,42.95414667,-42.55308238,108.0547704,35.39631729,55.43328762,-6.831000429,0,253.6595852,,,,
434.0559997,1695,-19.92245481,-71.38477967,-27.75646642,-16.45911162,0,2.694895039,0,-5.965718055,-198.5453641,-15.39627474,-343.1609458,-97.28442885,-175.283855,70.50109761,0,296.8471462,,,,
434.0639997,1695,-11.86741706,-63.18715041,-82.50781021,-10.94604141,0,-30.4282525,0,-43.59599487,198.880117,-38.42141269,270.9601518,29.55529284,166.935946,0.055745312,0,274.2518689,,,,
434.0719997,1695,-41.14363437,-64.82070996,-258.6274779,-34.47423684,0,15.56877788,0,-41.5786133,-168.8436832,-18.26884631,-238.8198509,-30.3054207,-156.865531,11.86239252,0,261.032418,,,,
434.0799997,1695,-20.67370401,-92.99346852,51.83477283,-22.23752221,0,-45.74120985,0,-29.57398306,37.14019735,-62.5212876,-15.81851948,-57.33449071,9.092041861,-2.467630112,0,294.0117606,,,,
434.0879997,1695,-11.19576037,-23.32855898,-265.9393615,-3.145534895,0,-10.29005503,0,-71.12756613,65.16449936,-12.69759366,114.4949282,42.42385736,42.38404516,51.46344849,0,229.3142717,,,,
434.0959997,1695,-16.43834449,-72.88318597,-28.02139242,-16.49160738,0,-16.52084099,0,-22.30715117,-167.0308899,-4.86027497,-324.8500105,-79.93293312,-171.2822247,49.69039251,0,278.5188546,,,,
434.1039997,1695,-25.15601958,-76.66374325,-84.07732751,-17.07432295,0,-49.41033836,0,-65.3053227,204.4330733,-59.86753326,277.0277597,36.28415024,159.1024579,-14.64469521,0,254.8398297,,,,
434.1119997,1695,-48.35686217,-67.86669787,-238.3437016,-18.25712064,0,14.42705086,0,-50.76528458,-168.7904293,-3.504908238,-235.8269952,-17.94784523,-157.6008238,86.52100954,0,240.0027688,,,,
434.1199997,1695,-33.69842274,-111.3706348,58.04398283,-14.87300002,0,-45.45837756,0,-26.84298409,47.48204903,-51.97639941,-2.370217282,-35.96131021,27.36993331,12.11436543,0,295.364331,,,,
434.1279997,1695,-57.41437931,-75.56470908,-288.2983277,-29.84058236,0,-16.22279403,0,-69.38869762,45.85903128,-49.46609919,99.74869954,38.34893828,49.11455719,-3.65757262,0,236.5331695,,,,
434.1359997,1695,-64.25193816,-121.6088075,-54.15106872,-48.05422345,0,-12.3582828,0,-10.86450714,-203.7435315,-36.26216736,-354.9303029,-98.56426089,-174.8628131,31.67992307,0,293.2657053,,,,
434.1439997,1695,-42.03072227,-92.68258414,-119.2299637,-42.35321191,0,-44.40493092,0,-45.90370222,178.5794588,-77.67315608,256.7101114,22.03881845,155.6919938,-34.7699482,0,299.3529838,,,,
434.1519997,1695,-62.75327467,-75.11250023,-269.193305,-43.30068497,0,20.22673201,0,-32.36125672,-195.5810874,-22.26109031,-255.784392,-40.69665175,-156.3283755,59.22665544,0,286.2974719,,,,
434.1599997,1695,-40.76049492,-106.5278313,39.02634394,-34.48034165,0,-34.82216533,0,-25.09368738,21.17475187,-50.98624099,-13.69155096,-59.69242009,17.38937413,8.901093567,0,325.318196,,,,
434.1679997,1695,-30.63904644,-42.91558508,-305.3281569,-33.65286871,0,-17.83968301,0,-102.1588449,33.96228368,-28.90477236,96.22971862,19.81094709,18.60895966,7.366943428,0,248.5632325,,,,
434.1759997,1696,-50.99554839,-106.3169431,-59.6506874,-39.52498003,0,-15.33966744,0,-47.55758755,-203.4222769,-20.50735522,-350.3872877,-115.3939726,-176.3755975,70.39940329,0,279.857603,,,,
434.1839997,1696,-44.81895436,-92.29227357,-123.2725851,-44.09210751,0,-43.92324129,0,-77.7167537,169.4834159,-78.71114278,255.2438329,2.498266206,171.4424462,-31.63734071,0,275.5701038,,,,
434.1919997,1696,-42.26738654,-54.31197325,-275.0419937,-48.50763478,0,5.577138935,0,-86.13496816,-201.2703734,-25.34865848,-260.6051399,-64.11059352,-154.7253947,22.27546174,0,256.2118421,,,,
434.1999997,1696,-35.88207678,-102.5936926,36.23032602,-40.84578093,0,-52.39100701,0,-79.50450552,29.10153765,-55.80910771,-5.871108189,-81.99352352,26.98540773,11.81210636,0,283.5248959,,,,
434.2079997,1696,-49.95433507,-56.59884566,-306.1661264,-48.72831539,0,-11.9740493,0,-122.4112137,32.03529166,-53.78467413,96.96552081,-2.393723517,34.0900007,-7.874137841,0,221.4279765,,,,
434.2159997,1696,-43.75551975,-84.33717113,-51.63695776,-38.54334104,0,-2.309244688,0,-68.11868287,-205.1261575,-34.47165252,-346.4875904,-128.5460499,-181.7718971,22.78935914,0,273.0781993,,,,
434.2239997,1696,-22.89088852,-56.4854897,-108.5782032,-21.68750055,0,-38.92866422,0,-117.0696491,179.7024816,-57.74185117,269.1618971,7.360015211,146.5282637,-10.33986333,0,264.3777766,,,,
434.2319997,1696,-38.59505766,-47.82114653,-255.9968454,-24.98695231,0,22.64777737,0,-92.20515783,-184.643517,-10.72652107,-247.7933362,-44.78584712,-159.0639494,83.10226658,0,256.8693684,,,,
434.2399997,1696,-34.09047563,-100.6587629,57.25239796,-21.69407571,0,-28.84060006,0,-61.33410289,45.85994852,-57.60176828,10.5287197,-57.92598823,44.23209973,22.9321511,0,310.9885363,,,,
434.2479997,1696,-48.49277664,-51.42750107,-285.528241,-34.26748399,0,0.851681933,0,-102.3045839,38.86075459,-53.13030802,109.6209795,20.84942547,48.02253286,-19.6902276,0,256.3964049,,,,
434.2559997,1696,-47.998152,-92.89859334,-41.68189784,-39.26568713,0,-1.85793961,0,-29.95273916,-201.2082978,-37.17371674,-337.3119447,-103.623724,-162.7803964,40.08887345,0,316.9189422,,,,
434.2639997,1696,-17.39459501,-62.81613734,-111.5466055,-38.41553113,0,-53.68479031,0,-89.00760964,184.2327209,-61.77806798,274.3341074,18.92778722,168.6236493,2.598249315,0,309.3034845,,,,
434.2719997,1696,-31.77772501,-46.02190318,-258.3209158,-50.20753645,0,-2.36381,0,-91.1084634,-186.0069247,-10.68069203,-248.2845855,-55.09016685,-157.9013281,36.38071103,0,276.1913998,,,,
434.2799997,1696,-29.26065611,-94.50585605,51.94064733,-43.8383893,0,-52.32630822,0,-65.70374067,39.51806823,-48.50624488,7.878402079,-69.43282015,18.06706191,-19.04285936,0,312.8254061,,,,
434.2879997,1696,-33.71341183,-35.88198809,-289.8525701,-40.73706113,0,-12.32224015,0,-111.4526001,32.56513269,-31.45271946,109.9080335,18.22291123,20.63490813,4.766727229,0,258.0005137,,,,
434.2959997,1696,-34.06891476,-75.98968214,-31.48761237,-34.16028148,0,1.306787673,0,-39.98711686,-201.3710624,-16.22913535,-319.8525449,-101.1049392,-177.8116609,65.11918043,0,318.4859302,,,,
434.3039997,1696,-17.54994023,-54.01622323,-93.28427413,-28.29211885,0,-39.26806876,0,-78.60580404,188.8952743,-54.41468474,294.2906586,25.00116288,156.6508958,-8.985116225,0,319.0915294,,,,
434.3119997,1696,-33.69892412,-34.59745291,-245.2057388,-32.39858948,0,9.588287881,0,-69.95631273,-182.06783,-12.1527488,-235.8892955,-40.41342001,-155.0263202,33.72853654,0,308.2830805,,,,
434.3199997,1696,-26.45981586,-79.23057544,63.97809987,-9.083573652,0,-42.4234086,0,-46.15474456,45.46723392,-39.30375267,21.61388117,-49.20347443,33.72404823,24.54061045,0,349.2109862,,,,
434.3279997,1696,-41.63763215,-34.4144658,-275.098862,-9.732009482,0,-9.427944968,0,-97.08499583,42.37943887,-26.38606033,111.7599556,28.78059162,29.96165631,7.846070017,0,280.671465,,,,
434.3359997,1696,-33.76931869,-68.45727699,-21.91117965,-17.20985536,0,-10.5273338,0,-45.58241025,-192.2692579,-28.63414513,-329.051274,-97.60586195,-165.3576472,12.89802875,0,331.523448,,,,
434.3439997,1696,3.049775878,-30.78378259,-78.82714472,2.923647986,0,-41.1933068,0,-91.03836565,205.2865131,-41.15380378,290.474403,30.48434747,174.7999558,-1.509677696,0,308.6715908,,,,
434.3519997,1696,-20.44471942,-21.97436579,-221.3210666,-4.482712563,0,23.14286495,0,-73.52945426,-158.4032189,14.69511365,-229.1461467,-32.18931965,-145.5731832,71.15193952,0,290.2015726,,,,
434.3599997,1696,-14.41908655,-68.41725227,84.12962651,-2.700652433,0,-36.25406465,0,-42.73772308,62.12520775,-34.73608521,38.77197729,-38.04935206,45.32492227,33.88557947,0,357.0912819,,,,
434.3679997,1696,-12.53648926,-11.48038291,-262.9357774,-5.873433249,0,-14.49963723,0,-105.6800282,55.41360754,-10.43750198,133.9922909,35.13426177,38.83550676,25.32200367,0,291.4343267,,,,
434.3759997,1696,-11.46010031,-53.3243437,-17.72489687,-11.49146179,0,-18.01713072,0,-76.39022138,-178.5962033,5.48854863,-309.5150546,-102.959792,-177.5183675,53.2185592,0,311.7156173,,,,
434.3839997,1696,-6.187880261,-41.49222152,-78.37570632,5.00151507,0,-44.25540469,0,-103.7559341,206.1101702,-31.04781031,297.999555,21.3175009,175.3678173,-10.31957831,0,285.0674498,,,,
434.3919997,1696,-42.30079019,-44.28062947,-226.9177653,-10.1897784,0,14.2353955,0,-71.31362814,-169.8455521,0.156487496,-234.3125059,-43.39454107,-127.0716761,16.76223486,0,287.6275994,,,,
434.3999997,1696,-21.34908284,-76.13571616,74.39781082,-10.46219165,0,-49.50127874,0,-67.42764993,52.62952092,-46.11114798,22.81991337,-63.08491001,51.49947369,25.84014824,0,340.0658077,,,,
434.4079997,1696,-9.565651044,-8.800317153,-249.3199322,7.300224154,0,-6.582650282,0,-117.5563249,51.77932295,-11.94748741,118.5811803,13.53924335,52.77103909,43.42726367,0,262.2516021,,,,
434.4159997,1696,-32.04593725,-72.63074182,2.050535446,3.353011344,0,0.039895959,0,-48.49299336,-177.7499523,2.051475382,-309.348277,-104.3313657,-151.0524499,44.05691408,0,314.7263674,,,,
434.4239997,1696,-38.66900377,-66.15498604,-90.75427508,-12.12655418,0,-39.59243148,0,-94.39784779,188.6159478,-58.45641137,284.567437,8.104188745,173.4513876,-20.9026981,0,306.0775934,,,,
434.4319997,1697,-43.0717011,-38.33357185,-235.7070438,-11.50778127,0,31.57249379,0,-67.43504911,-200.692415,-22.21233014,-257.8289073,-64.98182562,-148.9285917,20.84884039,0,295.4150185,,,,
434.4399997,1697,-16.55080077,-70.14402331,78.93238926,13.03719855,0,-15.71591731,0,-26.68435578,39.05015784,-36.80317588,22.54944958,-59.72922729,50.42376975,0.226899341,0,361.907498,,,,
434.4479997,1697,-27.73700563,-17.49214585,-268.4781179,4.025946814,0,5.380841362,0,-88.2207094,37.0186243,-12.01326729,112.8889647,16.49043514,63.55819826,19.4212095,0,304.2165292,,,,
434.4559997,1697,-34.32042411,-61.09432796,-17.6722179,-3.095487566,0,5.726562873,0,-39.47357644,-203.3842627,-11.57808795,-323.0202014,-116.5301517,-154.8471871,56.68305161,0,336.2096953,,,,
434.4639997,1697,-9.075154863,-32.17763809,-80.99498985,11.43199301,0,-21.80924032,0,-77.5644762,182.504926,-39.22698917,296.9622717,10.7371843,168.7005502,1.969144335,0,315.4050371,,,,
434.4719997,1697,-25.68077927,-21.20467555,-214.9014351,10.89560919,0,37.4748136,0,-59.86536608,-181.6589259,24.70159543,-229.9161914,-53.63101249,-130.6666,48.4936917,0,301.8407397,,,,
434.4799997,1697,-29.39283939,-82.58063125,87.67165185,6.074608844,0,-8.605394133,0,-22.56566374,46.87823888,-17.58225169,41.59428914,-65.93050835,64.5907738,-4.509688055,0,351.9987997,,,,
434.4879997,1697,-43.57988658,-34.75465285,-267.4420178,-14.53852948,0,20.30075407,0,-74.3133989,23.1384203,-20.48086729,125.6191594,-0.308940623,52.93372134,-14.62972089,0,297.0736668,,,,
434.4959997,1697,-46.30978373,-74.78574332,-16.73981819,-26.23156332,0,6.341669897,0,-28.26644947,-215.1938731,-14.00558193,-309.9318362,-135.3086767,-165.1633705,22.78786814,0,335.2827815,,,,
434.5039997,1697,-24.75956188,-46.4029283,-82.4342596,-24.40848812,0,-23.94808919,0,-72.6143068,168.6653556,-46.87182889,297.5510083,-17.18597244,158.9987116,-34.83834789,0,302.2171214,,,,
434.5119997,1697,-34.93341621,-25.68775902,-213.6355366,-11.17341512,0,35.78789824,0,-63.3739454,-195.8398954,8.370860006,-236.6726023,-80.49618299,-149.5906651,54.48804616,0,284.9190864,,,,
434.5199997,1697,-27.4791917,-69.55919842,86.16239486,8.337296353,0,-23.14813256,0,-36.57308744,46.02956223,-23.10670883,40.38351256,-73.66767868,48.40891986,46.22752706,0,341.6517162,,,,
434.5279997,1697,-37.92438273,-19.21265265,-266.4900221,-3.301234291,0,9.892298819,0,-88.56654894,27.47905662,-18.11367252,116.3299206,2.139480741,38.74082081,-11.59222494,0,269.7982537,,,,
434.5359997,1697,-41.93547807,-67.60253175,-5.840205293,0.720870342,0,13.73279453,0,-24.74160936,-196.8194812,-4.454038515,-317.4408382,-123.9427285,-159.4084434,1.794457648,0,311.8806444,,,,
434.5439997,1697,-30.57934885,-46.63341019,-89.18338433,-0.627059811,0,-21.11691924,0,-51.24674632,192.7925847,-38.53177769,294.3277168,8.78909204,182.3408919,-7.981853385,0,320.4871446,,,,
434.5519997,1697,-39.79612075,-24.45755095,-226.0051735,-12.3160244,0,30.6095279,0,-44.90821312,-190.984105,2.484061994,-253.1005586,-62.41035899,-152.5466788,50.74144178,0,297.629034,,,,
434.5599997,1697,-13.20997548,-56.85781255,98.14833461,13.35572584,0,-21.28332368,0,-23.89106982,49.85251886,-19.23312179,29.69931964,-65.48484068,41.47620405,18.98873761,0,335.0492705,,,,
434.5679997,1697,-24.85863231,-13.63205329,-251.4997442,1.40743012,0,10.34214181,0,-70.39973155,39.53730605,-8.486729567,117.3000776,12.79745446,52.1166846,9.463810755,0,279.5400957,,,,
434.5759997,1697,-26.70534784,-58.41507058,8.824223425,-11.53093267,0,16.5272552,0,-11.27178847,-185.3429374,-10.24773885,-312.3546058,-115.2926818,-146.4617039,-5.226497555,0,325.160553,,,,
434.5839997,1697,-5.969769814,-25.19021788,-66.82751986,6.808593183,0,-12.39382707,0,-51.38397971,203.4735215,-26.30636457,309.7835897,18.82895854,189.6591619,-24.07614537,0,322.7161656,,,,
434.5919997,1697,-38.00004444,-28.80237091,-222.7120715,0.246983362,0,30.57571508,0,-41.70996431,-187.6515118,22.59677186,-232.9981891,-50.18056356,-146.7897746,79.52644816,0,301.3163841,,,,
434.5999997,1697,-23.72789391,-73.68687437,87.37147837,1.509965404,0,-22.87062801,0,-16.86389472,44.58676594,-32.23445028,43.17848369,-60.2731988,43.7148123,1.099783573,0,342.4167875,,,,
434.6079997,1697,-27.26126408,-17.51882993,-245.540566,-4.20743827,0,15.07380922,0,-70.00142176,32.60158644,-17.39059234,125.6148546,14.68985095,49.3582991,-11.37530375,0,282.5830174,,,,
434.6159997,1697,-34.56838953,-68.28557901,16.19841537,-8.498006007,0,11.63782237,0,-10.53438496,-188.9230435,-2.353371058,-304.0238395,-112.9245647,-146.4444107,31.46642556,0,323.4315927,,,,
434.6239997,1697,-12.44133286,-31.09964554,-56.68271872,2.963222102,0,-19.75331447,0,-47.0440288,205.1103917,-33.09442791,310.442623,13.74436533,190.8031251,-29.68503306,0,314.8579118,,,,
434.6319997,1697,-29.7556196,-8.799768094,-183.2042771,4.300148776,0,38.54069397,0,-43.31732756,-175.4422661,24.56439513,-231.8224404,-54.97159371,-134.4552146,52.23641706,0,290.0778588,,,,
434.6399997,1697,-25.40930581,-63.16887373,126.3073193,9.721062295,0,-11.64445323,0,-18.02843732,61.11516512,-8.861561241,48.97204182,-60.84927748,62.07445077,6.949397109,0,326.5050977,,,,
434.6479997,1697,-46.54924737,-26.45065149,-231.7765098,-8.093313309,0,26.62863834,0,-57.83844495,39.09833178,-18.66634614,122.5886594,11.87570264,47.104182,-33.83117983,0,273.032062,,,,
434.6559997,1697,-36.80983828,-56.50869867,23.55526845,-8.842211254,0,28.13356863,0,-4.269824974,-184.9233552,-11.72463051,-302.2306182,-109.5700902,-165.3684993,38.55242936,0,325.8736022,,,,
434.6639997,1697,-5.611150711,-23.19954106,-54.42109214,9.30023007,0,-12.57058575,0,-56.23254525,207.8206048,-20.33571305,317.383475,19.65330124,164.5122345,44.99177528,0,308.1734276,,,,
434.6719997,1697,-42.0696854,-29.26002023,-193.8510636,-11.18197392,0,36.30601062,0,-45.96929176,-179.5109312,-0.918840833,-234.1619435,-58.54332087,-152.9004646,31.88892087,0,282.0586514,,,,
434.6799997,1697,-24.74494721,-55.12578491,116.0034269,-7.053233777,0,-13.58748819,0,-17.26727168,62.53756195,-50.04726507,48.6798887,-60.01780845,63.1470691,-43.79711865,0,335.8449532,,,,
434.6879997,1698,-14.85988424,15.69568097,-227.7396246,-0.651799411,0,19.01913103,0,-78.29455761,51.94530791,0.024474473,128.2428894,24.78736931,64.91259737,33.61481349,0,279.6143263,,,,
434.6959997,1698,-22.33499222,-41.98121994,33.5854731,-9.722827164,0,20.04977963,0,-31.2957798,-170.167896,6.141977561,-298.2010399,-103.1828617,-134.023608,51.76489784,0,308.1421208,,,,
434.7039997,1698,-7.387691635,-19.67482036,-52.84166386,-7.162294477,0,-6.484041108,0,-69.98919588,215.1436613,-43.072158,319.1735764,26.04973755,195.5984499,-23.56197301,0,295.2398875,,,,
434.7119997,1698,-16.34354668,-2.167607836,-197.0200217,-18.44403429,0,50.99247265,0,-65.25988149,-173.221439,8.743716754,-231.1285243,-38.84237609,-136.414227,58.81845558,0,282.5424176,,,,
434.7199997,1698,0.827965679,-47.25200777,106.5180044,-15.70774617,0,-5.494028651,0,-50.00481272,73.95436996,-25.01918494,50.16351596,-47.39030565,64.01213921,7.537541463,0,317.5113789,,,,
434.7279997,1698,-11.35908456,1.742848182,-253.2398357,-19.00011545,0,17.49792629,0,-111.3726091,53.51446067,-19.78688177,119.6739716,23.53540405,40.81427796,14.59801778,0,248.1201851,,,,
434.7359997,1698,-8.250448526,-34.66532705,1.695684827,-22.51721749,0,15.87616241,0,-61.83094807,-181.2442513,-16.73159941,-306.7541645,-99.42081057,-168.6110736,34.28933216,0,288.0850633,,,,
434.7439997,1698,9.120653669,-7.40817858,-74.84601454,-8.238723005,0,-8.927078788,0,-92.6121116,211.3199391,-33.29349806,323.532572,38.44071426,190.9736144,-16.44745097,0,288.6107647,,,,
434.7519997,1698,-24.60967005,-11.85503321,-210.7425828,-17.69027598,0,44.31952321,0,-68.69876885,-174.1231268,17.54619345,-222.3206964,-23.9767405,-130.3116393,80.01354917,0,289.9680711,,,,
434.7599997,1698,-12.4015599,-60.81434668,92.07551417,-29.54461269,0,-17.56236555,0,-45.84049501,59.94783375,-40.98928138,50.11834316,-36.71362672,58.02350187,16.58528406,0,337.9888845,,,,
434.7679997,1698,-16.93599218,-2.656184719,-250.6083718,-26.25220083,0,14.85661844,0,-99.44204234,41.6514438,-26.92929333,113.6719984,24.27716743,42.75976252,1.122175007,0,266.6149083,,,,
434.7759997,1698,-16.50544212,-34.90092895,25.30177608,-13.20579035,0,16.5419266,0,-36.422883,-179.3439898,-3.434775239,-304.6841154,-95.8996491,-161.7344579,53.39939196,0,309.1219436,,,,
434.7839997,1698,8.481469836,-0.63000008,-56.28413247,-10.26563648,0,-22.1167931,0,-87.84019588,209.0372854,-26.85745132,323.7555989,40.83753009,173.4628817,-22.89159043,0,295.5161846,,,,
434.7919997,1698,-32.08009973,-19.08579712,-198.3690214,-24.90790135,0,37.00821892,0,-71.8501444,-183.0103254,3.33214717,-226.7047442,-32.75542912,-169.636414,16.78370955,0,261.6907413,,,,
434.7999997,1698,-23.35208262,-61.03545455,110.0101421,-17.80810831,0,-5.253326789,0,-27.05152201,58.65694362,-55.74031957,60.8381669,-24.24865615,33.6199372,24.76962356,0,322.6771034,,,,
434.8079997,1698,7.58252258,43.38866104,-222.5283146,6.414680585,0,24.76121942,0,-100.6334452,49.45698508,-1.003677779,138.7708766,75.41847709,42.91619444,57.31249625,0,271.4441868,,,,
434.8159997,1698,-3.291222062,-17.52447636,50.99630117,15.73252055,0,23.92864026,0,-52.36125936,-164.2428989,29.92633169,-271.5636312,-35.12606329,-161.2037472,69.12752042,0,294.5275853,,,,
434.8239997,1698,-10.83584181,-19.58177007,-45.42812088,1.779019347,0,-8.676848343,0,-82.54106073,218.8625039,-39.11458219,342.2698843,89.11454622,165.8513483,-17.61636136,0,287.8288023,,,,
434.8319997,1698,-10.09781192,17.9846306,-175.1674579,6.257187251,0,46.31413764,0,-83.28024814,-179.1429536,3.395572121,-222.0423467,13.74110559,-161.9002605,31.9468847,0,267.7765866,,,,
434.8399997,1698,2.876366281,-24.93773025,140.9663379,16.37039522,0,0.829138945,0,-55.26883152,69.06935868,-23.71374116,86.13601888,26.21108582,50.24173808,13.16207702,0,311.713674,,,,
434.8479997,1698,-26.57882348,14.16400482,-226.8891063,-9.099819661,0,24.35500427,0,-101.5838795,45.06031391,-17.23488916,155.959237,99.99626733,34.58722511,11.00759735,0,262.8314122,,,,
434.8559997,1698,-16.97517833,-18.50344653,38.91925759,-4.881119494,0,16.97657379,0,-50.96647942,-184.7760641,-0.200712271,-275.2052862,-33.64593732,-171.6646665,41.77150979,0,300.1766788,,,,
434.8639997,1698,12.59765458,14.90265081,-37.76398719,-7.702043721,0,-14.47053821,0,-105.3806051,209.1950599,-30.68310806,351.7343123,98.1270107,181.8298172,-23.8921627,0,284.9198471,,,,
434.8719997,1698,-11.43125985,17.89362987,-171.6416035,-13.29496534,0,35.67841506,0,-104.1882507,-184.578511,10.34833157,-215.288699,13.19486807,-164.9124836,51.36275795,0,244.8811954,,,,
434.8799997,1698,11.8153694,-22.71553188,152.8310342,19.65077102,0,-7.803539796,0,-63.67844713,64.19826206,-15.02579352,78.50211092,11.50513565,33.36760013,36.6865808,0,292.6405733,,,,
434.8879997,1698,8.984614561,39.76685112,-193.1160434,4.814588761,0,30.62311428,0,-114.8657497,51.07997599,-0.285706806,151.3878561,87.24414814,49.45314425,7.394975195,0,258.6272437,,,,
434.8959997,1698,-1.495606309,-10.55196979,63.81540371,-1.233863555,0,28.36784839,0,-61.98276351,-177.4309739,11.51916865,-274.4405658,-51.30252299,-166.3664136,52.40200994,0,284.718059,,,,
434.9039997,1698,14.20262201,8.933485233,-36.13663746,-8.103605108,0,-15.29521403,0,-106.8546407,206.6972282,-22.81505442,345.716656,73.5671561,158.5947077,-7.09075065,0,273.4064546,,,,
434.9119997,1698,-6.095257987,18.45601841,-172.9027428,-26.74492656,0,26.39215311,0,-114.0799303,-188.6119979,11.02791505,-220.7907818,-14.88169091,-181.2322286,60.01923964,0,246.6404578,,,,
434.9199997,1698,-2.858155634,-34.39595852,146.2557983,-4.095111047,0,-9.829479119,0,-66.9264357,61.1585862,-26.9098726,83.40537326,-15.24606428,25.19820301,35.02473111,0,286.3576884,,,,
434.9279997,1698,-24.92719344,12.27503101,-211.2477236,-16.17363432,0,30.61607021,0,-95.93034953,41.60814721,-17.20334168,148.9054787,63.69267528,46.95605591,-11.41712142,0,258.7650624,,,,
434.9359997,1698,-32.40503511,-33.07880656,49.46853644,-22.31308758,0,21.66962286,0,-43.0826207,-191.6762929,-2.144029672,-280.2209691,-66.69817292,-166.1239773,45.50934995,0,307.9795076,,,,
434.9439997,1699,1.717988117,1.885210886,-34.13301198,-23.93001228,0,-15.84423219,0,-97.00220122,191.1137553,-41.58423245,341.1299961,59.26942587,142.2916004,-10.40511265,0,294.0193811,,,,
434.9519997,1699,0.201418788,30.58969908,-153.2606357,-19.99513868,0,38.73071594,0,-108.8447094,-185.8464436,5.597256977,-214.049301,-32.9102259,-180.4400349,34.62451261,0,250.0371166,,,,
434.9599997,1699,-3.491818794,-26.78468971,156.7327705,0.021415314,0,-5.871947294,0,-76.70261124,74.86594772,-7.024379875,104.8051898,-20.4674051,42.3959929,28.17098825,0,290.4696755,,,,
434.9679997,1699,-31.97646067,-0.032614702,-215.6109053,-34.80689376,0,16.06757049,0,-118.9554796,36.34679084,-23.26538576,145.4106558,53.18007039,36.56595028,-9.67261537,0,251.6686543,,,,
434.9759997,1699,-25.1797269,-33.29375508,50.55349455,-27.94577041,0,14.66276112,0,-63.88496658,-192.053167,-27.82857704,-294.3594795,-88.70981409,-164.1262155,30.26209762,0,289.0952764,,,,
434.9839997,1699,-3.699929416,4.479492287,-32.42253768,-9.998325755,0,-5.67219674,0,-110.5977937,199.40028,-27.16235625,332.0270625,50.82888334,160.86399,-0.90123154,0,282.2741615,,,,
434.9919997,1699,-29.20591493,5.249714895,-162.7634166,-23.75287327,0,42.80477759,0,-116.4400833,-199.1955681,8.019566803,-249.6993196,-40.02724853,-177.237876,23.32236926,0,242.9234233,,,,
434.9999997,1699,-9.059930915,-36.8283651,148.3286568,-4.563780351,0,-5.036222782,0,-90.36847918,56.811105,-28.90003718,53.7584519,-42.65232099,48.20751312,-8.362865444,0,277.0539212,,,,
435.0079997,1699,-10.79416228,22.97295145,-202.8030205,-9.308039866,0,28.08925682,0,-136.6298566,40.88588673,8.196011562,114.455386,36.10804216,48.33478929,11.67465244,0,233.1663262,,,,
435.0159997,1699,-0.268997834,-9.551627276,66.84797543,-4.216825352,0,19.12225963,0,-94.96653606,-174.1306166,19.18433377,-302.6125362,-92.2991284,-153.8026169,73.28752479,0,270.8712192,,,,
435.0239997,1699,27.98532178,27.36467284,-19.21264986,-2.549161808,0,-12.10609422,0,-175.2690722,219.8986822,1.594320639,328.1378939,39.02132478,177.5075482,26.26755341,0,238.9902065,,,,
435.0319997,1699,-14.7803587,15.64019424,-144.1893866,-12.96236377,0,43.0818984,0,-171.8997472,-175.9931646,43.32407434,-242.8981318,-54.04179223,-144.2355875,57.16575312,0,187.0793926,,,,
435.0399997,1699,-19.24237566,-44.18031473,146.1129699,0.859330369,0,-2.259960375,0,-108.4004282,63.29387763,-19.43503506,64.38684053,-44.55095835,75.30360851,12.7480047,0,253.7601358,,,,
435.0479997,1699,-14.363346,22.15374221,-216.9003061,-16.53792373,0,21.32136966,0,-167.064107,29.62977071,-15.04261913,102.2879066,22.51378039,52.25045214,-2.920972842,0,213.4495259,,,,
435.0559997,1699,-13.14466097,-22.69678111,61.58845645,-4.258648579,0,9.566137187,0,-130.9959262,-182.3509659,-3.160968419,-318.9257669,-122.6918212,-148.4241192,27.00251772,0,225.2927072,,,,
435.0639997,1699,-13.49786083,-11.93281813,-35.95358093,2.508666396,0,-14.68447814,0,-155.0073215,206.5442895,-27.76142733,316.394728,14.83343468,184.5058029,-19.99815696,0,222.9845953,,,,
435.0719997,1699,-35.58624977,2.072116396,-167.5864248,-13.86503797,0,37.38047241,0,-142.8353792,-190.080183,12.11549819,-262.1003675,-74.16888625,-152.1599796,46.3422152,0,213.6159699,,,,
435.0799997,1699,-14.47172831,-35.926692,133.0918235,3.360715033,0,-16.71627249,0,-125.2136741,63.89243539,-22.33264816,53.18886157,-70.82754646,61.75498511,37.47489826,0,260.5672807,,,,
435.0879997,1699,-31.32692353,2.471096112,-230.2375166,-18.95714789,0,9.792117743,0,-180.5601656,31.72170329,-18.01894303,102.4400526,-10.38547657,43.98347491,-5.798657543,0,199.1717463,,,,
435.0959997,1699,-28.90149273,-35.35650142,40.74408595,-14.02790366,0,6.322176965,0,-126.0903347,-187.9484645,-18.79317485,-319.5205536,-156.1081694,-152.8943973,-8.641973505,0,229.15559,,,,
435.1039997,1699,-11.14074822,-3.665638628,-56.67628347,-4.685940968,0,-25.76872423,0,-166.430116,195.4633978,-31.56747852,310.5800155,-13.71791236,171.9979228,-16.34417866,0,231.628851,,,,
435.1119997,1699,-49.68087318,-12.88755252,-178.3437522,-28.89882421,0,22.91079403,0,-154.2079131,-198.9364771,-3.589164737,-262.4222063,-102.5655057,-163.0021859,24.17099705,0,203.3488736,,,,
435.1199997,1699,-31.57997681,-49.97474331,125.5859639,-13.09236848,0,-18.32927252,0,-109.4881343,55.62115832,-49.90733939,56.35189646,-93.77722646,66.31479093,-38.25455611,0,260.3261023,,,,
435.1279997,1699,-25.51152375,19.5375961,-233.2102168,-16.0283069,0,3.490461036,0,-167.7293775,23.54641942,-11.75140027,102.9764828,-17.19703102,42.66299715,-25.74648074,0,216.7548644,,,,
435.1359997,1699,-27.07794017,-24.21586345,47.15580355,-9.083831758,0,-3.778720853,0,-125.8985997,-179.7708635,5.822786233,-300.2828065,-149.820488,-147.603287,16.33352202,0,238.5735224,,,,
435.1439997,1699,-23.68576584,-8.377298155,-59.55989002,-8.907513847,0,-25.79607518,0,-159.6484855,204.6942104,-22.91501184,323.9116824,-8.219993814,185.302838,2.142482994,0,245.7825626,,,,
435.1519997,1699,-50.36355479,-2.372602887,-187.1299653,-22.86347828,0,17.49736337,0,-160.8030351,-201.522921,13.6952473,-272.9121173,-99.82206072,-167.4406632,33.45820054,0,222.0969719,,,,
435.1599997,1699,-28.17535597,-39.02058789,115.7576682,-10.26542459,0,-32.38722649,0,-132.8997363,51.5953142,-29.75958735,45.94517937,-92.67917038,61.18804492,-38.33619591,0,267.0185234,,,,
435.1679997,1699,-33.06721237,12.31247641,-239.1831922,-16.57522465,0,11.83187905,0,-163.0278602,18.23826321,-7.418032429,90.56692532,-16.50588227,42.12634649,10.43204462,0,231.779548,,,,
435.1759997,1699,-32.46683529,-30.04456415,52.16447996,-2.03218423,0,21.70093685,0,-90.26038984,-186.4958935,13.88889331,-306.73065,-132.7992403,-140.2556446,51.41076462,0,283.1642489,,,,
435.1839997,1699,-15.5045818,-5.72131213,-50.77730007,-11.80130741,0,-17.76089644,0,-136.005573,189.3682188,-17.73251006,316.706742,10.7422655,202.7162791,-32.67014008,0,289.6465723,,,,
435.1919997,1699,-32.47206886,2.601004369,-169.4960768,-24.00326774,0,25.72771059,0,-144.136449,-210.9430696,19.58549749,-275.7932526,-92.35373655,-159.2976787,22.22477057,0,246.5548418,,,,
435.1999997,1700,-19.55987022,-41.25686011,135.499482,-3.972217661,0,-7.450015509,0,-98.49905408,54.09046594,-12.69784155,58.87687406,-85.88356498,62.65673499,-8.800589849,0,297.7389003,,,,
435.2079997,1700,-24.53941152,11.84794156,-216.5824798,-22.04749869,0,31.01713442,0,-133.4856174,14.91939804,2.23741852,95.98699187,-16.21109915,54.30278435,-24.94561536,0,266.0311132,,,,
435.2159997,1700,-15.17522948,-18.03528128,73.662051,-15.45300067,0,30.87074343,0,-93.30457864,-185.4153079,15.21316436,-305.7141991,-144.0506988,-136.1498112,8.234931901,0,294.9165098,,,,
435.2239997,1700,-17.22822009,-5.974657243,-36.85054457,-14.04967006,0,4.828601443,0,-128.7258393,187.1249999,-22.78351714,313.0739824,-9.362735074,183.7385245,-34.718344,0,280.5970578,,,,
435.2319997,1700,-40.99669465,-3.302966433,-154.6183669,-22.16662911,0,51.6342214,0,-98.15981709,-216.7755301,6.686668039,-272.7064769,-102.0003726,-169.4159174,6.383749589,0,262.4178964,,,,
435.2399997,1700,-9.661254898,-28.75782329,143.6393697,-13.13870854,0,-2.166055448,0,-66.39539436,62.53835738,-18.28444477,71.01011118,-91.31293877,55.41290858,-10.03304584,0,326.0024367,,,,
435.2479997,1700,-17.59953658,21.77909906,-207.4749332,-24.8350509,0,30.71730379,0,-121.4213162,22.69173697,1.070099373,101.03259,-35.75325171,34.56682403,-14.11104138,0,262.4998703,,,,
435.2559997,1700,-24.03022919,-19.35092643,83.47716385,-5.609781061,0,32.12294739,0,-63.03300447,-180.8166924,6.157647394,-289.4140107,-155.1590229,-150.8297936,1.413611029,0,300.0263491,,,,
435.2639997,1700,-16.88088226,4.031041452,-34.03316442,-8.350235372,0,-7.205833097,0,-107.2955706,201.2170635,-20.92375055,332.3480058,-6.100445836,173.4997285,-23.67412227,0,309.4675333,,,,
435.2719997,1700,-30.51514947,13.7452532,-147.2445383,-29.48473059,0,25.64738229,0,-124.8511542,-193.4470297,20.4635492,-258.9303322,-100.5102961,-171.7234801,12.54359703,0,262.7627981,,,,
435.2799997,1700,-14.14003111,-18.36745838,153.3524217,-21.03347553,0,-19.76876293,0,-110.3840028,78.26143149,-21.04552933,81.51586673,-94.76719894,56.66745927,-30.16067898,0,285.6276668,,,,
435.2879997,1700,-24.63844118,30.19203874,-209.3912415,-23.93581854,0,14.94019887,0,-157.9026658,28.30933555,-5.007066164,110.0042548,-28.47789754,27.52184138,16.35655256,0,227.0232299,,,,
435.2959997,1700,-20.54643156,-13.24850959,67.16578247,-10.8560831,0,6.145587687,0,-97.85120191,-170.3024813,9.824536757,-274.9206728,-139.1941836,-150.6728845,49.5008988,0,271.4102146,,,,
435.3039997,1700,-7.392166976,17.53063882,-49.88969077,-19.51917412,0,-15.90903176,0,-130.908527,209.4323474,-20.80242303,341.0100444,5.365089556,193.5341098,-20.94762399,0,272.7180117,,,,
435.3119997,1700,-18.57366444,29.18745289,-164.2372783,-35.27210868,0,27.28891296,0,-148.6084772,-188.0388457,26.37042234,-246.5017145,-85.54454399,-153.0588589,40.07490229,0,230.4891977,,,,
435.3199997,1700,-16.36059225,-21.80274126,131.2681612,-18.60631601,0,-16.50596585,0,-124.6173762,82.59382367,-13.91566231,89.52999543,-76.70802062,55.48090976,-3.860269144,0,256.6017678,,,,
435.3279997,1700,-36.3847823,21.8885934,-223.4464426,-26.10948219,0,33.44816668,0,-134.3910217,38.86142137,-10.58078008,110.5240542,5.883311528,39.53072233,0.588721262,0,235.0485373,,,,
435.3359997,1700,-21.81996491,-12.40840802,50.0163603,-29.62618297,0,12.1625855,0,-84.59437957,-148.8996072,2.113685886,-273.7375842,-103.8654352,-131.7164464,40.36081183,0,295.1177346,,,,
435.3439997,1700,-10.88471847,14.2968795,-63.55607036,-27.92216111,0,-21.10913399,0,-135.3811975,219.4310833,-20.86350824,326.1628788,14.95951415,177.1198159,-31.33322815,0,263.6007407,,,,
435.3519997,1700,-35.32338524,16.79382117,-160.3088576,-30.18504469,0,33.02107559,0,-112.5296167,-177.6900263,20.43564258,-250.9602202,-66.08578887,-160.2568109,22.7282363,0,238.9632137,,,,
435.3599997,1700,-26.52280901,-26.01002415,120.5725465,-28.381494,0,-25.055139,0,-83.87889335,95.83811715,-30.6562036,89.71368657,-51.73854087,71.14531965,0.205978712,0,287.4740969,,,,
435.3679997,1700,-37.35214571,27.82985365,-236.3834404,-35.86382982,0,22.29515473,0,-117.420057,38.14792331,-14.12539511,100.3447648,12.17730084,30.60993017,-23.22647074,0,245.0937158,,,,
435.3759997,1700,-22.48247859,-3.759595611,63.05718865,-22.99175036,0,23.52559933,0,-59.22079155,-145.8150184,10.5158335,-266.6619837,-92.47386038,-139.9115769,-0.134364321,0,301.4391124,,,,
435.3839997,1700,-9.203358954,23.12414031,-55.33259927,-24.10495068,0,-16.85865341,0,-116.2687949,223.3433953,-18.99246285,334.4911588,35.16137666,178.3665924,-0.702315528,0,288.9065064,,,,
435.3919997,1700,-34.03366114,20.03524965,-162.4415343,-31.0700125,0,28.4408715,0,-99.04786184,-178.2131392,19.46025446,-240.9864901,-46.67236314,-174.3830938,42.62473979,0,268.9373917,,,,
435.3999997,1700,-16.34195247,-15.74632462,129.0045449,-12.89680594,0,-20.81460448,0,-65.61717358,99.51488695,-20.9588357,105.3485526,-31.60196293,61.28246413,-13.26551118,0,305.3518207,,,,
435.4079997,1700,-24.70373317,41.98905213,-228.9862451,-21.80505587,0,14.57975379,0,-114.904535,40.84378988,-4.988650387,113.0424653,29.25804906,33.77247575,17.9373947,0,253.0644186,,,,
435.4159997,1700,-27.74431116,-4.271645469,48.96699097,-33.63433064,0,1.270510899,0,-63.62391886,-147.1242889,2.291212207,-247.7777638,-85.35076158,-133.5554127,16.49080308,0,292.2945093,,,,
435.4239997,1700,-17.74634756,23.22614307,-71.06155824,-28.16540827,0,-28.91395383,0,-109.2129712,216.2369389,-31.16803738,340.8463534,32.20677739,184.4685326,-32.27233315,0,259.5889402,,,,
435.4319997,1700,-31.31917139,36.08120343,-167.8206679,-21.58671868,0,21.90242899,0,-97.60035217,-178.3592874,14.25251141,-237.3819761,-49.13635498,-158.9024966,54.1196955,0,244.4104956,,,,
435.4399997,1700,-14.86580222,-3.915506852,119.4784183,-10.86073755,0,-30.18108088,0,-75.0588555,103.6492906,-18.40220459,114.176404,-37.4847286,73.96401131,-6.634279898,0,280.7698953,,,,
435.4479997,1700,-37.33783013,32.67402192,-225.5767904,-13.95928371,0,14.45087861,0,-98.90494138,36.16536392,-0.035582874,115.2369742,19.99731854,32.69341641,5.239275623,0,226.2775143,,,,
435.4559997,1701,-47.01481999,-21.45596335,54.6178118,-24.77724929,0,1.574355271,0,-28.1508814,-152.215512,-1.641482122,-241.9605334,-86.8125099,-127.6622552,33.76910988,0,294.4339797,,,,
435.4639997,1701,-31.84576355,5.131219653,-74.56189646,-30.8317989,0,-35.90951894,0,-81.3023069,205.1737738,-39.85926272,331.3320711,20.63233012,180.3031132,-35.11426975,0,265.8046646,,,,
435.4719997,1701,-42.89206987,16.97133183,-156.3070877,-20.83112556,0,20.16698273,0,-55.09564622,-189.0390373,3.717838983,-251.0497534,-67.75362405,-165.1566117,35.51899148,0,242.4516492,,,,
435.4799997,1701,-17.35438576,-8.367699771,129.5164484,-12.85812088,0,-28.37344905,0,-19.28282452,98.51271019,-31.67682666,111.5820236,-41.27795659,88.01679371,-25.19528087,0,312.5367061,,,,
435.4879997,1701,-20.96534177,44.3382989,-218.3432853,-20.64172045,0,10.45330294,0,-66.41762681,34.55899519,-2.996317648,105.8537957,14.21100751,45.40217521,-14.57760238,0,264.8520029,,,,
435.4959997,1701,-25.64924435,-12.02178479,70.54152798,-17.10576246,0,-5.784057001,0,-16.12033868,-136.9409229,2.382887838,-239.0462741,-98.13977149,-115.2181342,47.51805672,0,302.262099,,,,
435.5039997,1701,-8.548117416,15.03973277,-67.62767748,-26.73295945,0,-45.36995455,0,-69.00518003,221.0397166,-46.09536729,343.6873034,16.4176299,186.5675846,-53.30910001,0,276.0104701,,,,
435.5119997,1701,-13.14341571,34.22259768,-158.2614004,-33.79007744,0,9.123370945,0,-48.21113846,-171.6033841,5.315302252,-234.9457294,-69.7691544,-161.6003096,1.418925691,0,257.2738498,,,,
435.5199997,1701,8.455894494,4.263622952,118.9300653,-25.03416486,0,-42.7444296,0,-33.87372306,123.1338184,-7.952009011,128.02171,-47.59623407,92.44963868,7.286612037,0,295.5131759,,,,
435.5279997,1701,0.657664506,52.50744256,-232.3483496,-32.82353051,0,-11.65876746,0,-100.7794053,46.43847105,10.87230551,106.8181314,-1.760991151,25.71740739,-12.62676442,0,216.6647627,,,,
435.5359997,1701,-8.223762051,1.723066278,67.3742143,-20.7831351,0,-11.13260899,0,-36.87606658,-129.039894,12.27989163,-234.6056631,-110.3287897,-137.7860034,28.23102462,0,246.2743243,,,,
435.5439997,1701,1.14124501,29.44702194,-60.72308941,-13.96320784,0,-26.85965285,0,-70.56238387,225.4313979,-13.53695882,348.8541355,21.97640169,187.9878341,-1.907712949,0,234.1858718,,,,
435.5519997,1701,-23.64404421,23.35972371,-152.5889061,-30.2238562,0,21.79004496,0,-53.35770865,-183.253908,23.78083086,-232.0270383,-64.83824549,-151.8119421,22.2379653,0,225.1233255,,,,
435.5599997,1701,-19.85604315,-27.09731617,113.3620903,-30.00157206,0,-34.91226215,0,-21.76753938,89.84656244,-27.68509673,121.6794289,-55.81206377,79.6627043,-19.91306784,0,264.1491373,,,,
435.5679997,1701,-10.55315833,34.91795806,-233.6238498,-25.84764298,0,-2.71018935,0,-59.40203732,12.73248494,-6.716790173,87.01325822,-4.086545844,7.477809793,7.932924258,0,212.5750402,,,,
435.5759997,1701,-2.610255939,-2.296734846,70.10243143,-17.83033837,0,-11.52673662,0,-4.408013776,-143.1700229,11.40324774,-248.9041052,-106.794367,-140.7022314,11.40827421,0,257.7170544,,,,
435.5839997,1701,8.38607035,34.06588017,-60.02520583,-17.23043541,0,-31.6833793,0,-53.28350847,212.8703963,-13.38518673,321.8326595,15.24943569,172.3658695,-55.04878162,0,227.4524058,,,,
435.5919997,1701,-0.497559824,42.61940378,-140.615566,-20.28489268,0,9.239881749,0,-43.23928177,-181.5707386,34.15409154,-262.8148693,-68.61387235,-165.0291383,52.19744126,0,211.4945011,,,,
435.5999997,1701,10.00868743,1.189831935,129.2490219,-13.87365832,0,-51.55356747,0,-35.57153684,105.5337184,-11.79982316,100.7284107,-54.03873615,74.74129715,0.35124612,0,242.0024775,,,,
435.6079997,1701,-8.687077754,52.87066341,-218.2784487,-9.920833381,0,-3.332115309,0,-69.43227709,16.1098865,2.145050913,69.68285248,-6.818926755,-2.61643016,-24.7730169,0,181.4192745,,,,
435.6159997,1701,-15.97622747,0.212367011,70.91827077,-6.594326672,0,-10.33275809,0,12.56490449,-145.5382646,3.910811475,-246.5771518,-99.40307453,-134.4962866,12.4837818,0,252.3055905,,,,
435.6239997,1701,-0.242024132,30.14148969,-71.22880547,-11.84649529,0,-39.91912493,0,-36.83757765,208.9623411,-30.5961113,328.6590122,29.03602221,179.4347604,-29.80684189,0,233.6576667,,,,
435.6319997,1701,-25.44822899,27.37848165,-139.8349488,-11.34124791,0,12.34163406,0,-21.12645789,-188.2039169,18.98883245,-254.5826696,-65.87136812,-168.1905641,30.52215192,0,204.2267049,,,,
435.6399997,1701,-21.62797095,-19.9307716,125.9109081,-9.721128812,0,-32.55267485,0,21.02556432,95.19915348,-35.81333606,122.0269497,-42.47663279,82.83196761,-56.21460765,0,255.7792937,,,,
435.6479997,1701,-19.35235836,42.60674414,-218.2617271,-15.24896829,0,13.76712239,0,-12.08313209,7.012892992,-11.60822748,84.19056849,14.15296973,6.869287648,-29.14604248,0,206.8780446,,,,
435.6559997,1701,-15.35107035,2.926926162,89.85350485,-2.551497593,0,-1.333034119,0,35.14731522,-146.1405968,17.8449846,-239.2645528,-92.06397881,-131.5713633,44.1238403,0,252.9032964,,,,
435.6639997,1701,-13.41954824,21.14824241,-57.9248329,-7.996673951,0,-32.47908165,0,-18.23796232,196.8315785,-18.64487422,328.272688,29.53231983,172.3086692,-49.08094488,0,225.6716218,,,,
435.6719997,1701,-32.38946329,18.06663087,-129.8611759,-22.14823082,0,19.03159953,0,4.293280954,-211.6260908,9.737909069,-268.3860101,-68.56445009,-183.370057,5.31147955,0,201.0266938,,,,
435.6799997,1701,0.081378861,2.405570379,148.3455397,-5.798048433,0,-30.03809242,0,25.58572228,88.10648928,-29.09155954,103.8299353,-51.50949984,90.27592349,-26.13396369,0,244.0018608,,,,
435.6879997,1701,-7.010098573,57.85635341,-202.2285499,-6.328056521,0,4.349063354,0,-23.47145398,10.67710709,13.59243328,67.1602725,3.87208449,27.95403024,-19.39782648,0,182.5418123,,,,
435.6959997,1701,-12.34094444,2.31003294,86.55478447,-16.98845176,0,-11.70312566,0,28.90613967,-150.2497511,11.21039467,-249.177177,-102.6160035,-128.0161071,32.9190125,0,225.5708974,,,,
435.7039997,1701,6.050556512,38.39630811,-54.68603302,-17.72289678,0,-30.5559354,0,-18.48944675,191.1893011,-31.01277573,321.5803609,20.77447543,168.9571107,-40.57987726,0,199.4507551,,,,
435.7119997,1702,-23.31764072,27.357568,-121.9975108,-19.55585332,0,13.52522428,0,5.405223281,-202.0332855,19.78593205,-264.7093396,-69.59684926,-171.3639589,3.478520616,0,179.3881506,,,,
435.7199997,1702,0.551934983,0.252431196,138.1740619,-15.619211,0,-47.8199619,0,8.24025519,94.5091246,-24.90662905,109.5909876,-50.53663096,103.7933971,-8.155751857,0,226.0457606,,,,
435.7279997,1702,-1.012416008,62.07201183,-203.9086297,-16.69793087,0,-2.501947166,0,-53.64785441,2.716086123,10.05592746,57.11158229,-4.768831045,24.32198904,18.90774445,0,155.0634958,,,,
435.7359997,1702,-15.27980556,-1.060031517,97.01718804,-9.11830249,0,-5.501576899,0,24.19192038,-143.2220316,13.24224109,-253.6341428,-103.463738,-116.0093926,24.06232604,0,199.9733831,,,,
435.7439997,1702,15.06161168,48.21812782,-50.55783255,-8.023241603,0,-33.02436822,0,-28.2901862,203.7992536,-11.29322597,319.8320465,36.14716842,205.566353,-44.86626896,0,196.0663341,,,,
435.7519997,1702,-8.386102671,47.25997278,-111.7496336,-20.20284772,0,8.455350897,0,-34.08987161,-200.6761175,46.10149791,-272.2623705,-68.66828462,-153.7116273,47.70269199,0,158.6313568,,,,
435.7599997,1702,-20.70167055,-12.68427116,143.735008,-24.61882003,0,-37.17838454,0,-9.632027776,87.09311051,-17.25425004,104.1399425,-59.7348874,99.68073938,8.261518538,0,180.3579282,,,,
435.7679997,1702,-24.59318798,44.94131836,-208.8039419,-38.59008278,0,8.090110453,0,-54.44077345,-17.67382426,-3.552140127,43.59689116,-11.32388865,25.76827257,3.125333906,0,133.404035,,,,
435.7759997,1702,-15.26017624,8.08738156,101.4953719,-25.29695096,0,5.746816181,0,8.55281828,-159.3644701,10.55276489,-266.2335993,-120.5355676,-113.4884672,25.96905101,0,179.6720485,,,,
435.7839997,1702,-0.765364464,45.55805152,-44.10639642,-16.42607895,0,-16.62010239,0,-42.30849157,197.6632577,0.94145362,309.3808539,16.87871468,196.5139791,-19.25431802,0,161.6142493,,,,
435.7919997,1702,-24.39326541,37.31582419,-113.1898788,-41.61329879,0,15.51188105,0,-50.5594206,-203.6580364,32.42474848,-285.8565995,-91.92793549,-170.0146927,60.11307487,0,131.7542759,,,,
435.7999997,1702,-12.03001261,-1.280129113,144.3715938,-33.46510728,0,-32.5162323,0,-35.51625659,92.32301275,-25.63472594,100.9024286,-87.27617973,74.59048236,-5.466542545,0,140.5336117,,,,
435.8079997,1702,-17.31459229,56.63602403,-199.3603047,-27.33944397,0,7.930986903,0,-80.84942049,-3.357316685,17.81473765,47.29537907,-24.91465171,12.16755861,16.01120169,0,81.4377777,,,,
435.8159997,1702,-22.31762383,0.538644292,102.7112478,-28.20928051,0,-5.416175762,0,-24.54130738,-143.4450333,16.19005419,-261.0731708,-128.1578633,-113.1893479,84.23849513,0,132.8775326,,,,
435.8239997,1702,-11.19817754,22.89325682,-60.11432309,-35.26044497,0,-31.25144614,0,-76.07224838,199.807592,-19.69610742,309.2729377,-1.610934291,180.8252678,0.088257622,0,113.4638711,,,,
435.8319997,1702,-30.11510292,14.95471048,-118.1977148,-48.11151762,0,13.35721813,0,-49.38171099,-199.876613,12.29586021,-276.1412891,-100.861753,-159.2423444,2.120883894,0,103.583965,,,,
435.8399997,1702,-16.3608179,-15.9477683,139.1340883,-38.8217966,0,-19.80013866,0,-1.440577826,101.0513572,-35.38619716,123.71559,-68.55180545,110.3120125,-19.38685729,0,167.3935902,,,,
435.8479997,1702,-11.98114706,48.68492022,-220.5422647,-55.1117966,0,4.93654573,0,-68.64208946,-6.28472939,9.121240968,55.60831515,-15.14516021,8.177103337,52.63663899,0,124.8836238,,,,
435.8559997,1702,-15.23593984,-7.546814195,87.6479098,-57.45883718,0,-17.3636519,0,-25.25953168,-140.5487552,-2.912693294,-248.6349932,-136.4436459,-136.1597177,42.25927107,0,146.096749,,,,
435.8639997,1702,-15.28460603,17.62107791,-69.32428139,-54.28832338,0,-21.98008134,0,-48.1711519,200.5427156,-46.1434294,325.7277958,2.868330642,165.6400374,-39.03434431,0,133.9278278,,,,
435.8719997,1702,-24.99842817,29.58315194,-120.0491752,-49.88593734,0,22.03398964,0,-36.48134344,-202.8318094,12.4385984,-266.81944,-90.15547543,-181.7942816,69.16484118,0,130.9802843,,,,
435.8799997,1702,-9.765579154,-4.675832248,140.5154806,-27.1279896,0,-32.32893209,0,-35.46248601,106.6876627,-23.90510619,133.3992703,-68.02613157,73.72820038,24.18288498,0,154.8953476,,,,
435.8879997,1702,-24.80713513,34.2888044,-217.0107792,-47.32614757,0,1.283205149,0,-88.98396615,-0.751961563,-12.76555991,57.40157929,-21.39811921,-17.01006355,14.56978181,0,94.04040931,,,,
435.8959997,1702,-15.45089033,-6.737636381,101.1283815,-38.71545896,0,-1.521591877,0,-25.137496,-130.8435942,-16.2495314,-238.4268146,-135.176679,-138.4413188,32.73338873,0,131.1890825,,,,
435.9039997,1702,13.87558944,47.17497654,-51.82763535,-28.3096706,0,-18.668893,0,-83.469342,211.0735437,-16.90367368,339.0497126,13.37118164,165.492372,-4.268180073,0,118.8431897,,,,
435.9119997,1702,-0.528178905,44.46875016,-99.15626836,-43.98465635,0,10.37280565,0,-93.22713592,-188.0816581,33.83742727,-260.6032902,-86.03897023,-172.3928633,65.96050484,0,92.88682558,,,,
435.9199997,1702,-4.805565575,-9.016834248,160.818628,-35.70567865,0,-26.42887346,0,-67.22485845,125.7070414,-28.36006655,148.003706,-65.83683694,91.47725873,-0.922000876,0,112.4085474,,,,
435.9279997,1702,-37.11777096,25.40157183,-200.8791591,-56.68954492,0,18.29337795,0,-89.92895512,5.673577901,-14.35261824,71.10315786,-8.04730925,1.63737686,10.58074157,0,80.90243533,,,,
435.9359997,1702,-45.19160939,-28.64175561,100.9517816,-60.84274069,0,-1.734655086,0,-16.44577002,-142.3304521,-23.67314697,-236.9609762,-119.6230008,-115.9700435,40.32879028,0,150.1187507,,,,
435.9439997,1702,-19.65568209,17.9619125,-65.69638839,-62.54334071,0,-23.10800487,0,-72.26996248,188.1087995,-43.84851883,323.1788,9.650597193,165.7776233,-6.200094821,0,140.7375742,,,,
435.9519997,1702,-27.72752239,20.35576617,-109.2721889,-62.7615952,0,13.73239169,0,-65.62500051,-203.6492708,5.119733987,-276.1873752,-100.1291074,-192.0215902,29.21317149,0,113.0368551,,,,
435.9599997,1702,-17.08003255,-20.26703414,147.4245997,-42.19916037,0,-25.75123168,0,-27.39324385,114.3894719,-46.85282838,143.8659361,-66.19098085,81.48722364,-33.85848904,0,161.5496382,,,,
435.9679997,1703,-20.27842264,41.07944826,-210.7070345,-66.27170161,0,11.97798929,0,-76.57970187,-2.554134735,-18.37899652,64.28843189,-15.86541934,-11.90953905,9.011283469,0,128.3899415,,,,
435.9759997,1703,-23.09599613,-3.736441645,104.6988839,-52.95199291,0,-7.68834156,0,-34.06560947,-130.7182413,-5.484862672,-231.4919328,-141.8945358,-132.953155,52.28328688,0,156.5782626,,,,
435.9839997,1703,-21.34994158,17.81133643,-56.63859255,-50.06946561,0,-13.82404999,0,-74.66580204,202.397933,-30.83771728,333.4767717,-4.067706919,169.6882922,-8.028453731,0,153.5347599,,,,
435.9919997,1703,-38.16108573,13.76408127,-107.2661983,-79.92441233,0,28.67690156,0,-52.7131893,-199.2157055,-2.920318755,-275.5571063,-111.5448472,-176.2478904,34.00079273,0,159.0576818,,,,
435.9999997,1703,-34.16448032,-19.91459446,138.2739205,-69.21126369,0,-23.17963449,0,-30.88527106,103.8760014,-50.77524136,137.7528699,-87.51100273,82.05836698,13.05074842,0,196.6427196,,,,
436.0079997,1703,-36.32033329,40.10898124,-204.4458227,-79.15225971,0,16.87504262,0,-78.80245423,-23.53153196,-23.4425898,49.53944081,-43.58868905,-25.67740465,5.413129371,0,141.9918438,,,,
436.0159997,1703,-18.61085902,4.465812193,125.7004888,-56.19756316,0,3.276888785,0,-15.63706301,-138.1573388,-12.03322806,-232.6920646,-156.4053702,-132.5358626,2.682903482,0,183.0784614,,,,
436.0239997,1703,-25.52096326,12.8762518,-49.07316352,-54.86586324,0,-14.70283121,0,-53.43037932,187.1226369,-39.61445418,337.5567924,-6.244168769,158.3321762,0.243220597,0,187.673357,,,,
436.0319997,1703,-46.03311509,2.311274238,-96.24704367,-78.6447338,0,18.72550957,0,-45.40983004,-220.9932801,-23.22840164,-285.9933468,-129.8941754,-210.2773894,32.12060227,0,170.3751438,,,,
436.0399997,1703,-11.81726947,1.967682152,167.7619403,-41.58289103,0,-26.69025098,0,-24.05786828,110.7257362,-48.39730589,129.2475219,-106.9012869,80.03946158,-7.035931013,0,202.173474,,,,
436.0479997,1703,-11.49361429,62.75711326,-182.4013904,-56.30687612,0,13.46951822,0,-83.2506955,-3.535825667,-0.684046066,57.96171938,-44.74507923,-7.08263651,37.95074966,0,157.9941108,,,,
436.0559997,1703,-6.819989664,6.74175896,134.8780323,-58.18281133,0,-9.689124832,0,-57.32763157,-124.741981,-9.182538657,-222.8702661,-179.6434717,-128.4079416,21.86852105,0,155.2736098,,,,
436.0639997,1703,-3.443813608,33.97363506,-24.14736705,-35.78202876,0,-16.05189815,0,-78.52458655,206.0642297,-34.38660322,341.9351627,-39.54806845,173.5713619,-4.841808018,0,132.0323537,,,,
436.0719997,1703,-21.76241243,30.65649509,-70.50063612,-48.11712649,0,25.60554483,0,-46.03970427,-194.2989829,6.562602437,-263.4828848,-125.3643073,-172.152494,54.83536584,0,151.524361,,,,
436.0799997,1703,-10.28288753,-10.34460603,166.765184,-37.23845425,0,-28.72233049,0,-37.01405738,116.8634333,-43.85896324,140.8099329,-103.8926351,104.1187467,-1.487038275,0,180.5336206,,,,
436.0879997,1703,-21.5413848,33.15279864,-183.821856,-60.00504215,0,20.5362792,0,-69.47224604,-13.53126949,-30.69082927,42.69497174,-57.10974666,-10.41505179,7.318069317,0,140.9747336,,,,
436.0959997,1703,-10.36811323,0.906093386,134.9333996,-58.58361442,0,4.765395243,0,-19.60282201,-129.8312925,-23.59808739,-237.5120606,-173.0078713,-137.6640931,5.737998669,0,192.634753,,,,
436.1039997,1703,-6.803524001,31.8187099,-32.76614471,-37.08750779,0,-10.94528948,0,-56.51779147,200.1292977,-28.02744365,326.7110375,-31.39973634,175.5037258,-9.819407471,0,184.7334973,,,,
436.1119997,1703,-26.41531113,25.39414286,-77.43092306,-55.03444376,0,26.24344003,0,-38.34853348,-195.9154171,5.466237978,-268.4785986,-130.5953867,-166.8463336,47.52429536,0,190.5700078,,,,
436.1199997,1703,-4.977117051,9.002869388,153.3586036,-47.6085776,0,-30.21547465,0,-42.96935341,111.056362,-45.39766246,136.3780618,-115.3694147,79.01228849,-20.47615738,0,211.4078775,,,,
436.1279997,1703,-5.107687105,68.20984866,-190.3660842,-50.07886335,0,12.07793,0,-87.23963656,-18.44183272,-4.386609645,40.34882185,-65.78839554,-23.75611405,14.06672889,0,156.4640192,,,,
436.1359997,1703,4.447575491,25.89262002,143.377242,-26.23269853,0,-6.594808,0,-44.87721878,-116.1220215,9.739651342,-221.3989232,-175.0625064,-101.263473,73.02786317,0,188.0109806,,,,
436.1439997,1703,10.57147398,52.16662934,-25.72240432,-8.509149553,0,-18.58228497,0,-100.3229817,205.6408756,-17.8535268,321.6264028,-41.60458843,182.9303569,24.88589534,0,156.5195127,,,,
436.1519997,1703,-3.269485537,43.41282328,-61.88120574,-32.49061397,0,26.88370621,0,-83.03287874,-195.3533887,10.18803488,-281.2693964,-140.0034143,-174.8576778,42.24912834,0,143.3351762,,,,
436.1599997,1703,8.928879309,12.4907425,184.6338398,-13.36836083,0,-20.75342932,0,-68.75316392,124.8429831,-23.95141113,139.9868035,-114.4085507,116.736512,2.3331615,0,160.0776864,,,,
436.1679997,1703,1.480534005,60.91060781,-161.6845404,-19.11752199,0,19.57535414,0,-112.2508605,-6.91556056,11.19195433,37.81429358,-63.78074106,7.912824949,42.07648717,0,114.2203803,,,,
436.1759997,1703,-4.520417054,2.570102854,150.4468802,-25.69655341,0,1.62851263,0,-54.09138427,-114.5465606,-3.581532123,-218.9671866,-170.4369294,-103.1364033,44.78802419,0,158.0366376,,,,
436.1839997,1703,-19.01103311,11.10864915,-33.28186708,-24.82239481,0,-3.646491403,0,-68.97882432,189.1528976,-38.47912375,326.6651405,-36.96588168,184.1044209,-41.55441395,0,145.9856164,,,,
436.1919997,1703,-23.58253463,13.42020336,-68.62286728,-39.42533743,0,33.37443949,0,-29.11440844,-220.0404616,-4.538770836,-278.5462633,-128.3648412,-158.8689078,17.23564747,0,164.8598894,,,,
436.1999997,1703,-8.06361762,-13.48686789,172.8000082,-16.29012363,0,-13.45115083,0,8.256809783,103.3052075,-39.47432901,142.5349428,-88.08710614,125.7154727,16.26796526,0,204.283829,,,,
436.2079997,1703,-23.98765548,25.93291029,-181.5595009,-37.54426873,0,32.09416426,0,-12.6280995,-30.29032709,-20.06748998,38.2304987,-33.02826851,19.99813555,16.8000977,0,181.3574002,,,,
436.2159997,1703,1.389413904,3.922924026,133.8728103,-49.63449521,0,-7.726907523,0,9.844192406,-134.644285,-32.8867964,-217.928303,-148.2105606,-96.37123383,-13.19979748,0,227.8610014,,,,
436.2239997,1704,10.35863892,42.87828447,-29.55034752,-27.49986057,0,-20.04219657,0,-44.71494727,181.3793079,-28.42242357,321.8048375,-19.43957097,170.6850262,-26.8707282,0,185.3665166,,,,
436.2319997,1704,-3.015153004,36.51106519,-54.47194889,-33.86036636,0,20.50939957,0,-16.55478958,-205.6852531,13.62343385,-269.3475363,-108.5688211,-150.9632784,38.43164893,0,191.9607591,,,,
436.2399997,1704,11.80920647,15.49637073,183.8639161,-10.75209161,0,-40.69213489,0,-19.75535338,126.4488074,-25.38022627,160.2240285,-83.07233941,131.6688742,-19.16740416,0,205.2627396,,,,
436.2479997,1704,-24.53102845,41.58887443,-159.4558136,-10.6811564,0,12.63067728,0,-45.62270168,-15.50423451,11.7099801,47.8009602,-33.10623888,2.30822538,38.59260738,0,150.7383827,,,,
436.2559997,1704,-19.34416068,-8.299367498,143.9348026,-27.34078222,0,-14.4696802,0,5.223079218,-130.0501747,-19.63327503,-206.2991664,-139.5701151,-96.43774795,37.19485273,0,211.9430379,,,,
436.2639997,1704,0.684311379,43.47153334,-31.3285258,-18.71196518,0,-31.12291012,0,-63.39350299,179.9083931,-29.49229607,324.9849988,-21.71970171,171.9095134,-38.84006173,0,167.4703605,,,,
436.2719997,1704,-14.77994668,47.28042387,-42.83138857,-11.29761164,0,23.47700175,0,-41.48391909,-206.8563779,29.00238969,-263.4992331,-110.7321494,-167.1928023,26.49753201,0,159.279484,,,,
436.2799997,1704,-3.59571566,16.93100832,179.6056409,9.398856756,0,-31.56883408,0,-39.57774112,107.710482,-23.38369234,162.5429741,-81.47539204,110.1087664,10.90909658,0,179.5552194,,,,
436.2879997,1704,-19.88873381,52.28671558,-163.1818458,7.910985138,0,15.06231396,0,-78.78033856,-34.46123451,13.77967414,35.15394095,-45.0652907,-16.05251178,46.20754838,0,106.7579544,,,,
436.2959997,1704,-18.03425378,2.025920247,155.6658633,3.041197061,0,11.52380567,0,-1.974329141,-121.449453,1.181637748,-207.5239616,-139.7917536,-93.52137937,36.8443772,0,170.129877,,,,
436.3039997,1704,-14.51662663,35.42191671,-37.42292942,8.139647629,0,4.021273273,0,-39.3274455,177.692265,-23.06702459,312.8033889,-7.085278696,182.7227875,-10.78087191,0,161.0431098,,,,
436.3119997,1704,-22.97232209,31.44779036,-52.33216541,-2.626774624,0,39.86673588,0,-28.66231216,-219.2196741,25.75554774,-286.1357181,-106.5555265,-160.7687752,25.23908123,0,151.0225911,,,,
436.3199997,1704,-10.68665724,-1.383842137,176.5449841,-4.880971801,0,-12.76553325,0,-11.31070631,105.8821071,-32.75492573,147.0734951,-82.3487252,119.2142576,-26.81469898,0,177.0948974,,,,
436.3279997,1704,-16.26576712,52.66291891,-160.6789117,-3.779733001,0,32.88682349,0,-33.32436839,-42.63229551,12.91937081,15.62001944,-37.53110726,-5.190208663,36.28946268,0,136.4376865,,,,
436.3359997,1704,10.08016923,21.37165281,172.6890742,1.979911083,0,6.864464864,0,12.37554732,-127.6225603,34.05669248,-207.7165562,-125.8900624,-82.950695,40.98773338,0,191.4087096,,,,
436.3439997,1704,9.880366447,42.33306512,-14.07853358,-11.11057804,0,-8.730039051,0,-33.71159014,175.4773182,-3.493404303,322.4720859,-1.712613552,176.4521797,-19.25249545,0,154.4801041,,,,
436.3519997,1704,-2.029651475,38.15138257,-34.5914334,-29.82319192,0,29.12766236,0,-8.11454723,-224.813848,26.7148509,-281.5985767,-101.8216772,-183.6946504,43.03698469,0,152.4891469,,,,
436.3599997,1704,34.62824647,32.90014084,189.2325144,-9.3654655,0,-32.63285403,0,-31.65564288,102.5711233,0.261888503,149.6327572,-81.02659434,87.48735577,-8.788923206,0,166.1430529,,,,
436.3679997,1704,21.47974888,81.89098835,-143.1536659,-1.140653038,0,17.47641324,0,-85.59168203,-37.24129635,47.69192105,14.87367603,-51.55264623,-33.51480252,41.66998259,0,82.05338889,,,,
436.3759997,1704,10.23489249,21.10433156,171.1862458,-12.36846699,0,2.654341193,0,-16.68637999,-118.7894554,36.41162935,-200.745509,-134.0561008,-93.30596299,54.08921731,0,142.2448808,,,,
436.3839997,1704,5.39203933,44.35142894,-34.49852765,-21.25960821,0,-19.58613725,0,-63.82738261,174.1803546,-1.505854457,312.4230459,-11.92202673,169.6414272,-21.20983468,0,117.087647,,,,
436.3919997,1704,-8.824280685,37.99519668,-42.83508245,-25.51655695,0,18.92342353,0,-33.83752127,-218.2689146,31.8549635,-296.0021328,-115.0457122,-177.3201291,67.09133058,0,111.3819795,,,,
436.3999997,1704,12.90520524,15.8633586,171.7130492,-20.12160165,0,-39.29075078,0,-25.51245042,118.1118551,-11.27969346,155.931182,-75.688611,111.7260985,17.3365167,0,156.9062544,,,,
436.4079997,1704,-4.67740665,59.17264222,-173.5321109,-23.33784995,0,3.270845062,0,-74.40008524,-37.70015012,25.26455287,7.160633982,-52.53033867,-33.0137275,4.685035565,0,84.39696744,,,,
436.4159997,1704,-4.94315724,9.330148601,148.2673086,-18.419068,0,-11.64715454,0,-23.38521569,-130.15559,12.27068425,-223.3243244,-156.9243059,-123.0261851,37.52260435,0,113.351086,,,,
436.4239997,1704,10.37922345,50.44028617,-56.67419285,-15.70546668,0,-27.0232536,0,-80.10367656,166.3664465,-16.50565754,293.3569442,-35.39396324,136.4408608,-22.66111714,0,76.21837708,,,,
436.4319997,1704,-8.537041721,38.80084271,-57.81979897,-11.2461858,0,21.55013811,0,-40.56110455,-213.7341662,24.76740833,-304.0172571,-127.0075307,-199.7832467,39.44099749,0,74.31844489,,,,
436.4399997,1704,-9.6275007,1.976864533,156.1220738,-4.927443191,0,-29.49794355,0,-18.46961943,120.7372189,-32.59128036,151.0849887,-77.38006983,105.6888551,16.02365454,0,121.7867858,,,,
436.4479997,1704,-28.92548391,44.06661954,-197.5521588,-22.28420752,0,11.34170678,0,-49.07050467,-40.49291137,-8.09750198,-3.971296709,-44.03062823,-31.26541325,-19.49393067,0,68.46553354,,,,
436.4559997,1704,-15.002537,0.877478918,134.8083751,-18.0378747,0,-3.330005313,0,21.34276429,-116.8641961,-6.855438791,-219.3042084,-128.8356218,-115.2299795,-3.719675049,0,128.8086307,,,,
436.4639997,1704,-4.533426856,34.19806006,-68.34425701,-18.14562877,0,-28.70182447,0,-32.92405478,173.9127281,-28.32156436,300.1043184,6.892217956,153.7919902,-0.139251743,0,113.1469041,,,,
436.4719997,1704,-20.33701587,24.06052829,-68.48038618,-19.82380828,0,-1.954141723,0,-14.76344241,-218.9199802,5.440913081,-306.4520048,-96.62064389,-187.1406525,50.63871051,0,101.0624352,,,,
436.4799997,1705,13.64425211,22.2737459,167.6146723,-2.966204629,0,-50.8262414,0,-19.74374777,123.4691351,-30.16113347,156.0315916,-54.77536181,96.55211878,-11.69973054,0,119.6342036,,,,
436.4879997,1705,4.658246689,74.48684067,-170.8961476,-16.52195891,0,-2.948640573,0,-62.54187495,-37.24163443,15.52995457,7.25407997,-11.82556256,-46.65467489,2.618456616,0,56.76753998,,,,
436.4959997,1705,0.711926015,15.72586426,161.6822337,-12.195508,0,-28.49016572,0,-3.904484287,-107.0717792,2.768395456,-200.7848724,-103.4736623,-107.3964768,26.23340583,0,106.4850929,,,,
436.5039997,1705,5.918726964,49.30586192,-41.86496079,-7.112087155,0,-40.74661815,0,-58.55651862,184.8790044,-20.00566312,313.3400308,17.28396401,153.7721218,-3.179102499,0,74.72852254,,,,
436.5119997,1705,-11.91009009,30.58038004,-50.59248829,-12.14151964,0,14.47976525,0,-9.590467328,-217.1649243,16.49516465,-294.8135495,-78.19917879,-200.2727761,38.22947312,0,86.15661967,,,,
436.5199997,1705,17.61459716,14.62120402,172.3795294,2.873748822,0,-32.72458397,0,12.46746784,131.2699205,-36.40503409,176.5122353,-30.4780692,119.5292018,-21.57406191,0,144.2985295,,,,
436.5279997,1705,3.435685595,68.19354584,-163.4756878,-9.722643654,0,4.927607822,0,-33.68910006,-27.98048512,4.27734948,17.06922945,-5.232049673,-13.89090777,13.87573112,0,87.97871398,,,,
436.5359997,1705,-4.878998108,8.458312961,165.1427404,-15.03372155,0,-14.14105813,0,29.57355673,-106.7141113,-9.712592079,-192.2387312,-98.39212383,-96.83385867,17.15302804,0,142.1321275,,,,
436.5439997,1705,12.97950211,47.94870503,-43.35176002,-19.64301016,0,-29.51390332,0,-27.87524196,179.5095259,-31.97983187,317.5663445,23.84573748,155.9304459,-18.58454611,0,113.9965133,,,,
436.5519997,1705,-1.814071968,37.82739515,-36.7472633,-24.56399817,0,4.627554265,0,-4.5919149,-216.7247702,21.4970458,-300.0349656,-86.55180181,-201.685965,60.36394396,0,95.09120707,,,,
436.5599997,1705,17.67035346,20.94267636,185.4118083,-9.804071577,0,-46.39175785,0,20.2633697,132.7849998,-23.5158359,174.1933545,-32.26373224,109.6941246,-4.544721521,0,136.5485138,,,,
436.5679997,1705,20.1772442,87.16758927,-153.6155716,-16.39398944,0,-8.995515002,0,-34.01868576,-34.566807,20.484419,6.513960123,-2.478770599,-35.0217228,15.43170694,0,72.43145269,,,,
436.5759997,1705,21.03088235,31.22600403,184.4854337,-7.172593787,0,-31.38138796,0,9.361130324,-104.1222302,15.03887957,-199.1900818,-103.80173,-102.8032888,19.98452058,0,98.55113095,,,,
436.5839997,1705,30.20673005,65.4069206,-25.33014306,-7.532013309,0,-37.39193297,0,-27.56294933,190.7881773,-16.45652457,315.4093769,20.92572026,180.8121766,-39.22401115,0,71.71981,,,,
436.5919997,1705,16.78728022,61.79436243,-21.88746073,-8.563865161,0,5.999640896,0,8.960249446,-206.8241712,28.07901745,-298.3115629,-89.11102775,-179.0053407,45.65936068,0,69.60075736,,,,
436.5999997,1705,31.85208091,38.78397423,195.8050331,14.56911634,0,-37.01338122,0,24.13146435,136.1682816,-9.018124126,187.0726546,-41.35507994,110.7994459,24.62038802,0,107.0804643,,,,
436.6079997,1705,32.31373295,97.81078009,-142.5649101,4.400876253,0,9.65149427,0,-17.88705967,-33.39111615,29.25277136,16.62904995,-14.32128827,-25.03301094,35.14609354,0,54.60380362,,,,
436.6159997,1705,32.95651242,45.6184409,196.9190102,6.30811393,0,-18.63494537,0,27.71833019,-90.25789667,23.06163785,-187.1883696,-109.1945016,-95.53606936,32.00839117,0,96.20554098,,,,
436.6239997,1705,31.76990066,74.54846478,-9.668776653,7.029397154,0,-31.09964725,0,-28.19242629,196.7963531,1.277189957,319.2476382,16.50677389,154.6984179,-11.37151137,0,54.42911342,,,,
436.6319997,1705,7.76226318,53.30319224,0.097288496,0.677769991,0,20.58522052,0,26.79635638,-212.6817377,31.86120129,-301.8627251,-88.8278043,-189.1436024,34.97249932,0,54.64049246,,,,
436.6399997,1705,16.15250177,22.08918982,202.1197575,6.407485847,0,-28.4611146,0,56.74805998,135.6060164,-21.99831491,182.546985,-28.57596276,127.5894531,-18.01055361,0,124.9414549,,,,
436.6479997,1705,14.56073566,82.47047616,-144.7398346,-8.903705666,0,1.818855609,0,-6.660384734,-43.63958593,13.15619285,-6.360691166,-15.95004646,-39.00185082,29.74297387,0,66.65354109,,,,
436.6559997,1705,19.62048523,32.76337059,200.289526,-1.132191182,0,-17.24000412,0,39.54317269,-105.8572785,8.515423882,-201.0912498,-118.6220536,-118.5143334,25.41695898,0,85.40808937,,,,
436.6639997,1705,25.9745605,76.84913552,-11.01526446,6.399316145,0,-17.0439892,0,-5.456046931,192.0008985,-6.696879689,327.3582239,27.96026663,167.8485612,-26.3767008,0,62.59929477,,,,
436.6719997,1705,16.08317361,76.06847639,-6.806110521,11.93482028,0,17.12135011,0,13.39911391,-205.1117736,49.98717871,-294.5266133,-80.18064251,-175.8567537,104.1740955,0,50.85809351,,,,
436.6799997,1705,27.65443698,41.68781021,194.1532268,15.18010164,0,-38.25001099,0,9.629182231,150.4460654,10.52979272,190.4590089,-33.90236857,123.4106554,27.88343872,0,66.92878142,,,,
436.6879997,1705,1.475879408,71.9280217,-148.9310704,-10.47641506,0,9.845172326,0,-24.18464019,-33.6529709,17.95032255,9.350855074,-10.06297142,-26.64518809,-33.85498443,0,7.805625816,,,,
436.6959997,1705,10.07559865,23.01070961,191.087824,-5.031563038,0,-12.36045402,0,43.7273409,-96.08146787,2.628824986,-181.687271,-97.44184705,-86.16359129,1.491372519,0,66.02503638,,,,
436.7039997,1705,37.37508758,82.4511201,-15.18879033,-4.691676032,0,-20.59967243,0,-8.780864286,203.6829148,8.165262638,337.3345114,44.18105553,188.1237375,2.311694311,0,50.57367822,,,,
436.7119997,1705,13.45231323,61.67547427,10.91015136,-7.894016663,0,22.27689653,0,28.36810567,-199.0483042,53.26660763,-279.9649895,-71.42629903,-173.4607188,47.84087353,0,35.53041325,,,,
436.7199997,1705,12.29312245,18.07246,213.4424147,-0.433837625,0,-27.38054372,0,53.16817377,146.5692121,-9.660412046,213.5510733,-19.30023849,126.1314158,-29.66942282,0,78.09098168,,,,
436.7279997,1705,-3.130613582,64.45240748,-133.5737389,-12.22957418,0,15.63369011,0,21.08464155,-46.79819057,17.16806907,20.71441428,3.020070193,-24.59924544,-1.422383216,0,40.34194239,,,,
436.7359997,1706,15.35200355,18.54796596,206.6224127,-2.321280806,0,-17.18962257,0,59.67539967,-107.1154184,16.34827584,-170.819838,-98.36795331,-94.48091329,-5.699758888,0,79.21591166,,,,
436.7439997,1706,29.27439955,62.14445001,-0.782155901,1.287664463,0,-24.49263683,0,-9.119473875,191.4698096,-1.209242385,342.3856316,29.86990595,179.8886385,-47.35330004,0,33.08557191,,,,
436.7519997,1706,-2.708745854,45.00034585,25.76165305,13.27458754,0,30.21799129,0,40.64595097,-220.2845852,33.36886215,-287.864855,-85.21173295,-168.9914502,15.75525007,0,20.83619054,,,,
436.7599997,1706,16.83750157,25.22828507,223.404658,32.53381464,0,-20.21393059,0,66.7868807,129.6798202,-2.110423915,206.3568704,-21.66237039,128.8773032,-34.8377952,0,71.6168784,,,,
436.7679997,1706,14.69202573,76.35983035,-117.4107895,16.29984373,0,18.40355166,0,23.57332407,-44.20562274,38.38813798,16.32962203,0.824783048,-15.07574159,26.71112327,0,18.47323683,,,,
436.7759997,1706,22.41813357,18.81525931,226.4418111,14.14506697,0,-9.13150894,0,70.31355408,-97.11283949,21.01599072,-172.4005774,-102.9685203,-80.08552999,6.827806879,0,57.24403276,,,,
436.7839997,1706,30.08796197,56.74840855,4.180564395,8.576599805,0,-24.18500557,0,17.54209946,189.8036537,4.249969806,333.8865395,29.86007024,173.0662442,-58.72048987,0,38.03154411,,,,
436.7919997,1706,5.534110417,42.0271953,26.44763886,14.82832186,0,15.11127552,0,52.23529908,-218.2106911,51.12756658,-293.6604969,-87.97549717,-175.5339967,23.4424225,0,32.04563728,,,,
436.7999997,1706,26.58548568,18.20225898,227.1267946,21.21747844,0,-39.98307491,0,52.38966513,137.0811012,1.594467933,202.9833587,-35.03203194,127.9947288,-28.07631269,0,67.30395839,,,,
436.8079997,1706,25.04275583,67.95895063,-103.7493589,-1.062628646,0,-2.531168395,0,-0.824078417,-44.05205745,28.36550063,-0.262185652,-21.87171407,-20.95504145,-2.886676086,0,0.974277556,,,,
436.8159997,1706,19.27593705,10.60396895,247.9834023,13.41571281,0,-24.14099013,0,44.71028592,-98.32459433,19.34509528,-181.8806576,-117.7141762,-78.16088672,-4.15911064,0,29.62685251,,,,
436.8239997,1706,26.65446706,56.31456008,14.07682719,10.90759508,0,-39.25127495,0,-18.2738951,180.7839226,-5.683212014,321.1412947,25.1322151,181.126354,-43.99696316,0,12.31854903,,,,
436.8319997,1706,31.50790603,64.68416899,37.37220755,18.99869839,0,-1.854649388,0,-2.745328609,-212.9588941,43.37993217,-314.1080551,-95.01370544,-153.8047321,44.54214802,0,-8.327661587,,,,
436.8399997,1706,30.97451873,31.98874259,229.2149303,36.20651013,0,-40.81037068,0,5.940267861,154.5227092,8.389569431,193.8213396,-34.21287841,156.2169226,-33.94281937,0,11.55696348,,,,
436.8479997,1706,2.134894383,70.48866725,-129.212647,5.001372719,0,5.664993451,0,-24.77789715,-50.41146654,28.4759493,-15.76169408,-11.67482978,-0.897296112,-26.36015776,0,-34.08046335,,,,
436.8559997,1706,20.32431516,28.13368335,223.2616747,10.27335203,0,-19.93583026,0,31.42832263,-100.83994,25.11301533,-197.0582621,-104.2728476,-44.15292519,32.51091614,0,13.74155664,,,,
436.8639997,1706,31.10125633,64.25283823,8.931118149,1.626913729,0,-33.6082778,0,-22.87106697,193.486146,8.595822043,316.8470696,38.4383212,212.0199903,-24.26115847,0,-3.172631774,,,,
436.8719997,1706,22.17772657,58.37820421,40.05985689,-3.878853128,0,3.555570945,0,-3.579141251,-208.5277383,44.95347107,-316.916126,-87.53231457,-136.080917,19.85104789,0,-19.93774874,,,,
436.8799997,1706,31.46094324,36.08965357,241.786974,18.58448198,0,-38.17704753,0,6.605293303,151.4200676,15.83033121,190.7991131,-28.32350312,185.1755791,-34.22608398,0,6.725512974,,,,
436.8879997,1706,5.29939935,68.16596418,-96.11590947,5.168595077,0,8.785169439,0,-20.43019378,-48.01464518,55.70725526,-13.35028275,-2.323016299,22.24660207,-14.31297714,0,-40.49692937,,,,
436.8959997,1706,9.803748596,6.972850552,248.7613261,10.69638315,0,-13.43699985,0,39.69495729,-96.65109531,29.91895339,-190.0004722,-97.97702923,-32.26644607,27.65845832,0,7.913156669,,,,
436.9039997,1706,12.28147963,44.05258853,16.2057965,0.866552291,0,-24.89089829,0,-8.8817785,183.3823111,2.207025755,311.9695059,35.74882499,215.8754997,-59.01120722,0,-6.685962448,,,,
436.9119997,1706,1.050474277,39.52530293,43.87717645,-4.004431211,0,-0.81591493,0,4.513181124,-223.6506292,53.08776932,-326.0405869,-93.93553007,-154.7797654,-0.818287566,0,-30.2373435,,,,
436.9199997,1706,23.99158893,24.32217711,241.6519339,18.76909015,0,-52.54187393,0,-4.850523764,140.2892053,14.97970972,185.818648,-41.29206855,152.1401639,-3.561153812,0,-13.28701339,,,,
436.9279997,1706,9.743106051,67.79672157,-94.02520247,8.066431576,0,-0.004269998,0,-37.79265621,-51.48410213,54.33596013,-8.983803899,-19.48997216,0.734302108,-12.41571789,0,-57.62176688,,,,
436.9359997,1706,16.64623037,13.67680107,252.4851197,6.001739679,0,-23.62303206,0,20.09459466,-92.77201636,35.73976202,-175.4365155,-115.0868002,-44.47296565,-19.59630756,0,-14.25437381,,,,
436.9439997,1706,26.34931723,55.06032045,28.04395472,-6.918259766,0,-34.25462189,0,-30.4248744,189.0917738,10.99808866,322.642649,17.52098096,210.7632401,-42.54351995,0,-44.25128014,,,,
436.9519997,1706,4.953454296,38.09842682,63.6947184,-4.306104666,0,4.921950654,0,10.17332752,-209.2597361,63.62112896,-306.497486,-98.27268294,-131.8957986,48.77372873,0,-53.75473182,,,,
436.9599997,1706,23.62616419,23.53576553,248.2726256,8.19598206,0,-44.27856112,0,8.400389048,150.4015009,17.79292535,198.6955237,-33.89189961,172.9948712,-23.89298774,0,-21.5838924,,,,
436.9679997,1706,17.91248287,78.27856473,-88.57049902,-16.00798379,0,-3.956622398,0,-43.2411825,-48.06647537,46.06847912,-12.08069188,-13.703967,6.400705025,-39.03045471,0,-81.82191695,,,,
436.9759997,1706,13.21364396,15.15473352,261.5866691,3.973140708,0,-28.23107102,0,26.44853343,-81.57014131,36.10115219,-167.5294973,-102.642275,-27.79140734,36.81583128,0,-44.87946146,,,,
436.9839997,1706,18.2594576,51.25116759,19.33458884,1.955509453,0,-44.98263369,0,-35.38603204,191.7266936,20.93527754,318.7185398,27.95446614,202.9632258,3.200241236,0,-70.51126236,,,,
436.9919997,1707,4.469166002,38.57023081,48.27447664,-10.59372012,0,-1.817954009,0,-7.84882902,-212.1894198,47.39869744,-317.869309,-98.61127886,-162.5957095,-22.60304387,0,-89.16496102,,,,
436.9999997,1707,24.63546366,21.18136394,240.6332105,17.8099105,0,-26.80569814,0,34.23227201,157.3737348,2.948417558,199.2980657,-22.48495838,175.7680158,-48.13521977,0,-42.62020188,,,,
437.0079997,1707,22.77888784,77.51862416,-97.35345064,4.064484405,0,7.996343552,0,-13.52487707,-40.43125197,63.01328028,-22.77307442,7.890098407,27.84250626,42.73052379,0,-78.63130519,,,,
437.0159997,1707,17.7979006,21.07499937,243.5508849,-5.849434696,0,-19.44237346,0,24.94945145,-77.61792725,36.45908811,-183.4802707,-88.59203311,-25.90721947,16.56336189,0,-48.14141526,,,,
437.0239997,1707,15.09259454,58.13231487,4.281722976,-16.36997113,0,-20.07085821,0,-26.52950677,190.8236096,4.854975033,303.1620709,41.02204067,203.1284147,-39.92502564,0,-82.5279965,,,,
437.0319997,1707,4.871605622,49.42923149,38.26578134,-23.88634278,0,6.593710428,0,-7.537036251,-211.8599752,56.27607802,-331.3438873,-80.42083945,-147.9927502,46.02627476,0,-100.2774242,,,,
437.0399997,1707,30.02012831,31.12419721,223.7137852,-10.40263647,0,-41.34700699,0,-0.51875767,162.4711611,9.764642777,189.9312264,-14.5331269,163.9344318,-15.62028013,0,-69.65539024,,,,
437.0479997,1707,13.88085047,71.60283408,-108.7854585,-21.21031852,0,2.634665265,0,-35.65617007,-32.98749668,41.59094695,-26.71307533,8.208609147,-13.87170677,8.214179047,0,-119.4568207,,,,
437.0559997,1707,4.384928156,7.927580146,225.9872435,-23.00503883,0,-14.03952541,0,28.26972267,-68.78600595,11.73476493,-175.6799843,-76.12563775,-53.58767616,9.138718678,0,-67.08712372,,,,
437.0639997,1707,13.09633717,46.74371079,-19.97849124,-29.29100464,0,-8.263089498,0,-10.22120163,196.4841641,-12.50979496,306.0788111,57.17908194,188.7851949,-28.27618491,0,-73.83925414,,,,
437.0719997,1707,6.367674349,35.65622699,34.96399322,-22.47395758,0,23.94241017,0,22.99480303,-200.671788,45.27759114,-322.3013508,-64.46945649,-160.3338027,39.67214372,0,-79.83904883,,,,
437.0799997,1707,34.31088043,26.69925295,219.7395998,-11.20084331,0,-31.41958661,0,17.76076983,172.6873731,-1.322966691,204.0111641,1.191310782,159.9401247,-8.465758912,0,-39.03073773,,,,
437.0879997,1707,16.20489476,69.12808463,-122.9472723,-29.58527209,0,9.270072889,0,-23.60027239,-33.73951341,26.47040535,-24.12265678,16.36091061,-8.627704917,34.7628115,0,-83.41002222,,,,
437.0959997,1707,9.032455168,6.215144296,223.6829205,-25.17682576,0,-17.29279182,0,38.57245799,-71.82965904,12.29961033,-177.8200229,-79.22800736,-51.57777435,13.62315174,0,-47.47858686,,,,
437.1039997,1707,34.26604659,71.77222575,-11.33892897,-25.99790962,0,-28.49129643,0,-27.48620467,194.009794,-0.976521027,297.6288839,42.15443925,184.5297501,-28.21083748,0,-72.18853169,,,,
437.1119997,1707,20.09454011,60.50735647,43.79201819,-20.44679105,0,3.72686666,0,-10.76930782,-196.848695,55.58405719,-325.5650857,-82.65659772,-169.368731,45.82691746,0,-97.01646296,,,,
437.1199997,1707,26.34133176,27.84534513,234.8650435,-6.053246573,0,-38.96237706,0,-0.782488579,175.6295324,13.97872604,197.9980052,-19.56700478,141.2397567,-30.95004964,0,-83.70101819,,,,
437.1279997,1707,14.06974645,77.30290314,-90.76017095,-12.12485662,0,16.42992578,0,-16.23872613,-26.72943596,44.49589489,-28.43249158,9.994313843,-13.68274918,1.658699881,0,-112.9975208,,,,
437.1359997,1707,3.933573912,11.85878572,250.4850352,-7.489278511,0,-6.640096946,0,52.87968507,-54.56524933,29.19114446,-166.1976108,-63.83172267,-51.67803292,22.50151273,0,-54.61543798,,,,
437.1439997,1707,-5.509758367,34.72597409,-3.240501164,-24.33157873,0,-17.84537334,0,0.448633837,187.0893561,-5.06738082,295.2017093,57.82138252,155.0551301,-25.62935394,0,-83.28277274,,,,
437.1519997,1707,-17.67159364,17.85026436,49.02041712,-23.62505098,0,17.63230185,0,48.80848973,-219.5203834,14.86041334,-333.4070376,-53.7893542,-176.0366016,12.61778035,0,-71.58794356,,,,
437.1599997,1707,25.00858657,23.21884666,235.2327592,-0.299978249,0,-33.5279526,0,50.52162351,164.5358018,-22.68236907,196.651827,24.71953898,164.9663282,-24.85445171,0,-33.37098903,,,,
437.1679997,1707,15.87053229,76.52247776,-92.51516534,-8.505420584,0,9.60608061,0,-4.15981878,-40.37736363,38.37744907,-31.63016906,44.84367255,-25.01992932,7.038638163,0,-104.757777,,,,
437.1759997,1707,-6.328357331,-1.730764768,254.7169348,-12.36238159,0,-12.76302606,0,63.86675609,-67.09914685,25.51296741,-161.5650765,-27.78070293,-50.38151285,-3.683849698,0,-56.09040735,,,,
437.1839997,1707,-2.456263906,35.04452964,-0.354503239,-30.73717496,0,-22.48665926,0,17.22315373,186.1820055,-8.790289693,294.0983767,100.8907323,183.6027769,-36.89381058,0,-61.1280169,,,,
437.1919997,1707,-0.484404473,34.90538364,44.64981097,-37.74947811,0,6.313098632,0,32.7462648,-212.4655008,36.0938743,-339.2657648,-25.43597676,-193.4216478,2.949821888,0,-75.03847791,,,,
437.1999997,1707,24.54484066,26.79135604,229.3017798,-7.428440732,0,-37.08339958,0,37.06198517,170.6664265,9.998557707,191.4848382,38.27492213,137.5418088,-25.89909773,0,-60.82118896,,,,
437.2079997,1707,11.23740645,74.11805457,-89.51862082,5.865901158,0,18.40104265,0,5.61428569,-35.9644231,56.28341227,-36.99560421,64.48799049,-17.58876135,32.63307991,0,-107.8647605,,,,
437.2159997,1707,13.63438326,19.78825962,257.1481695,0.807461266,0,-6.146895033,0,50.65878567,-61.60776245,37.14557222,-161.1001098,-7.285958179,-66.11863268,41.64525139,0,-52.61188604,,,,
437.2239997,1707,24.05695816,64.17575075,11.6347754,-4.048885941,0,-5.802558207,0,0.025943204,190.0247188,11.43413147,297.3898557,112.0589031,157.7078942,7.961883401,0,-76.80855932,,,,
437.2319997,1707,8.551517529,48.32066502,71.15493715,0.586110755,0,35.30768804,0,38.52360296,-198.7845107,58.08219255,-316.7942812,-2.946896583,-164.6746724,29.59529688,0,-78.90101049,,,,
