Time:125Hz,Epoch,FP1,FP2,C3,C4,P7,P8,O1,O2,F7,F8,F3,F4,T7,T8,P3,P4,Event Id,,,
407.2799997,1590,-4.971619915,53.97051125,-34.74521085,-34.2239238,-15.39713903,-2.06E-07,24.16694884,-26.07093453,108.3755331,50.54897622,103.6460775,7.83E-08,-47.88561612,153.058884,157.257433,117.2034691,1111,,,
407.2879997,1590,79.72634202,-47.11129684,47.67422007,23.97128763,61.82484891,-2.04E-07,-99.22681057,46.92613379,5.728021732,18.82472817,32.78159755,7.79E-08,57.60982389,-151.4903298,-119.7014045,-78.81800362,,,,
407.2959997,1591,-41.85349941,35.58843901,-48.40518189,-22.45558577,2.224186325,-2.03E-07,271.8716663,-1.939087618,-21.91222685,45.65878447,-100.6223973,7.75E-08,16.36298041,-10.18820567,17.83010377,17.58221771,,,,
407.3039997,1591,66.7618527,2.91830547,23.01750787,-17.45299507,28.14564604,-2.01E-07,-200.5933643,-5.10890511,124.6688629,44.50144336,171.6675391,7.70E-08,-25.23776533,79.94593186,87.06198932,61.33422971,,,,
407.3119997,1591,-5.302349138,-51.86695677,2.06701358,-3.804652689,37.54380685,-1.99E-07,157.4653173,25.29739637,-82.77054259,10.2437421,-105.10615,7.66E-08,70.48278978,-207.8435525,-154.2749574,-115.1314554,,,,
407.3199997,1591,-8.516853631,57.64277743,-31.23877859,-40.74188815,-12.96315921,-1.97E-07,43.51627973,-30.74215836,98.24742154,44.54409768,98.93712577,7.62E-08,-50.26201004,155.2087459,167.4467119,114.5076397,,,,
407.3279997,1591,81.24545817,-55.54471409,63.79849841,22.99051797,64.29178873,-1.95E-07,-116.4422502,40.63083488,11.80171791,14.34612913,43.97760065,7.58E-08,58.12597691,-152.0130849,-108.8854274,-81.96533394,,,,
407.3359997,1591,-36.48944467,32.27809805,-24.39188758,-2.468233304,3.818783333,-1.93E-07,288.3716906,6.829815193,-33.85183286,32.90130907,-98.25107649,7.53E-08,25.64920426,-41.62865862,8.993230681,2.514277811,,,,
407.3439997,1591,72.13401124,15.27775996,28.05556413,-1.680611016,15.51156107,-1.91E-07,-182.7109428,-2.999248168,135.8300573,47.67782872,180.1615359,7.49E-08,-10.74820324,91.95728523,113.7377702,81.69772335,,,,
407.3519997,1591,-12.15791536,-69.20085024,-13.63971302,-4.158302082,18.2951974,-1.90E-07,143.3806085,15.54042706,-96.48051073,-4.845338267,-106.9725171,7.45E-08,70.59306297,-245.5283713,-170.876691,-131.9356631,,,,
407.3599997,1591,-25.52895245,54.49463084,-53.39573653,-44.68471333,-30.84342361,-1.88E-07,53.93595021,-38.40021879,75.95651088,22.9765603,103.4392987,7.41E-08,-75.10887846,133.7949417,165.8043257,104.4487441,,,,
407.3679997,1591,76.87113978,-53.99437829,52.75017658,18.89285722,56.92429722,-1.86E-07,-124.7826687,39.84620596,6.175381487,5.38322229,52.28815856,7.36E-08,54.34277751,-154.542947,-103.6113605,-77.22827696,,,,
407.3759997,1591,-46.40177005,25.5627673,-43.56672615,-12.68857261,-4.687597039,-1.84E-07,282.3615583,0.938904631,-53.16612755,11.1086189,-102.9745663,7.32E-08,15.87832607,-54.25863045,-3.532713123,-4.615187268,,,,
407.3839997,1591,81.37676601,27.8787986,32.03344829,12.28850002,28.33496972,-1.82E-07,-172.9618728,12.41278358,125.1495076,40.44243057,178.1029168,7.28E-08,-23.7737428,115.464497,122.8393897,91.81932614,,,,
407.3919997,1591,17.44183122,-49.8108585,20.12204864,30.7228084,55.19230198,-1.81E-07,167.2532077,51.67731565,-89.9495293,21.84849689,-129.564116,7.24E-08,96.27359049,-210.6758405,-151.7669676,-106.3127254,,,,
407.3999997,1591,-21.12128451,63.27076225,-45.66214603,-31.59424316,-18.63088825,-1.79E-07,74.81576104,-28.12132003,76.56169735,40.44905284,79.55218274,7.19E-08,-62.46243756,159.1592126,186.6148688,128.6297181,,,,
407.4079997,1591,62.6304457,-65.09301207,43.60759082,8.419203297,48.61963802,-1.77E-07,-142.9219084,27.5238744,-3.3699644,7.51265019,50.79590829,7.15E-08,44.31705045,-147.2904296,-93.97979567,-71.00402266,,,,
407.4159997,1591,-65.27549369,6.062485936,-46.65608983,-31.01478686,-5.986109771,-1.76E-07,272.6671424,-8.73331035,-71.79326795,9.7465537,-105.2571204,7.11E-08,9.747755276,-70.31524552,-6.257818683,-18.58326733,,,,
407.4239997,1591,66.2159892,19.6351052,31.25972555,-0.168558255,30.67049174,6.46E-08,-176.6967201,8.417073869,106.3592392,29.8141278,189.0518365,7.07E-08,-38.32554562,98.78814349,123.2484265,77.89422791,,,,
407.4319997,1591,3.592179167,-58.646592,18.11392934,24.84824952,50.10070127,2.91E-07,150.9741548,42.87378036,-105.7573792,20.06078331,-117.533684,7.02E-08,92.4556399,-227.714877,-155.0994776,-112.1744922,,,,
407.4399997,1591,-30.43195987,62.09254335,-48.24738282,-30.35927838,-23.65141214,2.19E-07,70.7038303,-37.78092131,61.81293788,41.20425333,87.52570858,6.98E-08,-67.82131717,146.8744989,184.0336186,123.953184,,,,
407.4479997,1591,76.43075089,-47.97688461,52.65425837,29.58297107,59.72986917,2.23E-07,-143.3226638,37.71764005,-10.58648055,8.684410366,65.18727982,6.94E-08,36.42945767,-150.1656343,-98.77959832,-74.49811156,,,,
407.4559997,1591,-60.8241151,20.89218209,-42.86841001,-13.08750318,-3.927074182,2.35E-07,279.8320413,-2.67493718,-73.26021523,30.44655376,-107.8569985,6.90E-08,19.83556348,-70.21059919,-3.100030701,-11.0173079,,,,
407.4639997,1591,62.60655768,32.94868777,30.87455733,6.318198451,20.73906482,2.16E-07,-177.9229389,3.851478375,106.8660821,45.40436571,192.0215895,6.85E-08,-40.70612695,96.79898616,139.4649768,87.91168558,,,,
407.4719997,1591,14.94744782,-45.53064342,34.2054409,34.47315385,55.59080256,2.28E-07,150.2834065,54.0800164,-111.9934168,22.69986503,-118.119404,6.81E-08,90.79789049,-243.1784089,-159.6500416,-115.3443948,,,,
407.4799997,1591,-26.3315296,71.50717666,-31.19380691,-26.90850253,-18.71150397,2.16E-07,88.24023528,-28.51361718,59.13409135,55.42854449,62.43436595,6.77E-08,-50.62463872,146.2045529,186.2114122,127.9283173,,,,
407.4879997,1591,88.5728696,-34.16168008,73.00452921,40.76189663,64.30774841,2.20E-07,-136.5186972,50.84581779,-4.729125603,29.14085022,43.71491749,6.72E-08,53.12405142,-138.636085,-82.44110082,-62.79536338,,,,
407.4959997,1591,-49.40225272,30.25774062,-30.01004438,-1.396517102,3.12257324,2.15E-07,289.7165289,13.50562262,-80.34372637,41.88757681,-134.7236868,6.68E-08,31.3599694,-70.2051175,-6.483217955,-6.164759547,,,,
407.5039997,1591,55.60909467,35.69045496,22.13076935,1.252539123,16.65931683,2.15E-07,-180.0693002,-1.920182014,99.14379338,46.14643119,175.989567,6.64E-08,-44.13062283,106.272918,135.2348849,89.71894563,,,,
407.5119997,1591,10.9062778,-43.6651464,25.40788641,31.17068539,49.28423413,2.12E-07,130.4271791,46.3792348,-118.3049451,14.85232239,-114.4862555,6.60E-08,77.7114438,-242.0390014,-168.3647095,-129.6973587,,,,
407.5199997,1591,-41.03126677,66.99153856,-43.37944304,-34.71181429,-32.33265608,2.10E-07,76.81120416,-37.3496006,48.03592903,42.72223509,70.40101378,6.55E-08,-63.8521628,145.756347,177.422884,113.7653138,,,,
407.5279997,1591,63.99307853,-46.84502568,54.32433492,28.20379498,46.09036454,2.08E-07,-166.8497086,27.97517683,-18.8234104,5.373794809,67.33985908,6.51E-08,29.69339869,-133.1580984,-92.6557103,-76.96001585,,,,
407.5359997,1591,-62.66672123,22.64332873,-40.54039032,-1.817316846,0.64363484,2.06E-07,271.2256304,-1.609221752,-100.6741317,17.92812578,-124.5757914,6.47E-08,12.72909016,-77.14426812,-29.19476525,-29.38705948,,,,
407.5439997,1591,54.0976776,36.72199123,21.33700643,5.463184028,25.14220097,2.04E-07,-178.8514756,-0.795545578,93.84676318,37.59990664,170.4913754,6.43E-08,-43.7868424,115.4509828,128.8972212,87.89744127,,,,
407.5519997,1592,17.53996658,-44.02438902,27.72869549,38.74072374,62.37818297,2.03E-07,128.8467296,53.65795299,-118.4660288,10.36841821,-122.9051043,6.38E-08,86.02361659,-230.4355173,-174.5077207,-126.7880201,,,,
407.5599997,1592,-29.45836487,76.32738495,-41.74677984,-19.38591843,-13.4601359,2.01E-07,94.80757068,-24.281711,46.78229212,49.48522451,50.73532126,6.34E-08,-54.7603437,159.9461242,175.6614874,118.2417297,,,,
407.5679997,1592,71.12064766,-39.27156092,52.46959188,35.18498148,55.30825973,1.99E-07,-160.6174801,37.50491352,-9.940930038,17.86087711,58.26038143,6.30E-08,34.07747518,-110.0764893,-78.43933981,-64.86320685,,,,
407.5759997,1592,-69.95802527,14.14894573,-49.40890035,-8.160728726,-9.687305636,1.97E-07,268.6866487,-9.110060399,-97.81521358,15.76443478,-118.7254152,6.25E-08,10.04793823,-67.89301251,-25.38418414,-33.06791991,,,,
407.5839997,1592,40.61440274,26.3141666,9.598461118,-5.90938646,1.629375056,1.95E-07,-187.8806962,-20.28673845,94.40729151,29.21053083,191.3836567,6.21E-08,-54.07096968,123.3899234,131.6843845,74.92932594,,,,
407.5919997,1592,2.934903717,-58.02414834,16.64101833,26.40443705,33.88792606,1.93E-07,104.6934601,36.95639488,-128.0566779,-6.170543738,-98.77644527,6.17E-08,66.74071915,-240.9882078,-183.8470437,-150.794772,,,,
407.5999997,1592,-36.84401494,72.24417757,-43.89185871,-18.77957255,-31.39885037,1.91E-07,91.666826,-29.08437465,33.84075918,37.51909413,61.7635832,6.13E-08,-64.46204638,152.4886814,165.9096819,103.5338232,,,,
407.6079997,1592,81.70074003,-31.60565099,64.33488536,47.16458722,51.98127974,1.90E-07,-163.6561262,40.7540164,-8.652641213,24.21659836,63.35168614,6.08E-08,44.72870884,-103.1842063,-73.0727927,-64.29467774,,,,
407.6159997,1592,-52.06912752,26.91662407,-33.6151206,5.298360122,-5.275731225,1.88E-07,275.9238779,4.956615584,-103.4833346,24.47097001,-126.5138184,6.04E-08,20.66799216,-77.40936185,-24.78311145,-38.27084933,,,,
407.6239997,1592,62.21801576,51.45909605,28.62404546,14.90413644,18.71086463,1.86E-07,-165.8426898,3.299962845,99.18867,54.59782795,178.2673707,6.00E-08,-33.78005383,142.4079667,153.083119,94.94749651,,,,
407.6319997,1592,24.42019775,-37.50464129,34.69735574,45.82043749,56.90365798,1.84E-07,113.4000928,53.40659388,-117.5538032,28.34426542,-109.6865954,5.96E-08,95.27478084,-213.1712889,-157.6341936,-125.9923941,,,,
407.6399997,1592,-28.56663581,85.10327809,-39.04349316,-17.13729855,-19.39619038,1.82E-07,99.35685985,-25.80158846,30.76389362,52.11421082,59.35037603,5.91E-08,-57.42236932,159.7289545,179.4296443,111.8278119,,,,
407.6479997,1592,79.71626201,-28.94651221,61.36881193,34.62025221,55.80490955,1.81E-07,-177.4901664,32.48048062,-8.13810613,25.9797025,75.96920316,5.87E-08,48.04892886,-92.73681672,-59.72257878,-56.49542015,,,,
407.6559997,1592,-58.35588872,20.89529169,-37.74949132,-8.597994476,-2.891127556,1.79E-07,259.3251391,-6.84445226,-113.0157584,16.05841627,-115.8376429,5.83E-08,21.42473366,-78.71746461,-26.53906837,-49.01038696,,,,
407.6639997,1592,52.6529808,48.19606519,25.60806419,3.561631561,20.25096406,1.77E-07,-171.034269,-2.035836786,86.6545003,40.56597511,196.0435242,5.79E-08,-48.00697031,142.8189458,152.1091374,82.41093751,,,,
407.6719997,1592,63.63421144,-79.21628186,85.70914092,68.79230146,95.59532788,1.76E-07,3.386247404,82.06606908,-125.6987791,15.19434309,-82.57792468,5.74E-08,136.4064576,-281.5159752,-237.1803439,-183.1908953,,,,
407.6799997,1592,-7.545890098,45.96967809,8.346920616,18.01521103,18.24111552,-6.46E-08,100.5560763,7.578719502,-12.53350915,43.66638001,10.6923249,5.70E-08,11.47419156,68.50837825,62.31539832,29.70118854,,,,
407.6879997,1592,22.92178133,22.05600514,20.72165745,16.03218065,18.15487461,-2.91E-07,-56.48285391,4.658488815,12.13808515,32.98937408,85.27381065,5.66E-08,-3.572821207,64.02892672,49.99300505,16.92982204,,,,
407.6959997,1592,-24.46394552,18.45477943,-6.44754494,6.418389137,2.303380511,-2.19E-07,104.1062322,1.26614586,-61.36820213,17.27238747,-15.75272705,5.62E-08,8.401939933,-2.69824784,2.591428533,-19.7858575,,,,
407.7039997,1592,45.49351882,23.11699016,48.21408673,27.24560835,35.36514622,-2.23E-07,-92.86602238,23.06080654,11.53603837,30.73438349,95.20110453,5.57E-08,16.538102,42.68368424,32.3914365,10.87846906,,,,
407.7119997,1592,-27.02485943,16.94745881,-0.396531858,9.012482234,21.08270668,-2.35E-07,158.2966516,17.60913708,-86.3704289,21.48206865,-63.55889939,5.53E-08,33.05926197,-36.8108462,-23.20643137,-36.08524988,,,,
407.7199997,1592,26.0389085,42.8125579,20.87418323,8.241976786,19.63282555,-2.16E-07,-71.9385595,6.822757449,27.27401925,32.24359754,112.6892578,5.49E-08,-27.40090791,119.6018601,106.5080829,55.48372031,,,,
407.7279997,1592,31.72449973,-8.345656785,49.85382258,39.591261,61.48589166,-2.28E-07,46.04999213,51.27143038,-78.14918923,29.19731866,-32.1852369,5.45E-08,67.96227983,-85.82242106,-76.02429192,-68.38161804,,,,
407.7359997,1592,-33.84234471,68.15084919,-15.88288918,-13.42187387,4.915312825,-2.16E-07,124.1272863,-11.53292699,-14.19154393,45.44645599,15.78217806,5.40E-08,-18.9898969,130.7253353,128.6138817,64.4133686,,,,
407.7439997,1592,50.70943007,-10.25882812,55.36469398,13.82162957,42.39470349,-2.20E-07,-176.6918759,13.70163666,-8.454345364,22.49658407,93.71981336,5.36E-08,23.93993836,-6.510753218,-7.168468413,-38.05816805,,,,
407.7519997,1592,-58.65770059,18.04602989,-15.27459612,0.035509531,5.537874793,-2.15E-07,220.4570449,4.061402038,-124.6573372,15.26119153,-108.4752706,5.32E-08,30.1770231,-52.64074948,-37.91156669,-64.01615459,,,,
407.7599997,1592,35.63194087,58.72464689,29.72645832,12.4400279,19.11719451,-2.15E-07,-129.005134,3.449456205,57.67428169,42.7584843,158.2412007,5.28E-08,-44.27322325,183.4318505,150.711066,77.21500085,,,,
407.7679997,1592,10.46226152,-36.84794035,36.02199736,30.47263754,45.60311964,-2.12E-07,53.37761998,41.28747636,-118.1105648,22.74746853,-72.46937098,5.23E-08,76.50369576,-142.259424,-130.68026,-114.5983433,,,,
407.7759997,1592,-62.13676914,68.22521161,-48.44991234,-30.12690409,-37.0656493,-2.10E-07,110.9668719,-39.33442082,-14.84758316,40.38401844,40.21038703,5.19E-08,-55.45967877,162.320018,150.2768058,80.08648251,,,,
407.7839997,1592,64.76330847,-14.82186792,56.00128307,37.82295066,43.94970432,-2.08E-07,-198.6138744,24.44913934,-23.41734446,15.85335484,108.7623463,5.15E-08,13.83308285,-20.36942991,-37.09972412,-51.15282963,,,,
407.7919997,1592,-55.89175127,22.96272149,-25.97854693,18.73649556,9.744580028,-2.06E-07,252.7937988,10.82106551,-140.0328069,22.34828733,-129.548961,5.11E-08,38.01445915,-48.82471025,-45.79435162,-55.96526742,,,,
407.7999997,1592,33.316206,55.26663365,10.10972586,9.608151227,8.52541647,-2.04E-07,-158.3246919,-9.146826925,62.05204553,47.89113578,170.4491203,5.07E-08,-44.90683174,210.0489026,169.7608722,97.40197325,,,,
407.8079997,1593,16.7311031,-45.76326845,30.75645553,40.01183142,48.70980516,-2.03E-07,44.30729641,44.21146027,-146.3609377,8.668992921,-95.24000632,5.02E-08,80.56340883,-161.2687836,-160.1562424,-137.9148358,,,,
407.8159997,1593,-58.60188898,69.79829264,-49.11271729,-25.22552079,-36.24788226,-2.01E-07,108.2205127,-39.16374285,-24.62622934,37.54711643,14.66855514,4.98E-08,-52.81676603,183.1250383,152.1069262,84.13830281,,,,
407.8239997,1593,64.63623509,-24.41236108,62.9989308,31.13084163,40.64498225,-1.99E-07,-206.0777074,21.90534402,-30.67636692,18.09015676,91.94203388,4.94E-08,19.89091992,-16.12673074,-40.43430808,-51.57727864,,,,
407.8319997,1593,-48.08002791,20.94115629,-2.979667867,20.08299125,13.3201806,-1.97E-07,263.188556,20.76709207,-149.2966493,19.44898107,-143.4749743,4.90E-08,41.45167422,-62.49778428,-52.54253793,-61.52552871,,,,
407.8399997,1593,38.22867023,52.34485305,34.71696565,17.07211244,11.79053991,-1.95E-07,-151.7025841,-0.517535217,63.62410597,50.20404611,161.4296462,4.85E-08,-36.73167878,203.1762223,183.5873343,107.9077472,,,,
407.8479997,1593,19.03521282,-50.39734277,51.32334798,55.01335135,60.07954983,-1.93E-07,54.42080411,49.96998701,-148.0883318,10.82268855,-91.86160993,4.81E-08,86.37273356,-173.9780513,-143.4699539,-131.7052392,,,,
407.8559997,1593,-45.95638862,80.09186731,-26.53986382,3.929773392,-10.15627952,-1.91E-07,125.8875104,-19.27946136,-23.03458308,42.72834724,25.44125467,4.77E-08,-46.89223006,177.4265017,170.5002477,94.20064475,,,,
407.8639997,1593,76.69931532,-14.5140243,68.5779224,55.06133388,55.66840411,-1.90E-07,-201.9740257,37.63884914,-21.3019223,37.89581829,90.75435002,4.73E-08,38.93842927,-6.131033034,-21.48344497,-30.5915042,,,,
407.8719997,1593,-47.93452956,27.64103562,-19.59422997,27.58919644,10.14928926,-1.88E-07,257.6332415,13.99389761,-149.4284976,38.7724165,-140.7350889,4.69E-08,42.69738754,-46.89894016,-48.57999708,-53.41157782,,,,
407.8799997,1593,45.01849905,72.4794676,30.40082458,28.97029687,15.24135304,-1.86E-07,-148.8621042,0.171873138,56.1346781,71.86096631,183.2459116,4.65E-08,-54.1012826,224.3019817,176.7973055,111.3163726,,,,
407.8879997,1593,40.43887522,-25.27860151,51.96367866,62.03076479,63.31980892,-1.84E-07,56.53534492,57.51845233,-151.554036,49.05305364,-71.74640293,4.60E-08,87.4173742,-149.7670149,-143.7198898,-115.9399265,,,,
407.8959997,1593,-23.3897369,111.0535626,-29.16680541,5.802742499,-9.539961021,-1.82E-07,140.0604894,-13.09868311,-28.18920958,79.24783776,36.56630503,4.56E-08,-41.75345974,194.6920076,179.4259677,107.472742,,,,
407.9039997,1593,103.7577594,26.21728316,83.34496692,70.35423607,68.29939794,-1.81E-07,-183.8896055,53.95951346,-29.7574381,69.40147367,108.831624,4.52E-08,36.29125939,6.877065694,-5.579769585,-16.78588597,,,,
407.9119997,1593,-20.88864121,64.93279135,-12.75552433,34.96507324,15.95004568,-1.79E-07,268.1182297,20.3905134,-164.7880584,69.04760908,-128.102217,4.48E-08,42.78275645,-47.24437881,-34.07544563,-40.03494655,,,,
407.9199997,1593,68.26043881,114.5275117,28.91895395,37.08708777,17.80577034,-1.77E-07,-139.3346163,3.902847316,48.26450601,97.83414157,195.7387839,4.44E-08,-55.66790916,227.2167866,191.7440326,118.5913991,,,,
407.9279997,1593,67.23719077,24.76860142,65.31947604,92.83042965,75.49061404,-1.76E-07,66.09036788,78.95191575,-155.573725,81.76282909,-50.14229595,4.40E-08,88.19991122,-130.6428434,-137.3844454,-110.3293751,,,,
407.9359997,1593,4.288608299,162.0619326,-21.1397825,35.31342374,-7.299753794,6.46E-08,152.9516774,1.305696934,-38.95313495,123.0128616,53.60967721,4.35E-08,-43.43193173,226.9575352,179.3393686,116.6793344,,,,
407.9439997,1593,131.970897,68.64972798,92.49444965,98.10601235,74.18524496,2.91E-07,-181.8277377,64.04449799,-28.38665903,117.6402367,123.7409373,4.31E-08,37.57823475,52.05572028,-3.350294114,-1.362982549,,,,
407.9519997,1593,0.754159066,96.89266993,8.012994636,69.46437953,37.24826904,2.19E-07,282.1304708,43.78884072,-165.6181438,116.544725,-124.7242384,4.27E-08,59.41654948,-0.972796474,-35.51493511,-21.4701426,,,,
407.9599997,1593,84.17458091,143.5158371,39.9072614,55.02632637,27.1033757,2.23E-07,-125.2438302,16.92791015,42.72081753,138.8134368,191.8802382,4.23E-08,-42.36509083,271.1851287,201.2606821,141.9916444,,,,
407.9679997,1593,80.14862142,34.274629,77.12563377,101.2209066,82.03692959,2.35E-07,70.94692872,85.73282332,-156.3654037,108.9712562,-64.93681145,4.19E-08,103.3513454,-114.0429478,-130.9034329,-93.42107753,,,,
407.9759997,1593,-10.88368539,146.6661842,-19.29318019,26.0995299,-7.003391759,2.16E-07,162.9155873,-3.50126414,-47.62684595,129.6207753,32.86857793,4.15E-08,-28.08392369,221.8090116,182.5599213,127.4990119,,,,
407.9839997,1593,108.1132411,48.94964005,78.14252577,70.21206304,57.34941766,2.28E-07,-202.3169208,44.36464077,-43.53438829,100.9063303,129.1538878,4.11E-08,29.51428597,27.32320443,-2.688837345,-7.555945348,,,,
407.9919997,1593,3.418537567,89.58132426,18.15257001,71.19420303,36.4933857,2.16E-07,278.0849407,48.52876674,-176.6354546,102.6960617,-123.200415,4.07E-08,58.37323425,-46.74193906,-51.0225626,-38.60559,,,,
407.9999997,1593,81.99823756,137.0418387,48.09086139,57.18751986,24.5970073,2.20E-07,-121.7061869,12.89801354,45.2693292,139.6724997,189.1492202,4.02E-08,-31.19317955,247.6038252,199.9324064,146.0829468,,,,
408.0079997,1593,71.59810651,21.97315384,65.15862023,87.66342601,64.78401566,2.15E-07,34.99469555,60.48092368,-159.775713,97.86609978,-50.48477502,3.98E-08,95.90553094,-147.8286473,-143.0805716,-106.603694,,,,
408.0159997,1593,7.945416597,158.4713308,-7.700968199,48.22139139,-4.178093344,2.15E-07,152.6057505,-1.58916726,-49.1321019,127.2081178,41.71680464,3.94E-08,-30.97440457,191.5163918,159.4283965,110.9416598,,,,
408.0239997,1593,116.7829863,56.36641705,86.22811721,87.746437,52.47470369,2.12E-07,-211.9033286,38.28318461,-28.65870278,114.5977883,141.3975265,3.90E-08,35.35216821,32.04618247,-0.27733138,2.278385879,,,,
408.0319997,1593,-14.5473262,72.20952584,-1.731674922,56.36677244,8.674526713,2.10E-07,253.3654924,23.55436037,-182.2520982,90.79881713,-104.3836108,3.86E-08,43.79629191,-66.80823854,-53.20289652,-52.31580603,,,,
408.0399997,1593,92.60577258,142.3936044,51.37503105,67.80581603,22.44283427,2.08E-07,-118.3844004,24.43270369,38.30881146,123.3186654,202.8433681,3.82E-08,-42.50690076,234.0437334,199.4988202,131.9518128,,,,
408.0479997,1593,86.02735368,24.47445054,76.81794889,103.9265058,73.33502216,2.06E-07,42.20890627,78.64650388,-154.0223175,97.18852594,-55.93598104,3.78E-08,106.3492759,-136.210441,-133.1806609,-100.8299782,,,,
408.0559997,1593,-4.73835775,142.9083485,-18.59304069,37.76658013,-7.637660209,2.04E-07,165.1289248,-3.741812536,-56.09795507,115.7854979,21.55399591,3.74E-08,-28.99184637,192.6757999,171.7705915,108.5758114,,,,
408.0639997,1594,123.4250588,56.88391275,89.4856465,85.22473776,67.97546685,2.03E-07,-196.6797072,52.31911178,-31.92491639,102.4978104,128.131904,3.70E-08,38.23079063,42.34595801,15.24778399,1.935089473,,,,
408.0719997,1594,-6.531166821,72.63883948,3.48925213,52.4427312,26.32663696,2.01E-07,266.9936065,35.12288349,-180.2301453,89.89103884,-124.4160844,3.66E-08,63.49332971,-45.33045569,-46.56351678,-48.41765864,,,,
408.0799997,1594,75.14470965,134.9193181,37.10257077,40.70818438,18.32529217,1.99E-07,-110.9210601,11.79707328,43.15061141,118.4125642,195.1281178,3.62E-08,-33.71171916,257.8533034,212.4673175,135.1689152,,,,
408.0879997,1594,60.70243252,10.71121432,59.85583272,67.41977417,56.82514963,1.97E-07,31.80425015,61.96854015,-153.391165,82.38000131,-37.72820491,3.58E-08,98.83848809,-129.2160867,-129.9006896,-109.3073101,,,,
408.0959997,1594,-33.93344421,128.5595348,-41.93231013,1.107439344,-36.6574143,1.95E-07,158.4043237,-18.90734408,-71.0219967,90.58686904,47.75595992,3.54E-08,-51.34579777,184.479275,157.7973405,90.54430715,,,,
408.1039997,1594,113.332454,60.85669723,78.89067988,65.4813615,50.8608937,1.93E-07,-201.5109842,53.3071357,-40.88738273,83.39403188,158.4990732,3.50E-08,19.21684965,45.96145197,5.890935068,-3.576583947,,,,
408.1119997,1594,-5.30892965,79.59274467,11.16562193,45.90069875,29.16980829,1.91E-07,282.2091329,54.52883374,-184.6560187,90.36057796,-120.341271,3.46E-08,69.89129745,-33.70921256,-55.84896872,-39.03172773,,,,
408.1199997,1594,58.68182475,127.9788451,31.71361089,20.96798645,12.09808825,1.90E-07,-92.29592789,19.2835264,33.25675342,114.2407144,184.4992851,3.42E-08,-34.86480322,272.5627617,213.3311673,155.3661411,,,,
408.1279997,1594,49.24935367,0.802763981,55.92643298,45.89492086,56.59829397,1.88E-07,30.2487903,63.06874874,-166.8862276,66.39548348,-40.74371261,3.38E-08,91.75930145,-129.2499781,-138.44935,-96.7037482,,,,
408.1359997,1594,-29.82582141,128.0885581,-28.71897904,-11.89212018,-15.05261166,1.86E-07,179.1980217,-6.464250984,-78.35703775,84.61024894,35.61042723,3.34E-08,-39.56717594,184.9935229,141.5593413,101.2873209,,,,
408.1439997,1594,115.4120997,58.45827013,88.60905634,46.30199973,71.70988237,1.84E-07,-189.2120742,61.04173685,-34.52064765,81.93985166,148.6278652,3.30E-08,31.97638754,55.18397475,4.689429019,12.51703083,,,,
408.1519997,1594,-20.66183431,60.08528867,2.535155006,15.12526704,33.62650119,1.82E-07,269.9047212,38.83562649,-186.0219625,78.53622844,-126.0206208,3.26E-08,71.25822871,-51.96294799,-68.71834415,-42.58646874,,,,
408.1599997,1594,45.94179054,112.6701424,28.94772995,-0.07651874,17.50613124,1.81E-07,-95.25378299,8.340321286,27.53738744,98.28901174,190.7911077,3.22E-08,-42.90370183,252.2294803,195.5490052,146.5554594,,,,
408.1679997,1594,61.49997237,1.178355579,78.7542822,49.27208052,81.37208969,1.79E-07,37.29680629,82.10070601,-165.0436796,60.01993761,-35.34229788,3.18E-08,99.25068785,-134.6230013,-145.7968682,-92.98832688,,,,
408.1759997,1594,-32.38518803,121.0590091,-18.24478379,-14.9379125,-3.037479943,1.77E-07,189.3545401,-2.666480447,-75.6639387,88.07602239,20.81148331,3.14E-08,-20.73311271,187.7465665,152.697213,112.9527582,,,,
408.1839997,1594,97.48241162,40.61147356,82.86112507,36.04963526,62.33249515,1.76E-07,-196.6133733,48.64087282,-33.13442005,75.89805752,153.1441445,3.10E-08,29.46460912,58.14782397,21.65974566,19.76956724,,,,
408.1919997,1594,-29.99845337,48.57325179,0.148966266,15.08736174,27.49208378,-6.46E-08,262.4105054,40.04477345,-198.0783234,60.65679377,-115.633545,3.06E-08,57.69662489,-62.82402267,-72.26905096,-48.02201414,,,,
408.1999997,1594,37.30413585,113.2991631,19.95947385,-0.821032902,11.66473647,-2.91E-07,-101.4392577,2.012978814,16.42208811,88.70390149,187.8389467,3.02E-08,-55.78412203,256.5409035,197.1672031,146.4850412,,,,
408.2079997,1594,60.37432453,5.044123126,70.24024099,57.11032816,79.96337762,-2.19E-07,23.39038617,75.04107683,-167.0442149,57.91704183,-35.25659453,2.98E-08,92.86833571,-133.2506786,-147.3435736,-96.57948061,,,,
408.2159997,1594,-30.08966117,128.6974409,-21.84658707,2.073748206,4.409140032,-2.23E-07,194.6564585,1.328225704,-82.53462891,83.77596889,18.0188972,2.94E-08,-25.07064487,181.7207674,142.3245515,108.1199375,,,,
408.2239997,1594,97.71912872,49.10203229,82.96913586,48.11735936,71.91169163,-2.35E-07,-196.8406562,49.80532081,-31.5102199,80.7326023,143.3651091,2.90E-08,29.91211213,77.19211761,23.40828229,31.23476937,,,,
408.2319997,1594,-29.71274933,53.55169607,5.08738026,28.03458063,38.03630204,-2.16E-07,265.559519,42.14816593,-199.2527207,67.20401987,-139.0563573,2.86E-08,69.35999375,-58.67747318,-76.72250014,-44.28098764,,,,
408.2399997,1594,34.06257522,121.0073929,18.94556237,9.69079344,15.73337927,-2.28E-07,-93.17707282,-0.099332933,11.30225856,88.8435528,176.6710502,2.82E-08,-53.12458057,255.6152841,200.8541998,150.8708402,,,,
408.2479997,1594,50.11983277,2.049211617,59.37799626,51.29895008,71.58446414,-2.16E-07,8.611897546,62.81248905,-165.7778828,63.58822268,-34.34836963,2.78E-08,92.30297808,-122.8960052,-143.5605942,-90.14421577,,,,
408.2559997,1594,-46.64239509,118.1619129,-34.86534954,-12.89718412,-11.443392,-2.20E-07,189.6981123,-9.88745308,-91.42974756,82.47372274,9.147927986,2.75E-08,-31.28935771,175.4383764,127.454732,98.02621472,,,,
408.2639997,1594,90.74749643,43.70929657,80.010994,44.01544696,57.67459451,-2.15E-07,-204.729284,41.61641839,-40.82055471,66.7887971,154.7745031,2.71E-08,11.9504458,62.60709996,12.36581689,19.76965764,,,,
408.2719997,1594,-26.85385448,50.47360392,8.334863504,33.78442912,29.98202417,-2.15E-07,263.1793543,41.99127422,-198.071488,62.21865967,-121.2394843,2.67E-08,66.87059559,-69.19174454,-86.60212873,-48.50037178,,,,
408.2799997,1594,30.12572892,117.7624251,14.04804904,5.219321665,6.222033308,-2.12E-07,-83.36026284,1.470833923,19.4658358,90.9298149,188.551616,2.63E-08,-51.28720602,263.2646842,200.6206234,156.491521,,,,
408.2879997,1594,46.86970742,-5.965750747,61.35494371,44.25838767,63.92711673,-2.10E-07,3.716654191,61.79051651,-166.8007676,49.56301175,-14.98582181,2.59E-08,85.71035273,-126.6417812,-142.2609252,-94.03044845,,,,
408.2959997,1594,-45.95613041,116.7788907,-25.48454597,-13.76082678,-11.99633527,-2.08E-07,200.8171368,-3.946568514,-95.38829437,69.78370663,12.5583283,2.55E-08,-21.40122587,165.8867491,130.1126223,92.45000232,,,,
408.3039997,1594,84.83277809,43.17385413,78.32091903,30.16997689,54.42274903,-2.06E-07,-202.479442,45.6452149,-34.0424322,68.24195404,151.8951547,2.51E-08,24.24142245,76.21739843,27.10156207,28.94981197,,,,
408.3119997,1594,-38.45136951,39.23799147,4.478618983,11.39596645,23.60269077,-2.04E-07,252.1712553,38.55559596,-205.1350887,54.45293622,-123.2403618,2.48E-08,64.08326958,-70.91225458,-84.20046498,-49.48164852,,,,
408.3199997,1595,15.60389162,108.3106989,6.560988044,-13.18488387,-6.391844432,-2.03E-07,-94.43759341,-10.66170374,6.234212664,72.1851514,182.0261349,2.44E-08,-61.49289732,255.5046114,201.448428,147.3304522,,,,
408.3279997,1595,33.91201158,-14.98186962,47.12625928,31.98864903,47.52912734,-2.01E-07,-18.99617685,50.09265676,-177.5147421,32.2768826,-20.30609567,2.40E-08,70.91044917,-131.6334966,-151.9668462,-110.2310749,,,,
408.3359997,1595,-47.42304153,117.3779617,-26.52325512,-7.40251416,-15.79166163,-1.99E-07,206.9263712,1.484780218,-104.2867856,63.6585608,9.988612007,2.36E-08,-31.24813516,161.5969194,115.630374,80.70293327,,,,
408.3439997,1595,90.87714042,49.57665724,85.92202585,46.1641762,56.11748908,-1.97E-07,-196.2452094,50.19675277,-28.28121152,70.55118587,157.8479338,2.32E-08,25.33836135,80.40719243,33.87035134,30.77451112,,,,
408.3519997,1595,-50.01675252,27.42085994,-6.214786552,11.92826154,10.31876836,-1.95E-07,240.0853778,22.47261326,-207.2151513,52.00654439,-122.4974303,2.29E-08,62.86949356,-82.32976772,-91.90542838,-63.43692454,,,,
408.3599997,1595,2.034876249,99.20399342,-4.168454352,-13.90102208,-20.38108037,-1.93E-07,-96.25416967,-19.94816079,-1.811158373,62.40575361,195.5664126,2.25E-08,-80.57595749,247.3736104,184.8539197,128.4398175,,,,
408.3679997,1595,42.32987843,-10.93215773,58.65924284,48.52774291,57.19571063,-1.91E-07,-15.42742131,66.16750823,-171.1942945,34.44913122,-2.365803377,2.21E-08,67.63355299,-129.1876802,-157.1252541,-108.6775459,,,,
408.3759997,1595,-50.47955772,115.4737078,-29.73383219,-2.968852825,-8.375515527,-1.90E-07,211.1184335,3.348866859,-99.83727356,74.92422042,14.03737371,2.17E-08,-24.14745415,163.2639099,118.5460519,93.43072743,,,,
408.3839997,1595,84.9313983,46.33968077,75.05178748,41.1866981,54.83738753,-1.88E-07,-207.9763856,42.81699137,-30.88976513,65.48734543,178.9083122,2.13E-08,8.305161407,84.17488659,41.85652269,35.53888006,,,,
408.3919997,1595,-24.52829349,41.91940971,18.28535954,35.16130512,37.99871189,-1.86E-07,256.3364018,55.26351398,-202.6677984,55.51127472,-122.0620631,2.10E-08,71.12901909,-79.89508688,-85.89114499,-55.10800174,,,,
408.3999997,1595,25.92292904,121.3836583,23.3713579,6.513806784,13.85865481,-1.84E-07,-59.51468761,12.90121314,19.88249849,90.39090892,173.0290133,2.06E-08,-45.11221495,268.6353357,214.5453486,162.6092208,,,,
408.4079997,1595,39.87660996,-11.52340546,60.62183165,38.0883069,57.93151804,-1.82E-07,-22.01619736,60.64208066,-155.4572596,47.12844901,-6.986093118,2.02E-08,79.77898549,-118.3462608,-128.4400509,-90.94694022,,,,
408.4159997,1595,-46.82507232,116.9028283,-22.40885832,-4.042066485,-14.5920654,-1.81E-07,213.2490196,8.48087282,-98.56677979,72.78847776,7.574113553,1.99E-08,-22.56822394,161.1238508,123.3027556,89.69615812,,,,
408.4239997,1595,100.0296708,61.85130335,89.64857355,49.85945004,56.56190857,-1.79E-07,-198.6807796,56.91308027,-18.6611518,75.78786408,179.0192358,1.95E-08,20.19742102,118.925972,56.49981725,48.8028123,,,,
408.4319997,1595,-35.03597521,34.57860351,8.77322012,22.2360173,16.91638744,-1.77E-07,237.0009392,35.12198313,-200.4811012,55.21465064,-103.2237857,1.91E-08,71.64608709,-31.58903639,-75.88502928,-56.68521637,,,,
408.4399997,1595,9.623047016,110.2135646,11.12405851,-0.137500315,-12.42646343,-1.76E-07,-75.65097818,-9.111123634,9.869530377,76.95333927,204.1739399,1.87E-08,-60.45740527,322.8387351,216.2468382,148.7035604,,,,
408.4479997,1595,42.93351917,-10.38129229,66.77826687,52.18207882,53.47202692,6.46E-08,-30.94941608,60.8023029,-164.7615931,39.93572803,29.40360417,1.84E-08,68.16048099,-63.48892849,-132.5968543,-100.0058662,,,,
408.4559997,1595,-51.46157285,111.0020561,-23.12473672,3.499638473,-20.01973396,2.91E-07,211.1167106,4.31007311,-112.6974282,65.49777533,37.91370837,1.80E-08,-32.2392853,207.2626197,113.8317488,74.39395444,,,,
408.4639997,1595,92.24963737,50.43175086,86.22558959,55.68431733,54.0694211,2.19E-07,-201.1554931,53.03594814,-18.73077071,72.35486713,207.9997993,1.76E-08,19.42375789,159.9180504,58.6672519,40.5876753,,,,
408.4719997,1595,-36.70161852,24.87674693,8.392812713,32.43287478,24.92981201,2.23E-07,242.5973188,40.35965146,-202.4678106,47.02078333,-79.31378101,1.73E-08,72.73169188,-31.54413162,-83.50820742,-67.90586842,,,,
408.4799997,1595,14.79249261,111.4023944,13.46045334,10.27742551,-1.689503054,2.35E-07,-57.7067089,4.577262761,6.966216595,63.9186648,229.2507747,1.69E-08,-63.21597994,316.5199519,210.1623978,142.6907488,,,,
408.4879997,1595,53.02505554,-10.52552556,75.62728259,62.52235114,72.60181709,2.16E-07,-18.37144812,78.74371894,-148.6294183,43.23377683,40.50325649,1.66E-08,91.8456612,-45.66523916,-125.9943729,-88.26269399,,,,
408.4959997,1595,-66.4214003,96.16303848,-33.24387442,-6.609818525,-15.27313025,2.28E-07,222.1195405,-0.998390135,-103.5556821,65.45772066,29.35869153,1.62E-08,-15.07990903,218.3835701,119.2670744,85.67509182,,,,
408.5039997,1595,68.89275336,35.23998314,69.05499135,33.72447513,43.5302804,2.16E-07,-210.273214,34.8690571,-25.12783074,49.81478692,217.2814334,1.58E-08,-2.942679163,164.6117396,58.68509532,41.92283238,,,,
408.5119997,1595,-39.95922533,19.62406757,11.70366619,26.25944022,30.29897162,2.20E-07,241.3856758,42.89926544,-210.7150651,34.61584066,-81.68824234,1.55E-08,63.96442181,-25.16628947,-93.97659574,-68.28087981,,,,
408.5199997,1595,20.51806067,118.5446664,23.53847668,11.16095076,9.631596422,2.15E-07,-36.46391276,15.25230913,9.440307198,72.64485113,204.271926,1.51E-08,-52.3083628,329.9998531,215.8501659,158.0166196,,,,
408.5279997,1595,63.33293293,-2.507304083,86.49004867,64.15715103,75.48651485,2.15E-07,-15.3645158,82.38826045,-147.6375112,45.55212211,15.26663518,1.48E-08,94.41645326,-45.28372534,-118.0103567,-78.35606298,,,,
408.5359997,1595,-56.54421183,102.705033,-20.47925815,-0.199217131,-11.27286827,2.12E-07,231.2376991,5.897608367,-113.1249718,66.43163172,-10.04889019,1.44E-08,-9.967313857,213.581763,116.2053984,88.41880436,,,,
408.5439997,1595,81.41680585,46.14402433,82.40611498,43.66132426,57.06727736,2.10E-07,-199.9954057,51.15305675,-26.39474529,57.70642385,180.8521066,1.40E-08,8.057959247,173.713862,65.5025876,54.91157156,,,,
408.5519997,1595,-34.69439553,20.98485781,14.13726089,31.44316906,36.65334621,2.08E-07,236.3191765,52.16967684,-218.3119094,31.61960509,-117.3141425,1.37E-08,69.04318324,-26.19671956,-94.2163353,-66.55109232,,,,
408.5599997,1595,8.627693551,111.5519557,10.92306786,9.809040979,-1.494886366,2.06E-07,-44.56952865,7.656071386,-5.120889298,64.42409495,170.0226153,1.33E-08,-59.92243872,336.0016614,215.2297444,157.5084221,,,,
408.5679997,1595,49.84593631,-15.58982999,76.15606927,64.41510243,70.07162836,2.04E-07,-31.16561,75.03522059,-160.2946269,37.87052154,0.172920719,1.30E-08,84.8711767,-44.41141368,-121.0021787,-78.68832278,,,,
408.5759997,1596,-67.28647866,90.51435182,-26.14781554,3.16325365,-4.056331661,2.03E-07,232.8387198,9.826690105,-134.0650582,51.14883397,-18.49470039,1.26E-08,-20.47249234,196.5315233,106.5274734,78.84921237,,,,
408.5839997,1596,85.01913975,49.55287807,92.13927477,63.42980387,72.83963224,2.01E-07,-182.0486689,71.61539612,-32.98926814,58.69169632,176.2382027,1.23E-08,9.271902584,177.1123207,76.36035946,64.5013928,,,,
408.5919997,1596,-38.10389771,13.80846035,22.95942013,43.22279555,41.20766924,1.99E-07,246.2683291,60.70043051,-222.2727126,43.46919778,-129.0998728,1.19E-08,84.78164812,-25.64121852,-78.77981644,-48.01713653,,,,
408.5999997,1596,-11.59646751,91.70211985,0.488714495,-7.906684836,-16.01041473,1.97E-07,-52.94142312,-8.260403746,-27.29407017,50.7578294,162.7355941,1.16E-08,-69.37348607,325.1601791,218.5671814,155.2578474,,,,
408.6079997,1596,51.07627363,-22.7913297,80.43752557,58.40492771,66.09121114,1.95E-07,-42.47804234,76.85511284,-181.4227289,18.21737602,-0.265588937,1.12E-08,71.09366466,-51.6994021,-125.0286391,-91.69527905,,,,
408.6159997,1596,-74.17123366,78.97817582,-26.22809478,-6.627216684,-22.42502496,1.93E-07,230.4826535,1.880145582,-152.1545336,43.18293202,-31.59375748,1.09E-08,-17.24983653,191.4586224,104.4735353,73.83174584,,,,
408.6239997,1596,56.59984701,22.48531208,68.92435526,27.73507074,27.32002379,1.91E-07,-214.0286742,35.28041656,-55.53370618,36.46242404,180.2892718,1.05E-08,-9.242360316,169.979315,64.57575899,47.53997019,,,,
408.6319997,1596,-46.70723067,-3.726599719,18.17107671,33.24155953,23.12821967,1.90E-07,226.2577774,51.84742388,-247.7355047,15.06707023,-121.1196126,1.02E-08,62.38947217,-51.80258578,-111.6825332,-82.71004146,,,,
408.6399997,1596,-12.48242909,90.28455094,10.11839339,12.70506634,-9.771344697,1.88E-07,-37.41593971,-0.048562943,-38.16758035,43.15752894,155.4878495,9.80E-09,-68.82809102,307.7821086,209.1961183,151.0481447,,,,
408.6479997,1596,42.67014303,-29.71546347,84.35971732,77.69426664,67.017806,1.86E-07,-44.8665549,76.05944056,-181.722646,17.30137178,-6.44570698,9.50E-09,75.71326462,-62.05667414,-121.4510538,-81.30274781,,,,
408.6559997,1596,-83.04624398,69.49163246,-24.5446298,10.93695228,-21.05885413,1.84E-07,229.5188411,3.625343441,-156.6235091,38.67996993,-48.03153136,9.20E-09,-16.95988042,175.1092568,98.74045362,71.38626029,,,,
408.6639997,1596,47.99756336,17.91183856,68.27838889,47.23792711,30.62786733,1.82E-07,-220.1983702,35.35702448,-57.03429463,31.61981284,165.6471303,8.80E-09,-12.03243375,164.3904701,71.75092289,54.48992991,,,,
408.6719997,1596,-54.79520932,-10.77818001,16.65625658,49.83241782,22.74893843,1.81E-07,217.1306549,52.97363921,-252.9075225,7.895867091,-130.6569765,8.50E-09,62.25652031,-58.07210732,-107.5003226,-77.00221442,,,,
408.6799997,1596,-23.31450089,80.43831069,2.697349546,11.36834512,-19.25464265,1.79E-07,-37.39617769,-0.851577831,-41.40005365,34.45903305,149.9872048,8.10E-09,-72.19784793,317.6764567,215.7354721,152.5832957,,,,
408.6879997,1596,45.00645925,-35.92973182,84.37156872,78.05095251,69.81227999,1.77E-07,-51.41519266,81.56842658,-178.8661434,9.723178627,-6.1102689,7.80E-09,77.21036957,-47.09975735,-114.9862704,-79.3991318,,,,
408.6959997,1596,-69.20781553,75.59184431,-14.84177576,27.87649188,-4.582402115,1.76E-07,242.5376813,20.74066195,-156.5093164,39.33897062,-56.79058038,7.50E-09,-5.886370014,181.5982914,102.4448718,76.09705848,,,,
408.7039997,1596,60.83530311,26.30495373,75.22620213,57.33857984,40.18390607,-6.46E-08,-210.4761356,48.72712373,-46.87701044,40.31098229,162.7140976,7.10E-09,-4.600363088,190.9611519,88.26583115,67.65414768,,,,
408.7119997,1596,-39.24170875,-8.822384694,27.50055915,55.39816288,37.92770217,-2.91E-07,222.0503009,65.99938204,-238.9208837,21.88271649,-144.9505887,6.80E-09,78.44576268,-35.52436615,-103.3891297,-68.20784695,,,,
408.7199997,1596,-20.87644052,80.29069127,1.221397837,7.143699379,-13.70887546,-2.19E-07,-34.81966416,-2.751104805,-34.47959246,42.48368277,127.3847146,6.50E-09,-66.79688034,326.1365195,215.3818568,159.7087772,,,,
408.7279997,1596,39.94981004,-43.14149025,72.60204951,64.36161891,58.28682167,-2.23E-07,-72.77157412,70.87533388,-176.6437042,3.237390583,-8.850133312,6.10E-09,69.676964,-44.91440661,-119.0164499,-80.61987387,,,,
408.7359997,1596,-66.73893399,66.81840406,-12.15690596,27.20949787,-5.111032648,-2.35E-07,241.0593371,26.66136841,-158.6744873,30.90900837,-73.39508241,5.80E-09,2.879860487,178.7608491,87.93148202,69.29751978,,,,
408.7439997,1596,62.85348038,18.48328273,82.32349466,58.06997341,42.78966984,-2.16E-07,-211.6464105,53.39450669,-45.42175023,33.03281995,138.1544264,5.50E-09,1.077852673,192.4299199,88.72554733,71.28756045,,,,
408.7519997,1596,-40.21679335,-20.07775566,26.6415404,45.2752314,32.16155017,-2.28E-07,211.4816869,62.98394054,-246.0236161,13.40676671,-162.6681994,5.20E-09,76.39576116,-42.94095455,-105.2003763,-72.80492708,,,,
408.7599997,1596,-13.63482256,82.33719285,11.34234069,7.817494856,-8.409905391,-2.16E-07,-23.27972062,6.786264883,-43.73373952,46.75826079,97.33809754,4.80E-09,-55.82838771,332.0333725,215.5863649,158.7646714,,,,
408.7679997,1596,48.57218941,-38.36105661,90.39254287,68.6972243,67.71387012,-2.20E-07,-73.69150169,80.07658202,-178.3589867,16.30346729,-43.77120116,4.50E-09,81.54778903,-30.74220887,-106.7486433,-75.94507811,,,,
408.7759997,1596,-80.30657466,58.22313809,-18.54352797,4.317106513,-17.53135418,-2.15E-07,229.0141791,10.45480654,-171.8861242,33.64105162,-100.0064907,4.20E-09,-6.168085992,176.4125433,90.7965098,54.47488916,,,,
408.7839997,1596,46.41488343,11.6404611,68.43538689,28.50520282,22.00815402,-2.15E-07,-232.0863493,28.08209947,-61.47393467,27.4464188,123.0531326,3.90E-09,-12.65930213,190.4113622,80.54725932,50.57294109,,,,
408.7919997,1596,-44.25370995,-23.83803377,27.19559626,37.07287214,18.59770583,-2.12E-07,190.4003511,49.97131106,-263.1151269,3.088091239,-176.6890778,3.50E-09,69.98570223,-54.19769373,-124.9401824,-99.53546604,,,,
408.7999997,1596,-29.06567064,72.24098945,3.488745494,-4.159592766,-27.68709065,-2.10E-07,-30.89489816,-7.368652824,-59.42698864,35.68137845,89.86732402,3.20E-09,-69.99641395,325.3823321,204.77602,133.4907191,,,,
408.8079997,1596,28.90365988,-57.23937292,72.8349649,44.73284283,41.10511732,-2.08E-07,-95.19270658,59.90376506,-196.8164926,-2.220651283,-48.61066009,2.90E-09,62.69756801,-40.797999,-122.7055797,-99.3947062,,,,
408.8159997,1596,-82.96919436,49.00686817,-24.89884281,-1.930614176,-40.27630549,-2.06E-07,220.8182983,2.575658109,-197.1166329,11.67956458,-114.8100788,2.60E-09,-17.87666932,156.9151764,61.48950625,32.24951264,,,,
408.8239997,1596,49.62061497,9.950606915,67.2258677,29.1197309,3.316639374,-2.04E-07,-233.276607,24.93970454,-67.54751128,22.83487957,121.8181493,2.30E-09,-17.16450375,190.9439474,74.36438578,49.86799808,,,,
408.8319997,1597,-48.63677632,-37.57667141,19.21257802,23.27204026,4.176749783,-2.03E-07,176.5746743,39.77903839,-270.3876244,-5.471659136,-182.5528125,1.90E-09,65.95847681,-72.48676336,-135.5147413,-107.0884979,,,,
408.8399997,1597,-29.17944824,65.79357219,0.074365142,-14.91108103,-36.08519814,-2.01E-07,-36.13594226,-14.91071435,-72.409425,17.43993593,73.54802281,1.60E-09,-78.15470554,294.6730371,189.820939,118.3002092,,,,
408.8479997,1597,45.44675425,-52.30194314,89.39983179,53.92927589,44.13298636,-1.99E-07,-94.26364558,69.10927824,-194.204123,-2.906803573,-57.61541567,1.30E-09,67.25040008,-55.79939386,-122.5439212,-101.5949685,,,,
408.8559997,1597,-71.65197569,48.97027312,-9.010437126,6.668395997,-30.4133318,-1.97E-07,237.9895738,15.9779711,-193.3818883,20.48516202,-143.639049,1.00E-09,-0.809604899,145.4777242,65.72124926,35.81204779,,,,
408.8639997,1597,45.11380049,3.128385662,62.9856234,18.93587348,0.326659469,-1.95E-07,-233.7911983,16.43773999,-64.87492926,18.3804357,94.36361102,7.00E-10,-17.93897273,183.0522284,83.75367824,51.37097161,,,,
408.8719997,1597,-44.73740237,-39.88829395,18.60245086,24.44573997,0.477755735,-1.93E-07,167.0630326,34.4403979,-271.6689233,-14.0058302,-192.5396314,4.00E-10,58.83454801,-88.53854412,-138.2824254,-118.1831325,,,,
408.8799997,1597,-15.86468827,75.53487204,8.389904977,2.306185199,-26.99791227,-1.91E-07,-22.2755713,-5.679238611,-69.09922776,22.73627385,71.71324821,1.00E-10,-72.57911451,295.5508152,190.5021369,117.8196171,,,,
408.8879997,1597,37.79645132,-61.77728906,75.75804549,47.54626022,39.50068128,-1.90E-07,-107.9107134,51.2419961,-186.1398101,-3.346805534,-43.84205369,-3.00E-10,67.60631884,-52.96723503,-120.5657642,-95.48431947,,,,
408.8959997,1597,-97.2443369,26.71429632,-39.5292161,-12.38636539,-47.83388052,-1.88E-07,215.9001535,-14.4768369,-203.1706835,-5.102151543,-121.3558482,-6.00E-10,-22.35499764,113.5295156,50.00984035,19.12137183,,,,
408.9039997,1597,34.55949416,-2.373126486,50.63630196,17.53019534,4.433582639,-1.86E-07,-239.1717258,15.61172755,-71.57161364,-7.019787738,123.9785967,-9.00E-10,-40.50687784,159.2936817,77.92419924,36.61014482,,,,
408.9119997,1597,-53.06022453,-51.0188017,13.86396558,21.895079,17.32406733,-1.84E-07,167.0626698,40.84559187,-269.8847181,-25.11702901,-178.7938054,-1.20E-09,55.55345852,-104.8164857,-138.0552314,-118.0663509,,,,
408.9199997,1597,-33.44536695,62.2047634,-5.296169545,-9.8650734,-22.74323914,-1.82E-07,-19.05578832,-10.90428121,-68.44088731,10.03266597,70.12331639,-1.50E-09,-79.79482322,267.0771395,193.9103797,122.3884301,,,,
408.9279997,1597,30.88320234,-65.87570173,69.30004405,41.13121668,45.81785189,-1.81E-07,-120.0695025,54.30951398,-182.0776888,-18.20020457,-44.99198436,-1.80E-09,56.91576575,-81.88572719,-122.3014265,-96.46539448,,,,
408.9359997,1597,-90.74395594,29.49544906,-30.92644453,-6.365841272,-26.44626024,-1.79E-07,225.6579063,4.850085619,-198.8434254,-7.82807705,-136.7107508,-2.10E-09,-15.94793277,101.8416542,38.64407012,21.42044233,,,,
408.9439997,1597,52.30251028,9.517585893,68.65615007,33.75580121,24.05461399,-1.77E-07,-217.4642307,39.03853334,-55.03360728,3.58498215,111.6604868,-2.40E-09,-22.98561189,169.1000293,82.41312028,58.82609361,,,,
408.9519997,1597,-42.8994446,-48.08445302,21.38299534,29.02610618,19.67425895,-1.76E-07,166.8328007,49.31580905,-257.4828701,-20.20762415,-190.0774942,-2.70E-09,70.03240336,-105.9958159,-140.5125753,-102.9857786,,,,
408.9599997,1597,-45.26000162,56.21969956,-17.55455966,-19.89901895,-37.70016493,6.46E-08,-20.10956455,-21.24014267,-71.18456255,0.253303309,54.77937323,-3.00E-09,-80.89700595,266.7758987,185.4422622,125.7327317,,,,
408.9679997,1597,16.87115815,-74.94799354,58.85733246,32.5630573,31.27807577,2.91E-07,-127.0671979,45.82959119,-188.6371272,-34.98633877,-44.31027026,-3.30E-09,47.10445949,-84.33545937,-124.2996404,-100.1941733,,,,
408.9759997,1597,-101.0355523,19.97559303,-29.51935743,-1.562900793,-24.67622501,2.19E-07,232.8248106,6.667004557,-204.3324179,-18.06094619,-135.8569575,-3.60E-09,-14.14157812,83.19539256,36.01280714,14.82626627,,,,
408.9839997,1597,39.87995954,4.569934505,68.36450388,40.20862838,31.0055567,2.23E-07,-210.7459424,37.75156903,-51.64627486,-0.248242172,114.1573883,-3.90E-09,-18.09767607,154.5776494,88.00170169,62.03607901,,,,
408.9919997,1597,-60.82582674,-60.88293275,10.21371491,23.41319134,18.91012278,2.35E-07,161.1483181,43.10345834,-264.1503525,-28.62787038,-184.8903028,-4.20E-09,67.97780873,-130.826194,-148.2260799,-113.2424581,,,,
408.9999997,1597,-48.96462847,51.9797221,-17.16658805,-14.92110979,-27.3688648,2.16E-07,0.659145635,-11.51982559,-77.08031223,-2.936817981,59.41209134,-4.40E-09,-79.12541382,245.614197,175.2825422,116.0670494,,,,
409.0079997,1597,42.93763908,-60.2051991,79.76259658,58.92349256,58.80424256,2.28E-07,-102.7249209,70.71012672,-175.9346388,-23.17137491,-43.21734619,-4.70E-09,64.02494909,-96.49722355,-125.0156233,-90.9741677,,,,
409.0159997,1597,-90.20031604,23.44407408,-34.64416981,3.550777673,-19.26240947,2.16E-07,247.0488654,8.012959803,-201.9770821,-6.070098216,-152.5317195,-5.00E-09,-2.377810329,69.70373012,28.62060766,21.47764157,,,,
409.0239997,1597,42.4953175,1.824029716,49.01116271,35.33566374,24.71412797,2.20E-07,-205.7947244,28.81652913,-55.43595837,-1.427636764,111.6313885,-5.30E-09,-28.06938723,158.6210878,85.32002423,63.21963298,,,,
409.0319997,1597,-41.80757387,-54.96458521,14.12508666,38.54546972,28.17373319,2.15E-07,168.9514975,51.22681989,-254.3773595,-23.57917126,-184.6955924,-5.60E-09,75.96962056,-120.0112411,-144.2958496,-104.9864948,,,,
409.0399997,1597,-50.64361296,50.77494638,-21.80275102,-16.94441945,-28.77682558,2.15E-07,15.7035744,-13.10534444,-61.6085639,9.97011159,56.88301617,-5.90E-09,-68.27140714,267.5184508,191.664184,136.1974923,,,,
409.0479997,1597,40.37356471,-64.22249673,77.4439198,50.86436476,65.66365193,2.12E-07,-98.86338979,75.59037169,-162.8586044,-19.75176252,-23.54554203,-6.20E-09,60.70293999,-69.50200855,-112.9708248,-77.78040511,,,,
409.0559997,1597,-90.28071073,22.21849148,-26.71740822,-1.900932256,-3.778317623,2.10E-07,262.1463712,21.2998466,-192.1990096,-1.650848529,-145.0500134,-6.40E-09,8.214285957,84.04500368,31.80627222,28.16223877,,,,
409.0639997,1597,27.60671205,-4.128253939,50.60937605,10.47961648,26.24600412,2.08E-07,-194.3451201,28.43698888,-44.68826133,4.122849502,121.4082564,-6.70E-09,-23.17064442,167.2002285,102.0062609,77.07113805,,,,
409.0719997,1597,-26.12465508,-43.00209116,44.57808605,41.9635008,61.29248794,2.06E-07,190.3444158,77.25628856,-246.5069099,-15.46670983,-165.5651885,-7.00E-09,86.22131281,-125.3221589,-134.8273135,-91.08045088,,,,
409.0799997,1597,-26.96569804,76.63475443,11.51705439,0.439160478,11.2013266,2.04E-07,52.94080658,12.798042,-47.40750897,32.99183998,61.18753253,-7.30E-09,-40.56257326,277.0248503,210.845686,163.1978687,,,,
409.0879997,1598,78.61789901,-64.51699649,106.8093597,42.70997152,82.01291975,2.03E-07,-259.6430087,70.44713891,-78.86008716,4.795669831,94.96836169,-7.60E-09,68.94912967,-9.455418662,-48.88130343,-21.79087995,,,,
409.0959997,1598,-49.13996085,67.71540892,-6.054719009,-19.82367611,0.016028916,2.01E-07,67.58427517,8.86999734,-43.93046919,21.40431552,80.96190961,-7.80E-09,-45.74709598,270.1958473,210.8164196,166.4836603,,,,
409.1039997,1598,16.8778781,127.5704448,16.5103056,-32.8125294,-13.64635577,1.99E-07,-257.5953212,-21.08351205,146.0852919,45.64598154,355.6123348,-8.10E-09,-148.0071439,550.9561761,448.6335711,336.8368915,,,,
409.1119997,1598,24.70221797,-58.25766283,74.28271342,40.29792302,76.43762847,1.97E-07,-26.67205692,77.85231368,-164.8639749,-8.478838525,-38.46675927,-8.40E-09,89.62166459,-96.55004743,-112.8059127,-68.55901586,,,,
409.1199997,1598,-55.11808486,7.47704259,7.167222875,9.236325051,32.89876984,1.95E-07,208.1040867,43.8398073,-181.4753501,0.890276668,-111.5869896,-8.70E-09,48.42983298,9.29468759,-21.68961,-0.935338783,,,,
409.1279997,1598,-25.65568467,26.61803537,12.07082836,-16.7104953,11.09933491,1.93E-07,-25.26507079,7.574014128,-62.68783926,9.163152992,69.97967779,-8.90E-09,-17.91610559,192.9509355,117.6528963,99.13585338,,,,
409.1359997,1598,-6.350959876,-38.84447822,43.41988022,10.74450369,47.40356087,1.91E-07,-4.95581502,45.72693588,-143.6863982,-17.09982738,-8.215840627,-9.20E-09,49.58263015,-3.162312446,-53.18543869,-22.73606372,,,,
409.1439997,1598,-41.748173,-0.809196659,10.07761191,1.081542137,30.06995898,1.90E-07,137.4006537,40.7486517,-161.6436735,-10.79244353,-59.15598188,-9.50E-09,30.37435535,38.44750755,-17.12546713,13.25858144,,,,
409.1519997,1598,-18.75908255,25.52678269,7.37981061,-15.99778834,15.00155363,1.88E-07,-3.383885212,16.47274075,-80.90397386,-1.565391674,58.59044093,-9.70E-09,-19.30502154,170.6913444,90.29935917,87.76046186,,,,
409.1599997,1598,4.776595628,-37.7541381,38.54820053,11.2956046,49.48697814,1.86E-07,0.233554831,50.13930923,-161.6132428,-27.01236038,-15.26924417,-1.00E-08,48.74518507,-34.9245233,-81.28644342,-45.45168209,,,,
409.1679997,1598,-67.65354174,20.16568001,-24.17890729,-27.23778804,0.702311089,1.84E-07,173.016225,14.09481217,-156.5901219,-12.67651601,-44.4246196,-1.03E-08,-0.942048213,99.21101753,29.85309675,42.52187207,,,,
409.1759997,1598,11.72177385,-9.408143176,28.15123348,-11.43285901,28.1734658,1.82E-07,-115.6341822,29.58955867,-71.4821851,-14.1226614,110.5389027,-1.05E-08,-12.67566841,126.2408378,48.5834755,52.65705649,,,,
409.1839997,1598,-39.48497993,-39.94243916,6.669225042,2.592978123,39.11803359,1.81E-07,143.8577909,53.32865069,-212.7189707,-30.68707967,-93.71099669,-1.08E-08,51.19729388,-75.39707289,-114.2868326,-67.19292635,,,,
409.1919997,1598,-45.21036481,48.20831841,-20.4784123,-39.44732385,-1.121183734,1.79E-07,44.61900593,-1.476279564,-68.80118384,5.187138149,80.66307626,-1.11E-08,-46.56294631,228.6847938,142.4229127,120.11687,,,,
409.1999997,1598,12.35651425,-66.18590992,45.53006984,-3.103449992,52.4860504,1.77E-07,-83.17886285,44.52359635,-139.9557205,-30.20178827,28.43127346,-1.13E-08,52.14278654,-43.30781097,-90.79588161,-58.25060418,,,,
409.2079997,1598,-97.45808481,3.057570029,-42.06166812,-39.35595692,-9.507783317,1.76E-07,235.1158234,5.260734833,-190.621194,-37.37613184,-86.75133448,-1.16E-08,-0.971842088,47.67459041,-6.303496219,8.726081395,,,,
409.2159997,1598,19.03516392,2.079453082,34.88848313,-10.27138161,31.71316482,-6.46E-08,-154.8903611,23.74088928,-44.90277509,-21.52157447,147.9211225,-1.18E-08,-26.3964581,148.2863226,80.95255391,73.84667084,,,,
409.2239997,1598,-31.37072175,-52.69687521,25.34068002,18.04054628,62.47778708,-2.91E-07,161.093321,69.51253224,-224.336708,-28.07524738,-136.7059578,-1.21E-08,88.48479608,-124.1960552,-146.3176657,-85.16319699,,,,
409.2319997,1598,-40.3685729,61.77320384,-16.58732907,-29.08916255,6.254157846,-2.19E-07,80.32779262,8.964096914,-66.37769709,9.79540875,44.73033708,-1.24E-08,-41.24128812,240.2433348,161.1383428,144.2165272,,,,
409.2399997,1598,39.88347618,-57.0293276,63.21256617,13.83264764,67.03218323,-2.23E-07,-107.0029684,64.2936368,-135.3166836,-29.37096852,12.70914066,-1.26E-08,55.55903793,-63.63397056,-89.63265094,-49.12530899,,,,
409.2479997,1598,-84.66734598,14.61095617,-29.25722455,-27.92436085,3.874091947,-2.35E-07,261.7653433,24.88437351,-195.5996989,-20.85701714,-132.8185824,-1.29E-08,22.27625605,38.60423967,0.434526028,23.65543619,,,,
409.2559997,1598,30.09181635,11.22332929,41.73127253,-14.17511438,24.93930645,-2.16E-07,-169.524336,25.05532509,-33.95671759,-2.317777405,144.4424503,-1.31E-08,-20.54647907,177.6510731,113.1595615,100.6480112,,,,
409.2639997,1598,-24.91827551,-54.64253049,26.13956576,11.99086387,43.79409979,-2.28E-07,142.5105998,64.35657884,-236.0644325,-31.9324682,-129.0698389,-1.34E-08,77.09362813,-138.4287954,-147.3262099,-93.65622876,,,,
409.2719997,1598,-35.45775549,68.86437325,-13.93984452,-20.65405323,-4.438946953,-2.16E-07,75.33696125,8.473230259,-70.15958864,10.52364221,48.94490671,-1.36E-08,-45.79992602,248.8047733,172.233795,154.4777526,,,,
409.2799997,1598,51.01120284,-47.28449348,77.73677025,36.34101355,68.91582975,-2.20E-07,-115.2537477,74.01943463,-129.348035,-16.94396765,16.25762316,-1.39E-08,65.72243422,-51.95766558,-75.5329628,-32.92711634,,,,
409.2879997,1598,-84.53684092,22.77419915,-21.84876825,-12.71354917,7.636127283,-2.15E-07,275.1915141,34.58087854,-195.1503177,-11.20687296,-130.2540394,-1.41E-08,25.699526,42.83282971,11.37697136,30.34412308,,,,
409.2959997,1598,25.74294708,11.25385051,42.00785912,-6.973744378,31.29286092,-2.15E-07,-163.0657489,27.53044705,-27.4114601,-0.247103706,150.1845291,-1.43E-08,-22.88625016,190.0054469,128.0139148,108.8344256,,,,
409.3039997,1598,-27.65177477,-62.7559376,32.75389513,18.26719425,52.09657587,-2.12E-07,148.3071032,64.74191394,-232.3792283,-37.7489656,-132.8600821,-1.46E-08,83.19791523,-153.8991432,-143.1625616,-99.04187311,,,,
409.3119997,1598,-46.05917239,60.66529473,-9.865370491,-28.65254848,-0.67620262,-2.10E-07,86.60038099,5.845964111,-67.47377791,2.718045585,44.4164659,-1.48E-08,-37.91925616,223.6377975,180.6030544,147.8977688,,,,
409.3199997,1598,46.99139746,-56.53205301,76.82163492,22.90045115,72.32938926,-2.08E-07,-115.1047231,70.034753,-124.5933103,-21.93701194,11.65847379,-1.51E-08,72.54601866,-80.66402124,-72.81745672,-39.83270324,,,,
409.3279997,1598,-79.98982152,16.99565955,-25.00011867,-18.939328,9.768748167,-2.06E-07,276.6459592,28.31236914,-201.3403855,-15.37688447,-142.3980472,-1.53E-08,25.88247568,-1.469414037,-2.598149042,15.01767321,,,,
409.3359997,1598,27.61608318,11.04398391,40.29370291,-14.84290402,30.79635259,-2.04E-07,-169.8782915,23.67835753,-31.67142156,-1.083965835,145.0731466,-1.56E-08,-22.02253104,151.8921948,121.6626617,107.4083267,,,,
409.3439997,1599,-37.2006229,-70.16000645,23.48493178,1.631394352,43.57077034,-2.03E-07,131.6995217,58.73481549,-236.8602789,-36.39123595,-129.5699055,-1.58E-08,85.19995823,-186.8554991,-153.6915053,-92.18696191,,,,
409.3519997,1599,-63.87959451,51.7447634,-30.62286704,-46.8726169,-18.47536039,-2.01E-07,72.07537473,-10.54702487,-87.55130567,-9.510696028,71.49184441,-1.60E-08,-65.42204856,193.4454375,159.0589278,144.7781688,,,,
409.3599997,1599,33.10272795,-65.51294259,67.82787381,14.28365996,63.47994047,-1.99E-07,-138.4949377,57.2405696,-139.3317491,-36.36317165,58.28599305,-1.63E-08,49.22069143,-98.51250004,-86.67071138,-39.60159685,,,,
409.3679997,1599,-100.5620222,0.198279664,-28.40695657,-23.65152534,4.103169501,-1.97E-07,267.9905607,19.85121397,-213.2239825,-23.89913652,-110.091611,-1.65E-08,22.33500955,-10.04311976,-16.13659418,16.95804976,,,,
409.3759997,1599,15.37596288,2.606687374,36.04530245,-14.1403097,24.52119613,-1.95E-07,-167.0451353,18.77866564,-40.99291493,-11.83329012,174.779418,-1.67E-08,-35.69557521,155.0111682,109.1108994,105.9145146,,,,
409.3839997,1599,-26.72489005,-65.95056108,31.91200916,14.75277951,53.01712061,-1.93E-07,132.8088365,67.81543463,-237.1123575,-36.88607219,-118.0376477,-1.70E-08,87.1124991,-182.6429475,-163.321599,-94.53786906,,,,
409.3919997,1599,-52.82896629,60.54892118,-22.44541865,-35.15894612,-11.373074,-1.91E-07,82.16157045,-1.52661793,-85.68105461,0.424802007,59.9774087,-1.72E-08,-52.98353067,207.9897126,163.8718054,144.894568,,,,
409.3999997,1599,43.8797824,-58.87880365,66.1700499,20.02396618,54.14940946,-1.90E-07,-145.3342548,55.76448497,-129.4635641,-29.96476673,59.41987972,-1.74E-08,51.88914011,-80.06987712,-73.9802586,-37.61315301,,,,
409.4079997,1599,-79.45079286,14.71004397,-23.28822609,-5.912017341,5.952888735,-1.88E-07,266.1491821,26.65424368,-201.9373781,-19.54804782,-117.976273,-1.76E-08,30.17195182,-10.58421413,-12.4012992,16.82822459,,,,
409.4159997,1599,40.33522935,27.62078593,49.64562583,11.46541345,36.41635194,-1.86E-07,-162.9113393,27.7103776,-20.09693037,0.918186161,168.1650441,-1.79E-08,-25.3987519,165.6518993,133.9873125,116.6413004,,,,
409.4239997,1599,-22.28385368,-63.29337094,29.86413067,20.46135729,44.16923961,-1.84E-07,113.0660491,55.12028497,-216.6537748,-31.35043082,-101.4782585,-1.81E-08,90.38575496,-181.1733544,-141.1304151,-89.38610734,,,,
409.4319997,1599,-66.13239082,49.93822967,-31.26915038,-41.90791809,-23.58314282,-1.82E-07,68.29597559,-17.99286635,-81.07298775,-10.61398007,70.99897518,-1.83E-08,-52.39048353,190.7014347,162.8816167,137.3279761,,,,
409.4399997,1599,45.59301798,-58.49589256,77.81755644,26.91430582,62.41246524,-1.81E-07,-149.7527026,60.18518505,-120.4420082,-36.93763127,65.46682627,-1.85E-08,61.94878498,-86.20664778,-71.93253219,-41.85506504,,,,
409.4479997,1599,-78.25098903,10.05783302,-13.55868055,-1.480388268,7.443285497,-1.79E-07,269.2563566,35.79471887,-199.5742006,-28.32872739,-113.4333584,-1.87E-08,40.80687924,-15.56225053,-14.01998739,14.94218873,,,,
409.4559997,1599,32.6118649,17.05207085,48.19282864,8.100094259,30.22024168,-1.77E-07,-161.7383643,35.24005367,-26.24949104,-19.49529938,176.575205,-1.90E-08,-25.40384486,171.988576,135.0729018,124.3076661,,,,
409.4639997,1599,-9.096174274,-61.31300369,43.60344895,39.30376384,57.26248227,-1.76E-07,117.9153364,80.6458232,-216.9713896,-43.23515315,-96.11839637,-1.92E-08,98.21927861,-166.5031653,-140.7717459,-80.57660348,,,,
409.4719997,1599,-47.85231008,61.90128542,-17.60062819,-15.98074566,-11.99336609,6.46E-08,93.17188795,10.08019892,-78.54156996,-7.241556008,61.29366491,-1.94E-08,-42.5587375,214.5199833,166.9346222,154.0522622,,,,
409.4799997,1599,49.9641649,-54.35420488,75.67856826,35.07798708,59.37438602,2.91E-07,-146.0459506,69.92418904,-120.7991824,-36.59542803,62.85950647,-1.96E-08,56.12896163,-61.93993374,-59.70801206,-21.29062372,,,,
409.4879997,1599,-83.41811958,5.105045393,-19.40942096,-4.962310346,0.040805057,2.19E-07,264.5668003,32.9782529,-205.6398,-29.3318498,-116.097198,-1.98E-08,34.86875859,-12.02349791,-13.54819248,16.56944902,,,,
409.4959997,1599,17.68298658,5.443314163,41.73489787,-6.867702349,16.56202929,2.23E-07,-162.6787886,26.51143215,-28.93290656,-17.68984356,164.9908052,-2.00E-08,-29.2857594,167.2587022,134.2667299,120.9697432,,,,
409.5039997,1599,-33.29270931,-84.31593875,31.72812628,12.04420762,41.50203843,2.35E-07,98.7787693,63.67559216,-234.7422617,-59.39994961,-117.9757288,-2.02E-08,83.32377882,-198.2356606,-154.6065335,-97.41039394,,,,
409.5119997,1599,-74.48889781,42.10272105,-27.77117929,-44.34233322,-27.5442641,2.16E-07,79.29722098,-12.62656982,-103.891317,-31.65670991,39.54284313,-2.05E-08,-61.25408394,173.6508899,144.470794,130.4965281,,,,
409.5199997,1599,37.19830139,-65.89705875,81.55196508,20.54426752,48.4003052,2.28E-07,-158.8611488,58.36984263,-124.6213118,-47.48366671,52.51020391,-2.07E-08,53.2283958,-86.11203697,-72.46898337,-35.03738094,,,,
409.5279997,1599,-94.18097114,-6.965297818,-17.74919801,-10.43404939,-5.69678083,2.16E-07,255.6472227,24.62041488,-210.6302571,-34.18266738,-146.0173783,-2.09E-08,43.60368303,-31.1075647,-31.24427638,-0.454197395,,,,
409.5359997,1599,9.876268202,4.370608663,38.05677126,-2.090293044,17.61095467,2.20E-07,-160.8099091,21.18101448,-32.28666318,-19.13697441,137.0641178,-2.11E-08,-28.11369297,168.2130408,126.7292294,111.9620631,,,,
409.5439997,1599,-30.20088569,-81.71161056,39.18354446,30.12212817,49.83884883,2.15E-07,102.9782934,74.22620601,-222.7685134,-47.67913108,-135.8275924,-2.13E-08,94.74325867,-188.4268449,-150.4671043,-95.73006541,,,,
409.5519997,1599,-87.87244488,31.4979484,-35.12811429,-35.69815408,-26.02218902,2.15E-07,90.35996391,-8.448498699,-92.87617706,-14.3200206,6.260852345,-2.15E-08,-45.7180314,190.0836851,152.1731964,133.492298,,,,
409.5599997,1599,41.10335273,-84.20624378,68.79536925,5.42849682,36.73817059,2.12E-07,-323.8707151,35.13774689,-66.6903778,-50.56610455,152.7311465,-2.17E-08,8.531431488,-0.60558996,-9.429998026,-2.163499717,,,,
409.5679997,1599,-79.66109723,-55.92632541,-21.5908627,-21.3000028,-17.81445418,2.10E-07,74.93381501,9.494222379,-205.1076727,-73.39886887,-39.38865927,-2.19E-08,6.777103084,-65.2740121,-56.46831094,-39.83596918,,,,
409.5759997,1599,-55.89079432,-17.36343991,-13.20434205,-11.78739586,-11.81482422,2.08E-07,11.67658629,10.82643564,-138.9204886,-57.61900861,36.45979993,-2.21E-08,-27.98551725,48.49703417,33.69488202,31.25908346,,,,
409.5839997,1599,-51.78037463,-58.70232658,2.364058128,6.13073497,14.08954197,2.06E-07,48.83338464,35.8354453,-188.0293357,-57.98049432,-43.10547318,-2.23E-08,29.91098302,-79.31841993,-71.53227038,-43.95791599,,,,
409.5919997,1599,-62.03221777,-23.60054389,-32.06482699,-33.34208518,-27.24266081,2.04E-07,-38.96755127,-10.2120128,-109.6898058,-47.62352784,83.57069785,-2.25E-08,-44.47442748,101.8743567,72.77470811,61.24021275,,,,
409.5999997,1600,-49.78524649,-84.75056375,-7.694041526,-6.902708499,10.41808239,2.03E-07,17.59239322,32.50375165,-196.5370262,-71.41554826,-23.68945704,-2.27E-08,30.68319082,-112.9055228,-97.761311,-72.1966161,,,,
409.6079997,1600,-87.65347181,-12.79383716,-47.35549955,-43.6052269,-25.8053921,2.01E-07,57.93900805,-9.134305014,-139.7336818,-57.173554,29.16487875,-2.29E-08,-38.71681629,87.96558874,63.86367546,53.46696611,,,,
409.6159997,1600,-19.42919875,-67.60143014,8.16843466,-19.02958193,7.330404885,1.99E-07,-125.3047973,19.56668415,-132.4126028,-73.9662118,75.10016571,-2.31E-08,-4.413997566,-28.16108193,-30.61354627,-19.50835668,,,,
409.6239997,1600,-177.1353984,-13.57457918,-98.0797258,-48.98390997,-47.50384432,1.97E-07,412.9717521,-1.244018136,-287.2938344,-71.65633173,-217.8984415,-2.32E-08,9.628333603,-73.89720785,-68.27497552,-37.63195473,,,,
409.6319997,1600,-184.176787,85.44296124,-131.7012063,-92.63054909,-95.2085144,1.95E-07,288.5008111,-62.07799758,-134.2152198,-39.44855894,-16.07971796,-2.34E-08,-117.1774928,284.2767506,215.5474684,178.965752,,,,
409.6399997,1600,-101.5296008,-35.85303793,-47.906391,-35.51895851,-22.13044663,1.93E-07,151.0823974,7.216044231,-208.7660715,-71.39557381,-73.90526649,-2.36E-08,-1.383967717,-45.0135522,-44.25091261,-24.40953361,,,,
409.6479997,1600,-115.4377022,3.810604347,-67.33774049,-56.84099305,-44.16742312,1.91E-07,122.2747041,-20.28356564,-148.1101798,-54.15774482,-0.527337727,-2.38E-08,-48.76550719,107.4846704,74.90418276,67.59583431,,,,
409.6559997,1600,4.971107416,-87.87683706,27.50992878,-17.6501996,19.32270833,1.90E-07,-247.8044935,21.52218748,-90.72624791,-73.3026342,149.5491866,-2.40E-08,-11.68566242,-6.55449379,-14.68662667,-13.31153946,,,,
409.6639997,1600,-98.02360969,-79.75836302,-37.73254062,-25.23747703,-5.171968536,1.88E-07,161.8189885,27.41309514,-244.9712387,-91.33784101,-106.4001122,-2.42E-08,21.35033514,-141.0315353,-116.315223,-93.39472109,,,,
409.6719997,1600,-67.61890778,9.07089836,-40.63573377,-49.9835835,-32.91530683,1.86E-07,-29.3693798,-13.5762218,-75.30726527,-48.11537856,107.7403557,-2.44E-08,-77.48986748,198.4961133,146.4559051,112.0266104,,,,
409.6799997,1600,-2.829825699,-112.5026396,31.58346621,2.837080513,36.93597674,1.84E-07,-130.1369194,44.44628226,-159.5421216,-70.89868731,16.29436341,-2.45E-08,48.50363834,-135.7215854,-115.3180844,-90.45507901,,,,
409.6879997,1600,-136.3349645,-22.40115467,-83.92623658,-54.24233763,-44.90906594,1.82E-07,198.0529402,-20.14868241,-205.7901457,-66.88906656,-87.15147168,-2.47E-08,-37.6703797,16.8565249,10.83892225,5.296898912,,,,
409.6959997,1600,-17.87727823,-49.70567224,-6.872625857,-32.47420663,-5.923293612,1.81E-07,-214.5259312,-6.038386082,-72.76543107,-63.46586307,161.2112004,-2.49E-08,-63.09023795,88.76210004,69.07787553,42.44266197,,,,
409.7039997,1600,-65.66140283,-96.90735753,-16.44074861,-6.413968572,25.02149129,1.79E-07,81.09387319,37.1555906,-232.8874656,-75.90213138,-94.91312318,-2.51E-08,39.32661862,-180.8742234,-142.9498893,-113.6810053,,,,
409.7119997,1600,-95.37141073,10.81976512,-65.02111082,-57.37066247,-32.0310616,1.77E-07,39.3592544,-22.53054382,-111.8235183,-41.24955392,41.30824492,-2.53E-08,-84.05391253,170.8128031,123.7220972,99.23736042,,,,
409.7199997,1600,-1.97194833,-102.9160548,21.09764966,-11.6903432,30.78120425,1.76E-07,-183.6030669,31.36018468,-146.0181316,-73.16276931,42.88492188,-2.54E-08,15.28972269,-95.0418802,-79.63440035,-62.16359381,,,,
409.7279997,1600,-113.5127375,-31.18437851,-63.63527088,-39.21998582,-19.13549338,-6.46E-08,206.8979986,6.494047472,-225.0564388,-63.15263393,-136.4826546,-2.56E-08,1.324746019,-43.25503025,-38.38260269,-21.22083205,,,,
409.7359997,1600,-23.44647702,-32.52777854,-14.71110858,-45.23844878,-9.887691771,-2.91E-07,-191.8046592,-13.98857091,-59.38425384,-49.35157237,134.5400517,-2.58E-08,-62.54222487,142.2726439,100.6555775,80.44938777,,,,
409.7439997,1600,-86.19392624,-136.3506657,-35.36566538,-43.90753934,2.979039831,-2.19E-07,18.24073857,0.100021036,-243.8217381,-103.3111064,-99.53858044,-2.60E-08,29.75162617,-206.9786006,-166.42233,-137.7143341,,,,
409.7519997,1600,-141.5745405,-25.14657056,-97.61840542,-101.9847205,-64.61114408,-2.23E-07,42.44762681,-63.63942299,-147.6732866,-91.82433646,21.48535899,-2.61E-08,-106.1156831,126.4741384,92.53809524,59.45581789,,,,
409.7599997,1600,-31.57407101,-129.9966357,1.846594061,-47.48725335,9.127232368,-2.35E-07,-218.8116602,1.62774479,-156.424993,-125.034751,65.44323908,-2.63E-08,-17.0725603,-116.0094457,-86.25428796,-86.31110365,,,,
409.7679997,1600,-152.5823791,-74.97148088,-92.21575067,-79.72908257,-39.10338768,-2.16E-07,182.6114803,-24.66251093,-260.441233,-117.639499,-142.4136704,-2.65E-08,-17.01113235,-105.3097202,-84.02631689,-75.08601595,,,,
409.7759997,1600,-54.87259342,-51.32454617,-42.40595367,-81.81178905,-32.68169148,-2.28E-07,-203.7152542,-37.79784931,-79.68854395,-93.52764754,139.048648,-2.66E-08,-92.87490925,132.2704115,89.07110546,56.38176683,,,,
409.7839997,1600,-72.28551911,-139.4911031,-22.46976648,-33.45113996,9.377218282,-2.16E-07,10.6493082,24.1621101,-250.1386,-124.6656788,-103.6062952,-2.68E-08,34.43611254,-236.7590731,-186.3375948,-156.3296951,,,,
409.7919997,1600,-128.4838511,-9.869163897,-88.83628731,-76.79483506,-56.48032578,-2.20E-07,64.88507314,-39.52777198,-143.5078317,-76.83933085,-2.98296004,-2.70E-08,-85.12477068,131.240925,93.92176612,74.20733219,,,,
409.7999997,1600,-20.64664457,-116.6940181,1.178545042,-27.45261154,5.243328557,-2.15E-07,-226.9242444,11.86081357,-146.4059965,-104.5792847,62.71718735,-2.71E-08,-23.22083918,-87.74893524,-74.51477069,-67.34124604,,,,
409.8079997,1600,-142.257803,-67.21712251,-86.23954307,-52.88772114,-41.55305787,-2.15E-07,190.9342777,-5.61005872,-263.1906801,-97.00281089,-157.0381455,-2.73E-08,-21.86937482,-104.5780877,-91.30833666,-69.78326106,,,,
409.8159997,1600,-52.86523821,-38.76229305,-39.99176709,-64.56157844,-35.87744161,-2.12E-07,-192.9988234,-30.88503314,-77.61542096,-62.90508306,122.4332589,-2.74E-08,-94.28152614,141.9781558,99.67801067,79.08787514,,,,
409.8239997,1600,-66.56155507,-131.5857848,-18.48676115,-24.83644482,10.34015498,-2.10E-07,4.611008873,25.16619476,-256.7355403,-105.1218711,-112.2886069,-2.76E-08,20.09244111,-246.5239172,-184.274863,-155.6119106,,,,
409.8319997,1600,-128.3530538,-2.079683145,-87.01123346,-78.9474285,-50.48077662,-2.08E-07,77.96394248,-40.67483217,-154.1102874,-58.98011377,-13.54172653,-2.77E-08,-95.87447399,130.9195944,97.02730438,70.42034065,,,,
409.8399997,1600,-26.15862843,-118.049538,0.542824759,-50.5691935,9.44006733,-2.06E-07,-232.2420014,-1.786264553,-146.412739,-89.17436623,61.4897592,-2.79E-08,-21.14366426,-80.2499948,-63.37710569,-63.69593618,,,,
409.8479997,1600,-166.5890017,-88.95931334,-96.92826724,-94.95067487,-53.28122465,-2.04E-07,177.0092771,-33.21709467,-272.6793795,-107.4459291,-158.9491708,-2.81E-08,-23.54890977,-122.5787695,-94.05529238,-84.22654226,,,,
409.8559997,1601,-89.45487145,-66.43541959,-62.17904717,-113.6663159,-57.34241382,-2.03E-07,-209.3545764,-63.84843532,-95.9866976,-105.5776853,139.6620455,-2.82E-08,-117.0653579,126.6404592,92.25469313,54.68729236,,,,
409.8639997,1601,-87.95101352,-156.9961032,-33.44293307,-65.29233862,-3.123061514,-2.01E-07,-23.48473347,1.477057679,-269.7245739,-152.7344808,-95.61745029,-2.84E-08,7.477310275,-266.9238242,-205.6486999,-181.1608747,,,,
409.8719997,1601,-145.0704136,-22.99153952,-94.9402101,-108.0564067,-64.72346098,-1.99E-07,65.3221158,-56.62339831,-157.6287063,-91.63087754,-26.06199098,-2.85E-08,-89.68873146,107.84599,73.53025315,56.70042936,,,,
409.8799997,1601,-40.81247523,-136.8651543,-7.060492169,-70.4308263,-7.481151855,-1.97E-07,-249.5978558,-18.3510826,-148.5975838,-128.6184603,48.04658457,-2.87E-08,-29.50074598,-106.8299508,-84.61011995,-78.57146117,,,,
409.8879997,1601,-168.5706726,-99.6729183,-102.4477215,-102.0689589,-60.96093122,-1.95E-07,163.397296,-44.20532489,-282.7244135,-146.3407934,-185.9465119,-2.88E-08,-37.38002414,-160.0378859,-126.8856063,-111.6555454,,,,
409.8959997,1601,-68.93427981,-53.48134806,-48.34358309,-94.05226968,-44.89129035,-1.93E-07,-197.8459875,-49.41645823,-88.6451062,-104.7945564,91.10313172,-2.90E-08,-104.6566264,124.2301722,80.07515293,51.62130315,,,,
409.9039997,1601,-81.87177303,-158.1650198,-34.99915388,-55.17436329,-6.424153979,-1.91E-07,-23.45751229,1.408927223,-254.4339219,-141.3678459,-142.976487,-2.91E-08,24.76050466,-256.8975646,-204.3774177,-173.6031525,,,,
409.9119997,1601,-169.4012867,-44.64527413,-136.959632,-128.9320159,-103.0732516,-1.90E-07,42.33371161,-90.36930355,-171.1386146,-117.8680572,-51.28842788,-2.92E-08,-120.3318415,90.36950254,55.63585238,34.45076481,,,,
409.9199997,1601,-29.69731306,-131.2798693,-21.27500822,-58.6358137,-11.9393167,-1.88E-07,-262.6916734,-17.71879309,-154.0278525,-143.7043641,34.66662306,-2.94E-08,-51.46414073,-113.8732316,-103.6471566,-97.36175469,,,,
409.9279997,1601,-137.0782284,-80.12150646,-95.89332592,-67.99599935,-36.57782517,-1.86E-07,180.6978269,-21.84410529,-263.9120256,-127.234003,-207.8983639,-2.95E-08,-16.90215372,-146.7318691,-130.4749076,-104.1208256,,,,
409.9359997,1601,-62.90992711,-45.08425911,-67.55532742,-86.96620258,-44.74766971,-1.84E-07,-185.6064566,-51.43674329,-72.77874033,-92.47325492,89.97507558,-2.97E-08,-104.1079552,142.0993284,85.26177936,65.60757646,,,,
409.9439997,1601,-73.53503058,-151.7429894,-49.71414398,-48.99729302,-3.593393355,-1.82E-07,-17.77132146,2.554630853,-248.0149074,-134.8973146,-130.1185238,-2.98E-08,15.8898151,-248.5541813,-209.2432037,-167.5875499,,,,
409.9519997,1601,-155.5291496,-32.13289363,-139.5733655,-118.5826084,-89.1516411,-1.81E-07,69.72143476,-82.36201309,-165.2247693,-101.2710397,-51.80831197,-2.99E-08,-117.3631049,103.429875,51.78380217,41.6049911,,,,
409.9599997,1601,-26.34452274,-126.1196556,-29.83096743,-65.4668487,-12.81369021,-1.79E-07,-248.4104106,-18.71996065,-145.4558127,-126.7888004,41.86701625,-3.01E-08,-54.25202008,-95.82696431,-99.78249686,-86.2610189,,,,
409.9679997,1601,-143.8665968,-90.07924987,-108.8988812,-85.58106043,-52.89170573,-1.77E-07,185.6375441,-27.00044322,-273.1076976,-127.1911978,-194.5307164,-3.02E-08,-34.3783302,-155.033338,-138.3264151,-107.2269399,,,,
409.9759997,1601,-72.47657127,-54.77370283,-76.30000631,-107.500775,-60.95661513,-1.76E-07,-181.3405077,-61.59159963,-88.12987139,-99.32952605,105.2820295,-3.03E-08,-130.2452212,138.2055988,79.71671844,60.98374367,,,,
409.9839997,1601,-70.57253026,-156.6115674,-40.28029351,-62.16529435,1.069328627,6.46E-08,-18.02452604,2.490395907,-256.6522079,-138.6663386,-109.9079431,-3.05E-08,3.779278542,-250.7800571,-216.9153624,-167.9468345,,,,
409.9919997,1601,-149.6883164,-35.12088237,-121.6822271,-125.8167165,-72.02451024,2.91E-07,86.42478266,-70.95344905,-170.540045,-104.7283043,-39.66965283,-3.06E-08,-112.9729021,95.03237391,47.21945718,48.26984093,,,,
409.9999997,1601,-35.12766246,-136.0605994,-24.68283794,-85.4648768,-5.679759572,2.19E-07,-244.2327297,-21.34833872,-142.260703,-132.5001307,53.63796511,-3.07E-08,-50.04505338,-90.61324685,-90.53003089,-71.82952616,,,,
410.0079997,1601,-153.7641488,-99.39452769,-108.095177,-103.8646239,-45.92356549,2.23E-07,188.77204,-32.26952362,-272.5563695,-137.1375724,-179.7410953,-3.09E-08,-31.49649889,-163.8605157,-138.0218185,-101.2803135,,,,
410.0159997,1601,-71.31977915,-51.38515499,-73.10827837,-109.4972994,-54.89849656,2.35E-07,-171.1773748,-58.10487,-83.56942234,-105.5387913,122.882929,-3.10E-08,-127.3049393,129.998776,80.41531986,69.81335318,,,,
410.0239997,1601,-58.77004842,-145.9744502,-33.18205779,-46.90550943,4.129997627,2.16E-07,-14.30098432,13.85154929,-246.8062191,-138.0171657,-96.95524562,-3.11E-08,4.522952881,-250.5851013,-218.5393735,-160.0145381,,,,
410.0319997,1601,-132.6385375,-12.11355602,-106.9855449,-89.18564309,-62.40323852,2.28E-07,112.3698592,-50.68803767,-157.3646735,-82.97039414,-39.7283052,-3.12E-08,-102.4526969,104.466468,52.46610882,69.50439929,,,,
410.0399997,1601,7.785557128,-93.76197086,3.635086134,-56.41796992,-2.437276598,2.16E-07,-352.3573126,-19.08236456,-53.46141031,-88.48444857,180.8113617,-3.14E-08,-72.43727161,50.17641181,10.9316278,27.26364643,,,,
410.0479997,1601,-93.44576985,-93.17719878,-60.26367818,-79.41133775,-31.24086849,2.20E-07,37.76216963,-25.3370921,-212.7793922,-116.5025341,-42.87873457,-3.15E-08,-43.07421291,-106.3791188,-112.2305106,-72.73522346,,,,
410.0559997,1601,-97.66774819,-59.52400719,-75.64022884,-97.25724449,-56.63385465,2.15E-07,-9.037227887,-53.18195864,-162.8626558,-101.3972534,19.64236038,-3.16E-08,-82.44784498,13.62379072,-22.87991562,0.920379063,,,,
410.0639997,1601,-76.69173321,-102.1476457,-48.8071451,-72.85169255,-23.04094203,2.15E-07,-16.64458918,-20.50202545,-197.9314303,-117.9904091,-33.18575732,-3.17E-08,-27.448117,-120.4769588,-126.1747475,-80.57320388,,,,
410.0719997,1601,-86.38997104,-41.5773668,-66.67971628,-92.53881971,-34.6815203,2.12E-07,-27.24827664,-42.70201747,-125.9242447,-101.1870675,52.92714656,-3.18E-08,-85.89496345,66.79671719,15.53886408,30.85640424,,,,
410.0799997,1601,-59.94421267,-178.6831302,-14.24189642,-36.3491478,29.10734319,2.10E-07,28.24682126,23.30226738,-278.8401019,-135.1015489,-152.7894377,-3.20E-08,81.89899604,-370.1056121,-318.4136078,-226.6382144,,,,
410.0879997,1601,-151.9696078,-143.6415825,-80.13510899,-57.18742282,-7.161900024,2.08E-07,337.9377917,6.90173593,-365.0541709,-137.6473742,-311.8192979,-3.21E-08,80.18220764,-385.9002294,-329.7738308,-231.1547848,,,,
410.0959997,1601,-88.95623781,-38.01475867,-71.73560179,-94.3341022,-40.30239194,2.06E-07,-36.24927603,-50.66498925,-116.2024985,-97.5096933,57.4875012,-3.22E-08,-88.25930312,78.56935134,30.08459023,42.2392075,,,,
410.1039997,1601,-62.262864,-67.47989851,-48.70313676,-79.33954886,-23.91245922,2.04E-07,-103.5289066,-37.08322655,-123.694066,-109.1472929,57.45255067,-3.23E-08,-68.72970663,-0.825330951,-26.09516086,-4.183280343,,,,
410.1119997,1602,-82.67605482,-83.60467936,-52.41763849,-69.71968385,-18.54490659,2.03E-07,13.23480749,-25.99958828,-187.2806443,-113.9627658,-39.87594971,-3.24E-08,-34.316495,-109.1811608,-109.8376892,-65.39906188,,,,
410.1199997,1602,-93.80446139,-61.25665762,-70.59224411,-80.05463126,-40.48153563,2.01E-07,10.99434398,-49.12099783,-164.5009381,-104.8458702,-8.471076728,-3.25E-08,-60.94115334,-35.98510558,-50.15143962,-20.62261465,,,,
410.1279997,1602,-65.42102693,-49.12264598,-62.00494763,-76.85349047,-41.32877063,1.99E-07,-97.35885011,-53.11766596,-119.0105751,-103.3847492,76.2497197,-3.26E-08,-88.99554501,26.67963086,-3.020462691,10.650973,,,,
410.1359997,1602,-57.81196945,-90.69588524,-39.80341822,-44.5080069,-8.096114094,1.97E-07,-8.151141491,-11.48647406,-192.4852803,-107.9186336,-26.18694033,-3.27E-08,-19.09757222,-143.0373702,-140.988906,-91.50617805,,,,
410.1439997,1602,-93.14179174,-15.37408793,-79.95848106,-76.70730345,-47.34682883,1.95E-07,35.99233762,-52.04223042,-129.4526326,-85.46566625,39.62603822,-3.29E-08,-91.08939722,77.59992304,25.99378583,41.72100401,,,,
410.1519997,1602,-19.82043396,-73.18114419,-17.88198353,-51.00914589,-1.647089794,1.93E-07,-167.1360118,-21.91984371,-118.7371464,-101.3180809,91.60834576,-3.30E-08,-44.38547876,-44.31044499,-73.68192458,-42.36493118,,,,
410.1599997,1602,-94.13017415,-51.18274802,-67.71489163,-60.88219526,-18.98635319,1.91E-07,126.9907452,-24.48471362,-206.7643138,-95.79830071,-72.31652012,-3.31E-08,-12.36378732,-93.83599349,-113.8369478,-69.41580731,,,,
410.1679997,1602,-43.95453427,-2.440528074,-53.12238687,-77.05359242,-24.48999905,1.90E-07,-120.157188,-49.79536735,-60.18163764,-69.26182759,149.3662458,-3.32E-08,-88.08135507,146.92758,76.232696,70.9217259,,,,
410.1759997,1602,-33.72449391,-92.89578407,-21.12370833,-37.07493981,21.30560438,1.88E-07,-35.12629762,2.480242417,-187.605963,-99.14715469,-16.26513514,-3.33E-08,20.53658229,-175.2858643,-168.0166299,-120.9113855,,,,
410.1839997,1602,-106.2121277,12.52705804,-94.10928813,-79.62851241,-46.45634843,1.86E-07,99.44801167,-57.20278738,-132.079178,-72.86214043,17.77181408,-3.34E-08,-80.2362424,99.29148619,49.0803156,50.82351526,,,,
410.1919997,1602,-0.675325615,-63.91171896,-12.75282502,-42.28983815,7.854829028,1.84E-07,-221.4622793,-21.67857038,-89.3260237,-86.47350222,129.5128204,-3.35E-08,-38.98044298,-24.18935998,-45.26487049,-32.27371477,,,,
410.1999997,1602,-109.052096,-53.82034156,-81.86731046,-53.08414371,-18.50480581,1.82E-07,168.2739562,-19.75136691,-226.7913128,-100.508228,-95.90142951,-3.36E-08,-8.735894641,-131.6442684,-122.9056178,-86.17500051,,,,
410.2079997,1602,-56.50032837,4.243423583,-57.41674798,-63.61214024,-29.8632452,1.81E-07,-129.2084481,-46.28360506,-59.60069474,-74.30572383,172.349752,-3.37E-08,-105.1991177,161.6450026,107.015148,95.09365433,,,,
410.2159997,1602,-25.14526291,-91.37607695,-2.703541769,-6.698398696,33.8723507,1.79E-07,-34.66184831,24.09947731,-202.8779089,-97.42452945,-16.20229051,-3.38E-08,28.32743954,-193.920549,-179.3808395,-115.3402017,,,,
410.2239997,1602,-99.31298476,30.18671131,-75.92455266,-59.77588179,-28.17065773,1.77E-07,135.6287448,-33.8031768,-142.7971495,-52.52964205,-9.91634055,-3.39E-08,-65.19539543,118.1198743,56.88696157,81.56332881,,,,
410.2319997,1602,7.742902945,-53.19154638,14.16603129,-30.39027696,27.61798563,1.76E-07,-231.3683839,-4.287343941,-90.27857145,-56.69243644,115.972064,-3.40E-08,-17.56574943,0.384390469,-27.95635232,5.241134645,,,,
410.2399997,1602,-107.3573071,-50.39855639,-69.40304518,-53.44028291,-13.12789598,-6.46E-08,178.2217619,-17.23706447,-244.9725609,-81.16655053,-128.157442,-3.40E-08,3.389834038,-142.3675291,-128.1090208,-76.42422438,,,,
410.2479997,1602,-51.37634896,8.05771281,-61.10742631,-81.59611048,-33.81076181,-2.91E-07,-148.6318589,-58.02849513,-66.80839332,-59.35406822,146.7839022,-3.41E-08,-106.1852688,155.2347598,105.4098017,97.20008843,,,,
410.2559997,1602,-29.44479511,-97.06092955,-13.98568006,-25.68578885,32.69936964,-2.19E-07,-53.7803813,13.54052478,-217.6663525,-86.69374348,-32.28873039,-3.42E-08,31.55626709,-218.6252184,-190.8008658,-128.5458769,,,,
410.2639997,1602,-112.0178953,21.31283823,-96.44152107,-73.67834374,-41.93158926,-2.23E-07,131.2665412,-45.5831196,-160.9113944,-55.1699953,-9.254761885,-3.43E-08,-73.96213454,90.04300787,47.39107056,66.38864713,,,,
410.2719997,1602,2.578748325,-59.62514727,-1.724219255,-38.49297645,12.1031897,-2.35E-07,-253.6371704,-14.54330675,-100.9360283,-67.72106601,129.2678095,-3.44E-08,-31.85662627,-20.18034286,-44.4219722,-4.961666537,,,,
410.2799997,1602,-109.2253734,-53.52839576,-69.44812386,-49.92679259,-13.19933431,-2.16E-07,181.3803333,-14.62970876,-257.6372146,-87.25479596,-115.215073,-3.45E-08,-2.119166836,-155.4215768,-143.9851,-79.58018255,,,,
410.2879997,1602,-46.10393453,10.39514355,-49.04561291,-67.8874132,-37.84951184,-2.28E-07,-139.252485,-52.02974108,-67.13139087,-56.28796425,164.8807035,-3.46E-08,-110.3093115,165.0226717,113.7142472,109.9344998,,,,
410.2959997,1602,-22.62660401,-97.59812749,-2.343884942,-15.24539794,20.91239277,-2.16E-07,-63.64926037,7.828043557,-210.2908883,-83.39079357,-17.26705782,-3.47E-08,28.69840692,-212.9399258,-184.2899472,-119.7922776,,,,
410.3039997,1602,-92.55348729,33.24143581,-75.30365153,-45.99597513,-37.44696086,-2.20E-07,137.4549726,-41.36964304,-154.0446626,-49.14937492,4.76971662,-3.47E-08,-66.74150635,88.68789082,55.60966162,69.61812297,,,,
410.3119997,1602,50.18498965,-27.9906967,42.99549028,19.93191448,39.05086733,-2.15E-07,-233.1214648,14.63087479,-79.98374594,-35.10934486,136.6182047,-3.48E-08,-0.063623951,7.328736191,-18.06207452,19.3781959,,,,
410.3199997,1602,-63.51059678,-27.60965983,-24.00026254,3.717546178,18.33640359,-2.15E-07,211.9257974,17.5449653,-232.427848,-36.80847276,-132.8042243,-3.49E-08,45.36787237,-118.6052292,-111.6262575,-42.40025381,,,,
410.3279997,1602,-12.83501326,38.98701554,-15.60723382,-26.33947791,-10.1615597,-2.12E-07,-102.5731853,-21.39923863,-47.11766366,-11.04442289,146.3844599,-3.50E-08,-69.50508357,200.8672867,154.0425313,150.6197947,,,,
410.3359997,1602,9.872722532,-66.46304665,33.34109637,21.3437037,50.26430832,-2.10E-07,-31.73542223,43.53553286,-190.8677006,-41.62564863,-24.34559589,-3.51E-08,67.25959853,-184.7176729,-150.1402656,-79.84382729,,,,
410.3439997,1602,-81.16393286,48.742635,-54.93822131,-39.0235062,-22.488543,-2.08E-07,164.8531869,-20.49114616,-141.4201818,-20.46027662,-4.508760414,-3.51E-08,-43.84874243,89.57926524,76.38433986,96.05773664,,,,
410.3519997,1602,32.35769034,-24.14482387,28.73763232,-10.25592857,28.79800912,-2.06E-07,-234.6257395,6.57196278,-79.49823565,-29.75318609,148.9023445,-3.52E-08,-8.044858578,-4.392427238,-4.87430144,28.04917166,,,,
410.3599997,1602,-78.76705508,-24.11884881,-40.85521744,-23.23805542,12.30887793,-2.04E-07,208.0722951,10.34129639,-242.2342831,-42.52904876,-107.921241,-3.53E-08,33.7624,-148.034463,-119.2724198,-56.94890864,,,,
410.3679997,1603,-12.93030261,49.6633524,-17.54728067,-32.59547142,-1.23497589,-2.03E-07,-95.38572286,-12.2111442,-49.60427916,-8.682546838,157.0833879,-3.54E-08,-70.80115827,174.1917211,146.3651804,139.9410697,,,,
410.3759997,1603,-2.565758581,-69.19371536,19.29064228,7.512790926,51.9679163,-2.01E-07,-40.42391335,39.31253913,-194.4571132,-36.25002459,-23.57011206,-3.54E-08,62.384081,-197.6834134,-149.9150077,-79.87445298,,,,
410.3839997,1603,-104.6716969,35.48780806,-75.90180275,-51.1346471,-22.8329451,-1.99E-07,161.6179521,-33.61748268,-159.0366764,-25.39430803,-16.20527885,-3.55E-08,-56.89987432,65.69715422,73.32714392,86.7593775,,,,
410.3919997,1603,27.51471848,-25.67875388,31.44382462,4.621349328,43.01266419,-1.97E-07,-239.5780949,15.20832263,-86.05657939,-34.68681981,142.237158,-3.56E-08,-12.94182361,-26.61431062,1.044512678,24.98539822,,,,
410.3999997,1603,-82.9305624,-31.80421348,-32.85488497,-5.079806167,28.52901636,-1.95E-07,205.8969832,22.43069825,-239.0320173,-41.74471612,-121.3294537,-3.56E-08,46.47903114,-165.0242855,-108.0324921,-48.01995368,,,,
410.4079997,1603,-22.27454733,41.85846154,-16.58909052,-24.33437146,11.68306638,-1.93E-07,-91.94327898,-12.01795609,-48.13611596,-12.97759614,138.3659585,-3.57E-08,-64.05800933,162.6968849,162.1714852,151.5672208,,,,
410.4159997,1603,11.73901925,-61.6504568,38.71415718,29.83811399,79.48547814,-1.91E-07,-40.04901798,53.51018505,-187.3904836,-39.9369526,-29.57837995,-3.58E-08,74.49633776,-201.4996123,-135.6719436,-70.32237436,,,,
410.4239997,1603,-82.97142538,47.63468104,-48.56887207,-24.73233254,10.04960025,-1.90E-07,184.8632857,-8.800994079,-145.525863,-13.32902984,-40.672238,-3.58E-08,-23.67868108,82.38803989,89.28211216,104.8206605,,,,
410.4319997,1603,33.29613699,-21.27834316,36.93328717,4.803277273,48.83762203,-1.88E-07,-234.5924373,19.04547474,-75.8410349,-23.37830372,118.5184865,-3.59E-08,0.525299808,4.950262065,18.15004636,42.35272182,,,,
410.4399997,1603,-85.09724056,-34.96942628,-39.89135238,-12.67284608,20.12857972,-1.86E-07,194.190909,16.56793327,-243.2387488,-44.1620837,-134.3114192,-3.60E-08,39.46955689,-158.3809954,-116.6105873,-57.44675945,,,,
410.4479997,1603,-23.59455443,46.56807591,-15.49389663,-18.27537376,14.15149186,-1.84E-07,-86.22763416,-5.415186625,-49.49667234,-7.348263307,122.5621553,-3.60E-08,-66.46642056,168.9647795,150.2781891,141.7388095,,,,
410.4559997,1603,2.410213651,-65.89683795,34.68239167,32.10399078,68.59153692,-1.82E-07,-49.84679749,52.8822458,-186.8800451,-30.6746407,-32.88935673,-3.61E-08,65.17759556,-193.8974924,-143.0802942,-75.97439386,,,,
410.4639997,1603,-91.44252006,40.11846736,-56.13320101,-17.53540229,-9.511847565,-1.81E-07,182.0377647,-11.85025149,-151.5752845,-7.472452783,-37.04232112,-3.61E-08,-35.08648826,73.85030352,80.12532114,99.52090182,,,,
410.4719997,1603,43.38735319,-11.30310776,46.77494669,29.95938123,53.42044033,-1.79E-07,-223.8883259,33.5985345,-67.31085052,-4.427948364,124.0552591,-3.62E-08,5.762544062,2.70386436,26.82206879,60.14026626,,,,
410.4799997,1603,-77.01315057,-29.69870887,-28.7428422,7.936855316,31.86994995,-1.77E-07,198.4767454,31.51094827,-237.1006229,-29.81847631,-132.8613204,-3.63E-08,44.24480424,-174.258354,-101.7882825,-38.59496623,,,,
410.4879997,1603,-11.87025554,57.49809361,-4.876227646,2.699764488,22.36333624,-1.76E-07,-76.10743222,9.789019547,-46.59630814,3.628574221,122.188069,-3.63E-08,-62.26142238,156.7584599,174.9822813,164.3232074,,,,
410.4959997,1603,28.45418327,-47.30121717,51.5491935,53.97327482,77.74692015,6.46E-08,-41.34430152,69.93988689,-174.9239191,-13.41935138,-34.50308413,-3.64E-08,83.40020119,-193.9819909,-119.4212426,-50.66807592,,,,
410.5039997,1603,-87.47456479,42.67077377,-55.85068717,-17.59240798,-15.48956263,2.91E-07,184.3979247,-14.93436855,-149.1564573,-4.885444528,-44.9825644,-3.64E-08,-29.05077646,61.5255026,88.70690711,105.3106885,,,,
410.5119997,1603,46.6654127,-6.683244855,49.55896797,35.1590436,54.26249544,2.19E-07,-226.9447841,29.46959505,-66.24821306,-4.450523991,124.9540884,-3.65E-08,1.534879272,0.964755922,39.72899393,63.75218611,,,,
410.5199997,1603,-106.2117258,-6.05923908,-53.30585779,8.099674161,28.82662027,2.23E-07,360.0343701,22.30866299,-269.7062415,-23.64331884,-203.2385633,-3.65E-08,40.31684348,-158.9994273,-79.93153629,-25.13220849,,,,
410.5279997,1603,-118.3829679,139.0434369,-108.2016281,-55.68651623,-45.17421267,2.35E-07,171.5732513,-61.15368102,-30.39810478,13.1887787,87.07603881,-3.66E-08,-163.89883,387.397521,373.8906342,312.201649,,,,
410.5359997,1603,-5.908388428,41.40754403,-3.519879237,9.985005483,32.32727709,2.16E-07,-95.24375551,8.272449133,-51.15834575,-0.584800054,112.2841713,-3.66E-08,-58.89317917,132.4555223,158.6892039,152.0152632,,,,
410.5439997,1603,-58.06656631,16.22540483,-31.56812041,4.08351144,22.94520985,2.28E-07,120.4556952,8.001003974,-156.7050418,-13.56964086,-46.08218252,-3.67E-08,-11.38916334,-7.763578302,45.28854882,66.40708662,,,,
410.5519997,1603,25.29370981,-38.75778663,39.16710534,33.84980447,57.86596815,2.16E-07,-165.3681051,32.31932368,-118.5761666,-20.07320429,41.58724597,-3.67E-08,27.39236841,-89.15271072,-23.14002059,13.4730366,,,,
410.5599997,1603,-59.87268313,-9.430606373,-21.1953947,6.721140045,25.44538658,2.20E-07,132.75127,10.94086737,-196.478764,-26.52162424,-92.37752773,-3.68E-08,13.01160961,-92.37636198,-26.24909095,7.820612003,,,,
410.5679997,1603,-3.282969975,33.50889124,0.44101191,3.927917555,25.9115895,2.15E-07,-77.60809763,0.126767256,-72.92591669,-1.225426632,68.15735802,-3.68E-08,-42.0198164,87.02903604,114.1792817,110.9392575,,,,
410.5759997,1603,22.89597905,-52.61736959,40.32143082,41.1435924,67.6568055,2.15E-07,-60.697944,46.44437149,-170.0105547,-12.05021674,-55.43265898,-3.69E-08,68.62887982,-185.7335201,-118.7995049,-57.5453447,,,,
410.5839997,1603,-61.1003815,47.74524623,-39.02703162,-9.599479973,-1.635879736,2.12E-07,148.3267376,-11.54537396,-134.3416361,0.430690089,-59.63510132,-3.69E-08,-31.01158974,57.61492995,82.95160706,90.70881244,,,,
410.5919997,1603,69.79371573,-2.687575453,63.60760974,43.51861577,68.45006914,2.10E-07,-212.2766264,41.2104627,-66.60705133,6.63201964,62.45329222,-3.69E-08,27.30161722,-32.2387861,2.928954295,29.61469633,,,,
410.5999997,1603,-48.72165512,-18.82756047,-14.37124759,6.979516182,37.95067341,2.08E-07,160.2723223,19.00906829,-200.9557981,-7.004501491,-153.7458687,-3.70E-08,56.04203658,-135.6130353,-81.90282814,-33.8340557,,,,
410.6079997,1603,-12.95402156,42.07048897,-13.2013151,-16.27025564,5.669565911,2.06E-07,-87.89464019,-20.72252027,-55.3981737,-5.625977685,68.50936372,-3.70E-08,-60.26831525,126.1915735,135.1729891,122.209304,,,,
410.6159997,1603,35.55870148,-47.86685596,48.94388332,44.57898407,75.6633408,2.04E-07,-72.91762905,54.13878885,-169.3323436,-22.05668934,-57.39587764,-3.71E-08,69.53093393,-199.9563471,-136.5600817,-68.51963245,,,,
410.6239997,1604,-67.05125299,46.09827883,-39.03964741,-10.12775102,10.05687477,2.03E-07,183.9579426,-1.255611086,-144.3615096,-2.272872573,-81.13820104,-3.71E-08,-24.02095688,49.66571025,74.92263565,93.59939415,,,,
410.6319997,1604,53.22692848,-6.077378063,52.77410447,31.13617272,47.87092369,2.01E-07,-228.0999221,32.17319841,-63.12098253,-7.421634802,88.32064353,-3.71E-08,-0.237096956,4.10082204,31.06481954,56.99338915,,,,
410.6399997,1604,-54.82617846,-28.18984872,-13.28911662,11.37259394,24.71237654,1.99E-07,170.2916814,31.06323389,-220.4048393,-14.28334824,-156.2331556,-3.72E-08,58.07836476,-151.8803716,-103.660837,-35.59482076,,,,
410.6479997,1604,-5.896653111,55.12769414,-3.327942835,-9.229982821,6.623636207,1.97E-07,-74.3954059,-2.077762535,-52.4682172,5.166635555,71.30996844,-3.72E-08,-59.53300353,154.9674354,153.0341688,145.170354,,,,
410.6559997,1604,46.49495782,-41.11880743,59.18657515,46.41787228,74.858098,1.95E-07,-85.99381047,60.68024704,-163.9053651,-11.76461678,-59.26328024,-3.72E-08,80.37652081,-178.2142195,-125.453778,-59.89321204,,,,
410.6639997,1604,-62.79008788,50.22291938,-36.5941965,-13.93163503,5.983054475,1.93E-07,184.8810755,-2.691650497,-145.1552182,11.37314006,-106.4435447,-3.73E-08,0.943474568,48.49637958,67.93822484,88.74592084,,,,
410.6719997,1604,69.21166642,10.58440454,64.71077039,31.6150456,60.741029,1.91E-07,-232.6405127,38.51025936,-50.8001625,2.508067913,67.27461521,-3.73E-08,14.07598157,6.865889866,37.48036469,57.25421802,,,,
410.6799997,1604,-40.56201634,-19.9606507,-1.608920723,13.03119438,37.11016674,1.90E-07,173.105508,36.91949805,-219.0793291,-17.71603852,-193.7317301,-3.73E-08,72.23739409,-170.3052975,-112.737134,-48.7630894,,,,
410.6879997,1604,-9.175874118,58.21085385,-7.607599885,-17.82313295,-3.013177757,1.88E-07,-73.05996852,-13.13029873,-48.40900717,-3.102366827,39.06043374,-3.74E-08,-59.27953504,152.8611306,159.4509046,138.060965,,,,
410.6959997,1604,53.36565783,-36.87603268,70.16198912,56.68688503,81.81695462,1.86E-07,-80.67345923,65.81206108,-153.3496406,-19.92263997,-80.87539819,-3.74E-08,85.59006898,-186.1680342,-118.2558363,-71.45314204,,,,
410.7039997,1604,-60.45798424,49.27291095,-30.66372804,-0.192254657,15.17702889,1.84E-07,200.0735551,6.663452647,-137.7867855,3.728105511,-123.2725802,-3.74E-08,7.167183737,45.33495376,80.35545075,82.6701529,,,,
410.7119997,1604,55.64746504,1.995279149,47.55000452,27.70172325,48.96518722,1.82E-07,-238.6902881,29.4640607,-44.25173111,-9.127839345,71.53387586,-3.74E-08,0.329078746,16.22921838,58.86860313,52.62300845,,,,
410.7199997,1604,-36.45385799,-18.11308215,-0.899815964,27.62426164,44.92113144,1.81E-07,176.408207,44.80811152,-210.7682687,-27.07865945,-182.8259778,-3.75E-08,67.93977815,-174.3281302,-106.7880836,-63.90106814,,,,
410.7279997,1604,-1.344409762,66.33253174,-1.449041278,1.9621613,20.77354028,1.79E-07,-53.90162402,4.974932106,-33.1624911,0.531673904,44.47567411,-3.75E-08,-48.00874888,164.3756053,173.3910831,145.5383492,,,,
410.7359997,1604,40.85670733,-44.67281134,53.24399642,48.9845498,81.26272905,1.77E-07,-86.84291421,65.38575765,-148.9537182,-24.00807075,-71.70317903,-3.75E-08,81.06404892,-178.3031641,-110.1805393,-61.66595818,,,,
410.7439997,1604,-68.89717614,46.50590844,-41.26378705,-11.57136725,6.174956305,1.76E-07,197.2623545,3.301879701,-147.5405335,-13.85117781,-113.7896035,-3.75E-08,-10.44241427,40.25831768,66.66779412,75.51619805,,,,
410.7519997,1604,61.55981941,9.042813613,57.05110068,25.62979189,55.3554022,-6.46E-08,-234.1837865,32.24098224,-41.92286139,-14.60046949,78.59811404,-3.75E-08,-1.519905895,25.67025204,52.45373008,58.9156809,,,,
410.7599997,1604,-40.62712232,-22.83944723,0.29163322,16.81706616,42.00502717,-2.91E-07,167.7292133,36.0012609,-212.1294615,-29.8456476,-182.8330165,-3.76E-08,67.51490491,-181.5503111,-113.0594333,-58.52269061,,,,
410.7679997,1604,-1.106353554,70.33381542,4.089464489,-6.114886683,9.386898927,-2.19E-07,-57.07341342,-4.804078337,-40.66695128,-6.282312997,46.64615014,-3.76E-08,-62.44831026,152.3095592,165.2505848,142.1414803,,,,
410.7759997,1604,57.91795476,-33.48847738,76.35347102,52.00636769,80.35491102,-2.23E-07,-92.02384696,65.21366212,-142.5640643,-20.10645646,-65.5498224,-3.76E-08,78.22088595,-178.6195784,-113.2874631,-62.73078379,,,,
410.7839997,1604,-66.39438601,44.39910049,-33.32376585,-13.22174717,0.752999487,-2.35E-07,191.7124307,-6.495383099,-145.0167856,-9.104496342,-120.3974532,-3.76E-08,-6.12802891,28.72943684,64.54169478,68.98222515,,,,
410.7919997,1604,66.42471575,10.64921289,64.99371717,34.79449056,52.37539461,-2.16E-07,-229.4114313,33.62406938,-41.36476787,-14.31302012,75.73641486,-3.76E-08,-2.131847024,14.62153273,57.53220402,52.13076471,,,,
410.7999997,1604,-26.70161288,-20.15343563,15.22569135,30.62345487,47.83771183,-2.28E-07,178.7265363,52.30142827,-206.3236512,-27.29481248,-183.6974349,-3.76E-08,76.28342794,-183.3997616,-107.8938823,-61.46590043,,,,
410.8079997,1604,-4.780252815,64.38393908,-2.849361312,-9.021939245,6.543332852,-2.16E-07,-48.9678158,-4.798288128,-35.63736409,-4.420185622,39.31847673,-3.77E-08,-53.63882808,153.6006343,171.7358738,142.0317897,,,,
410.8159997,1604,55.4628968,-37.22072261,69.65294454,54.01910768,82.35975821,-2.20E-07,-87.34378578,70.29432782,-136.7653173,-17.74824119,-69.1415789,-3.77E-08,83.04875992,-187.025897,-109.5468196,-64.36132877,,,,
410.8239997,1604,-65.18354771,46.04538212,-33.58294386,-10.64509015,7.668322089,-2.15E-07,209.7086919,8.14266272,-144.7281765,-6.058550564,-121.8216245,-3.77E-08,-3.747158061,22.85484136,66.08731673,66.17003845,,,,
410.8319997,1604,65.58371081,17.00534773,57.91423411,31.74278781,50.99049752,-2.15E-07,-218.9966819,35.78018411,-43.11517071,-12.75282501,77.03848442,-3.77E-08,-8.815572707,17.83872267,64.03986716,52.08261823,,,,
410.8399997,1604,-14.51510008,-6.617324691,19.51099069,47.45442029,56.12407816,-2.12E-07,193.1290078,62.90973157,-206.9398129,-16.25023295,-189.697118,-3.77E-08,81.42630442,-188.0553338,-108.3778878,-57.4659604,,,,
410.8479997,1604,9.523595305,80.69652331,7.641820188,15.80439651,20.03538471,-2.10E-07,-15.79213861,17.64323835,-30.90573656,12.87567264,40.78408268,-3.77E-08,-41.53225441,160.3721299,184.3494744,158.2371985,,,,
410.8559997,1604,58.34725078,-31.54221771,64.3297647,62.59060826,77.15320169,-2.08E-07,-77.10773932,75.19190393,-126.4986324,-8.237318973,-54.45803355,-3.77E-08,82.04964717,-183.8446362,-93.21720177,-51.87105984,,,,
410.8639997,1604,-61.22423755,51.40308206,-41.51871865,-6.63291449,-1.066689613,-2.06E-07,218.8115752,8.193536266,-134.0307737,2.697330607,-117.5859817,-3.77E-08,-3.65734882,11.27826936,60.34905432,70.99009522,,,,
410.8719997,1604,74.19136664,25.60034604,57.38672152,32.49718635,54.96031859,-2.04E-07,-201.3114482,48.59559974,-22.74816181,1.820793193,85.97651725,-3.77E-08,-1.507070378,21.65785744,63.69673322,66.77170335,,,,
410.8799997,1605,-22.58011705,-13.96489366,5.284224188,26.7888366,53.42102764,-2.03E-07,199.6063966,60.7358001,-189.6928843,-3.209642415,-179.6088728,-3.77E-08,83.96011478,-185.2487746,-109.5950979,-51.07120507,,,,
410.8879997,1605,2.297921235,77.59825726,-2.289111898,-4.306320134,23.67011366,-2.01E-07,-0.224632121,11.97105852,-23.69721355,20.39567474,39.25063771,-3.77E-08,-45.74472761,164.0291226,169.7701335,153.2373188,,,,
410.8959997,1605,66.03081125,-24.43141974,72.06162818,55.47972353,99.55299877,-1.99E-07,-57.16451524,87.11847609,-120.1725976,0.556028653,-68.35498992,-3.77E-08,90.13021414,-168.1519259,-108.2494285,-49.74052003,,,,
410.9039997,1605,-67.67031318,49.49418583,-51.87069311,-29.92932933,0.406978484,-1.97E-07,230.5762495,2.554841769,-135.666412,13.56404709,-140.5497462,-3.77E-08,5.265122335,24.5822803,45.1417875,74.8241831,,,,
410.9119997,1605,73.9914493,24.26683373,49.47025145,11.48927932,47.04753042,-1.95E-07,-205.6878272,34.12781457,-22.76150265,5.301864974,78.34222443,-3.77E-08,-7.248113145,32.57323099,46.44457121,62.61778265,,,,
410.9199997,1605,-14.96741592,-19.61231054,18.34892539,21.7948448,59.05766915,-1.93E-07,196.5152062,61.6308079,-186.4596655,-9.69858456,-191.5080456,-3.77E-08,87.62694657,-182.0002732,-127.2278535,-57.49262906,,,,
410.9279997,1605,-14.35522617,62.28077696,-8.255769168,-29.76692313,5.071375287,-1.91E-07,-3.109747606,-3.221306678,-26.376972,10.54803296,28.78830649,-3.77E-08,-46.88101949,168.3915799,165.9022895,155.8110193,,,,
410.9359997,1605,61.14368062,-32.8039467,67.15362773,32.99575119,78.73092027,-1.90E-07,-75.57322119,72.87341127,-122.6008875,-8.540277534,-55.50354616,-3.77E-08,77.70455549,-168.7058473,-116.4636975,-53.90642371,,,,
410.9439997,1605,-51.12211436,52.2323959,-26.05684844,-18.04983161,18.4618143,-1.88E-07,241.7825326,21.55649822,-129.2499736,12.41996,-139.5415512,-3.77E-08,14.58770034,28.83674994,33.01702409,74.62129638,,,,
410.9519997,1605,75.1508749,25.10352109,67.38365688,21.10930733,63.43579648,-1.86E-07,-191.7713904,45.40808283,-6.774317581,12.49734736,74.67237698,-3.77E-08,7.530723605,54.15497793,58.26057396,84.58901821,,,,
410.9599997,1605,-19.60444007,-23.13428543,14.60496238,21.25174863,54.55122777,-1.84E-07,187.3235203,58.03225689,-182.8660899,-8.511073552,-184.4837986,-3.77E-08,81.27249528,-181.1451608,-127.0562105,-48.38823628,,,,
410.9679997,1605,-13.26715481,60.74248311,-12.96570735,-25.62320352,6.190379983,-1.82E-07,-5.544669562,-3.161030765,-27.56224788,4.940775378,35.1551469,-3.77E-08,-59.13537114,168.9118475,151.4964428,156.4676242,,,,
410.9759997,1605,56.04739839,-39.64323982,63.97016183,35.75906692,91.01204658,-1.81E-07,-87.70647298,65.91122846,-114.4577996,-15.63183567,-52.50840295,-3.77E-08,73.0885151,-160.4404402,-124.4306396,-47.99508466,,,,
410.9839997,1605,-66.60730064,38.4198329,-37.65594996,-22.57665669,20.90056626,-1.79E-07,233.0079534,7.961250903,-134.1292544,0.888778459,-142.8056067,-3.77E-08,2.845938603,23.03605578,24.44995939,72.22562675,,,,
410.9919997,1605,55.42183579,7.415438258,49.17980387,-0.341728331,50.28616459,-1.77E-07,-204.8333903,25.33991604,-18.46928591,-8.026473896,79.28170872,-3.77E-08,-17.28416438,52.12218559,53.45097405,75.23804435,,,,
410.9999997,1605,-76.96542168,-25.97653363,-27.31879971,-9.275408234,36.54190125,-1.76E-07,335.8900233,38.02601654,-234.6037821,-21.17799046,-274.3321806,-3.77E-08,79.96783076,-202.3077458,-153.9938471,-66.19937398,,,,
411.0079997,1605,-131.8239079,138.7606977,-114.2900159,-78.0419132,-58.62656979,6.46E-08,327.4883778,-55.72862217,-55.46072984,25.86490727,-86.99718968,-3.77E-08,-112.5330375,336.3748118,278.5806933,268.4917167,,,,
411.0159997,1605,63.38162441,5.404758596,47.61634763,7.71765389,44.15739813,2.91E-07,-225.7930185,26.00872163,-15.28738002,-5.985145565,77.45297573,-3.77E-08,-16.55373939,49.24112926,53.11978403,77.22591373,,,,
411.0239997,1605,-7.058100258,-54.98441738,19.44183502,13.64588405,44.86011572,2.19E-07,83.55606587,50.74956689,-184.3099198,-32.41893266,-155.0846716,-3.76E-08,66.85654427,-230.4915572,-168.0065306,-88.45230504,,,,
411.0319997,1605,-29.91035152,47.50485941,-16.23265727,-16.87981166,3.46806576,2.23E-07,93.13531579,10.58495545,-80.61502936,2.781530828,-49.08774941,-3.76E-08,-35.57471851,77.99599845,71.20373334,103.9279231,,,,
411.0399997,1605,33.16877454,3.391593919,39.64165347,7.033775331,54.02663859,2.35E-07,-79.01917436,38.18584228,-66.96255802,0.717650255,-11.40492871,-3.76E-08,8.640416776,-9.863408903,-1.737916641,47.41148749,,,,
411.0479997,1605,0.433378752,-17.79424024,16.56325604,2.279339736,47.16014686,2.16E-07,45.86238058,39.03656188,-134.6142849,-14.7703329,-115.1907454,-3.76E-08,37.85861763,-113.5785237,-80.47977566,-14.49738448,,,,
411.0559997,1605,-19.29535741,42.37532513,-11.48583853,-14.52333954,17.57519422,2.28E-07,78.44460935,15.20744738,-83.93996096,-0.153162737,-74.5780083,-3.76E-08,-18.05411685,57.30653615,45.25579213,84.64751773,,,,
411.0639997,1605,42.57243892,-3.793509227,44.31927688,13.80699523,57.29838335,2.16E-07,-104.1592904,45.00471901,-64.67415855,-2.409737268,-20.95625137,-3.76E-08,21.27546103,-25.61389302,-23.82889154,28.13627227,,,,
411.0719997,1605,-25.43537882,-5.767009005,-1.431553906,-5.196138642,32.15848258,2.20E-07,122.5970282,34.58933395,-143.3771212,-3.097744048,-149.4154188,-3.75E-08,42.45691648,-89.67562616,-72.91842821,-2.743028426,,,,
411.0799997,1605,-16.11178606,34.16751922,-12.74478442,-44.25291464,1.970103435,2.15E-07,-26.72887298,-9.70210869,-49.39995456,-1.344382796,-4.881888484,-3.75E-08,-42.62363742,101.530254,80.83236074,103.6580483,,,,
411.0879997,1605,30.1416732,-41.57409504,38.97650702,-1.802792482,55.67854883,2.15E-07,-67.83499355,40.05877575,-119.0200047,-36.62417638,-67.44170956,-3.75E-08,41.75066695,-151.2193807,-116.1341135,-57.47951986,,,,
411.0959997,1605,-52.18557466,32.42665367,-29.55094994,-27.49987203,11.17963797,2.12E-07,182.3418751,8.155645457,-120.9180752,-10.34480831,-130.8974368,-3.75E-08,4.634120772,4.653473882,5.964279949,48.89227065,,,,
411.1039997,1605,39.77813438,-0.247501396,31.71827171,-7.272984683,38.17979915,2.10E-07,-172.8100764,15.05997384,-28.86522737,-10.15145219,51.34316706,-3.75E-08,-8.214932698,18.72450046,30.17090116,53.82948554,,,,
411.1119997,1605,-16.62021159,-27.52571584,1.272221698,11.45683533,44.02863873,2.08E-07,128.4736958,39.38313125,-167.0008505,-30.70596902,-153.269113,-3.74E-08,53.40123922,-185.5216561,-134.0926299,-64.72346879,,,,
411.1199997,1605,-13.15351017,53.83611302,-19.91523815,-18.49052594,1.685689152,2.06E-07,-0.057626441,-8.619211872,-27.93241664,1.898849331,13.14540246,-3.74E-08,-47.66566718,131.9914556,109.0368201,127.7295271,,,,
411.1279997,1605,41.64226268,-48.63310914,39.78154649,25.7455764,55.67653378,2.04E-07,-108.035575,39.43657833,-102.107244,-30.35221727,-36.52258074,-3.74E-08,49.79369709,-163.1798231,-117.5408996,-54.39114485,,,,
411.1359997,1606,-59.94899394,31.18425369,-44.18063265,-7.272054656,3.601121871,2.03E-07,211.1526904,2.229765261,-134.4381685,-18.66489245,-136.4423942,-3.74E-08,-7.307184407,-17.5637317,-11.07329079,36.98337016,,,,
411.1439997,1606,46.49021941,4.072402907,27.2313593,11.45686342,34.95728051,2.01E-07,-195.7334092,12.75435682,-8.75761824,-10.10732684,70.50804432,-3.73E-08,-21.7052468,47.43697318,45.56890257,65.61306208,,,,
411.1519997,1606,-34.51337184,-46.29145515,-18.0474096,5.36900179,34.0046195,1.99E-07,128.7741888,27.97410923,-173.1628728,-33.31861501,-168.4381893,-3.73E-08,57.29074407,-204.5506395,-147.23369,-79.43155086,,,,
411.1599997,1606,-29.91475077,50.00593029,-37.41648255,-36.82906869,-9.719773832,1.97E-07,2.218316747,-20.06753189,-32.32811962,-5.804922284,18.08400042,-3.73E-08,-69.42470207,139.5059161,118.8770074,127.0380795,,,,
411.1679997,1606,38.94890428,-55.48008613,42.0997378,12.9787515,58.21480417,1.95E-07,-124.7390596,40.52212054,-100.8278039,-34.09777365,-27.82069246,-3.73E-08,44.99943659,-163.4319689,-115.3222675,-61.89165457,,,,
411.1759997,1606,-80.90276225,24.29362176,-52.54806418,-40.85344075,-5.884229359,1.93E-07,209.4238733,-13.86371228,-135.723771,-21.03723806,-134.0789138,-3.72E-08,-7.596789952,-20.98878693,-5.963814314,35.74387509,,,,
411.1839997,1606,42.67053041,9.350212865,37.20310622,-19.64453749,37.6830659,1.91E-07,-202.9930843,8.221652727,0.94256202,-12.20118901,91.15386842,-3.72E-08,-20.52679908,47.54447588,56.48507557,73.50542613,,,,
411.1919997,1606,-37.14548085,-46.05471219,-2.407409357,-19.56097221,43.98930625,1.90E-07,126.3996821,27.54802331,-169.9398681,-40.71725624,-160.3972155,-3.72E-08,72.63696033,-217.9237797,-147.2536194,-85.51758449,,,,
411.1999997,1606,-41.57153309,46.73159318,-39.44316461,-62.05915681,-16.10295145,1.88E-07,-9.155681834,-40.89377248,-29.1557517,-18.53603282,20.99242432,-3.71E-08,-66.38654149,130.0399269,122.5139728,122.2359156,,,,
411.2079997,1606,47.64972785,-53.82385383,47.10343308,13.77923373,59.12539255,1.86E-07,-134.4657416,36.48567257,-92.57511986,-36.6045075,-37.79050787,-3.71E-08,53.16194603,-182.101005,-116.5462126,-65.82981418,,,,
411.2159997,1606,-76.43298413,24.86883928,-54.48995634,-29.17705012,-8.868269016,1.84E-07,210.713239,-14.41384232,-135.2090118,-20.62417613,-154.7608823,-3.71E-08,-1.400198803,-34.20320431,-6.93749189,26.49294038,,,,
411.2239997,1606,34.85403522,-1.299095017,17.10004028,-6.90628351,12.17011352,1.82E-07,-215.3623748,-8.744043175,-2.09150762,-24.92711751,95.34233723,-3.70E-08,-46.55728384,39.63719807,57.75822967,60.24160406,,,,
411.2319997,1606,-31.57787706,-51.54878859,-12.83751326,19.65223581,22.95019652,1.81E-07,126.2918033,30.37924682,-167.8700474,-48.23885365,-144.2895122,-3.70E-08,46.74931625,-225.7977293,-148.9862535,-94.15982228,,,,
411.2399997,1606,-37.96793929,53.5899614,-44.42164166,-14.55212821,-24.9247573,1.79E-07,6.501626453,-29.35913525,-21.02759542,-12.21904105,46.58941308,-3.70E-08,-79.85013365,149.6944491,135.8171384,126.5202737,,,,
411.2479997,1606,39.34740453,-55.30983006,32.7560065,45.8772197,43.80644527,1.77E-07,-136.1535551,34.36698291,-86.50610046,-41.31562432,8.422534756,-3.69E-08,27.1156148,-164.7006442,-100.8141022,-69.38296629,,,,
411.2559997,1606,-76.21951864,24.0107503,-58.93083654,4.849030266,-14.88620197,1.76E-07,222.6460255,-7.255597067,-131.6453527,-28.78962652,-117.7732613,-3.69E-08,-17.5931831,-26.93876519,0.197300014,20.0518198,,,,
411.2639997,1606,45.32541868,8.368930687,29.12600661,26.3300314,29.90860324,-6.46E-08,-195.7068516,6.802775077,10.60113142,-17.44649081,116.5121127,-3.69E-08,-35.91541631,61.55096308,75.44514781,69.1672431,,,,
411.2719997,1606,-25.32291845,-46.86529784,-1.706761733,32.54200123,41.76138123,-2.91E-07,130.7595928,38.07336465,-159.4161807,-37.83440086,-136.7533864,-3.68E-08,62.93219942,-213.816039,-136.5265457,-89.1824043,,,,
411.2799997,1606,-35.87272869,53.76706392,-35.46743703,-23.1788516,-15.70540501,-2.19E-07,17.40316724,-30.92346561,-18.38401292,-5.596027916,43.42110358,-3.68E-08,-63.63683857,157.1795582,141.9324837,128.6562322,,,,
411.2879997,1606,45.95595544,-53.74609654,48.18918769,24.7257756,54.07885979,-2.23E-07,-135.6581579,30.57895435,-78.97247377,-36.67836059,3.177632742,-3.67E-08,47.24102133,-157.5845804,-100.0876934,-67.39862501,,,,
411.2959997,1606,-74.58950694,26.82134929,-50.43400223,-21.08534927,-11.59721697,-2.35E-07,213.4569292,-13.70188681,-130.2628165,-28.67858142,-125.3500543,-3.67E-08,-5.03852037,-23.74325731,-9.231275805,18.28822156,,,,
411.3039997,1606,41.05290175,9.169170866,23.28481762,-1.931585377,15.70905698,-2.16E-07,-212.59784,-12.57017634,11.67875181,-24.65311933,124.3886368,-3.67E-08,-36.16924641,68.28275814,73.25997605,68.36380209,,,,
411.3119997,1606,-25.43929478,-49.65191074,-8.418948529,9.104755962,27.87270796,-2.28E-07,106.5973324,17.11592238,-162.2522049,-54.16680775,-126.449634,-3.66E-08,54.58935819,-223.7020572,-151.2765809,-101.7695197,,,,
411.3199997,1606,-33.08285821,55.24146727,-41.68879561,-33.68318804,-22.62796673,-2.16E-07,9.295821793,-40.27124539,-24.09516683,-25.2343093,39.51094423,-3.66E-08,-77.00200229,149.5726724,121.1879432,118.9048314,,,,
411.3279997,1606,57.71808294,-49.10870934,45.38624233,28.1886221,49.16638657,-2.20E-07,-141.4209858,29.46581529,-69.51980923,-47.79867088,-4.243748606,-3.65E-08,44.43978806,-157.2052651,-107.620306,-62.26713321,,,,
411.3359997,1606,-61.20559789,31.29483251,-48.84355014,-19.35014452,-16.20812724,-2.15E-07,215.6424284,-12.25408904,-120.3298337,-31.1089799,-138.3774704,-3.65E-08,-1.969490306,-28.78069541,-15.21754704,23.22973368,,,,
411.3439997,1606,43.25740062,9.208034523,16.64951745,-18.35738338,2.3889169,-2.15E-07,-212.4582115,-18.681516,15.30452325,-33.92924369,118.1271087,-3.64E-08,-51.30846161,74.54927243,72.83480766,69.40565796,,,,
411.3519997,1606,-21.31313607,-51.88961646,-18.27626326,-7.282883234,17.46716117,-2.12E-07,97.15063259,8.980607221,-158.090154,-65.38285987,-133.2152246,-3.64E-08,42.43650862,-222.4447842,-161.2187113,-108.9921062,,,,
411.3599997,1606,-27.59596754,58.52493381,-48.94306935,-43.72269578,-27.31942389,-2.10E-07,12.63441283,-45.73034366,-18.16157325,-24.27035285,33.28129719,-3.63E-08,-77.26286728,149.7332004,111.8503978,112.8604455,,,,
411.3679997,1606,57.91316169,-51.24304271,39.80666468,14.24380421,44.5501775,-2.08E-07,-146.8554474,21.86596281,-66.63853605,-51.69079128,11.25132004,-3.63E-08,32.9830467,-155.4126694,-108.5569012,-70.30294318,,,,
411.3759997,1606,-66.23015674,21.56531398,-53.22476064,-32.31361963,-9.961865452,-2.06E-07,213.5886819,-17.69721065,-126.1001111,-40.64381381,-131.4575794,-3.62E-08,-8.84575499,-35.28692302,-32.28335285,5.761684259,,,,
411.3839997,1606,39.09069337,4.014011603,17.61342261,-21.08496459,12.47918475,-2.04E-07,-205.3763507,-19.22600418,17.35302711,-32.13624253,117.6365099,-3.62E-08,-41.12786045,76.46305566,60.60567585,58.30571644,,,,
411.3919997,1607,-19.58752717,-53.06005108,-8.702960091,1.614676626,18.95157902,-2.03E-07,95.19500035,12.04174264,-152.8030454,-64.30554105,-123.8144421,-3.61E-08,54.82149676,-226.3008731,-164.5492326,-117.6986965,,,,
411.3999997,1607,-44.061961,50.0560643,-52.59172108,-49.14212587,-40.10072276,-2.01E-07,5.525963641,-56.69207369,-22.98606351,-33.78005035,41.56801959,-3.61E-08,-79.66685519,149.951764,105.2837178,105.7858108,,,,
411.4079997,1607,29.338693,-66.34179947,21.99548935,-2.825780223,18.67077358,-1.99E-07,-173.0709744,-3.642191468,-74.47967776,-69.61437623,29.76383997,-3.60E-08,15.01532742,-156.0817753,-116.5915909,-84.85095863,,,,
411.4159997,1607,-81.8604105,15.74759634,-71.36288444,-36.23022243,-41.97241594,-1.97E-07,188.2489437,-35.89830457,-136.992143,-59.28201534,-103.6350248,-3.60E-08,-27.64650425,-53.65995748,-45.46489325,-16.21504067,,,,
411.4239997,1607,33.17107151,6.762467227,3.028132133,-20.32711893,-13.23464802,-1.95E-07,-223.4803952,-30.4399351,11.29407421,-43.15453908,143.2272496,-3.59E-08,-59.38673993,73.62291435,48.54877469,50.53390888,,,,
411.4319997,1607,-18.3243552,-48.30162871,-6.632971447,3.226900111,15.35318006,-1.93E-07,86.21407244,12.76635288,-151.9109805,-67.82485174,-105.3036203,-3.59E-08,44.33350402,-220.5234711,-172.4964834,-121.3131135,,,,
411.4399997,1607,-34.58361674,63.62701079,-35.94360253,-42.15868324,-28.0985246,-1.91E-07,24.41017853,-39.5120836,-18.68609507,-27.40192723,60.25506516,-3.58E-08,-74.98413365,158.9690712,112.7846743,110.6963196,,,,
411.4479997,1607,45.82132209,-50.17118882,47.20424912,7.234331312,35.03076982,-1.90E-07,-157.702637,13.19333834,-62.25237832,-52.53529214,46.58487161,-3.58E-08,34.5043921,-136.4744552,-102.2495851,-67.10104378,,,,
411.4559997,1607,-77.04354202,21.67367577,-49.37863876,-36.11920705,-28.44532915,-1.88E-07,199.1676158,-30.82059873,-126.618146,-44.56175416,-95.38438882,-3.57E-08,-8.023187913,-35.89372524,-33.15329734,-1.929096178,,,,
411.4639997,1607,29.65042307,8.534804394,13.59094176,-27.37170736,-3.13104738,-1.86E-07,-212.9297966,-26.22897973,15.72067117,-42.62874841,162.8880513,-3.57E-08,-58.81549877,83.15115562,72.38459418,59.90590213,,,,
411.4719997,1607,-15.27703229,-46.67740404,-4.521651584,1.368243041,22.04411927,-1.84E-07,83.30445258,16.16649121,-150.0557527,-65.10760423,-95.20692236,-3.56E-08,47.57075613,-223.324187,-161.1425133,-119.8028057,,,,
411.4799997,1607,-43.14293789,57.44352165,-54.32673421,-55.01192619,-39.66313125,-1.82E-07,9.523169084,-56.43118408,-21.32369044,-26.36367646,56.95635695,-3.55E-08,-75.53206661,156.5146049,109.6006967,98.1723992,,,,
411.4879997,1607,113.8063887,-100.984226,83.54638517,21.14581398,52.55624982,-1.81E-07,-401.9413787,20.66084971,-25.59811511,-72.98891526,150.8660749,-3.55E-08,36.54258717,-184.8080649,-136.4674932,-128.1447869,,,,
411.4959997,1607,-7.3305266,-42.15649453,1.628932429,10.02562143,10.68578223,-1.79E-07,78.94659769,7.014601553,-146.6232689,-62.37886452,-95.12481456,-3.54E-08,49.77003994,-176.4179458,-158.6119474,-121.0715403,,,,
411.5039997,1607,-43.36001582,70.63554151,-51.57478406,-41.95634327,-45.28863132,-1.77E-07,54.68208428,-59.70699866,-22.31732935,-20.28145028,41.46644556,-3.54E-08,-72.51610454,210.5497479,114.7782549,105.5913503,,,,
411.5119997,1607,37.28172053,-25.55363582,18.05713901,5.245203921,13.10370433,-1.76E-07,-121.5056646,-3.900843828,-52.50198181,-54.29340443,45.42859676,-3.53E-08,7.947899726,-44.53472625,-65.09986089,-56.25748476,,,,
411.5199997,1607,-10.59661187,-6.177213117,-19.05182284,-11.33618857,-9.776561088,6.46E-08,21.52504228,-17.24887513,-81.39211262,-52.73264289,-31.30710465,-3.53E-08,5.576330953,-26.01795054,-51.13208857,-37.02268391,,,,
411.5279997,1607,-41.54693013,15.8200303,-44.45163916,-36.43197151,-31.08876433,2.91E-07,40.72960864,-40.75379325,-65.97880552,-49.07349669,-11.67779506,-3.52E-08,-34.22327126,58.77362085,13.2866983,18.4209685,,,,
411.5359997,1607,9.093393847,-30.57514292,-0.019664951,-14.93867883,-1.070444887,2.19E-07,-126.6159785,-18.68832007,-49.87982819,-60.58864282,66.57917475,-3.51E-08,-20.5072266,-9.532139868,-31.88660968,-27.54789435,,,,
411.5439997,1607,-47.72192266,-23.13661627,-40.76503398,-25.61783773,-15.34089398,2.23E-07,57.90028582,-26.35829115,-109.7982821,-60.53548119,-27.97098368,-3.51E-08,-10.30388559,-50.61599848,-62.04932492,-43.59782346,,,,
411.5519997,1607,-38.34566991,18.27552945,-41.74303848,-38.22466775,-30.41146296,2.35E-07,-17.29519732,-41.21561109,-50.39702149,-47.94708553,57.49195024,-3.50E-08,-67.18886705,98.82973839,37.41917426,41.54610434,,,,
411.5599997,1607,17.74548347,-39.43698524,15.44220548,2.743953051,17.11965385,2.16E-07,-107.1933639,4.183863221,-74.15552037,-60.65415683,35.00569791,-3.49E-08,-1.173472829,-69.10057296,-83.3564733,-59.24718531,,,,
411.5679997,1607,-66.57808934,13.14243896,-54.71222783,-29.93289747,-26.40353526,2.28E-07,147.5054955,-28.34545601,-114.958691,-43.98922296,-79.68982167,-3.49E-08,-17.08492777,-2.944116241,-33.35995629,-5.784447835,,,,
411.5759997,1607,7.712543154,-7.784434618,-10.60705423,-35.02701809,-25.02354681,2.16E-07,-183.4022765,-37.46878067,-13.496912,-48.25716836,119.9803893,-3.48E-08,-59.25111375,83.73301289,30.30107425,31.28318638,,,,
411.5839997,1607,-26.59538026,-45.88473969,-19.75583835,-6.325278798,-6.447633077,2.20E-07,45.99488994,-2.518480549,-143.9131749,-75.12199599,-64.65783663,-3.47E-08,12.61528756,-154.2472875,-143.7438969,-107.1101276,,,,
411.5919997,1607,-40.83096317,46.20130533,-48.85932971,-30.397385,-45.48498297,2.15E-07,11.89759272,-46.56860869,-42.724887,-37.50670613,40.13714841,-3.47E-08,-79.30178959,141.2535954,71.60166087,75.42695196,,,,
411.5999997,1607,26.94817345,-54.47497095,15.75733869,6.484142347,3.703200727,2.15E-07,-172.6787711,-5.070151951,-63.91597188,-58.25716897,39.5242107,-3.46E-08,1.096560152,-82.76379799,-92.09804454,-66.51056236,,,,
411.6079997,1607,-71.95210443,11.10068905,-63.04232532,-24.38956428,-34.19979083,2.12E-07,171.9480245,-32.31359127,-133.7513662,-46.6954065,-105.5364256,-3.45E-08,-20.91765598,-22.90366462,-56.38081283,-25.61454094,,,,
411.6159997,1607,27.57783256,9.088160331,1.697949353,-17.80927747,-11.59757417,2.10E-07,-197.397372,-37.84969342,7.578810617,-38.98023969,143.5945131,-3.45E-08,-68.25683776,118.7886698,62.50882493,51.07756399,,,,
411.6239997,1607,-22.23319227,-57.98067846,-7.35363619,6.703948798,7.986516736,2.08E-07,50.61727647,-0.225436542,-141.0219043,-65.98177928,-79.27369127,-3.44E-08,35.16662327,-178.8149554,-150.5998892,-119.9699965,,,,
411.6319997,1607,-49.93669453,48.80229046,-51.90009678,-34.16830205,-41.64854091,2.06E-07,29.35350141,-52.20913019,-31.96907273,-24.61731295,51.01168584,-3.43E-08,-80.70345347,169.1275853,96.87643241,88.53465644,,,,
411.6399997,1607,45.37899978,-51.87937429,27.0060901,20.97016703,24.96681046,2.04E-07,-174.1688124,7.285595397,-54.20106083,-51.76873142,64.05163773,-3.43E-08,8.025189061,-92.95681339,-83.26360423,-72.33124225,,,,
411.6479997,1608,-83.76425215,7.09981277,-72.05168081,-18.39919083,-40.8327552,2.03E-07,182.1864769,-33.40632221,-131.4838918,-44.30005704,-99.49122836,-3.42E-08,-18.41287061,-42.03577927,-48.78738459,-31.76819958,,,,
411.6559997,1608,6.43031154,0.372694293,-12.37564952,-21.24294618,-33.80251871,2.01E-07,-210.8116,-43.36760751,13.74023156,-37.17689901,170.3744051,-3.41E-08,-83.90738497,108.4894089,70.27773886,51.4099002,,,,
411.6639997,1608,-19.20892774,-59.66371167,-2.016876424,14.78749362,6.075976392,1.99E-07,51.62012593,12.08844672,-138.7343322,-59.74117024,-68.38832372,-3.40E-08,34.53501794,-203.9982291,-161.7521491,-128.3574747,,,,
411.6719997,1608,-61.06612793,47.7265909,-55.41672313,-49.24898769,-58.11502005,1.97E-07,19.04800348,-65.36317997,-25.34535421,-22.4745091,51.24489433,-3.40E-08,-84.20606147,170.4816374,97.79262099,86.27937084,,,,
411.6799997,1608,24.78596847,-66.25597965,18.14333308,-13.9503582,-6.766430558,1.95E-07,-210.4932339,-22.25689155,-56.58928069,-66.74204768,71.62938622,-3.39E-08,-10.69621626,-105.1086377,-97.60127351,-90.09830808,,,,
411.6879997,1608,-78.25127525,8.659307679,-62.7842458,-31.44655128,-47.49760781,1.93E-07,180.2285531,-35.34683225,-132.9851623,-48.67407784,-103.7572751,-3.38E-08,-22.98591466,-52.15161274,-67.08946572,-44.14803229,,,,
411.6959997,1608,26.96884671,13.86604846,0.928769474,-20.84421537,-17.71937294,1.91E-07,-197.1867016,-29.32615187,27.70126263,-25.37178975,159.4360278,-3.37E-08,-68.98449097,121.5005223,74.15089804,59.08352903,,,,
411.7039997,1608,-11.9955399,-57.12882887,-6.823412149,6.681284038,19.52487813,1.90E-07,60.77212989,19.48159148,-131.4464603,-56.5680901,-75.726795,-3.37E-08,43.91333115,-202.8531737,-156.4195047,-124.7649808,,,,
411.7119997,1608,-55.69504322,52.00761086,-60.93567892,-47.80156393,-37.81922362,1.88E-07,47.16651188,-51.46598335,-20.10793787,-16.14409122,45.97024653,-3.36E-08,-72.51244669,173.7648948,104.6630349,95.55304023,,,,
411.7199997,1608,31.85209105,-62.77962841,16.3472666,-7.773288307,21.98408563,1.86E-07,-185.031663,-10.35761744,-46.04692941,-56.81648435,68.06986384,-3.35E-08,5.471988262,-100.6208914,-90.96911,-76.92406697,,,,
411.7279997,1608,-75.75416252,11.84353954,-65.72601758,-33.48972798,-19.09694575,1.84E-07,201.8055998,-36.17651027,-126.6432544,-42.85940263,-106.517974,-3.34E-08,-13.04618208,-50.92206689,-68.40332441,-36.36089162,,,,
411.7359997,1608,32.29932089,20.81375829,6.119548308,-23.66761672,8.17505889,1.82E-07,-179.4171727,-34.5462274,41.59735853,-14.85133441,160.459742,-3.34E-08,-55.5614006,145.1867254,76.5987603,73.06989535,,,,
411.7439997,1608,-5.793862048,-56.00300408,-2.244817916,-2.653281248,32.54775164,1.81E-07,64.45202519,7.700752033,-117.7889625,-52.31990405,-75.27201382,-3.33E-08,52.47749793,-184.4681696,-161.1260941,-119.4971947,,,,
411.7519997,1608,-46.47202094,59.02813042,-55.03848014,-58.08854055,-29.3638179,1.79E-07,59.99047349,-57.52269575,-10.86416808,-8.216123433,46.38259181,-3.32E-08,-73.0528238,181.8522532,96.63179965,100.6553505,,,,
