Time:125Hz,Epoch,FP1,FP2,C3,C4,P7,P8,O1,O2,F7,F8,F3,F4,T7,T8,P3,P4,Event Id
485.8799997,1897,-25.83994649,-245.6648632,-57.65322597,5.605835601,-25.32699343,2.044E-07,226.1456271,-18.48088235,-70.1672822,3.55448908,-96.9301877,0,25.86601129,23.60799919,-25.83197287,-20.40174098,1111
485.8879997,1898,73.9565449,-224.9397325,-10.92809325,13.85910365,-33.98912579,2.025E-07,-258.7421765,-28.94117663,97.67083826,15.58989176,165.0020288,0,-36.52597741,196.7603695,108.7830692,63.61511496,
485.8959997,1898,30.54778383,-290.8069269,-15.63992692,37.844083,6.069723694,2.006E-07,41.48428957,16.39131454,-95.95746101,-7.871472261,-73.60075441,0,67.64544728,-110.8278675,-175.70553,-106.985222,
485.9039997,1898,-39.62879524,-155.7756319,-115.4046414,-45.7294404,-100.6012557,1.987E-07,32.71489474,-92.28027854,133.3856757,32.42111604,145.3375284,0,-131.5836829,433.0755887,345.5825499,208.4441939,
485.9119997,1898,82.69821143,-182.9201771,-28.29152052,-8.55378638,-66.95108864,1.968E-07,-435.4076893,-65.14774392,206.6052326,29.21951755,303.758182,0,-111.3458255,387.6747406,276.6850842,169.5255855,
485.9199997,1898,16.48728804,-257.26958,-30.86928538,22.09237534,-9.62464827,0.000000195,43.48829479,0.193266433,-63.20871978,-2.236907264,-40.59369732,0,31.07232156,-23.84001096,-95.3236732,-58.3756978,
485.9279997,1898,32.5493196,-237.9305817,-18.94637503,20.1500218,-7.64444413,1.932E-07,-28.73783319,-0.179216046,-27.35707344,3.611805526,8.064234828,0,12.01971446,32.8164958,-50.43894259,-27.87063693,
485.9359997,1898,22.97600119,-218.0623671,-28.20582476,13.31955823,-12.7516352,1.913E-07,7.812626637,-9.425151794,-3.801066936,12.22441983,12.65770292,0,4.79840836,93.7511422,12.14032489,14.81949135,
485.9439997,1898,38.11588974,-227.5713655,-23.74564255,13.04064305,-14.50839775,1.895E-07,-78.79834735,-15.32664756,14.41502897,9.866020147,41.32998368,0,6.963973165,94.24906333,13.50204703,13.16408119,
485.9519997,1898,31.86031406,-252.0109343,-19.29823415,24.71282608,0.238732597,1.877E-07,-11.86629774,2.769273627,-51.78905825,-6.740953335,-28.81486633,0,35.6246824,-20.903491,-90.32794889,-59.78447375,
485.9599997,1898,6.18285221,-196.7115348,-51.33705858,2.713484023,-31.95311392,1.859E-07,24.87190131,-27.23402908,21.55780123,8.854358228,31.68206716,0,-34.10241678,166.8007773,94.85253107,51.45413508,
485.9679997,1898,78.33757053,-237.6956436,18.70892699,44.69905688,13.1627174,1.842E-07,-163.7048465,14.21457062,-7.226249192,6.057196225,30.13249259,0,37.43437294,1.875679588,-71.29665502,-40.11161442,
485.9759997,1898,-4.648195572,-208.7185497,-38.5781293,16.87698741,-14.04267912,1.824E-07,159.0919292,-13.08911657,-46.92740347,12.87504492,-69.64397447,0,28.99133257,38.95729536,-7.708841893,-6.76706796,
485.9839997,1898,47.17500066,-207.1537896,-24.47647294,-0.997103957,-39.98411995,1.807E-07,-202.0743432,-45.6490084,68.71328933,11.79115956,128.1458199,0,-29.81155327,150.9134429,89.43731787,40.41286089,
485.9919997,1898,29.58756174,-255.9842681,-13.27646379,28.4232542,2.389304028,1.789E-07,11.37085401,8.991161751,-86.26763403,-13.1397168,-48.39241187,0,51.80959271,-107.8206229,-148.272078,-109.14121,
485.9999997,1898,5.394684993,-167.5223311,-54.83377893,5.786382934,-35.70079148,1.772E-07,56.67944774,-26.26384924,36.94771629,20.37640737,38.81776909,0,-34.31751256,190.1242421,134.7189403,69.85652947,
486.0079997,1898,75.15298045,-241.5429101,7.169366235,37.73154589,0.906666883,1.755E-07,-233.4716905,-0.971560708,-0.880038304,0.298470911,58.20037656,0,33.78856106,-9.666296669,-75.72842461,-54.97301191,
486.0159997,1898,-28.02565265,-207.3013015,-58.30608364,13.37120577,-20.32423015,-6.46E-08,202.6179791,-15.14489632,-81.63222901,-8.103366074,-79.52809578,0,13.40021126,8.475129945,-33.51622215,-37.05241993,
486.0239997,1898,66.27833843,-180.5950868,-10.98652009,17.15100353,-28.75858405,-2.912E-07,-221.0762374,-25.04953184,83.13613298,13.22292804,144.2160881,0,-33.22863968,183.3074243,106.638223,54.61711257,
486.0319997,1898,25.22454387,-253.906572,-10.63191809,30.15565248,2.964295181,-2.186E-07,27.75105166,10.96407669,-96.12881489,-13.91035147,-74.89915712,0,68.38875369,-112.3372589,-165.7187509,-110.5626853,
486.0399997,1898,1.960979805,-152.0709908,-45.05895675,5.404255307,-35.44735426,-2.228E-07,73.54850318,-29.18964246,32.53138404,9.541031662,44.37432907,0,-41.66774911,201.8108168,141.9327608,74.38781066,
486.0479997,1898,89.14298695,-220.2309757,30.01796433,48.86548671,11.61496363,-0.000000235,-230.0690015,10.9788952,1.617272091,0.266923818,58.71037216,0,44.03858438,-10.77336741,-73.94215544,-53.78010914,
486.0559997,1898,-38.93445209,-199.8626115,-60.25133681,5.930086149,-26.14644863,-2.162E-07,234.6343771,-16.60047836,-88.29656393,-7.255745397,-100.468707,0,19.66937196,1.333350897,-31.40501923,-36.05915675,
486.0639997,1898,80.90054496,-156.327472,14.19140591,30.76877416,-17.73373506,-2.275E-07,-212.0899446,-7.520231153,88.1464745,12.22769712,163.0127739,0,-34.92457587,184.3818225,121.63531,60.50728183,
486.0719997,1898,53.40895351,-216.0625339,26.81878152,61.93409906,22.0668662,-2.165E-07,51.70754237,35.60939524,-87.13286253,2.735990427,-60.15710741,0,91.56645449,-112.3752866,-149.1630258,-98.39146637,
486.0799997,1898,9.268796664,-127.0491437,-41.96316747,11.32286723,-44.71014029,-0.00000022,77.69861743,-37.10218726,49.06760834,32.45010862,61.03441844,0,-30.33818391,214.7550913,161.5784886,92.98299068,
486.0879997,1898,101.8666583,-200.3854481,32.44488059,54.1002964,5.07065265,-2.149E-07,-241.1412262,9.176701855,12.88122392,7.906597351,89.77654953,0,40.08569298,-14.87490562,-77.39168146,-54.38443721,
486.0959997,1898,-23.59943527,-172.7500501,-51.21008433,21.52240366,-21.65402595,-2.146E-07,244.9250644,-3.49447126,-80.10500277,-1.394628848,-75.10258116,0,23.84290958,-2.34300391,-34.15895099,-34.67765299,
486.1039997,1898,89.10557784,-130.5064049,12.16468887,41.46165214,-15.85198838,-2.118E-07,-203.9605135,-0.509759992,106.4733006,27.49458022,185.8374879,0,-28.95411946,197.2191693,128.1134085,76.52398902,
486.1119997,1898,58.90246528,-199.3656902,18.76119541,71.71305411,29.18538203,-2.102E-07,54.77248375,44.20475993,-74.86512863,5.642703057,-34.41241647,0,87.27084668,-113.7577742,-156.0532923,-97.66458063,
486.1199997,1898,7.92184566,-114.9840541,-49.65354843,20.22291835,-33.00515615,-2.082E-07,85.36388802,-23.3595972,52.39279178,19.89687353,87.98633034,0,-42.73779562,208.7382461,163.312193,89.20863118,
486.1279997,1898,114.0985487,-180.6724997,41.39889352,71.24582656,26.23838197,-2.063E-07,-225.7590978,31.12171115,25.98473879,9.16237301,112.2353022,0,44.32906221,-0.422343786,-60.66731731,-38.51228014,
486.1359997,1898,-3.441112106,-152.4449061,-36.68315845,40.50899857,2.498182773,-2.044E-07,259.7813659,11.65029866,-63.44152219,9.718146304,-64.42248106,0,43.67639678,22.03215653,-20.81868506,-16.81207149,
486.1439997,1899,83.5302765,-125.6062381,7.109759619,36.23723049,-12.6090318,-2.025E-07,-207.0683524,-12.1871799,108.9560755,21.28209531,196.4173789,0,-30.21980895,208.2686827,136.3028464,77.1957021,
486.1519997,1899,46.44064819,-198.3013196,18.31351388,58.92606982,23.89404921,-2.006E-07,48.78689603,29.93842371,-81.17332732,-6.786302236,-15.68203061,0,76.1386167,-116.0239728,-158.4818171,-106.4610197,
486.1599997,1899,9.163655074,-103.1092617,-29.10543298,24.25870553,-27.16895737,-1.987E-07,96.52336701,-20.88060585,52.23667061,20.95958838,104.6780536,0,-32.00083426,220.5059144,161.6805193,88.38956872,
486.1679997,1899,103.2855367,-173.6031534,51.68196826,69.87831682,21.23975263,-1.968E-07,-224.9371518,25.62787552,25.290359,6.927276248,132.4782471,0,49.17527733,11.36400908,-57.40138384,-40.80145391,
486.1759997,1899,-34.01855052,-159.9684577,-50.83894119,22.18971632,-25.03109472,-0.000000195,243.1441812,-14.05353421,-76.72253444,-7.946284476,-31.41408889,0,22.13771411,11.87508474,-27.6085801,-36.08467828,
486.1839997,1899,71.80308797,-127.2517827,-1.058886795,33.46905636,-31.71488858,-1.932E-07,-219.6728217,-25.47653835,96.48897469,5.741462092,227.2531586,0,-46.58560145,201.0394771,129.0326216,57.3456168,
486.1919997,1899,44.41331957,-197.4181898,10.5894642,60.82699894,11.63874093,-1.913E-07,39.28651044,25.13347279,-91.65074356,-14.80908424,-8.943545282,0,71.56573292,-123.5700711,-166.3001552,-121.4050831,
486.1999997,1899,-13.48088054,-114.2747208,-61.72159651,2.314659304,-46.87477228,-1.895E-07,83.52373939,-43.78119692,34.85547128,7.504359909,102.3162695,0,-48.83673704,206.4053334,149.7323138,69.47632574,
486.2079997,1899,94.52583979,-179.5613205,25.99831828,60.32630055,19.97011128,-1.877E-07,-240.1888195,15.96011099,8.368758202,-9.583423299,124.8201574,0,33.76062593,1.721700448,-69.55039384,-59.39979081,
486.2159997,1899,-32.99391776,-156.8531071,-61.5846658,32.134001,-13.28636807,-1.859E-07,241.580965,-5.647572189,-93.26626891,-20.9469125,-64.28721517,0,19.81219046,4.813495217,-39.8288078,-47.33310104,
486.2239997,1899,52.68186407,-130.2661909,-21.55644693,32.44856437,-30.18252217,-1.842E-07,-217.2870148,-29.37213076,84.07038383,-5.706250108,200.970825,0,-51.82255356,206.3233131,125.6940721,55.67347338,
486.2319997,1899,24.59829066,-205.4695752,-7.700580135,60.4040098,8.863203437,-1.824E-07,34.5452898,19.77099901,-101.8214713,-28.52257311,-18.10409992,0,66.26196026,-118.0748026,-173.3432742,-125.6808297,
486.2399997,1899,-26.42212552,-114.8800191,-67.39938917,8.957394633,-57.7429813,-1.807E-07,82.99007761,-44.85735444,19.0603829,-12.37866734,86.43403811,0,-54.42226434,200.5782219,134.4467454,58.91191785,
486.2479997,1899,80.65469535,-175.565049,23.1869433,57.79628382,-1.545697922,-1.789E-07,-247.7871383,7.19622295,-2.014118841,-24.46336174,112.3377801,0,29.11428003,-5.139899774,-81.5506944,-67.06966929,
486.2559997,1899,-50.34111892,-156.8261221,-71.28563821,19.32782806,-36.97777792,-1.772E-07,234.0364554,-19.7439558,-103.0174714,-29.88915553,-75.15289135,0,15.28396251,-9.627738586,-55.21113119,-58.04555167,
486.2639997,1899,34.56814678,-125.123041,-38.83613551,15.21198629,-55.2936858,-1.755E-07,-226.2114862,-44.69151869,70.39625182,-16.55378805,184.4204729,0,-65.47015385,191.3623251,109.9032154,40.61199829,
486.2719997,1899,14.66926325,-189.9216354,-25.91695008,43.37388053,-8.093882421,6.46E-08,23.01620748,11.2538678,-111.6174259,-31.87821574,-36.08895695,0,56.16002405,-125.7622564,-187.0969572,-138.6685834,
486.2799997,1899,-37.4326532,-98.94621999,-94.92816744,-13.59795235,-71.05945544,2.912E-07,81.26198624,-54.13073035,10.08981356,-8.864180723,68.09709457,0,-63.25577593,198.3710569,124.8096313,49.1347173,
486.2879997,1899,66.57710185,-161.8505951,-8.518208539,27.51552278,-13.69559235,2.186E-07,-253.9095499,-6.051919932,-12.08237461,-26.63206026,102.8863608,0,12.87092962,-5.346742431,-91.70881793,-78.51789572,
486.2959997,1899,-50.56033099,-134.1149563,-80.25927984,-1.552778518,-26.08274634,2.228E-07,246.1434426,-11.90264447,-108.4086273,-28.59413333,-84.78325634,0,14.6506342,-3.262569138,-63.97952602,-58.31940451,
486.3039997,1899,37.2644461,-100.4419198,-32.00140555,-2.295691672,-32.77682679,0.000000235,-204.5190398,-24.51660128,75.81909327,-4.409530157,166.8817649,0,-49.14665847,210.5785566,119.7536059,64.32118368,
486.3119997,1899,7.445096904,-175.7943627,-22.15289867,16.93412925,7.108696963,2.162E-07,25.08412422,21.5265559,-110.8600669,-31.6591362,-51.21623323,0,60.02506254,-121.2185873,-182.4312315,-117.041131,
486.3199997,1899,-46.33689132,-85.71485105,-88.81557682,-36.48607873,-56.15354514,2.275E-07,86.06173275,-47.4742728,7.737972473,-16.585279,51.31553318,0,-69.98345767,196.2685467,120.7599744,68.85578738,
486.3279997,1899,59.81929754,-146.7890488,4.510373491,16.96918023,-1.217822227,2.165E-07,-255.0724934,4.708615176,-4.517577646,-23.89523643,86.27644661,0,12.29782354,6.063103229,-88.933411,-51.05738182,
486.3359997,1899,-58.2763457,-122.5497524,-71.2002411,-7.92437846,-31.11821647,0.00000022,236.7009796,-9.223565995,-105.9248153,-23.18584605,-95.0652248,0,12.59443631,0.836017557,-68.16685223,-39.90493672,
486.3439997,1899,33.9623458,-84.16479027,-24.12408221,-4.777899764,-43.25908275,2.149E-07,-209.2161898,-32.71539987,72.87095538,-3.012613187,154.781357,0,-60.58033165,205.223308,114.608451,75.37030569,
486.3519997,1899,14.06823651,-151.7504954,-2.407981492,31.07276623,11.28015002,2.146E-07,31.55174002,25.77423981,-109.1329811,-24.5077488,-75.03242223,0,60.09463006,-118.3461345,-175.6910645,-102.2153544,
486.3599997,1899,-45.18865467,-63.5735578,-71.53890188,-22.21493507,-59.47008095,2.118E-07,101.5724771,-38.12552984,15.4836115,0.723126472,33.35614518,0,-57.66788068,212.9274804,146.4653826,90.26660893,
486.3679997,1899,52.18513081,-132.1084043,12.05744425,13.59380363,-15.37044885,2.102E-07,-257.1895236,0.981498173,2.529563585,-18.48984455,84.64471141,0,13.55578413,7.456617162,-65.25806441,-42.12843772,
486.3759997,1899,-67.83014127,-113.1203437,-65.4824757,-16.18119447,-33.66658765,2.082E-07,236.4673071,-11.59176689,-104.3577022,-32.12568762,-102.0182797,0,11.92993046,-12.16302758,-64.19034802,-46.94836466,
486.3839997,1899,74.04399922,-52.37965049,-1.000072647,-12.53329159,-52.85237671,2.063E-07,-467.8746798,-42.63785626,185.4667321,-0.822192745,308.2031126,0,-104.9922319,340.5513171,229.7555271,140.256169,
486.3919997,1899,126.1078687,-133.2752318,63.3463486,35.71149579,8.94947039,2.044E-07,-539.7374964,18.51333466,65.10889141,-23.96957161,203.2936293,0,10.8726436,18.26601968,-78.35533728,-47.604782,
486.3999997,1900,8.312336879,-71.55070056,-30.65565441,-13.39869494,-42.7814195,2.025E-07,-139.9150223,-27.58461162,53.1558949,-15.10437477,119.4222862,0,-51.63173029,179.2037186,96.39041777,55.03967002,
486.4079997,1900,61.27049643,-103.2176047,18.84980146,19.25728847,-6.55465917,2.006E-07,-263.5829713,10.38752759,27.52486775,-17.69097673,117.1124797,0,2.357249364,48.81519955,-35.30263109,-18.4666755,
486.4159997,1900,-51.64273461,-93.17330645,-40.60013036,13.68136238,-4.625783079,1.987E-07,299.0766744,25.90877039,-124.6311309,-16.99663164,-134.4845377,0,46.15294335,-60.25531925,-114.2873618,-62.9394656,
486.4239997,1900,4.153571939,-31.4717135,-25.65831341,0.363991191,-36.97457835,1.968E-07,-82.1814408,-16.21838304,81.45369028,17.37893787,120.1620241,0,-51.95375463,250.9607054,152.4336769,103.9722616,
486.4319997,1900,31.28207115,-115.7932155,18.43629273,33.18773862,12.2800996,0.000000195,-115.360179,32.69221464,-44.60256026,-9.528442929,1.402638093,0,56.9551811,-53.89872078,-138.1493482,-75.76971734,
486.4399997,1900,-69.46531732,-52.98493724,-60.78941172,-5.439820005,-25.60046279,1.932E-07,280.3155629,3.279892374,-65.30683234,-6.284287248,-77.36377253,0,-1.286003093,80.30843109,19.33702354,15.07452802,
486.4479997,1900,58.18203429,-49.94715072,22.92264208,26.19616513,-0.247172861,1.913E-07,-228.3948732,13.64246643,76.42221304,10.65824402,148.7495838,0,-14.92050961,165.5196365,73.26541074,55.33950571,
486.4559997,1900,-13.4633782,-98.90045274,-6.213678665,29.14828995,16.91694006,1.895E-07,146.0349506,37.00311036,-100.4226236,-5.995699195,-95.39054716,0,75.97074013,-80.26420693,-140.1801116,-74.54574563,
486.4639997,1900,-34.32786724,-28.07657354,-58.58477113,-20.19209145,-47.13678168,1.877E-07,50.93129453,-28.2240207,39.29602912,8.627655288,62.3699887,0,-45.43291806,209.7621418,137.8549495,88.63303832,
486.4719997,1900,34.76198699,-100.967367,0.656282033,15.3143766,-4.592942481,1.859E-07,-201.7096404,7.916580837,-11.10294538,-17.61633885,70.89636492,0,23.35785191,-22.87171421,-92.96247823,-56.96386832,
486.4799997,1900,-61.5518535,-55.11241486,-66.94461192,6.216554505,-22.71781471,1.842E-07,257.9984612,4.946147695,-91.37838594,-22.20158095,-78.17590731,0,3.233955353,4.782930868,-44.66653897,-32.16257111,
486.4879997,1900,48.77992729,-19.78255001,-10.1235221,22.61517097,-21.20685919,1.824E-07,-185.5058917,0.105596765,83.98198162,13.18232978,152.2194909,0,-36.93557045,201.5198511,106.7572393,72.82237285,
486.4959997,1900,-1.41904836,-99.87993165,-14.22328693,21.842788,8.417574286,1.807E-07,68.64569387,30.22891244,-91.1564948,-3.101203432,-69.0929209,0,75.13676656,-88.77169376,-157.122661,-89.1859386,
486.5039997,1900,-45.53460738,-16.4353132,-64.97817359,-29.10149513,-47.289304,1.789E-07,102.0374805,-24.23572356,16.97050239,-0.375321813,50.2673854,0,-53.04459106,198.2022512,130.2825324,72.64743189,
486.5119997,1900,61.3452705,-69.2940856,21.87283311,12.66756438,1.443880576,1.772E-07,-223.4765894,19.72272631,1.844066791,-12.04179412,89.24277223,0,22.21494572,11.55272116,-68.57159153,-41.2552677,
486.5199997,1900,-42.15302441,-41.93369098,-50.51558175,-14.00867494,-21.61414852,1.755E-07,252.0285463,5.80107266,-91.2506875,-4.419265377,-98.19477551,0,34.14695316,3.91014401,-58.37970189,-30.8573055,
486.5279997,1900,49.18327146,1.717958843,-7.894772136,-2.855775515,-30.93442531,-6.46E-08,-180.0038743,-11.56599479,96.96219272,21.39569669,162.807764,0,-36.76947365,227.8124883,126.9474062,84.98294192,
486.5359997,1900,19.01915357,-72.64849372,6.876863673,37.01732789,19.15579783,-2.912E-07,37.77343953,40.05252502,-86.9002738,-2.981337861,-35.3361243,0,72.62058704,-87.89372886,-167.0870113,-98.13840389,
486.5439997,1900,-14.57465039,31.33210158,-46.4192548,9.878746666,-22.42149193,-2.186E-07,139.7395557,-1.579712444,22.89898937,28.97270881,46.01912939,0,-29.57261074,223.8144159,138.1942594,88.79235974,
486.5519997,1900,112.8701904,-6.637990849,48.64134699,70.71807112,37.0395827,-2.228E-07,-201.3153015,53.99739978,29.23297866,39.95333509,84.11337651,0,51.83601808,61.00448899,-37.89539995,-7.052915074,
486.5599997,1900,-11.50363714,10.88270556,-32.40335132,41.42920262,9.174487302,-0.000000235,286.4098766,36.404737,-87.52451992,39.10946594,-105.2006229,0,47.18626268,36.58677734,-39.59146601,-10.98741515,
486.5679997,1900,69.47303219,53.37403087,-1.951538965,33.05687977,-11.75890574,-2.162E-07,-145.7866123,9.102381464,97.2629965,60.61711577,167.1417926,0,-33.89838361,269.1384356,159.417366,113.2312289,
486.5759997,1900,55.78285094,-12.50994144,21.39014257,72.22134179,43.06737408,-2.275E-07,55.39583079,68.98147012,-80.77032669,38.29934825,-28.07057313,0,78.03942911,-56.54130533,-142.7023466,-71.29641155,
486.5839997,1900,14.58004304,91.37726058,-40.10286853,34.22559414,-9.266019345,-2.165E-07,166.7445834,16.76659323,27.55353166,71.58831015,57.0303158,0,-32.50662783,264.3338659,160.6500824,119.1814487,
486.5919997,1900,133.6803456,39.93176267,47.48839359,81.77673801,36.07476221,-0.00000022,-203.9140572,57.92307419,35.30775504,70.74031042,119.879032,0,40.3356256,102.1268167,-22.45299452,15.59980635,
486.5999997,1900,17.60715128,59.42130915,-16.59182867,68.37737045,27.50364556,-2.149E-07,296.4936528,59.32143003,-79.18024162,69.77444372,-71.44787558,0,50.71682003,70.32364977,-30.69860056,8.912066782,
486.6079997,1900,109.9033245,107.9128925,28.29808095,70.89983372,20.19729853,-2.146E-07,-119.3502866,40.59931124,117.1768242,108.510702,187.3941997,0,-12.7609662,321.6809315,186.9124192,155.404148,
486.6159997,1900,77.1555827,15.44989191,37.07081841,83.46013338,50.48280859,-2.118E-07,58.08214842,70.64333249,-69.79088643,69.32145379,-15.90399703,0,91.06496332,-27.38748467,-122.1362271,-44.10783879,
486.6239997,1900,14.28636182,101.5024355,-29.75004935,37.40790924,-4.937983714,-2.102E-07,175.746299,13.31540763,26.22719445,76.24472344,60.93909165,0,-28.89768029,262.0521568,167.7295794,123.584586,
486.6319997,1900,133.5871072,45.0281342,58.05395792,90.17376,54.8655263,-2.082E-07,-197.188166,63.32724125,37.86723079,71.82290368,110.3874429,0,50.08231794,100.0957499,-14.2968612,26.2083199,
486.6399997,1900,10.51151099,51.89575525,-23.8518929,58.08499871,31.21582835,-2.063E-07,292.6058138,48.27050252,-82.36807717,61.81358875,-101.107009,0,55.51599101,59.2008251,-33.85488732,10.58864423,
486.6479997,1900,103.901258,106.870569,23.69751276,61.34972073,17.71300411,-2.044E-07,-124.067502,30.37484825,111.9130634,92.2247343,158.6519526,0,-20.4497672,305.0441549,176.9834339,142.1964057,
486.6559997,1901,80.00927417,21.55733712,36.06491591,83.81270793,54.45612895,-2.025E-07,47.75789028,67.92474699,-67.09543619,61.85211834,-36.8596589,0,91.93339753,-33.50139628,-131.5782312,-53.13128813,
486.6639997,1901,8.184752273,104.4994451,-41.85663561,30.03552509,-18.29558462,-2.006E-07,164.01386,-2.447374026,31.43341819,71.53186628,56.05039891,0,-30.90453704,265.9869991,159.0577776,116.7041351,
486.6719997,1901,131.8676881,59.81394078,61.89132435,89.15148951,34.38126174,-1.987E-07,-212.5579034,51.77285935,46.1135234,69.25900135,134.5022384,0,40.50058079,98.35107176,-18.72911549,15.94364901,
486.6799997,1901,17.76227547,74.31395366,-3.880562244,68.665264,27.31487062,-1.968E-07,294.1111737,50.37136226,-70.69940743,68.70313538,-73.83935438,0,61.41884972,52.55660752,-31.84849771,6.498524113,
486.6879997,1901,100.1303973,118.6335303,32.23266568,63.76722249,14.66614421,-0.000000195,-119.0032172,22.66422255,122.7961055,93.55349621,184.9495986,0,-13.61281121,303.770709,186.6927248,143.066568,
486.6959997,1901,76.2314903,29.41395125,42.9357131,86.07285347,49.52570575,-1.932E-07,41.39397462,59.47871664,-59.32418049,60.23396938,-16.98165281,0,98.01561417,-48.64788769,-129.5660403,-57.80350999,
486.7039997,1901,3.119478915,113.1726959,-33.96451718,35.33146505,-16.16241766,-1.913E-07,168.0183389,-3.930271938,32.7271737,69.93262618,61.71097084,0,-27.00865245,246.8414342,159.5748428,109.0478568,
486.7119997,1901,129.5903198,66.66490418,68.18710283,96.1183415,44.26658289,-1.895E-07,-210.0988635,50.09467956,45.02321106,62.2694325,139.3893376,0,38.73464512,94.23492902,-13.42809713,8.243416527,
486.7199997,1901,10.57451507,70.67359963,-5.915314611,69.83504787,31.07422881,-1.877E-07,287.7873452,39.97882692,-73.50173035,62.38181373,-81.47624862,0,62.74115063,40.63181995,-38.20950594,-5.713438918,
486.7279997,1901,77.9381494,107.7532367,20.63147078,56.35774345,11.18488724,-1.859E-07,-131.1968828,10.28598919,113.1552661,78.17109508,176.6891444,0,-24.13371996,278.7775577,175.222849,123.4052099,
486.7359997,1901,74.40508041,33.19823993,50.01796362,97.97325246,61.68844199,-1.842E-07,39.95695473,70.40092875,-64.95473476,48.14592294,-21.74275012,0,97.36818438,-69.62627223,-135.168795,-72.22208319,
486.7439997,1901,4.563254372,116.5619069,-29.38162314,40.87929314,-13.53246555,-1.824E-07,174.3149602,1.660319562,37.82268657,73.31764339,47.37603862,0,-13.28661641,233.6096285,165.1527534,110.1189621,
486.7519997,1901,115.6881569,60.83961803,55.28670677,82.02642681,24.79653693,-1.807E-07,-222.8651546,41.10856278,46.4725006,56.22523164,137.5818275,0,34.99673015,71.19531638,-11.10871776,3.471517663,
486.7599997,1901,3.319178556,73.95727037,-13.59871702,67.18848644,12.85938672,-1.789E-07,280.829441,37.98137389,-74.08786143,53.78475655,-78.66428881,0,59.38653646,10.65548583,-45.10090906,-17.38022078,
486.7679997,1901,69.00276617,107.8865552,7.142521293,48.40589276,-14.64855443,-1.772E-07,-138.7747877,-3.839236018,122.2291998,74.89558866,173.8963922,0,-29.06572352,262.5299727,178.8970305,118.7496311,
486.7759997,1901,63.9879059,25.7357968,34.29315005,81.09222485,35.00144319,-1.755E-07,14.53887808,51.39732036,-61.59346266,29.66601144,-20.14468776,0,73.22551297,-88.40797573,-137.6127648,-87.77179196,
486.7839997,1901,2.407715468,120.0405521,-30.55115791,37.89868062,-17.65689825,6.46E-08,160.9926729,-6.237931956,40.34784237,58.09373996,39.5504417,0,-26.57841191,224.7864804,156.9074637,94.5610148,
486.7919997,1901,112.7785806,64.23558049,56.43310033,84.01382965,33.94197648,2.912E-07,-235.9979821,31.63691634,60.9775083,53.70636762,120.8035362,0,33.90540802,82.41764425,-9.953329953,1.359720867,
486.7999997,1901,0.355402279,72.49574052,-13.48032978,71.35812575,27.77363877,2.186E-07,272.0975498,39.36292176,-67.72756879,42.07891882,-90.43494427,0,47.56243987,10.02826874,-47.63017123,-22.79273172,
486.8079997,1901,64.40268592,110.8158395,7.368096459,54.2669439,3.272128848,2.228E-07,-134.206086,4.596547347,126.0191331,67.01135404,171.3578819,0,-34.43663625,268.3891998,182.2621691,123.3098521,
486.8159997,1901,44.61814756,18.64299902,24.34830951,73.01184696,39.63236478,0.000000235,8.128112583,40.18264778,-59.39768122,25.8790175,-19.05704475,0,76.10375901,-77.12715528,-139.029279,-79.22889075,
486.8239997,1901,-16.86379555,111.8577619,-40.88771985,27.80783346,-22.44976558,2.162E-07,157.4759958,-15.71149402,26.33758432,41.11306655,38.95377249,0,-38.7467175,215.1263481,143.2102615,88.93558656,
486.8319997,1901,105.0647705,65.21293588,53.77563993,77.21455045,31.25371281,2.275E-07,-241.8613997,32.12583514,48.8988613,42.78921459,121.1745241,0,24.75100917,71.20473611,-13.27192079,-1.700611075,
486.8399997,1901,-21.36575372,61.51006605,-30.5852988,44.14183286,9.356711834,2.165E-07,248.8516822,15.69063997,-81.73011299,34.63813712,-100.137041,0,44.99281089,-1.422747632,-56.56400727,-31.29838638,
486.8479997,1901,42.76857737,100.099947,-13.27875246,24.35293116,-26.90796159,0.00000022,-162.0868639,-24.56787175,101.8995618,46.55501394,151.718056,0,-53.89999427,244.6550192,159.4957851,98.72090013,
486.8559997,1901,92.14259782,7.210378874,62.55877334,86.53663348,46.938432,2.149E-07,-155.8068297,55.07553304,-57.53535616,24.77717874,-2.741419957,0,92.3867668,-136.1501822,-205.2745992,-124.8440008,
486.8639997,1901,15.13333651,90.29568641,-4.599456031,50.82671179,-0.192474541,2.146E-07,103.8683296,13.81595624,2.522278189,59.21179028,5.501990393,0,16.69403321,132.8954605,44.78660092,31.05728906,
486.8719997,1901,53.69945634,90.9171686,17.94763948,59.05855491,5.175992325,2.118E-07,-55.78597026,19.03517267,44.06824053,55.46771508,83.27420097,0,1.203867654,162.4763531,63.04922508,44.17566286,
486.8799997,1901,19.93430196,77.37383935,3.658501901,57.96123688,8.831345304,2.102E-07,96.15990578,20.86339876,-21.597411,47.00539924,-10.7595509,0,31.48476409,79.80777275,-4.951014086,5.898160126,
486.8879997,1901,129.0574753,54.46383445,74.58957937,79.82957888,26.51866644,2.082E-07,-375.4736364,25.66871284,67.57394027,50.35626438,156.3940527,0,33.96034366,76.64509723,-37.45577772,-10.16780304,
486.8959997,1901,122.2358295,-9.813539827,93.99336578,106.8388386,68.60800128,2.063E-07,-231.4846694,72.60839466,-81.85074526,20.38358103,-6.370388118,0,124.9256238,-209.6643328,-296.5886502,-173.0019275,
486.9039997,1901,69.00267478,63.08994005,38.21220388,68.35981357,20.56022949,2.044E-07,-119.8508685,25.4292343,5.902063399,43.3284698,52.04527578,0,41.74276192,44.48257394,-49.44700513,-20.65421322,
486.9119997,1902,61.9199393,62.05302827,34.0014888,67.05302239,19.89926018,2.025E-07,-87.63810498,27.07069937,-11.97705079,39.02521045,29.86005358,0,45.33402732,20.28263888,-68.6519585,-34.45425016,
486.9199997,1902,-31.4043307,112.7430377,-41.51027823,31.74290986,-24.35848765,2.006E-07,238.3639476,-2.908379649,-25.35858992,42.06893363,-31.89703828,0,-7.170410622,145.5724053,74.94689682,46.19525424,
486.9279997,1902,66.53414061,97.9723735,16.3436439,49.76164214,-18.84892705,1.987E-07,-210.499164,-2.406770042,81.04415341,45.36952093,164.405217,0,-23.66599699,188.5850306,90.71392419,54.76045013,
486.9359997,1902,18.44303463,54.4314996,4.156641759,60.44704451,9.582994805,1.968E-07,82.42580978,24.93097185,-75.44711528,22.98204901,-31.07313033,0,50.63843797,-44.08081756,-118.4986196,-77.45162009,
486.9439997,1902,6.51878546,151.7240077,-26.15221892,37.0011294,-29.6335534,0.000000195,89.2518158,-12.78451291,54.23255263,52.31696219,82.78994131,0,-45.930208,268.3589847,172.0868383,100.3364506,
486.9519997,1902,102.4537717,85.22584452,62.29469834,90.88574666,26.4305696,1.932E-07,-195.0202727,40.73977789,29.40140407,48.84894457,86.4179031,0,52.23615306,64.137404,-42.9792823,-23.40739319,
486.9599997,1902,-21.1336544,105.8838329,-18.32639793,52.66158247,-2.050537811,1.913E-07,255.3481852,16.47847294,-42.90729841,46.27213022,-69.4200009,0,36.57729836,83.63774029,10.35706526,4.776829384,
486.9679997,1902,58.99757149,130.7636898,17.94140634,46.26849951,-17.29095178,1.895E-07,-156.3698403,-3.298076998,107.6054401,48.13812955,162.6680962,0,-38.51015024,240.3079344,157.9600141,86.50943611,
486.9759997,1902,31.01471251,49.0551871,23.82252373,56.41347903,15.29985388,1.877E-07,19.0013308,28.9048057,-60.32615025,21.35341328,-33.1678019,0,66.69884856,-71.43311645,-121.3343224,-87.35392858,
486.9839997,1902,-25.15792054,133.1194781,-36.68936386,10.7447312,-36.12821963,1.859E-07,135.908466,-24.51258608,36.33508171,36.57127979,48.39304259,0,-44.74574929,218.95832,156.5906656,80.48905901,
486.9919997,1902,99.40021755,90.85824121,67.64836171,74.39506737,23.72897217,1.842E-07,-221.3504109,34.97715258,49.44917707,29.14971339,118.4986469,0,26.61719263,63.76983173,-11.13043312,-12.7412797,
486.9999997,1902,-20.35552669,97.50370351,-5.692893419,53.13888846,6.632258937,1.824E-07,257.3848549,27.23382473,-55.9652794,32.28556338,-90.36577853,0,55.61827308,18.53249964,-23.68203464,-16.08745573,
487.0079997,1902,50.44047727,141.771052,19.85564734,48.70006936,-10.50943003,1.807E-07,-126.922164,2.170589977,120.9634049,44.87915455,156.0526454,0,-37.109523,255.1424795,180.2838895,105.6052038,
487.0159997,1902,54.95905331,67.08166147,55.84297227,86.78518706,45.27324104,1.789E-07,13.58475231,59.06128903,-41.89611133,22.83379829,-29.12260864,0,81.72247223,-65.5235795,-119.1970675,-77.99542996,
487.0239997,1902,-25.55960735,143.9026338,-22.54467395,28.78192013,-21.89376117,1.772E-07,172.9573818,-6.429268757,43.46108948,44.25644958,26.67248643,0,-21.02405193,215.919796,162.5236591,89.64873962,
487.0319997,1902,96.80964425,102.1992374,74.26113575,79.77761727,24.57362877,1.755E-07,-233.1989498,37.22267563,72.97650397,32.79107282,128.7313137,0,27.09801004,82.00781886,16.97294734,0.878341066,
487.0399997,1902,-5.600566353,111.4242611,14.09637888,69.55966127,15.33648257,-6.46E-08,264.0942146,40.14257035,-53.21738999,36.18485788,-94.27105592,0,63.79738242,10.02365006,-28.13311193,-25.91656924,
487.0479997,1902,49.94715116,153.0910003,20.58309806,45.67695487,-23.49284961,-2.912E-07,-121.9477618,-5.099967554,128.1030957,55.93293507,166.7760759,0,-36.68102431,275.8658732,201.8124601,113.9794878,
487.0559997,1902,48.96769869,67.23083638,54.4242391,81.08338105,35.03291967,-2.186E-07,-3.985360822,52.44300831,-45.4749046,13.81886605,-7.421451206,0,74.94645327,-70.88551649,-119.9254208,-87.49006586,
487.0639997,1902,-18.64851493,159.0335948,-9.28713325,48.47618822,-8.441658403,-2.228E-07,202.192136,12.19957033,37.36507554,35.92205738,22.03021524,0,-12.21374244,216.1434044,160.8032141,85.44422848,
487.0719997,1902,95.69631169,112.1894954,74.33399073,91.41467645,29.0380313,-0.000000235,-217.203676,44.61032004,75.27336257,36.05368181,123.3294249,0,40.62474422,99.85888304,30.47326325,12.9765482,
487.0799997,1902,-28.27587346,100.8711529,-5.14731607,57.39699432,5.809364502,-2.162E-07,263.5815875,28.66258247,-67.18922482,17.22148005,-84.89540833,0,54.77144365,-7.323904777,-36.82508824,-38.25210794,
487.0879997,1902,54.36386632,167.1239659,28.95588027,58.8734877,-7.74910072,-2.275E-07,-97.79877946,12.05589311,128.1712679,42.32936778,184.5324381,0,-39.49889246,268.6752082,200.8519047,110.2976949,
487.0959997,1902,71.24227845,91.65223999,78.90700262,108.8108106,57.12576241,-2.165E-07,18.18555239,73.87908372,-25.79254544,32.74196959,4.424416688,0,99.23986586,-59.35577168,-109.6405533,-69.43854261,
487.1039997,1902,-18.96903679,169.0713324,-4.364357986,49.71463086,-8.883333607,-0.00000022,213.1941723,3.054033511,47.88987139,48.96151674,48.60335793,0,-8.537189901,217.643157,172.3921476,93.89784059,
487.1119997,1902,122.7702697,147.404163,108.4222213,117.235154,58.48162668,-2.149E-07,-185.2579651,72.61319714,92.80336115,51.04154094,172.8059459,0,48.06313293,101.6186474,50.65910001,26.76723086,
487.1199997,1902,17.59797073,151.0816791,49.3379506,103.9956727,55.57133974,-2.146E-07,315.669857,79.52061352,-31.32769497,60.27268574,-51.36382108,0,103.0747659,17.27688518,-2.505418166,6.022249399,
487.1279997,1902,66.24722297,194.5997599,51.02020885,67.93934528,14.19623697,-2.118E-07,-74.01353838,22.77454052,157.2034079,70.84565813,219.2025704,0,-12.99403976,301.7670303,241.1889126,149.9532368,
487.1359997,1902,95.57832281,129.8719943,110.598823,127.780731,93.72160581,-2.102E-07,40.94739344,104.7920735,-3.327968946,50.39217467,52.48064997,0,116.5954713,-37.79630886,-80.01507847,-43.29905103,
487.1439997,1902,25.73624173,223.9969006,43.67577517,94.08400763,44.18807194,-2.082E-07,259.5704742,57.91461582,85.19836602,91.54316922,81.80407095,0,43.00281313,258.9797044,208.6650632,144.7140883,
487.1519997,1902,148.999163,181.7188634,135.1703668,142.8852682,90.12319848,-2.063E-07,-169.7658945,96.0245545,130.2948831,82.56851454,209.3715552,0,81.11338537,151.27392,89.27215542,72.91141069,
487.1599997,1902,50.19371214,184.4278749,82.64458017,141.1110304,94.21039845,-2.044E-07,334.7374852,113.1299262,-5.849535021,80.84024964,-20.05073229,0,127.8193253,46.06404167,18.82914108,29.85701325,
487.1679997,1903,102.2143924,232.753885,87.46168118,118.3702579,53.84640378,-2.025E-07,-30.00704017,66.49576291,190.7612936,111.8835496,227.0778343,0,39.96450818,342.2458489,272.5138258,193.5976405,
487.1759997,1903,119.1311226,155.2127454,124.6963016,157.2846221,109.1720397,-2.006E-07,61.28880809,119.8946106,24.07764378,72.88909176,67.78509939,0,146.3097682,-5.143233314,-51.73715703,-10.46239487,
487.1839997,1903,63.23426065,261.6302304,64.74154729,121.4240015,66.68129638,-1.987E-07,284.2553491,77.68399819,105.2944671,106.5579934,95.65178941,0,58.48396157,275.8796542,222.0626277,155.9067767,
487.1919997,1903,189.5981453,223.5333265,163.652091,165.952833,115.6308379,-1.968E-07,-136.5208927,121.16667,167.9494473,126.7661467,205.6809334,0,123.973304,186.0311069,115.7656228,102.3348622,
487.1999997,1903,78.51149529,214.5412009,102.8070979,150.02832,111.7305156,-0.000000195,361.4443591,126.7220166,25.33367421,109.1201612,-26.37524093,0,162.4816281,66.54211736,42.08733302,51.02335693,
487.2079997,1903,137.3055906,275.0248692,112.8219684,132.1667783,85.24685795,-1.932E-07,1.260058955,89.00034763,217.3328007,132.1693692,219.5547525,0,67.02491797,350.8069473,298.6674004,206.739446,
487.2159997,1903,151.8724874,196.5640906,148.9107237,173.0618105,139.2536258,-1.913E-07,85.71180424,145.963162,56.61259345,111.2722429,58.59398655,0,187.8280561,8.817314284,-17.9002843,13.02773051,
487.2239997,1903,77.03351512,286.838647,71.646342,130.7062192,80.93564982,-1.895E-07,309.8876815,91.41128538,122.9464675,126.7518508,97.35883545,0,89.30289575,281.1607118,242.0497093,174.3032505,
487.2319997,1903,201.827284,251.3610118,160.0150234,177.250262,130.4147885,-1.877E-07,-114.4448876,132.544585,180.7370411,135.217962,219.2445626,0,145.1896719,191.3216668,128.6805548,116.5581772,
487.2399997,1903,97.64189902,247.612616,100.2063959,168.6253971,131.3014688,-1.859E-07,382.9116605,146.8505163,38.24039644,128.4132669,-15.86974029,0,185.6246248,74.9468574,47.99725566,63.80311901,
487.2479997,1903,148.9060404,301.5059763,105.7682973,147.6950154,98.86607554,-1.842E-07,26.36404435,103.3052354,229.8868457,148.6735205,233.5075737,0,82.53113247,366.5667808,304.4278747,221.2833058,
487.2559997,1903,159.1286667,218.16198,142.4998551,187.6049718,154.7325938,-1.824E-07,104.4427575,160.3491707,75.23859231,127.4274026,61.79660464,0,205.2623916,25.64299207,-11.97412752,30.1275474,
487.2639997,1903,83.00750848,305.4886469,70.99591285,147.3258113,98.8142387,-1.807E-07,332.0487575,111.3904552,138.1309782,148.5367148,69.63603812,0,104.7831463,291.7701827,248.46685,191.19064,
487.2719997,1903,187.2306153,251.750965,146.0021658,172.493305,127.9020094,-1.789E-07,-119.9789151,124.2433529,185.3977293,138.8552671,194.6821332,0,139.4921429,189.1436065,137.521976,122.8084485,
487.2799997,1903,74.30245734,241.0111952,80.96763433,147.263825,118.4840357,-1.772E-07,356.6248856,122.0085604,32.8809681,115.3396559,-27.03616558,0,170.4005085,52.98079512,38.01086652,56.29383389,
487.2879997,1903,134.3666517,299.5873143,96.24847296,125.1822231,86.46219839,-1.755E-07,8.099776547,81.1982548,225.7681149,139.4126389,216.7644414,0,70.2191399,348.8247872,284.557594,218.6779906,
487.2959997,1903,127.6750029,198.2127143,117.928334,145.1312,122.0159471,6.46E-08,62.27278083,116.9403478,65.00786365,103.4323213,43.37726551,0,183.0445481,-0.758906641,-41.40076527,18.16159047,
487.3039997,1903,50.21610456,284.9459514,42.24668055,99.6395818,66.02166532,2.912E-07,288.7861942,73.18580687,118.8169846,111.5851376,52.97851819,0,75.36604635,253.8734553,203.0356412,164.7647325,
487.3119997,1903,169.2262175,240.6836365,130.5656449,136.1742288,111.3588443,2.186E-07,-148.1024003,108.2845544,175.3593956,115.240035,164.4218046,0,121.2077471,171.349526,97.74388836,108.5932962,
487.3199997,1903,34.89274414,217.2253105,48.71612269,100.9979818,91.20949779,2.228E-07,323.2827595,94.81194993,14.33660704,86.92560214,-71.85915204,0,144.380994,31.42446108,-1.953501052,38.71479887,
487.3279997,1903,95.50624434,280.5754158,63.63657005,84.29297118,64.87454219,0.000000235,-13.05884487,65.8904906,197.8825983,99.53326599,178.6177382,0,30.62095917,314.3377235,246.3846774,188.4870836,
487.3359997,1903,129.9058626,155.9452737,117.4418062,115.5246751,111.8455172,2.162E-07,-122.6438787,111.2844476,63.70159207,69.25068513,54.0829135,0,165.1618686,-54.61247872,-107.5749212,-30.05687163,
487.3439997,1903,33.67932635,243.6746434,15.31269823,38.73634361,9.135632049,2.275E-07,-28.42692348,9.085455387,177.3368247,78.26542842,159.5588974,0,4.774461499,316.6270789,226.3140952,169.581493,
487.3519997,1903,116.6775209,231.9997101,75.68796033,75.69275638,45.79425621,2.165E-07,-266.158799,44.66895479,203.7737696,71.10233693,239.6629222,0,14.81752049,257.7124776,163.8700991,128.3475264,
487.3599997,1903,-11.39915595,160.1663274,24.22601645,85.68846064,79.93520256,0.00000022,399.1938093,98.08622484,-100.334293,34.88745261,-181.2242484,0,145.1603465,-144.9309845,-167.0941507,-80.69350479,
487.3679997,1903,41.73788592,273.4252565,22.73648886,49.20034892,22.83479964,2.149E-07,24.17782376,29.40530506,172.9827785,78.91280317,134.7245213,0,-16.39333825,354.3746107,259.2613576,192.0045443,
487.3759997,1903,101.4203022,179.7148371,94.01210815,94.72171161,83.48987055,2.146E-07,-82.81594909,88.00868169,71.97168427,54.88515322,26.34996686,0,109.3679117,34.11037815,-31.93423973,10.43627503,
487.3839997,1903,-31.72795156,198.7622758,-3.289113072,52.22110024,37.18775096,2.118E-07,366.6488161,56.95470536,-22.34151991,37.31341512,-146.3221352,0,77.64570659,48.41677665,10.55840483,25.29092033,
487.3919997,1903,73.63163303,231.792049,43.85952965,48.22542646,22.56775278,2.102E-07,-160.8787268,28.8987615,183.3928578,60.79854571,155.003103,0,-5.103294846,293.7362088,204.3940269,146.6788289,
487.3999997,1903,7.756582088,130.6852769,22.57473681,53.20096371,44.41742213,2.082E-07,137.9988686,56.97494215,-43.24932442,18.83646906,-112.7123532,0,107.6291751,-98.3184539,-131.1139251,-72.84747326,
487.4079997,1903,-36.01073291,215.1892158,-40.22424371,4.719201749,-19.2441894,2.063E-07,146.5686702,-7.689055632,69.75940649,28.13870872,14.67664734,0,-32.44373797,226.3565411,155.116681,98.46499176,
487.4159997,1903,64.52497709,157.9732922,50.07004851,50.17303089,38.19493108,2.044E-07,-159.2403527,38.85704956,82.45493866,25.74577724,70.93072435,0,41.17145004,77.60194783,2.014745767,8.400222119,
487.4239997,1904,-57.33117661,149.038535,-25.78155014,20.37764992,16.80801858,2.025E-07,285.6479419,23.02147022,-48.14448342,13.70516225,-144.4903585,0,63.35266932,-19.33524093,-56.17709303,-28.6229842,
487.4319997,1904,6.840624143,202.1419361,-13.74039411,0.833942531,-9.377334562,2.006E-07,-101.2916788,-16.36889712,131.9346653,27.67093841,123.1823086,0,-47.05325661,250.3430373,174.0526199,109.0676151,
487.4399997,1904,9.54892195,120.6822559,21.27548446,40.21859755,44.96536485,1.987E-07,32.12207883,45.41338872,-28.64836222,0.752911209,-61.09747357,0,78.22782472,-100.8789128,-129.7865223,-85.07198708,
487.4479997,1904,-68.46523806,199.8130104,-49.73538585,-12.51651027,-15.86231912,1.968E-07,194.7430032,-12.74316634,46.5285414,21.14760755,-23.95384389,0,-20.17940174,186.8150342,126.4884551,80.79754054,
487.4559997,1904,28.94578185,145.8245696,23.34906541,5.470834989,14.63202921,0.000000195,-211.1555981,4.597024776,83.10057228,0.690515212,102.3464713,0,5.412576691,90.07623209,16.1262977,5.689234699,
487.4639997,1904,-62.57767838,146.9010192,-22.09817936,2.291200032,16.63827517,1.932E-07,246.6128681,25.61142668,-57.56590493,-10.03363959,-125.132987,0,51.1825859,-42.94558813,-84.72421802,-55.50591736,
487.4719997,1904,-0.84454579,212.064479,-3.316915214,-7.441443491,-5.110128505,1.913E-07,-62.67117666,-1.463142979,138.5901037,32.58149897,107.0532175,0,-32.03019547,268.1297435,173.8693185,118.119163,
487.4799997,1904,4.762152372,111.3204919,18.13416979,19.51208349,31.48216094,1.895E-07,-18.99280348,31.3525759,-17.58885517,-7.834676005,-52.10879599,0,76.41708468,-91.07193597,-129.555907,-87.68732179,
487.4879997,1904,-82.23805188,188.7948153,-60.25493885,-23.72982152,-26.29426805,1.877E-07,209.5971156,-21.8650917,26.33257339,-1.136770462,-49.47839544,0,-24.39687318,154.0683624,103.327322,55.10982663,
487.4959997,1904,24.40520544,141.3713772,31.50034121,13.73903038,18.72324929,1.859E-07,-200.809489,17.43935128,89.61086245,-10.51884162,97.84918992,0,10.07860017,84.97326502,27.79025729,9.50210172,
487.5039997,1904,-78.43481985,131.6465502,-22.8047329,1.73640746,18.51507345,1.842E-07,251.5868055,26.41123215,-64.1319127,-30.81323064,-119.2352707,0,51.35289775,-67.04479467,-74.09174398,-59.75396295,
487.5119997,1904,-21.99308723,199.884979,-7.166135244,-15.36491072,2.483484785,1.824E-07,-43.75357983,-8.244837815,128.9811868,10.49593659,117.9270212,0,-35.40257526,249.5741296,187.6021431,115.8207094,
487.5199997,1904,-9.403504697,102.1462754,30.14369504,12.65588542,49.20104603,1.807E-07,-11.40756078,41.626984,-10.68144483,-20.41066665,-24.96256793,0,87.99902421,-94.52285262,-113.1127974,-75.04629793,
487.5279997,1904,-100.5052883,188.6714459,-57.47971455,-43.55448157,-20.46731258,1.789E-07,224.3949408,-19.86341381,26.1744612,-11.74373166,-7.137209564,0,-20.40088077,140.2946853,116.2496414,67.24283188,
487.5359997,1904,27.91242465,158.5173778,36.92676025,5.878946218,29.9758623,1.772E-07,-206.3902121,15.17148298,100.731555,-8.550886373,146.0265142,0,14.72969084,70.27771248,39.2546898,20.13414183,
487.5439997,1904,-73.16722178,143.0814685,-21.32320501,3.243538225,28.02624819,1.755E-07,246.7871914,23.40412576,-52.63825404,-23.20148234,-101.0068741,0,65.57537741,-81.29836388,-74.89086849,-52.3743935,
487.5519997,1904,-26.59022957,208.7662314,-18.95750197,-20.73636062,-4.733298938,-6.46E-08,-46.46027676,-18.17164889,131.6760712,4.774169967,146.967937,0,-46.80310782,236.6181905,190.9164332,119.4735933,
487.5599997,1904,5.267786579,122.0450393,35.40166802,25.46429121,57.71947723,-2.912E-07,-13.80591722,52.87642826,-2.552610075,-20.95251555,13.27474661,0,81.13755162,-109.3025476,-110.8822249,-73.3109544,
487.5679997,1904,-83.91465147,204.6678081,-48.50598703,-25.18924042,-2.80658145,-2.186E-07,238.444236,-3.176513516,35.33333372,-2.472640686,3.437099793,0,-11.1314697,141.4368782,117.5844188,73.64328525,
487.5759997,1904,40.35447229,167.9158046,36.3826684,11.62760148,39.52889262,-2.228E-07,-204.5844044,24.03943271,108.163907,-7.995632721,165.5236484,0,8.593234103,83.8355204,51.42921071,27.07554301,
487.5839997,1904,-58.39425961,153.9243974,-10.78489556,11.34298286,44.20787337,-0.000000235,252.6038895,40.60072989,-44.7981076,-15.68908083,-85.94434756,0,74.18954851,-78.92861869,-67.43968283,-43.4214377,
487.5919997,1904,-22.33899603,216.1727848,-12.68797952,-19.06716356,7.309308681,-2.162E-07,-41.60546537,-18.38048843,137.9723167,16.86845417,145.0484755,0,-32.79429365,237.3120513,198.2078273,126.7598662,
487.5999997,1904,6.612088254,128.5954522,28.60726795,21.17544763,56.49406586,-2.275E-07,-39.56572247,36.63204906,-2.953409363,-20.59058789,16.67955809,0,73.57096195,-118.1863356,-107.3186804,-82.97415135,
487.6079997,1904,-79.32089286,217.2281708,-41.82764818,-14.75576819,-2.335656188,-2.165E-07,228.9644009,-3.51862318,31.90116271,2.649977776,-9.185132659,0,-9.824984794,122.1178508,113.8392872,68.53183016,
487.6159997,1904,26.8779575,165.8786668,35.1606967,11.7684128,28.53248622,-0.00000022,-214.1586678,9.598885947,108.3705415,-0.303141114,146.1831111,0,11.94366828,71.85155636,58.39510553,33.63004851,
487.6239997,1904,-84.72728788,137.9418718,-34.4837091,-4.784689731,16.05008644,-2.149E-07,218.4938798,13.0206657,-57.84017713,-30.53070326,-85.12143867,0,52.46935611,-98.1313223,-72.37231027,-59.66970573,
487.6319997,1904,-42.4035287,203.6115634,-29.99123427,-24.92182029,-22.50880106,-2.146E-07,-60.80366418,-26.67829194,115.7951598,-9.264847351,149.7132689,0,-59.77573631,216.7923587,184.8507026,104.7403044,
487.6399997,1904,-28.00940689,95.8917254,2.164196243,3.684256095,14.92700044,-2.118E-07,-63.89840676,14.16412366,-25.07051833,-48.11234052,12.09877109,0,49.38894137,-135.334354,-117.3133743,-97.10535136,
487.6479997,1904,-127.0045751,169.3225297,-83.27727375,-52.49422644,-51.9652176,-2.102E-07,198.3441275,-40.5807537,-3.581761378,-39.73220795,-10.55354588,0,-48.64357745,94.46656785,82.79025389,33.63235368,
487.6559997,1904,-11.32201882,128.1883476,1.731753695,-25.40112724,-13.30830379,-2.082E-07,-241.5010609,-21.38453071,71.29583594,-46.90275194,153.1085755,0,-31.90581947,40.88796604,19.16788914,-11.12156869,
487.6639997,1904,-120.6309176,102.261401,-62.865477,-40.75091741,-16.73548115,-2.063E-07,187.3961328,-21.6272454,-92.58182151,-70.80180876,-93.32487462,0,17.47908061,-133.2924162,-113.9336481,-101.0063331,
487.6719997,1904,-79.25127451,170.8527902,-56.28519251,-63.10166782,-48.98590105,-2.044E-07,-79.97564652,-55.62663972,81.29833434,-45.11163108,128.3569433,0,-90.92712806,181.2031257,145.8485149,68.46453531,
487.6799997,1905,-51.28142498,78.65360955,-15.05472712,-25.99185502,-1.981111262,-2.025E-07,-78.77662205,-1.642849521,-51.71957995,-71.90813249,0.326002609,0,25.52364013,-166.3303524,-143.6440107,-120.8843303,
487.6879997,1905,-141.1656738,162.4044052,-96.67054231,-74.71042445,-59.9238682,-2.006E-07,186.9973004,-56.14886701,-24.68670658,-48.53341875,-18.3894743,0,-59.43135236,70.36339252,63.0123259,20.38149643,
487.6959997,1905,-23.24863002,122.5606787,-7.74188888,-43.40132678,-20.89586521,-1.987E-07,-249.3112999,-31.15183932,57.64468201,-53.54122305,146.2201098,0,-39.81579857,21.49931787,9.691492627,-18.74567968,
487.7039997,1905,-130.7242221,94.93235468,-70.57231296,-50.10640534,-26.45841663,-1.968E-07,178.854707,-26.41231081,-106.7680351,-77.72086851,-102.7094137,0,8.985426218,-153.1955413,-121.9900431,-105.2927678,
487.7119997,1905,-91.8951793,160.1646684,-74.05169091,-77.89087845,-67.8363911,-0.000000195,-94.32758553,-81.81548603,63.49945081,-52.21973128,119.2636329,0,-102.5590354,164.9105493,134.1865604,59.92834919,
487.7199997,1905,-58.67239143,68.05055013,-29.83602517,-42.67326018,-19.94034863,-1.932E-07,-98.83505129,-29.25397955,-64.81563881,-86.1683161,-8.237600225,0,11.13116047,-189.6376861,-163.8869638,-143.2844708,
487.7279997,1905,-172.0315965,132.1142697,-120.474664,-98.29577105,-75.73135564,-1.913E-07,172.4148271,-80.53281728,-45.22808209,-75.16608117,-33.03827052,0,-80.25202887,47.17901934,37.01107612,-2.925284498,
487.7359997,1905,-77.07140711,76.22181475,-41.59350871,-73.73289171,-41.75535148,-1.895E-07,-270.6997845,-62.94161114,22.06396004,-99.2243195,140.7478716,0,-76.46681618,-2.492000444,-15.42717016,-44.56192732,
487.7439997,1905,-167.1482681,67.40194144,-90.64835537,-70.28777496,-40.91008258,-1.877E-07,164.2342981,-44.41797699,-141.4541208,-117.1280409,-106.4443997,0,-18.09386508,-185.1715467,-150.5747123,-135.3600266,
487.7519997,1905,-138.4035451,126.3393553,-101.4004315,-105.3287882,-82.48694326,-1.859E-07,-100.4261793,-97.33516234,39.1696755,-78.93413064,112.9735731,0,-119.2396669,147.192313,118.7146012,45.68942906,
487.7599997,1905,-119.561572,18.84134205,-62.11669696,-72.59518901,-38.57471368,-1.842E-07,-124.8127613,-48.43484467,-96.66684564,-130.6677208,-16.04565159,0,-20.9049596,-213.4238165,-180.3555104,-160.193277,
487.7679997,1905,-208.5405529,107.4464379,-143.0695707,-120.5288026,-97.97100011,-1.824E-07,148.8461215,-99.67903186,-84.82583834,-113.6657369,-56.26845453,0,-111.2396594,11.09495372,8.562652917,-30.37611456,
487.7759997,1905,-97.53827211,62.57369715,-67.06589958,-96.73734049,-73.83660668,-1.807E-07,-292.2146234,-86.28984949,-2.341918389,-114.5661484,116.253765,0,-96.90253833,-26.7758936,-37.55424539,-67.39219472,
487.7839997,1905,-199.5397565,36.86540182,-123.2578507,-92.47516256,-80.63270143,-1.789E-07,128.3702864,-75.10298409,-166.8137539,-141.9968264,-134.8394911,0,-44.84605145,-210.7246318,-184.5654411,-164.2189343,
487.7919997,1905,-178.4206369,90.13933719,-142.0547265,-134.5254312,-128.0923757,-1.772E-07,-140.0401208,-145.6289682,1.110245018,-118.2173119,75.82325698,0,-159.6220254,115.5495709,72.64614039,4.091504312,
487.7999997,1905,-149.0056935,-12.3985122,-104.3972151,-98.41956978,-80.8927671,-1.755E-07,-166.0872382,-94.03387752,-131.8804024,-167.987895,-48.24070882,0,-63.44260014,-248.9483234,-226.9053242,-211.2268186,
487.8079997,1905,-240.6701973,72.8074075,-185.6039479,-134.7820677,-131.1509089,6.46E-08,118.9080937,-131.7091726,-115.9704477,-147.8805301,-95.84283875,0,-147.8023051,-21.73225568,-39.75691996,-78.07139679,
487.8159997,1905,-144.7484434,14.79353754,-120.0151992,-127.7031005,-110.7172071,2.912E-07,-330.8874836,-132.8244651,-34.44766193,-156.5639185,64.74434012,0,-140.1351872,-58.89729189,-83.07029889,-113.1595928,
487.8239997,1905,-245.8821931,-10.68048781,-177.7871893,-137.0468179,-122.2733793,2.186E-07,82.61483798,-124.5651861,-207.5248835,-192.1906877,-180.5459868,0,-100.5095514,-254.6505588,-233.1538952,-218.1061443,
487.8319997,1905,-212.2416354,56.58723497,-181.4633286,-165.0072779,-158.754731,2.228E-07,-166.0288408,-172.8624395,-38.08287114,-161.672809,42.64732013,0,-212.6258529,72.6602132,30.77009252,-42.40595852,
487.8399997,1905,-176.3822168,-39.38080275,-130.4363169,-117.3227147,-101.8280292,0.000000235,-198.5277576,-117.0534402,-159.5289455,-198.0160329,-81.3814129,0,-95.50807435,-292.23558,-261.1558932,-246.4078005,
487.8479997,1905,-268.9347898,50.71699958,-209.28312,-152.4236208,-155.607805,2.162E-07,91.83079184,-155.8982224,-140.5515227,-166.4969742,-122.9363476,0,-167.6896315,-57.85737167,-64.82664792,-103.1205744,
487.8559997,1905,-159.1446515,3.994859843,-135.7378251,-134.2658552,-130.7552231,2.275E-07,-342.3226379,-137.9901022,-52.09909761,-165.5587131,58.66949657,0,-161.5250653,-79.53738556,-89.82340621,-126.939158,
487.8639997,1905,-238.4017112,-5.394074434,-172.2601995,-121.6441742,-117.3899791,2.165E-07,80.46900429,-106.8422831,-212.8823618,-188.9798967,-191.2782698,0,-102.8415056,-270.2564087,-238.7401369,-222.9143143,
487.8719997,1905,-197.9417495,72.91516293,-168.4419916,-143.5463821,-138.08778,0.00000022,-147.0618489,-148.1483713,-30.34528923,-145.4460466,18.76253614,0,-190.4361898,79.50367946,37.36006465,-28.40299463,
487.8799997,1905,-162.3494356,-24.84854204,-124.1034403,-106.1305084,-83.79510189,2.149E-07,-176.5283295,-93.73976119,-150.4529701,-183.5476386,-96.21608074,0,-76.64007824,-277.8094496,-242.2412547,-227.4488745,
487.8879997,1905,-252.0130635,67.47786471,-193.1900022,-145.2665173,-130.1368812,2.146E-07,125.1013371,-127.5883814,-136.8062277,-160.2421946,-135.7047947,0,-150.9801116,-49.58252318,-50.58132048,-88.28469075,
487.8959997,1905,-134.970477,28.77857843,-104.3057145,-121.6232485,-96.1137824,2.118E-07,-303.1765723,-107.1593165,-40.87526691,-156.5514885,36.65172885,0,-125.291822,-59.42397265,-65.81561448,-102.5105127,
487.9039997,1905,-221.0017206,15.15296172,-148.9940603,-112.1325307,-96.11328581,2.102E-07,104.4095424,-89.59773024,-199.8755145,-173.5279059,-208.4429556,0,-62.95630402,-247.3715835,-209.586186,-194.56432,
487.9119997,1905,-191.7930901,88.91908101,-156.3615073,-143.5659638,-131.9771475,2.082E-07,-128.5706458,-144.5853282,-21.91689607,-135.1763236,22.95523081,0,-175.4867499,97.64714422,62.2025687,-8.228773077,
487.9199997,1905,-152.1089779,-3.592282455,-112.1585185,-101.0669241,-78.64947469,2.063E-07,-172.0247885,-92.78906308,-144.4517569,-181.7084478,-92.81825216,0,-70.09514254,-269.9199682,-228.0912382,-217.8455598,
487.9279997,1905,-242.306629,91.04084238,-189.6565226,-131.4423326,-126.7150699,2.044E-07,121.4212303,-134.6775034,-129.6298218,-154.0394193,-140.8722316,0,-140.127844,-41.67983146,-44.2195539,-79.19114526,
487.9359997,1906,-130.1077687,46.49913509,-110.5311767,-108.8505242,-94.26407783,2.025E-07,-311.4871555,-122.1834638,-28.74051038,-153.6288311,43.56578896,0,-129.9205758,-51.7535918,-58.90099086,-100.6891164,
487.9439997,1906,-225.7945954,21.19886068,-165.3341829,-106.9859308,-100.1283469,2.006E-07,91.50271027,-105.8753407,-197.4940954,-185.2028392,-207.699072,0,-76.38535622,-262.9145535,-218.4056955,-209.8855873,
487.9519997,1906,-200.404475,90.35938428,-174.6913249,-138.6312754,-143.2688151,1.987E-07,-132.0012598,-154.9708904,-25.05094808,-149.2540062,19.77269134,0,-182.8956261,80.49177512,45.89745241,-22.03352516,
487.9599997,1906,-151.9581968,-3.37212179,-117.4586997,-89.95944113,-85.36927936,1.968E-07,-174.5142401,-93.28328579,-143.3334628,-192.597694,-89.51203783,0,-73.47200737,-278.3269848,-239.9713033,-228.987448,
487.9679997,1906,-238.0139946,94.66224623,-186.4624209,-117.1610148,-127.1502334,0.000000195,124.9595526,-129.1761669,-130.303893,-161.8943669,-132.7854195,0,-145.758169,-49.20795789,-51.64279305,-86.77301493,
487.9759997,1906,-112.8638511,66.32748228,-93.45544005,-85.31985122,-88.62711815,1.932E-07,-298.4011455,-102.7939677,-21.72989131,-147.8943875,67.87580445,0,-129.5559599,-49.918221,-54.55628637,-93.06243581,
487.9839997,1906,-204.5592109,45.61367983,-141.5249065,-86.84551148,-89.74186249,1.913E-07,105.5763572,-83.31526136,-183.2689278,-168.9496288,-179.022692,0,-60.76281124,-257.7713501,-204.8711422,-195.2227111,
487.9919997,1906,-183.9239235,115.6766613,-154.5906498,-125.9135865,-124.2606296,1.895E-07,-119.2841287,-139.1890296,-10.04207367,-135.7334301,55.22539556,0,-172.1545104,93.84560094,70.49873954,-2.273666684,
487.9999997,1906,-121.9365837,33.56105953,-86.03808071,-63.57962542,-52.43538289,1.877E-07,-156.3955504,-64.15744932,-122.4552204,-169.991813,-53.71978422,0,-54.36549944,-252.5595685,-207.6393687,-198.4462715,
488.0079997,1906,-217.9039152,124.25438,-165.100912,-97.08921758,-107.3862467,1.859E-07,147.0948301,-107.9179835,-109.1136964,-136.419414,-107.9295543,0,-115.8358698,-23.56750948,-17.06570383,-54.65218622,
488.0159997,1906,-112.5220066,80.04281461,-94.42204111,-79.85814881,-87.62640832,1.842E-07,-301.5198315,-106.8069606,-10.43576496,-142.0022218,99.70781921,0,-125.9411811,-34.76174691,-29.05780419,-74.62171525,
488.0239997,1906,-186.5756564,69.23930406,-126.2633329,-61.85235353,-71.18139071,1.824E-07,108.3741428,-69.97899408,-176.88287,-157.8556223,-155.8062858,0,-55.72103281,-244.9447192,-193.4702004,-178.6905703,
488.0319997,1906,-154.8608657,148.6871155,-124.9974756,-93.01748825,-96.76687062,1.807E-07,-88.93074979,-109.3019776,4.485575976,-108.2377741,61.18804801,0,-146.3635122,122.3268655,91.39952008,25.83435584,
488.0399997,1906,-97.68336056,60.34372835,-60.49721157,-43.07527932,-27.98601353,1.789E-07,-132.5691934,-42.14570878,-102.7257455,-145.2348959,-46.60129357,0,-28.69335921,-221.3938354,-184.2910908,-174.3721661,
488.0479997,1906,-178.6892517,159.8192422,-123.7492225,-69.0750743,-57.58657841,1.772E-07,185.3417585,-71.43292005,-85.66615848,-104.4527885,-105.2478641,0,-75.84715305,7.024083438,1.898655225,-27.87877713,
488.0559997,1906,-60.5112255,126.4616377,-37.5795336,-43.71578772,-25.4893721,1.755E-07,-252.0021494,-56.42525544,28.22370631,-95.14935219,95.45829556,0,-66.41374187,2.547401904,9.70363747,-31.70654669,
488.0639997,1906,-136.9391899,112.4793587,-72.89746362,-27.75138065,-26.34122553,-6.46E-08,145.5109686,-31.17315659,-133.1088361,-115.0575237,-159.9523693,0,-0.417102074,-212.4805782,-149.6898186,-143.7030106,
488.0719997,1906,-113.6928848,184.8529193,-80.06375776,-62.75845333,-70.32263212,-2.912E-07,-59.35866297,-82.86058636,46.19263886,-71.53071086,61.83265326,0,-104.7817546,158.6076664,128.032769,50.73951554,
488.0799997,1906,-76.57805964,81.00852721,-30.53623578,-25.11239789,-19.25245676,-2.186E-07,-120.8527128,-25.5071422,-67.25283785,-112.9543609,-27.97947428,0,-5.155162853,-191.8562002,-153.4272142,-152.97481,
488.0879997,1906,-171.7804271,172.8723187,-109.5031852,-62.53843285,-59.11375555,-2.228E-07,187.603413,-67.77078705,-65.09256195,-85.18893368,-70.60926042,0,-72.26794416,20.51270557,17.40105837,-23.58520841,
488.0959997,1906,-53.46513124,143.5752697,-24.25570561,-39.64164573,-21.45591838,-0.000000235,-246.740177,-51.57600158,45.71766399,-77.45183645,125.3208715,0,-60.4936983,21.67756758,17.76557057,-32.00789939,
488.1039997,1906,-185.3410254,112.9367941,-80.92844346,-16.65747512,-5.442881998,-2.162E-07,395.6989555,-0.397506699,-229.7755925,-112.0105028,-292.3945121,0,51.56493808,-335.4975978,-251.3376876,-209.9454955,
488.1119997,1906,-191.2277319,217.960507,-124.3452977,-80.23919281,-71.46321295,-2.275E-07,211.1770649,-85.42473875,-20.29176821,-62.96809836,-23.85221564,0,-102.5271838,149.5441318,131.2342569,58.77652898,
488.1199997,1906,-22.28188172,110.4333754,-5.027468171,-45.49454188,-11.37554575,-2.165E-07,-418.0271988,-47.759565,61.61728544,-94.18841829,194.9092426,0,-51.03880473,-42.52456619,-19.77245177,-67.18795549,
488.1279997,1906,-156.353407,144.7119953,-75.47006156,-32.49215494,-5.536275798,-0.00000022,239.9493223,-17.2909327,-144.8244881,-103.9855662,-153.3407235,0,3.723036704,-192.085712,-134.1617834,-129.833823,
488.1359997,1906,-106.1215307,210.4430535,-58.92846509,-49.44092657,-25.48968476,-2.149E-07,-14.40262444,-51.98562286,38.73069137,-46.32756882,74.73781971,0,-73.68379315,137.3265781,122.0748219,57.08327032,
488.1439997,1906,-44.12657823,131.8587878,-2.373619036,-19.60958437,12.17830195,-2.146E-07,-178.4592307,-13.82298357,-2.001355558,-67.90279882,66.23683327,0,6.148836085,-110.7722164,-64.42645368,-82.36732858,
488.1519997,1906,-139.4135563,188.1861203,-69.06669708,-38.26975353,-11.79824163,-2.118E-07,225.4951684,-26.95805576,-79.68434171,-68.14088994,-79.9571133,0,-10.01588597,-69.12657165,-26.50255082,-49.43718111,
488.1599997,1906,-37.886352,204.8432203,-8.868284057,-32.28931449,0.147360909,-2.102E-07,-157.5080468,-31.12232297,89.34825219,-39.67201526,156.1944646,0,-42.45823684,110.7011071,108.4998634,44.05046788,
488.1679997,1906,-52.20557702,155.963412,6.089072848,3.115436816,29.93671534,-2.082E-07,17.73026629,12.1115021,-35.52502718,-62.62179652,-28.85056677,0,51.32130451,-151.5522757,-96.98510407,-96.23405548,
488.1759997,1906,-114.1883257,222.8182008,-51.95518898,-31.00513021,-23.23222849,-2.063E-07,139.024343,-34.14284808,10.53732505,-41.21126387,9.963506206,0,-29.83627176,75.38774076,81.28918706,35.15012009,
488.1839997,1906,-18.7136331,179.2803088,17.18296923,-0.879415429,12.34161295,-2.044E-07,-189.6638086,-3.04287152,68.60377687,-48.86377827,148.4084343,0,-10.14772131,15.84056918,25.42506232,-13.6695784,
488.1919997,1907,-90.80224108,189.4916739,-20.84216395,16.11349172,22.03581084,-2.025E-07,204.3090537,23.50215142,-66.89032143,-55.24850404,-77.89683607,0,41.9163124,-117.3522139,-74.95535025,-77.16966706,
488.1999997,1907,-49.91785372,249.0166906,-15.22512048,-0.435163263,-2.185261499,-2.006E-07,-32.34232099,-14.52023942,98.25515834,-8.766785318,135.02858,0,-36.26024261,173.3960132,162.2246998,92.9822264,
488.2079997,1907,-14.89145991,178.5063657,31.01335796,41.76866784,51.48871045,-1.987E-07,-29.2934766,43.30580411,-6.973078435,-35.70385704,26.93988711,0,64.5729117,-136.6151027,-82.56371342,-78.87508203,
488.2159997,1907,-96.20079445,260.8968155,-40.54913768,3.715271906,7.934381042,-1.968E-07,231.9984008,2.56435501,6.382749137,-8.695031115,-5.951859718,0,2.943286254,68.56237982,77.50194163,44.280515,
488.2239997,1907,12.59443658,228.9362349,31.50209214,24.13315627,37.64856751,-0.000000195,-167.6399105,15.53479468,109.6086997,-2.996778055,173.8959775,0,10.42369796,72.47464775,74.85458371,38.23278715,
488.2319997,1907,-62.31347772,214.2713227,-4.481531614,32.37429894,43.79342371,-1.932E-07,210.9722805,43.74436723,-47.32431007,-17.99407717,-61.03429647,0,70.90654902,-130.3978101,-79.6290036,-60.16685033,
488.2399997,1907,-43.40630407,286.2513718,-18.30261245,-6.722497753,-2.908941132,-1.913E-07,8.09868486,-15.23976964,124.1320517,20.55660264,163.3751526,0,-35.38203124,205.0414085,189.5364514,128.9665509,
488.2479997,1907,2.342809459,194.0989456,35.92915059,34.43415081,49.87369919,-1.895E-07,-57.21991089,40.04630281,23.41584082,-20.50665693,58.91615859,0,74.47783939,-133.9565802,-80.35070922,-62.78913763,
488.2559997,1907,-93.30149871,273.5481415,-44.9519502,-7.309072525,1.590560027,-1.877E-07,252.0361954,4.626190554,18.66431685,0.848518538,1.88567303,0,9.285082995,62.04502302,80.26345424,59.61914308,
488.2639997,1907,31.05834678,249.7447934,39.44815997,17.33469741,42.32269197,-1.859E-07,-174.8883583,20.72056365,136.7415616,7.496465912,203.4361679,0,16.60879133,85.32196972,93.507116,62.68102944,
488.2719997,1907,-56.39296638,214.858088,0.585981641,21.70299545,54.11852509,-1.842E-07,211.3776825,40.38412123,-27.68972851,-10.77274194,-62.18248909,0,101.4030346,-148.3112715,-82.07868952,-49.34330959,
488.2799997,1907,-64.3765993,274.3134822,-36.62330525,-33.00717902,-8.344823365,-1.824E-07,10.80564839,-33.48393096,127.6643491,10.46203001,166.3933715,0,-34.13591825,186.0490926,195.2697389,134.3243727,
488.2879997,1907,-16.71128054,175.1483629,16.94538051,10.40772919,46.69820348,-1.807E-07,-89.3828328,18.96201014,12.15201921,-45.52826013,79.9603565,0,55.56936767,-164.6335318,-93.61091294,-77.28409365,
488.2959997,1907,-123.8037185,248.3773784,-69.05402045,-31.54024804,-4.277429057,-1.789E-07,238.7349936,-24.64314073,1.92881183,-22.46127872,4.249173575,0,-2.025856954,25.82930677,55.39088556,38.33305017,
488.3039997,1907,-6.34576767,221.9887253,8.316326068,-10.36292823,21.69719173,-1.772E-07,-200.279126,-11.68183413,118.3230889,-15.40764316,209.6319897,0,-8.510954806,56.50872145,73.20607516,39.49087248,
488.3119997,1907,-91.18233328,189.0360195,-31.42386839,-1.414438952,35.18549836,-1.755E-07,185.0330681,10.26016427,-59.73529267,-43.14842372,-57.46042911,0,59.06317411,-174.0510198,-110.8262652,-82.18043534,
488.3199997,1907,-78.44878286,266.6273697,-52.7184079,-39.22486374,-14.69820437,6.46E-08,1.442749097,-48.86889588,106.472761,-15.59778957,166.1645442,0,-68.00442738,179.048133,174.3917509,111.7342708,
488.3279997,1907,-6.388836929,181.8749309,25.5745655,22.7293592,50.45605247,2.912E-07,-86.91751864,27.28732296,15.48157251,-37.60128045,64.05460315,0,58.47656111,-158.356293,-98.50975929,-74.74654797,
488.3359997,1907,-132.6852175,240.560822,-76.03904661,-36.22059932,-6.796930752,2.186E-07,240.6168217,-35.13050023,3.52229962,-13.39574233,-32.18615193,0,0.196868299,26.58106961,57.0716555,44.30047795,
488.3439997,1907,-37.1608783,194.7819518,-24.71196124,-45.14508845,-5.29720015,2.228E-07,-238.3210697,-53.20519562,100.6143589,-47.37809464,189.2987533,0,-50.89735122,33.31782996,57.24192814,13.14329878,
488.3519997,1907,-100.6692113,174.0651002,-44.7627037,-24.93845602,10.51222733,0.000000235,158.8165536,-4.590512527,-81.38188675,-79.42212255,-66.81878979,0,22.17757268,-213.9773924,-142.0664325,-120.1293151,
488.3599997,1907,-83.40080985,260.1492354,-57.74781292,-58.35722019,-27.56076296,2.162E-07,0.598242691,-50.72754175,101.5640419,-21.015562,140.0831395,0,-65.26250448,160.3667176,156.7972964,99.96299032,
488.3679997,1907,-31.37828472,161.2128729,0.203471896,-17.7762381,21.39162593,2.275E-07,-116.3535725,-1.829359807,-2.115839657,-57.5433609,34.2451431,0,42.27450962,-180.6006869,-131.0556083,-104.1620799,
488.3759997,1907,-142.4453056,235.1309756,-86.21277356,-57.40292267,-26.00140045,2.165E-07,228.4741603,-41.87082592,-24.42344201,-41.66045924,-54.59743198,0,-28.66222969,-0.871728464,16.39323108,3.984091199,
488.3839997,1907,-29.21830581,206.4769822,-14.65643658,-41.46839408,3.936334906,0.00000022,-220.5319161,-31.70388363,102.4058641,-30.75302081,163.3508698,0,-33.48217199,47.6142653,48.60544786,18.36209126,
488.3919997,1907,-112.5152543,166.3445453,-53.96428831,-36.82073801,8.090307376,2.149E-07,158.6012859,-10.10421265,-86.42425164,-67.18314188,-92.04728989,0,33.81908129,-201.8513237,-151.5775794,-118.64984,
488.3999997,1907,-106.7730414,245.183306,-76.12826117,-76.79716424,-37.58858912,2.146E-07,-10.61497455,-71.17214695,80.55278746,-33.84922159,137.7815806,0,-87.70433146,156.8716211,146.0407955,85.5840819,
488.4079997,1907,-43.86300353,154.8594807,-7.967270114,-32.17943709,20.87970377,2.118E-07,-124.7112277,-10.78983936,-12.76168079,-61.95975841,53.41532144,0,29.30219782,-177.4082222,-130.5714734,-106.0891539,
488.4159997,1907,-148.4302809,233.1797156,-91.39447424,-74.2265629,-34.54827752,2.102E-07,222.5315491,-48.48596194,-39.39850531,-53.29545537,-29.4150721,0,-41.03711403,-14.3486245,11.87410631,-6.041037478,
488.4239997,1907,-22.99074396,214.3220631,-7.089502481,-48.00550215,-0.699467065,2.082E-07,-228.039175,-36.03480846,97.57939308,-34.90492475,189.8077777,0,-38.50749198,33.62905373,54.79487756,19.47420776,
488.4319997,1907,-102.8887375,173.860373,-41.41777579,-46.25847546,6.543191166,2.063E-07,151.3767952,-16.53075339,-77.57515076,-55.21607928,-84.39980883,0,50.32877947,-216.3950771,-141.6574806,-109.0037795,
488.4399997,1907,-99.98746911,250.4515215,-69.35316553,-95.18560244,-51.48922385,2.044E-07,-18.61916265,-77.35672451,80.74770331,-38.50872795,135.5162432,0,-86.0970398,127.8812691,143.099901,74.86607982,
488.4479997,1908,-26.12622592,161.8194207,4.454933841,-37.04298299,14.04991924,2.025E-07,-133.8168033,-6.451959451,-10.37642047,-66.95404455,54.78754875,0,30.54584067,-199.6323762,-137.0036938,-112.5266133,
488.4559997,1908,-133.22956,237.349051,-80.26634875,-71.00867731,-34.22782321,2.006E-07,227.9949974,-40.94531989,-29.70068035,-42.30374599,-42.00458762,0,-18.49974045,-19.18582449,11.76451084,1.930350834,
488.4639997,1908,-9.256242917,225.8504626,-2.090272133,-44.4597843,-8.092412676,1.987E-07,-231.9839042,-29.16164954,98.44290231,-31.37178791,185.0982313,0,-32.96991508,42.96661587,53.80102922,16.13220141,
488.4719997,1908,-77.02779467,186.5991538,-32.28911935,-28.20300659,11.63334841,1.968E-07,143.1228646,-0.042147452,-79.8217215,-48.7887913,-84.97589517,0,55.93631799,-202.0589564,-152.1427366,-116.2820702,
488.4799997,1908,-86.60982141,250.9138243,-63.1218407,-71.00122862,-37.69093936,0.000000195,-7.622956785,-59.96247559,90.25594642,-20.8493862,116.9266918,0,-61.32750901,151.3755439,143.7333592,84.00690065,
488.4879997,1908,-26.31823617,163.4455879,4.220765087,-17.31569702,15.34102755,1.932E-07,-131.3963569,0.090110856,-5.66549946,-60.65416018,46.09120521,0,37.08977587,-178.5149411,-129.6757756,-111.2119429,
488.4959997,1908,-120.8528658,247.7831649,-73.05182992,-41.44253371,-29.06241105,1.913E-07,232.627904,-30.30481077,-31.54686215,-39.74355407,-37.45578834,0,-20.10863484,-12.06845727,13.00662713,-7.468327214,
488.5039997,1908,4.676334977,233.669459,11.85855182,-10.62276884,2.139891585,1.895E-07,-217.9869443,-12.7992839,112.5294727,-21.78129245,184.0781417,0,-20.48067513,56.84762814,63.38125722,24.49138342,
488.5119997,1908,-66.22729462,200.1623485,-13.57556461,4.895068131,15.15454046,1.877E-07,162.7202381,20.57267689,-65.02783635,-42.21621003,-86.96791413,0,61.60969221,-185.6202081,-137.3496776,-100.8505732,
488.5199997,1908,-66.13691917,277.5163725,-39.2231593,-38.5378558,-35.39316524,1.859E-07,14.13684631,-36.99824794,99.88955644,-9.576744175,127.5083821,0,-62.53912796,170.3195365,165.5538815,99.84716224,
488.5279997,1908,-3.389740508,183.5378582,31.22127282,6.33036854,28.83886387,1.842E-07,-123.3488713,20.82372872,13.28179971,-43.99771632,56.97104634,0,48.50047208,-155.2780398,-104.1777035,-90.6596047,
488.5359997,1908,-107.9346923,259.5229165,-48.69862185,-27.56274345,-13.24176042,1.824E-07,248.9441643,-9.157174966,-16.90169685,-31.94910824,-46.43833517,0,-6.030970352,4.96137733,34.50900544,11.20458946,
488.5439997,1908,4.089034498,240.3499314,20.17742864,-13.92688508,-0.488493709,1.807E-07,-211.3959316,-4.954974001,113.9682242,-25.542724,175.4959531,0,-19.10190141,65.69136436,84.84482152,33.47155333,
488.5519997,1908,-74.28242425,198.3054875,-17.61539987,-7.856209557,9.600869732,1.789E-07,148.1701539,14.03669005,-69.77996645,-52.38425593,-92.53698374,0,58.80487152,-195.9355762,-126.8945596,-105.9344027,
488.5599997,1908,-71.8037158,329.9950827,-62.79166022,-68.546297,-62.06161684,1.772E-07,-75.18009822,-77.52658945,197.9171729,6.112145807,232.2758918,0,-134.3505808,376.2357353,351.3890452,219.6684205,
488.5679997,1908,36.62767835,262.3089487,21.76790912,-30.69447447,-15.55042626,1.755E-07,-438.284996,-39.06143634,225.4915836,-8.0309045,326.048779,0,-75.63670298,218.2108966,214.2009685,118.0441374,
488.5759997,1908,-69.71655209,224.5792961,-25.13261854,-14.54216907,4.246566038,-6.46E-08,113.7982638,0.76692775,-27.53645176,-41.89094339,-44.5150282,0,23.56320391,-106.1743473,-52.80765326,-55.39320259,
488.5839997,1908,-44.12080758,232.9206843,-12.67713985,-10.09656975,12.60065566,-2.912E-07,31.33511913,1.50989215,9.959705582,-33.43683059,2.13635908,0,14.02468883,-64.15964812,-20.67420825,-33.90866657,
488.5919997,1908,-51.51859685,252.3389077,-21.71188968,-21.18159981,1.792526895,-2.186E-07,31.20142858,-11.384479,34.63560623,-26.83035758,27.5153962,0,-4.041027825,7.637412015,40.14802552,5.675255554,
488.5999997,1908,-25.1172502,249.1250551,1.787813355,-10.59256291,16.45598833,-2.228E-07,-30.87167427,-1.558592721,44.59918269,-25.54702534,57.32235715,0,6.892124796,-11.51064292,25.90349202,-8.182736327,
488.6079997,1908,-27.22824169,242.3806868,12.15724638,9.200995137,38.26167433,-0.000000235,78.27963581,20.9397304,-3.505120024,-21.11510219,-28.7841561,0,53.04637385,-98.45784069,-48.95243303,-55.19191657,
488.6159997,1908,-36.28624797,294.4983076,-10.86473483,-11.69835592,4.786850026,-2.162E-07,26.57213064,-13.59842347,90.83092369,5.04201064,69.57690521,0,-13.09528458,113.4875432,132.3111969,70.87792318,
488.6239997,1908,-5.430548814,221.6682868,24.71264515,15.7092554,33.71154509,-2.275E-07,-71.96115191,18.27058395,22.9616713,-20.56402744,25.87798283,0,53.48783933,-118.967784,-59.04356357,-58.97333542,
488.6319997,1908,-81.50452743,270.0172746,-32.41419373,-12.4044608,-4.779263021,-2.165E-07,172.633811,-9.018233896,8.282173706,-13.75295589,-22.76134077,0,5.880184075,5.346288143,40.93755307,13.20809989,
488.6399997,1908,-2.740833792,257.1609688,15.53550035,-4.565020689,7.065632289,-0.00000022,-158.1726278,-4.802429676,108.4188412,-10.71977648,150.1766814,0,-9.005588468,54.54054655,79.8770788,27.91420821,
488.6479997,1908,-55.42921878,214.2768342,-5.393908179,6.46842001,27.72970311,-2.149E-07,112.7482109,23.42498008,-37.1725889,-34.29949195,-48.68827792,0,65.32971528,-167.1226298,-97.45810412,-88.00958667,
488.6559997,1908,-46.54789351,298.1527138,-22.58991901,-18.15499876,-1.753935388,-2.146E-07,32.5198681,-10.50226819,96.58848401,-4.191625579,112.8420551,0,-38.64203515,140.8594557,164.0255351,89.54300515,
488.6639997,1908,22.51214511,224.0626724,46.32813708,30.69487407,60.6154324,-2.118E-07,-99.70087504,51.05707883,33.88158665,-12.97589454,53.709327,0,69.61473416,-134.3730006,-63.75004184,-62.71506555,
488.6719997,1908,-88.30092478,275.605794,-39.37831379,-8.981724159,15.75548668,-2.102E-07,239.6998569,9.718244067,0.474897659,1.378039831,-46.83851415,0,24.34469163,3.583314386,49.39409001,22.81870942,
488.6799997,1908,13.50055968,265.7959598,20.6993242,2.851546705,31.36969189,-2.082E-07,-179.3256763,9.654298409,120.6793254,-0.259031263,171.4056138,0,-9.705366483,79.82289882,103.2061735,45.92955807,
488.6879997,1908,-43.51456155,227.1132839,9.333543439,24.66749434,56.65159949,-2.063E-07,156.5875563,47.84082691,-42.11605824,-15.45955683,-67.69466249,0,89.89790255,-168.3649652,-96.88271674,-78.77231045,
488.6959997,1908,-53.83210427,305.1341779,-21.67192199,-15.23946407,5.834325089,-2.044E-07,55.37275587,-11.02554813,107.465789,10.25874906,116.9570068,0,-27.78741493,170.6939409,188.3718655,111.9838023,
488.7039997,1909,20.44877601,219.0064034,46.70056438,36.15773479,62.72408483,-2.025E-07,-105.3875469,46.72605241,32.99685219,-18.81584483,61.76345389,0,69.86259509,-126.6337405,-70.57587698,-65.26626092,
488.7119997,1909,-81.88981193,280.3817671,-32.51634327,7.237932164,17.84732828,-2.006E-07,262.0215112,15.95259126,-2.852176416,1.178339748,-60.94247589,0,31.57695501,4.969603986,45.688122,24.90910534,
488.7199997,1909,26.11535126,271.0410398,33.85952557,17.63520367,31.69985505,-1.987E-07,-188.9370312,13.84207109,134.324633,9.297683102,165.4551629,0,3.428224431,78.08628393,117.6971991,55.73201699,
488.7279997,1909,-31.00848883,231.7356306,18.29381032,41.32667617,53.75616817,-1.968E-07,164.9111294,56.27724178,-38.96114034,-9.295175418,-82.13204895,0,94.31621982,-184.2222921,-89.19229609,-78.40077248,
488.7359997,1909,-42.82391701,306.9752322,-22.18737789,-3.223765684,-5.588603002,-0.000000195,50.48694287,-6.290254389,108.0502971,12.99818694,106.2413538,0,-33.70581357,161.9131437,202.3045416,113.0351938,
488.7439997,1909,27.88856314,218.1210006,46.09480234,42.19734143,57.68794734,-1.932E-07,-117.1038759,49.2605588,31.79024734,-19.14459692,56.77056198,0,68.6001579,-142.3736691,-58.28126227,-71.9174397,
488.7519997,1909,-69.89946916,287.9945829,-25.58053339,22.06539534,23.78566117,-1.913E-07,281.887467,30.92417408,-2.467156486,5.768108967,-57.02118244,0,30.99864456,-1.053479752,60.91260084,24.23727945,
488.7599997,1909,31.82954233,269.4641731,31.74926517,26.57288171,30.71978148,-1.895E-07,-181.6881122,21.97007219,136.9541644,13.30122225,172.8576782,0,1.711649582,86.27608825,130.0223306,60.50159813,
488.7679997,1909,-35.74271648,220.0418643,3.712790056,33.64163775,44.83402085,-1.877E-07,156.6923422,50.97959328,-48.12756537,-21.04608803,-82.44945082,0,86.58141699,-190.2959551,-95.30871404,-92.01732699,
488.7759997,1909,-36.72745321,307.6402198,-26.81050016,-4.492704838,-12.66903622,-1.859E-07,53.55646192,-2.792179085,99.75209434,6.511478704,101.4578005,0,-41.75144929,152.5786266,193.491383,99.63545201,
488.7839997,1909,30.95254016,214.7709339,39.16418304,36.02708876,43.63295046,-1.842E-07,-123.5075654,51.35907827,25.09233274,-17.75455737,41.41808938,0,64.81051177,-153.2286469,-67.06928556,-78.19965346,
488.7919997,1909,-79.80212879,272.3589379,-43.19375409,-0.514505393,2.241811658,-1.824E-07,264.4515593,20.28083771,-18.89900426,-4.237135569,-79.09286206,0,24.97908372,-17.68910612,49.0120343,9.364647104,
488.7999997,1909,34.28600951,262.6963441,27.86538428,15.7742161,15.82419588,-1.807E-07,-186.9121591,21.87140739,125.0441637,2.622739004,155.8675515,0,-3.642952617,73.72438432,128.4611822,45.94091231,
488.8079997,1909,-26.93764268,215.5977618,5.970775941,29.89246791,38.87411716,-1.789E-07,159.9241623,61.82544791,-54.48621279,-23.32469925,-98.09437827,0,85.76974165,-201.5321414,-88.65981459,-94.85238614,
488.8159997,1909,-38.0418907,297.5484144,-31.80475835,-19.2891858,-16.63437091,-1.772E-07,57.30046279,-4.08415052,93.85261365,5.970530623,94.73799528,0,-38.76540781,154.8705794,205.2487978,105.9713316,
488.8239997,1909,26.25463647,204.765849,31.779976,17.44899641,34.55968344,-1.755E-07,-132.6848434,36.86975045,21.03738141,-27.35569562,53.4878668,0,58.28155732,-151.0397476,-56.60102013,-80.10664533,
488.8319997,1909,-77.96215204,270.5259028,-46.28114423,-6.931625841,-1.507395966,6.46E-08,258.2140706,15.90842833,-23.18761575,-16.21043129,-58.68886714,0,10.90330358,-26.84667671,52.45863452,5.130447231,
488.8399997,1909,40.85702242,267.2986694,28.24778276,21.23775305,17.57543567,2.912E-07,-187.7006896,24.14583118,123.6184552,-0.328540649,183.762664,0,-14.50342058,77.94337157,132.2066796,54.46891528,
488.8479997,1909,-34.16698515,211.0646234,-6.588529309,26.80199118,31.10157143,2.186E-07,142.6374568,44.04704952,-60.06215699,-25.84393641,-78.11021902,0,76.08229124,-195.5153707,-94.00401315,-90.35136917,
488.8559997,1909,-45.23457353,296.9100168,-41.30660254,-15.79451096,-16.96101523,2.228E-07,47.80400996,-14.68002291,87.20381323,3.63785358,98.63461399,0,-45.15306898,147.4680968,198.4395297,107.9466923,
488.8639997,1909,44.51367496,220.168969,48.28882089,47.84616929,58.16001469,0.000000235,-124.0446678,58.84490687,23.42576014,-23.68840239,54.20658127,0,62.29236352,-161.3256678,-51.23556388,-65.61468657,
488.8719997,1909,-65.21922993,282.8048152,-33.83408502,13.50573207,19.69975738,2.162E-07,274.2680492,27.94981096,-20.02726293,-6.554816014,-74.46678561,0,28.70824553,-30.57004073,63.68883584,30.25131726,
488.8799997,1909,39.00046884,271.6951813,27.71933088,22.93592072,22.12612816,2.275E-07,-180.1198142,17.78946038,127.6721505,9.24050563,169.274869,0,-0.627076319,72.34465544,147.8884432,73.45016711,
488.8879997,1909,-16.72681109,223.6813769,9.301926026,50.49855692,46.81792892,2.165E-07,150.3829482,61.59102643,-51.3640003,-17.57336819,-80.37451244,0,88.92807359,-208.4480376,-82.36216039,-84.66184481,
488.8959997,1909,-23.88400162,313.3808567,-24.59930085,12.39699632,1.871081835,0.00000022,74.33214202,10.90057069,101.3064848,18.96186007,88.60718247,0,-19.28976279,153.7823193,216.8604009,124.0284231,
488.9039997,1909,49.705207,222.5887705,47.64327428,53.08716885,57.62836987,2.149E-07,-109.737971,64.94453056,35.48950729,-13.16208308,46.12163458,0,77.32111637,-148.5019123,-32.18167865,-52.89587687,
488.9119997,1909,-62.32853415,278.8578197,-35.29203909,17.19287826,22.13895706,2.146E-07,281.9450029,35.6626153,-19.56176335,-7.364811124,-79.71406093,0,28.01488732,-31.63075669,63.0560186,21.98603955,
488.9199997,1909,40.32943986,267.9614399,26.3540595,22.03447263,27.68964399,2.118E-07,-170.759088,23.25653202,127.9843148,4.668036943,171.0077502,0,-1.323807891,73.54997545,147.2170805,74.43255515,
488.9279997,1909,-19.97492188,213.3317171,4.400291772,32.9233259,42.35193531,2.102E-07,141.8848654,49.90311635,-55.22197982,-34.4816245,-73.05918701,0,83.25718534,-223.1721994,-92.43037005,-82.36746874,
488.9359997,1909,-22.85627685,306.4072303,-26.06691551,-1.92839309,2.191564369,2.082E-07,64.57141088,-0.743562592,92.58293173,-1.381326854,93.19656417,0,-30.90690935,130.6176727,193.9660266,114.4678687,
488.9439997,1909,47.98808675,218.0686098,44.81102217,47.40497243,57.67434482,2.063E-07,-123.0455395,52.54638805,29.91016027,-20.28795434,59.23532416,0,67.13475021,-158.2312643,-50.16665303,-56.38997661,
488.9519997,1909,-74.49827723,268.031233,-44.79288015,9.258219914,13.97841853,2.044E-07,264.6044655,15.98905913,-33.79367798,-13.29565851,-68.22741397,0,16.02670963,-43.17013927,40.69534694,21.37581044,
488.9599997,1910,39.96355118,263.1410469,21.56984069,24.33203546,32.71440485,2.025E-07,-178.3468401,16.10694564,117.1681668,-0.105565853,163.0845965,0,-6.814047678,72.39935863,128.2070252,74.26761003,
488.9679997,1910,-19.75599255,210.0059397,-0.195934284,40.30320624,53.27853767,2.006E-07,142.1242222,49.11649294,-60.17002282,-28.20322747,-98.59981944,0,87.63195113,-210.1074074,-100.6761544,-78.58379962,
488.9759997,1910,-38.44420954,297.4344267,-37.50994811,-5.333131616,2.04566813,1.987E-07,69.644942,-7.135287703,80.8682923,2.187189436,73.89704004,0,-36.48786919,145.0237937,195.9074079,120.6881203,
488.9839997,1910,48.95276768,216.4588991,44.11535007,49.96632126,60.38155154,1.968E-07,-123.1573091,55.04426904,26.10456465,-19.41194375,50.87578675,0,64.94675844,-143.5471555,-44.09395332,-49.71437652,
488.9919997,1910,-61.27097166,273.2564223,-37.2219571,18.67889734,18.08069064,0.000000195,267.3623241,21.183523,-28.07212338,-2.089207147,-82.89404243,0,27.17388959,-31.79637404,42.66112536,27.37635838,
488.9999997,1910,39.80629769,267.0036047,24.68337598,28.37006689,32.96538724,1.932E-07,-175.1741073,16.17277784,121.8128254,10.76410441,165.0801645,0,-6.086424152,81.51929461,137.6214647,80.30525489,
489.0079997,1910,-24.3148049,208.2713675,-0.24329235,38.98917783,47.12774175,1.913E-07,132.7390872,46.79307379,-59.15408308,-22.49761974,-71.6143584,0,82.93011845,-201.8267816,-93.7268218,-76.30354984,
489.0159997,1910,-45.56187333,286.4389452,-46.03490751,-19.85898621,-17.7176429,1.895E-07,53.50316969,-21.94303765,78.82162809,6.646593727,99.3725929,0,-41.09508755,153.306981,188.7701579,117.7785298,
489.0239997,1910,31.91562492,197.7610533,29.71497515,27.68291948,39.92087182,1.877E-07,-143.3007561,37.58133887,16.83306039,-24.8904209,70.44996347,0,55.06398234,-148.4051015,-58.55487219,-60.61774608,
489.0319997,1910,-84.96283669,252.7882149,-53.47412945,-3.831886173,-3.754803451,1.859E-07,255.1136205,11.30798785,-50.95865881,-19.89302823,-69.46415014,0,11.39376255,-46.24694088,23.44209157,11.35344851,
489.0399997,1910,79.50388187,247.9854463,42.51049833,3.323372341,10.89735722,1.842E-07,-448.8034287,0.642848911,186.5305981,-2.998372067,313.8917161,0,-53.06664362,146.3116372,175.8422041,98.14387065,
489.0479997,1910,93.6925787,163.4938618,78.37623258,45.05686924,63.05221411,1.824E-07,-378.3263674,57.80849879,45.43097698,-36.8226194,147.1325193,0,64.54458309,-208.0777924,-111.07239,-102.7955116,
489.0559997,1910,-59.46525572,252.184049,-38.32732035,-5.482063699,0.308874143,1.807E-07,133.8316501,6.053656725,-9.961451571,-17.0100058,-8.098329513,0,-1.362018308,-11.48878893,53.52999521,25.28784354,
489.0639997,1910,-39.8494777,234.2420414,-22.40853979,0.434048601,13.98467044,1.789E-07,51.5808702,7.76018847,-2.051971013,-20.52096262,8.593778918,0,9.917487095,-44.14708078,29.13958118,0.307373122,
489.0719997,1910,-33.02820558,231.4378169,-23.09674991,-5.006088533,3.104371755,1.772E-07,-29.10663003,-4.839938569,25.51688024,-21.10785208,52.05285694,0,-10.48039275,-3.350736181,56.61391127,17.66198578,
489.0799997,1910,-43.21206668,206.0938664,-30.2391439,-9.404088564,-8.554112227,1.755E-07,-31.66005875,-7.049056632,-8.979044634,-38.4271549,16.22668677,0,-4.819612337,-82.09188796,-4.023458272,-25.43344523,
489.0879997,1910,-85.56038826,213.9748168,-64.20216178,-25.56101152,-27.36520967,-6.46E-08,98.72375499,-22.96218865,-46.38809895,-52.31897702,-42.3886411,0,-23.67714875,-91.73562712,-9.133340996,-29.54957783,
489.0959997,1910,-22.70681913,222.1583875,-26.54110175,-13.75677964,-18.24431403,-2.912E-07,-140.2142607,-15.33407474,52.72580861,-42.62386109,109.9063367,0,-50.18102547,6.962006573,59.63264452,15.78509845,
489.1039997,1910,-76.81637123,175.304047,-43.18430641,-3.832087726,-13.14886814,-2.186E-07,82.51645894,13.481123,-70.07293586,-56.96394443,-63.04525244,0,14.69800891,-176.8536259,-92.52002619,-83.62545063,
489.1119997,1910,-108.5963923,211.9198111,-84.10741011,-55.38585827,-73.02218708,-2.228E-07,3.704500999,-53.40908285,13.88122971,-49.41347994,50.0093598,0,-89.26489027,64.28571819,97.38948259,40.21319081,
489.1199997,1910,-51.43942793,148.2205661,-28.94411852,-21.99723894,-29.68989752,-0.000000235,-151.620102,-12.44257305,-32.52759508,-80.48111095,18.306868,0,-26.41067205,-150.8262866,-82.10343253,-91.8022829,
489.1279997,1910,-137.8817695,187.0695769,-87.17859523,-42.39655581,-53.55063907,-2.162E-07,171.894562,-21.72524436,-90.33822672,-71.02971992,-120.4928316,0,-34.72942306,-88.93630636,-30.42145115,-45.52528194,
489.1359997,1910,-63.62477941,178.4192184,-49.53115382,-53.26219529,-55.70578549,-2.275E-07,-206.6434954,-44.72359451,41.36833927,-64.04570529,90.74216018,0,-77.0059071,36.33979472,69.94787046,5.121853599,
489.1439997,1910,-119.3755504,123.8340879,-69.91932272,-39.51972579,-39.11097809,-2.165E-07,46.34608091,-15.06424163,-123.0721946,-97.63658468,-131.326666,0,-0.782195732,-239.1418444,-152.4228165,-147.3838414,
489.1519997,1910,-143.146671,198.6015222,-110.5100803,-82.11817843,-98.21779642,-0.00000022,-4.235954213,-71.6734061,-7.009387239,-71.02816232,-0.344125439,0,-120.4052763,75.8571403,98.48994611,30.22004897,
489.1599997,1910,-79.50334554,108.9693283,-56.11768195,-50.44918136,-58.47256617,-2.149E-07,-214.3907026,-41.27018287,-56.1803333,-107.8300183,-10.23186604,0,-50.3967694,-182.7088499,-111.3312052,-128.9785517,
489.1679997,1910,-189.1479585,154.2297222,-133.898957,-76.90691656,-91.21951932,-2.146E-07,162.9615792,-64.71359554,-129.1319227,-107.8965093,-143.8913456,0,-78.61088012,-108.8198024,-55.63788799,-78.09218237,
489.1759997,1910,-89.53365891,159.2675549,-69.41729103,-69.09709141,-73.68103094,-2.118E-07,-236.0768118,-60.44111202,19.03879415,-93.31370629,95.15273529,0,-116.6808397,27.58720416,51.19896495,-11.44806252,
489.1839997,1910,-145.0106832,97.27058589,-88.15298894,-58.39172019,-55.61567202,-2.102E-07,28.07795229,-33.57773667,-155.2566627,-125.2737095,-145.4006646,0,-24.9756672,-268.2118066,-182.1676199,-173.3792754,
489.1919997,1910,-162.7051561,185.7903358,-125.9567153,-99.47436791,-108.2850649,-2.082E-07,-16.44040776,-91.85209925,-30.55759281,-90.85977085,-0.657239485,0,-143.5397927,70.09925883,89.27267952,15.81947576,
489.1999997,1910,-73.51080694,107.0457743,-49.07771857,-49.10149527,-46.12636131,-2.063E-07,-221.9600121,-34.05925837,-65.30304648,-107.5138128,-11.06441016,0,-43.96665822,-200.8244439,-124.9440427,-136.8027192,
489.2079997,1910,-195.604872,147.5917928,-145.3254667,-90.19207928,-98.9187282,-2.044E-07,165.0585206,-72.77267219,-133.8188274,-98.82567571,-172.2134663,0,-65.61949132,-117.6400966,-63.41184771,-78.85430517,
489.2159997,1911,-106.3036409,143.5475247,-99.50055878,-97.38657635,-104.3519979,-2.025E-07,-259.9488971,-87.91414876,9.758647424,-99.45016447,79.68894659,0,-125.8204678,23.50118352,36.49950304,-27.24605641,
489.2239997,1911,-160.8987969,84.07941332,-117.8535293,-87.98817837,-83.98782843,-2.006E-07,17.56835279,-56.18804965,-165.9412515,-141.8146784,-144.6761692,0,-35.42472517,-284.0501979,-205.9403256,-196.0019569,
489.2319997,1911,-185.6622217,171.3079723,-158.626057,-139.0575957,-137.5418504,-1.987E-07,-26.19058787,-119.8163153,-38.98614154,-115.3984186,-3.724663992,0,-149.9902995,52.54389941,64.45252997,-1.937310332,
489.2399997,1911,-85.46410226,96.88169361,-62.8795123,-75.09463178,-61.66722529,-1.968E-07,-234.5294572,-45.55232539,-77.34002833,-136.3389294,-22.37448875,0,-52.05231465,-212.4233847,-157.8401529,-157.7694769,
489.2479997,1911,-193.9814775,152.030167,-139.1923057,-97.75662596,-98.00332531,-0.000000195,171.0654646,-66.93806597,-138.782656,-108.8806199,-187.5016128,0,-64.70256552,-118.2310105,-83.8715551,-81.24562033,
489.2559997,1911,-112.540252,143.7722153,-104.4466565,-113.0605124,-116.3565413,-1.932E-07,-274.7768779,-100.9611258,9.485163854,-101.196071,71.5454425,0,-129.7761126,14.40073355,24.63391878,-19.99448438,
489.2639997,1911,-158.3800978,86.51799707,-116.8822729,-88.72630735,-92.28850461,-1.913E-07,4.169891673,-59.91429653,-172.517515,-144.3328124,-154.0263966,0,-48.14080114,-297.1923698,-228.7617604,-197.3062151,
489.2719997,1911,-181.3711013,178.6702092,-154.2638946,-132.4945216,-143.8086718,-1.895E-07,-24.08575794,-121.6296624,-44.6431644,-106.0558807,-17.84790503,0,-153.8692296,58.79393121,49.96823004,6.095114904,
489.2799997,1911,-99.18094787,93.47939739,-74.28774486,-88.20178956,-87.23351249,-1.877E-07,-251.3302209,-72.36908012,-83.04187155,-129.2051232,-20.15553038,0,-63.13245903,-212.1114263,-168.5818422,-153.7470633,
489.2879997,1911,-207.9057546,145.7202102,-150.0264482,-111.5090756,-116.7204422,-1.859E-07,159.5073119,-87.35265617,-152.795341,-117.3847587,-173.2099881,0,-90.11325384,-139.8713507,-106.2240166,-97.52238141,
489.2959997,1911,-104.8051003,149.6691737,-96.97042948,-112.2776387,-105.4787999,-1.842E-07,-263.3096593,-95.02026647,0.863545578,-106.0462841,73.06323995,0,-134.9541004,7.627452598,12.84461499,-26.79234661,
489.3039997,1911,-128.7699675,106.0583727,-81.72215535,-70.17506252,-57.97622894,-1.824E-07,36.9330737,-28.00766904,-160.115217,-122.1115048,-174.5148662,0,-12.55302536,-281.128552,-221.6263212,-172.998967,
489.3119997,1911,-167.8915914,188.8168661,-127.9958957,-131.8683456,-120.7814529,-1.807E-07,2.307797547,-104.2955898,-23.67478293,-76.56841735,-37.25178819,0,-112.4490429,78.08865858,73.92965012,42.20225076,
489.3199997,1911,-100.8210168,92.07500546,-73.86318505,-114.9358868,-81.10941794,-1.789E-07,-257.2298217,-81.76432084,-76.0768029,-126.8276307,-16.54257227,0,-49.93734209,-206.4239468,-152.0514798,-141.4235811,
489.3279997,1911,-183.7847009,161.1478513,-124.5011946,-109.4411456,-93.7585908,-1.772E-07,174.3810238,-71.3314719,-144.3400465,-112.790778,-167.2933702,0,-69.51995218,-130.7431152,-104.7442423,-89.51117531,
489.3359997,1911,-76.53471584,169.4408048,-54.75806171,-93.89755283,-77.5796678,-1.755E-07,-232.6711717,-70.34218528,28.06519501,-77.47124488,73.04508063,0,-91.30049121,34.90559147,36.66730457,7.469533046,
489.3439997,1911,-128.2515157,107.9418254,-75.89197,-76.08902582,-50.8037249,6.46E-08,36.90771856,-34.49311112,-148.2459766,-110.8981247,-162.5677308,0,0.772455454,-273.452253,-198.1945641,-152.2486569,
489.3519997,1911,-158.2823377,199.3151206,-128.8043645,-121.5368171,-111.16513,2.912E-07,11.18232142,-97.32111611,-25.5916396,-76.26076247,-11.54162648,0,-125.5008383,81.23291265,76.32548619,47.88809109,
489.3599997,1911,-71.07579928,115.0226404,-54.54594545,-80.07223195,-57.12833374,2.186E-07,-228.3061522,-49.51687039,-63.21447838,-107.2574191,12.33466116,0,-44.41106518,-185.9561051,-137.6772335,-115.5700667,
489.3679997,1911,-172.4951373,175.9650126,-117.4498718,-91.2777605,-73.00365111,2.228E-07,198.1975651,-52.84738855,-134.9927391,-92.07630566,-141.3920156,0,-57.36132448,-113.6977559,-81.99176371,-56.04790871,
489.3759997,1911,-62.36617636,193.4695756,-45.52013685,-76.53154075,-60.83305141,0.000000235,-209.2256347,-50.85696595,32.53202374,-58.42884421,105.3641505,0,-84.80872181,53.30074943,50.30380656,35.5100694,
489.3839997,1911,-89.07092707,144.0471595,-39.25840478,-40.52057883,-27.07801705,2.162E-07,74.24480938,2.383084292,-130.4933319,-77.70517217,-127.8625904,0,19.70409717,-254.0447459,-184.6563889,-127.2058056,
489.3919997,1911,-125.7316341,228.7790887,-83.15520944,-83.45621844,-75.41707426,2.275E-07,61.75581457,-55.83598372,2.791351153,-30.67388292,11.28647787,0,-88.00887899,108.0322154,108.4144968,84.6057418,
489.3999997,1911,-44.15519421,139.0214865,-10.90364086,-45.28272136,-20.97820687,2.165E-07,-183.6749596,-8.717885097,-31.29741525,-59.9331769,21.77685124,0,3.327453851,-152.8221278,-92.6177469,-68.8480198,
489.4079997,1911,-150.2983368,189.9200942,-89.93243082,-71.98824763,-62.27268673,0.00000022,230.9928261,-30.74871004,-108.2719699,-58.79465864,-140.9677835,0,-24.42616565,-95.72262739,-41.62496484,-27.61809746,
489.4159997,1911,-61.53115688,191.6152359,-41.51516581,-75.12518445,-64.32922581,2.149E-07,-195.767686,-47.62517684,54.87013582,-40.62666449,119.8523526,0,-75.45727966,68.96514682,85.82853303,51.06769066,
489.4239997,1911,-92.23568596,135.477176,-41.4058469,-39.88820094,-19.07377771,2.146E-07,75.46798896,6.462500634,-113.0604476,-67.85542647,-104.5151285,0,30.75423642,-235.7333456,-163.2200777,-113.2523804,
489.4319997,1911,-120.3614706,225.3659424,-90.20265875,-86.91564868,-76.16939897,2.118E-07,55.273989,-62.15963515,8.449686687,-34.56605165,24.42671384,0,-91.65211426,116.715703,111.2070091,81.29674657,
489.4399997,1911,-34.58466011,144.5757436,-15.48804187,-46.82029198,-24.10749777,2.102E-07,-200.6917283,-13.14234723,-24.00696087,-63.36473596,43.95280333,0,-13.69363292,-146.1463626,-95.92786909,-77.57542378,
489.4479997,1911,-131.3885601,205.0772037,-78.446789,-55.23014701,-41.65175758,2.082E-07,232.7505917,-13.11589691,-93.90206751,-48.48311825,-110.7223923,0,-16.19380747,-83.68730625,-39.91391041,-19.86520208,
489.4559997,1911,-38.37548466,212.336548,-28.45146496,-55.37201015,-43.91522857,2.063E-07,-194.5457637,-41.97566641,68.7505721,-29.36937027,144.2030658,0,-64.29658634,85.19516471,95.90224162,61.46174721,
489.4639997,1911,-66.75151392,161.5013296,-24.38959834,-17.66490758,-1.632244515,2.044E-07,72.01560842,9.373851805,-97.12317395,-53.31766295,-78.17321743,0,39.14718499,-222.670137,-148.0395818,-105.456533,
489.4719997,1912,-74.63790945,271.1224706,-49.48754235,-39.73783256,-35.16083088,2.025E-07,83.5461196,-26.34475205,36.4334744,-2.202171876,54.24265805,0,-58.52304018,139.1537051,142.7665908,108.4993582,
489.4799997,1912,10.11931277,185.0101358,22.65888453,-0.831569821,16.96727988,2.006E-07,-180.395244,12.11612497,13.43009394,-22.54740064,66.46032449,0,27.40627635,-117.8142798,-56.8284949,-42.79127065,
489.4879997,1912,-100.2046454,226.2906484,-54.87511663,-23.23488853,-14.36291617,1.987E-07,244.4883768,-1.736298043,-64.0867641,-16.76473525,-98.68671247,0,14.65719006,-69.0357042,-14.40047756,-0.299689334,
489.4959997,1912,-1.866081274,235.5912848,1.476563464,-19.90466797,-12.07382433,1.968E-07,-172.267528,-13.33578622,94.11467252,-0.227290738,147.5524393,0,-33.84042489,109.2423134,120.3653277,81.58504101,
489.5039997,1912,-55.65082989,164.0101165,-15.91856006,-9.773815562,13.04021075,0.000000195,70.66438602,13.43499833,-83.7596894,-38.2834435,-83.40574706,0,52.41838552,-207.5489292,-133.29504,-94.92878861,
489.5119997,1912,-141.6488203,302.3419941,-108.8680204,-80.67481921,-75.44015188,1.932E-07,241.9134982,-69.87569707,42.69846922,2.322705806,32.3997153,0,-117.5737626,268.7949653,252.3881299,184.1769033,
489.5199997,1912,-12.50242558,221.9827345,-7.037446533,-31.57629267,-28.29530352,1.913E-07,-166.3108054,-23.19131048,73.14569333,-17.14020776,133.1965289,0,-46.44964704,73.22731834,95.85301745,58.76587554,
489.5279997,1912,-46.09423429,141.8198658,-7.819658284,-2.313813732,5.984901819,1.895E-07,37.95554187,17.7950993,-97.26200616,-51.42014112,-96.2816294,0,59.71371684,-267.8947301,-172.0777989,-126.5692086,
489.5359997,1912,-74.02534828,223.5047918,-51.09983487,-38.18025528,-38.30329728,1.877E-07,45.97207884,-38.51719716,7.638271978,-20.38487865,14.26088061,0,-51.33606472,42.54688898,77.79724083,51.79777563,
489.5439997,1912,-35.29240775,196.3479779,-17.43390222,-18.04489207,-21.73897415,1.859E-07,-55.41538806,-18.83122736,-1.227643316,-26.90697538,18.62674995,0,-22.56317014,-40.85555289,4.14398922,-4.26891196,
489.5519997,1912,-40.96221132,167.7841822,-10.89405166,-7.406991952,-12.52814065,1.842E-07,-19.67689167,-2.283453868,-51.22379693,-39.32409555,-43.22510349,0,8.351788782,-142.2571706,-82.78191469,-66.00867693,
489.5599997,1912,-83.08842695,205.9123003,-53.67605623,-33.69108655,-43.86012118,1.824E-07,73.54930129,-39.06131309,-27.47621415,-29.03297699,-40.27018172,0,-44.61361063,-9.306321702,26.54680577,11.44099817,
489.5679997,1912,-25.44422035,185.3752323,-15.23627842,-17.26101574,-30.47277207,1.807E-07,-118.2006655,-27.83412986,7.915849275,-33.18793201,31.70596789,0,-33.34234527,-52.55856301,-1.031373687,-15.3822486,
489.5759997,1912,-61.17217877,167.3490079,-25.69311489,-13.63219999,-28.36156883,1.789E-07,29.73629286,-18.47933505,-63.69697436,-44.56132273,-63.33844251,0,-2.906963171,-145.1349288,-74.08863744,-63.74947024,
489.5839997,1912,-86.55363929,212.2387123,-49.10731932,-39.80687135,-55.75843421,1.772E-07,19.36676591,-54.18890104,-5.137723656,-32.64400831,10.62602521,0,-72.1531075,51.9621405,78.00135216,37.47322177,
489.5919997,1912,-8.676265138,169.0574,17.09190474,2.561506963,-14.54657718,1.755E-07,-150.504739,-1.573683245,-28.34077613,-41.80660347,9.912321665,0,-6.723832963,-123.5208596,-74.61034821,-73.11479207,
489.5999997,1912,-95.10252755,206.7635503,-47.45168417,-25.68956082,-48.08732726,-6.46E-08,166.7556342,-20.62963244,-77.66975213,-27.35971235,-103.7880901,0,-24.61201449,-57.72321751,-23.90251715,-22.46240636,
489.6079997,1912,-21.23478226,208.1031421,-2.575294097,-23.15015411,-33.15439716,-2.912E-07,-165.1671419,-27.58205027,40.25548524,-22.35145378,94.16560073,0,-61.66596984,51.98694346,71.44943072,32.83387335,
489.6159997,1912,-33.04549825,170.9029614,6.574172359,11.24808276,-1.339826274,-2.186E-07,39.67271397,19.53236339,-87.39278379,-36.42833385,-95.45701881,0,31.22689019,-195.1274846,-121.9358119,-93.76298835,
489.6239997,1912,-68.29275916,243.6696778,-37.01849114,-27.92442866,-54.22432254,-2.228E-07,65.46792698,-35.16718652,13.18672494,-2.447996021,-1.32765947,0,-63.98888985,98.14243125,118.2736663,74.74038354,
489.6319997,1912,26.2032159,180.5620901,50.08356465,25.49085943,8.262012703,-0.000000235,-179.4881852,20.01588618,-6.257791871,-21.42362521,26.18283214,0,6.797316194,-113.0738311,-53.80759664,-56.91013234,
489.6399997,1912,-73.64088267,221.0244839,-19.87454827,4.96947483,-20.49552561,-2.162E-07,215.3984906,0.83515348,-81.77841217,0.624857943,-140.4487731,0,8.224506693,-75.73839401,-20.20104863,-15.35986387,
489.6479997,1912,0.096343557,220.5490564,14.54137844,-7.99682742,-32.32423803,-2.275E-07,-181.9161076,-29.59611289,71.69639216,11.95231396,101.4359102,0,-49.30985099,80.33197457,113.6220054,59.07821242,
489.6559997,1912,-18.22414202,166.0919626,24.84002772,30.85391322,11.59089225,-2.165E-07,51.47783347,31.29728666,-89.94749079,-25.67165747,-106.7063776,0,48.05152874,-223.4075906,-133.2433917,-113.2855237,
489.6639997,1912,-65.73645388,250.051939,-31.36477973,-19.45013981,-42.69938582,-0.00000022,86.71943794,-29.39240432,24.43808915,12.4175624,6.438700635,0,-52.59104345,111.8707796,139.0212981,84.49103825,
489.6719997,1912,16.28469589,171.4197559,41.51905227,13.6658578,0.498191161,-2.149E-07,-196.9357396,6.09667878,6.002374524,-16.54138027,47.07779478,0,15.33963228,-125.5532024,-49.77571139,-58.53017704,
489.6799997,1912,-75.77427539,220.8424051,-23.37992277,-0.451889575,-26.01525723,-2.146E-07,226.4601214,1.38084124,-82.68024022,-9.150547431,-129.1140409,0,10.66185229,-97.45704828,-34.09116174,-31.96947016,
489.6879997,1912,15.58392584,237.9947946,21.99362565,-2.506537479,-29.15119919,-2.118E-07,-175.5771239,-13.88880834,85.92181961,17.0512476,121.6014119,0,-44.16577684,95.85429164,113.1174131,65.99818133,
489.6959997,1912,-15.43813242,176.7753021,30.05929197,35.87046509,15.73299133,-2.102E-07,58.20577731,38.0767343,-80.7383618,-12.87912691,-90.42901526,0,58.82989891,-215.3766302,-135.881622,-98.52101336,
489.7039997,1912,-46.41755826,273.3439615,-13.34116588,3.149435343,-29.1924276,-2.082E-07,100.0218589,-13.04707776,35.03125233,23.14668343,27.50691985,0,-42.2464192,128.8358181,150.6168751,102.8933365,
489.7119997,1912,55.23792261,199.0473567,66.42562351,54.49261391,24.64494533,-2.063E-07,-178.2091355,40.2359654,18.93575503,1.31960969,55.17350882,0,35.28082357,-102.538658,-42.44804981,-39.84203472,
489.7199997,1912,-47.32874219,242.3333523,-3.967701743,42.49262732,10.12603816,-2.044E-07,261.9606988,35.32966311,-64.55220902,13.57988734,-125.4569414,0,32.56591432,-66.27732762,-12.90665132,-2.960755627,
489.7279997,1913,50.63450031,261.8907796,50.73366463,41.02815482,19.03138139,-2.025E-07,-142.1302415,19.44823863,117.4787258,38.60478317,137.4247719,0,-16.40713323,129.0336342,156.8108421,99.57202156,
489.7359997,1913,12.37668004,189.4721667,49.49736174,62.62402441,50.19817705,-2.006E-07,81.44606539,58.88224435,-53.93225302,4.231578096,-82.55391107,0,86.91664255,-201.4898751,-109.3519946,-83.30523205,
489.7439997,1913,-24.0259835,288.145211,1.515289813,23.63759441,3.144799278,-1.987E-07,126.0977077,6.029414316,60.90221906,39.55458561,40.49385916,0,-25.56151991,147.9502287,169.8083846,112.7093528,
489.7519997,1913,89.9226818,224.687978,97.20986132,81.77786797,69.89035991,-1.968E-07,-153.8856107,68.00301184,57.1755607,29.47108606,73.25215008,0,66.91028245,-62.68699148,-12.4418481,-14.15322166,
489.7599997,1913,-29.13239165,259.2658319,13.99959771,52.64191195,34.75432464,-0.000000195,275.0496991,43.10151169,-35.6008157,38.49367449,-105.6748597,0,61.03380066,-28.51006734,7.59441242,24.3226118,
489.7679997,1913,67.03035118,282.3598659,60.58327419,50.1101237,31.33393313,-1.932E-07,-134.3764605,24.9891667,133.7184714,50.96953306,178.6709444,0,-9.406825002,159.5657499,167.7735069,118.489874,
489.7759997,1913,50.7241638,224.5235499,69.44657249,87.05983458,72.62134103,-1.913E-07,95.50286004,81.40608041,-31.43836356,29.58622428,-43.50619421,0,106.0132183,-168.592961,-97.53286776,-61.64555753,
489.7839997,1913,5.626084114,312.4521329,10.93439305,40.57409141,16.68390175,-1.895E-07,140.9896141,14.12023558,85.96372013,71.12444292,71.77307332,0,-9.564098634,178.7279605,182.1294139,134.6714494,
489.7919997,1913,111.5853684,228.8384989,108.781045,103.4438833,79.51129802,-1.877E-07,-144.3614514,73.15206766,78.33730476,35.51329114,113.6840557,0,70.29783613,-55.58587872,-2.988727458,-7.31246181,
489.7999997,1913,-14.09547222,255.4169094,25.07944409,78.52042141,45.46904923,-1.859E-07,288.3169289,52.70159849,-16.71803351,31.25768295,-75.94133563,0,77.92062096,-36.82134984,16.15477611,25.38945051,
489.8079997,1913,54.68506633,264.9874755,48.79070312,56.37574083,33.04662312,-1.842E-07,-138.2647702,13.06245205,146.9831517,43.65784812,202.393214,0,0.088248091,166.460768,178.2750843,120.5220743,
489.8159997,1913,34.55884156,199.0202148,61.66266004,93.47564618,73.091808,-1.824E-07,80.49303115,70.70042785,-30.27951189,3.761289547,-16.40059669,0,100.8283015,-162.5929884,-99.43535607,-72.33981945,
489.8239997,1913,-8.953105936,290.7283119,0.593566294,40.65660046,4.298515318,-1.807E-07,131.2284656,2.571551023,81.99170387,37.90031861,88.15637049,0,-9.679248081,174.6311023,172.6587571,122.6855933,
489.8319997,1913,91.92868062,214.125562,89.07655572,90.78022789,63.83212463,-1.789E-07,-165.9050363,49.71449208,73.2242288,16.23599603,129.2982573,0,59.73104721,-59.17506996,-10.89382569,-17.00258523,
489.8399997,1913,-9.375084378,261.5259592,32.46052358,88.93926355,53.99923602,-1.772E-07,289.0661742,58.09389552,-22.83007161,25.87959854,-60.4161963,0,63.92766348,-38.142983,13.62146114,17.37311839,
489.8479997,1913,73.73938827,279.058253,62.94099172,72.91913817,37.25868257,-1.755E-07,-119.6938937,29.29992327,151.5831119,47.71677506,201.6339399,0,0.715615677,169.9716815,189.7199664,125.2212483,
489.8559997,1913,40.09749246,201.6659483,60.15639804,96.08397449,66.24966454,6.46E-08,79.85224222,68.44915618,-24.51686215,6.612701214,-27.72244177,0,97.25607503,-171.0024049,-89.72451973,-66.49577477,
489.8639997,1913,-8.889060534,293.9257222,4.903686916,44.14890032,13.99013702,2.912E-07,134.4004242,4.138200821,82.44151219,40.00066075,80.38238064,0,-14.06063366,168.6898791,183.8004253,131.2155935,
489.8719997,1913,83.589949,210.7995742,81.25846957,72.27387839,63.43658134,2.186E-07,-175.857104,41.56169174,67.79322717,9.553947967,126.2957706,0,54.93929128,-61.66524887,-0.50323062,-15.15412242,
489.8799997,1913,-33.90463923,239.6316051,3.714995195,45.33270848,31.34376871,2.228E-07,258.5288645,28.70535106,-42.98757144,2.506742943,-65.66846293,0,41.33435215,-68.31882316,-2.191605785,-4.989992968,
489.8879997,1913,52.23433015,259.3536982,46.07872441,37.98906688,22.57930978,0.000000235,-142.6344054,0.786405729,134.0095059,28.64015359,204.2444762,0,-19.04840207,138.3123761,164.655376,103.8570286,
489.8959997,1913,30.0096964,188.6886552,54.21822824,72.61078902,56.8907935,2.162E-07,62.30435981,49.3364072,-39.51235398,-7.559450657,-19.74239019,0,93.79272975,-196.6492629,-112.1352967,-82.43384932,
489.9039997,1913,-17.89345935,278.5313413,-1.212243084,26.71643129,0.818555362,2.275E-07,126.9969542,-4.250384651,64.62059206,24.30231684,76.84617037,0,-16.26152545,143.340767,163.07026,117.17542,
489.9119997,1913,86.37615044,203.2434718,87.69864679,72.44316816,60.42800627,2.165E-07,-175.6526092,48.44617695,67.1686892,7.248676974,120.7680567,0,61.13528585,-65.56947057,-11.28369997,-12.47584275,
489.9199997,1913,-20.19601431,238.4525503,16.35695374,57.19583396,35.23769049,0.00000022,262.0579061,42.85553211,-36.0585343,7.218160139,-78.59476834,0,59.40794335,-58.28167786,-5.721521033,5.625339235,
489.9279997,1913,54.51191645,251.6000841,46.33859852,36.91765564,15.27318847,2.149E-07,-146.8965342,4.482564016,133.9046257,22.06244855,187.5823873,0,-13.86514749,147.3618665,169.9596598,112.2611798,
489.9359997,1913,39.78571138,188.4816742,62.09277536,72.86679915,65.11505633,2.146E-07,60.02939754,60.42602946,-37.69425265,-12.76656211,-24.47394053,0,93.31335181,-193.5187013,-110.1027201,-76.52325542,
489.9439997,1913,10.58652696,294.5415319,22.33122656,36.74054842,29.36213085,2.118E-07,144.3025679,19.58244735,74.74492037,37.63542953,71.79269232,0,-3.722493761,154.1651824,168.3347763,132.7322535,
489.9519997,1913,101.6830531,206.9203201,96.98134957,57.64005273,68.24239174,2.102E-07,-172.9413154,52.22206868,73.44226312,18.92874792,115.6925406,0,67.18810721,-61.05142333,1.735642707,5.682190703,
489.9599997,1913,-17.9098775,231.0735015,18.56784372,25.31220825,41.75260644,2.082E-07,267.6108746,41.36600155,-41.8052285,8.038086208,-83.72324411,0,59.92835696,-73.53803755,-7.094291654,10.87881716,
489.9679997,1913,59.26147033,250.1295404,52.81346656,6.646192539,24.72035257,2.063E-07,-131.3351509,8.991984701,133.2033854,28.3374417,185.1240704,0,-6.957757963,142.3126244,171.1665111,119.810563,
489.9759997,1913,39.03680957,180.553704,61.26913141,36.69263367,50.99451122,2.044E-07,55.35015873,51.81579131,-39.86593605,-12.04702706,-26.73088142,0,91.01667181,-205.3839542,-106.8774033,-77.03836119,
489.9839997,1914,3.582513695,289.2831203,21.36494217,9.685002119,18.93250249,2.025E-07,146.7085857,10.10271883,67.1951303,32.79032609,63.1209906,0,-11.04323264,141.9030626,161.9165082,124.9368972,
489.9919997,1914,94.35465982,207.77279,98.07316584,45.98843446,66.40234728,2.006E-07,-171.1615699,43.36227991,75.79611989,22.36978757,120.9403897,0,66.87720304,-52.67154906,-2.247080673,4.929094475,
489.9999997,1914,-18.59812415,229.9485627,20.06784811,23.5241513,31.30263148,1.987E-07,259.7948349,29.01603443,-44.87555589,7.912514518,-73.1981092,0,56.81559452,-76.67732886,-16.46712058,0.898448461,
490.0079997,1914,71.92308465,261.2063729,64.17793744,22.58161377,26.51952878,1.968E-07,-132.2714702,9.347603268,132.0585127,34.89430192,180.8046026,0,-3.562937807,152.8854654,162.9093528,117.001879,
490.0159997,1914,43.20222066,185.5773829,68.80608818,49.63176169,57.79987352,0.000000195,48.00955123,50.96695695,-26.90069567,6.206461396,-36.58332547,0,107.8748231,-166.6374308,-106.4864699,-65.58824436,
490.0239997,1914,-6.337865444,275.7605598,12.68331684,6.743522637,8.409027857,1.932E-07,130.6608372,0.25496976,66.1194973,26.03781597,66.58016233,0,-15.18838658,162.0089295,159.0111407,118.6554426,
490.0319997,1914,101.5116358,204.845113,95.8281689,58.84320723,65.58818135,1.913E-07,-184.2025285,47.61155214,70.75281658,5.640315607,128.0604722,0,58.77876078,-41.65475324,-7.10595826,-5.440473253,
490.0399997,1914,-8.688049626,233.5950403,21.59332961,42.82055814,41.61318916,1.895E-07,256.3688995,35.57429758,-35.052514,8.970091265,-82.41027958,0,67.82070579,-49.74826789,-18.89544102,2.024404063,
490.0479997,1914,65.36959855,251.2334551,53.33784848,22.67272879,26.27456284,1.877E-07,-146.0186905,5.647033788,134.4611831,26.65405879,181.2958916,0,-16.68544879,171.690788,157.8897654,103.0487574,
490.0559997,1914,45.46621123,173.468353,66.17722558,59.3277811,64.35133063,1.859E-07,32.95838673,57.69999469,-34.58413479,-6.214893977,-38.24941308,0,92.30703889,-169.9003673,-120.0469332,-89.23315121,
490.0639997,1914,-3.190723354,267.8168936,16.06659353,23.21016727,15.46187613,1.842E-07,132.2652327,6.741090013,63.41555261,28.64908354,34.54076495,0,-4.437694415,162.8812004,150.8103023,109.5235068,
490.0719997,1914,88.00095117,187.912715,85.56623248,52.50303642,50.62653421,1.824E-07,-202.0920368,37.18300739,62.73584595,2.330594995,99.6937121,0,55.35860333,-41.86462547,-10.55882497,-18.58000626,
490.0799997,1914,-17.39373341,217.0775303,14.78920477,40.48109261,27.28808477,1.807E-07,238.1037216,35.04772534,-54.21310898,-1.892944028,-105.8643567,0,56.01498799,-69.47358986,-32.61834801,-17.36298825,
490.0879997,1914,64.47232341,243.9630119,57.68581067,33.01866445,22.7093739,1.789E-07,-138.9288672,16.07800317,129.5575954,31.16001486,153.7695392,0,-6.653065472,170.6664586,157.2748208,111.605778,
490.0959997,1914,41.15370041,163.9856468,66.74095064,60.0178532,53.5082548,1.772E-07,35.21552951,59.03092873,-35.24175138,-4.406752508,-45.67030296,0,97.59182316,-162.8791728,-113.8277591,-79.43566345,
490.1039997,1914,1.4019688,267.1913181,21.96911937,29.87185852,14.57048887,1.755E-07,139.133777,17.1706914,55.1190452,23.36189754,33.6109218,0,-10.47744898,164.7848966,148.8007437,106.5979506,
490.1119997,1914,96.49809224,194.5813651,99.13588257,66.52047726,64.50609086,-6.46E-08,-181.5550953,60.0088138,69.38843302,14.56326151,88.90651476,0,66.7003134,-7.313785285,-0.432860369,-2.291153881,
490.1199997,1914,-19.58890047,215.2705048,18.38250042,44.58738285,27.29692813,-2.912E-07,257.1081355,49.59638866,-51.17469607,7.428693539,-113.0620555,0,67.86471485,-30.28523357,-18.92603465,-3.87399412,
490.1279997,1914,59.6123738,240.4563812,52.09099433,33.3518513,15.97906243,-2.186E-07,-132.3349697,18.309976,118.9213096,26.24865683,146.1324534,0,-6.824176107,190.6793283,165.4952035,108.6208215,
490.1359997,1914,35.8798791,160.9799737,55.59195173,58.06964067,53.61536301,-2.228E-07,36.67134705,57.40125229,-45.48903217,-7.599710872,-69.26751059,0,99.96470385,-147.9503978,-116.4018173,-86.08335895,
490.1439997,1914,-4.79103503,263.505466,7.536705038,26.31597316,7.808902878,-0.000000235,148.8222689,18.40468623,46.93508635,24.70783082,3.44397956,0,-8.346715074,175.5135209,136.4567231,103.7322483,
490.1519997,1914,83.34319521,181.048948,83.05765909,55.70593503,44.14598743,-2.162E-07,-188.4611484,50.79388545,62.12214237,9.020546704,66.53319943,0,58.03469825,-11.52511641,-12.67791228,-4.8119691,
490.1599997,1914,-44.34015355,194.0476891,0.929239641,18.41452655,6.203177972,-2.275E-07,241.8015572,27.15762217,-67.75884677,-7.022660303,-140.2356423,0,49.28419094,-50.67900386,-43.68997423,-13.7066557,
490.1679997,1914,41.007151,229.7329684,43.54867724,6.416237731,1.282186203,-2.165E-07,-136.1091369,2.553143923,102.4378451,18.18514271,112.4530737,0,-22.9455407,178.7317073,136.0758435,108.5849089,
490.1759997,1914,12.23847465,142.4328803,42.78204114,22.14024533,29.4133398,-0.00000022,17.9846079,36.42661141,-60.19470588,-16.46379592,-94.89767623,0,82.18992665,-150.0939347,-137.6170213,-83.43145742,
490.1839997,1914,-45.97170727,232.5400499,-18.99482741,-27.62318349,-26.00414871,-2.149E-07,120.4239785,-18.14444256,19.57621395,4.437044797,-12.92579255,0,-40.88972177,168.7851349,117.1541955,92.93645844,
490.1919997,1914,58.01963004,164.9688774,71.21080388,14.70015528,27.05275887,-2.146E-07,-207.3401482,28.90018828,34.24185402,-10.73429116,49.21346003,0,29.54045306,-25.90815088,-32.186604,-17.21723563,
490.1999997,1914,-137.1268091,188.1569937,-58.05921322,-28.76437454,-21.77559112,-2.118E-07,482.0467502,-0.066712955,-171.6991666,-33.11392127,-295.4579859,0,29.80215709,-91.19578788,-86.28427296,-37.13777449,
490.2079997,1914,-64.52634421,244.6719198,-38.78726675,-59.844075,-48.95173581,-2.102E-07,43.27156666,-51.3133659,45.72293744,-4.151518528,32.76504097,0,-104.7345472,269.1779412,189.9005892,143.9740666,
490.2159997,1914,69.85647897,114.7312333,84.64044775,17.4598417,45.6974913,-2.082E-07,-305.5583607,44.0682359,-0.500390513,-25.86058974,33.09793839,0,51.19938357,-135.5396307,-138.4175393,-94.82866841,
490.2239997,1914,-89.4977435,188.2813563,-32.11567376,-21.35794679,-9.656598341,-2.063E-07,278.7244112,11.64596346,-88.31819736,-12.59656138,-168.0872233,0,8.670263089,-3.915454898,-23.0558543,2.168042519,
490.2319997,1914,4.92128178,208.851027,20.31615115,-12.7773653,-8.101543301,-2.044E-07,-106.9728823,0.530147989,58.89056644,-0.275109195,60.80070474,0,-50.99866797,151.7838137,102.0649486,80.73623261,
490.2399997,1915,29.0702341,144.0675099,59.05561105,31.79059174,34.32591732,-2.025E-07,-72.28025232,48.81358524,-40.77627562,-17.75295633,-70.8765846,0,56.25635689,-128.0639197,-127.2832237,-72.23369953,
490.2479997,1915,-70.29200117,208.0473006,-30.72221025,-14.55045903,-22.25630719,-2.006E-07,196.0036825,-8.032154603,-29.50015223,6.135855249,-118.4083015,0,-9.842753148,85.32147906,42.52953482,61.54538661,
490.2559997,1915,32.21338891,172.199301,36.07019642,1.727141841,7.163565008,-1.987E-07,-201.8434843,10.56434873,55.49222518,-8.752843329,60.557203,0,-18.75476988,69.55152434,27.06645454,31.14578883,
490.2639997,1915,-25.53473674,151.772075,13.46697524,9.597967662,19.59320955,-1.968E-07,92.76647311,39.97855198,-74.98512559,-29.02914319,-112.7717435,0,31.9878132,-95.37404113,-101.8151022,-56.8824392,
490.2719997,1915,-33.01192922,217.9965792,-4.31132114,-14.1594916,-10.9045877,-0.000000195,56.10132726,0.472342065,33.89371768,14.97846544,1.310101668,0,-31.2944841,165.1595346,108.6144726,100.2788462,
490.2799997,1915,53.26994923,164.087064,74.73150918,35.74955016,46.75217612,-1.932E-07,-144.2593045,53.29149068,21.58213117,1.96500832,13.11233623,0,45.18260964,-31.28759654,-50.56237949,-11.8521582,
490.2879997,1915,-50.04138664,198.3576528,-0.664999343,10.96644621,16.81510246,-1.913E-07,228.7095232,38.33741442,-54.2148223,5.07645758,-136.3608722,0,28.87443694,3.568747731,-19.26886034,23.09130386,
490.2959997,1915,32.60157902,213.6466819,39.49249014,12.63543616,13.00919927,-1.895E-07,-132.6704767,19.66900873,93.55843234,25.91836638,92.52825054,0,-19.56960748,167.0946363,109.3598884,101.2131473,
490.3039997,1915,18.21973815,162.6464726,52.95909555,50.92655593,42.24605959,-1.877E-07,47.36842737,62.29224561,-47.85093707,-0.877788049,-90.7927221,0,71.09085023,-109.5741343,-115.4224414,-52.54714902,
490.3119997,1915,-43.92570992,231.884156,-9.715607191,-3.373090914,-21.07688039,-1.859E-07,109.2290254,-2.074505421,34.48895646,31.03249054,-16.46262816,0,-25.50962701,180.8286733,119.1813605,116.0331429,
490.3199997,1915,44.08578932,162.0007453,59.58476815,19.64947205,26.4800388,-1.842E-07,-197.8527859,27.53441799,43.64339415,3.158335868,69.32911903,0,20.57009294,4.683810571,-18.62957529,1.961875803,
490.3279997,1915,-55.1186714,184.643776,-5.208322811,0.118028559,9.420349093,-1.824E-07,211.1597866,25.81486764,-70.01067562,-9.166292126,-114.9103627,0,26.26801807,-43.34324526,-51.32778609,-6.716680176,
490.3359997,1915,19.8750065,217.7446535,32.09472465,-8.738336777,-4.161694996,-1.807E-07,-141.6917445,3.518060338,98.3544474,23.53299464,125.7018674,0,-33.06370432,183.2280806,127.2119867,112.6612562,
490.3439997,1915,11.6139451,147.5843093,52.43350819,28.37181192,45.80360451,-1.789E-07,11.91124207,55.82336598,-50.64787966,-1.065115624,-60.93505172,0,76.45491824,-130.6954104,-125.4838048,-63.05573364,
490.3519997,1915,-51.62277392,227.5418437,-13.49506129,-22.37507662,-7.73889027,-1.772E-07,124.4954512,-1.915702626,20.95455084,27.92332598,5.625619405,0,-28.09319456,169.9701405,119.9399434,111.0366338,
490.3599997,1915,58.58282965,169.1014134,71.37061312,22.58354507,39.4562859,-1.755E-07,-206.3236414,38.89863656,42.36911748,9.131529494,91.06137818,0,24.42214119,4.448726019,-17.4364707,0.451140838,
490.3679997,1915,-32.41392341,199.2163908,15.0916968,25.54216963,34.67317452,6.46E-08,232.873841,49.14561698,-66.00026785,15.09156564,-129.5843796,0,53.10402753,-43.4174346,-53.67667557,-5.322587507,
490.3759997,1915,36.68423819,232.3329778,41.98510051,12.56174985,18.61823936,2.912E-07,-115.5547727,19.05736184,113.3629896,47.40765174,119.2649774,0,-17.14857626,208.8862535,155.5917377,131.0670324,
490.3839997,1915,20.12599685,146.7515921,44.16244609,37.16203636,42.75939528,2.186E-07,7.154289128,54.42937169,-46.19269318,4.470185933,-55.31104521,0,77.05276133,-130.7303389,-119.4571663,-64.23654524,
490.3919997,1915,-41.57170827,234.8684324,-21.998775,-8.853666279,-9.270247762,2.228E-07,134.1684087,-2.746809564,24.54343418,30.76835774,9.798627407,0,-30.98729868,171.1131266,115.1431037,106.2477415,
490.3999997,1915,72.77484061,178.319705,76.08052784,40.31623542,57.75723457,0.000000235,-194.3460436,50.53380893,57.67192887,19.46463415,103.6453622,0,33.37946449,15.60141647,-8.191102892,6.318954432,
490.4079997,1915,-33.3540233,195.6685962,6.996291277,28.14601925,37.12340509,2.162E-07,238.2410632,48.36012532,-57.16279092,21.72396258,-102.8307122,0,58.47584752,-41.1532647,-45.54450411,-0.694401109,
490.4159997,1915,29.2503058,220.572629,22.2027021,5.750646591,9.165716458,2.275E-07,-123.8895413,3.596066381,116.4148709,41.59516817,153.5895585,0,-26.67211584,197.4454243,149.1156712,122.5861602,
490.4239997,1915,21.1989692,133.0479973,36.82595178,38.01155675,53.09329898,2.165E-07,-0.346759274,53.64758108,-46.2725107,-8.827072101,-35.46000468,0,66.82508357,-157.7018972,-135.4936638,-85.49539866,
490.4319997,1915,-78.21616162,230.2111601,-47.98334614,-5.29645954,-4.162829239,0.00000022,302.1835391,6.589058143,-24.79226936,14.38624948,-60.47528806,0,-33.76828592,127.8758937,90.78974293,87.77833279,
490.4399997,1915,32.34060791,186.1810121,37.89230093,30.29941621,28.47784952,2.149E-07,-64.20204646,37.6242064,45.64535117,11.4180632,79.239961,0,6.965329882,62.61347095,40.92415004,44.3870101,
490.4479997,1915,13.23431279,170.3482729,32.2651675,28.72657218,32.73500501,2.146E-07,43.05893236,42.63995791,-7.915202316,13.05871094,-2.694869641,0,41.96171985,-9.617970699,-22.27864373,8.756866504,
490.4559997,1915,18.53526304,193.044408,26.98346217,11.92387599,24.35330418,2.118E-07,-32.1997953,15.09502563,45.37050933,21.55374749,61.83638075,0,0.270209992,97.88029035,60.42784301,64.34542683,
490.4639997,1915,0.398829628,164.6387823,22.70894294,25.67203302,34.6885613,2.102E-07,83.46879621,34.12227497,-29.93425401,-0.310727272,-46.14033103,0,46.31310686,-56.71240584,-49.8011024,-15.78796588,
490.4719997,1915,22.85984144,247.2676011,9.993958141,-7.265899447,-11.48779361,2.082E-07,-103.5476879,-17.94292136,151.2155745,43.02559411,190.8654805,0,-81.18032856,337.4516175,267.2442716,203.419669,
490.4799997,1915,63.02915915,170.8619006,56.46304668,31.74729998,31.99448652,2.063E-07,-202.5296065,22.82073877,83.00479508,17.26462938,132.1536237,0,-4.937890825,92.06475624,75.41667287,55.63482754,
490.4879997,1915,-28.25739903,128.9051133,11.15773711,38.00937504,34.21904293,2.044E-07,193.0138912,41.87155008,-105.9683863,-15.91247531,-146.9956219,0,75.28241414,-172.9493984,-131.4734461,-82.58744549,
490.4959997,1916,-3.903003744,200.0150618,8.021322439,9.228777154,-2.91007417,2.025E-07,-7.580719514,-6.089342226,59.7220753,12.27710238,82.21831705,0,-41.70632262,160.7586525,129.9156217,97.00818376,
490.5039997,1916,23.35556639,149.4849933,46.47959365,39.74590272,36.04117526,2.006E-07,-76.62671331,29.72841493,23.23314095,1.790685891,58.26220343,0,15.15789567,-1.253705831,10.7727326,4.359554056,
490.5119997,1916,-22.86022487,142.1251454,18.18098439,32.21696401,34.34812275,1.987E-07,112.12581,31.18058301,-49.06659739,-0.796408869,-53.16150377,0,39.36453296,-63.27432653,-38.65646825,-24.60067903,
490.5199997,1916,-2.755868681,190.4723097,16.53444053,10.84609015,10.70677521,1.968E-07,-17.64103024,-2.535190135,49.30789227,13.23009722,85.15383646,0,-39.50774363,151.13195,121.9127724,86.27825949,
490.5279997,1916,33.69794635,137.47403,59.38559974,47.45218575,50.86238719,0.000000195,-55.62756594,41.1763932,-8.608156675,-2.696549073,21.69477694,0,39.23427298,-56.85215501,-44.22271121,-26.97387301,
490.5359997,1916,-20.9777196,167.9227278,12.98987301,29.27188359,27.36892954,1.932E-07,154.0208383,30.50981206,-31.00549403,11.51454709,-49.60062923,0,30.94590731,15.29920714,7.382740605,31.0062784,
490.5439997,1916,31.21055604,181.289409,37.87846667,22.2679399,26.45791862,1.913E-07,-78.42125119,17.21536086,66.60166502,20.64229535,110.4599501,0,-13.76986945,134.1715872,109.2570181,91.26696096,
490.5519997,1916,27.12496294,130.2883491,53.61237263,53.03425784,61.88694956,1.895E-07,35.11482394,53.27912753,-48.34983106,-1.018968577,-34.03113982,0,64.02406524,-113.0903859,-84.27072374,-48.25140828,
490.5599997,1916,-13.6388187,204.5013855,6.93808481,23.35256797,18.25280134,1.877E-07,112.4741358,8.623339443,24.38335291,29.93383514,19.19927385,0,-19.17593013,159.2176713,116.8827421,104.4143257,
490.5679997,1916,69.11169123,150.6926431,73.85169295,59.2047185,62.0326822,1.859E-07,-139.8723635,52.51863534,40.54537628,17.21430731,79.3217146,0,34.21075277,17.40013496,3.511180855,13.26764748,
490.5759997,1916,-23.64761785,162.364496,9.21545022,42.84430707,37.80851715,1.842E-07,201.5917806,47.7713162,-57.90355759,17.96612458,-92.70747792,0,47.66698562,-20.21099659,-28.96733403,5.889561224,
490.5839997,1916,21.91763136,186.1369944,19.87767437,14.02042238,11.8690726,1.824E-07,-96.5674159,0.747524267,82.63191833,36.24676314,123.2504014,0,-32.44810053,195.3273164,140.2839861,118.377359,
