Time:125Hz,Epoch,FP1,FP2,C3,C4,P7,P8,O1,O2,F7,F8,F3,F4,T7,T8,P3,P4,Aux1,Aux2,Aux3,Event Id
607.4719996,2372,-220.2164933,-7.610396282,-11.58705176,39.94900278,-1.626365629,10.61324675,130.6840941,120.479606,-242.8314289,121.4291343,11.93926965,-57.78017721,0,-165.2589335,-296.4806832,0,0.007895085,-0.002033168,0.010761102,1111
607.4799996,2372,20.17079784,14.44588906,34.77092363,4.606451055,-11.96220646,-21.98201334,37.20324466,94.8091569,32.58507098,145.1691208,-9.624252082,130.354526,0,-0.260615589,81.6021313,0,0.009330606,-0.002011252,0.009257228,
607.4879996,2373,-61.60824792,23.8965154,-12.38155827,20.68328004,-32.17049524,22.58093507,-104.2355918,-252.0986551,-63.56625498,106.5532623,20.36842393,8.65933455,0,-141.9382658,24.71009811,0,0.009235649,-0.001938198,0.009403912,
607.4959996,2373,-181.8921577,-1.607607464,10.66885816,39.11413993,-1.433018434,-28.31577609,203.1875592,313.7588964,-222.6934997,141.9739207,-10.27682182,-12.08370258,0,-111.1539348,-294.1260595,0,0.008627158,-0.00201435,0.009047252,
607.5039996,2373,89.91733845,30.25691715,26.21607844,-0.304037437,-28.71747646,5.816603414,-123.6456693,-170.1993511,120.97548,132.9142539,-3.178486098,150.0219968,0,10.15081275,266.4772101,0,0.009174955,-0.001934162,0.008800991,
607.5119996,2373,-237.3891728,1.394056399,-32.29847111,51.59809913,-9.872964714,35.86282397,58.70720511,-17.536934,-267.4450774,115.1655862,24.21653913,-93.94405214,0,-197.4021864,-300.4199688,0,0.007882397,-0.000238859,0.007662636,
607.5199996,2373,7.112862521,6.357138071,40.57185318,5.990995088,-11.33853704,-36.83447968,101.3635696,235.7373187,12.58483032,156.3614301,-18.54159074,132.4742617,0,28.6523563,32.72361472,0,0.006537634,0.002551775,0.006046241,
607.5279996,2373,-48.60775301,20.75179197,-20.3191462,12.10816985,-41.90036812,33.30627513,-135.4516955,-303.5036369,-47.49331481,98.3783089,12.78621841,5.867934557,0,-119.6386234,81.4321686,0,0.00677899,0.002223528,0.00593954,
607.5359996,2373,-199.982434,-2.035983357,-1.924893878,39.89257095,-4.891045449,1.179109875,200.741372,285.3963137,-248.2391354,138.7448058,-8.062647279,-36.83210211,0,-119.9226073,-305.1152885,0,0.006896677,0.001444159,0.006079169,
607.5439996,2373,99.62842358,32.08208894,32.9482319,-2.741297216,-27.29116066,11.52542134,-92.91210853,-116.0300942,137.6371016,146.8625021,0.812273072,163.3577923,0,39.69696365,270.3980037,0,0.00666456,0.002242764,0.005448276,
607.5519996,2373,-238.8942324,9.268814754,-37.31491007,45.93869946,-12.19458182,44.96741238,31.77887944,-89.48729732,-259.1507596,116.2089513,33.43381266,-105.3604597,0,-187.92926,-273.8091102,0,0.003319002,0.002548507,0.005451407,
607.5599996,2373,7.832787681,15.18529309,43.01901726,2.068661926,-5.276777129,-23.9458178,122.1187663,266.5290693,13.45048723,171.9230507,-10.00160844,137.4046693,0,48.65141675,27.85354475,0,-0.002278699,0.004001084,0.005201713,
607.5679996,2373,-33.27851705,31.37450642,-19.29155308,12.9561215,-42.0936033,50.23154813,-153.0762205,-330.827457,-22.53952868,117.6600656,28.38004696,17.72135485,0,-116.3006587,100.6708616,0,-0.001644421,0.003974513,0.004859624,
607.5759996,2373,-199.7771986,8.729254885,-2.710554035,43.43900104,-2.527404134,4.712141256,196.3381482,268.724144,-246.2134429,155.9857881,4.013881117,-36.01894486,0,-117.6928606,-318.6048617,0,-6.76E-05,0.003238323,0.004806322,
607.5839996,2373,116.4073403,38.17598995,37.80292336,-9.545860417,-23.21444641,8.946114631,-76.78247958,-91.60166924,149.2455336,162.8305181,5.212642189,178.5350113,0,60.06159466,267.4613656,0,-0.001685363,0.003866146,0.004439552,
607.5919996,2373,-224.9166262,8.599845573,-40.24187788,41.71907114,-19.18099014,52.59504403,19.89824662,-114.2455659,-250.2529582,122.1850136,31.48779774,-107.1726657,0,-201.3228177,-262.4788412,0,0.00113767,0.002520831,0.003441537,
607.5999996,2373,14.39462111,12.75789504,42.28627267,5.337037578,-4.381444525,-23.98194623,140.7556878,301.4118053,19.8665028,187.9110328,-17.4845712,138.9105304,0,54.16200303,19.59304846,0,0.003802253,0.001154756,0.001818069,
607.6079996,2373,-27.6240434,23.87356574,-24.58563662,4.612851209,-35.20805446,38.45884689,-149.8065913,-325.0185614,-4.433946944,125.6331524,18.74932091,18.01000607,0,-95.76352871,113.8011459,0,0.003106945,0.001425503,0.001747258,
607.6159996,2373,-212.0929466,-12.15198234,-14.97477186,26.49861858,-5.119980664,-23.80489821,194.3429986,274.1702343,-251.3593696,147.3356542,-14.35254905,-53.46009556,0,-119.2605149,-307.9366841,0,0.003077698,0.001481069,0.001965057,
607.6239996,2373,112.0065604,27.62701389,27.98100196,-16.08410591,-23.91961235,-11.00312327,-76.01117793,-74.53020681,141.1612702,163.1846407,-8.781418415,169.9051797,0,65.68883938,290.1932228,0,0.003327149,0.001278308,0.001318013,
607.6319996,2373,-223.6221325,14.94140771,-49.30553892,43.04674371,-12.40326787,48.13571085,10.98056672,-131.5011248,-254.9496222,128.6136117,29.21790831,-110.602083,0,-183.8209681,-239.5276119,0,0.005782815,0.001336745,0.003990651,
607.6399996,2373,13.66640118,17.49414464,37.89811721,1.274963504,3.595319166,-32.77626578,143.7903515,303.1822869,8.884679371,188.0631347,-20.79356956,134.8741456,0,66.93853701,30.67908647,0,0.009997372,0.001296091,0.00791633,
607.6479996,2373,-13.69587843,32.5267035,-22.22159381,5.092520487,-18.6046933,48.22610726,-151.893201,-333.5398312,-6.394889519,135.0353086,26.38950319,19.09164556,0,-89.68879928,135.2381927,0,0.009546348,0.001200404,0.007084017,
607.6559996,2373,-207.1285692,-13.14220764,-15.6651121,23.17462151,6.048680243,-12.39338092,190.805198,259.1045578,-248.7755995,157.6646819,-5.31697211,-58.77744974,0,-116.1732907,-302.2448578,0,0.008340098,0.001239136,0.005934615,
607.6639996,2373,109.8536159,15.37465567,23.36328278,-28.5643645,-28.76225586,-11.64747174,-80.63482505,-80.84118791,145.1158069,153.1164174,-23.91276851,154.6556091,0,67.34765277,305.5259692,0,0.009575584,0.001144079,0.006736237,
607.6719996,2373,-223.9014484,7.490114215,-48.23287961,42.54400029,-13.42447747,53.12810292,8.867661575,-145.4971847,-259.3861726,122.1387055,17.90503022,-126.4216716,0,-186.7885521,-226.1135697,0,0.007032137,0.00371243,0.004108757,
607.6799996,2373,12.17661135,11.03240537,45.21953019,4.422683089,4.096634925,-41.20095339,153.0707248,306.3629446,-0.061584622,189.9374244,-21.79862336,129.267224,0,69.29920648,30.36824431,0,0.004329217,0.007855019,0.001192324,
607.6879996,2373,-2.84388366,37.76523326,-12.65660454,12.63976159,-23.29444177,45.90599912,-152.0508178,-336.354525,-7.181327474,136.5750013,28.63269666,22.30946259,0,-65.1064132,146.7019992,0,0.004966211,0.00724899,0.001557249,
607.6959996,2373,-193.9384007,6.000413619,-1.973628676,45.30959627,13.52451026,8.994046152,201.3461121,260.0153581,-250.6850281,170.6787058,11.56535318,-52.87713703,0,-86.38489506,-312.6188123,0,0.0051625,0.006109508,0.00165151,
607.7039996,2373,127.0912159,31.3443259,40.41406041,-13.04715305,-13.25641756,1.859915454,-63.1988729,-67.06061517,153.4354943,174.9032809,-3.692357893,174.2157983,0,94.6214113,296.3891802,0,0.004802964,0.007190129,0.001002261,
607.7119996,2373,-214.6117312,12.96059566,-34.966434,46.89850851,-5.131123078,67.20443248,7.64005185,-150.0271987,-249.1563881,139.1411414,34.89146401,-108.904733,0,-171.0856321,-223.2994562,0,0.003311991,0.002909258,-0.002351843,
607.7199996,2373,7.545280691,12.52319029,56.16322513,11.78232551,11.71794163,-18.95171805,152.7940944,309.7234563,5.852269516,197.6125153,-9.727970999,132.8389716,0,57.25647382,26.2196217,0,0.000490483,-0.002620854,-0.008170457,
607.7279996,2373,-0.923952129,36.63140822,-5.426239625,12.98098677,-19.20297444,44.95702991,-156.9341625,-339.981611,8.194329477,137.1994109,34.08761368,24.74094343,0,-73.97683814,155.0015986,0,0.000757506,-0.001723238,-0.007749238,
607.7359996,2373,-188.7126448,6.812770726,-3.131222036,41.50318568,9.622144952,-0.949050649,194.9261898,250.2084507,-248.535582,168.4360817,13.70941785,-54.83505479,0,-91.51948556,-307.6434499,0,0.001656244,-0.000774377,-0.006262505,
607.7439996,2374,139.1025378,34.18702775,36.47617792,-11.79886102,-19.99962603,-6.045800507,-64.74215981,-62.66986989,154.754675,175.1247463,-1.203616088,178.8471071,0,83.53739959,301.898724,0,0.000776444,-0.001993932,-0.008125148,
607.7519996,2374,-207.8885394,9.477301257,-43.60469299,42.90749297,-12.03042877,40.62626044,-1.722148938,-157.963368,-246.2197488,132.377336,37.25241526,-107.063314,0,-174.8123122,-218.5786428,0,0.004820978,-0.000391918,-0.008864594,
607.7599996,2374,12.40421276,14.91525155,48.4361552,12.91118228,10.08002016,-35.78939323,151.6274094,314.6415693,-4.761157696,193.5570152,-9.050178739,132.6961486,0,69.11789705,19.48472807,0,0.010339302,0.000852522,-0.011940654,
607.7679996,2374,16.12344784,43.49452076,-2.243952876,22.73086173,-15.26336441,46.86816044,-152.5787508,-330.576635,8.702691797,146.7430541,42.4851471,41.17153231,0,-55.84878222,154.5589484,0,0.009428352,0.000368595,-0.012093551,
607.7759996,2374,-181.5189617,8.377971371,5.474430918,48.4505873,17.59621556,-5.23997984,199.9609864,254.9560777,-244.2587145,171.3368432,28.09999782,-43.3842015,0,-90.27627065,-316.7344726,0,0.0083316,0.000451627,-0.010745469,
607.7839996,2374,151.1456366,42.91927092,48.89912622,-4.899520833,-9.185791747,7.59382038,-58.54096314,-46.23004913,167.2928953,179.0741735,13.12738397,193.3722736,0,91.66353944,299.0961844,0,0.009573801,0.000414837,-0.012210381,
607.7919996,2374,-187.7866452,26.36535383,-32.94450387,50.4645031,0.417728634,72.90209137,2.002162231,-152.4586424,-224.6971647,147.9979789,54.86605258,-89.86789241,0,-159.9637644,-219.4206475,0,0.009583635,0.00122943,-0.011383246,
607.7999996,2374,20.96582373,20.20363197,49.68457815,11.99735439,14.06445254,-33.84891109,160.8155277,322.8208385,8.418290518,198.3535289,1.512821473,136.0795714,0,75.20909002,2.799431622,0,0.011072777,0.002599873,-0.011606848,
607.8079996,2374,20.53210714,40.23293799,-8.231144657,15.38536082,-26.27163795,41.39602529,-160.1831711,-330.7222573,16.04505211,136.0340551,38.07637846,37.97714321,0,-50.52382815,161.6559496,0,0.011154519,0.002380542,-0.011957265,
607.8159996,2374,-189.3094558,6.715414053,-5.050656749,47.61608627,8.976448445,1.236181787,186.5710925,251.0327038,-253.4426043,165.1359446,22.8954225,-58.74867115,0,-90.06286006,-315.0798667,0,0.010225229,0.001981356,-0.011464402,
607.8239996,2374,139.5119139,29.18055417,37.61601216,-7.06061457,-12.0415566,-10.13338067,-57.25351226,-44.24877971,160.2292049,175.5086409,11.81290182,178.0547978,0,95.95902401,285.3937517,0,0.010996575,0.002318127,-0.011995707,
607.8319996,2374,-200.465512,7.954991265,-46.34344215,43.91218268,-5.844666661,64.55283822,-2.990576284,-170.8224522,-231.6090472,132.8210073,43.77218539,-106.233493,0,-154.6003571,-214.1460818,0,0.007837881,0.002030852,-0.014298325,
607.8399996,2374,2.366714739,10.35739461,37.7300128,10.35558738,12.60708172,-20.63644562,158.2357958,316.0991602,-5.085983064,187.3742624,-10.26762945,120.2390012,0,83.58530161,10.03990113,0,0.003684531,0.002009624,-0.018602926,
607.8479996,2374,6.028897173,31.69277534,-13.70533779,12.0741891,-18.42741343,48.59010017,-160.2713027,-341.3652524,20.12003163,134.7062635,36.25574392,36.74794633,0,-45.0627849,167.4637446,0,0.004354617,0.002062335,-0.018168028,
607.8559996,2374,-207.1504451,2.935357627,-8.160120521,42.33519882,16.59661343,17.08529097,189.371566,238.7216974,-251.7982798,162.5869775,20.91522411,-59.02860429,0,-88.91106043,-315.1055724,0,0.005087367,0.001847282,-0.016908682,
607.8639996,2374,137.4446811,36.31412359,37.47169112,-5.4057529,-7.24456337,0.755141503,-50.89491454,-28.84676914,161.2086853,178.7296605,14.65454727,183.1825268,0,109.2531626,287.0095809,0,0.004173705,0.001934689,-0.018250348,
607.8719996,2374,-191.2785301,19.76191602,-42.31385303,55.1030184,-3.884203387,54.94997217,-6.676301386,-169.8589934,-223.9596671,139.0938057,55.58730985,-99.6935463,0,-143.7508625,-221.1389893,0,0.003871008,0.001799975,-0.017346765,
607.8799996,2374,4.309554149,16.88204375,46.38989116,20.68015897,7.119681901,-30.23050151,158.3793944,321.2525411,5.089596444,193.7079894,1.023847243,129.4734654,0,96.43957032,-12.18241699,0,0.00239212,0.001762977,-0.017503834,
607.8879996,2374,20.37721138,32.4336242,-7.404740792,19.8244142,-26.74361269,41.36564974,-165.2908164,-335.400875,37.39666178,134.5160694,43.83236556,52.08783615,0,-42.73860674,161.8692953,0,0.002335464,0.001742347,-0.017756178,
607.8959996,2374,-192.5379623,1.936694201,-3.929457198,54.31982332,13.66065101,6.488771099,184.9333028,234.5087243,-244.7814005,152.6738715,27.53905895,-51.51615745,0,-92.45242776,-325.3657862,0,0.003081355,0.001637151,-0.017210804,
607.9039996,2374,140.5590647,25.06340925,45.27611462,-7.210015502,-9.309667485,-4.900804011,-49.94709903,-17.26802184,170.8369436,167.0657496,12.08479398,193.8950793,0,122.1169092,290.4652734,0,0.002385449,0.001635733,-0.017638815,
607.9119996,2374,-196.6426696,1.354251727,-42.26355564,43.79592,-10.24008228,53.14644274,-19.16342439,-170.0081049,-222.6145327,116.06723,41.57035207,-100.0880031,0,-156.7565148,-194.7144242,0,0.007138033,0.001551249,-0.015589454,
607.9199996,2374,-80.20968286,-0.491753317,50.36115775,35.98688623,20.34614831,-47.26790941,283.1950087,530.775757,-115.3657116,182.1002432,-3.427618433,85.38211028,0,60.508674,-180.4566706,0,0.014044639,0.001512269,-0.012846085,
607.9279996,2374,19.54006909,24.71235603,28.10526137,25.8955623,-7.913206112,5.826607687,-41.33650849,-78.15761454,23.28185706,152.3873733,49.74516342,96.74757902,0,13.86335032,118.5045144,0,0.01298672,0.002326486,-0.011533655,
607.9359996,2374,-93.28872152,16.59594108,5.857132742,41.94651024,-1.898235758,19.76165745,28.81546708,-7.982887888,-105.1204706,142.5955012,48.1841334,10.51333271,0,-59.93750933,-71.41476636,0,0.011405025,0.003653125,-0.009305307,
607.9439996,2374,34.1682597,36.31798287,32.36204745,26.54527799,-6.689748825,25.88364806,0.944815851,0.801530806,40.48133077,158.7768312,36.88704544,104.4475209,0,43.77721301,110.5672906,0,0.013076149,0.003437246,-0.009032139,
607.9519996,2374,-126.0270936,22.04692227,2.789617306,50.59588923,-0.502456729,49.23905389,71.8204393,36.76545639,-155.8710401,150.4293365,51.09552336,-21.60702573,0,-62.09219061,-172.1542189,0,0.011894043,0.002998067,-0.010182671,
607.9599996,2374,62.42370367,38.30312099,42.33337751,19.31299303,-7.74377692,15.62919204,4.820607431,36.34649863,78.79614662,164.1365089,30.71958559,135.232712,0,77.86045671,134.7234869,0,0.011995038,0.003334749,-0.0093822,
607.9679996,2374,-96.70616872,38.3156866,-2.591625331,53.13252658,-2.563823328,46.26186171,-2.410922206,-103.3410688,-111.0581866,142.4203075,68.51987117,-7.003666127,0,-75.67468455,-107.9555385,0,0.00975118,0.00301263,-0.005461616,
607.9759996,2374,-20.2903425,26.97737569,39.29314759,38.98438138,9.750351702,-5.194841109,125.9826206,216.739805,-33.96126164,174.9470489,42.1512413,98.23965479,0,33.02609703,-67.09788432,0,0.004793554,0.002984538,0.001264388,
607.9839996,2374,80.51739815,60.58239279,-7.922134333,25.08335507,-36.91074957,80.52364175,-307.3422478,-608.1929792,112.9993146,113.021747,82.79351477,65.26158395,0,-48.09342427,296.7123145,0,0.005851124,0.003011571,0.00071351,
607.9919996,2374,-238.9071388,40.13162412,-70.99975672,79.34776751,-20.79573407,119.4455202,-177.2004091,-561.5482178,-273.4660094,86.31852606,111.2026727,-189.2296398,0,-276.114256,-234.559651,0,0.006532914,0.002780849,-0.00167334,
607.9999996,2375,-10.03908239,19.37318688,38.40910595,27.35025629,2.97414959,-8.117540412,102.6037149,181.9710575,-16.22058707,165.4002461,36.26735178,99.3009027,0,38.76565904,-30.11049291,0,0.005366529,0.002850404,0.000464295,
608.0079996,2375,-26.54651519,5.699689521,25.312573,12.26938945,-8.714540829,-10.83772715,57.76565358,91.15813315,-27.99296191,141.0977319,25.00564572,69.64767209,0,11.58347722,-0.262799122,0,0.006229553,0.00269544,-0.001070841,
608.0159996,2375,-41.94234921,15.3696924,1.041622335,17.85478915,-17.01225855,17.62638085,-33.06838484,-92.20432547,-46.86076216,114.46369,23.51043969,25.6343375,0,-30.46783541,32.23361274,0,0.005830817,0.002642881,-0.001064072,
608.0239996,2375,-72.10217668,22.95394385,1.72275765,32.71484247,-1.828995355,23.99697928,29.54700182,9.008995277,-88.33592063,133.3158387,33.50176105,20.71982365,0,-20.75015696,-76.11316824,0,0.003167277,0.000883156,-0.001490483,
608.0319996,2375,-28.94026621,10.62952843,20.16151518,10.14864634,6.496016941,-16.14765057,87.11046967,154.1096801,-41.67169097,149.8777513,21.51318603,75.19714375,0,26.12366199,-60.00321352,0,-0.000708447,-0.002021053,-0.003991853,
608.0399996,2375,14.69282266,20.05966929,-2.73650968,-2.98923364,-23.87808253,-1.990249371,-99.38432107,-184.2038863,9.849098104,116.1206851,26.33215314,46.10152977,0,-20.7206056,99.29670411,0,-0.000546623,-0.001676618,-0.003178968,
608.0479996,2375,-125.0151458,11.07568623,7.466457937,30.00832062,-8.090358926,-23.33385067,123.976406,184.6124935,-171.0119124,137.7285081,22.41074525,-23.91316959,0,-53.78627025,-218.9185752,0,0.000839431,-0.001022917,-0.003453875,
608.0559996,2375,95.57720372,34.70384949,43.62416079,2.103325551,-20.16007322,-27.87472533,-39.65247629,-6.891565102,109.3345609,150.4515349,22.42341675,145.5489593,0,79.18044955,183.4828578,0,-0.000439874,-0.001838982,-0.003917042,
608.0639996,2375,-125.0499488,27.22781557,-11.87830632,50.41912158,-13.57885612,15.74666536,-23.57304158,-129.7459553,-149.6060677,128.1517057,52.5723226,-38.32843329,0,-100.2534696,-143.5400468,0,0.002064263,-0.001355095,-0.004503748,
608.0719996,2375,-9.671791525,14.86645215,49.37633195,27.68590213,7.456480844,-38.78322968,144.9612053,288.1644527,-23.6278909,168.5400177,11.17575129,109.8486331,0,48.20060619,-54.24498956,0,0.004857655,-0.001483995,-0.006396373,
608.0799996,2375,47.08849762,26.45539413,8.317364823,13.79261158,-22.0471581,51.90045553,-143.8719012,-270.3878769,60.83191765,117.1574945,38.59923707,68.33627209,0,-3.604221913,167.8521351,0,0.00414113,-0.001675538,-0.006174281,
608.0879996,2375,-170.9542943,1.129721833,-1.349764,46.13161045,4.419857464,26.66268282,151.6495656,196.0384602,-224.409579,130.9840343,26.02386513,-57.87254122,0,-63.64042504,-311.6111707,0,0.004004902,-0.001395048,-0.005980988,
608.0959996,2375,146.5758161,38.41374741,47.35181712,-6.826178052,-10.98785038,-19.10004394,-37.91466882,22.8570885,155.305202,142.6829995,4.538282996,176.6401533,0,122.4852795,245.89104,0,0.004349347,-0.001684067,-0.006579857,
608.1039996,2375,-125.0120276,43.82971092,-32.13117245,52.40909175,-7.147640091,45.78941898,-43.77589331,-180.5572118,-170.9667445,114.8171093,56.99395418,-63.04040373,0,-109.0914944,-166.2429301,0,0.00583519,-0.000674145,-0.004623072,
608.1119996,2375,10.91230997,26.27059947,42.37802315,20.58331937,7.801325539,-48.14485486,157.4947683,328.0039757,-22.30321202,181.9184156,18.31580306,130.7207685,0,78.99089013,-88.86781,0,0.008686411,0.000659321,-0.002111354,
608.1199996,2375,69.17150103,35.54901663,-0.046828123,2.83828303,-30.07321498,15.70964262,-168.4883113,-298.9199902,69.17276733,117.9613191,36.60684619,87.09066094,0,-8.388744363,188.0742315,0,0.008396505,0.000409467,-0.002629673,
608.1279996,2375,-175.4988848,11.82104047,-9.452186668,50.35998006,6.850925794,10.58456924,156.1407989,195.5127793,-252.1329973,127.4206631,32.16073427,-60.84741637,0,-83.88536887,-332.6077173,0,0.007522345,0.000113849,-0.003366399,
608.1359996,2375,152.1722382,25.4138977,47.61580635,-16.35985256,-13.93226021,-23.37566241,-32.75537445,27.23342725,162.9845454,144.0347986,19.28108247,196.181883,0,134.1284773,239.9842949,0,0.008397237,0.00038228,-0.002881427,
608.1439996,2375,-156.0683915,10.48675798,-42.14151329,35.93968328,-17.83723628,39.4236029,-48.7912888,-200.0413348,-185.1115477,87.68035831,47.45534138,-82.84668154,0,-138.8332369,-167.5376357,0,0.006075999,-0.001559303,-0.0034288,
608.1519996,2375,0.382633026,12.41721378,39.42773903,18.63878826,11.42943785,-51.97985841,166.7276158,348.0737525,-30.66195208,160.6897568,7.230346767,110.0300453,0,75.79060531,-78.16344753,0,0.003350689,-0.004358861,-0.003550111,
608.1599996,2375,71.57236425,31.82947114,0.271834348,3.923330434,-21.06660732,15.89123187,-161.5958602,-298.9777005,75.6046905,113.1237754,44.07166225,80.16655568,0,7.539226783,186.1800085,0,0.003894232,-0.003946639,-0.003530896,
608.1679996,2375,-190.7703121,4.229862622,-16.54845673,47.38741416,2.9076351,1.722103649,166.1214879,193.7135582,-251.6801508,121.2271673,25.08237856,-67.67262846,0,-94.11539634,-330.8162539,0,0.004246006,-0.00335834,-0.003961878,
608.1759996,2375,154.0027322,31.55904939,44.75303526,-14.70460659,-21.89703845,-37.33434664,-29.63300663,32.49931669,171.1616521,150.1684757,10.36582425,199.8088394,0,132.9741615,269.5750716,0,0.003764778,-0.004048323,-0.003898487,
608.1839996,2375,-144.7861669,21.44305836,-40.37047982,38.40745815,-17.85868946,41.50917018,-48.91891205,-205.7010767,-186.9934858,94.04207048,54.01393355,-80.82643491,0,-134.7155934,-157.7092963,0,0.00321274,-0.001880676,-0.004184027,
608.1919996,2375,3.550752418,11.00017377,37.21658253,14.42636036,7.431681192,-34.80695044,173.0603782,347.8295907,-38.19085728,155.787698,7.488427045,107.4589532,0,80.93565646,-80.99575368,0,0.001777041,0.000823004,-0.004329566,
608.1999996,2375,74.72291631,33.47654581,-0.691365325,4.982664703,-26.18694207,33.26210982,-162.7151746,-308.1806007,83.16427108,115.4130834,41.93898618,76.17691186,0,23.37061026,195.9799275,0,0.001837508,0.000310416,-0.004427763,
608.2079996,2375,-186.830944,8.724121507,-13.86954381,55.02922345,3.927208062,14.67133653,167.5499132,194.0243467,-245.333156,126.3082794,32.03741179,-75.32789795,0,-89.36750131,-345.6171022,0,0.002414749,-0.000169463,-0.004678035,
608.2159996,2375,156.6896011,22.83346733,41.22564741,-17.64273462,-27.26947391,-35.73840876,-24.7480174,49.49204473,178.8724196,142.729585,6.691126908,191.9785042,0,131.8257394,249.8051252,0,0.00187512,0.000365196,-0.004751156,
608.2239996,2375,-148.122497,19.98469014,-44.50009964,40.52681111,-21.15946954,45.92729679,-45.80709387,-202.7119794,-174.6869421,89.89733712,48.73128076,-87.39004836,0,-122.5016218,-158.1059062,0,0.003963226,-0.001748561,-0.005819332,
608.2319996,2375,0.877415443,28.11946652,39.28888657,31.88273961,8.661439251,-28.48211607,183.438306,361.5636543,-30.38928076,156.4508867,11.9409923,109.115951,0,89.00244024,-84.58884562,0,0.00671925,-0.004500779,-0.007347945,
608.2399996,2375,83.25945911,46.87596019,-2.557348776,8.111419837,-38.54165202,17.97178726,-172.3222825,-302.7625584,94.71613892,108.7655375,45.89236783,87.80014518,0,26.94535028,200.0647911,0,0.006242904,-0.004036764,-0.007308398,
608.2479996,2375,-181.9331324,20.43547784,-17.17085725,47.67760541,-5.685274627,-2.737372071,146.711216,179.7413225,-246.0421099,121.308128,43.25662943,-67.60426263,0,-83.40792549,-347.9969349,0,0.00574286,-0.003537264,-0.007107561,
608.2559996,2376,169.5241583,45.14533588,48.41265283,-13.10267744,-16.9750767,-37.79476864,-29.95580232,46.48084099,178.1316034,146.1809105,27.85734577,204.6193149,0,139.0165004,244.171015,0,0.006330636,-0.004142649,-0.007612169,
608.2639996,2376,-131.1899629,31.7154583,-36.50365247,40.18399063,-9.797135041,34.69971876,-52.63423991,-220.9141779,-168.5527773,92.09025252,71.5750162,-77.49815034,0,-113.1477044,-168.6874174,0,0.005077235,-0.003741139,-0.008366669,
608.2719996,2376,0.517466926,18.81580199,41.22038004,15.08845245,8.975811835,-50.78511832,176.8634616,347.4677982,-33.64789402,146.2884344,23.29344175,105.57375,0,87.76346625,-98.3806507,0,0.003732347,-0.003808873,-0.009921666,
608.2799996,2376,80.46001013,36.91048102,2.364105991,-3.346414572,-40.34588166,13.41633594,-176.5182268,-302.847361,97.34904416,93.80030723,43.89231248,81.95841846,0,5.590250232,222.2435903,0,0.004047022,-0.003936099,-0.009956183,
608.2879996,2376,-185.4604152,19.49595994,-5.831743862,55.07003156,7.18419498,15.67757779,156.6145904,182.331154,-250.5681434,114.756825,46.29799962,-81.07990499,0,-87.46840788,-337.7343993,0,0.004166655,-0.00369152,-0.009551378,
608.2959996,2376,176.8574915,51.27526526,63.23338883,-6.377801673,0.377768181,-27.05987537,-12.61850471,61.90072219,180.2200611,146.3691541,39.02139298,204.5900963,0,161.9555597,241.709604,0,0.003975303,-0.003884062,-0.010182732,
608.3039996,2376,-121.0340237,37.24626985,-29.51399066,35.14990639,-12.05736164,20.89876331,-58.49177838,-219.2732914,-152.6868276,88.64382876,76.02366971,-69.03356543,0,-120.8953103,-148.7946296,0,0.003250686,-0.00289095,-0.007372321,
608.3119996,2376,4.628488404,23.41980021,45.92474533,16.34113612,5.666859001,-49.23561342,172.781791,349.4211785,-32.13073901,145.5752091,29.37308831,103.5430017,0,77.35873787,-92.46413445,0,0.001835189,-0.001508406,-0.003356478,
608.3199996,2376,96.25390558,40.55372019,9.135425889,-2.45058125,-36.87237554,23.98590239,-177.0246927,-301.7329836,106.5983021,98.94764583,61.11927251,91.64004173,0,27.82911538,231.5722013,0,0.001979183,-0.001725304,-0.004117708,
608.3279996,2376,-184.0833724,14.25139333,-13.23859386,45.59865076,-0.604900701,1.321669141,145.4168331,173.9106018,-239.8987833,112.5880717,51.68760887,-74.71900341,0,-87.33322878,-317.5740837,0,0.002433695,-0.002008851,-0.005139124,
608.3359996,2376,169.3933769,42.28148456,49.73296432,-10.07166346,-10.92355805,-26.32814237,-25.10356843,51.6696669,182.0385536,139.3178852,30.24134298,196.3396346,0,148.2703564,255.9611271,0,0.001996791,-0.001691115,-0.004274663,
608.3439996,2376,-128.4899324,23.49185685,-42.56703021,31.26282342,-18.53304205,26.99167598,-71.52875689,-242.1352237,-147.5517592,81.45143427,71.62010464,-81.04128585,0,-116.9070994,-141.7902516,0,0.006606768,-0.003619945,-0.003350698,
608.3519996,2376,-8.313094965,17.269834,34.13625381,13.58444203,9.267948044,-59.60333411,172.9837487,345.4907447,-29.8512091,138.0635863,24.39986268,91.68603829,0,77.9598678,-92.69976201,0,0.013541623,-0.006382616,-0.000615845,
608.3599996,2376,101.0649887,50.280825,4.723916403,7.73173331,-24.61438836,41.93702418,-176.6859805,-310.5543316,109.1938804,92.6023036,54.71496595,88.8795206,0,26.08993388,230.0630305,0,0.012547785,-0.005942797,-0.000889064,
608.3679996,2376,-182.2160447,13.99774163,-19.31517351,52.99336828,7.915371751,16.06408526,143.5138575,160.35189,-244.3199884,108.7832978,50.59585045,-75.89345226,0,-86.54343023,-343.3808208,0,0.010869995,-0.005330384,-0.002205209,
608.3759996,2376,172.4873751,37.23830154,49.01069435,-9.653015408,-0.566093184,-40.21086009,-16.51228175,65.37079266,179.5480877,135.4911118,28.62861407,199.733382,0,149.1392309,241.388333,0,0.012636319,-0.005986302,-0.00125085,
608.3839996,2376,-116.1074324,30.99437313,-31.8647227,39.30099665,-3.170168046,54.64686528,-64.56064957,-242.8949925,-151.9170959,73.57125286,66.69824102,-76.45938986,0,-122.330821,-124.1112693,0,0.007957936,-0.002936382,-0.003021244,
608.3919996,2376,-113.6600225,14.34330029,34.59883808,47.63569285,36.26241966,-21.50969852,301.6463413,515.7530648,-174.8181676,143.7917856,23.72623485,27.09598335,0,25.17650899,-296.5640015,0,0.00251824,0.001189315,-0.004482411,
608.3999996,2376,-99.68339049,39.7468143,-32.29379612,54.29420167,-0.387245006,64.25322542,-79.00113239,-261.6747774,-134.5768297,86.41463653,80.05909822,-70.72221148,0,-112.7881968,-99.47529324,0,0.003592971,0.000521641,-0.004234391,
608.4079996,2376,-425.1335632,13.91992946,-97.74034837,102.9506961,10.65326638,100.2729795,55.97464612,-204.1108024,-522.0338346,54.43020087,100.5230545,-327.6453548,0,-335.80657,-629.3288572,0,0.004296554,-0.000309838,-0.004505101,
608.4159996,2376,-113.6277382,26.1736109,-2.887763086,51.79473754,17.74037386,22.86634245,105.9374568,112.715992,-162.6299828,111.5328572,53.53173014,-30.89718891,0,-50.2152237,-208.0351522,0,0.003319272,0.00063394,-0.004680944,
608.4239996,2376,-93.63393009,31.43940443,-16.68404744,46.03599177,10.62313424,41.68382116,2.732625578,-83.88934806,-130.1762653,95.43112089,64.75395855,-42.70459198,0,-74.88595677,-135.6030165,0,0.001363194,0.000850937,-0.006578985,
608.4319996,2376,106.1998259,37.07518863,50.46864085,8.45503798,25.37804809,-13.95757881,69.65068078,194.1279597,104.2944111,136.9501391,28.504434,157.1936167,0,123.5620616,112.1484499,0,-0.002919043,0.002323821,-0.009515461,
608.4399996,2376,31.49278747,51.34011453,5.942705166,31.50906146,17.05800906,46.20963437,-81.94347015,-188.1025569,24.23765283,104.0060749,62.90132013,42.20286963,0,1.849474292,70.67565786,0,-0.002609658,0.002339036,-0.009350027,
608.4479996,2376,-114.759363,25.84162554,4.270117004,51.15422062,36.32103597,17.46974588,134.7014446,144.5853823,-163.9691158,123.6037337,54.11535707,-28.93034572,0,-35.29243667,-256.2021649,0,-0.00109039,0.001551417,-0.008749229,
608.4559996,2376,186.4489696,39.65920481,52.43398245,-13.33726903,11.2346036,-16.04247077,-35.05711828,19.1967378,207.9957154,139.8311443,24.99840366,204.5703483,0,161.3840352,274.1379393,0,-0.002552122,0.002228025,-0.009679967,
608.4639996,2376,-129.8196752,32.13201868,-35.91277502,42.74885874,10.44942602,58.06601912,-39.37481842,-187.4862997,-166.6628236,83.0356422,61.00234951,-86.68664205,0,-111.6407071,-172.2538669,0,0.000173611,7.27E-06,-0.005876048,
608.4719996,2376,46.16079551,32.29940645,47.43901654,21.298039,38.32137281,-23.50908743,141.8084809,294.9179054,25.66568166,142.5714765,27.33089204,120.3500423,0,108.1463084,-33.96807484,0,0.002871575,-0.002750044,-0.000505856,
608.4799996,2376,84.58512178,38.26837487,8.158482686,8.907024861,3.455849008,25.64415386,-137.5514726,-255.8902217,111.8905269,96.73243148,52.55059765,83.24453119,0,49.43491328,182.2391132,0,0.002210062,-0.002273266,-0.00155887,
608.4879996,2376,-163.1415595,5.987178607,-11.5588289,44.23631118,25.77718902,11.92778806,131.4204952,143.3244059,-209.2474453,95.61514015,31.876774,-72.43118678,0,-58.99265826,-286.1264686,0,0.002137598,-0.001859636,-0.002862315,
608.4959996,2376,177.6011195,31.57982105,58.35939824,-9.574149435,21.75266936,-32.4358925,-8.637263285,77.5000382,184.1385129,131.1358914,13.79005389,196.1884334,0,160.4474225,263.1519199,0,0.002434217,-0.002418138,-0.001739759,
608.5039996,2376,-118.0826531,13.24571781,-33.5822399,32.46185098,11.26923333,34.7533882,-60.00056939,-232.630216,-141.4321184,72.66598204,55.88677,-75.59607043,0,-98.95699167,-107.0883657,0,0.004015726,-0.002952537,-0.004499094,
608.5119996,2377,-1.546735924,9.085583811,38.1824435,15.75592846,31.88967675,-30.25211119,166.9635135,321.9844219,-28.90567719,124.7094297,4.607539242,85.77779639,0,90.52075713,-56.39231049,0,0.006842037,-0.004401299,-0.007330783,
608.5199996,2377,110.1104231,39.79102528,8.798894314,7.122069324,4.028872638,37.82081646,-157.926324,-283.373658,120.2245398,94.83158723,44.09021389,88.80397039,0,52.41512026,244.3215678,0,0.006595552,-0.004376761,-0.006858953,
608.5279996,2377,-169.0618928,3.820648258,-21.72328847,45.7417633,26.98598567,16.39316098,133.512822,121.4402973,-223.092735,91.88725144,39.35197299,-85.1323847,0,-70.41739996,-295.2700094,0,0.005750121,-0.003782933,-0.006821923,
608.5359996,2377,176.3534126,34.13941531,46.26705177,-13.16395524,15.1852329,-29.79281031,-5.248274048,77.17675483,189.7417745,120.6799084,16.46105847,190.7549072,0,162.2556541,260.6955763,0,0.006629356,-0.004361582,-0.007333369,
608.5439996,2377,-93.38753037,33.47836312,-40.89601443,38.27694729,15.06421797,51.26344349,-81.8148578,-264.0592593,-112.9141128,76.37265369,72.03306426,-69.94431748,0,-97.88770342,-94.7182544,0,0.005213082,-0.003130743,-0.006396563,
608.5519996,2377,1.578435861,23.69402923,35.08020271,28.12983025,40.27858712,-35.36302884,184.5202995,342.6038699,-28.74672527,138.4483353,27.3371221,85.7917321,0,85.42039391,-106.9760691,0,0.003884894,-0.001782666,-0.005204413,
608.5599996,2377,132.8014079,50.2558027,10.13411211,5.935443925,4.106002966,23.73876781,-162.3019307,-284.2117699,148.9521656,105.9102004,62.19381401,110.250871,0,65.98230797,246.4922329,0,0.004278125,-0.002094212,-0.005623177,
608.5679996,2377,-168.2084091,15.92787624,-22.11660516,53.12127022,35.99125197,29.72456368,131.1805068,121.6052854,-221.0041484,104.8098468,57.57549485,-86.05883995,0,-72.17916597,-331.8847642,0,0.00427399,-0.002220273,-0.006017389,
608.5759996,2377,176.0567598,34.11842386,54.18273593,-8.482214187,26.98575372,-31.04333094,12.33260085,104.8058539,197.41464,131.9420034,28.02783275,190.9305488,0,174.0610202,211.1693433,0,0.004190771,-0.002033167,-0.005897879,
608.5839996,2377,-98.87015763,14.93910408,-38.43139451,21.04336683,15.94999872,32.13527856,-74.42786547,-260.9809711,-102.4290018,69.79834604,67.51356294,-73.43307074,0,-90.93311171,-114.3485327,0,0.003394024,-0.0055984,-0.00626215,
608.5919996,2377,-25.17451686,0.028535568,26.70954443,10.16315975,38.50252875,-25.80339463,189.7535952,342.2410202,-46.17553187,118.5069022,6.183576695,57.14795864,0,69.26498916,-128.407958,0,0.001998613,-0.011154372,-0.006382053,
608.5999996,2377,120.1092841,27.25881306,7.208469788,-7.615423959,1.584737709,34.60970007,-160.8349187,-286.0032276,144.3231068,81.23404624,39.23743425,87.79778897,0,57.58188816,245.6968451,0,0.002154569,-0.010376994,-0.006497101,
608.6079996,2377,-181.557556,-7.555365192,-26.98957903,39.98570543,24.30438673,14.56263679,131.861587,113.0895054,-229.6029935,78.99822452,38.47775465,-103.9764043,0,-87.94813954,-326.4647129,0,0.002573495,-0.008953124,-0.006764361,
608.6159996,2377,167.7648875,16.7207091,42.50368608,-20.42412621,9.598662714,-41.20493192,4.58361392,94.40670099,189.4763816,113.7498213,5.136982915,179.5359753,0,160.4146897,244.5931456,0,0.002168903,-0.010413495,-0.006838538,
608.6239996,2377,-101.6969679,7.919731002,-51.86154328,12.62047624,2.387197272,33.83956399,-93.66506368,-281.2733392,-110.7608214,52.74085292,47.36163636,-85.70374941,0,-101.0328672,-79.80371452,0,0.004172523,-0.007639751,-0.005338845,
608.6319996,2377,-28.08585213,4.373516228,21.05831383,15.47657547,34.32040126,-33.47038258,186.9662723,347.5292049,-56.84573879,109.1080279,1.738610149,48.31307207,0,58.42643853,-130.8175762,0,0.006942608,-0.004960151,-0.002708127,
608.6399996,2377,133.8972084,40.29937001,7.662424775,5.149470261,7.090802263,23.57355325,-160.6965438,-271.9178502,161.0833909,91.81915839,50.98304464,104.2998778,0,68.02112628,256.6542308,0,0.006492836,-0.00558694,-0.003212506,
608.6479996,2377,-176.0376001,4.382379324,-32.94625505,46.66031833,35.29831461,13.83810891,126.5879401,114.931473,-225.1570888,87.3257631,48.97240696,-91.9363279,0,-81.58555094,-333.3990157,0,0.005938124,-0.005663852,-0.004164501,
608.6559996,2377,171.6139401,24.49386702,43.56744397,-11.96185681,20.55873302,-34.65741945,7.966446755,111.1045882,185.9377775,116.383135,11.56530502,186.8918536,0,145.0636174,208.8891035,0,0.006571849,-0.005340086,-0.003528202,
608.6639996,2377,-88.3062892,16.59498115,-40.41447881,30.08339749,12.91541801,42.87279652,-91.90723818,-269.8888309,-96.06474036,66.29003145,67.33340375,-66.2414076,0,-102.2794422,-105.2790766,0,0.003562857,-0.00461853,-0.003395921,
608.6719996,2377,-24.3227647,9.239246406,26.64212853,21.88509196,42.33934853,-33.26826664,191.0519273,360.3310988,-53.12175648,119.443433,17.77591996,62.10561148,0,73.86289967,-154.7441898,0,-0.00055529,-0.003159995,-0.002103934,
608.6799996,2377,135.8805507,38.74442011,6.734659447,-3.336933186,0.942970737,19.90263235,-163.5212343,-265.4297061,162.6481071,90.82416259,48.33974769,110.187368,0,64.7370665,251.4793441,0,0.00012396,-0.003219508,-0.002296399,
608.6879996,2377,-186.4122413,-3.009382008,-35.45017184,38.05445734,19.33054706,14.2177464,119.8651282,111.4933691,-229.1843001,85.55831775,48.16068027,-90.85374181,0,-91.55355823,-329.2706264,0,0.000982555,-0.003670119,-0.003195041,
608.6959996,2377,164.9392819,21.38877247,45.19907055,-14.25446448,10.46690837,-40.44111937,5.437328755,124.6241221,176.8718938,112.4894117,13.88114252,191.8782034,0,160.4199199,230.9304669,0,4.26E-05,-0.003159311,-0.002726262,
608.7039996,2377,-75.46450539,31.13315698,-36.56016404,42.67073004,14.17916824,40.91732029,-101.7420291,-270.5183906,-101.2903449,61.91818207,70.50392963,-60.78316048,0,-92.30534384,-73.95220417,0,-0.001009532,-0.004290216,-0.006811758,
608.7119996,2377,-22.15096267,20.44433419,28.24458599,31.3245371,52.28593732,-28.71118483,194.251643,364.7532246,-63.72776126,121.8338249,25.95344556,67.13737784,0,70.96126546,-163.4653934,0,-0.003861768,-0.005627484,-0.01250705,
608.7199996,2377,140.5748169,43.52723983,10.96243945,-7.957387658,12.3890816,16.45074957,-157.6224037,-249.3213088,163.3107223,94.634712,55.88296107,119.0702922,0,83.91065595,239.9929369,0,-0.003679975,-0.00529338,-0.011848052,
608.7279996,2377,-175.7716552,9.556299942,-31.74622488,37.81229141,34.85670641,7.327743897,124.3111503,116.2859707,-224.4268847,88.48893243,52.64899215,-99.7721992,0,-80.49570595,-342.7753063,0,-0.002495918,-0.005104072,-0.010812666,
608.7359996,2377,170.1203745,30.8402078,47.22032767,-11.25529439,28.50233868,-27.44433298,24.1507051,127.7964392,186.3523469,115.0308022,16.26298344,182.3199111,0,149.708974,199.2247583,0,-0.003540998,-0.005289242,-0.012308782,
608.7439996,2377,-75.09513398,28.71668696,-32.65566395,37.50956647,16.41929145,67.51428895,-91.84159985,-289.4818538,-81.09202147,64.40381112,78.15509499,-54.4253294,0,-88.04842025,-105.3239751,0,-0.002747762,-0.005105664,-0.010722032,
608.7519996,2377,-30.56793694,4.744652039,31.61396187,21.45648206,43.55601931,-25.63531984,199.4940399,349.3907636,-48.4680868,120.872841,29.38453711,67.72705369,0,79.89821807,-187.6584741,0,-0.002782907,-0.005091085,-0.009592633,
608.7599996,2377,136.0508275,27.1309258,13.61510444,-7.020250197,8.051143059,13.50588846,-158.1455852,-266.2311527,176.0494467,79.02728654,46.83029021,116.0936325,0,72.67878559,243.2698035,0,-0.002951025,-0.005108587,-0.010229506,
608.7679996,2378,-187.4426384,-0.292637316,-28.29712035,46.69901103,30.12614812,14.67180476,116.9028353,90.97089739,-223.1545191,70.77526232,48.32480262,-98.41464989,0,-81.93492193,-351.6945645,0,-0.002413537,-0.004979079,-0.010178042,
608.7759996,2378,158.1549274,24.03652143,50.18781405,-7.153871755,26.28095081,-35.4618774,19.49384103,138.1835292,192.2415058,106.6570783,15.74228214,188.8591309,0,182.3015658,181.792911,0,-0.002716135,-0.005015838,-0.010381805,
608.7839996,2378,-82.15104134,20.82685536,-38.71736165,36.44046991,15.47796039,48.74858007,-105.8159026,-280.0689691,-72.59847896,52.76151426,71.84828284,-58.20648642,0,-70.6195879,-110.2564201,0,-0.001510968,-0.002355608,-0.009627354,
608.7919996,2378,-48.02303628,-4.676678893,22.0367929,14.55863421,28.21544007,-49.91502499,191.060473,358.5653682,-60.52613819,97.48030911,15.46446164,48.4030896,0,73.02884808,-212.1432348,0,-9.04E-05,0.001853696,-0.008369573,
608.7999996,2378,136.5835575,34.48819591,13.50744985,-4.960238803,-7.529597254,-0.956466243,-164.9729596,-254.2561116,180.4901984,58.52593533,39.72287963,108.120155,0,84.25755477,227.3277696,0,-0.000244829,0.001325061,-0.008696116,
608.8079996,2378,-175.0476989,16.2392172,-26.64496328,61.5219121,32.25684458,33.17556529,113.4094974,86.55961605,-211.948494,75.2378033,62.87872525,-97.41308695,0,-70.99279825,-386.0561267,0,-0.000390423,0.000263546,-0.009173134,
608.8159996,2378,164.1138763,23.780322,49.54614546,-13.76544062,18.53580514,-28.71433332,29.33931187,144.7727412,192.2595828,114.758743,23.5101545,188.6500576,0,191.3287884,135.4033517,0,-5.20E-05,0.001413326,-0.008953024,
608.8239996,2378,-77.70054189,16.07218556,-42.82957464,17.34174135,-0.36162993,27.48873,-106.2541261,-287.8034072,-68.69938419,41.43034689,64.0322436,-65.18882052,0,-62.48061516,-114.6794265,0,-0.000135749,0.000650292,-0.009320838,
608.8319996,2378,-51.34909214,-0.149871874,12.46106531,14.5477671,32.64658396,-46.97469482,190.921057,348.1495514,-62.74513472,92.36025385,17.02385647,37.48831468,0,58.7569614,-224.5314194,0,-5.72E-05,0.000754744,-0.009442358,
608.8399996,2378,130.8656689,28.41150055,2.883339751,-14.0902516,-9.824977882,8.392450319,-168.8126582,-258.0942073,181.9791409,59.55208323,40.12420812,106.0977412,0,84.60620081,217.4937227,0,9.77E-05,0.000999831,-0.009483312,
608.8479996,2378,-187.5510777,0.756451118,-39.26464045,43.49530597,14.32043575,14.88270051,98.97350114,68.87885473,-216.0417682,58.39747192,52.79054108,-107.6485174,0,-62.37182447,-367.1075061,0,4.69E-05,0.000509652,-0.009784915,
608.8559996,2378,153.7306622,19.3096611,38.77989104,-13.90684499,9.198670432,-45.36943605,21.52683765,135.9463777,183.9723315,96.05205208,16.04089786,176.9154812,0,177.6572165,160.5801628,0,0.000210956,0.000881912,-0.009794291,
608.8639996,2378,-80.54725911,15.32461554,-43.4784984,25.64983419,-7.693040964,34.56827847,-114.0102591,-306.267483,-68.22879058,36.50261532,66.01509654,-64.91000214,0,-72.15581473,-92.42955686,0,0.000227148,0.000603427,-0.007434405,
608.8719996,2378,-179.4461019,-17.14490474,2.732370174,44.83277723,33.32720526,-28.56081743,292.3335707,459.1168229,-212.17812,93.12406911,30.85071334,-41.69480929,0,5.22652052,-432.1175326,0,0.000295348,0.000622486,-0.003389109,
608.8799996,2378,53.10239402,11.15052083,7.059795153,2.678188661,3.674553461,-9.832919021,-19.26392671,-5.224696846,93.19791936,72.73895581,31.8673036,80.68507037,0,78.96046889,73.36903648,0,-0.001328687,-0.000186955,-0.003182081,
608.8879996,2378,-58.40888293,7.951423562,-21.14776096,20.02187735,6.716503241,-6.601651149,-1.268973187,-38.77915179,-36.767834,57.09448568,38.7876655,-13.17043626,0,0.869180224,-90.42187267,0,-0.004088148,-0.001763225,-0.00311524,
608.8959996,2378,37.20026818,10.01883011,12.85375005,6.703520358,7.650566916,-16.85722913,19.71975931,64.91725473,72.11569953,73.95931459,28.49063893,81.62077169,0,93.6163721,27.42432689,0,-0.003623554,-0.001470701,-0.002244446,
608.9039996,2378,-91.44946506,11.39777338,-25.0540186,34.81751108,6.384205354,44.65683329,11.71063456,-49.88032251,-81.68811685,56.78359702,48.77671494,-39.71767799,0,-13.64643892,-163.2092855,0,-0.002826168,-0.001224868,-0.003609918,
608.9119996,2378,66.09931088,16.16395249,23.97078455,9.304855818,7.049405946,-5.043015144,45.62083207,123.9632222,96.09483247,95.68123696,24.1121026,112.1355083,0,133.9630582,24.15764093,0,-0.003517216,-0.001601834,-0.003280842,
608.9199996,2378,-170.7875571,11.6307731,-78.96476511,41.40078294,-18.88587308,74.51976651,-160.8592305,-441.7458285,-148.9085349,18.04093286,71.90205715,-150.0730156,0,-147.2485813,-189.6530374,0,-0.002901665,-0.001349624,-0.003470618,
608.9279996,2378,-393.8858913,-6.670486613,-102.8119492,82.23207024,6.974546099,80.54421624,61.97151585,-139.5069869,-433.3582012,18.51210243,70.21117479,-294.4134024,0,-251.077375,-617.9231413,0,-0.002898984,-0.001447043,-0.004129249,
608.9359996,2378,55.55150647,4.826651397,18.71124915,2.237125765,5.377781003,-26.11904039,56.11417095,151.547386,82.67569768,88.14476251,15.68782482,107.6251086,0,124.267303,7.17877159,0,-0.004685502,-0.002365052,-0.002110279,
608.9439996,2378,35.15514752,-2.476239212,-3.407717506,-1.831796542,-2.927540966,-22.64529391,-11.92712644,11.86623855,63.49099831,61.49138499,15.63111787,69.74667781,0,75.5755137,24.68752047,0,-0.007056315,-0.003643943,3.05E-05,
608.9519996,2378,-47.11428174,-3.455167215,-25.32907783,15.66267837,-2.375371541,4.608554713,-23.49614975,-64.27952186,-30.96332974,39.04328942,25.31917372,-12.00380003,0,2.892616126,-73.9779434,0,-0.006858105,-0.003592691,-0.000355573,
608.9599996,2378,-41.18456161,-8.062774897,-12.162028,14.30931189,5.199424902,-13.26944298,43.49351878,72.73478246,-31.65415593,50.61475666,20.32881246,12.11889652,0,48.81629043,-99.83655897,0,-0.00582575,-0.003139507,-0.001331058,
608.9679996,2378,55.3937702,8.577707239,8.861321935,5.925781863,7.449115006,-17.19239639,17.76600559,63.96880653,71.41992895,59.90932499,14.33117109,85.93474587,0,114.6222897,45.96689411,0,-0.006519333,-0.003556516,-0.000928014,
608.9759996,2378,-52.36173217,12.88620914,-27.26216624,22.04737717,-4.250313096,25.58328676,-46.51399868,-150.5561451,-37.74232776,36.08450776,43.34419803,-25.04940857,0,-24.14625766,-69.59317628,0,-0.00419897,-0.004165142,-0.001511836,
608.9839996,2378,-35.28868705,-6.838738187,8.309709794,11.87781647,9.122916773,-35.28269402,128.6010757,234.5117954,-28.81803489,68.39320346,16.91665651,44.74005593,0,66.69076871,-134.5616637,0,-0.001258892,-0.00554795,-0.001835153,
608.9919996,2378,77.28649246,11.56410498,-2.783998586,-0.75064545,-14.88069308,2.801785054,-105.4260608,-163.5372434,118.0420239,40.6141102,27.90952898,80.19368194,0,88.41682833,153.3353387,0,-0.001754413,-0.005486398,-0.001818765,
608.9999996,2378,-149.0769516,-12.77205833,-37.60495828,28.95986759,-6.851060745,14.72521466,66.9053169,47.31325829,-154.1395799,35.29850409,35.13548415,-73.94335332,0,-40.38596788,-249.3441877,0,-0.001980403,-0.004904144,-0.002410772,
609.0079996,2378,102.6815367,2.425592534,26.5535882,-12.68029503,-7.21057206,-31.74603978,28.49851472,150.4062971,135.1987757,66.0507117,8.508208761,136.9816813,0,157.9790205,112.1638579,0,-0.001371226,-0.005420859,-0.002420436,
609.0159996,2378,-57.02960196,11.22091288,-39.42980891,21.10302823,-10.69680914,42.45273426,-107.4745007,-251.3237158,-38.46021303,18.73170644,49.89272389,-47.14854104,0,-28.35662455,-44.16371234,0,0.000112711,-0.003327094,-0.002792554,
609.0239996,2379,-67.56486793,-14.45273337,6.14561251,14.00679752,22.59148089,-42.38200899,180.5713947,317.9184071,-69.0577959,67.46814645,13.45312239,27.5957524,0,71.48321589,-191.4839762,0,0.003081866,-0.000560258,-0.003058813,
609.0319996,2379,117.0349571,12.07519992,2.068603712,-17.35125225,-7.378421546,-12.34790695,-135.3443585,-201.279395,173.974122,34.47272304,25.17778143,108.2608755,0,112.9121924,249.9883205,0,0.002921838,-0.001017568,-0.003220876,
609.0399996,2379,-183.407758,-4.410884381,-46.41513696,37.68175489,12.62431007,29.31062105,71.58787294,29.57622722,-198.3830622,20.65187433,37.02804702,-107.7566732,0,-60.32701699,-280.4678159,0,0.002081331,-0.001515027,-0.003585182,
609.0479996,2379,130.9546937,22.77005924,42.05334591,-1.017374256,16.57803614,-22.46488576,41.8554427,174.458046,158.9962985,74.99826223,17.29948446,162.2739691,0,176.8552388,144.0197909,0,0.003108413,-0.000906808,-0.003738772,
609.0559996,2379,-47.81170106,24.31431251,-32.5644724,29.0371858,-2.724550826,41.54890635,-126.114041,-293.7655937,-23.73954057,31.22823124,73.0607322,-35.98010465,0,-27.373798,-37.13775645,0,0.000840749,-0.00129385,-0.004896753,
609.0639996,2379,-80.52009573,-15.81918764,2.305140564,10.73091086,17.48142093,-42.71251437,175.2984204,326.9738645,-76.20756616,70.82778658,15.42322856,26.25563073,0,80.60935275,-211.1187199,0,-0.001777709,-0.001233755,-0.006520829,
609.0719996,2379,124.8021656,9.639621661,-0.956473094,-29.63803598,-18.18041626,-9.397145726,-161.4182286,-220.1569162,187.5317461,29.48173948,17.39952124,112.5172375,0,105.3255742,274.3137886,0,-0.001137659,-0.001087791,-0.006560154,
609.0799996,2379,-200.6801175,-10.00092951,-46.21207169,31.95580418,6.25079873,16.05393841,75.24630936,28.98924362,-215.1003898,15.86045066,36.43999221,-118.9213351,0,-91.21556375,-302.34108,0,-0.000711646,-0.001336517,-0.006453327,
609.0879996,2379,123.6873063,5.414279254,40.32401627,-19.8569988,8.265900208,-52.42267684,46.54674159,186.5625264,160.442915,66.14179066,5.588648689,164.544653,0,173.0634068,158.452042,0,-0.001084918,-0.00113293,-0.007039277,
609.0959996,2379,-60.47384774,9.869954395,-44.60118899,9.144957284,-9.103068287,20.40106823,-134.7078792,-301.9412826,-34.86818595,6.053973638,49.10499509,-54.41011055,0,-44.86048331,-6.984469693,0,-0.000702,0.000458196,-0.007019436,
609.1039996,2379,-75.39610475,-1.547486827,7.5602845,22.78207022,35.29318709,-34.18961093,195.2403938,350.5069445,-87.50001824,56.83952631,9.724926339,12.52700088,0,67.20341207,-197.0716964,0,-0.00065173,0.003252874,-0.007268303,
609.1119996,2379,153.6812378,27.86927071,14.23002473,-8.719900633,10.83245837,10.51186269,-139.4981299,-195.5428395,205.6076424,45.19873045,38.08842208,132.4003608,0,129.8641861,289.0932534,0,-0.00068553,0.002934134,-0.007564353,
609.1199996,2379,-195.5877547,-13.51034067,-45.22676218,36.62883705,18.169005,23.86790703,81.74169101,39.56758484,-207.4274455,28.15198597,42.85725971,-108.8226506,0,-58.44531586,-295.1418337,0,-0.000403691,0.002086798,-0.007621351,
609.1279996,2379,125.735167,4.536185894,46.84366577,-14.30452144,11.05432494,-34.24154457,51.48976498,198.5634825,163.1226777,64.21893557,-0.390042691,164.4420295,0,196.0867091,180.6044283,0,-0.000471562,0.002918157,-0.007951177,
609.1359996,2379,-50.81787607,19.68881736,-32.16421667,22.06927798,-5.247697804,50.2218721,-132.5577207,-302.5245015,-30.8799731,13.22205347,59.6549494,-47.09587987,0,-35.56241808,12.30437168,0,0.00142366,0.001453196,-0.008932835,
609.1439996,2379,-74.15348072,5.146818446,12.2453544,32.0783849,29.38430594,-19.42779876,192.3474416,344.8389263,-89.59101737,72.17731001,19.74699618,19.92381547,0,74.31192949,-201.5076812,0,0.004290766,0.000120435,-0.010535944,
609.1519996,2379,161.659574,39.83407313,21.93034233,-2.342521604,-1.351165036,16.38537048,-145.1089265,-197.9346628,215.806794,53.46948651,42.56453368,140.7696632,0,133.4985958,289.0805991,0,0.00396793,0.000444198,-0.010576553,
609.1599996,2379,-181.7793571,3.593703281,-33.86874966,41.45238958,11.38781381,13.77716401,82.3581512,48.0186793,-194.9374128,32.47273498,54.48717649,-100.6882619,0,-72.80698395,-295.439483,0,0.00337087,0.000434344,-0.010341855,
609.1679996,2379,145.44063,20.88621519,54.5086386,-9.128104078,11.34958516,-59.21383982,50.11376381,218.3414076,173.2188615,71.0437335,7.134436445,174.1389252,0,191.6275979,194.6672552,0,0.004157157,0.000300783,-0.010958485,
609.1759996,2379,-25.63809271,38.46309364,-26.06336971,29.85145558,2.462898377,46.09118966,-140.0366186,-300.7000784,-16.07668798,22.18230414,70.2463189,-35.01254341,0,-27.08355269,36.87960215,0,0.002876222,-0.00052536,-0.011701427,
609.1839996,2379,-62.00642787,19.99606858,14.86975913,33.83868155,34.29968605,-17.2331725,190.6785936,347.9176117,-84.89271652,75.30948045,31.55700889,27.44298995,0,74.57856713,-196.6500991,0,0.001608021,-0.001949089,-0.013313731,
609.1919996,2379,176.7536227,56.7963721,21.72870523,1.554680317,1.173259181,15.78010185,-157.9571235,-204.9002817,220.2497039,52.10534167,42.77140125,147.8624705,0,139.9760077,300.7354121,0,0.002006971,-0.001834849,-0.01339032,
609.1999996,2379,-167.4272004,23.26475379,-36.19848401,53.49012708,23.76835729,37.5036791,70.34188978,12.57308093,-187.463618,39.83822886,61.68548239,-92.63129518,0,-56.32020839,-296.6573312,0,0.002131001,-0.001439664,-0.013001819,
609.2079996,2379,146.7140034,28.60131117,45.91594577,-10.38266252,17.62841624,-36.49344557,49.30754262,197.3720561,182.1103361,75.40083446,10.72155977,182.07004,0,200.7944124,179.5290033,0,0.002044437,-0.001882209,-0.013690825,
609.2159996,2379,-22.85856578,38.99782473,-33.64487336,22.67151748,0.060581161,51.87824022,-145.9614465,-319.2705512,-1.561636393,13.89228738,62.72258803,-34.40067131,0,-40.05098987,30.26768871,0,0.002199995,0.000951613,-0.018634533,
609.2239996,2379,-66.52043069,11.85020548,11.50380023,32.73471181,35.62223815,-10.27870236,202.5122164,336.6308193,-70.71424408,66.73135724,29.19146815,21.32504276,0,58.53916327,-208.8629822,0,0.002242603,0.005082158,-0.027180616,
609.2319996,2379,160.3334193,29.25142023,14.82343877,-18.28627145,-11.29964297,3.575881482,-149.3384346,-206.1786771,235.6369748,36.32544466,28.45272428,139.1789729,0,129.1943732,316.2781083,0,0.002262097,0.004417234,-0.026338702,
609.2399996,2379,-182.5778052,8.420095588,-40.37684395,39.73639517,15.32484214,30.43052218,66.60409027,10.1088385,-187.1334429,16.42770498,40.79158894,-115.5831027,0,-84.50682007,-264.0126451,0,0.002377742,0.003456446,-0.023984662,
609.2479996,2379,152.5329803,41.37988214,52.44370062,8.229490301,32.79429418,-7.029710573,69.52780302,215.763743,182.9715804,77.40230708,14.26976556,176.584414,0,200.1737644,195.3529294,0,0.002388738,0.004438056,-0.026580441,
609.2559996,2379,-13.63681803,42.16377905,-28.09229963,29.80890457,3.578491165,67.92317891,-134.1685676,-313.4349157,11.25974683,28.76325026,71.02457742,-20.42782333,0,-10.95315274,46.43698927,0,-0.001831684,0.00284585,-0.023219098,
609.2639996,2379,-70.28649744,15.91314831,14.2571258,34.16656642,36.13788717,-0.85320682,200.8015258,340.2913379,-73.42578505,69.73459797,26.27397974,15.75004611,0,65.45810458,-195.5585422,0,-0.008726731,0.001504085,-0.020732193,
609.2719996,2379,173.448593,48.44319648,20.94896117,-1.265941406,8.220497682,34.78256598,-142.2231527,-193.6668822,238.7394808,55.40108041,40.68866601,141.1994923,0,150.8297473,314.5628113,0,-0.007782626,0.001860201,-0.02166564,
609.2799996,2380,-178.4764417,3.80793682,-43.21983789,38.35621057,20.72782978,39.04510298,68.01940541,8.939395867,-180.5791613,36.31134189,51.37211464,-109.4758247,0,-49.25632125,-287.1842685,0,-0.005812128,0.001755281,-0.021396055,
609.2879996,2380,141.8148189,23.32480176,43.4583896,-6.316740054,21.13594953,-16.37712131,63.57476609,225.1376085,174.6820491,70.03970259,-2.345117125,158.4064474,0,201.8919759,180.4290441,0,-0.007679445,0.001661029,-0.021501883,
609.2959996,2380,-13.29095324,34.26231145,-30.21694055,26.76261961,0.130605276,65.25833767,-142.5853305,-308.4514007,0.916741198,22.95688127,52.78666628,-40.75266357,0,-23.5782102,49.73827013,0,-0.003666887,0.001645512,-0.019748683,
609.3039996,2380,-78.74215357,-1.30263206,12.3452094,26.50905885,30.08624984,-26.07621256,200.9667255,353.5253486,-89.22896368,69.97959278,11.09824375,6.638329885,0,62.26789311,-195.0103326,0,0.000438059,0.001589856,-0.017016481,
609.3119996,2380,173.7659789,38.55248293,19.35079414,-8.107830263,-2.017790246,20.31095374,-142.0095194,-177.4399726,226.1481691,46.49212051,21.452931,136.8969383,0,143.0964428,342.6067874,0,-0.000409493,0.001525257,-0.017377726,
609.3199996,2380,-176.0465763,2.692582352,-41.29918027,41.4293578,15.32533298,50.53771007,63.77134411,0.760068592,-195.7582654,34.87925242,40.54169759,-115.2747487,0,-71.32605615,-256.1568669,0,-0.000588269,0.001492689,-0.018132085,
609.3279996,2380,133.2764273,15.53343983,46.51329162,-8.390870868,15.95306205,-31.53258516,65.51394813,231.7977977,156.4311261,73.6048799,-9.130612197,158.6664973,0,189.6587172,197.6678751,0,2.50E-05,0.001435475,-0.017421084,
609.3359996,2380,-7.685589813,42.71164701,-27.18057715,32.17418968,2.151602338,54.58102817,-145.3306519,-310.0153715,-8.904223551,20.10691959,55.54618497,-34.7738237,0,-25.00663847,67.14021393,0,0.004956529,0.001382464,-0.020507433,
609.3439996,2380,-75.50426799,3.36718583,12.33912859,27.96079367,32.58189043,-18.21790686,202.4453531,341.8655744,-95.4396841,67.75942133,18.20715539,10.07634692,0,57.46851063,-193.8060834,0,0.01345011,0.001347367,-0.024689274,
609.3519996,2380,205.8294194,47.50629381,7.543095603,-15.20056744,-18.21460497,41.83222876,-269.4898261,-420.2676433,273.3624649,22.64041714,29.93322802,129.0425582,0,115.8046911,469.8264119,0,0.01259806,0.001283033,-0.023978578,
609.3599996,2380,-213.7185655,32.80938869,-63.58404453,76.04949653,13.65139216,88.38532203,-16.96468101,-209.8227725,-252.6003121,17.15535126,67.41507376,-186.8495773,0,-145.2089685,-280.894154,0,0.005920124,0.001249631,-0.018928269,
609.3679996,2380,109.1571892,19.38262792,67.35483532,14.80144076,41.07975253,-46.17067612,242.4265632,534.2991267,111.3183125,111.26232,-11.94346794,178.6602038,0,240.7436188,48.78819355,0,0.001509267,0.001193826,-0.01289019,
609.3759996,2380,99.82219146,44.34804333,-17.89714034,7.258440646,-7.843306173,64.35456416,-234.312228,-438.670677,149.3453031,20.90566423,44.40554835,40.77063957,0,47.86769447,280.5146366,0,0.000789273,0.001149906,-0.013191018,
609.3839996,2380,-177.8763546,5.340216041,-22.66698586,51.49797587,34.45762938,15.56112605,177.7318355,212.3572396,-208.5184858,49.13982969,29.25665126,-98.59086525,0,-34.43321886,-323.7576796,0,0.002908148,0.001105407,-0.015180169,
609.3919996,2380,218.3691856,38.51515336,57.27747761,-3.419041711,23.07841197,-21.84750943,4.035588974,137.4714213,259.2139095,76.14659989,1.283339411,205.1633597,0,229.7246669,321.044114,0,0.001585623,0.001055484,-0.013475073,
609.3999996,2380,-79.86872996,42.62792302,-40.72496445,48.07763303,13.8464403,79.54343998,-110.0027665,-304.2860856,-81.81365501,16.01048602,64.11668471,-90.35621793,0,-73.46495661,-63.73129382,0,0.003604229,0.001014276,-0.014464438,
609.4079996,2380,-12.64860315,12.88022477,33.8323611,19.96916683,35.09320872,-25.62676206,219.9971141,416.1700318,-23.12520316,81.44567931,6.026402792,63.86423302,0,113.6888306,-131.9903152,0,0.007115658,0.000966201,-0.014638828,
609.4159996,2380,153.6829425,38.76266572,9.819794406,-6.705935662,-6.798283192,22.54464826,-160.1259025,-237.1633926,206.8720752,33.97866779,26.33775953,107.3691921,0,107.5770423,295.5864234,0,0.005802709,0.000922894,-0.014078731,
609.4239996,2380,-165.6287861,11.5659291,-29.228554,50.37084343,26.63725945,35.00176227,104.3115794,71.01759061,-187.3382238,26.26803636,32.53456919,-109.9371692,0,-54.68150402,-285.6131969,0,0.00600932,0.000878825,-0.014984734,
609.4319996,2380,339.2879778,40.37451084,108.7273445,-22.68337822,28.60614442,-44.91436267,87.99221534,383.7676618,395.150743,95.22983384,-34.05585141,329.7860916,0,375.4420871,448.6612306,0,0.006324112,0.000833945,-0.014460783,
609.4399996,2380,370.4458746,65.87872222,61.70681951,-22.53823175,-1.413546956,24.92689556,-217.9003455,-213.4536982,454.3564283,47.66510917,4.62076836,272.8830972,0,279.4395995,638.2020397,0,0.005928843,0.000791803,-0.014849475,
609.4479996,2380,-60.82923998,15.15283634,-7.773503001,32.63321062,23.27294509,24.84283995,71.34928003,81.04230176,-66.55346081,35.04702171,22.80563048,-25.99989923,0,22.57193455,-121.5382228,0,0.007984029,-0.000111974,-0.011526963,
609.4559996,2380,-24.12200655,20.28937912,-13.62950057,27.13647468,19.78220641,37.71498201,4.524807126,-23.29397508,-24.74653382,30.43934501,30.02942792,-13.88192959,0,18.28372952,-48.20623808,0,0.010611646,-0.001545201,-0.005835874,
609.4639996,2380,39.02022618,30.63086093,12.66491104,22.88698838,33.51613434,24.28874156,52.37459775,111.0885042,39.67682343,44.97552237,18.58896297,47.292529,0,88.3576329,2.878663235,0,0.010290068,-0.001405775,-0.006937434,
609.4719996,2380,47.79110374,20.64188971,3.599873755,8.676759038,18.83517722,22.44388651,-25.97490782,-43.4094972,75.30710003,31.51393725,23.44159487,45.04078323,0,83.22673222,68.80347722,0,0.009604792,-0.001069783,-0.008304764,
609.4799996,2380,-96.50720087,-6.769252619,-32.47815588,17.11050172,15.94327328,19.78505586,26.43636013,-23.9101672,-82.60814904,6.554630371,19.2211225,-63.80332377,0,-16.84816022,-118.2117008,0,0.010290836,-0.001491118,-0.007006921,
609.4879996,2380,83.76745601,14.05925104,22.23251874,-0.123358969,23.63164356,-18.9752274,58.97425826,166.4814927,106.2021376,29.75601924,-16.05848682,88.60113704,0,142.056775,130.8748994,0,0.011548253,-0.003837957,-0.007301523,
609.4959996,2380,-8.061624766,33.56099969,-29.7131768,29.2844501,7.76705149,47.01799199,-101.6942495,-233.6978259,-5.321763586,3.50845146,43.47763367,-40.53521319,0,0.393210863,30.37008819,0,0.014351632,-0.008075503,-0.005853883,
609.5039996,2380,-52.0567467,8.149404333,1.433311042,28.94759251,28.56751184,-2.711341144,144.0980703,243.308412,-71.68347447,38.92487047,19.76822288,-2.158776116,0,51.40500233,-157.554813,0,0.014142914,-0.0076409,-0.005920363,
609.5119996,2380,141.0649635,30.2384463,14.92400598,-4.190586596,7.380890992,14.95168735,-97.06904673,-111.5002777,178.6985264,21.36515694,14.85990519,105.5383924,0,120.2831183,251.0135613,0,0.013061027,-0.006367411,-0.007022708,
609.5199996,2380,-133.0068487,4.457778466,-40.2655592,32.24765763,24.89128264,27.74477394,38.70566173,-30.73783432,-149.6687649,6.385993366,40.19794782,-109.9223863,0,-55.67339589,-214.0682016,0,0.01403089,-0.007662076,-0.006316448,
609.5279996,2380,110.3357567,10.89457884,33.2437613,-9.101976885,33.9295239,-36.5188813,84.38769151,242.6837249,127.5113404,46.03220995,-3.96667232,114.1543395,0,165.5685269,117.6025744,0,0.010726731,-0.005913183,-0.009663319,
609.5359996,2381,-2.18367924,20.25552396,-36.53800459,9.488122794,10.56297873,45.23096135,-138.1313686,-291.2891016,17.43184972,-7.63283796,40.20461916,-42.0212661,0,-28.39760498,62.88888173,0,0.006584618,-0.004627056,-0.013904914,
609.5439996,2381,-95.96572084,-17.11024461,-11.63980175,9.407452923,29.85098889,-22.77432299,179.1425186,302.5491825,-103.7217734,26.43642767,2.272847953,-34.76012533,0,19.14268152,-209.4132033,0,0.007293314,-0.005062198,-0.013372365,
609.5519996,2381,152.3925044,11.59664594,6.643305267,-29.69038898,-2.206514625,-4.935126396,-125.9500068,-124.6914146,216.1420919,5.359258054,-3.084181309,108.4855359,0,127.4865146,318.2101248,0,0.007933068,-0.0048656,-0.012770192,
609.5599996,2381,-175.4956978,-13.50924107,-51.74373026,24.26158882,18.67870351,27.26734324,35.1378114,-50.27099892,-179.589522,-19.48427452,28.59326247,-140.5015373,0,-94.00491753,-232.088332,0,0.00707296,-0.004891977,-0.013787432,
609.5679996,2381,105.8454606,-4.062614688,33.10961719,-16.29549585,19.42608616,-44.84605599,85.31644246,245.84314,132.0939545,27.65819451,-16.50871848,113.7685853,0,155.7217596,135.0463204,0,0.009300795,-0.004822444,-0.013369131,
609.5759996,2381,0.780003101,10.52141169,-38.12390803,1.171613131,-4.835939893,42.17804545,-162.437742,-326.8402547,22.04493272,-28.53613115,27.44730507,-47.30340256,0,-28.49681868,101.3058984,0,0.011981908,-0.004808787,-0.013561371,
609.5839996,2381,-106.7607897,-12.98694678,-6.787983699,16.10566531,41.45331157,-10.05327591,191.7882838,300.1772314,-126.8939621,8.499892559,-0.747320889,-48.52335723,0,14.10497332,-212.8241625,0,0.011388437,-0.004768726,-0.013922282,
609.5919996,2381,176.7052459,27.77922593,16.3047253,-13.13947841,16.18990644,16.95141138,-126.1842472,-142.1609451,223.4232949,5.620763071,8.750449871,119.9916884,0,136.3468577,334.0311903,0,0.010954804,-0.004722161,-0.013669843,
609.5999996,2381,-171.8260449,-8.051753849,-56.42748625,27.81888328,18.31468012,45.04612879,32.05420373,-54.55421596,-193.2256978,-15.68992361,29.39293084,-139.6445688,0,-87.82310596,-242.7448885,0,0.011412383,-0.004711983,-0.014093985,
609.6079996,2381,100.8375713,-3.04801811,21.83535491,-28.52646639,14.85859069,-36.30736804,84.62684738,260.8142869,122.904084,19.04747578,-32.04806549,109.8951922,0,155.7440235,147.6710838,0,0.007576107,-0.005508559,-0.01317093,
609.6159996,2381,-0.266665382,14.5252598,-47.52221065,-1.932903182,0.186444535,47.46147629,-168.619308,-323.9292614,17.25685695,-40.07155255,19.22941693,-54.98987407,0,-38.81287325,115.6241211,0,0.002024503,-0.006890423,-0.01190997,
609.6239996,2381,-110.8975,-16.07655225,-21.81128912,12.1867039,34.28307563,-13.22270808,188.2496406,306.2062917,-140.7987234,3.19104658,-6.805481382,-56.79956141,0,6.764429996,-221.1382234,0,0.002802161,-0.006657984,-0.012281514,
609.6319996,2381,173.7594644,19.25381113,-2.980363835,-31.21928241,-6.303819683,4.796322323,-140.2018693,-142.5246225,224.8469484,-7.196257699,-7.833253523,117.4895201,0,129.477424,350.8367969,0,0.00406186,-0.006252646,-0.012636384,
609.6399996,2381,-178.7884443,-4.989430438,-63.31797991,26.18375664,15.583509,39.4584606,22.21316639,-59.60813439,-189.7205271,-36.94083014,19.86696671,-148.3817136,0,-103.4640213,-230.9501557,0,0.002647795,-0.006599978,-0.012475619,
609.6479996,2381,104.1822155,6.240000965,27.67366984,-19.46770625,25.98037001,-33.25237097,89.02586139,264.1880088,133.4425332,11.61297408,-24.57471094,112.7066346,0,155.5948534,140.9832145,0,0.001004352,-0.002848375,-0.01363593,
609.6559996,2381,8.738425565,19.47904777,-37.89915296,1.555009893,-1.655579718,51.49875238,-170.579756,-326.2415847,36.22517795,-39.05134757,25.06636341,-46.9253881,0,-32.33083951,112.5527809,0,-0.003311467,0.002719353,-0.015126992,
609.6639996,2381,-110.7817645,-11.10985598,-5.113960739,20.50797653,34.16888243,-19.62968708,189.0402269,312.9577337,-130.29307,0.946795631,-4.433293335,-61.9421327,0,6.073154848,-236.4926268,0,-0.003065055,0.001960883,-0.014987796,
609.6719996,2381,175.5150839,18.55473726,12.20098517,-29.313602,1.067722683,0.753710629,-135.8151679,-139.4527138,241.2358129,-9.91488182,-2.571913937,116.4728843,0,135.4876928,332.4912126,0,-0.001345248,0.000658674,-0.014850572,
609.6799996,2381,-181.841042,-8.666650226,-58.67434063,23.96799825,14.24802431,56.24661801,21.17416063,-80.67732778,-184.1151934,-40.3176443,18.8523674,-154.3417261,0,-122.2055494,-244.923868,0,-0.002940956,0.00209871,-0.01524784,
609.6879996,2381,103.3585695,4.610836728,32.25435693,-17.96497336,14.35364187,-38.10960244,95.53578551,261.8042608,130.0437409,12.5260619,-25.46763167,106.4704956,0,139.6422363,128.3250066,0,0.002505669,0.000286998,-0.011710231,
609.6959996,2381,12.08827745,16.21617173,-38.50521752,-1.812681896,-15.95396061,29.56807307,-171.5071953,-334.2070345,41.50784847,-42.50290273,24.5990566,-43.68394522,0,-21.52665205,116.619132,0,0.009363953,-0.000972241,-0.006278535,
609.7039996,2381,-117.514642,-14.27037167,-10.40521597,18.29032505,21.60300329,-7.248563088,189.4425703,297.5082392,-137.8350551,-7.127648175,-9.780422167,-63.37305436,0,-5.505084552,-234.1433209,0,0.008173392,-0.000479321,-0.00716285,
609.7119996,2381,186.4925336,26.38143018,18.11702307,-18.25032203,-7.440408828,21.44456709,-129.9434294,-134.6008429,244.7732923,-9.037714518,-2.334734325,125.3197233,0,136.4670117,354.4823425,0,0.007041124,-0.000711255,-0.008650586,
609.7199996,2381,-167.1616083,3.566244071,-52.93825677,35.57727899,11.55050763,55.93990964,18.83467003,-83.84655936,-176.4388902,-36.90556296,26.17969831,-141.7094788,0,-96.29955286,-222.4217027,0,0.008456353,-0.000625938,-0.007317044,
609.7279996,2381,106.2934378,8.687672601,32.31131946,-14.59973801,15.14391436,-33.29629439,100.9097832,263.0296532,127.9194329,13.56030267,-19.91254676,113.4873978,0,148.553531,122.6230162,0,0.011003834,0.000166546,-0.006718145,
609.7359996,2381,20.58699752,23.0893676,-40.86264679,7.388894429,-8.032547359,51.61771852,-173.6004589,-340.411108,50.70596047,-40.49033975,27.30180713,-35.18945147,0,-16.0969547,123.9041282,0,0.016692956,0.001555436,-0.003935124,
609.7439996,2381,-121.702791,-11.55536914,-17.17933312,20.67621102,37.6724637,-2.645015343,189.9633638,289.7339024,-144.3138916,-9.14977062,-7.786156919,-62.75654858,0,10.21227719,-251.1440213,0,0.016321929,0.001373176,-0.004123494,
609.7519996,2381,179.3097319,22.03570539,10.73173322,-29.13676156,3.059684948,11.96082013,-123.9347484,-134.5622539,237.5553404,-22.1757679,-6.742521009,122.9480093,0,142.3145782,329.3501284,0,0.014221317,0.000943029,-0.005637484,
609.7599996,2381,-165.900013,5.42201555,-62.2322625,34.83614317,20.7822299,61.57185466,12.32610483,-100.503772,-176.0945778,-49.1582063,23.09745322,-145.8267795,0,-108.5043107,-237.4298194,0,0.016216226,0.001350838,-0.004535348,
609.7679996,2381,113.0152421,13.5158458,31.00917257,-8.756462432,29.9035233,-34.09329524,103.5391725,256.9493111,119.9476362,3.635265743,-20.85441628,112.7523608,0,141.8439539,92.90991394,0,0.017407896,0.002742218,-0.005566207,
609.7759996,2381,36.18001594,36.50121638,-34.23559426,8.641837049,-5.367849917,37.83085065,-173.4724402,-344.6560147,55.30386681,-49.69410962,31.69479294,-26.48961875,0,-19.28048735,101.908392,0,0.021694504,0.005559175,-0.005624686,
609.7839996,2381,-106.2235736,2.638159738,-10.12525021,21.92360428,29.41588209,-25.97606926,192.9662997,295.9359304,-136.7494262,-5.876407752,5.635440932,-55.53864909,0,-4.811007306,-289.1262071,0,0.021541786,0.005238781,-0.005545166,
609.7919996,2382,191.8218335,16.57358624,18.20001893,-37.07158239,-7.990728779,-16.15367362,-115.8788511,-115.1675826,249.4205553,-24.61528458,-10.41146083,130.1231426,0,136.6564982,313.7108776,0,0.019469787,0.004288328,-0.006266251,
609.7999996,2382,-176.5684619,-9.079956931,-66.45570669,19.64890764,3.84285632,56.66714855,3.522306702,-96.22951677,-170.1514718,-62.80774222,4.324461205,-150.697117,0,-104.1486081,-222.8335405,0,0.021233629,0.005155732,-0.006018677,
609.8079996,2382,91.73311646,-1.985484429,22.3708227,-21.0720569,18.12385852,-29.60837096,99.48210652,274.5667942,115.9637041,-5.814274382,-38.10265618,96.18965877,0,142.385627,96.98250065,0,0.023282771,0.003617284,-0.006524586,
609.8159996,2382,24.0944589,8.061764279,-44.06663168,-12.64084733,-16.61890777,37.88466607,-183.0734019,-342.2963705,58.77594615,-70.22818738,7.44018061,-44.73639814,0,-18.2283779,135.9171474,0,0.028916684,0.002261866,-0.006651372,
609.8239996,2382,-259.7934651,-35.69619331,-55.10066996,23.36351364,26.02385525,11.38374608,219.8416256,283.7184471,-301.7250697,-47.77901993,-11.53553868,-187.476371,0,-100.423178,-449.1463271,0,0.025841253,0.001710323,-0.005068516,
609.8319996,2382,61.70456199,-11.60664958,1.418284055,-25.89602333,14.38513277,-2.253652264,-8.251606303,33.53707815,91.62525027,-40.86015886,-22.75451456,29.52667161,0,69.26600254,125.7020177,0,0.019242948,0.00025052,-0.002647364,
609.8399996,2382,-16.56367551,-8.516207181,-21.65295832,-12.74674635,6.765005925,20.05286392,-48.02148829,-99.26202682,4.593093591,-64.61517842,-8.038774257,-51.79571503,0,-8.890308577,37.91602107,0,0.021792109,0.000294435,-0.003059578,
609.8479996,2382,32.61004021,-5.211030993,1.820761643,-17.39021508,12.38691122,-2.431677217,31.25535377,95.40247275,54.29700373,-39.07065012,-17.46034397,16.47143039,0,64.27023953,52.75325779,0,0.021217533,0.000657049,-0.004129185,
609.8559996,2382,-53.86544266,-6.610244602,-37.60275344,-2.477364598,5.041418284,39.16772592,-58.22259422,-132.5404406,-24.64430786,-62.43390853,3.74613167,-69.84159368,0,-30.70484728,-22.10391231,0,0.020111243,0.000220635,-0.003522563,
609.8639996,2382,180.5167023,-8.412464617,61.27383528,-42.45955561,19.05090698,-63.56926331,128.90501,411.5637554,210.3416688,-2.46105757,-57.29112888,173.3007258,0,226.8972009,206.860878,0,0.021129274,0.000398465,-0.004260211,
609.8719996,2382,387.1386586,18.98096943,77.71389532,-70.47886162,-3.205062471,-49.99171877,-108.1024319,67.86876932,466.1695241,-10.42183839,-48.70397793,288.1569845,0,301.849604,607.6690203,0,0.019933083,0.00035434,-0.004448657,
609.8799996,2382,-61.27478321,-5.014221112,-39.51543993,-2.763741347,0.08242902,28.78993776,-65.11515483,-135.3263021,-36.55877509,-67.60388189,2.713114765,-83.48491365,0,-44.3421588,-28.72715498,0,0.019362406,-0.001519198,-0.001875033,
609.8879996,2382,-72.75572901,-11.86902567,-28.54488215,-4.66834749,5.568444064,-11.65867627,22.265752,48.36738321,-62.67038279,-56.10908207,-9.016903508,-77.4912339,0,-19.47346052,-92.88136878,0,0.017732389,-0.004176961,0.001710302,
609.8959996,2382,42.94221323,-8.53869559,-3.910186989,-22.70068658,6.644062595,-22.01666713,-17.0860365,38.28621573,71.49667404,-47.87304276,-24.79230578,12.89661161,0,66.35532874,83.50749511,0,0.01743488,-0.003973185,0.001224753,
609.9039996,2382,10.36501937,-2.572047233,-16.94940114,-10.4548178,7.219219397,21.75783576,-60.58743381,-85.56161199,43.71481531,-58.83591881,-17.58712388,-25.95827661,0,15.91873309,66.61863013,0,0.017981415,-0.003188162,-0.000314008,
609.9119996,2382,-77.5675392,-5.23485082,-27.79995023,8.919440666,18.16904717,30.37288763,0.461324404,-37.6947179,-57.15104664,-52.50971967,-1.521079191,-84.89153687,0,-32.25353815,-84.79171716,0,0.017077724,-0.00397995,0.000621756,
609.9199996,2382,59.65974926,-4.000532576,16.91581608,-13.58463062,24.64036253,-9.735209533,41.69753867,124.0040963,86.4729365,-30.77937855,-23.9840722,40.19664794,0,90.37351265,79.59286601,0,0.016469348,-0.001788663,-0.000358532,
609.9279996,2382,-7.376330881,4.648907473,-27.00123954,-0.419018486,4.540794279,43.92324888,-111.2249952,-222.5329439,26.02890895,-69.82212126,0.490045366,-58.23744795,0,-33.90252222,72.51777709,0,0.014815759,0.000970644,-0.000629784,
609.9359996,2382,-80.20678185,-11.57551299,-9.080960906,12.19634658,31.69219461,-4.202989765,111.4349854,179.5691149,-76.9114715,-38.36282661,-12.93979422,-54.55413455,0,3.626595408,-135.66048,0,0.014658087,0.000386631,-0.000538511,
609.9439996,2382,140.7015592,27.28975342,20.19936025,-7.642155935,22.10359509,3.546418587,-86.16496695,-76.39831737,187.2127189,-36.45310797,-5.172908994,82.89700891,0,108.236611,256.1880872,0,0.015128372,-1.42E-05,-0.001368505,
609.9519996,2382,-121.3574122,12.97152131,-40.90243487,32.55484572,22.9132487,53.26976275,-12.96457488,-100.7462915,-109.7158599,-51.36887433,26.65595604,-117.5771427,0,-78.03035728,-153.4721116,0,0.014327964,0.00047953,-0.001222169,
609.9599996,2382,70.92374677,-1.54475804,28.48009064,-10.6997603,28.90853127,-24.80046466,98.3486048,243.5590503,92.2862625,-9.877441724,-21.53976529,73.8157029,0,119.5828897,48.05911189,0,0.01801959,-0.004190161,-0.002611225,
609.9679996,2382,38.45080869,20.41782948,-16.98557224,6.434602633,4.653629841,41.33923806,-157.2828539,-301.6324948,78.6127037,-64.86855831,11.7461817,-35.02539838,0,-5.831260176,135.3836107,0,0.023344435,-0.011101595,-0.004265199,
609.9759996,2382,-115.5836987,-5.387527184,-5.455719498,32.10351117,33.50031271,0.035234142,155.4564921,227.1888461,-128.9523158,-27.46044225,-4.622814313,-79.23541639,0,-8.884007126,-237.8053525,0,0.022335504,-0.010106819,-0.004250467,
609.9839996,2382,173.3415886,20.49048427,26.84061817,-12.91635987,8.738728555,3.798838435,-98.01328433,-98.02339309,219.4868443,-24.04920844,-7.755454666,111.0152749,0,120.8534133,277.5694144,0,0.020914186,-0.008444165,-0.004332799,
609.9919996,2382,-146.6626509,-2.357141448,-46.81245062,34.01198272,10.23040484,54.12216326,-20.34024824,-139.6180065,-139.3323978,-55.84528887,23.79597829,-136.1344045,0,-94.1718806,-193.2673626,0,0.022068372,-0.01020061,-0.004833978,
609.9999996,2382,70.07647418,-10.28692409,33.28676739,-12.96310948,23.6285968,-37.59470751,109.8783033,277.8646604,88.56192715,-16.5438983,-29.2340243,81.05714622,0,131.7885913,50.04588597,0,0.017532822,-0.006385279,-0.007516317,
610.0079996,2382,45.27507746,17.3511648,-22.88500202,-0.870455958,6.854590625,49.28031674,-183.9801431,-340.0360563,85.60851479,-76.66161155,14.20983421,-31.7831529,0,-16.80659756,160.2639841,0,0.011877747,-0.0023447,-0.011957464,
610.0159996,2382,-136.8886348,-11.28278863,-11.7092733,26.93011454,44.13220811,11.41279596,159.4783944,240.8828709,-145.9953076,-37.65066884,1.079708418,-88.19299887,0,-21.93657249,-272.7260842,0,0.012710047,-0.003226756,-0.011731756,
610.0239996,2382,177.8661655,14.72415314,32.15744781,-25.55389688,17.79970231,-4.289143112,-104.9982045,-87.89849103,246.5203428,-42.49387343,-6.165185532,122.1592339,0,133.0803334,299.5178265,0,0.013436627,-0.003565561,-0.010736062,
610.0319996,2382,-155.7867995,-1.503285473,-46.75119463,30.11564452,26.67578493,57.20804246,-25.84555284,-153.4529062,-136.5118943,-76.977699,27.52983103,-144.4584108,0,-100.0728017,-189.7518941,0,0.012158284,-0.002960249,-0.012206757,
610.0399996,2382,64.43698027,-11.2363403,37.00227631,-18.42134544,38.10476846,-27.70466641,118.2031536,280.6187719,96.69460531,-16.81968279,-23.00248141,80.83271867,0,139.1204343,55.99207604,0,0.011875683,-0.002455207,-0.013296386,
610.0479996,2383,39.06258361,6.371586924,-19.36069698,-12.74243436,3.240839161,51.35772263,-183.982259,-348.2517412,98.61748518,-77.23952226,15.85090694,-37.27014987,0,-18.50122877,200.5434533,0,0.010205964,-0.000979493,-0.016389817,
610.0559996,2383,-143.5994417,-12.9097959,-14.00474523,27.82495915,41.1046757,21.20509049,158.5005856,245.4828349,-155.7359176,-45.72671978,-1.866545462,-106.6765528,0,-34.45215007,-236.1548018,0,0.009982926,-0.00099371,-0.01649621,
610.0639996,2383,184.5490165,16.39897405,28.86146532,-27.21164175,21.53406253,7.700416251,-106.648157,-78.39522653,248.4394467,-34.10381396,0.507066031,112.4087294,0,144.9196012,327.9234588,0,0.010659314,-0.001581595,-0.015394821,
610.0719996,2383,-164.8386892,-16.34070766,-57.21791381,21.6930974,19.29935804,58.06671872,-29.50947444,-151.7410878,-139.0274722,-69.09860779,26.96577751,-167.501757,0,-106.6243473,-176.9888242,0,0.009763495,-0.000992322,-0.016760556,
610.0799996,2383,50.14221643,-21.0410818,25.55369573,-15.41323648,28.996022,-24.55133302,109.9458738,290.9311959,83.6272868,-26.72858206,-42.77602556,55.57683231,0,115.3282873,67.06595654,0,0.008402333,0.000373457,-0.016094193,
610.0879996,2383,40.16043078,8.283851164,-25.82594314,-6.099922973,10.67989893,58.70227668,-191.1940716,-342.8833244,98.03417247,-80.1242073,11.56891466,-44.89982088,0,-13.86024093,196.3862442,0,0.00542953,0.003197576,-0.016354964,
610.0959996,2383,-144.9494978,-22.80833365,-22.01318924,24.38884155,47.99922699,19.72716547,165.9586466,248.0684113,-151.0937856,-37.79437293,-1.645024572,-112.9822153,0,-24.02430616,-260.8377905,0,0.005494748,0.002987751,-0.016733079,
610.1039996,2383,181.6364494,9.752618148,22.40794532,-33.05857638,20.08313617,3.972885972,-100.1986344,-78.91731681,253.342685,-34.40400706,-20.61036847,108.2857219,0,140.1164527,332.118051,0,0.006453643,0.001980284,-0.016356424,
610.1119996,2383,-158.3911386,-3.892268324,-58.26100621,25.07879657,32.81242583,64.11156475,-29.33827734,-165.8486064,-135.2057577,-69.29839564,20.43000821,-164.2054772,0,-99.59260377,-178.8526192,0,0.005305758,0.002951066,-0.016887284,
610.1199996,2383,70.37885046,-4.087997959,32.26003689,-7.88044425,50.32063045,-12.31167911,120.0211287,288.0013076,96.10249162,-12.00830408,-25.73688615,67.54527856,0,139.0287807,33.45917845,0,0.001626503,-0.000312361,-0.020143443,
610.1279996,2383,61.3593592,18.61813501,-19.08733456,-7.296709557,11.09290171,44.8667459,-190.4804128,-346.7854544,123.0545288,-62.98555854,21.3392345,-27.58158894,0,-10.24514026,180.5714957,0,-0.005531682,-0.004412614,-0.025877546,
610.1359996,2383,-143.9793003,-20.8755595,-22.97328725,15.95583859,40.92156026,-14.14691325,157.1177905,247.9553508,-141.9359894,-36.90779019,-4.955480002,-105.9359884,0,-37.68499995,-268.0083191,0,-0.004911001,-0.003692527,-0.025308663,
610.1439996,2383,191.1375919,14.13129261,24.5461305,-36.61517684,18.89897933,-6.07273907,-106.258715,-65.07541422,256.3972755,-38.64058149,-18.48135515,110.5697728,0,137.6734018,325.7635111,0,-0.002672144,-0.002998999,-0.023737401,
610.1519996,2383,-142.9512822,3.847712331,-57.44449323,21.65109095,20.83684942,64.53985653,-39.90855801,-159.9273765,-129.6377732,-62.25508105,33.11220469,-158.8622367,0,-110.9561008,-184.9231669,0,-0.004998401,-0.003842875,-0.025490964,
610.1599996,2383,65.12013872,-4.120225475,23.58795923,-19.06434054,34.28383839,-17.90928196,110.7536122,303.1199239,90.68534248,-10.56117362,-25.8179848,73.98597902,0,123.1822075,33.09965435,0,-0.006888714,-0.000715333,-0.020936428,
610.1679996,2383,62.25869443,21.02445234,-28.4356972,-16.26644721,6.999304654,57.75567822,-201.2975523,-340.0101091,113.7324272,-71.87097729,16.03386672,-27.62025725,0,-10.21188738,190.6629121,0,-0.012690326,0.003389385,-0.015592786,
610.1759996,2383,-139.719562,-12.49839755,-26.25235734,11.29169402,48.17062162,6.615076845,158.4178215,254.29971,-152.4344545,-33.1238195,6.656741776,-109.0653974,0,-37.81461374,-283.5517923,0,-0.012428204,0.002642057,-0.016687538,
610.1839996,2383,188.2232586,10.80374304,30.14935553,-44.30239979,27.84875171,-15.65287007,-98.88103873,-48.19042937,254.6244771,-36.28430829,-13.64807633,116.3557807,0,136.0689013,323.2115437,0,-0.009945013,0.001869455,-0.017522697,
610.1919996,2383,-146.6035578,-0.605771846,-47.1005436,23.12441303,25.63634781,40.67547374,-44.38278016,-168.2582852,-128.8246202,-73.22517731,32.62366156,-161.4599022,0,-107.3820797,-164.0968505,0,-0.012217309,0.00273487,-0.016581204,
610.1999996,2383,55.89540506,-6.199608016,32.95098044,-12.96995651,39.70634936,-28.97892822,116.5929999,299.6070426,94.0988464,-10.95153187,-13.87967663,69.36564521,0,131.7528972,39.56099623,0,-0.009685821,-0.000479231,-0.020721826,
610.2079996,2383,58.76431075,14.00746162,-19.35381111,-16.15341054,8.745878587,57.19200442,-201.3942269,-348.1571412,123.3634247,-74.15914531,20.15458893,-28.33618958,0,-10.49869658,213.3596372,0,-0.008451776,-0.004583405,-0.02626106,
610.2159996,2383,-138.1638881,-4.284663045,-17.06452365,29.85324594,45.45042673,15.628365,153.6844496,231.2683151,-152.5633067,-36.87960775,14.54819525,-112.8725894,0,-34.23984823,-272.7286997,0,-0.008993293,-0.003885009,-0.025339853,
610.2239996,2383,194.7970403,30.74348075,34.1373946,-16.76576372,33.60826162,12.12301344,-89.45318077,-54.60606077,269.9398522,-22.24894403,9.350795227,128.3271855,0,157.4448429,311.3824589,0,-0.008296378,-0.003147357,-0.024304755,
610.2319996,2383,-136.5437586,10.99191904,-53.45512353,29.18705633,36.52930915,74.27263966,-38.4462065,-166.5016801,-108.6978717,-59.78683377,47.08787769,-151.023228,0,-106.904047,-174.2648421,0,-0.008590499,-0.00403484,-0.025550973,
610.2399996,2383,63.95016391,2.887348658,26.29063021,-10.98245445,43.51683755,-27.91401026,124.0006488,314.1428136,95.7818829,-0.903695036,-9.185474346,71.36635722,0,122.8603743,23.03910308,0,-0.008165772,-0.003445752,-0.022993915,
610.2479996,2383,69.5603466,25.98880075,-16.90347457,0.476964492,12.17792995,43.89675712,-195.8085936,-339.1855554,132.8529875,-65.97593062,23.91969535,-19.50062952,0,-6.902437271,208.5476951,0,-0.008132009,-0.003536368,-0.020357133,
610.2559996,2383,-137.2420393,-11.25664422,-18.11145639,34.02424451,45.72246327,12.94390211,156.3296867,241.1165783,-147.594581,-36.12611752,13.12182638,-107.3061213,0,-36.17368127,-281.2285498,0,-0.00802961,-0.003726843,-0.020967672,
610.2639996,2383,191.193236,8.039412057,23.77543608,-34.67033119,17.64609311,-3.91831751,-92.99297708,-40.62264781,262.3551761,-29.77963636,-8.280285093,128.9928034,0,158.9555922,319.2889532,0,-0.007765091,-0.003360952,-0.021219153,
610.2719996,2383,-141.6720798,-0.851153562,-62.50220406,20.96781647,21.10593502,46.77134822,-51.56318735,-171.0135156,-120.2335297,-74.5341359,23.23966265,-158.691304,0,-109.0660684,-149.4138485,0,-0.007773297,-0.003642325,-0.020847214,
610.2799996,2383,57.18212974,-9.256366379,21.05576535,-17.55711403,36.11436494,-50.13425097,122.932024,324.5235518,85.94484436,-12.64651725,-24.62324028,64.45770296,0,114.2092324,26.97637337,0,-0.007516992,-0.00430473,-0.023687362,
610.2879996,2383,71.64221998,15.47115179,-20.78346987,-18.45874103,3.119503066,30.60667557,-203.1448659,-341.7994627,127.9279304,-78.91123947,10.42395984,-19.88824949,0,-11.45607248,228.924613,0,-0.007447552,-0.005703209,-0.027825946,
610.2959996,2383,-132.9911647,5.87486815,-12.51494613,34.81108959,55.03965719,16.93181419,148.4232839,225.9443473,-159.6796345,-41.35910275,11.87489587,-106.9185222,0,-48.53166977,-260.9083257,0,-0.007297507,-0.00557334,-0.02719834,
610.3039996,2384,293.6800629,47.38741179,45.25320262,-33.18496117,25.72990533,21.04657405,-212.5125423,-246.8673234,378.031906,-25.44279282,16.02139494,179.4906773,0,174.5156744,507.417643,0,-0.005421874,-0.006771379,-0.023641002,
610.3119996,2384,-92.65784641,41.03664857,-86.42689033,24.67982679,-5.122974289,135.7769949,-370.3434435,-835.2892027,-43.11136847,-114.3866452,81.28576489,-224.4562089,0,-209.748041,60.52081578,0,-0.002544488,-0.010024071,-0.020495205,
610.3199996,2384,-139.3763257,0.095120493,-12.16742537,26.68226168,47.28648919,8.788258333,170.4225307,252.6788929,-165.2266081,-27.69598962,16.24420416,-117.4027039,0,-44.64708716,-305.0643034,0,-0.002739732,-0.009290517,-0.020290227,
610.3279996,2384,182.4911344,9.655143902,47.14436686,-39.29097873,26.1756262,-32.46654943,-5.543482827,111.7260616,229.1789673,-17.71575257,-12.06825315,130.7601512,0,162.6950924,249.3959842,0,-0.003388208,-0.008561675,-0.021503193,
610.3359996,2384,-36.96482184,7.174586328,-28.4090922,-5.755135876,8.773712204,32.96938995,-106.3907048,-232.3437535,1.226168985,-75.98975421,26.03580742,-94.15290401,0,-55.98025739,31.27305141,0,-0.002489442,-0.009381772,-0.020536103,
610.3439996,2384,-42.45473581,-0.46087545,-5.689695676,0.171568426,29.35512244,-4.100809282,59.93395913,118.8647573,-18.95245445,-46.4843934,8.62271204,-46.07512345,0,-10.40525753,-66.43956005,0,-0.002903432,-0.008600311,-0.020881893,
610.3519996,2384,93.64532995,13.38069621,21.00503583,-13.9576339,31.04672735,1.105430547,-14.8762061,41.63417938,139.1913155,-33.13972451,5.666563425,52.12378782,0,81.29827674,140.7192043,0,-0.002738201,-0.004476811,-0.022826164,
610.3599996,2384,-5.34135199,13.81044314,-14.27216991,5.225742988,28.82769241,45.51466985,-81.07183639,-182.909012,27.27116606,-58.77117863,36.22372226,-64.59616598,0,-29.24717232,25.47358311,0,-0.002459373,0.002494491,-0.025107184,
610.3679996,2384,-28.08050289,-5.728030463,9.087680336,1.099795377,35.19869166,-13.37821354,98.07329755,184.8818594,-17.58170954,-40.70200977,7.091314403,-27.91667937,0,11.69421491,-91.29554936,0,-0.002700103,0.001960012,-0.025258426,
610.3759996,2384,116.5352599,21.8359795,25.15467512,-14.33771918,19.55862579,4.442744548,-77.54096036,-72.90947323,169.7804105,-42.90303935,11.20046192,62.38731409,0,76.35205608,215.4077325,0,-0.002342261,-0.000141778,-0.024163651,
610.3839996,2384,-86.46116955,10.28096694,-19.56166903,18.81984384,28.20046903,34.84264847,-16.30175206,-100.4571148,-67.20132921,-55.36866702,42.53633029,-101.7916739,0,-77.67077521,-110.4367815,0,-0.002433456,0.002080675,-0.025037295,
610.3919996,2384,57.95505797,-3.09079575,36.49056418,-20.50977089,27.50190922,-36.29446747,93.47463557,230.0363475,93.36737311,-24.847485,-6.745194426,59.23951936,0,84.72990074,48.63702669,0,-0.002323751,0.002428943,-0.021985202,
610.3999996,2384,59.8974674,23.89634562,-5.908082048,-14.24218756,7.317770726,34.22883793,-154.1394255,-277.9345918,119.9995239,-71.14251073,20.98349787,-17.11892574,0,-14.61574553,201.1982931,0,-0.002189589,0.00541003,-0.017682802,
610.4079996,2384,-99.9161371,9.864203625,-4.518097627,22.36123596,45.64148642,9.61137206,130.7800729,188.2378138,-108.0689221,-38.30243277,19.67330051,-85.52789402,0,-42.74004689,-206.1465437,0,-0.002221429,0.005575906,-0.018552252,
610.4159996,2384,170.1795519,32.00210829,42.03090789,-20.9711537,24.11634312,3.101237354,-64.58473744,-25.57585878,236.2144426,-24.19816731,8.688248108,117.7453428,0,137.0284647,272.0464459,0,-0.002048878,0.003915233,-0.019186776,
610.4239996,2384,-111.7853801,14.33829292,-37.48865987,18.96179892,13.8219914,44.03248293,-52.09555319,-173.2911251,-75.4342902,-66.49183693,36.74988165,-127.1846712,0,-84.33646028,-107.6992058,0,-0.002044494,0.005423725,-0.018333764,
610.4319996,2384,44.86043288,2.230927798,28.12641384,-17.91198895,32.86216577,-47.19915949,121.0240013,299.4248381,76.58193279,-19.49421472,-18.90218408,58.79686237,0,95.56817765,15.38985659,0,-0.004527694,0.001807409,-0.018935228,
610.4399996,2384,85.98654929,29.46390623,-11.59796752,-19.92053024,5.055473821,37.37554338,-186.300475,-308.6292321,146.0945868,-70.0651508,12.61641952,-1.842518308,0,-6.11364791,240.9722016,0,-0.008621626,-0.002246089,-0.018802447,
610.4479996,2384,-120.4371758,14.13040269,-13.97194848,27.61735906,31.44577452,13.41934693,138.1131385,208.8147039,-146.4496098,-42.27248501,12.6913564,-110.8043285,0,-53.86873402,-244.6509982,0,-0.008035031,-0.001427587,-0.01864801,
610.4559996,2384,199.3849705,33.8142904,43.83837063,-30.76045555,11.6465804,-23.08020191,-64.93623444,6.412712382,254.4395287,-22.81215417,6.512753594,136.7370697,0,139.3503705,300.6378575,0,-0.006800812,-0.000965651,-0.018980026,
610.4639996,2384,-117.4925074,8.707015759,-44.21682909,7.127065297,2.348613273,36.99347685,-64.47822318,-191.5508017,-91.5052807,-77.980643,34.31408705,-139.9511894,0,-127.453867,-116.0476089,0,-0.007896857,-0.001632365,-0.01870285,
610.4719996,2384,43.94283129,8.149694672,36.76129354,-16.13109001,27.38131569,-30.4496546,135.8087808,321.2359609,65.55968529,-23.28238381,-19.74945349,52.73325639,0,93.69690994,-7.737943543,0,-0.009576371,-0.000380232,-0.016316365,
610.4799996,2384,92.8801602,36.02363385,-0.532677851,-19.58718373,2.775335041,43.60132936,-191.0603462,-326.9839417,160.8396466,-68.17415371,27.54861153,3.420175278,0,8.552741428,232.5864495,0,-0.013754316,0.000969387,-0.012114936,
610.4879996,2384,-143.0612909,9.038454883,-10.20828921,23.86539973,32.1147898,16.05889854,143.3372791,202.2055555,-154.9285914,-41.07841338,21.89258596,-121.7948133,0,-59.66938248,-290.0570703,0,-0.013360621,0.000581521,-0.012611003,
610.4959996,2384,193.7692819,32.22381727,54.59256422,-29.65789267,20.91848433,-3.637321479,-54.96793064,10.79227589,269.4475486,-15.88486072,6.032965232,138.0786469,0,160.8556371,284.2792474,0,-0.011613709,0.000486703,-0.013866878,
610.5039996,2384,-121.1576941,13.40154415,-36.52891512,15.47104815,14.96089785,54.84837309,-63.79673196,-199.0963256,-85.60966858,-75.20614725,36.8631098,-142.6516296,0,-116.858689,-122.9083155,0,-0.01304088,0.000631546,-0.012628133,
610.5119996,2384,45.78037692,15.20164326,43.48009926,-2.119101108,32.58630139,-31.05151317,145.0582795,343.0570265,61.68236048,-16.45182157,-10.03752213,59.07716182,0,97.33363377,-23.73584983,0,-0.008389362,-0.002104256,-0.010092693,
610.5199996,2384,99.84842338,35.91851414,2.250607486,-10.3256175,-0.541686524,41.40186782,-187.071342,-315.3769653,175.389824,-58.967896,35.05868245,19.99435854,0,24.24783418,228.6987259,0,-0.002817935,-0.006255749,-0.004435526,
610.5279996,2384,-152.0224042,-1.900472537,-18.38617784,23.02874159,20.47392721,13.66688462,140.0720538,205.5137884,-156.4984138,-50.81748127,10.73931766,-120.9083954,0,-69.42175916,-289.7387724,0,-0.003706964,-0.005719619,-0.004950302,
610.5359996,2384,192.5810758,27.84731586,51.62424045,-24.22424399,3.577827088,-13.28217119,-56.06296909,23.16778649,264.407496,-29.67837184,-3.485986447,139.7737322,0,152.8721136,299.3407265,0,-0.00439126,-0.004659393,-0.007034825,
610.5439996,2384,-114.0085499,17.00363547,-35.83761772,24.90714624,2.082434202,55.15060021,-66.81006158,-198.7370981,-76.05732408,-73.74185303,48.01139152,-135.5179853,0,-102.9891692,-110.7579154,0,-0.003230894,-0.005778754,-0.005141369,
610.5519996,2384,46.45482013,11.87948288,37.75930949,-7.015818792,18.73429943,-28.69819244,140.3413333,343.5114124,65.8604982,-22.98590607,-11.0585944,56.16810635,0,100.056962,-15.81532499,0,-0.002907672,-0.002432326,-0.008307008,
610.5599996,2385,105.3910989,36.5270596,-0.69017882,-14.69001887,-10.92909377,31.40611478,-194.5022148,-325.1329481,173.2944486,-71.93439682,25.56193411,13.44307859,0,16.42896692,254.7085172,0,-0.001312745,0.001648561,-0.01099897,
610.5679996,2385,-137.7702994,15.12003001,-15.24233972,33.07867346,29.44154238,14.63357009,139.5389493,196.5582628,-161.6768985,-41.5260316,25.9896608,-116.6476827,0,-74.55403985,-287.0351889,0,-0.001108558,0.000881211,-0.01034324,
610.5759996,2385,211.717151,36.77590742,52.5520683,-25.16373764,16.26268922,-11.59972535,-55.15787218,25.44633995,269.1869894,-21.91168352,5.053868485,151.2547261,0,153.3713516,292.3611374,0,-0.001807507,0.000238687,-0.010536163,
610.5839996,2385,-115.8514308,5.806032817,-42.21790689,12.46279399,9.263074811,44.58124396,-73.7926093,-212.7793096,-74.24608563,-83.74947974,35.05976708,-138.0772333,0,-107.3521584,-105.3804349,0,-0.000963872,0.001031643,-0.010751024,
610.5919996,2385,28.50767877,2.946291788,38.08468878,-7.592808653,34.34061014,-26.41293654,149.911381,347.7966675,56.0088793,-25.05851655,-16.30939746,49.2950415,0,84.33081502,-32.55039175,0,-0.000474135,-0.000362992,-0.009093345,
610.5999996,2385,97.0186281,25.2029518,4.80297095,-16.58262638,0.965415936,39.43484179,-184.9301925,-315.3086876,179.1488372,-75.17030273,18.09723248,11.20160442,0,14.45621432,249.6760194,0,0.001061057,-0.001685634,-0.006404098,
610.6079996,2385,-159.2790156,-9.714774217,-18.96372817,22.97664797,30.53070481,14.43816184,138.1877193,192.7730471,-164.6416339,-61.40593209,2.332296987,-133.5198247,0,-68.49976124,-276.5289076,0,0.001150878,-0.001327927,-0.006945604,
610.6159996,2385,193.1637043,21.03737849,51.1919258,-28.50713054,22.41642048,-6.707255054,-48.78549513,33.00224248,256.39958,-36.03968969,-12.1716522,137.7296664,0,142.5079507,292.3634751,0,0.000538807,-0.001291389,-0.007750148,
610.6239996,2385,-113.759092,3.767538028,-41.23335843,16.20927382,12.4729753,56.52324781,-71.46837763,-216.8873039,-77.26262209,-86.56819722,29.12088178,-142.5747369,0,-119.0528878,-109.0467563,0,0.001268271,-0.001421354,-0.007131014,
610.6319996,2385,31.92400066,-1.84336762,35.14134511,-3.792149963,31.69757537,-26.71658401,147.9465838,353.4939749,51.9331206,-27.67673456,-24.44765189,45.90320056,0,96.03244367,-36.43677694,0,-0.000823167,-0.001326792,-0.006931025,
610.6399996,2385,101.1774734,18.41806649,-0.308501819,-18.74855957,4.305968074,29.23568833,-195.0790773,-306.7186777,181.5194595,-72.04584367,15.07797747,17.2744673,0,31.91304171,254.180065,0,-0.003464287,-0.001354385,-0.005565907,
610.6479996,2385,-165.2637745,-15.89567002,-28.75313984,12.43454879,29.29131855,1.588802788,128.7963071,188.3905549,-169.3019692,-61.57756771,-1.767798659,-138.9351452,0,-67.46762453,-283.5935991,0,-0.002913744,-0.001375608,-0.005753125,
610.6559996,2385,193.5313108,22.82046926,47.79798611,-34.40280304,10.21088311,-17.72761571,-51.78977164,37.24374395,251.5285702,-43.79827735,-20.6750894,129.2901443,0,149.4662093,299.2378446,0,-0.002360274,-0.001334168,-0.006554601,
610.6639996,2385,-101.388388,16.19039924,-38.14779669,20.46210839,7.275003804,59.62247201,-79.06942987,-230.363658,-81.37007897,-81.99744647,38.27140829,-139.1827185,0,-103.2287887,-91.77473823,0,-0.002844959,-0.001368498,-0.006068728,
610.6719996,2385,40.72035353,7.615466203,36.93737275,-2.221493535,30.67011559,-21.96778609,150.2973287,339.4885356,37.15662466,-14.80042453,-7.843757028,50.87105554,0,107.4755764,-50.48796431,0,-0.001542521,-0.001351442,-0.005788929,
610.6799996,2385,116.5345383,25.45078889,4.642971962,-16.53368722,-7.300242359,36.9920594,-194.9117916,-316.0901817,180.2177412,-63.72245286,23.26695024,25.66740095,0,35.26576185,247.9933682,0,-0.00011111,-0.001347421,-0.004476722,
610.6879996,2385,-163.5946915,-16.03903638,-26.82620383,14.20351905,16.81239395,9.765221874,125.8784596,179.7300019,-178.3419138,-53.20916137,-2.265080469,-137.3156643,0,-69.90147412,-289.1433428,0,-0.000356669,-0.001362576,-0.00468508,
610.6959996,2385,189.7875783,17.58486988,47.41179518,-37.33250772,4.947076039,-18.16412636,-48.19770918,48.77575166,237.6623702,-38.77346848,-30.42097131,126.523325,0,153.1571308,289.637798,0,-0.000410137,-0.001341468,-0.005474296,
610.7039996,2385,-104.9208115,12.14621423,-40.67344623,19.93460174,5.907881729,59.39708221,-80.23733276,-223.0574754,-83.96525636,-85.8122227,28.41453262,-147.8538108,0,-108.1284259,-99.48681492,0,-0.000139893,-0.001357131,-0.005028045,
610.7119996,2385,20.2177288,-12.52638979,28.36028364,-11.04036894,25.22115623,-32.08386863,155.899028,354.4072556,27.75338795,-23.00855011,-27.36855975,35.01329819,0,96.39800135,-62.10466903,0,0.001506181,-0.001346262,-0.003890455,
610.7199996,2385,110.3422161,12.37578203,3.503546814,-20.63818771,-15.50349904,31.45637428,-192.4835683,-304.2806358,177.2315784,-75.87271931,1.792061297,15.45263917,0,32.77935719,269.0786111,0,0.004386902,-0.001347176,-0.001198873,
610.7279996,2385,-158.2886179,-5.010811188,-21.00322824,30.92016182,18.93671607,21.57437229,124.4405042,175.4384962,-179.4456482,-58.40925055,0.836056972,-142.0668602,0,-67.42798576,-279.5677986,0,0.004127676,-0.001348937,-0.001615533,
610.7359996,2385,193.3025372,17.6349903,46.34607172,-30.46882863,6.711517615,-15.19537789,-47.67584203,46.02789887,240.4329561,-34.61922549,-24.36876886,136.6621875,0,161.5703954,288.0428848,0,0.003361713,-0.001341882,-0.002780792,
610.7439996,2385,-99.2008769,6.449954315,-47.22704403,17.3147582,-8.448007029,51.58753012,-97.25245603,-243.8498185,-85.43307331,-90.77773213,22.68806552,-139.288927,0,-107.143878,-74.11205513,0,0.00424802,-0.001345669,-0.001981618,
610.7519996,2385,27.57526592,0.630413123,29.1237682,-2.565594805,17.89194927,-29.19562801,142.1738541,344.8805511,12.09691501,-26.27773519,-25.53800926,34.61049513,0,99.0160472,-50.34470029,0,0.005445794,-0.002200106,-0.003702357,
610.7599996,2385,120.3454899,24.15434986,7.653476795,-16.39494505,-2.967071886,47.70521641,-193.4958071,-299.6882986,177.9534164,-69.75321696,12.70123581,23.85244663,0,38.8269843,273.0540398,0,0.00833956,-0.003590729,-0.005175801,
610.7679996,2385,-159.214696,-5.560301228,-20.00005609,34.00050608,36.27229038,32.81255465,132.3128886,192.1846728,-181.2884724,-53.27738512,13.03301146,-136.731252,0,-73.55759544,-283.6986331,0,0.00819537,-0.003407679,-0.004992871,
610.7759996,2385,198.893748,31.18642216,55.78802715,-12.12943115,32.83584558,2.596234559,-33.24962022,82.73366951,235.7691057,-18.53767791,-10.30896187,148.9926566,0,178.7441749,283.1953681,0,0.007111328,-0.003026174,-0.005212181,
610.7839996,2385,-93.42487769,26.49125787,-35.12251308,36.76258076,29.23487974,83.52880775,-85.78496654,-233.8430341,-76.45785257,-62.65536102,46.3022375,-115.7371343,0,-83.95414766,-87.49709807,0,0.008185082,-0.003406069,-0.005456805,
610.7919996,2385,18.41700619,4.302513961,32.03112726,4.061761227,45.99232877,-17.39150635,157.8605863,354.4532936,17.21247752,-4.893273224,-2.137162243,55.81522071,0,102.6552183,-85.34947478,0,0.004884773,-0.001409773,-0.005615156,
610.7999996,2385,131.1043638,34.75160881,6.067196523,-9.491360178,5.422964134,56.09775167,-195.7362041,-306.0831969,184.9991088,-55.49571272,23.19516131,45.04225124,0,56.29547318,268.5344295,0,0.000811108,0.001350164,-0.005788614,
610.8079996,2385,-143.1363856,8.455168817,-25.29343536,37.39098517,34.72802272,47.29829503,122.3367553,152.9013543,-179.8870245,-36.71257494,23.85047149,-125.6207539,0,-60.79302367,-296.5752003,0,0.001565121,0.000918748,-0.006007047,
610.8159996,2386,201.321803,24.36079829,48.20531626,-27.61078002,22.73266084,-9.302380693,-31.73800735,67.59094326,240.4603572,-11.74899574,-4.877182512,149.9481382,0,178.1906863,257.3901888,0,0.002238951,0.000344548,-0.006153504,
610.8239996,2386,-91.06199713,20.89487574,-39.94141693,26.96198546,17.00311526,74.58927735,-90.91440451,-244.1384101,-67.70767276,-71.58417924,34.58926906,-126.8284933,0,-82.83307064,-84.68477291,0,0.001441491,0.000992464,-0.006350066,
610.8319996,2386,16.17755032,6.535335517,30.79546281,8.325255519,41.31580046,-13.90870364,162.8040137,351.9679498,15.9780055,-10.70588607,-16.57946876,43.13179969,0,102.4343614,-84.99407695,0,-0.001457664,0.000555977,-0.005668004,
610.8399996,2386,122.7987718,28.08129828,6.733485559,-15.1208106,3.424441494,41.04135254,-188.3051787,-299.4431289,193.4675271,-58.7469716,11.23255813,45.8278737,0,66.92459492,276.6544285,0,-0.007069222,0.000611337,-0.004434563,
610.8479996,2386,-158.9891054,1.971793022,-26.74119652,27.25703123,32.5443258,30.23365023,122.5353622,153.9863988,-179.4611206,-42.85128241,7.451714826,-126.3223889,0,-49.31559401,-285.3377754,0,-0.006529511,0.000750153,-0.004809421,
610.8559996,2386,201.1922704,32.6129416,48.03181247,-25.46106299,19.79495379,-6.930449863,-29.06041909,75.68918655,237.2189269,-10.47687389,-20.74291035,156.1819891,0,174.8208343,274.8288183,0,-0.004652685,0.000469557,-0.005337126,
610.8639996,2386,-69.31481496,41.50659006,-34.30513014,38.67665751,15.86682663,95.76220282,-93.68271995,-248.9585392,-58.39347294,-58.5542814,35.38177565,-113.694707,0,-81.17372829,-67.72666933,0,-0.006427454,0.000675797,-0.005135941,
610.8719996,2386,34.15593675,21.70550327,36.79677263,16.70982634,44.27703394,0.307217431,166.9157888,354.9390812,21.47228956,15.35429185,-3.503643283,58.37271649,0,116.8002016,-100.8735626,0,-0.001705528,-0.002918157,-0.00728913,
610.8799996,2386,143.1735374,38.31429481,7.769561293,-7.693791337,1.669459391,38.63328084,-191.351742,-299.3829147,202.7412029,-38.96383506,16.53415992,64.87713357,0,67.73862294,273.772451,0,0.003775205,-0.008479393,-0.010207416,
610.8879996,2386,-139.0542769,20.89570495,-23.3288334,47.20983477,29.92297572,46.67095338,117.8343817,142.5030011,-174.5627185,-29.21941032,20.61634604,-115.0021373,0,-52.93989666,-298.459052,0,0.002719987,-0.0077213,-0.009939145,
610.8959996,2386,211.1242467,41.56401012,52.62800843,-12.2051114,24.44384188,14.22525071,-13.91587225,83.84560889,241.0911565,12.37007506,-0.577283352,174.562297,0,195.4553816,240.4248157,0,0.002073163,-0.00631899,-0.009513995,
610.9039996,2386,-76.79751373,25.73860378,-48.45436859,25.39487482,12.99628814,86.936743,-88.48904943,-249.8284245,-61.95309933,-57.21066569,30.25412583,-105.8316505,0,-74.99684421,-70.58139138,0,0.003058095,-0.007777976,-0.010319659,
610.9119996,2386,18.14997191,4.554419297,19.75607884,1.308641191,33.75501958,-16.8980066,168.3979698,361.4680908,2.304386376,-1.814225393,-18.05868975,43.88187087,0,103.4975549,-100.0079405,0,0.001632896,-0.005040742,-0.009171805,
610.9199996,2386,137.5792159,30.30742305,7.85246665,-10.09730621,-5.142766437,37.97145764,-183.9131744,-290.3932972,201.1318898,-45.2219501,12.2954744,56.74777198,0,76.13231323,282.1885524,0,0.000365153,-0.002355133,-0.007984556,
610.9279996,2386,-159.8394864,-0.18432316,-30.1649312,35.7378361,17.93178508,39.75805591,121.158429,136.0580094,-175.567847,-43.8501189,5.482399488,-132.4689806,0,-57.36090908,-270.7274031,0,0.000825214,-0.003011969,-0.008452549,
610.9359996,2386,187.3285265,15.11014931,40.79515374,-32.21217401,7.183393849,-12.87543939,-18.02354512,85.68885074,234.3644034,-15.58916298,-27.67513802,148.9598194,0,163.8445788,282.496828,0,0.000846849,-0.003095554,-0.008691986,
610.9439996,2386,-82.11915245,19.90510267,-46.89570553,25.05623013,7.894674225,80.07854812,-99.90975113,-264.8880881,-59.98854277,-70.61076102,21.21089272,-119.545296,0,-95.29487154,-33.20633088,0,0.000816572,-0.002787519,-0.008661143,
610.9519996,2386,11.89931811,8.029548104,22.70116598,7.631336431,44.01949893,-2.501575155,174.4130975,354.5321541,2.993363599,-2.459832106,-15.95074062,38.18762851,0,93.72951373,-93.85881457,0,0.000939685,0.000495443,-0.008058222,
610.9599996,2386,132.6711511,24.27781293,1.273572663,-24.95002045,5.753934928,36.71411758,-175.1068482,-285.1059222,205.0459407,-51.20395579,4.95192779,56.67735679,0,57.14763831,293.869799,0,0.000953995,0.006117814,-0.006783729,
610.9679996,2386,-164.5944361,-4.214682176,-38.39444036,23.86420807,32.7139789,36.24053891,120.643411,135.8668745,-178.6682133,-46.15320558,3.336878333,-139.0409377,0,-71.21108838,-266.6761472,0,0.001003968,0.005494472,-0.007061614,
610.9759996,2386,189.2723859,21.53799546,38.87526974,-31.6267558,27.84154341,-10.84620754,-11.31120052,104.4102985,239.1277343,-6.472278604,-21.16648149,148.783105,0,168.7052414,266.0768084,0,0.001065095,0.003898289,-0.007641075,
610.9839996,2386,-80.56224693,17.99978678,-49.08204453,15.05462561,11.17311704,67.43453672,-95.83786787,-255.381353,-47.54760976,-65.8263682,24.61896568,-113.9441504,0,-99.57403658,-40.19077547,0,0.001099225,0.00553499,-0.007339343,
610.9919996,2386,4.952290674,-0.20981931,21.58299202,-1.644576678,30.92035365,-14.96504656,176.2777625,362.7760279,3.499046708,-4.153835362,-17.06437142,31.2297732,0,90.41549699,-91.86166172,0,0.000290589,0.002709168,-0.006052872,
610.9999996,2386,133.6145003,22.57676873,4.883100481,-23.55149923,-3.249101434,35.08761367,-177.1920915,-281.979324,210.3846081,-50.07581492,2.612586425,53.76486855,0,71.08931238,303.1976475,0,-0.0010495,4.00E-05,-0.003377335,
611.0079996,2386,-168.8704912,-1.683963225,-36.03195483,28.89034244,21.90761269,40.02166729,119.6239117,121.4719731,-184.9292896,-44.00954564,0.424049214,-140.4143985,0,-69.03458379,-266.1724481,0,-0.000833391,0.000751365,-0.003777799,
611.0159996,2386,187.2007127,22.7122691,44.02317194,-27.87137086,12.77032053,-2.273428793,-8.49045969,102.1168188,233.0596061,-3.725742305,-22.89231848,149.3137088,0,172.0392959,270.274987,0,-0.000398211,0.000768411,-0.004865598,
611.0239996,2386,-79.04643011,17.54731742,-44.05535251,18.87742791,10.07969458,73.70725813,-100.8608105,-266.6915198,-46.21542709,-71.61791577,24.18205377,-114.5092466,0,-94.43693516,-25.69455817,0,-0.000743819,0.000532617,-0.004090673,
611.0319996,2386,4.241714282,9.205216898,20.64522115,9.685298152,33.5658698,-5.222992933,174.4098047,355.1296267,-12.17077817,-11.05783767,-16.59183696,25.68872809,0,83.58356632,-96.6654026,0,-0.000421344,-0.001926011,-0.006600128,
611.0399996,2386,147.8555163,35.0011314,8.505535772,-12.57679337,-9.460568813,44.1270217,-182.9051717,-283.6315917,210.7838882,-42.05508533,13.55822679,63.15261838,0,68.39856119,292.9573385,0,-0.000402854,-0.006137387,-0.009455489,
611.0479996,2386,-164.3470009,-1.726821642,-29.14008435,29.41825884,22.90135452,32.62076393,111.6679099,111.6441952,-177.0397832,-42.75240265,12.72607449,-133.8167409,0,-79.0329274,-277.6039148,0,-0.000432637,-0.005680581,-0.009060679,
611.0559996,2386,186.0908396,20.28686541,45.75062707,-32.07403659,13.53253212,-11.16364732,-13.03791962,99.79678009,228.1517779,-8.618304785,-19.16979604,148.1750305,0,170.5780415,257.8016298,0,-0.000207965,-0.004475505,-0.008860793,
611.0639996,2386,-72.5074111,17.19530125,-42.26779032,16.06056306,-5.460122355,74.1491908,-113.5762392,-281.3406557,-51.76847,-67.09897176,27.00875386,-115.5390485,0,-86.51961205,-39.26784281,0,-0.000284072,-0.005704325,-0.009472705,
611.0719996,2387,0.4770152,0.160935862,27.58195331,-0.40170833,24.18785233,-14.64966166,171.9017274,353.2893319,-20.02891243,-11.65862429,-15.39872431,22.21699056,0,76.28629538,-115.495075,0,-0.000993089,-0.001440536,-0.010174337,
611.0799996,2387,149.8964001,31.0585091,12.79016305,-24.6885353,-3.585233881,40.20708589,-186.6242613,-274.82655,210.0199519,-49.71926595,17.08554377,64.85522365,0,64.57156102,293.9902782,0,-0.002339085,0.004048368,-0.011741925,
611.0879996,2387,-156.2852527,6.423399528,-28.99917376,32.0836429,21.60697999,37.69174752,104.5955161,114.9645322,-183.5846048,-49.44556582,14.26219369,-139.9339091,0,-73.48928845,-287.0777148,0,-0.002122223,0.003051859,-0.01181826,
611.0959996,2387,191.9670157,22.87149618,54.10997082,-28.19674208,12.69192697,-34.40384576,-3.494687639,122.3064625,227.1687905,-10.15470756,-21.00738169,145.9950397,0,184.0249698,233.583439,0,-0.00162885,0.002101681,-0.011376205,
611.1039996,2387,-67.10224894,20.50248699,-33.70505827,16.58982684,5.309723635,50.7536772,-111.3817881,-276.2020663,-40.45721972,-62.91411808,33.68532434,-109.2770862,0,-92.8939517,-53.28940076,0,-0.001996729,0.003226369,-0.012043722,
611.1119996,2387,5.268096439,8.688759074,29.90327419,11.1558283,30.92170813,-7.825119077,172.7694709,355.3285463,-17.23461739,-4.941648255,-12.22972486,24.05551686,0,63.47206431,-139.4443811,0,-0.001626966,-0.000985061,-0.00836852,
611.1199996,2387,155.0893663,28.48621158,12.52592675,-17.77191545,-5.584521261,43.57081031,-184.300056,-272.0781265,220.2417002,-41.4018827,6.746749043,67.84437433,0,74.92364998,274.2285182,0,-0.00160256,-0.006458329,-0.002955206,
611.1279996,2387,-166.4828357,-4.749051183,-39.33889883,27.83013828,19.33351984,41.37539081,97.1859364,99.72949624,-184.4487216,-45.74668675,-1.462217037,-148.5363502,0,-86.75524958,-302.1598985,0,-0.001616174,-0.005490709,-0.003920647,
611.1359996,2387,185.0842734,15.28213937,40.64057864,-27.99571271,9.159368617,-3.296012291,-14.80446184,125.3439624,217.229708,-14.79673866,-37.9494442,138.1468471,0,167.3243348,232.9333737,0,-0.001363092,-0.004475937,-0.00529996,
611.1439996,2387,-70.42833152,8.75608158,-47.57446444,14.74871548,-2.773191126,76.73542773,-130.6862788,-282.6664149,-42.76463233,-75.0146651,15.92326984,-115.4202479,0,-88.18534653,-43.19016826,0,-0.001433827,-0.005644297,-0.004071514,
611.1519996,2387,-11.23001173,-0.841736208,15.29263993,7.52576456,28.8179629,-7.686072758,163.7950155,346.6314464,-34.84876881,-17.13690802,-28.7527722,7.332770711,0,60.80878049,-151.4304803,0,-0.002974854,-0.003960768,-0.004272388,
611.1599996,2387,155.4333457,36.41623506,7.809897027,-12.76752905,-0.517647085,50.39911242,-186.8526956,-274.1880862,205.0366772,-46.06645879,3.835904986,64.04490759,0,72.35228441,259.0718716,0,-0.00569951,-0.002673235,-0.002903294,
611.1679996,2387,-163.9044142,-3.880192541,-40.26019354,26.73296151,22.8966915,44.4503645,96.66953599,85.53647587,-195.1425734,-47.96863709,7.029847263,-148.5830281,0,-87.24729138,-335.2362673,0,-0.005282859,-0.003079392,-0.002926589,
611.1759996,2387,180.648994,6.228065459,41.79426929,-37.73553842,15.82898441,-19.59933848,-5.890686509,126.3170052,209.2899549,-19.62121002,-37.30384434,134.7965849,0,163.0297866,196.7458563,0,-0.004391533,-0.002943545,-0.004034142,
611.1839996,2387,-73.63025976,7.16466861,-42.0809144,8.164693732,5.380997277,63.35872188,-129.690344,-279.845581,-41.40147711,-81.79707945,13.12315288,-118.8531534,0,-100.3309828,-53.74599255,0,-0.005126129,-0.002916265,-0.003346324,
611.1919996,2387,-27.92052446,-11.38682314,18.1715269,-6.149600418,27.31212479,-39.75979186,167.2357091,364.1002222,-38.25026168,-27.61576931,-35.21610733,-4.399072498,0,40.47807164,-154.7490534,0,-0.002743047,-0.004617385,-0.001503734,
611.1999996,2387,138.4395136,13.37461801,9.427762366,-33.50807823,-10.11829994,0.028935564,-189.8494816,-253.8214051,208.434017,-64.00273391,-15.44622206,54.38629873,0,54.77255306,288.1919044,0,5.46E-05,-0.007363732,0.002575876,
611.2079996,2387,-181.6804973,-20.57152472,-34.15992885,18.79364934,15.28154246,28.68645297,81.64232848,81.13443636,-200.6140713,-66.1155615,-9.738469739,-164.2653933,0,-106.9867824,-298.2472265,0,-0.000375242,-0.006973049,0.00203731,
611.2159996,2387,173.3456455,4.192747438,51.71480313,-35.56321349,9.249208249,-3.779509498,-15.62674358,127.5062421,198.0422589,-25.37255773,-41.10594738,121.6224715,0,151.2729663,220.417935,0,-0.000681833,-0.006180945,0.000368399,
611.2239996,2387,-71.13993778,9.719311547,-40.82782994,7.58072366,-5.192563825,75.28375349,-146.500692,-295.1178713,-47.01600174,-77.68992699,12.16213024,-120.3334786,0,-93.84858462,-32.10946003,0,-9.10E-05,-0.006923936,0.001631776,
611.2319996,2387,-34.78953933,-11.70636783,12.36257718,-7.872542022,20.17707433,-23.50760011,152.7379633,343.6333618,-59.59289703,-18.44670331,-39.4669438,-9.274519222,0,47.99537197,-160.1180526,0,0.001384751,-0.004611445,-0.001299039,
611.2399996,2387,141.1994336,17.6039654,7.752946794,-35.29281772,-11.76244162,30.65017144,-199.4696742,-260.1501046,196.8904954,-54.39370065,-15.83991745,54.81556309,0,57.0995559,283.8409156,0,0.004293033,-0.001864199,-0.004135278,
611.2479996,2387,-269.3666904,-14.42125545,-76.73185749,27.39945733,9.929295434,69.3967515,22.66971647,-90.04436131,-285.4670879,-87.31996671,7.677662164,-255.7914614,0,-204.9651902,-380.8083387,0,0.006714424,-0.000606168,-0.003701318,
611.2559996,2387,144.6076886,9.895008233,-1.68587753,-47.84755626,-5.911469171,17.56990915,-197.7948727,-253.631353,216.1334526,-69.4745939,-32.01471208,50.04258795,0,53.81463589,309.1028529,0,0.009999438,0.001799823,-0.00376638,
611.2639996,2387,123.1875406,28.22013822,-49.777703,-39.58537854,-33.06216757,94.61221226,-482.8031887,-846.443614,241.8411291,-120.9061847,10.12684428,-39.58275008,0,-70.4691128,447.6042255,0,0.010459894,0.001999244,-0.004259687,
611.2719996,2387,-55.60048637,-2.708327668,-39.81152189,-12.22334556,0.776335495,42.30979653,-98.58601341,-189.9281085,-25.76489912,-81.28529884,-13.22656206,-100.2812635,0,-75.18371387,-18.7177195,0,0.008753043,0.000942059,-0.004288379,
611.2799996,2387,49.89025535,7.451062146,-16.85828885,-26.56182302,1.590369774,31.14354121,-140.3998272,-199.3290237,96.89192021,-72.78286359,-24.83166074,-20.0963753,0,4.192959532,151.4665796,0,0.010020442,0.001786161,-0.004495285,
611.2879996,2387,-101.23324,-13.28770809,-15.41809577,2.437180929,27.78661114,0.092680354,125.5778537,243.9817501,-121.31155,-45.60498721,-33.19782136,-83.25325837,0,-9.74070928,-205.8780716,0,0.009458013,0.00140316,-0.004791767,
611.2959996,2387,105.9191695,-3.823136284,11.79426985,-38.62287939,4.551793694,-24.14788626,-53.8042196,21.98913145,138.3423785,-45.38333602,-34.68914956,61.16734246,0,93.31977704,173.9164477,0,0.009164588,0.001268565,-0.004855404,
611.3039996,2387,-77.90861542,-5.676715718,-43.58188397,-6.654712948,-4.75999368,30.55376271,-89.16331742,-174.2574311,-57.43930873,-86.08148419,-8.289509021,-113.0996523,0,-73.79003111,-40.44398103,0,0.009737735,0.001616672,-0.005144691,
611.3119996,2387,-18.20348693,-14.91562456,12.12339572,-12.37830148,21.86445072,-26.60268822,163.9374807,371.0841128,-41.2715179,-27.46870107,-42.56002324,1.459080771,0,71.70774367,-116.8472731,0,0.005569615,0.005484156,-0.007011816,
611.3199996,2387,102.3733216,0.094400859,-15.26207556,-43.86863427,-10.68892134,16.03936791,-191.7234841,-266.6724619,160.5385559,-68.53540229,-12.54935071,24.93980291,0,30.10382994,255.6899628,0,0.000416713,0.012706974,-0.009966027,
611.3279996,2388,-161.5294968,-27.27250227,-44.11999779,-6.837055677,8.300153419,6.737547266,102.0993185,159.8434236,-182.9678688,-69.00479419,-23.40785713,-141.5161749,0,-85.18094205,-256.946894,0,0.000902272,0.011659661,-0.009832623,
611.3359996,2388,146.6591508,1.103945993,20.44430052,-47.50134597,-9.078074093,-19.640891,-17.5026071,121.2852564,166.3277823,-39.93091923,-41.25952649,92.34956526,0,122.7827397,199.2110631,0,0.002292037,0.009709682,-0.009202439,
611.3439996,2388,-59.28150517,2.710169045,-56.30757074,-10.31969195,-19.60282124,43.14698119,-132.8407244,-247.1921025,-44.71107869,-86.10757987,4.419179629,-116.9524807,0,-93.87074361,-17.37518818,0,0.000918913,0.011714687,-0.010184861,
611.3519996,2388,-32.6092343,-14.762569,2.506396372,-15.78407066,7.374447287,-33.42067247,161.4474675,361.1591928,-70.54449047,-32.69320013,-36.74704901,-21.32392688,0,32.02030965,-154.9323033,0,0.000861107,0.009319786,-0.011509487,
611.3599996,2388,139.9007886,15.55747936,-2.994044516,-37.64266864,-27.12542644,20.73740827,-191.9919254,-249.8003371,190.3140311,-65.14635549,-7.570438419,48.50625152,0,50.84222503,287.1938412,0,-0.000502678,0.008139092,-0.014516164,
611.3679996,2388,-171.3529906,-10.31916559,-47.51717073,15.43459496,6.187610163,30.1380082,75.02068105,86.71543701,-199.446904,-67.64454381,-1.214283076,-154.1925153,0,-95.79656682,-278.4290805,0,-0.00075076,0.00859233,-0.014474259,
611.3759996,2388,160.4905486,7.410071785,39.6442275,-34.82007594,7.206387745,-18.77880224,6.319268939,156.0140368,169.7337228,-32.35557973,-27.93128175,114.7593518,0,148.9285384,181.4320531,0,0.00029263,0.008057975,-0.013512529,
611.3839996,2388,-54.77389165,8.181792856,-42.13322993,3.046685317,-13.36888214,64.52616616,-131.3093825,-263.7413805,-35.12469448,-87.03985929,16.11282413,-108.6487124,0,-72.64008626,-10.91671793,0,-0.000554022,0.008258845,-0.014682332,
611.3919996,2388,-53.29097066,-23.39574335,-0.140301262,-9.173639593,5.402217217,-18.86396999,163.236767,358.639824,-83.98010138,-32.86781412,-36.68220235,-25.54613333,0,39.57250993,-170.0045141,0,-0.001695554,0.006210784,-0.012355184,
611.3999996,2388,138.5690043,-3.95252366,-1.821815444,-44.91635247,-27.10191499,3.350567022,-193.4128553,-234.4781279,197.0100115,-75.33873801,-17.93638051,55.796524,0,58.72501344,291.1340046,0,-0.004477884,0.003394988,-0.009774219,
611.4079996,2388,-196.0877868,-32.67617831,-57.39486766,4.409056237,1.800497775,8.633669001,62.34649248,56.82513954,-208.9196498,-90.71502206,-10.03928042,-178.9992959,0,-120.291995,-290.8953947,0,-0.004295016,0.003666825,-0.010447727,
611.4159996,2388,140.2607303,-24.10844382,24.76474278,-57.43292307,0.114591567,-51.45918896,6.666129022,161.4342092,163.5724194,-50.10648919,-49.04925916,97.15610029,0,132.7292841,184.3929608,0,-0.003107862,0.004212717,-0.010847613,
611.4239996,2388,-66.77992494,-24.22815536,-54.22231736,-22.2737936,-15.95561836,21.74124288,-146.7000993,-286.2044339,-37.96572523,-116.7930828,0.113891291,-129.2378952,0,-101.9273624,7.195750456,0,-0.004131377,0.00345119,-0.010525863,
611.4319996,2388,-60.13695574,-40.28005593,-4.151206196,-24.23399896,7.356130776,-50.44531212,164.6713846,356.5562324,-88.70376163,-60.30190068,-41.0465883,-46.44892221,0,4.891247956,-155.0571454,0,-0.003324496,0.003787939,-0.006593497,
611.4399996,2388,148.9026871,-6.062155713,0.258101839,-49.22999308,-24.79319544,5.369217552,-184.7220835,-227.624099,205.6489759,-81.37421696,-20.45660543,50.7140245,0,48.4968599,332.0145576,0,-0.003361386,0.003683708,0.000290815,
611.4479996,2388,-185.5529464,-30.06238549,-51.02349442,8.52181005,3.927377102,24.81308294,65.02668493,43.71619103,-206.8710946,-89.21990791,-4.50954604,-185.0952106,0,-125.210054,-271.739503,0,-0.003498494,0.003414113,-0.000594803,
611.4559996,2388,161.0648713,-4.893960142,38.88317572,-40.26763267,5.178483771,-25.06286108,16.33261693,170.9636833,170.4935749,-40.84854985,-34.84974192,101.5246425,0,131.9210516,182.3770776,0,-0.002969256,0.003646962,-0.00276368,
611.4639996,2388,-48.76798261,-4.923389567,-47.53575715,-9.001087101,-6.882928624,50.00598734,-142.6412486,-294.5034218,-25.17876038,-97.87785524,14.85068837,-117.9146377,0,-97.28700855,-0.967228447,0,-0.0032473,0.003334816,-0.000812799,
611.4719996,2388,-60.72618699,-41.57257848,-5.993920254,-26.02344342,12.156943,-50.05118343,176.5368784,351.047742,-94.18094601,-49.69308056,-38.97593015,-46.22369348,0,13.66778548,-188.4257736,0,-0.002038237,0.001692583,-0.002351816,
611.4799996,2388,153.0077675,-2.651067141,-0.779714202,-45.33559814,-32.26596402,1.997396701,-182.2268824,-222.9058397,202.6283769,-78.36617382,-25.07020171,51.2508939,0,60.32207744,321.7202989,0,-0.000607591,-0.001169033,-0.002326025,
611.4879996,2388,-186.2017775,-23.91782768,-59.99786639,12.62004646,-9.20752937,23.10265277,58.57505964,45.35492568,-210.6117919,-86.00079358,-6.172220515,-182.1281306,0,-122.9457263,-268.4066273,0,-0.000748118,-0.000930595,-0.002017733,
611.4959996,2388,158.8328767,-10.35798057,26.99871954,-49.58623065,-13.46475398,-45.09381849,17.31742588,183.0161145,164.0404653,-41.04980281,-40.7897717,107.6380362,0,132.2108575,185.2834534,0,-0.000889554,-0.000134208,-0.003071804,
611.5039996,2388,-44.76008316,-4.543551415,-56.39352208,-13.93048373,-36.66795407,35.11714792,-161.9842314,-310.0558054,-23.09134193,-98.62122534,7.864697328,-110.1387593,0,-88.4139446,26.33384675,0,-0.000537416,-0.001044999,-0.00252901,
611.5119996,2388,-58.43079255,-27.26729308,-11.7656217,-17.10883646,-4.694507969,-42.01152047,158.222842,338.3659528,-92.90483847,-48.65495315,-38.42011983,-39.6682217,0,23.81196564,-176.9023459,0,0.002823922,0.00122106,-0.003189614,
611.5199996,2388,168.4195268,7.617415447,-2.13812885,-39.89818851,-28.72938484,14.39541408,-190.2092887,-226.0213935,215.1584633,-75.26715689,-18.69887264,66.23079822,0,59.49063027,313.0083137,0,0.008475967,0.003878499,-0.003291252,
611.5279996,2388,-168.8995842,-18.12816775,-60.54239607,20.50870043,0.072209251,33.90611558,49.12607597,28.17312132,-202.1761246,-80.65120929,-1.898885492,-172.3599803,0,-118.3290824,-280.6412878,0,0.007913258,0.003305609,-0.003342906,
611.5359996,2388,168.905664,-3.976049616,30.42306709,-34.03826749,3.908604655,-34.93786769,22.99721722,187.039556,173.5624518,-36.31088549,-39.86819227,115.040035,0,155.9095885,177.4540066,0,0.006356681,0.002878214,-0.003817849,
611.5439996,2388,-38.44171149,-4.097418216,-54.26558512,-0.294078066,-20.04556084,51.25188595,-156.0500299,-311.5971825,-6.064974107,-100.1480388,9.455033902,-103.235718,0,-84.99884523,23.67602704,0,0.008051019,0.003324461,-0.003751095,
611.5519996,2388,-58.65595156,-30.54308839,-15.02901077,-6.554245378,4.304577635,-29.92231849,169.1938875,336.0595486,-93.21315697,-50.76220166,-38.35618121,-40.46100315,0,16.73665036,-204.312024,0,0.00869886,0.006396167,-0.005846801,
611.5599996,2388,167.5741337,-0.472825668,-4.59858365,-41.43132725,-23.81586972,2.849967272,-173.4420907,-218.2321436,230.1720366,-74.43753054,-21.70835585,74.53426206,0,70.29845113,301.3964692,0,0.011652243,0.011954108,-0.008753569,
611.5679996,2388,-177.4101221,-18.22716185,-64.93596357,18.48022386,-0.057732434,29.76228436,57.46893809,25.3314159,-185.1044188,-83.5687533,-5.90347191,-166.8957434,0,-120.5568088,-280.6535344,0,0.01167213,0.011302895,-0.00855973,
611.5759996,2388,168.9138743,4.955030179,25.44327498,-35.40404698,2.072335097,-37.73733954,37.83972071,198.7248638,179.4830079,-36.51611408,-43.04805354,118.7738485,0,148.2889017,147.0721812,0,0.010228085,0.009534735,-0.008065228,
611.5839996,2389,-33.20578871,-8.675106154,-60.83386024,-15.41531903,-21.5214015,32.90970244,-148.5756464,-308.6549647,13.34651246,-100.5181992,1.254299494,-97.50677233,0,-95.50961275,5.543794558,0,0.011554688,0.011170922,-0.008929731,
611.5919996,2389,-63.05493147,-33.629264,-24.4911506,-17.36516993,3.831751817,-26.75712391,167.3698035,337.67345,-87.85724161,-55.10754274,-58.25872677,-47.14868842,0,-1.36874848,-205.7049186,0,0.012343064,0.00906935,-0.007769345,
