,Time:125Hz,Epoch,FP1,FP2,C3,C4,P7,P8,O1,O2,F7,F8,F3,F4,T7,T8,P3,P4,Aux1,Aux2,Aux3,Event Id
53563,428.5039997,1673,-148.9503799,5.433722822,-46.38177248,41.19169466,4.286642622,81.77378893,-90.75536811,-201.8945489,-174.4013996,16.88027264,57.13775097,-88.98458114,0,-128.7232718,-120.372931,0,0.001146443,-0.001178074,-0.008405275,1111
53564,428.5119997,1673,-7.660594088,-7.978444268,60.23369192,-15.45297266,-6.931373809,-35.94197406,235.862134,324.1154954,320.2516873,39.89861649,-22.96537459,144.3920657,0,116.6208378,394.7311045,0,0.003962082,-0.001215894,-0.001425721,
53565,428.5199997,1673,21.35466143,43.0555903,-61.26005737,16.64494833,-53.48323687,86.7815083,-280.0903338,-337.6943072,113.6706892,2.407960111,10.22474403,42.52505515,0,24.90594837,469.586395,0,0.00358928,-0.001256389,-0.00233954,
53566,428.5279997,1673,-153.4920654,-25.27825092,29.9681435,24.94765035,26.93004911,6.751867191,237.0614533,201.5565901,-52.95803139,41.78229898,27.76540649,-33.42534585,0,-58.22060681,-175.8829819,0,0.003046254,-0.001416654,-0.004434945,
53567,428.5359997,1673,103.8585732,34.25225309,6.926039082,-9.665947002,-51.18599769,37.75071977,-71.14351651,-11.58594769,409.6317718,24.37253348,-34.54112958,188.2722245,0,181.1618923,776.7006587,0,0.003747679,-0.001424067,-0.002450429,
53568,428.5439997,1674,-146.9213333,3.485817128,-49.72424286,40.74870644,-11.7528347,95.37339699,-90.49554761,-212.2196214,-176.9868661,17.5664858,44.70695024,-87.08141021,0,-116.4611786,-111.902577,0,0.003360549,-0.002406185,-0.004847164,
53569,428.5519997,1674,-8.780282236,5.389837003,57.93271524,-5.891519725,-15.27997423,-5.15243393,229.6310228,314.3408163,304.4829491,47.08668528,-24.15721156,137.8363773,0,121.85616,382.0703265,0,0.003448665,-0.00386844,-0.006133302,
53570,428.5599997,1674,18.57087073,53.64286889,-59.1369495,27.19060674,-52.00002734,101.0971079,-284.3785982,-345.0158093,114.8515928,21.67327392,28.88123295,49.70099027,0,33.9432976,434.3287015,0,0.003647623,-0.00374638,-0.005656648,
53571,428.5679997,1674,-183.4717108,-37.27476733,27.54300551,15.64204833,14.23026467,-7.056307353,233.1849512,195.501554,-58.5315935,37.16814899,29.92823429,-41.29253583,0,-70.78057653,-210.3330199,0,0.003397768,-0.003475587,-0.006270387,
53572,428.5759997,1674,86.32197703,39.21829164,13.76122374,-8.108183835,-54.82037353,40.87763908,-75.94117838,2.529042145,408.4507693,12.92401774,-34.39434342,174.717453,0,169.07629,750.974327,0,0.003656217,-0.003903852,-0.006091941,
53573,428.5839997,1674,-147.9290988,10.19139405,-38.5652116,47.86075433,-0.315483013,93.72332168,-97.02539284,-201.8393342,-162.1770247,19.01355825,65.98354144,-85.91168729,0,-116.9771096,-162.1201536,0,0.000962477,-0.005444092,-0.007310518,
53574,428.5919997,1674,-28.38820278,-13.8826008,64.67313708,-16.39681243,-10.17363982,-26.9164367,241.0227959,333.3352723,315.4391468,35.14174466,-19.44180644,130.0937573,0,107.9953035,330.3369694,0,-0.003166276,-0.008318106,-0.008788782,
53575,428.5999997,1674,7.827494789,50.190973,-54.55139834,26.82219397,-49.90230443,108.4894451,-284.3592432,-330.1628821,119.8278756,3.838916025,17.49033967,32.72091714,0,20.00598035,426.4917461,0,-0.00254369,-0.008096219,-0.008713961,
53576,428.6079997,1674,-180.7981761,-22.14829431,31.60701033,31.86195636,23.7211919,14.06952369,226.3219964,199.214346,-57.75775884,43.13981472,38.43523009,-48.39990442,0,-71.9179463,-244.4237663,0,-0.001481479,-0.007242167,-0.008594692,
53577,428.6159997,1674,84.73918429,38.94080214,16.07853509,-5.737256155,-46.80640016,37.86870456,-67.86709033,14.71092822,423.3624478,26.48717503,-22.93058423,180.0016426,0,171.5452121,708.9566232,0,-0.002515717,-0.008180893,-0.00900234,
53578,428.6239997,1674,-159.1538913,-1.7210389,-44.96400712,39.44834664,3.224160984,84.94535621,-94.54063439,-205.339964,-162.0432504,13.77574551,60.63173277,-91.47725521,0,-123.404334,-187.1357132,0,-1.23E-05,-0.010183403,-0.009831033,
53579,428.6319997,1674,-40.36762124,-21.55525678,59.16445876,-18.95653909,-9.813577587,-39.2627308,249.8904272,329.5401213,305.0721255,27.91243753,-27.99142414,123.1546296,0,104.4141421,301.7091289,0,0.002737813,-0.014466922,-0.011338581,
53580,428.6399997,1674,12.14976499,48.27205388,-56.61755907,27.77653542,-52.06789507,105.3166385,-284.1690282,-330.9719402,127.0079777,1.535586254,11.20994033,39.05086774,0,21.36145008,423.3322565,0,0.00219244,-0.014136727,-0.01138109,
53581,428.6479997,1674,-167.6041301,-21.39084861,32.47939843,37.14281912,31.58324652,28.39824266,224.9108642,199.7300057,-62.32421844,36.26257169,41.04516605,-44.69681041,0,-75.90872473,-268.849245,0,0.001968259,-0.012640547,-0.010984267,
53582,428.6559997,1674,101.69688,44.43833238,23.6099923,3.105076668,-35.29406918,41.57512446,-55.70386874,16.74819154,431.3151637,27.78592754,-10.27701529,192.3855559,0,175.2146528,676.4896418,0,0.002431217,-0.014101841,-0.011588536,
53583,428.6639997,1674,-140.6104926,11.55591614,-39.55925639,51.75429885,10.55226064,99.47371289,-99.86665162,-222.2815631,-149.7620961,25.86472933,71.5482546,-78.02982512,0,-124.1526454,-203.2000351,0,0.001346514,-0.007920569,-0.012234169,
53584,428.6719997,1674,-21.19455824,-8.703587868,67.95614091,-9.575506981,1.230422658,-17.93662244,249.0217421,330.8266198,308.7560209,38.93954996,-10.8551115,133.1025012,0,106.0849009,267.4303926,0,4.69E-05,0.000309769,-0.013762505,
53585,428.6799997,1674,31.18810602,57.7458255,-43.12231908,27.33174651,-41.34436777,103.6758461,-277.9146192,-331.1545925,147.7143024,8.523369312,34.06869602,58.25681861,0,37.37214044,396.7389102,0,0.000374864,-0.001047229,-0.013796731,
53586,428.6879997,1674,-161.6042529,-17.86090976,36.68644796,30.76556227,33.82357999,22.67823955,224.3117837,173.0247545,-52.72550265,40.9104736,47.05847304,-37.04058205,0,-74.75492198,-296.5340725,0,0.000631401,-0.002657241,-0.01330181,
53587,428.6959997,1674,266.2912885,73.16685655,13.58507377,-34.42548769,-88.72361986,42.96673489,-217.6869439,-91.41457457,735.4014946,13.64184212,-63.49153946,327.3060122,0,325.4712601,1244.66351,0,0.000429998,-0.000826594,-0.013945595,
53588,428.7039997,1674,-12.67842369,54.29031893,-88.7379404,42.46735659,-40.2060498,147.7217941,-405.8649821,-541.0887261,-17.64902753,4.342595812,52.980755,-21.3759437,0,-48.06893614,205.282071,0,0.00067086,-0.002060715,-0.013646711,
53589,428.7119997,1674,-214.1542499,-50.27589413,75.60453025,23.90840392,58.44166255,-20.75103128,444.0721065,433.3659562,-59.6025809,63.16197144,38.16102333,-35.47048671,0,-76.39920134,-476.8140534,0,-0.000169395,0.000653057,-0.01205759,
53590,428.7199997,1674,133.3891347,52.12693216,-0.735698006,-6.717798296,-57.38640004,55.22403928,-166.2535728,-105.5422297,450.3335792,28.32310839,-20.19077477,200.5061326,0,185.3797783,760.6955914,0,-0.00154694,0.005233296,-0.009460874,
53591,428.7279997,1674,-105.1593142,15.62119393,-39.03802405,42.90816513,-0.076836624,94.26191834,-104.8798232,-211.9170833,-98.96686376,29.03326212,53.64960861,-60.9800313,0,-93.02196446,-137.4478584,0,-0.001209503,0.003875425,-0.009659352,
53592,428.7359997,1674,-69.21556305,-15.98017534,56.90463369,8.418138189,20.06661341,-1.284089625,280.4687009,311.7373388,157.2499988,55.15820149,-1.085388835,56.47448636,0,36.40451768,-8.595865361,0,-0.000851828,0.003324308,-0.010669611,
53593,428.7439997,1674,88.2114715,45.00604986,-31.28135939,5.559164672,-45.01531253,86.88956403,-221.603349,-221.6891488,283.3126475,27.560803,-5.966026907,117.8048018,0,110.791396,543.111705,0,-0.001120005,0.00402489,-0.009835011,
53594,428.7519997,1674,-151.9102379,-18.86314483,-6.367774145,31.24066602,30.00917556,50.97031695,84.84221719,12.43345544,-118.9527886,44.41673217,45.11012309,-67.06533173,0,-92.60529595,-326.9571459,0,0.00092628,0.000620268,-0.012187169,
53595,428.7599997,1674,43.7099089,13.19662737,40.19577577,-2.149694783,-1.97139425,3.480158256,106.0120659,183.4379017,331.5301779,47.49690446,-22.23338424,139.7197776,0,133.6963341,346.885088,0,0.003726129,-0.003388222,-0.015004498,
53596,428.7679997,1674,11.63708408,42.17501794,-42.34014323,35.12225155,-9.470624727,99.59636147,-212.542684,-268.2220484,81.72116471,37.299419,28.98061472,22.5336343,0,14.31358396,165.3663298,0,0.003387649,-0.002955902,-0.014480695,
53597,428.7759997,1674,-112.506585,-26.08660758,35.56413204,19.49899423,38.9075686,22.9443109,236.0998679,217.7305689,14.26648443,64.85114273,22.52871841,-9.311288102,0,-18.89980947,-267.1276942,0,0.002839786,-0.002184705,-0.014198843,
53598,428.7839997,1674,111.5925392,37.88339793,3.494186059,-0.751800228,-35.20324208,56.85600306,-88.9674523,-40.08438845,377.2849992,39.93473785,-30.39288279,157.0811395,0,172.4164071,548.0494322,0,0.003567395,-0.00320329,-0.014728173,
53599,428.7919997,1674,-114.4204345,6.306335361,-30.51588625,50.02196365,17.52687578,80.8393276,-47.17484114,-149.8382119,-127.4996388,49.14270615,49.77779616,-69.84702723,0,-81.84721422,-288.8515052,0,0.003180271,-0.007873415,-0.014461534,
53600,428.7999997,1675,6.711417561,-10.55718064,58.86710254,-4.881785828,0.421760943,-12.63400841,217.5125303,287.3791923,298.9200255,67.14913595,-21.12734041,131.2626561,0,127.8296011,184.0001547,0,0.003289705,-0.016344625,-0.014567653,
53601,428.8079997,1675,36.36991156,45.29546979,-41.55945869,30.87337981,-39.17566331,108.4851822,-249.1377238,-291.7973711,135.0777178,36.77092704,11.48979814,46.54610929,0,51.85537382,276.3677788,0,0.003493845,-0.015584275,-0.014724486,
53602,428.8159997,1675,-139.435368,-19.13805614,30.34322752,38.77664518,40.99991552,37.96714362,208.1861447,173.3180709,-55.80514306,74.07445077,37.44253492,-36.39933103,0,-44.60008717,-374.2272337,0,0.00325905,-0.012990358,-0.014579099,
53603,428.8239997,1675,110.9658952,33.13878609,16.3830124,-4.465857094,-27.00480464,53.61771523,-42.95672766,21.05032662,404.989947,57.67066697,-29.69759244,184.7120887,0,195.8052253,530.4657681,0,0.003528092,-0.015655663,-0.014781498,
53604,428.8319997,1675,-115.9641666,7.732635761,-42.35504203,44.84910784,14.36627928,105.3111564,-96.37124288,-213.8350681,-154.5537678,46.58168718,48.21877877,-72.03631042,0,-82.91424155,-296.6744855,0,0.003423901,-0.012178628,-0.014728925,
53605,428.8399997,1675,-12.11867802,-17.4739636,58.53771143,-15.31639007,22.08456095,-13.44407263,252.8895449,323.2841344,272.7786458,63.8969642,-20.39179868,127.6503256,0,127.0846484,106.4314697,0,0.003481196,-0.00961493,-0.01477809,
53606,428.8479997,1675,42.09707907,38.32395507,-55.16158588,11.99589872,-21.81972086,99.26251164,-257.3799088,-300.6620531,150.5686975,30.28752026,3.095868446,60.16719341,0,66.27179754,291.1432898,0,0.003568196,-0.010548172,-0.014859183,
53607,428.8559997,1675,-152.4543376,-35.12979677,20.60297423,26.49869316,48.00038026,23.68406215,214.8938631,168.8451854,-87.98583983,65.26108577,23.57833183,-48.59389041,0,-60.67765343,-410.5921224,0,0.003508211,-0.010150537,-0.014826167,
53608,428.8639997,1675,111.2822228,14.79805122,13.24780724,-22.33447454,-30.42017468,32.03842648,-27.98045885,38.55251473,405.7311158,50.86800259,-42.84990961,182.9934337,0,193.1198547,540.1081287,0,0.003625213,-0.01025392,-0.014923363,
53609,428.8719997,1675,-114.1745728,-3.181621303,-60.82047007,29.93010374,15.12055554,95.62013029,-115.4451029,-240.8854373,-162.2470662,42.84618675,42.77834239,-87.58530598,0,-100.1734089,-300.3800304,0,0.004458921,-0.005835609,-0.013197292,
53610,428.8799997,1675,-12.61651616,-21.26082306,52.92129728,-12.80357893,35.27792238,-10.99231655,265.9094536,330.3118549,258.1590851,68.77452726,-27.33617324,110.6097014,0,104.0295425,75.88273568,0,0.005900554,0.001121712,-0.01046105,
53611,428.8879997,1675,56.33282016,40.8105903,-51.97567935,21.51208037,-12.61882538,110.8419517,-259.8600106,-319.8002834,150.7588043,43.63551899,10.97500616,65.06584177,0,70.85426718,285.8804644,0,0.00575764,0.000257036,-0.010863602,
53612,428.8959997,1675,-147.9087784,-29.32266932,20.75414764,32.29847144,59.42645583,31.71205618,215.3956925,151.2037278,-93.38113661,70.79762779,40.29638872,-43.20272086,0,-55.84098046,-458.6753051,0,0.005384631,-0.001557402,-0.01163179,
53613,428.9039997,1675,118.968605,27.92201191,19.52737562,-9.68140101,-9.877911528,39.60855064,-22.68213214,42.12560266,414.8006045,50.65446689,-30.55920438,194.5937471,0,200.2432595,503.6003107,0,0.005821041,0.000329522,-0.010920604,
53614,428.9119997,1675,-103.955026,11.47969968,-46.91882768,52.36769502,32.01137459,108.0921026,-116.0548205,-259.1428017,-154.2525623,52.19415522,66.07438748,-71.38927471,0,-84.0054019,-340.2191382,0,0.006416259,-0.0026543,-0.012341855,
53615,428.9199997,1675,-8.458094351,-12.6050592,65.67846006,0.100072763,33.66546005,-6.24620642,282.4355123,329.2250879,269.2784937,69.68945295,-15.40318407,122.1035967,0,116.6173238,33.00146456,0,0.007869234,-0.005325339,-0.013719374,
53616,428.9279997,1675,65.13583758,43.17269019,-48.75590899,22.31844724,-23.25085423,105.8435409,-258.7566896,-316.9080006,160.2640575,32.86106782,7.021685634,67.09767213,0,72.76073032,279.3538283,0,0.007786439,-0.004537698,-0.013424649,
53617,428.9359997,1675,-141.7872506,-31.98687031,21.6830167,29.14166278,47.40013778,16.23934737,212.6915804,149.4068069,-105.6206931,66.28774615,40.60723906,-54.07118265,0,-62.41882974,-480.1375096,0,0.007250985,-0.004646094,-0.013426174,
53618,428.9439997,1675,130.7441125,34.63002284,21.96131506,-12.74973838,-28.73363394,34.06567406,-21.01887862,52.97719723,412.9095448,50.46386206,-35.15929546,187.5342033,0,200.1430366,503.3989151,0,0.007781677,-0.004796404,-0.013608407,
53619,428.9519997,1675,-91.99795299,29.26098729,-44.58456112,57.65272513,18.77410552,125.4093451,-130.7508113,-252.4215844,-159.1555509,57.53430142,64.48815744,-74.63660285,0,-84.76579863,-329.2596435,0,0.00570181,-0.007312265,-0.017867974,
53620,428.9599997,1675,-3.349085573,-0.747976803,73.18374694,6.909010263,32.92029199,-3.406534078,280.1771867,343.0414811,262.434756,88.08687697,1.979075307,125.7530755,0,126.1532155,-0.445143268,0,0.002969221,-0.011530712,-0.024883685,
53621,428.9679997,1675,72.67817427,52.25909725,-41.79287494,22.50996947,-24.88684912,105.7818235,-264.9744822,-314.3993001,174.5893361,40.89164399,19.0850337,76.08061237,0,88.53580735,258.0183102,0,0.003433459,-0.01105232,-0.024058541,
53622,428.9759997,1675,-148.144718,-14.82842847,27.13733524,36.00488804,48.86203979,42.42532706,200.214748,140.9016631,-103.459758,66.47563054,43.78280386,-54.96146139,0,-68.41718207,-507.5074156,0,0.003960555,-0.009896815,-0.022159324,
53623,428.9839997,1675,121.2605258,52.19995238,28.49524095,-1.003525365,-16.43244874,50.02741657,-15.33229857,54.71800264,419.9766026,68.70789613,-18.13159304,199.578453,0,204.5487595,447.9175238,0,0.003368768,-0.0110973,-0.024146455,
53624,428.9919997,1675,-101.6865126,30.81031661,-48.44395105,57.22024722,31.84497161,110.7415434,-132.7986282,-268.9437189,-151.6923923,64.88265806,74.40617537,-61.6759291,0,-75.44191155,-385.3270502,0,0.004634504,-0.006862908,-0.021943713,
53625,428.9999997,1675,-29.34458927,-10.48044879,62.92730917,-3.448965991,40.13404198,-21.66185389,281.5401244,330.1738127,249.7271827,76.51869382,-6.752235001,119.6772612,0,114.9599265,-52.48799627,0,0.005988955,-0.001375365,-0.020708101,
53626,429.0079997,1675,49.23253695,54.49211474,-48.02321222,19.8499984,-19.80713569,106.6002044,-259.5516986,-321.207798,166.3529012,37.64663407,14.41457951,72.89582773,0,79.95223309,228.6936962,0,0.005676732,-0.002373077,-0.021301752,
53627,429.0159997,1675,-167.4705545,-11.77353883,25.2214838,40.0087845,59.06770419,39.81314883,208.4905885,129.3176629,-115.4926214,72.7077353,50.99032814,-52.82012198,0,-66.39085453,-545.3985128,0,0.005570118,-0.003341598,-0.020799381,
53628,429.0239997,1675,101.4322504,38.90811703,25.45561592,-9.815302619,-13.92674313,27.20691161,-3.541944148,56.08636993,414.5711762,63.81949229,-21.68206006,201.3084395,0,202.8686104,436.3451268,0,0.005764491,-0.002211952,-0.021049716,
53629,429.0319997,1675,-111.5566142,29.78493771,-54.66310753,48.72107756,22.71809546,108.7452263,-144.2239505,-269.589339,-159.1523419,52.33284053,62.28195726,-64.77647243,0,-91.31204336,-364.4192781,0,0.005638432,-0.002139217,-0.01909232,
53630,429.0399997,1675,-23.85167677,7.748882906,66.24483282,1.35513561,33.67155496,-10.68187261,274.9421843,345.1227271,241.0907652,80.55338766,3.711818397,127.8201716,0,106.792258,-60.25989375,0,0.005669729,-0.000659975,-0.01629835,
53631,429.0479997,1675,61.6523174,58.29215399,-45.88567375,14.78166884,-30.71787288,87.50007224,-266.6652667,-308.0077606,180.0410939,36.77585004,27.88590367,92.03151458,0,81.79604265,234.7725554,0,0.00571282,-0.000605951,-0.016653213,
53632,429.0559997,1676,-159.6338838,-10.20136521,18.75372481,30.510588,48.84149896,27.91128202,187.3686896,126.714026,-115.802382,55.90705027,49.44382445,-50.64217684,0,-75.89618323,-540.9550915,0,0.00564454,-0.001490162,-0.01724139,
53633,429.0639997,1676,117.1717572,61.40407033,27.6184667,-6.080192297,-11.1597787,40.86627127,-11.27280338,62.08628175,413.1050908,60.02046908,-15.22260207,206.1954969,0,202.4260339,420.9260972,0,0.005706081,-0.000759028,-0.016533729,
53634,429.0719997,1676,-98.48121633,45.79256923,-49.57077856,53.46694285,27.43102953,112.714724,-146.8862058,-284.954208,-152.714779,61.99011407,77.86307042,-53.63520699,0,-79.79075723,-388.9372562,0,0.005674952,-0.001310809,-0.016071633,
53635,429.0799997,1676,-26.92797695,12.8810402,68.7060179,0.768857454,40.24836239,-4.840882957,274.6918125,322.6429983,237.7306806,86.54994973,5.227163297,127.6776424,0,112.1470396,-95.25923089,0,0.005677397,-0.001298458,-0.014617156,
53636,429.0879997,1676,56.90524852,68.29593172,-47.62286316,11.59730321,-19.92563697,108.7412049,-272.4436459,-328.9713186,180.2293691,41.65415287,19.1539976,93.62739961,0,85.34178992,213.8923636,0,0.005697827,-0.001176423,-0.014588661,
53637,429.0959997,1676,-171.1492915,-5.802949645,10.89082769,29.36846834,56.57629801,38.03432687,182.5320857,104.1362906,-127.8739181,61.09127648,47.29011129,-51.93341448,0,-72.68328896,-579.572503,0,0.005670525,-0.001563696,-0.015243694,
53638,429.1039997,1676,106.4820242,54.74127274,23.03209538,-5.763997236,-8.505108355,32.09009736,-3.33719475,61.7993282,404.2209967,58.80947259,-15.82479849,201.8575992,0,215.8036343,384.7285156,0,0.005695817,-0.001347075,-0.01460042,
53639,429.1119997,1676,-111.6514377,26.52805492,-53.34897117,43.42031828,13.88916751,98.07792834,-146.1419921,-290.9441829,-156.9100534,44.87066054,70.1930008,-63.60732128,0,-76.50633295,-401.3454504,0,0.005680849,-0.001598669,-0.017578899,
53640,429.1199997,1676,-48.52530096,-3.200343732,65.89472527,-7.054641679,15.32190088,-14.32875976,275.6040724,326.1377317,224.9852484,59.44566512,-7.019508582,109.8337356,0,94.12868657,-97.11330124,0,0.005685711,-0.001616179,-0.021691471,
53641,429.1279997,1676,52.61389021,73.36888057,-46.57780754,20.50663521,-36.17045918,106.3689348,-278.3083191,-312.5061871,174.6671663,33.49480841,21.86832762,88.52699066,0,83.73092739,223.3612581,0,0.005689393,-0.001640922,-0.020998661,
53642,429.1359997,1676,-179.8489551,-8.445450887,9.258050318,30.75512366,47.50488635,24.70406174,176.1529802,106.7923843,-134.6963147,59.88717132,54.66312047,-53.51963216,0,-78.82540199,-597.4537404,0,0.005681767,-0.001804099,-0.020125553,
53643,429.1439997,1676,86.46444075,50.43728531,22.31661303,-8.925249912,-12.21153325,24.87789392,-1.142981267,67.54687134,408.9593589,48.24265632,-24.69804984,199.642634,0,196.3323027,382.8067875,0,0.005689473,-0.001776288,-0.021044552,
53644,429.1519997,1676,-120.8628934,44.21239699,-51.44371676,56.10521373,20.91381112,111.9211104,-155.0095395,-286.7220296,-154.3620017,50.59386986,69.98421971,-60.53556323,0,-79.4373057,-395.6639557,0,0.004824053,-0.003630887,-0.018653454,
53645,429.1599997,1676,-60.03597238,3.330116015,66.26695919,1.521246931,27.25681635,-16.45018331,279.3804834,336.9690728,219.7718935,71.29387707,-2.376630544,109.192255,0,97.66117914,-123.4507898,0,0.003434955,-0.00645119,-0.01591055,
53646,429.1679997,1676,46.34245389,75.3298824,-41.8210017,30.29437621,-22.13673128,97.70523167,-272.1539524,-307.1505754,188.1708703,32.40062928,24.13411853,89.18799279,0,88.21891936,218.2415528,0,0.00361662,-0.006148825,-0.016451355,
53647,429.1759997,1676,-174.0186125,9.858532023,23.4438603,53.94078137,61.51008708,35.16325685,176.9799934,104.7224358,-124.7502306,68.6195015,75.47834003,-44.74943963,0,-67.54371007,-620.683415,0,0.003992098,-0.005482617,-0.016752505,
53648,429.1839997,1676,96.23702047,61.71911978,36.48504352,2.322480099,-11.19868948,36.30694712,6.716998993,76.74254078,421.6743462,61.11687019,-4.239496731,215.055194,0,213.8877675,351.3192024,0,0.003613555,-0.006278188,-0.016262148,
53649,429.1919997,1676,-112.951972,48.44277291,-46.92633615,57.61017024,17.45537701,111.7810426,-166.2561622,-294.4993968,-144.7368097,42.95878023,79.25033257,-54.30891881,0,-72.3346112,-408.7270923,0,0.005603772,-0.007537455,-0.018263236,
53650,429.1999997,1676,-55.1332515,12.07600285,71.34990682,3.999760625,24.24057429,-34.06014729,267.7495178,330.6965187,214.9487796,62.41555351,8.25589798,112.7586244,0,100.399634,-157.6530076,0,0.008362127,-0.010418239,-0.020962561,
53651,429.2079997,1676,55.50614628,86.43479352,-36.96859057,23.15659765,-37.3842196,83.88432906,-279.9611621,-309.6689058,194.3061673,34.65459142,31.10527784,100.5038429,0,98.09382835,198.0220164,0,0.007927317,-0.010258784,-0.020469097,
53652,429.2159997,1676,-174.6059,20.44441012,17.92683285,47.08425802,51.43882095,40.15916629,168.182628,98.80212463,-126.1722789,62.55003459,73.19791926,-51.35403715,0,-78.61676037,-635.7904791,0,0.007348753,-0.009211725,-0.019868269,
53653,429.2239997,1676,92.99960658,71.74449688,31.66904266,3.831566827,-8.884800603,31.882343,10.60906921,84.91384619,420.8117236,53.62536759,-4.822061879,208.2588174,0,201.1841879,334.5675052,0,0.007994172,-0.010253339,-0.020452976,
53654,429.2319997,1676,-105.0033007,60.74058509,-51.39215481,60.94501343,19.96762582,109.3942158,-165.9732434,-296.6376316,-138.2797971,47.84238158,87.91347926,-46.15342039,0,-68.65395727,-420.9547026,0,0.007552753,-0.009558534,-0.016529682,
53655,429.2399997,1676,-47.47719893,26.80194808,64.86394275,12.33165055,34.03985004,-13.51931622,280.8752176,343.1742207,217.2157241,68.30475198,12.75663211,117.3417783,0,101.212954,-173.9664418,0,0.007604647,-0.009650348,-0.010980999,
53656,429.2479997,1676,64.78127097,103.9614227,-38.85843389,38.00955053,-25.61762422,112.6707659,-267.0095676,-291.463164,199.8554834,43.37483124,34.49220588,111.0348969,0,107.3159051,194.649311,0,0.007739034,-0.0098594,-0.01178079,
53657,429.2559997,1676,-164.7369395,29.15656664,19.73353711,55.98404354,49.85173673,46.65591705,165.0871682,96.35936182,-133.937673,83.66863156,85.03229206,-36.20626565,0,-62.05667498,-670.3482411,0,0.007453788,-0.009410078,-0.012976881,
53658,429.2639997,1676,100.8627263,69.77739162,33.7606396,-2.528983242,-25.33696283,15.85812599,3.506831256,87.92756437,420.8583416,66.33329183,-5.567761755,217.6487865,0,213.2730867,312.8526805,0,0.007655719,-0.009744785,-0.011600394,
53659,429.2719997,1676,-110.4051449,58.20493925,-53.84668128,50.50529225,5.008025588,104.617068,-192.9542746,-313.1169558,-140.5912063,40.97144937,78.43052539,-49.79827786,0,-72.92366322,-419.5073463,0,0.005775974,-0.007754511,-0.012492326,
53660,429.2799997,1676,-68.27403299,10.87316849,65.9511876,-1.916701124,32.52312616,-32.75203075,264.1387543,327.2865777,196.2124207,58.26743323,12.56711242,107.5848449,0,83.5403801,-214.3385322,0,0.002992149,-0.004994237,-0.01234849,
53661,429.2879997,1676,45.81550787,73.94183542,-39.47228738,13.86380278,-29.78170325,65.33796911,-276.7376361,-293.8653804,191.7013547,21.36614978,23.46087347,102.3626434,0,90.83684354,188.3701748,0,0.003381486,-0.005383318,-0.01204259,
53662,429.2959997,1676,-190.3374576,5.296332717,13.18991817,38.23971381,50.11209608,21.63335193,149.2395292,89.67336107,-151.9708706,46.47900714,63.65363409,-56.98479215,0,-89.82119176,-655.3304073,0,0.004022216,-0.005970186,-0.012600882,
53663,429.3039997,1676,81.92901107,63.48179486,38.1816817,-2.289458051,-7.947208749,22.49002856,7.619102374,102.3268426,404.7569662,40.35043881,-17.60291009,202.1913963,0,191.6274613,317.9399443,0,0.003318248,-0.005297906,-0.012147824,
53664,429.3119997,1677,-111.2501768,63.78355433,-46.426354,62.83889214,18.14719653,113.1913639,-183.6287814,-297.7968189,-141.1804213,38.02445818,77.89042386,-48.59106768,0,-68.60904035,-411.4080931,0,0.003783109,-0.003995699,-0.011590645,
53665,429.3199997,1677,-64.31600936,21.45313366,71.14908533,16.91793569,39.83806716,-12.51458247,281.8989326,343.34626,197.9247913,71.8682088,21.4381904,118.5002625,0,101.627267,-230.9544903,0,0.003728416,-0.001161579,-0.010165022,
53666,429.3279997,1677,56.0090886,85.12573411,-34.73375843,29.24126603,-23.97047231,102.0616727,-261.366354,-283.2526943,207.2764707,35.43718661,28.54111558,117.5530136,0,113.2162329,189.9357011,0,0.003569315,-0.001351969,-0.010261242,
53667,429.3359997,1677,-191.0812165,1.964323004,9.397872733,35.52325184,41.32681982,30.8797991,157.029528,86.2170202,-149.5331456,47.24563379,57.71509766,-54.77630941,0,-73.15859241,-651.5617422,0,0.003877127,-0.002391799,-0.010841135,
53668,429.3439997,1677,81.77943683,56.41552106,34.12596895,-9.910717704,-21.27543867,9.321470971,17.46250479,109.2208948,400.9945855,31.47115204,-23.19996763,199.9033405,0,204.751985,317.0888993,0,0.003647257,-0.001401013,-0.010307824,
53669,429.3519997,1677,-213.3633003,62.27159791,-102.6856293,99.04535068,25.31503431,165.0521036,-323.0329569,-560.903574,-471.0860219,19.71699527,128.4408409,-208.2832729,0,-230.1251221,-820.0256211,0,0.003816506,-0.002091823,-0.010715372,
53670,429.3599997,1677,-338.817868,-13.40524966,-2.706886159,76.98783862,81.51202602,47.28643765,216.5929138,55.14411997,-481.7889554,52.97104666,113.5277507,-210.0515208,0,-242.8444273,-1233.580612,0,0.003809471,-0.00202943,-0.010667275,
53671,429.3679997,1677,34.14198691,61.34357998,16.02356534,12.78047639,-11.05651051,31.72117664,-38.80271074,1.218661197,257.5027617,38.21663842,8.800058924,139.2332857,0,133.6993313,111.9537939,0,0.004633951,-0.005276811,-0.008019134,
53672,429.3759997,1677,-20.23132696,53.5336612,23.68269937,26.05051538,3.780979311,26.42829326,12.52917272,30.82095829,155.2393196,48.57015515,31.07104047,97.60751091,0,78.45713768,-97.11166656,0,0.006142386,-0.011300249,-0.004090296,
53673,429.3839997,1677,-38.56651506,64.2529624,5.4416993,42.23603938,0.783714917,70.89688312,-61.7305803,-77.90712944,72.96113453,43.60417486,47.07276342,58.19873282,0,36.50643036,-180.0961224,0,0.00589098,-0.010264085,-0.004483068,
53674,429.3919997,1677,-60.24553141,55.60864444,19.83460449,41.29480084,13.76949647,66.88548057,21.82140529,20.83657983,63.576778,58.30298156,50.29483097,60.02831073,0,38.29007341,-274.4377704,0,0.005594246,-0.009030295,-0.005780349,
53675,429.3999997,1677,18.38201341,55.94239343,34.02919711,13.62823266,0.581841598,18.90966038,20.21570342,78.20060427,259.1481647,55.70191601,17.51974445,152.7201448,0,139.6251774,28.53465296,0,0.005973322,-0.010548465,-0.004639922,
53676,429.4079997,1677,-77.6355695,53.92804001,-21.20687657,46.48686669,19.97359654,71.18203636,-125.681134,-194.531104,-43.32003427,33.12986686,58.97712632,1.09401422,0,-12.34864619,-325.2164999,0,0.006571117,-0.006002858,-0.00632931,
53677,429.4159997,1677,-49.53023168,20.49658717,55.72092489,7.612700957,36.41412439,-19.16446099,192.6400971,243.0469885,184.1746394,58.37500463,11.48008755,111.0439654,0,96.67452098,-192.8917662,0,0.008032111,-0.000714827,-0.007748791,
53678,429.4239997,1677,28.66518268,68.54106317,-23.45166893,19.33954824,-10.00534628,51.49322082,-200.7021553,-212.1859678,176.6886772,28.68370332,19.32854372,104.9920204,0,87.73378182,96.97051933,0,0.007912354,-0.001649566,-0.007326621,
53679,429.4319997,1677,-138.2544397,31.5906897,11.29469027,48.2734607,53.48422568,43.74995686,84.48855428,37.13301856,-89.16564309,38.66820909,56.90680357,-16.64898776,0,-45.88133438,-522.7240611,0,0.007396021,-0.002584164,-0.007568104,
53680,429.4399997,1677,71.59572672,69.16502631,39.39855676,10.10940302,17.04598675,28.03121185,23.25837317,107.5256882,362.1232957,50.74644331,0.992341863,200.2328821,0,193.2039299,204.151505,0,0.007900321,-0.001538179,-0.007618227,
53681,429.4479997,1677,-74.22263392,63.39032445,-44.70351199,56.96690834,28.88054856,99.95417002,-189.4989866,-289.5652829,-85.50256546,47.56153826,79.51494255,-21.35146615,0,-35.30174467,-365.4896723,0,0.007538149,-0.002243925,-0.007698382,
53682,429.4559997,1677,-47.88802481,23.12181742,62.6526509,15.49197573,45.46512019,-10.69539366,243.6979289,298.8434353,183.7147792,68.34627105,15.11308013,98.84370619,0,93.23041004,-244.4540892,0,0.007582296,-0.002211451,-0.00778658,
53683,429.4639997,1677,66.33470478,90.36897964,-25.45121529,29.39992885,-12.65867528,88.63101114,-244.4454899,-258.2435627,221.92296,43.38089402,19.4953196,118.2653597,0,121.4075945,182.9524652,0,0.007667086,-0.001958895,-0.007854987,
53684,429.4719997,1677,-164.3698703,20.6060249,11.27069643,52.38573289,57.94022602,48.87595626,112.7935627,43.78122385,-125.4428191,73.20573351,66.40326678,-46.75333467,0,-55.75994433,-637.8883291,0,0.0074385,-0.002454961,-0.00794719,
53685,429.4799997,1677,85.27338921,62.00597708,43.2749025,6.553952481,9.601475829,29.11754258,29.22309152,131.1647284,407.5611058,70.03635514,-17.72256911,197.4708672,0,216.3136367,243.297009,0,0.007592724,-0.002132201,-0.008006094,
53686,429.4879997,1677,-87.25236854,59.21833444,-47.74642532,56.74875347,30.58696973,113.3924021,-206.1637476,-299.5974868,-100.1448548,66.03793574,68.96647237,-37.12931247,0,-37.76684994,-390.6723986,0,0.006586906,-0.002383117,-0.007239956,
53687,429.4959997,1677,-68.86229356,9.715749291,61.68450533,10.71001013,51.88676569,-17.50756367,260.298181,332.3365686,176.1629611,91.92434536,6.04106414,94.5621035,0,101.6620006,-292.5331013,0,0.005198981,-0.002416585,-0.005907509,
53688,429.5039997,1677,78.94555119,92.30392951,-30.31788809,37.23623095,-5.971369687,98.0067109,-266.6890631,-260.9492507,237.0486094,54.69109867,12.22403559,120.0856507,0,142.7238778,178.4155315,0,0.005380654,-0.002356574,-0.006172631,
53689,429.5119997,1677,-165.2761894,21.45783724,12.87682106,57.03325605,66.55222231,53.73796274,117.4170243,51.59067811,-136.2475403,83.08650813,65.70112966,-49.96271487,0,-57.08315643,-702.8038005,0,0.005666387,-0.002565056,-0.006617505,
53690,429.5199997,1677,89.49806843,55.11103504,44.19195918,-1.986337534,2.707679924,13.45680216,34.50820151,131.1927695,422.0685486,76.47326596,-25.09889935,208.7502068,0,224.2236278,235.5662633,0,0.005319224,-0.002471015,-0.00630805,
53691,429.5279997,1677,-79.14162975,57.86044963,-48.76485697,58.93002621,23.01511022,107.307709,-209.8032268,-315.5247483,-103.1316496,63.57028768,66.10324776,-40.40877703,0,-36.6873128,-409.051132,0,0.00551818,-0.004326685,-0.004934125,
53692,429.5359997,1677,-67.60979305,8.024910953,64.68096308,6.564162478,41.92001564,-13.85883148,273.5641786,336.4565309,174.8561426,88.43310074,1.750166409,89.52296737,0,94.49874478,-309.7736349,0,0.005483114,-0.007129265,-0.00219281,
53693,429.5439997,1677,75.54781137,81.91254001,-35.68994474,17.87066708,-27.91017911,89.42779972,-267.7272244,-271.3310886,236.846104,49.71574074,0.788100811,114.7959459,0,135.6975418,200.5871656,0,0.005386187,-0.006792116,-0.002555924,
53694,429.5519997,1677,-165.0174076,14.36668673,2.375101673,47.55061157,53.01852929,32.49606888,112.8043811,44.59855126,-160.2799219,78.7908116,62.40115835,-64.87795313,0,-67.53016886,-706.293487,0,0.005519306,-0.00612583,-0.003555436,
53695,429.5599997,1677,95.16307584,56.1871282,39.48041006,-7.022763531,-3.445487056,-0.472841286,36.10405554,137.793094,411.7341637,73.71428052,-26.57800622,200.7241334,0,212.324086,240.4254701,0,0.005394331,-0.006886654,-0.002745434,
53696,429.5679997,1678,-78.13581896,59.2447575,-51.84111205,47.55359949,10.05338338,96.7473506,-222.0353752,-329.2496165,-112.8964406,57.96747718,60.46625505,-48.98786365,0,-53.70977838,-394.2795356,0,0.003737659,-0.00555635,-0.006043415,
53697,429.5759997,1678,-65.98804589,4.973521754,64.11716692,0.596813116,41.48620945,-32.26411087,268.8162346,332.1417005,164.024935,87.83217726,9.265420883,86.29442622,0,81.57646227,-326.1230012,0,0.000939093,-0.004243638,-0.010235594,
53698,429.5839997,1678,80.96277209,79.12258832,-31.65132943,17.77709942,-12.51938765,82.98968893,-265.4289253,-270.2491149,244.7013246,51.11145633,10.36610267,124.1931222,0,121.3237972,195.8634401,0,0.001267763,-0.00460701,-0.009607779,
53699,429.5919997,1678,-167.4703906,10.68066635,8.689609197,45.25363811,64.33759909,44.07885332,115.510094,29.99356773,-163.6388799,79.56957897,67.37494937,-56.29746916,0,-83.29551658,-716.2100379,0,0.00206547,-0.004681123,-0.008966504,
53700,429.5999997,1678,92.95255415,40.21939158,44.78239721,-11.23502006,7.432322318,8.142990342,54.30611208,131.7757693,408.0684804,76.28536606,-19.84735444,209.2645531,0,215.4449625,219.1705152,0,0.001255783,-0.004558375,-0.009911899,
53701,429.6079997,1678,-78.51221165,36.06182728,-55.52474192,40.64301697,20.96321535,93.79801899,-208.5030921,-346.707358,-116.1583707,50.26910653,55.30333161,-50.56087634,0,-52.60756721,-397.0640342,0,0.000966007,-0.002949777,-0.012000823,
53702,429.6159997,1678,-72.69152289,-16.87669602,61.43718932,-9.705465665,37.77028664,-45.89250532,284.2122955,315.5391432,142.9257181,71.27670002,-9.49521148,72.61886572,0,73.23392423,-325.224731,0,-0.000488204,-0.000168624,-0.016323455,
53703,429.6239997,1678,85.84132766,65.25870823,-30.34039022,16.36798519,-25.16678243,75.29295459,-256.8690701,-276.92375,228.2821831,39.91944335,-8.487703078,109.9249699,0,123.4151606,223.5218814,0,-0.00045759,-0.000511616,-0.01605558,
53704,429.6319997,1678,-153.1673204,11.86971285,4.192800989,56.84592245,60.88396036,50.11867596,105.3676217,22.14533204,-181.0112644,78.73508205,62.13870706,-72.4259693,0,-81.62135153,-708.8926956,0,0.000285849,-0.00133965,-0.014624942,
53705,429.6399997,1678,105.7096175,48.25504883,47.15147198,1.293397477,4.234011047,10.97100572,51.33244191,147.4590736,403.1847244,82.17553834,-14.18518568,204.3303992,0,219.2757449,197.2349213,0,-0.000343002,-0.000550809,-0.016119682,
53706,429.6479997,1678,-64.22541426,50.26436921,-45.21140838,56.12339213,12.76266178,93.59657433,-216.8508867,-324.2730524,-111.6361434,58.13027109,64.46007995,-48.36475693,0,-45.77071155,-405.6529563,0,0.001869419,-0.00543198,-0.013457875,
53707,429.6559997,1678,-56.74381936,3.209950059,68.65826958,4.643554124,41.5321879,-49.65713084,278.351252,340.4489586,141.5360666,84.84814665,7.324618198,74.43997472,0,77.80471432,-356.2783219,0,0.004627642,-0.012359244,-0.010821442,
53708,429.6639997,1678,103.20634,78.64446034,-22.92145325,18.93399152,-14.66010267,72.16656903,-254.5653549,-258.7994478,243.9393553,52.66629884,7.502845801,115.9140048,0,132.0470379,195.3602442,0,0.004178834,-0.011305175,-0.011520554,
53709,429.6719997,1678,-147.5819802,18.82812489,16.45393226,58.17779818,65.37368242,48.93923625,104.8870016,29.16358339,-171.2332087,80.80760731,65.08861524,-71.90035793,0,-82.26422383,-720.3052657,0,0.003748989,-0.009812039,-0.011662784,
53710,429.6799997,1678,106.543916,48.88028176,55.83297608,-6.332660178,5.008708527,-11.23732814,51.89579206,158.4065194,410.4685226,76.52245525,-20.20804392,207.898794,0,214.8913713,206.6915305,0,0.004333527,-0.01147822,-0.01140397,
53711,429.6879997,1678,-55.63485774,47.88789211,-46.48890028,47.2606759,23.11470846,88.25691768,-230.5240513,-338.9111222,-107.81301,50.08850455,61.21842242,-47.58331913,0,-51.42741409,-390.4093416,0,0.002286167,-0.010350673,-0.013318152,
53712,429.6959997,1678,-54.48190002,5.409538632,70.7510645,12.0081152,62.28866962,-18.78498916,271.3744356,324.7291117,132.6139463,82.42474985,8.096695094,71.85460682,0,68.88125319,-373.5666899,0,-0.000429744,-0.010491452,-0.016104441,
53713,429.7039997,1678,105.2799563,79.53422866,-23.08806976,15.40672296,-4.555559498,82.03340173,-258.9029638,-270.3080917,250.4051752,50.18794814,9.071317095,124.694952,0,130.7921743,185.7977722,0,0.000102346,-0.010842545,-0.015668508,
53714,429.7119997,1678,-141.2192674,12.92925245,7.623153655,46.71052932,68.83417813,38.95945231,94.62761814,6.77162116,-177.7700786,73.70995676,66.83172137,-70.72774206,0,-82.40299756,-740.6997427,0,0.000642951,-0.010115665,-0.015053406,
53715,429.7199997,1678,116.4047183,47.64653834,51.68413952,-4.396494585,4.045598105,-5.85913807,53.3233577,150.8564127,399.337169,74.23267094,-23.10013617,204.4313369,0,227.157193,196.8691109,0,9.38E-05,-0.010642807,-0.015736481,
53716,429.7279997,1678,-36.14611973,60.44369454,-51.52904416,53.73018835,12.70879528,103.3137508,-240.8526104,-352.2776178,-111.7017035,55.14444956,64.82691164,-45.25264759,0,-37.40521155,-383.3757228,0,-0.001173039,-0.008514954,-0.017825115,
53717,429.7359997,1678,-36.81462396,13.41528867,65.86482861,14.79405662,61.79073075,-17.37052501,272.3563371,325.9581283,122.2080132,91.70439501,19.18173571,77.64684861,0,80.17284603,-408.9540105,0,-0.003975967,-0.00573768,-0.022073717,
53718,429.7439997,1678,115.3464919,71.84789713,-27.90795996,12.56540396,-7.049222438,69.58359953,-251.6591766,-259.2278454,251.2152969,54.05119774,7.998774013,130.3796056,0,155.4627669,167.1497023,0,-0.003685908,-0.006171706,-0.021639695,
53719,429.7519997,1678,-145.1510014,-5.019890785,-8.426948791,34.78671107,51.91770191,16.62252751,83.58948435,-5.188104899,-192.7113847,61.53751733,48.99288042,-83.57177407,0,-82.12665814,-752.0146123,0,-0.002639497,-0.006638804,-0.020213606,
53720,429.7599997,1678,107.314423,28.94187417,35.05264825,-22.0195849,0.09928575,-31.34645676,50.87634348,142.7576056,378.6305955,55.04275529,-47.35805479,188.1818849,0,208.8742959,172.9833754,0,-0.003542078,-0.006029423,-0.021554347,
53721,429.7679997,1678,-37.66214637,44.26692378,-61.73153045,39.67189016,14.48246489,84.40827597,-245.8553193,-366.7198574,-126.1354678,40.07881101,45.14447279,-56.34379287,0,-49.25278273,-396.1351989,0,-0.002813819,-0.006370946,-0.021413297,
53722,429.7759997,1678,-46.00945242,-8.752614757,54.97135261,-5.380984562,41.23983087,-49.52679239,267.9451547,318.0353074,101.0272505,72.95781405,-7.336784301,58.84360362,0,56.76018587,-414.2742629,0,-0.002823347,-0.006312071,-0.02287317,
53723,429.7839997,1678,105.9166095,59.91007735,-40.40030706,-9.796573834,-32.54964274,39.7523178,-263.4716586,-269.8281502,236.1801741,33.44894683,-22.69046351,112.7951856,0,126.9005449,198.3382058,0,-0.002950853,-0.006129104,-0.022912157,
53724,429.7919997,1678,-142.9798799,-1.998929786,-14.51595842,26.54595637,41.49315137,16.48513913,66.07635802,-31.19849471,-214.8956175,48.25095787,37.10890352,-96.69194204,0,-102.6892219,-739.8012198,0,-0.002452633,-0.006363904,-0.021871288,
53725,429.7999997,1678,110.1698941,28.74219471,34.66040129,-30.43290385,-7.699716957,-27.25628823,50.6594865,134.3104889,370.272846,42.23228015,-54.57607803,183.4315866,0,200.7586691,175.389033,0,-0.002697644,-0.00613854,-0.022641565,
53726,429.8079997,1678,-40.42296281,46.97510954,-66.43981637,31.18463509,7.890085817,83.29601866,-259.3111722,-391.4769623,-125.9665413,29.56232707,39.95027333,-60.69065831,0,-56.62307849,-377.0511094,0,-0.002373036,-0.008820169,-0.021947494,
53727,429.8159997,1678,-57.68415802,-37.31336628,124.8424003,-23.7538535,68.58255972,-114.957188,572.8257233,704.4768001,211.7313687,93.75469402,-20.23685922,119.0045812,0,114.6717786,-484.8060138,0,-0.002322236,-0.012964811,-0.021938747,
53728,429.8239997,1679,191.0411301,46.5246213,26.47011628,-42.59334805,-32.65786228,-14.18806785,-63.55647629,50.81077186,532.8404229,42.18317421,-63.52874702,258.940285,0,281.2733588,492.5909944,0,-0.002280232,-0.012348508,-0.02198827,
53729,429.8319997,1679,-152.7342278,27.86612194,-105.1695984,45.29999196,7.040613643,106.7787038,-317.1671587,-540.1303952,-368.9363071,11.24460307,66.92334341,-189.0068645,0,-193.6822742,-678.5070537,0,-0.002051389,-0.011286356,-0.021520453,
53730,429.8399997,1679,-37.18109585,-14.51634116,61.11762453,-28.42948974,19.71666413,-67.38983594,291.48167,363.4610585,187.2127511,55.63029407,-28.95760247,90.71011702,0,95.73774981,-261.4458031,0,-0.002068891,-0.012333749,-0.021696669,
53731,429.8479997,1679,85.92882228,65.50969921,-26.26475648,-4.87042806,-31.62722698,44.43060529,-223.4877753,-236.8187419,222.9940909,32.70819506,-5.574760837,107.0575892,0,122.4583834,148.727721,0,-0.00188049,-0.011548232,-0.021355668,
53732,429.8559997,1679,-118.5761535,27.18745253,-32.74507588,38.14475069,20.33953135,43.43014371,-74.31820468,-203.2591158,-217.558623,46.36830519,71.72211743,-96.7078914,0,-105.5274343,-663.1851251,0,-0.00353068,-0.008149961,-0.019566768,
53733,429.8639997,1679,48.73726782,9.820615159,54.30506898,-25.63379181,-0.308113758,-60.00370646,169.3479862,248.2327408,288.522448,56.51240339,-18.40580855,154.5103593,0,159.2923822,-53.69097639,0,-0.006218776,-0.002771061,-0.016687924,
53734,429.8719997,1679,29.92053305,56.52434743,-55.81480353,19.64726827,-19.8711173,72.41263425,-282.5091713,-367.5808245,22.22452288,20.27590753,22.70416327,13.66637875,0,17.39187162,-111.3495226,0,-0.005721298,-0.002968556,-0.016817227,
53735,429.8799997,1679,-77.71232785,8.793040793,14.4233403,24.2851787,34.53831232,5.157434321,115.7304674,80.10114716,-79.25512407,53.19464263,38.52362008,-26.70162487,0,-34.63287257,-579.8540878,0,-0.004902184,-0.004784084,-0.017539908,
53736,429.8879997,1679,102.2328727,29.7990346,18.36940662,-22.92706433,-13.73758137,-12.35751745,-27.35684939,25.61719331,306.8417133,41.58575476,-15.09500667,155.9102757,0,164.8210512,103.9237658,0,-0.005533639,-0.002941969,-0.016567883,
53737,429.8959997,1679,-69.85333468,18.444497,-59.4815007,14.03326664,-2.858788904,58.63655758,-198.3722009,-324.9641492,-150.0086041,17.21221974,41.21526783,-78.44374191,0,-78.01963662,-449.1000266,0,-0.006621612,-0.003996636,-0.017012694,
53738,429.9039997,1679,-34.14025157,-13.34808274,43.45495828,-22.55005747,6.046363486,-56.18294405,203.9689742,242.7033753,120.6309344,42.70443768,-19.53658985,58.68571865,0,65.76575835,-311.3854008,0,-0.009352369,-0.003897188,-0.016831657,
53739,429.9119997,1679,77.99507503,56.93263812,-43.36860259,-0.331982662,-39.49005658,46.88289201,-275.2094032,-312.6213518,163.7808572,13.18814129,-4.042970768,68.70896515,0,79.87988596,102.3058322,0,-0.009024019,-0.003381103,-0.016530452,
53740,429.9199997,1679,-113.574885,18.47998621,-7.095958804,41.22992948,34.78750904,32.04667105,56.18318182,-13.88631987,-175.577742,48.30817167,57.04248786,-82.80504637,0,-89.85070574,-687.0284923,0,-0.007824188,-0.004150357,-0.016784692,
53741,429.9279997,1679,102.246662,32.80103287,33.37683771,-21.8500271,-20.20059471,-21.4296528,40.77145028,126.6566552,335.9583334,56.70733549,-19.91418938,168.4472234,0,190.4695245,90.72115916,0,-0.008708314,-0.003510058,-0.016394816,
53742,429.9359997,1679,-40.63152861,29.63087907,-71.81960154,11.00237682,-23.4525045,63.33553127,-252.2079404,-361.2348199,-122.0563032,17.0385207,39.41793153,-77.23804459,0,-66.93652052,-380.0026634,0,-0.007856655,-0.004748119,-0.015629486,
53743,429.9439997,1679,-47.52723455,-12.05062603,37.2243774,-15.37485425,14.19681582,-50.50460444,227.9329029,272.5614348,62.91769921,37.98411067,-6.842780148,22.19877863,0,27.92276814,-434.3664433,0,-0.007798351,-0.006085508,-0.014111944,
53744,429.9519997,1679,102.2718484,49.24819242,-44.71440485,-19.88790469,-44.04376436,36.34232024,-265.1259061,-293.1886436,213.0813224,3.993461707,-13.12910709,88.49724438,0,115.4615955,155.4743139,0,-0.007852552,-0.005759935,-0.014144548,
53745,429.9599997,1679,-134.5072791,-1.190959577,-25.77758431,17.8304627,34.91315221,20.20774655,31.05346213,-67.50247558,-227.6069786,22.715931,44.34626537,-124.9277309,0,-117.7688785,-733.529429,0,-0.007254914,-0.00563862,-0.014547514,
53746,429.9679997,1679,99.79062208,25.99719983,36.86247333,-31.96129088,-6.810987002,-25.2925979,58.56521359,151.1721472,336.2704664,34.98292748,-34.20091906,155.1332698,0,182.4813808,106.5271901,0,-0.007440193,-0.005797343,-0.013973853,
53747,429.9759997,1679,-36.64610435,36.00628033,-64.06061575,15.32557372,-10.62166328,81.2490775,-268.2082106,-387.2405821,-117.730789,5.15263702,43.02203469,-77.32635628,0,-66.75240954,-345.8204389,0,-0.011320059,-0.009980421,-0.012513968,
53748,429.9839997,1679,-63.40065914,-8.769105342,53.80816736,-5.364138403,31.06126233,-43.22916587,246.8446165,291.478659,48.0223611,36.22087532,-0.925238165,13.37876362,0,15.74797067,-461.1834945,0,-0.018152503,-0.016916696,-0.009594351,
53749,429.9919997,1679,108.6129232,62.67642325,-19.33539299,1.698322012,-31.04831506,51.62079087,-245.9389921,-255.7228903,244.6114429,18.14599521,-1.898429214,104.2652223,0,135.9583808,184.4096591,0,-0.017124318,-0.016060226,-0.009791944,
53750,429.9999997,1679,-137.1836479,8.794677558,-8.118349927,39.94024022,38.45760528,43.19092354,38.50306253,-65.96850536,-225.2903532,38.67296779,64.04108582,-116.0598685,0,-107.9590242,-750.0617239,0,-0.014922647,-0.014065863,-0.010670612,
53751,430.0079997,1679,96.82922668,32.57690713,55.43954676,-21.08937469,-8.659144283,-15.28903708,74.56705208,169.1706103,351.1390174,39.37063222,-27.3757121,167.6768753,0,194.1443792,106.2372911,0,-0.016770517,-0.016016837,-0.009675908,
53752,430.0159997,1679,-31.19723422,55.10033673,-51.4013324,29.54419387,-10.46141099,95.17763758,-284.2543656,-403.3924224,-106.136366,13.76107762,58.88814962,-67.70924893,0,-45.71128746,-335.8785639,0,-0.017711896,-0.009443281,-0.011988822,
53753,430.0239997,1679,-71.78477548,2.792342159,52.61810934,-2.103130688,30.81215597,-39.30955227,233.0994787,277.5560048,41.34844105,53.22501721,19.9310907,24.33238567,0,34.81353924,-483.3479927,0,-0.021862119,-0.001193538,-0.014629773,
53754,430.0319997,1679,83.71580087,62.73101252,-26.64646891,-10.26146409,-32.22042259,41.17787318,-260.3107714,-261.2474016,249.6372155,17.47765851,0.262225129,110.1734159,0,138.8178753,191.8674992,0,-0.021498285,-0.00264424,-0.014035133,
53755,430.0399997,1679,-171.5708494,11.29411547,-13.9861852,29.49400986,40.61060094,30.52818604,20.15130823,-81.20829275,-232.9160538,24.52592985,64.06298977,-132.2312814,0,-127.4001431,-758.2386947,0,-0.019258049,-0.003965124,-0.013633273,
53756,430.0479997,1679,69.43589656,36.98053026,53.02622521,-24.79536544,-2.070477395,-27.57067847,77.38548638,172.8452091,353.7760762,35.61164108,-22.38165878,161.3046542,0,188.5887395,96.62479049,0,-0.020836033,-0.002265605,-0.01404255,
53757,430.0559997,1679,-59.54279227,57.14646957,-53.96874004,32.81376958,1.207776661,93.13733977,-279.2476862,-403.8476119,-97.25788446,15.53319413,62.32462718,-71.56694608,0,-45.04341873,-331.6745476,0,-0.017553036,-0.004194381,-0.011970451,
53758,430.0639997,1679,-105.7917387,1.492605319,58.10458474,3.550277324,44.73913293,-29.34888809,250.8109467,291.3914707,45.54123591,52.1778454,24.15774026,13.52244249,0,33.72981516,-501.4493434,0,-0.014659781,-0.005400431,-0.009165743,
53759,430.0719997,1679,48.49192124,63.80465752,-17.7145296,2.019989246,-21.38963979,61.99810901,-242.8462868,-243.2320117,268.3391375,17.74628804,5.144948976,112.8023862,0,155.0625286,196.1063552,0,-0.015083683,-0.004806218,-0.009594567,
53760,430.0799997,1680,-232.9506037,13.24974743,-11.04074624,46.40036745,45.72365581,45.80597454,24.95860074,-75.5411909,-237.842544,33.71955267,71.67824489,-124.7285286,0,-109.8986155,-760.145013,0,-0.014749572,-0.005100134,-0.010093986,
53761,430.0879997,1680,-7.483024978,28.83672216,56.18687021,-19.91341064,-3.158141971,-36.21523627,88.26619431,194.0261294,342.9650641,42.41368063,-21.32924756,168.9956518,0,198.3571799,95.36772553,0,-0.014303899,-0.004910615,-0.009429648,
53762,430.0959997,1680,-130.5851312,47.22199769,-57.71672381,40.17528937,-2.582651984,88.85099776,-276.8851494,-402.8540811,-100.8812526,12.70929732,60.3020047,-71.18521711,0,-44.37351837,-311.9541147,0,-0.015784413,-0.000674185,-0.008106851,
53763,430.1039997,1680,-154.6467811,4.396597512,53.78139316,23.65362168,43.69451418,-18.32194699,274.9361667,292.6132158,23.83841524,57.41216922,27.99429821,8.851762652,0,29.90568883,-519.0430912,0,-0.018289996,0.006296947,-0.005216389,
53764,430.1119997,1680,66.15464235,70.04376678,-19.88293193,7.679820899,-30.43787996,57.98263516,-207.78823,-232.4556103,264.2376344,28.145797,4.320599082,116.7283985,0,157.4743241,192.9521841,0,-0.017536746,0.005459563,-0.005423401,
53765,430.1199997,1680,-158.7882676,18.08635219,-19.7289807,47.81560603,28.36798548,38.46573465,33.25654313,-89.65552373,-237.2890606,46.26290762,76.85866119,-125.297248,0,-107.8767225,-755.0598303,0,-0.016565369,0.003504971,-0.006400947,
53766,430.1279997,1680,84.16239935,37.62487921,51.2128227,-9.096472292,-18.66491217,-35.55084563,104.1861284,188.4609091,338.0283961,53.54169207,-20.02621334,165.4414411,0,204.4540881,93.86803856,0,-0.016976175,0.005500846,-0.00540809,
53767,430.1359997,1680,-31.17361217,59.50048113,-61.83907265,42.25896996,-14.51157554,86.27543262,-271.7228052,-407.7864989,-102.2800229,11.927572,48.85918573,-73.30891966,0,-42.32792822,-287.9832848,0,-0.018715565,0.003233039,-0.006065547,
53768,430.1439997,1680,-70.26106978,22.34825002,55.75073786,25.82434785,46.63656632,-11.8779521,263.1582874,295.1355077,15.37027426,62.00393015,31.35731708,11.12588108,0,28.1014194,-515.8478164,0,-0.022672729,0.002006637,-0.005973207,
53769,430.1519997,1680,111.8600275,84.56752966,-6.210444292,12.30313377,-16.90550777,66.21044021,-212.4260382,-222.7650079,271.8001293,37.77574664,16.7923807,128.8297889,0,170.1629226,208.9811265,0,-0.021928878,0.002553032,-0.005766607,
53770,430.1599997,1680,-153.4785353,16.75794318,-16.20229192,37.06020075,42.58920707,34.73240031,32.28352906,-96.44507085,-236.9533207,39.51519318,74.75941081,-127.47783,0,-106.6926024,-729.837408,0,-0.020189882,0.002039312,-0.006188602,
53771,430.1679997,1680,77.64425176,36.21720146,47.51920222,-24.91869917,-1.993245711,-33.13056892,111.1491339,194.1204125,328.8079822,43.64148166,-28.97238598,157.8448816,0,193.9565836,108.4714794,0,-0.021242582,0.002267466,-0.005861414,
53772,430.1759997,1680,-29.34605451,68.70034746,-58.64890251,40.98816404,-3.247710196,102.3427759,-269.7008978,-413.1320818,-97.71307643,21.12939938,56.33159512,-68.03653684,0,-40.21283519,-258.6918234,0,-0.021651379,0.002003518,-0.006969764,
53773,430.1839997,1680,-73.37835139,23.99939912,55.50471777,27.65969276,50.54794446,-4.955790345,272.6162758,285.1817158,17.61624527,78.88089817,40.24953686,16.54890504,0,29.40221511,-503.1349056,0,-0.024214602,0.001980424,-0.008331433,
53774,430.1919997,1680,117.7475487,87.57914266,-13.63351961,12.77643234,-14.61891837,76.44242891,-201.4393309,-217.4404996,277.469146,55.21429792,13.33328451,138.0287075,0,169.5173445,224.7503807,0,-0.023777753,0.001947187,-0.008113404,
53775,430.1999997,1680,-134.0052722,35.56565865,-14.03972261,54.21593177,48.12514784,66.31467147,40.36041349,-86.17563972,-233.4731198,72.86007406,84.31567487,-114.721151,0,-98.51404682,-735.2632748,0,-0.022068122,0.001766267,-0.007886272,
53776,430.2079997,1680,98.0653732,57.8213985,65.05173068,4.06143589,14.31106441,-3.244248151,140.8796143,227.7998542,349.636062,91.3431897,-3.580846191,181.4519111,0,216.3710699,72.76687157,0,-0.022936406,0.001802482,-0.008169591,
53777,430.2159997,1680,-8.745351855,82.87780384,-43.57712772,63.31475026,16.06110639,126.9812242,-245.2439365,-389.965444,-67.0008694,61.45549893,76.08181884,-41.14485393,0,-17.64073172,-292.2900836,0,-0.022541752,-0.000941953,-0.008866652,
53778,430.2239997,1680,-63.90425613,18.50252992,66.83837914,31.76715584,57.00128313,4.024627089,304.2141502,304.0037632,24.01109439,105.0219489,44.11609017,25.78942842,0,42.75369307,-552.9029995,0,-0.02367062,-0.005142128,-0.01027189,
53779,430.2319997,1680,117.6795745,68.83843854,-4.702861381,3.124550088,-21.97034656,66.3821207,-174.9995081,-201.9642328,288.9256364,67.56502569,1.643050201,138.1986684,0,180.3783291,216.8004473,0,-0.023330551,-0.004681262,-0.010176438,
53780,430.2399997,1680,-145.683012,20.09615934,-16.17472914,49.61309971,37.70147768,60.51662841,36.98340007,-98.7096983,-227.4744973,71.97917255,68.12141712,-121.6369071,0,-101.8264132,-730.7661823,0,-0.022031178,-0.003638435,-0.009675169,
53781,430.2479997,1680,82.62136635,39.68856506,63.48156945,-0.852221418,-2.215439919,-15.06390892,148.4547852,227.8734159,351.5279392,89.40620006,-20.7460727,174.8823991,0,216.2073199,64.8274786,0,-0.022432024,-0.004823892,-0.010154598,
53782,430.2559997,1680,-17.59542883,58.1072097,-49.42799892,43.62451788,-17.64170276,95.23743202,-252.49726,-399.6820647,-63.65507015,53.64774547,49.19698722,-52.42368048,0,-13.19349916,-248.2559242,0,-0.019721016,-0.005821495,-0.007245643,
53783,430.2639997,1680,-73.31432354,4.107201947,56.82686399,22.7660314,28.94455813,-21.88816731,288.3610641,289.3028366,12.95893809,95.19673114,23.82681269,12.92967439,0,37.77569145,-509.613498,0,-0.016623507,-0.008730079,-0.00309715,
53784,430.2719997,1680,117.7105287,73.7917015,-2.051246873,18.90793291,-33.34808115,68.10876945,-174.1959885,-201.2806982,288.4501133,71.22011149,0.696069442,145.2888288,0,185.0479727,257.216475,0,-0.016701964,-0.008653701,-0.003738339,
53785,430.2799997,1680,-146.248559,18.12201097,-11.90022437,57.00335613,27.69591763,67.04372497,44.19560916,-105.6585325,-239.576065,78.08649382,70.44912056,-113.226199,0,-98.1877989,-688.0324108,0,-0.016710225,-0.007433504,-0.004645996,
53786,430.2879997,1680,74.75256785,28.86102857,64.76131472,-2.708241485,0.547361985,-2.924102153,176.3829718,230.0120348,337.9905155,87.5475186,-21.45513726,183.1147131,0,220.1510965,101.9269272,0,-0.015799827,-0.008598958,-0.003652852,
53787,430.2959997,1680,-27.33234142,62.79004135,-50.26509924,56.0553426,0.829169865,130.517882,-230.4647563,-405.5554663,-66.20149926,51.39494061,54.80711096,-40.98914617,0,-11.67235179,-214.2019083,0,-0.015716316,-0.00866537,-0.005196318,
53788,430.3039997,1680,-111.7304604,4.801136757,55.41716752,24.99764109,40.42145262,-11.33985104,314.3098296,290.6635908,-2.085460013,95.43738357,28.44927829,18.4275622,0,33.45447167,-514.8168875,0,-0.015299466,-0.010150241,-0.006511338,
53789,430.3119997,1680,48.53153723,68.76776051,0.156671557,9.838967742,-32.51826619,56.7652929,-147.2602237,-195.1311977,293.141119,60.82936092,-5.128482456,148.8707049,0,194.1537318,282.3366241,0,-0.014762264,-0.010191786,-0.006122109,
53790,430.3199997,1680,-219.621469,32.74816224,-10.83722913,73.45753013,32.65065889,80.35458989,51.12969872,-117.7584049,-237.9100403,70.808607,74.07777634,-115.2776251,0,-94.24761744,-672.9739772,0,-0.014602677,-0.009296984,-0.006187545,
53791,430.3279997,1680,-0.766084469,41.4168148,68.97817298,15.05251476,-1.201304126,-6.13627236,196.2363334,240.8060194,336.4982458,100.9125871,-9.340481231,193.1543054,0,232.0017052,70.82645079,0,-0.014044468,-0.010046291,-0.00625392,
53792,430.3359997,1681,-107.0982861,62.55053898,-49.45427882,56.9822658,-7.779069956,113.7187528,-225.4700993,-406.1980732,-55.49103438,60.32664464,55.81456543,-30.73170411,0,3.880043689,-210.8775194,0,-0.014626935,-0.009453175,-0.007089126,
53793,430.3439997,1681,-162.853641,3.119002999,56.07005291,33.93008607,45.24274614,-7.82039871,316.418984,283.7625174,-10.23051042,97.85740331,28.84934482,11.84300794,0,30.10742383,-529.3767279,0,-0.015642487,-0.009496224,-0.008503716,
53794,430.3519997,1681,38.24358745,60.3765082,8.495582754,15.22549106,-27.45755041,51.83324032,-129.199957,-181.276857,293.1466091,67.24951764,-0.802158679,148.1737138,0,197.7389988,266.8043834,0,-0.015038344,-0.009581527,-0.008350954,
53795,430.3599997,1681,-227.2648749,25.4136468,-9.342503202,67.44358545,45.3538028,78.04924758,58.75504732,-114.0245302,-242.0861685,72.33731225,74.66034458,-121.9667701,0,-96.77823562,-667.9447667,0,-0.014375416,-0.009204238,-0.007968671,
53796,430.3679997,1681,1.938652556,43.75429527,72.20408802,12.1867137,22.75236784,1.876870498,220.4332195,260.7935078,332.3676736,103.0396728,-11.62951689,184.8136632,0,225.7143088,75.73026397,0,-0.014324956,-0.009407654,-0.008372293,
53797,430.3759997,1681,-83.46401301,77.14622031,-38.60770258,64.07118397,0.468608828,112.2045031,-205.4844029,-391.1536139,-39.56429402,66.38444087,60.8044133,-29.15573237,0,12.17188488,-186.8209472,0,-0.015455616,-0.008283945,-0.008113965,
53798,430.3839997,1681,-154.3532517,23.13085063,61.02965733,44.77245393,53.03979061,1.352217148,332.5867848,291.7306031,2.147275391,107.9419589,43.93252915,19.44619756,0,43.3684449,-535.5808537,0,-0.017894196,-0.00687443,-0.008137726,
53799,430.3919997,1681,38.60202406,67.33091163,4.960999286,12.08895786,-20.16936239,64.06554808,-104.9657389,-162.5835073,321.6982017,74.24871629,1.340328298,165.1736374,0,212.7460287,265.8764187,0,-0.017238339,-0.00701349,-0.008235427,
53800,430.3999997,1681,-221.0162717,27.29438083,-12.91109031,60.41657047,34.4973786,63.60417875,61.46515407,-117.2037571,-230.0947572,63.4796137,63.27403299,-119.3861568,0,-94.57171955,-655.7297422,0,-0.015975604,-0.007224067,-0.008052577,
53801,430.4079997,1681,15.7967867,46.13552145,78.66950877,10.11171757,11.83967424,-11.96755122,228.6862317,260.753695,326.3365699,87.42455477,-22.68656979,183.7240518,0,226.1761939,79.87920973,0,-0.016482177,-0.006858603,-0.008186425,
53802,430.4159997,1681,-60.90023701,65.443288,-32.60767943,54.40423796,-8.235422067,111.8815756,-200.2220784,-392.589524,-37.42634839,53.21104264,49.44578862,-26.18695134,0,12.9012669,-154.1116463,0,-0.017218662,-0.009564357,-0.006365445,
53803,430.4239997,1681,-137.9997364,10.50399517,63.13201109,35.12992146,45.04109668,-16.14164239,327.7234427,291.2127601,-19.71856818,89.410399,29.30839396,3.984246516,0,27.54631255,-505.887911,0,-0.019696283,-0.013666149,-0.003585395,
53804,430.4319997,1681,58.80516056,67.5987835,11.50083474,10.7396576,-14.54391605,47.38088536,-100.9490494,-153.6738485,306.6186688,56.01932486,-11.86277234,152.1284665,0,197.8981171,308.5355998,0,-0.019138551,-0.012974999,-0.003965224,
53805,430.4399997,1681,-202.7687778,25.81590944,-7.166997953,60.81329229,44.34307211,68.20249913,61.10979771,-122.8778395,-241.9427768,59.96770053,67.50298379,-124.6131606,0,-109.1254408,-617.8463615,0,-0.017619833,-0.011919423,-0.004649574,
53806,430.4479997,1681,18.49084796,41.52358923,81.06066846,6.847794887,19.22283841,-14.89158946,225.0246561,263.493444,308.3145058,84.03097625,-14.17933618,177.0849224,0,213.6626504,106.3202124,0,-0.018295926,-0.012896453,-0.0039246,
53807,430.4559997,1681,-62.78732644,63.07276767,-36.05518433,48.48550662,3.436497691,105.1684158,-213.7679128,-403.6708839,-41.42115858,41.92687505,52.09370677,-34.66302396,0,5.596423111,-104.9899727,0,-0.018871509,-0.008644181,-0.005278948,
53808,430.4639997,1681,-138.6680608,6.849014472,62.83579591,28.83149798,51.36286094,-14.42918479,319.485096,273.5149975,-28.87845692,82.81201935,35.55868681,-4.800281736,0,15.26831664,-469.9244141,0,-0.021350782,-0.003092282,-0.006617086,
53809,430.4719997,1681,71.27989218,76.07688499,18.93264396,11.26722737,-14.73881839,56.2854939,-108.1673263,-161.2968868,309.5910257,54.14372861,-2.478257608,158.0335946,0,201.9257147,363.4842633,0,-0.020793559,-0.003946633,-0.006281486,
53810,430.4799997,1681,-184.8185095,38.61268153,-6.260250985,63.46092225,43.83984811,85.277357,42.55377725,-147.0507005,-234.0883646,62.28791945,79.92338618,-117.8438865,0,-98.62761516,-574.804878,0,-0.019172512,-0.004914374,-0.006228063,
53811,430.4879997,1681,32.41858656,35.27524308,79.01437012,-6.133961463,13.20894176,-12.70217834,225.996082,258.1983666,319.708553,83.48911544,-10.08999513,180.1776479,0,210.1872797,118.5266669,0,-0.019884882,-0.003643487,-0.006376231,
53812,430.4959997,1681,-46.19052399,62.55998859,-40.49773795,39.26646805,-3.156504274,101.7692251,-219.6148761,-404.4406445,-28.94168138,29.82387816,45.51516991,-32.73486923,0,-4.100484156,-67.02265526,0,-0.019519186,-0.003528439,-0.003706987,
53813,430.5039997,1681,-121.2761252,21.07024827,55.43510558,34.34554122,52.76394467,-9.114369005,304.0742749,277.9287025,-40.53692686,75.43746567,29.21386706,-9.277556757,0,11.95997401,-449.6955053,0,-0.020594838,-0.001965886,0.000446312,
53814,430.5119997,1681,93.67283067,79.89172998,14.49127538,9.574035226,-10.42092584,52.01166038,-118.4031235,-136.865113,307.9654398,58.73572638,-3.721257851,161.867198,0,212.1453943,379.1087637,0,-0.020190825,-0.001822163,-0.000139735,
53815,430.5199997,1681,-167.0466254,40.86165368,-14.2854757,61.62521629,43.99141826,73.24544769,17.070713,-138.810236,-243.5734765,60.51663614,80.00831477,-121.6162738,0,-103.3369643,-558.3992151,0,-0.018897529,-0.002652711,-0.00121983,
53816,430.5279997,1681,48.64722537,51.39468658,77.33642496,2.323995487,17.48876594,-11.83146328,212.1103081,277.5415445,299.6830068,80.91688445,-13.81085133,169.4407354,0,211.886109,119.9131956,0,-0.019219002,-0.001826078,-0.000126002,
53817,430.5359997,1681,-28.41333107,72.75218299,-34.11646272,43.3807262,1.237401611,120.6865496,-223.5958748,-385.3413651,-31.34687405,39.18957703,48.50188018,-33.90554551,0,19.18859386,-59.1309206,0,-0.019938055,-0.001456851,-6.76E-05,
53818,430.5439997,1681,-122.6551518,6.330463831,54.92844221,23.0251023,39.98078224,-6.258016732,304.4356218,282.1571601,-51.18229153,72.49051368,29.26883357,-19.68798035,0,8.280709493,-458.7631665,0,-0.022358069,2.49E-05,0.001398842,
53819,430.5519997,1681,90.52275785,63.29277284,13.12055278,-3.595340845,-32.24665212,31.52465315,-111.9627358,-135.5996547,306.0017593,36.26894936,-19.73775379,143.7417282,0,197.1617497,397.4761628,0,-0.021670087,4.10E-05,0.001407919,
53820,430.5599997,1681,-167.8124123,32.54676579,-12.97168711,57.47504336,32.80096738,63.04334245,19.05475274,-148.5938382,-241.664336,43.32050342,73.54506032,-135.1886925,0,-115.7910712,-530.195589,0,-0.020142549,-0.000657618,0.000517508,
53821,430.5679997,1681,40.9703174,35.04276495,72.52143757,-11.70313913,9.087978683,-22.14117044,222.9562367,273.3807994,301.8572593,62.47748379,-15.2585794,165.3760413,0,187.7604886,146.4354174,0,-0.020705354,1.79E-05,0.001222279,
53822,430.5759997,1681,-26.79172357,74.41153114,-44.79767944,34.55319089,-9.573885799,115.3019043,-234.5480558,-413.2816877,-21.16553806,13.43457296,40.55957697,-36.53554102,0,-2.111189235,12.71805898,0,-0.021222521,0.001279076,0.002358118,
53823,430.5839997,1681,-113.967383,33.72176725,53.51059754,40.43244861,49.66951189,10.89599589,288.7093457,253.8712544,-51.36418366,73.78580328,48.42592167,-13.66543971,0,2.770824479,-442.0945743,0,-0.0236448,0.004140766,0.0051483,
53824,430.5919997,1682,100.6352766,83.63468495,17.65766095,5.699898865,-13.68935412,45.78485486,-113.712887,-145.7730627,322.859843,54.15943189,8.818326592,171.6629033,0,203.0767246,383.4410412,0,-0.022991812,0.003893526,0.004866917,
53825,430.5999997,1682,-163.7370359,48.9703967,-16.2713955,55.96180668,43.74633448,75.34753003,4.807094861,-179.5959866,-231.9931973,50.19389438,83.52995396,-117.2315828,0,-115.2421103,-522.310814,0,-0.021329397,0.002863383,0.003716881,
53826,430.6079997,1682,43.43238147,48.43148396,74.91678776,-6.973990199,16.54123756,-25.38598704,221.1678169,261.8893618,299.977933,75.34867219,-5.454449366,177.1243583,0,195.2673777,135.2453676,0,-0.02195355,0.003837595,0.004665796,
53827,430.6159997,1682,-19.64930941,76.82412503,-38.12049724,37.28999818,-10.93565124,95.14868721,-237.4369923,-416.2460934,-14.74340349,18.02638671,40.79967937,-25.93925596,0,5.505031174,21.90839348,0,-0.017231098,0.001395407,0.004707771,
53828,430.6239997,1682,-112.4441286,31.79862365,55.65784518,39.49640397,51.4517172,7.476182312,292.706345,258.2575556,-64.27168703,63.15096149,35.38668467,-18.21298856,0,-2.60587679,-431.6778154,0,-0.011284651,-0.001313271,0.006112443,
53829,430.6319997,1682,102.8113717,69.15996411,17.18838094,-3.579703204,-15.88728517,44.51742151,-96.66229672,-120.5956056,321.8736949,44.83225438,-7.297828439,168.0948344,0,207.1518477,412.2886929,0,-0.011716521,-0.00079847,0.006022142,
53830,430.6399997,1682,-167.2173097,25.77503131,-21.91254413,48.08426414,30.20807344,71.16857465,10.87951726,-172.7318625,-240.9229914,29.59061176,59.75303022,-135.553506,0,-117.0436154,-477.8882113,0,-0.012255757,-0.000498861,0.005107922,
53831,430.6479997,1682,35.20241639,39.96647623,74.82901779,-0.16706271,17.96234248,-15.28354152,241.1979142,281.4122697,284.0206317,54.93527068,-23.93386034,160.2450328,0,190.8478522,164.2172193,0,-0.010604008,-0.000972649,0.005723612,
53832,430.6559997,1682,-27.71194054,74.83993144,-39.29072977,41.87240169,-3.000829132,103.6577071,-220.2900674,-401.2798774,-3.57093634,18.22534817,42.07476584,-20.41876108,0,13.45565983,60.84007598,0,-0.010910556,0.000140065,0.007661026,
53833,430.6639997,1682,-128.5399309,28.3231207,51.88602567,43.20370353,49.17463075,5.393725656,310.8174209,254.6763668,-74.03491801,64.02246821,39.52972993,-22.54200773,0,-1.314062861,-410.1666105,0,-0.010364253,0.001477072,0.01179219,
53834,430.6719997,1682,92.57916226,85.10024282,26.39912064,15.99808821,-15.3269457,51.43903433,-73.64927301,-118.5785091,316.0288314,41.34887672,-1.267168017,170.9110717,0,213.9877073,446.0894318,0,-0.00962359,0.00114561,0.011246014,
53835,430.6799997,1682,-179.574369,46.09220105,-15.33820223,63.67541566,33.37560582,78.27637945,16.65268939,-178.8707315,-238.8980604,40.93481086,82.1987323,-119.4608324,0,-108.1187344,-461.8529038,0,-0.009687613,0.000935999,0.009676921,
53836,430.6879997,1682,18.81571752,45.42464924,75.80110919,-2.658308989,15.97564948,-15.83378057,253.4162945,288.2763849,272.6369629,66.67961244,-8.931462876,168.6293191,0,193.6008151,151.4527428,0,-0.008852702,0.001142366,0.010930336,
53837,430.6959997,1682,-38.32803626,81.69964176,-33.51307312,42.49035234,-2.282379796,111.7826083,-219.0880938,-406.4312427,-3.616203063,18.69799033,47.03809031,-12.66999563,0,16.63660308,80.95459192,0,-0.010395154,0.000930691,0.008924814,
53838,430.7039997,1682,-148.9282176,29.74241957,54.19877352,42.70446382,58.54311347,4.271503098,309.6109883,246.69187,-77.95902987,66.7745992,49.15839503,-14.403417,0,-7.59109296,-414.7640563,0,-0.012734321,0.000934745,0.007511592,
53839,430.7119997,1682,66.80972307,65.22244258,19.88543775,-9.563400878,-11.4568283,32.74991517,-65.35061692,-109.9512815,316.771018,32.11326617,-6.549484151,173.2649089,0,204.3182746,453.4926389,0,-0.011858112,0.000937047,0.007789957,
53840,430.7199997,1682,-211.1977764,23.19824437,-23.16254568,39.21204259,29.31449924,60.02553983,6.401587886,-199.252322,-244.3725737,13.73262612,67.69408803,-137.0887042,0,-125.2410045,-423.2474101,0,-0.010869633,0.000810857,0.00739918,
53841,430.7279997,1682,-9.717074419,36.61188821,75.04493143,-10.7595365,20.80474207,-38.99378049,252.6707759,276.8924668,262.233724,46.86238396,-13.61938918,150.0867276,0,181.2745348,168.8107359,0,-0.011076981,0.000847555,0.007304849,
53842,430.7359997,1682,-48.03103699,76.53861046,-39.67419725,26.64770981,1.724497628,86.32155165,-219.0682524,-411.224383,-7.183883382,2.461695168,41.89643035,-24.40501814,0,13.85269709,108.0433708,0,-0.011955431,0.000760606,0.010485189,
53843,430.7439997,1682,-154.1602384,25.74736524,47.5394466,32.69274671,57.13276531,-7.611846168,307.0639256,230.2688184,-98.1563101,50.94447107,43.95740321,-36.92025054,0,-23.44734579,-403.7646602,0,-0.014361219,0.000729087,0.01589573,
53844,430.7519997,1682,155.5111007,91.84586806,61.06061403,-12.50255703,-3.135354479,8.42157709,39.3592605,110.3497064,497.0301209,43.8934856,-28.10629864,268.5190738,0,308.834081,660.2122047,0,-0.013733,0.001567825,0.015832298,
53845,430.7599997,1682,-69.93368559,80.87859853,-4.930832588,42.90538413,25.12437438,65.07127458,-16.0012905,-82.13263536,-28.10488514,29.38356526,60.64018321,-18.73489355,0,4.127024155,-104.5536588,0,-0.012280957,0.002888049,0.015503915,
53846,430.7679997,1682,-65.1482794,56.13242038,30.64885702,24.81165261,26.41267868,7.055380645,132.8100357,89.85144407,44.80839578,48.19747854,41.7104318,40.31770834,0,54.6877858,-100.2755826,0,-0.012841909,0.002697456,0.016693572,
53847,430.7759997,1682,-50.05501726,67.55791292,-3.363124543,26.27189688,20.89950116,45.97888707,-57.65148481,-179.76722,32.8288323,21.25823411,41.13532003,21.89937681,0,37.23616344,22.77678778,0,-0.01173849,0.002261018,0.014998625,
53848,430.7839997,1682,-56.5656691,49.09107016,43.8706869,15.12942532,35.71155541,-3.589278857,189.4548699,167.5224696,81.8483167,33.59664408,27.46433805,59.46127337,0,63.82360911,-75.40034727,0,-0.011386764,0.002610782,0.015323756,
53849,430.7919997,1682,-25.5826458,81.54060485,-11.0239305,28.11446141,9.616625689,65.33590985,-97.59737138,-224.4850506,55.56846655,13.41192319,35.41744968,24.58607857,0,37.65071047,107.6477734,0,-0.012884493,-0.000276463,0.015992475,
53850,430.7999997,1682,-104.2969059,67.981228,31.28638857,46.10072285,57.04302282,24.81301309,183.1713664,103.5388101,-50.43759919,50.78125024,51.37302003,-8.75175692,0,4.220155489,-258.2488779,0,-0.014804005,-0.00447115,0.016517482,
53851,430.8079997,1682,40.1365977,89.92613153,30.54753708,17.26651913,25.29885271,36.85302894,38.64055369,-13.81028292,233.096012,49.86720928,25.07078874,138.4205683,0,167.0064593,241.099033,0,-0.014343075,-0.003882919,0.016691945,
53852,430.8159997,1682,-134.5673081,68.78489168,-25.11864991,47.77172722,45.91640148,79.09964099,-16.30495511,-212.3488209,-138.8703347,22.98126837,66.09000971,-75.7039018,0,-56.0858171,-265.5526552,0,-0.012909889,-0.00297092,0.015520377,
53853,430.8239997,1682,-19.82920249,65.07088626,64.14785317,14.31268365,49.9534093,-12.5989144,262.0266047,250.5803541,188.6029719,58.18069569,13.716031,123.8995065,0,149.0133777,14.38273637,0,-0.013275733,-0.004029297,0.015829923,
53854,430.8319997,1682,-22.33354027,100.8441513,-23.4107557,41.7739594,21.19773077,105.8584555,-169.2354982,-354.5806663,50.54744317,23.61342345,55.34824309,20.73818978,0,49.47303385,95.98055914,0,-0.01234695,-0.003351367,0.01356961,
53855,430.8399997,1682,-145.6027928,49.96821211,34.31313518,40.68851652,69.01404295,30.77183009,263.4697189,166.3191724,-98.88575716,49.83192991,47.84449826,-31.14353421,0,-20.23779379,-413.1921355,0,-0.01182443,-0.003464922,0.010339045,
53856,430.8479997,1683,72.68807134,92.60184446,25.44803652,5.254713791,19.732121,46.06863547,-0.133145811,-56.31378779,289.6730833,42.00717309,3.783641925,165.1984035,0,198.3746302,348.2936068,0,-0.011649816,-0.003702549,0.010712109,
53857,430.8559997,1683,-160.7376326,67.80771226,-33.85337888,55.23685497,50.08544562,83.12647276,-16.56638311,-224.1039754,-210.2296222,30.93346197,76.61585998,-111.1460729,0,-92.66938335,-377.6687645,0,-0.010768995,-0.003275901,0.010817048,
53858,430.8639997,1683,-11.36252303,50.86877001,63.1617364,-3.838494359,39.64832903,-32.81521797,279.0322783,303.2665623,204.2120875,56.48197792,-14.0908769,136.7724314,0,162.7106024,65.92982749,0,-0.010600265,-0.003625817,0.009991993,
53859,430.8719997,1683,-24.32589809,90.55681769,-38.80298907,27.6396464,16.49891854,96.37909961,-208.1089786,-370.719773,31.90328376,9.315013262,28.37831234,0.711671972,0,38.87992876,165.116499,0,-0.008245644,-0.00081382,0.010991865,
53860,430.8799997,1683,-160.2458013,39.5914396,29.05262332,37.51961644,73.3056615,13.37492223,267.3778148,204.8980676,-126.2991828,49.34238655,45.12043815,-54.62079101,0,-33.29565012,-394.5484666,0,-0.004994984,0.003331695,0.012011985,
53861,430.8879997,1683,80.55309052,85.10408061,23.76664904,-0.736324752,14.82605826,40.27537171,-36.34800082,-57.56616589,301.4901652,31.64297356,-8.715258716,162.2344324,0,204.8979796,461.3168465,0,-0.004984979,0.002723065,0.011484316,
53862,430.8959997,1683,-163.0857161,66.26224555,-31.88815124,59.02644376,56.81984226,86.11966902,-39.37124852,-224.210363,-231.8120042,31.12215328,74.83389349,-127.734578,0,-104.156391,-340.6013042,0,-0.005144392,0.001744861,0.011056321,
53863,430.9039997,1683,10.80650575,52.778971,68.24983434,0.379744852,47.43989873,-35.11060123,261.4026606,304.0915458,217.4966282,72.52094251,-3.980912507,145.0563598,0,170.4366367,129.9379582,0,-0.004036853,0.002770842,0.011001776,
53864,430.9119997,1683,-5.609270976,92.14292619,-39.53372351,27.42610361,16.11950056,101.9534739,-234.174893,-395.2787446,31.35016618,12.39936493,29.02874678,1.158196201,0,33.88996033,236.1942996,0,-0.003199765,0.006354785,0.011465508,
53865,430.9199997,1683,-142.1248813,51.26354474,31.66160782,35.67766293,74.46014558,26.39330735,259.1121756,200.9490343,-134.9282741,62.55716361,45.7750427,-51.64561674,0,-34.11991554,-345.0849377,0,-0.001325709,0.01336685,0.012607517,
53866,430.9279997,1683,106.6404303,98.38228511,28.9270071,-6.178187445,14.74907387,46.83086052,-46.4301264,-60.705875,314.5922914,53.51115751,-4.61351439,176.4004324,0,212.0137262,524.1478804,0,-0.000938065,0.012674839,0.012223262,
53867,430.9359997,1683,-156.7222313,76.78706643,-31.05004413,57.40735551,58.78608628,92.67682918,-48.68431451,-233.3831664,-229.2981234,40.19655321,71.30666428,-124.014702,0,-109.7365415,-293.3793044,0,-0.001192977,0.010302119,0.011499624,
53868,430.9439997,1683,19.89502078,72.85436822,74.08233537,9.516330342,58.81964669,-2.810485068,261.0009609,318.59506,221.5887322,88.69574181,-6.121970982,155.4439924,0,179.5255105,158.3674667,0,-0.000179723,0.012524133,0.011691512,
53869,430.9519997,1683,17.61755454,105.5437865,-26.14758112,39.02032762,26.96909276,131.6378206,-235.234513,-373.8915077,45.24566762,36.90960638,33.1326875,16.40148904,0,52.77830327,241.9121565,0,-0.000207583,0.005724456,0.015426677,
53870,430.9599997,1683,-125.4028617,48.72763933,41.35017499,41.67249315,75.85438283,11.39731933,256.4613507,213.1898829,-129.8745541,70.71005961,35.15987144,-45.83129173,0,-27.70660741,-350.560977,0,0.000228497,-0.002514827,0.022151372,
53871,430.9679997,1683,124.6422461,95.81252741,35.50943089,1.95921281,12.87269812,29.62448571,-47.43587228,-37.13223608,321.9923914,55.13837787,-26.89680371,186.6395971,0,218.6434355,544.6877129,0,0.000732804,-0.001041633,0.02108729,
53872,430.9759997,1683,-139.512933,69.68572114,-23.33780236,67.28005249,59.13495895,102.4225728,-56.67446638,-215.0394747,-229.2178603,43.2018215,57.59583618,-120.2464835,0,-100.2101774,-266.2600365,0,0.000837951,0.000133797,0.01873636,
53873,430.9839997,1683,24.13386936,56.80435403,83.45260543,13.21568338,56.50786978,-6.737197612,257.385035,332.5504119,213.9377189,84.26344418,-16.01533023,150.0458376,0,182.6654023,176.6110701,0,0.001412501,-0.001492153,0.020534304,
53874,430.9919997,1683,12.98583278,94.44812183,-19.02757842,45.68867851,22.60748535,125.480852,-245.9549914,-367.3804859,47.99273544,34.11683615,21.11931391,18.94140366,0,57.28280912,288.2344619,0,-0.000103891,0.00462648,0.023096921,
53875,430.9999997,1683,-137.4822187,42.69036808,49.09723154,53.60571451,80.94037242,29.03436391,242.1449907,215.5947201,-137.5464214,76.16351189,30.59114528,-43.39334736,0,-15.03216529,-312.6224885,0,-0.002504646,0.012784117,0.029929139,
53876,431.0079997,1683,120.7830196,92.02013028,44.39322981,7.674486724,23.21568222,42.08064373,-51.81729045,-32.41194664,319.5003172,67.76787782,-22.48947076,195.4150338,0,239.1726752,569.2189398,0,-0.001766927,0.011256353,0.029141993,
53877,431.0159997,1683,-135.3444503,73.76934595,-23.21728786,73.08520454,64.10430275,112.2547496,-66.96598487,-231.3704706,-237.2370111,55.695705,59.93270749,-115.1212142,0,-90.404148,-244.1753556,0,-0.000752352,0.009598875,0.026034602,
53878,431.0239997,1683,34.59055241,59.81026916,83.62215305,16.34481181,57.19419545,-10.5155759,263.7627805,328.4808446,199.2262098,98.12782275,-14.0297856,152.9182187,0,190.0957495,179.4509278,0,-0.001105681,0.011312772,0.028308526,
53879,431.0319997,1683,30.75887569,92.11095282,-23.13876092,33.99207447,25.66844399,102.8712806,-235.0782438,-372.5510703,49.36319075,50.30766513,22.99035666,24.40968004,0,62.46590423,311.5790965,0,-0.001144865,0.005652152,0.026966321,
53880,431.0399997,1683,-125.4111836,44.08610612,38.35408437,46.60517429,89.48960002,34.57468445,247.6622545,204.7727054,-158.13222,81.24258284,29.52907353,-56.10064452,0,-34.12087788,-298.70788,0,-0.002237331,-0.001216583,0.028211967,
53881,431.0479997,1683,133.8756991,86.00576872,46.03425117,1.523569667,22.43595192,41.55595383,-41.36827736,-17.43688742,307.7732418,61.93828567,-20.83843432,188.8499874,0,228.9633548,587.5520016,0,-0.001871464,-5.79E-05,0.028156873,
53882,431.0559997,1683,-134.9811169,58.12494266,-19.69833561,53.8248978,57.80858281,82.23921038,-77.08924817,-232.6184972,-234.1692648,45.3512962,61.36820742,-122.7777226,0,-103.1825509,-194.1735377,0,-0.000837646,0.000964942,0.026242902,
53883,431.0639997,1683,26.16728982,54.00707219,85.67217702,5.664256632,60.71066839,-17.74967281,243.8932201,330.111028,189.2267142,82.09195693,-17.67752585,135.6831806,0,159.0302559,225.6591521,0,-0.001109638,-0.000476066,0.02709497,
53884,431.0719997,1683,27.00361786,88.42373379,-18.1690667,30.93135291,24.23949347,106.0788652,-263.7017586,-365.1269674,51.10462737,34.70629899,27.50541713,23.75008188,0,50.13168832,355.1493916,0,0.001390723,0.002077158,0.02573907,
53885,431.0799997,1683,-150.1314596,29.77350905,35.76375217,36.32218836,82.60877067,10.27121208,218.2840284,194.7193527,-167.3435145,72.61479766,34.67464295,-61.30410427,0,-43.31824109,-286.38627,0,0.004476402,0.004647007,0.025447705,
53886,431.0879997,1683,103.7273442,73.28136383,38.73130176,-6.474682203,29.73577468,24.39040239,-60.79992679,-20.38490528,297.5586693,52.89155135,-33.34718189,178.5654395,0,216.2827798,602.0362144,0,0.004337063,0.003913748,0.025203298,
53887,431.0959997,1683,-160.4035849,48.25229718,-29.58407572,54.72553241,71.79501161,98.0984057,-94.88210076,-238.0809433,-244.4219494,36.23164596,51.6271234,-133.8924326,0,-110.4106666,-186.2042965,0,0.004206082,0.003647804,0.024223697,
53888,431.1039997,1684,-5.497782146,41.22931766,77.68545159,4.829756698,62.42260536,-18.57469664,245.2525164,334.4479191,168.2011163,81.87834066,-23.8743875,122.4141491,0,161.9653647,204.158933,0,0.005105566,0.003905901,0.024197186,
53889,431.1119997,1684,-2.954385959,75.34746363,-23.10246065,23.72192753,20.36663658,87.77583795,-264.6332152,-364.3066763,46.67230175,33.77521143,12.68319744,15.56192386,0,61.40865451,372.1660047,0,0.005928386,0.001864518,0.026832026,
53890,431.1199997,1684,-178.7890241,17.68972838,35.62592387,34.24737683,80.2936722,25.98400511,219.2518956,195.2556128,-176.4589223,67.86108582,26.21157812,-78.20914257,0,-46.28734401,-267.1478918,0,0.007688893,-0.000945759,0.032024028,
53891,431.1279997,1684,89.7113138,66.47540676,47.17910982,-4.167455621,15.74576718,53.900958,-51.8481814,-0.477472856,297.721705,55.25216519,-31.70352551,173.9738381,0,219.5988824,620.1928571,0,0.007968992,-0.000598839,0.030862008,
53892,431.1359997,1684,-170.4668109,40.42668951,-28.50371591,51.22038248,57.57361328,99.12607313,-104.5346689,-234.0664362,-238.4001375,38.45330347,55.54319778,-132.1167045,0,-110.5919654,-166.8885771,0,0.007665039,-4.73E-05,0.028734371,
53893,431.1439997,1684,-12.70449533,31.10432612,75.62033462,4.291507531,66.25198795,-26.93425095,246.6323823,353.790247,161.8256752,81.08474687,-24.75733234,114.6175673,0,148.23139,203.0765945,0,0.008548201,-0.000789056,0.029931027,
53894,431.1519997,1684,12.09870805,76.06136331,-18.93570886,30.18704636,24.33747007,88.29907305,-266.7447463,-343.2435295,47.64777704,29.29982615,4.154058299,19.5836502,0,56.95752259,406.9203437,0,0.00588321,-0.000378727,0.026533936,
53895,431.1599997,1684,-161.3396412,27.13548318,40.17471638,42.87274732,84.30981579,16.16306287,208.0132583,204.1588114,-184.1921471,62.83651123,25.86128932,-70.04317865,0,-58.66067252,-241.1495209,0,0.002045154,-0.000509602,0.023434019,
53896,431.1679997,1684,112.264385,73.56065518,53.82056932,2.33485718,24.63514446,32.81964882,-47.17991301,27.44196466,303.6012452,58.23369379,-24.46978556,189.3703555,0,216.844468,644.7598849,0,0.003006126,-0.000695012,0.023615913,
53897,431.1759997,1684,-151.9806601,40.0298633,-25.09396369,47.29741009,51.90868447,85.1240047,-112.3392652,-234.2619235,-228.178992,36.84270123,54.65318415,-116.9537101,0,-107.6382476,-98.1214251,0,0.004168947,-0.000468291,0.02316179,
53898,431.1839997,1684,-7.690207319,32.90951639,79.06360865,-4.507245961,53.37098874,-27.05650833,236.8207883,342.3186461,161.8548869,77.80451196,-20.52721261,123.3512826,0,134.7898705,270.609474,0,0.003503862,-0.000733665,0.022449689,
53899,431.1919997,1684,16.03200634,83.37589521,-17.87432873,22.97311142,17.74777985,96.83787279,-276.4860538,-352.7111887,64.51721315,30.70378488,14.15177817,32.61174133,0,52.22828429,474.9922885,0,0.00617124,0.001094833,0.022936545,
53900,431.1999997,1684,-169.0661587,26.78935001,33.46622731,34.71237283,79.3343497,18.58637064,197.7217301,184.6343631,-180.279457,62.24130485,26.6271408,-69.63455287,0,-59.3672042,-193.9971201,0,0.009172287,0.003816252,0.023833148,
53901,431.2079997,1684,111.2356035,73.73986071,49.28116269,-7.922635282,16.76231238,25.0580781,-50.86234278,15.67804687,302.781612,59.23727611,-29.94201741,189.7944178,0,217.5899405,691.3859664,0,0.00888827,0.003372978,0.023080705,
53902,431.2159997,1684,-150.7847579,55.31788872,-28.56307833,48.00033889,48.7262101,88.64943262,-125.8639496,-250.4633621,-234.1604698,36.25454384,49.95715214,-117.3986893,0,-107.6135657,-53.68207501,0,0.008846072,0.002675742,0.022313769,
53903,431.2239997,1684,-11.42143242,53.87467852,81.95904312,15.18564469,63.79649185,-11.88696145,239.2785022,353.5974929,149.2821923,84.07712148,-20.57323598,120.1343866,0,141.2328181,267.5419966,0,0.009582345,0.003322769,0.022144452,
53904,431.2319997,1684,141.8764647,126.7551247,-42.02459121,27.24360917,-8.81495284,146.7353148,-546.885081,-638.9201471,230.917037,28.0991846,2.588021215,117.772726,0,147.8024253,891.1619677,0,0.0129901,0.001944988,0.020553714,
53905,431.2399997,1684,-150.7239545,43.94418014,-30.7442561,38.6296273,53.53898213,72.53321448,-111.8772694,-223.5236664,-223.2076584,38.50203998,36.65347342,-102.4145714,0,-105.1442872,-53.46651072,0,0.018878936,0.000552244,0.018733942,
53906,431.2479997,1684,-41.40922409,24.65753884,78.18097595,-3.616529922,64.24545359,-42.63621617,294.838809,415.7106152,101.3188954,78.05561994,-28.54414527,108.6380844,0,110.1758436,182.3839854,0,0.01852181,0.000839987,0.018472622,
53907,431.2559997,1684,0.547024089,72.72124379,-7.058739376,19.200751,33.02506396,69.1590912,-176.0420193,-196.3032136,46.75083452,37.01098255,-0.110159504,46.36673584,0,47.37061988,414.0829275,0,0.017091476,0.00085634,0.018252124,
53908,431.2639997,1684,-79.9576267,49.72980675,5.25268586,26.81678443,51.84620659,40.21217642,-19.62545794,-37.7401137,-55.02109009,42.87790032,5.311732206,-1.645339161,0,-4.790048727,145.3795842,0,0.021598315,0.001512251,0.014052203,
53909,431.2719997,1684,-71.44921752,39.67729079,39.42795172,25.09166098,62.59389328,23.98249925,128.3901462,153.007514,8.749020045,66.78588576,1.07744521,45.58590089,0,53.69021331,127.9222584,0,0.024844873,0.0029556,0.008212666,
53910,431.2799997,1684,5.961116083,68.11650053,10.11848675,21.99423504,41.57531386,70.83971476,-110.8076557,-122.7473862,103.3862618,53.97812926,-2.595516627,85.8828099,0,92.65611759,425.3728699,0,0.024651865,0.002704364,0.008457009,
53911,431.2879997,1684,-121.8188032,45.92091846,9.58151815,39.90441794,70.05144466,42.37469122,14.84328932,-27.0664027,-103.189878,59.3157203,28.12972009,-18.26673123,0,-24.49803942,14.78591194,0,0.02408802,0.002239998,0.00944397,
53912,431.2959997,1684,-39.78864626,34.24399609,47.46639765,1.967094694,62.0158334,-5.171554949,112.9019636,166.5502041,98.97359508,63.86126308,-10.09822158,95.95126497,0,96.44064099,259.4157428,0,0.024688138,0.002630807,0.007595282,
53913,431.3039997,1684,-28.14687164,55.0161614,-10.01217724,9.305427287,33.01220843,63.67997552,-182.535054,-218.6363425,35.93338544,23.34104697,-14.92224533,36.80356891,0,38.89693094,419.8691665,0,0.027203378,0.005700368,0.010726867,
53914,431.3119997,1684,-154.5671272,43.43213401,32.89073743,46.66777952,82.11147995,28.77156012,147.999835,153.9963968,-148.2393435,63.11573145,16.70675327,-30.77582799,0,-37.16162055,-75.0775985,0,0.031215824,0.011264858,0.014424241,
53915,431.3199997,1684,62.65957887,86.13069887,46.45887841,20.34157826,41.22229504,41.11338881,-46.13378396,17.96506318,232.2038683,77.39946479,-2.92228926,181.1336525,0,176.4731283,561.1335502,0,0.031105523,0.010564747,0.013157779,
53916,431.3279997,1684,-150.353674,58.28519213,-11.04304346,50.56029691,59.38862952,73.6781857,-97.48811905,-179.7134535,-178.1319859,50.07103329,43.27585884,-53.22411723,0,-73.72569197,-18.78108956,0,0.029689155,0.008808096,0.012284847,
53917,431.3359997,1684,-53.0972974,45.53525182,72.64947065,13.62105256,58.53797404,-21.17427042,196.6968256,299.4623897,104.673786,70.30594182,-20.87503896,118.1437056,0,117.6842692,227.1878986,0,0.031082893,0.010423704,0.012583791,
53918,431.3439997,1684,-0.655155941,84.53491223,-2.068905363,39.00231611,20.55887225,81.27190028,-235.9803551,-271.552771,83.57204252,38.73473003,10.49755342,75.04120613,0,83.03012233,476.0344657,0,0.029424551,0.010015848,0.014314155,
53919,431.3519997,1684,-196.5937163,33.83604897,32.69783887,54.83810243,78.9743936,23.77477726,165.3697889,155.2335207,-184.7714141,61.78295601,28.72100977,-50.89177548,0,-57.8889047,-183.247538,0,0.028068635,0.011465537,0.018187034,
53920,431.3599997,1685,64.19896807,69.15165224,49.45870719,3.236799704,19.26855852,8.657751664,-26.61424036,57.39691994,272.1506778,54.44852228,-38.14026101,191.10632,0,202.643786,625.0750635,0,0.02865557,0.011522857,0.017413763,
53921,431.3679997,1685,-168.7954222,52.57803605,-24.73440339,59.53132448,47.62533928,77.72042543,-127.804717,-242.6086104,-216.5022314,38.19240057,41.68288744,-87.66846271,0,-84.19774527,-38.87471179,0,0.028410042,0.010306264,0.015627731,
53922,431.3759997,1685,-74.86603303,30.45297442,71.85232266,9.19890508,54.99898273,-32.07162613,237.4111754,337.9080192,107.469243,75.12389017,-26.00340773,111.438115,0,126.8467835,196.5394967,0,0.02851072,0.011134875,0.016615536,
53923,431.3839997,1685,-19.25643331,62.88891444,-22.74384366,11.41253575,-5.016713951,57.17355248,-265.1430443,-303.5594219,82.103355,21.17300687,-15.76771016,58.62068409,0,77.06009306,489.0527146,0,0.029333764,0.011184466,0.016146249,
53924,431.3919997,1685,-227.449454,15.14989579,14.54743999,33.27524423,59.92571603,7.965124794,162.045889,153.4986835,-220.7633107,42.01796479,6.546319609,-85.19643539,0,-78.61543733,-212.8489625,0,0.030717058,0.012530887,0.017246592,
53925,431.3999997,1685,48.78429337,63.40542701,47.70297204,-4.396695928,13.90788717,6.040957075,-29.43316433,81.05630618,275.3796546,50.75518706,-44.6110619,191.790266,0,216.9282564,645.8299043,0,0.030558544,0.012375143,0.016967814,
53926,431.4079997,1685,-199.6821563,39.76704139,-31.45427425,46.62423093,43.33307248,69.57481408,-160.9062771,-251.3977658,-230.6199981,21.83380136,36.53711142,-92.00424318,0,-88.17075298,-40.73549625,0,0.030134281,0.011440281,0.015583399,
53927,431.4159997,1685,-96.9287702,28.87398278,72.96442891,5.859576158,63.34063538,-27.37467566,228.0808713,361.9124737,92.26965885,55.06137464,-32.13181096,105.0318168,0,115.8684058,190.7853814,0,0.030547253,0.011991516,0.016030915,
53928,431.4239997,1685,-16.76721022,82.45818407,-11.08947834,32.21394046,19.02658313,81.47086257,-289.1429838,-307.1289378,80.30584105,28.56729992,7.966161589,75.28560045,0,92.75051891,478.8087483,0,0.028513544,0.010446039,0.01845282,
53929,431.4319997,1685,-233.8870589,27.07977477,28.59034898,47.72012908,80.84514777,27.64043252,149.5815608,140.9200351,-217.2494225,53.0335716,38.40763109,-64.97732339,0,-61.76204891,-273.5144271,0,0.025764451,0.008976357,0.023684501,
53930,431.4399997,1685,48.35599443,79.17302166,62.23583138,4.312052957,29.36922773,30.91597502,-32.86462197,79.81922683,294.1250704,53.44908646,-22.55865443,205.9348358,0,223.079746,588.3835205,0,0.026179866,0.009093537,0.022696305,
53931,431.4479997,1685,-195.4857786,53.64630074,-21.05383852,58.09026577,57.95622118,83.96259101,-169.0792155,-273.8233959,-217.0674787,37.07554223,66.43805984,-74.52356271,0,-78.5534296,-114.7741536,0,0.026741836,0.009006501,0.020400502,
53932,431.4559997,1685,-100.9213512,30.69620019,78.74014866,10.36082832,66.7688042,-28.81568045,236.1942096,348.0932151,102.038228,66.93738268,-12.34952956,118.3848382,0,125.809492,109.8774241,0,0.026088914,0.008680601,0.021791714,
53933,431.4639997,1685,-22.11429654,88.83042112,-7.490890873,29.60200571,10.76842342,82.77620342,-294.4506342,-319.4672885,93.10194777,31.25109577,13.88899147,82.67792918,0,87.78496876,424.3838636,0,0.026505672,0.007727792,0.01833282,
53934,431.4719997,1685,-254.4636689,20.06805113,26.1619844,34.91035328,72.71410208,2.244993163,142.9006414,120.3592584,-218.1902756,59.12897577,45.07830254,-62.4622384,0,-81.64375727,-345.3760949,0,0.026441745,0.006172998,0.015275292,
53935,431.4799997,1685,32.27223357,62.03805866,50.20751054,-13.43901744,17.74450025,-3.589474311,-32.39481115,71.56662124,293.7784563,44.56920939,-35.91533703,198.8013242,0,206.8634044,536.9919842,0,0.026285658,0.006119989,0.015527965,
53936,431.4879997,1685,-193.9142216,60.5422801,-31.10878121,60.71142257,46.07879411,87.89486974,-184.4857403,-281.055294,-217.301473,26.31463662,48.88223175,-88.0083144,0,-96.26030827,-155.8170808,0,0.026550012,0.006404364,0.015039168,
53937,431.4959997,1685,-103.1465144,33.25275106,79.58626971,14.84769166,58.06301011,-37.52697889,239.8142985,362.2805477,104.4971351,74.93282656,-8.616145182,114.3076156,0,110.8709386,34.12262368,0,0.02632834,0.005801545,0.014415187,
53938,431.5039997,1685,-21.92047267,75.42377029,-6.700198554,27.62207592,3.949845754,66.96890543,-288.0625325,-292.1629894,105.5017551,24.80393742,8.299710172,81.47744359,0,87.35016897,389.0635844,0,0.023884066,0.00335072,0.015753925,
53939,431.5119997,1685,-253.7694414,25.03175627,27.9208933,60.22133551,87.8139628,31.6201305,138.6865595,146.1649441,-223.4570797,45.45274758,35.30027677,-73.82389142,0,-90.37957005,-372.3936414,0,0.019690072,-0.00100188,0.0180833,
53940,431.5199997,1685,22.65912881,67.4678967,59.57807749,10.48100438,40.67207193,20.59805142,-21.14651317,109.7581662,291.952902,55.1244152,-26.00619701,206.0666141,0,206.1934216,481.5130189,0,0.02018262,-0.000717597,0.01718623,
53941,431.5279997,1685,-215.4157167,46.76466027,-22.43688546,59.04285432,46.39765156,84.5204988,-180.2660805,-264.8757538,-219.9768386,34.46294192,57.328318,-79.49559882,0,-87.97825343,-194.4889307,0,0.021405384,0.000464556,0.016053323,
53942,431.5359997,1685,-122.435678,27.80592473,84.24628081,18.29456906,56.94991785,-34.52586185,240.0427037,363.8651474,87.84351968,68.00791471,-14.88454479,103.4006319,0,105.0646519,17.33617922,0,0.020180405,-0.000975261,0.016312466,
53943,431.5439997,1685,-32.20656066,77.08453007,-7.912899047,33.66852195,17.29554783,73.41986051,-288.3438635,-306.722665,103.0694594,33.58459123,9.609645021,86.48401574,0,91.49507029,376.3033166,0,0.021053164,-0.003632483,0.016184032,
53944,431.5519997,1685,-275.7689157,6.170924522,23.23528234,46.73397772,85.70422307,8.313376235,143.7826471,112.6113051,-234.4609072,54.96554788,40.26965996,-70.06020817,0,-84.11643252,-411.0962061,0,0.020958494,-0.009422164,0.017206,
53945,431.5599997,1685,9.115890457,54.12306324,59.05706158,-1.712082924,25.65115811,-10.67951938,-9.631362691,91.35228305,280.1726791,35.26489775,-39.58562883,197.5379556,0,203.8488029,482.7054744,0,0.020734133,-0.009072887,0.016682046,
53946,431.5679997,1685,-214.1740392,53.03872674,-21.43176971,65.51611705,58.03698201,87.21310843,-177.5624007,-282.1228198,-232.3210035,21.06976521,56.0275384,-77.15138187,0,-90.13921464,-179.0285661,0,0.021289361,-0.007094101,0.01555157,
53947,431.5759997,1685,-129.3329128,26.8095238,88.86486219,21.77242139,80.10781394,-23.15808798,262.1375572,370.964797,64.00083004,70.39994301,-3.860854724,111.3427031,0,99.3944266,-11.14270113,0,0.020912358,-0.009145661,0.015701039,
53948,431.5839997,1685,-29.00242548,83.40947606,3.946286795,37.48016331,22.3258179,86.17327637,-267.5243344,-284.8179891,94.4950201,26.25119944,9.842341369,90.85917457,0,89.62035633,375.57822,0,0.022105626,-0.006958868,0.013936805,
53949,431.5919997,1685,-260.1067607,27.89606919,38.06032017,68.40936438,92.02640683,28.20874042,155.0073168,129.5566258,-241.7649704,62.94161956,57.16967628,-64.87292792,0,-83.28298855,-434.5257701,0,0.023493578,-0.005788812,0.012138186,
53950,431.5999997,1685,29.73615831,71.52542777,74.86390519,20.36807608,38.33464441,5.75430011,12.13992117,125.1481761,284.5259841,59.2564552,-18.47735615,221.126972,0,211.497283,442.6687152,0,0.023287199,-0.006395933,0.011969243,
53951,431.6079997,1685,-202.1969216,60.57815695,-8.299187084,74.2053021,59.7851295,97.69275883,-170.7002035,-268.4585558,-219.2415234,29.6128016,63.0184448,-53.40853615,0,-81.65029175,-192.956014,0,0.023127751,-0.005940918,0.011615303,
53952,431.6159997,1686,-132.991568,21.51992434,94.04023317,21.81096488,71.5455703,-37.11403412,268.3285833,379.6918255,68.03171645,69.25541325,2.804410368,120.0836521,0,101.363033,-48.58566329,0,0.023409971,-0.006236714,0.010979809,
53953,431.6239997,1686,-19.59802931,75.89673889,3.375503962,35.59309236,13.66371412,65.87846662,-270.0722037,-275.4089408,97.95998337,17.74496761,6.494525743,102.7089626,0,93.67861792,356.8324049,0,0.027597931,-0.008595953,0.007190436,
53954,431.6319997,1686,-257.6257679,21.57603664,35.79598029,63.2646343,88.18542981,23.13035824,138.2294228,123.4512649,-248.9285876,45.76888034,50.70169411,-59.35559045,0,-86.22074534,-439.5503091,0,0.034589805,-0.012819531,0.001171822,
53955,431.6399997,1686,13.3426265,56.75324535,68.29007079,5.616281462,30.62696153,-6.286051552,0.735437997,124.1639346,283.3802587,46.32151786,-21.11731075,217.4883297,0,209.5400057,430.7912417,0,0.033792914,-0.01228354,0.001392363,
53956,431.6479997,1686,-213.7456864,54.68418825,-14.95559017,70.1999026,55.45389883,91.63673844,-192.5226373,-283.8565983,-223.3555116,18.85895235,58.357103,-65.79553328,0,-85.57464413,-203.3286139,0,0.031816865,-0.011032793,0.002543505,
53957,431.6559997,1686,-148.0727219,30.80812805,97.22808845,33.07038592,82.16556034,-26.08550183,258.0496874,375.4662122,61.46968245,68.28103177,13.19470921,112.5956388,0,93.58434377,-81.40654055,0,0.033834216,-0.012260564,0.00052325,
53958,431.6639997,1686,-40.22133663,78.94200667,11.51229185,40.47305635,20.27996552,72.53972563,-272.5065053,-274.410285,111.3489967,27.63337897,26.88712455,110.5900656,0,100.8939715,318.3071783,0,0.03502287,-0.007028641,-0.002225443,
53959,431.6719997,1686,-280.8859138,18.99564272,45.92349347,69.47102907,85.92043137,26.77680893,134.223986,109.4032554,-246.6208625,50.09173902,60.60117038,-65.60637214,0,-81.59205673,-490.7174653,0,0.03933818,-0.000173586,-0.008309063,
53960,431.6799997,1686,5.645419999,58.75601447,80.1951877,15.18436541,29.25614127,-2.762919357,7.832214542,128.6069171,286.2903206,53.22242,-10.87494916,213.3716738,0,217.3139379,376.8290267,0,0.039194252,-0.001256287,-0.008312711,
53961,431.6879997,1686,-201.2942265,52.13319533,-15.18014733,66.95572791,47.53571259,90.3445803,-200.1524353,-288.1784497,-216.7143064,22.12590312,67.47600425,-65.87044744,0,-72.62184452,-254.1855644,0,0.037142634,-0.002571027,-0.006472091,
53962,431.6959997,1686,-134.2385811,29.35993222,90.86549412,27.15257544,74.75914563,-25.47437441,250.0393969,375.3929143,61.33251067,64.05941343,8.604687899,99.59656798,0,99.00642826,-133.614598,0,0.038908689,-0.001016764,-0.008893128,
53963,431.7039997,1686,-15.74892128,89.74611711,8.399306903,44.06675845,24.37765994,82.96185405,-277.2901033,-258.805371,123.3777705,36.48617874,28.35709826,110.4777949,0,116.722184,276.0531378,0,0.035825219,-0.000291857,-0.005186152,
53964,431.7119997,1686,-257.0476415,23.90224056,36.57000607,64.29798402,87.2922143,31.76248281,128.7619072,124.436732,-245.1798862,59.80125322,62.95864477,-67.16037418,0,-73.32626642,-559.9065095,0,0.033108628,0.002631781,-0.001497941,
53965,431.7199997,1686,23.77259334,56.97286444,67.80871715,-2.681995416,19.29498792,-13.42123985,7.383856287,155.1429759,290.2661893,56.32853496,-26.07510565,205.4012588,0,212.1004176,320.949983,0,0.033723696,0.002637115,-0.002750444,
53966,431.7279997,1686,-182.796554,57.61144441,-21.30718538,62.73788118,41.70175776,89.44407193,-211.1289357,-274.4499231,-211.1012452,35.89429563,54.81999374,-68.20513987,0,-76.0751457,-294.9371591,0,0.03356783,0.001236683,-0.003258466,
53967,431.7359997,1686,-125.6235239,22.16400973,91.47105197,26.17611654,73.75398796,-24.80585598,259.3912912,401.5269216,51.62650909,83.42112246,-4.275236086,96.17701719,0,97.10238342,-200.5923547,0,0.033300057,0.002510324,-0.003081767,
53968,431.7439997,1686,-11.41660963,60.71020633,2.568787247,18.65860758,5.323063249,53.9734821,-269.4642282,-236.2829794,116.6441596,41.50953805,-5.433615991,105.2914309,0,107.5887959,247.4966287,0,0.031520217,-0.001809712,-0.006207972,
53969,431.7519997,1686,-261.2432324,-1.422926355,23.76053822,43.0085114,70.79353495,6.685811132,118.1870344,122.1190472,-264.9177531,50.99442007,22.80287856,-86.01210254,0,-101.9717892,-557.9701461,0,0.028631341,-0.007301764,-0.01063483,
53970,431.7599997,1686,27.23945861,46.44791855,62.40386861,1.239959702,25.74997691,-1.642039112,10.45007158,177.4281591,274.8851312,56.21655399,-50.42666302,194.7270837,0,203.7112403,326.5337079,0,0.028777695,-0.006326633,-0.010203436,
53971,431.7679997,1686,-168.1825214,50.14968347,-24.12417831,69.32448896,42.71789357,98.2409657,-217.377907,-264.5549719,-219.8322789,47.90179496,47.35265533,-62.69826529,0,-65.2997645,-302.5088581,0,0.02948489,-0.005412114,-0.009536595,
53972,431.7759997,1686,-123.8519113,13.11612023,84.36755512,27.08186202,70.88417395,-27.61811283,254.3675511,401.2390981,41.45363129,92.02267126,-6.71680558,100.8892877,0,92.30932035,-235.3751498,0,0.028539687,-0.006529745,-0.010782699,
53973,431.7839997,1686,-2.12321973,60.02277392,-4.727242086,24.57886936,11.20532999,76.6992546,-275.3093215,-232.0913014,125.1018455,47.2324713,-2.966965015,116.2398306,0,109.5041271,222.2244187,0,0.028097492,-0.005805113,-0.013726461,
53974,431.7919997,1686,-251.3473414,-2.885714483,24.65038214,52.25311222,72.51958722,28.07004335,110.6943661,116.43187,-258.7045053,61.46907608,39.45299451,-76.89455227,0,-92.8276171,-610.9017879,0,0.026553503,-0.005890256,-0.019635326,
53975,431.7999997,1686,21.57777186,27.07701136,64.22312949,-6.554248259,21.84612593,-15.97926602,18.37949627,181.8966331,280.482949,57.99817721,-44.06883984,200.0334126,0,208.22775,276.7317655,0,0.026413384,-0.006164091,-0.019301305,
53976,431.8079997,1686,-173.3526598,25.61702153,-34.24049575,51.07023817,41.4610375,78.54464928,-222.1924122,-282.9793213,-223.6422622,31.12641607,35.5754116,-72.46653611,0,-69.83780668,-316.7602383,0,0.027057339,-0.005678351,-0.01758484,
53977,431.8159997,1686,-123.5548634,3.475961443,76.11052565,25.7214244,70.74592795,-36.71614808,253.500935,381.0904561,28.78906542,77.5200824,-7.98286806,83.21256811,0,87.45190635,-261.122149,0,0.026282783,-0.006045985,-0.019627641,
53978,431.8239997,1686,11.64778137,67.1144079,-2.852457686,39.8490073,14.0111201,69.34936607,-273.0502874,-241.5852385,126.0183191,49.43617506,6.778825451,122.8342485,0,120.3396353,199.9671389,0,0.026646643,-0.003218616,-0.017631045,
53979,431.8319997,1686,-237.9615577,-0.394829472,27.46002168,62.10186953,80.53482291,27.74538978,112.6021651,94.27262763,-266.5480301,72.32037007,51.25895629,-58.81216014,0,-84.57127244,-652.4484663,0,0.026499638,0.000953228,-0.016553448,
53980,431.8399997,1686,29.58441693,24.31698546,63.38037914,-8.659271408,24.12464071,-14.23583038,27.78861475,172.2225556,279.6045684,62.25837066,-40.49088237,220.6707627,0,208.6321357,240.6505384,0,0.02627218,0.000331579,-0.017251397,
53981,431.8479997,1686,-164.0335163,28.58299927,-35.95766694,52.01188877,40.36615119,79.4285726,-223.8396151,-294.6638081,-218.1079341,32.34706159,35.31137036,-53.86775732,0,-74.9740892,-347.3278835,0,0.026476852,-0.000612251,-0.016945778,
53982,431.8559997,1686,-120.2154843,-4.270195099,80.03533188,24.33244075,65.13626732,-37.71914956,265.8796378,381.7175475,25.570256,84.35592621,-8.966324518,96.86949785,0,81.58744901,-314.8148841,0,0.026163596,0.00040913,-0.017309423,
53983,431.8639997,1686,13.72460932,44.99750387,-5.93279921,16.94608559,-5.184133488,53.5979703,-270.1917955,-238.7484362,125.6127727,41.7869378,-12.15346447,132.9050044,0,115.1875636,192.5459284,0,0.024533167,-0.002007111,-0.017222967,
53984,431.8719997,1687,-245.0233366,-17.45826444,12.6951202,41.73978695,62.66453456,13.04147421,98.21058539,87.33164724,-288.4484693,52.68157937,26.96938995,-75.48938297,0,-105.9055694,-648.3027351,0,0.021639212,-0.004719927,-0.017366582,
53985,431.8799997,1687,33.92955262,32.39464,57.65857951,2.904199324,13.11085255,-10.42019869,23.83540189,187.2752283,259.3254229,64.65255298,-46.70132371,207.9707051,0,203.9898511,230.0443797,0,0.021895576,-0.00413463,-0.017475396,
53986,431.8879997,1687,-147.319289,41.08138906,-38.82059993,61.72158468,30.91924267,76.83266023,-244.8062829,-295.7885828,-221.2695652,47.41361138,44.29522964,-41.63787229,0,-63.70898185,-366.3893389,0,0.022665338,-0.00384274,-0.017470323,
53987,431.8959997,1687,-124.5573661,-12.27187716,72.09819816,14.65260031,58.94396689,-51.59589242,249.2173653,379.7661191,19.00503419,81.72074004,-8.857830156,95.48637197,0,74.19390157,-354.1825401,0,0.021752491,-0.004276622,-0.017644104,
53988,431.9039997,1687,8.806261332,38.46740493,-9.188312065,16.14749897,-15.60477607,44.70485439,-280.2629038,-236.4161631,125.6358626,34.67756443,-21.12793666,127.5136332,0,121.6471064,168.3641777,0,0.026586889,-0.003129626,-0.021936512,
53989,431.9119997,1687,-252.8120006,-18.69827124,11.0518724,47.60301488,54.73938346,0.552992744,83.09920182,70.62456908,-298.2678795,50.02420065,23.70691975,-73.06105382,0,-94.63184463,-689.3834117,0,0.033399367,-0.001787337,-0.029011577,
53990,431.9199997,1687,18.04836669,15.56838018,54.56639286,-4.983920408,14.95405492,-23.89883805,26.47688859,183.6978643,249.8279431,50.48498079,-54.96111781,207.3407365,0,196.3683031,183.8355213,0,0.032274672,-0.002068023,-0.028160635,
53991,431.9279997,1687,-157.3654581,14.71553233,-44.01869816,46.01084174,29.27687311,74.32777182,-245.0835403,-300.6052115,-228.8053252,19.9602339,28.06643388,-51.57296138,0,-74.4930385,-396.8631345,0,0.030692253,-0.002271295,-0.026327334,
53992,431.9359997,1687,-131.8804792,-24.61180428,69.71025424,11.56682603,60.23420526,-50.01340532,247.1577415,389.2097834,-4.538322599,57.19985707,-17.47122896,82.1281576,0,63.86443485,-403.4410366,0,0.032266198,-0.002027718,-0.028318969,
53993,431.9439997,1687,21.29431249,37.05651538,-6.181995974,20.26773054,-5.286277709,50.05376957,-285.6415665,-219.9566887,117.3494778,27.64215289,-17.2150384,126.7055266,0,114.9377989,115.4246681,0,0.030200886,-0.00651416,-0.027852798,
53994,431.9519997,1687,-232.205359,-24.81092387,12.14352853,43.90862803,55.88620876,4.23359311,71.49261343,68.02966207,-291.9768812,49.49991725,30.42519626,-74.66360713,0,-102.0848063,-758.8258215,0,0.028855061,-0.013443453,-0.029442385,
53995,431.9599997,1687,30.30384744,10.18786394,51.85333334,-12.54762502,0.264787882,-37.01633057,20.27702994,190.6370462,257.6764204,45.07165321,-52.84821135,206.521467,0,197.4669498,120.8023841,0,0.029305421,-0.012500227,-0.029667269,
53996,431.9679997,1687,-151.8432317,10.96139251,-49.70020277,41.54278354,8.704624914,58.83789029,-263.3621181,-311.6013478,-230.7868148,13.82224339,24.52267812,-54.30763953,0,-76.94818208,-431.8982531,0,0.02886708,-0.010716579,-0.028451052,
53997,431.9759997,1687,-144.2185351,-35.08888294,61.58073455,6.792985129,43.58457533,-57.18923648,241.3257125,363.3432854,-10.12753415,53.45595812,-20.39267913,70.83566894,0,52.0351375,-436.7275542,0,0.028924648,-0.012551492,-0.029468374,
53998,431.9839997,1687,-2.962620192,26.89540815,-25.53516657,11.46204162,-16.1864154,46.83478412,-289.0887273,-251.1359987,117.2363268,12.7541362,-22.06849557,116.2107758,0,114.4397622,100.8372304,0,0.02698439,-0.004369146,-0.029564959,
53999,431.9919997,1687,-257.4191613,-23.93439745,-9.881013484,40.46872146,53.82193164,4.910052925,59.56664664,30.7190644,-315.0856748,27.15370444,24.47918024,-93.09603251,0,-110.1756237,-799.2776421,0,0.024091899,0.006633341,-0.031013606,
54000,431.9999997,1687,19.353743,18.43787762,46.96811463,-9.296431771,7.835043266,-29.16392084,35.60169985,175.3857468,245.8812895,46.75538252,-41.48097758,205.4284242,0,199.0482052,51.33255009,0,0.024368503,0.004834546,-0.03097404,
54001,432.0079997,1687,-149.2007312,20.57922297,-51.97928825,42.97451982,17.66727554,74.57392606,-253.2474332,-330.4103389,-228.0857104,22.26843556,40.5662618,-40.74330436,0,-63.93214278,-499.7692509,0,0.024924726,0.002658444,-0.030092929,
54002,432.0159997,1687,-134.7611044,-20.17253043,60.14099085,7.518699709,48.46853697,-58.23865053,246.0969389,369.4059555,-20.00122212,52.15078576,-18.88442734,77.21747512,0,52.65099173,-517.1576476,0,0.024111124,0.005145439,-0.030766201,
54003,432.0239997,1687,24.07571005,48.62146683,-15.8071087,18.51197253,-16.08640043,40.86334795,-277.8734416,-211.3849513,122.0750524,31.84221398,-10.38571254,141.7019726,0,131.3443879,38.53465434,0,0.028769585,0.002601808,-0.029284832,
54004,432.0319997,1687,-238.1355499,-13.38748568,-3.5181507,44.94382889,50.01532792,13.97607651,65.79281292,69.99003504,-308.8077634,50.76880591,40.49850046,-69.83787029,0,-98.63424815,-865.4650659,0,0.035580488,0.001422381,-0.027906302,
54005,432.0399997,1687,30.77307144,17.584096,48.91415137,-13.89681256,-5.363474846,-36.45271272,41.73244604,219.4364855,254.2788516,40.80374028,-52.03053693,206.2141969,0,188.0171863,0.981525132,0,0.034394837,0.002134705,-0.028108976,
54006,432.0479997,1687,-128.1953444,23.6093718,-48.47599206,50.14737638,3.101257285,61.50292709,-257.8388028,-319.6760658,-218.5976929,14.65938769,40.86067079,-39.75372028,0,-69.54512909,-534.5459757,0,0.032723367,0.001432813,-0.028091419,
54007,432.0559997,1687,-128.8482772,-24.5942616,59.05569535,14.29332785,39.10130027,-58.41094279,252.9554149,371.4129171,-21.32475958,55.49478693,-7.815684554,75.49104556,0,43.94974845,-584.2843436,0,0.034282945,0.001839176,-0.027853343,
54008,432.0639997,1687,24.57793972,36.37585745,-17.9223575,6.94529905,-27.82224813,35.89607963,-269.1423921,-212.1869182,128.1334438,18.91432337,-22.89996886,128.6382638,0,111.0153049,-7.435175085,0,0.032983984,0.002377781,-0.025248577,
54009,432.0719997,1687,-237.1688607,-26.23361262,1.066042384,39.79560618,49.86584581,3.524126108,70.37889628,39.96070687,-310.8368078,33.94999576,37.43800752,-88.92220141,0,-119.9969685,-908.5283026,0,0.032993952,0.003748952,-0.020988148,
54010,432.0799997,1687,22.4074252,-1.703687566,51.59674556,-20.1680197,-2.218656361,-50.45634539,54.45045584,205.8968116,250.9807119,33.47336395,-51.18494936,190.3616945,0,179.9153473,-37.37068142,0,0.033201991,0.003618093,-0.021369718,
54011,432.0879997,1687,-139.4909469,5.369777855,-55.26975205,29.40647455,-7.493559309,48.2083386,-265.3055007,-336.3145606,-227.7110074,1.058146599,20.8008241,-64.87462895,0,-85.13864365,-547.6389829,0,0.032322931,0.002990859,-0.022476454,
54012,432.0959997,1687,-139.0843005,-29.42244523,52.21602656,3.386387053,39.13413428,-68.18352393,249.1408298,351.463466,-36.90081156,39.15153066,-21.02739458,44.17039602,0,19.98820312,-611.444342,0,0.032718094,0.003492681,-0.021183084,
54013,432.1039997,1687,26.64834057,40.13628248,-27.10684256,6.033408701,-13.01836099,28.89800387,-271.6374999,-224.8126925,132.890299,9.766321125,-19.70547533,116.2702277,0,110.8100561,-34.5995819,0,0.032157124,0.004749715,-0.023639784,
54014,432.1119997,1687,-239.6468022,-20.5649588,-10.45822943,40.26596848,59.73627158,3.814756902,60.88570399,31.52092394,-317.190924,26.50672765,38.34575305,-96.08865353,0,-123.9025283,-960.9459806,0,0.03202424,0.00755243,-0.026258876,
54015,432.1199997,1687,19.64467053,12.15864109,48.0599394,-11.27216724,9.06673911,-42.93703812,61.44895964,230.0976295,252.9666227,29.78992496,-48.61485785,188.6397232,0,174.4539314,-102.3163832,0,0.031951026,0.007204637,-0.025554449,
54016,432.1279997,1688,-130.6330494,14.99379807,-56.80105032,37.09171556,16.17896066,58.28826682,-258.6906073,-310.2218334,-212.2194819,2.980477012,38.97475777,-60.5512331,0,-73.66609672,-624.1382248,0,0.031517268,0.006169675,-0.02526266,
54017,432.1359997,1688,-147.8607034,-38.4234288,54.62749222,0.349096627,53.76662726,-67.19750241,270.3452823,386.2046868,-41.50674654,31.97491151,-9.563273734,40.92698622,0,24.52909113,-706.694307,0,0.031529141,0.007037733,-0.025552541,
54018,432.1439997,1688,14.88112178,30.15005399,-20.68965045,3.6016775,-23.81464553,24.15847819,-257.2677743,-199.826559,129.5661369,-4.387550511,-23.08282241,112.6184533,0,111.5481056,-82.29027758,0,0.032037764,0.001986283,-0.027814392,
54019,432.1519997,1688,-246.9989701,-34.26431391,-10.2222085,33.69150522,39.39770841,-16.17212742,61.50329459,21.7558608,-330.669393,15.92242879,44.21825696,-109.2259075,0,-126.2193347,-1021.579506,0,0.033277433,-0.004961219,-0.0319453,
54020,432.1599997,1688,-10.16663285,-27.84559382,83.62310307,-38.62024802,0.518711704,-119.1519588,271.4097137,476.6644584,297.2972622,26.83718234,-63.84436193,208.1506968,0,201.4609412,-211.979384,0,0.025173393,-0.006545644,-0.032275065,
54021,432.1679997,1688,-261.0443607,-31.48471253,-22.04039085,37.96571094,28.89037521,0.827661815,36.24910898,-26.25369091,-334.1500262,8.481771565,40.95106237,-119.1184553,0,-136.9973878,-1045.493098,0,0.012009708,-0.009327108,-0.032300942,
54022,432.1759997,1688,-420.2976584,-93.43378089,46.35359165,42.19615858,94.71299758,-81.39346167,509.7588044,481.7047231,-521.1209619,43.82124649,61.07060697,-196.5485034,0,-227.5725071,-1663.065865,0,0.013888349,-0.010468099,-0.033298044,
54023,432.1839997,1688,13.4439496,1.601443549,26.97192771,-22.83339877,-26.68113368,-49.38574171,-13.77405847,111.5338177,250.9180024,5.355199579,-49.24435033,174.5107879,0,174.0994252,-114.0500875,0,0.016762055,-0.008306043,-0.031952422,
54024,432.1919997,1688,-90.1510234,13.41832847,-40.85840383,17.35856421,-21.08095052,29.3034712,-229.6266414,-253.1765722,-66.25272937,-15.81281466,4.090709984,5.926995437,0,3.591230619,-453.5620177,0,0.013183893,-0.009632251,-0.032316988,
54025,432.1999997,1688,-177.0400595,-16.15087633,13.73737279,26.58220651,29.43528229,-14.328293,87.31967687,98.34859543,-172.6020106,7.182655146,21.57235468,-38.52787851,0,-54.55707944,-842.5985138,0,0.015512316,-0.009228333,-0.032211093,
54026,432.2079997,1688,-42.16476343,13.03834984,24.75962486,10.5562341,3.672340212,-15.22021774,-13.84343512,65.94267311,98.62090347,13.39666049,2.209248571,99.77098886,0,84.54739959,-394.783369,0,0.014899349,-0.008644606,-0.031551394,
54027,432.2159997,1688,-100.5313342,11.33055238,-17.91562122,19.42195068,-5.522305173,6.033438814,-144.6908294,-146.3132285,-48.29553876,2.680501916,25.10198796,25.78269332,0,2.335562688,-541.1449505,0,0.014198931,-0.003414004,-0.032787435,
54028,432.2239997,1688,-177.8942971,-20.66658548,12.03227544,16.42426995,22.1566631,-19.98404867,64.12450151,74.78718912,-143.4400439,2.236936627,18.04688811,-17.99273503,0,-42.16034674,-807.3152766,0,0.015484061,0.007195892,-0.033557267,
54029,432.2319997,1688,-35.97860536,5.180768632,28.81080821,-1.079468303,-4.429167112,-12.9873927,-25.1849385,65.35171403,131.6945653,-4.519228906,-15.53576969,120.7345409,0,108.3967588,-335.0620266,0,0.014255185,0.005521004,-0.033392917,
54030,432.2399997,1688,-150.753407,0.300299068,-22.94952854,32.64220275,3.838706238,34.19104318,-161.5203209,-198.1784734,-178.5429295,-17.48956711,33.96406872,-40.33574605,0,-68.58044438,-735.9949086,0,0.015024691,0.003063739,-0.032838647,
54031,432.2479997,1688,-136.3140122,-31.32751433,51.24020369,2.74350285,17.33144426,-43.81561296,157.9622066,243.2261227,-13.19055145,6.084035847,-3.578959457,46.33223275,0,20.76848395,-716.7359294,0,0.014791677,0.005967728,-0.032881756,
54032,432.2559997,1688,-27.51537869,14.37904555,-9.063410919,1.477255321,-34.15611366,17.30127864,-222.686401,-171.8625477,94.15037298,-18.1088211,-12.59760676,94.03603208,0,83.86601656,-302.6374798,0,0.016301553,-0.001326222,-0.03003481,
54033,432.2639997,1688,-223.8965359,-34.48610624,-3.995182399,30.50485117,28.22000808,-3.171518642,15.49974679,-6.044234837,-269.7028996,-7.809784952,25.34745358,-79.86014619,0,-103.6409929,-1010.972062,0,0.019494638,-0.009138815,-0.02553598,
54034,432.2719997,1688,-23.28615897,-26.11566288,42.88112284,-26.68654698,-8.474584659,-60.43969133,43.53979941,182.5468361,198.2290494,-9.289781317,-51.69171106,149.7973689,0,137.3128384,-315.5392169,0,0.018693605,-0.00767927,-0.026056348,
54035,432.2799997,1688,-141.2788545,-14.2894816,-46.79435821,13.46357542,-14.3495937,23.66580917,-262.8122791,-306.4890423,-188.8656785,-46.05047517,6.538391712,-58.96606726,0,-85.4504391,-687.4555745,0,0.018230851,-0.006511653,-0.026804099,
54036,432.2879997,1688,-158.8090038,-48.45884685,56.17169851,0.036360547,34.12350326,-72.99039996,217.7306473,309.8031753,-68.90592632,-12.33959844,-19.11880348,15.09054163,0,-22.87130854,-808.4702461,0,0.018850616,-0.007894583,-0.025558411,
54037,432.2959997,1688,8.313493334,16.61502368,-7.096925092,-0.860534216,-31.00726341,5.606973851,-239.3905599,-179.4230844,143.9171928,-33.33775377,-26.90487694,118.8240695,0,93.65018087,-186.2470566,0,0.015692732,-0.006150613,-0.026998797,
54038,432.3039997,1688,-234.706741,-24.6616555,-2.942160731,46.00860753,28.85300328,6.84505214,6.020021874,-39.94443575,-307.9188862,-14.23089256,38.6297091,-95.61355997,0,-133.1965733,-1060.799174,0,0.011663055,-0.00477548,-0.02807351,
54039,432.3119997,1688,-3.045219415,5.22157967,62.40514735,1.999573329,0.813064613,-44.37771848,72.50221477,216.5543963,231.4514377,9.186489616,-31.39326302,183.4009846,0,156.8025616,-308.8344398,0,0.012204252,-0.005342191,-0.027532625,
54040,432.3199997,1688,-124.1751546,21.57883764,-40.64180709,47.70298613,2.636668955,63.27680693,-281.5340136,-353.2988039,-170.869598,-14.53307475,38.78395931,-24.55885184,0,-63.67467009,-708.6477528,0,0.013069473,-0.005061463,-0.027417952,
54041,432.3279997,1688,-166.4480961,-30.74015047,63.56527839,14.5368458,42.65102768,-56.02510628,249.8805462,315.8081172,-61.81925911,18.00310999,-0.325946394,36.85130005,0,-5.758549736,-891.1084432,0,0.012087537,-0.005117476,-0.027287563,
54042,432.3359997,1688,17.31253411,30.36285214,-12.08322061,-2.091692846,-31.51258469,5.130957333,-248.4251085,-201.5850322,166.013755,-10.72649972,-23.66846737,142.7375803,0,115.770403,-206.2695116,0,0.012682746,-0.007669568,-0.027108187,
54043,432.3439997,1688,-237.8590154,-23.15714304,-13.01576206,37.58806096,40.22186429,1.490291189,-0.433892192,-63.41871162,-324.2164458,-2.420785959,38.70869501,-97.32514111,0,-144.5647621,-1128.271468,0,0.012609372,-0.011762429,-0.026933892,
54044,432.3519997,1688,1.465831164,-1.637706225,57.75326111,-17.83631735,2.741512426,-60.83503777,83.88678459,230.4630516,236.5518685,8.277158933,-46.77326194,178.4694951,0,146.1925461,-327.4250795,0,0.012350532,-0.011258406,-0.026797078,
54045,432.3599997,1688,-115.6224113,9.980532809,-51.68227706,26.66516844,-5.550601093,44.58114705,-298.4218874,-367.1822862,-179.798384,-20.99440509,24.72020609,-37.40876888,0,-75.15989542,-710.1633413,0,0.012753413,-0.010024837,-0.026613794,
54046,432.3679997,1688,-162.3839468,-46.90650576,58.63022104,-1.733435936,42.86296709,-69.06420947,249.9850477,324.0316599,-75.67694466,11.2992196,-6.65167833,21.99448009,0,-23.41746425,-910.5815188,0,0.01241971,-0.011189222,-0.026457245,
54047,432.3759997,1688,31.23146743,29.01332896,-11.57641131,-4.984672493,-24.6703343,11.67226595,-252.02511,-195.040821,177.9765495,-11.88581685,-22.81083602,140.9750818,0,113.7118999,-191.961466,0,0.016052247,-0.009447423,-0.025444286,
54048,432.3839997,1689,-228.0584839,-19.97287408,-15.27805256,40.4586347,51.41530949,14.73402615,-3.122798504,-84.72514407,-327.8648156,2.1571453,51.40980126,-94.00906747,0,-140.4698124,-1156.612598,0,0.021594368,-0.008108275,-0.023871919,
54049,432.3919997,1689,6.785400185,-10.61501111,57.1741916,-25.70893973,6.39850402,-55.70606746,96.07690031,210.213829,235.0270904,1.055801793,-44.1171963,187.8146416,0,153.9890954,-350.6746598,0,0.020782,-0.008474925,-0.023911309,
54050,432.3999997,1689,-110.3850049,8.584882407,-52.39491065,24.24145657,-2.751478505,57.95787862,-303.7119991,-412.7038056,-184.1215809,-36.32744804,23.38867638,-32.23948529,0,-64.56006397,-706.0626938,0,0.019408435,-0.008273448,-0.024110793,
54051,432.4079997,1689,-159.8085626,-47.56673784,60.24605494,-3.43562656,48.61187138,-65.08934253,254.4868683,276.0401283,-92.75840284,-1.088783063,-2.714866622,21.30618397,0,-20.61628256,-939.8513028,0,0.020805174,-0.008218513,-0.023576375,
54052,432.4159997,1689,39.80212531,13.19488955,-6.185415491,-20.55219259,-37.47215866,-2.204947377,-245.7768819,-228.7082876,177.9599744,-32.66256344,-32.46952025,140.9599485,0,114.3797807,-188.9171167,0,0.024949089,-0.004691325,-0.023685743,
54053,432.4239997,1689,-217.8102845,-25.9624889,-5.273796041,38.40144618,43.41193305,15.20222363,-13.2360752,-114.3650239,-334.8035056,-16.24329109,48.75609138,-106.1328288,0,-143.0818727,-1146.748306,0,0.0333637,0.000939786,-0.023495689,
54054,432.4319997,1689,25.98516671,-4.696110884,73.19713879,-19.43965099,13.58704103,-48.72165684,101.3657276,212.2328878,238.1972504,5.474425779,-22.68528085,186.3090613,0,156.9397556,-370.2152508,0,0.032536877,0.000299778,-0.023268086,
54055,432.4399997,1689,-81.925938,10.65159978,-37.29725439,23.34003038,-0.089196622,58.24526257,-301.8737533,-407.305551,-161.2331336,-22.27427319,43.06690961,-18.92789324,0,-58.45556737,-716.9699216,0,0.029586011,-0.00113277,-0.023279539,
54056,432.4479997,1689,-137.3711071,-32.8392726,77.817869,15.6731646,64.86738462,-52.30220859,260.3906185,292.233274,-81.44201162,16.22763978,11.0875973,30.2383946,0,-19.11665258,-963.9076386,0,0.032282366,0.000453192,-0.023005369,
54057,432.4559997,1689,69.75493794,37.98108602,9.47937709,7.113854829,-13.65601567,18.60801474,-229.3426338,-199.4373589,197.9657438,-1.218929229,-10.45026043,163.8418953,0,128.5738467,-219.4166456,0,0.027654681,-0.002262876,-0.023808959,
54058,432.4639997,1689,-200.2124845,-21.55247391,-2.995375348,42.45686277,44.90312255,19.21674491,-1.718528483,-105.387828,-323.661384,12.05527441,55.37176237,-86.55157783,0,-136.0251675,-1182.926213,0,0.023585064,-0.004893106,-0.025041885,
54059,432.4719997,1689,27.50502166,-3.149987128,69.82405079,-17.51120942,5.443692952,-45.12652976,114.6486675,231.7593474,241.2526688,19.44876418,-43.29809631,193.3961217,0,153.0063498,-381.9560481,0,0.024560975,-0.004155257,-0.024694525,
54060,432.4799997,1689,-68.6679969,21.38761717,-46.47846077,33.2779491,-0.13633443,68.97297421,-305.9810397,-400.8380435,-156.8097244,-4.322749888,30.48479617,-12.38457569,0,-50.81189027,-714.0914048,0,0.02432185,-0.00404856,-0.02422714,
54061,432.4879997,1689,-132.3519356,-39.41659435,67.70369888,14.02381665,56.91415493,-60.6624503,262.4747604,289.4374851,-91.81251834,36.17941544,7.293655052,31.96779667,0,-7.958311062,-994.477867,0,0.02394955,-0.004272013,-0.02442028,
54062,432.4959997,1689,72.86005257,30.95026987,8.372910715,2.624389862,-32.9789009,17.1159812,-230.3142654,-196.6817097,202.1406278,4.351353606,-21.58838899,169.2966745,0,137.4382642,-213.8202359,0,0.023035587,-0.007515636,-0.022321353,
54063,432.5039997,1689,-190.7936471,-21.15117801,-3.868974358,43.86314401,38.31754728,28.47024152,-23.54234362,-122.7166221,-322.1080449,13.64746961,53.07269296,-92.46285943,0,-136.6899141,-1179.942108,0,0.021482345,-0.01307754,-0.019411105,
54064,432.5119997,1689,38.67973941,-3.29829315,77.49551346,-5.690988432,11.72855348,-51.46261478,112.9725732,232.0989063,239.3473719,30.45073376,-35.37074362,184.2065713,0,155.5404415,-414.540934,0,0.021391272,-0.012393217,-0.019701927,
54065,432.5199997,1689,-55.19996987,25.91799532,-32.89471303,51.60759823,-2.764436432,69.11126722,-318.0417273,-402.4610773,-147.2444968,3.38118354,40.92117533,-10.39415833,0,-41.7430922,-740.1156986,0,0.021699394,-0.010750211,-0.020152657,
54066,432.5279997,1689,-133.5129519,-54.60239757,64.19735472,10.13581976,48.02069761,-63.12612055,240.8404836,283.353727,-90.00415678,28.31183952,9.258446255,18.79202819,0,-12.41170716,-1049.494577,0,0.021080289,-0.012321824,-0.019352385,
54067,432.5359997,1689,70.94826502,2.876907467,-4.573336566,-12.76977927,-31.35016796,0.944380889,-237.6593678,-191.7179407,207.203037,-14.9675271,-41.02179802,142.3419824,0,128.4661508,-257.2418551,0,0.016026262,-0.01030584,-0.020523433,
