Time:125Hz,Epoch,FP1,FP2,C3,C4,P7,P8,O1,O2,F7,F8,F3,F4,T7,T8,P3,P4,Event Id,,,
330.6559998,1291,31.65353422,54.81452968,-7.751970472,51.23169768,0,46.29553704,-133.2405424,37.41665974,-59.72306089,33.047879,-66.25010668,16.15586839,-6.989363619,32.26812002,-19.31894064,67.60261016,1111,,,
330.6639998,1291,4.50188153,-4.912315284,58.65984547,-10.91308881,0,6.730141517,52.81774282,104.451221,-43.31021858,27.72457467,-6.706154225,17.49143262,10.227825,24.02552113,51.8894459,31.16028325,,,,
330.6719998,1291,14.18069388,28.28420222,-31.45355001,5.742619047,0,15.76247432,-57.98815623,93.91566396,46.98196766,-3.652730065,111.3941584,-16.2495314,-23.19760915,-15.83673566,17.5056481,128.0551418,,,,
330.6799998,1291,16.45690221,12.79131442,23.29624202,7.482877848,0,5.690231667,-84.00934937,43.32637588,-96.79026977,34.88579514,-134.909247,9.526045614,33.98840846,32.68855865,-20.49003217,-0.421538119,,,,
330.6879998,1291,15.10168287,10.47434536,25.80292701,-11.27508127,0,-1.947819721,40.71240443,104.6126669,57.43630046,-4.01676924,156.9645088,-14.88174784,-18.40182163,-24.38712383,51.90238019,85.73826758,,,,
330.6959998,1291,25.60428572,46.63592876,-31.3053894,39.71734126,0,33.8367643,-142.6401443,25.75948965,-46.7607001,44.84811524,-61.855163,15.1849169,1.378101818,25.18436151,-38.88409878,61.2246637,,,,
330.7039998,1291,0.386490274,-10.58170014,48.46716403,-19.60714436,0,-8.877427571,34.45345941,84.72657856,-38.06532915,32.38279446,-8.127132046,6.151575869,15.46333645,28.77964312,24.19977892,13.75017858,,,,
330.7119998,1291,28.4135072,41.62367588,-20.79457901,17.52645262,0,13.33666503,-73.00605362,59.27972504,57.51504963,3.998024143,116.8565522,-16.93213681,-31.90275821,-17.54710225,0.743257835,106.8713438,,,,
330.7199998,1291,18.5610991,18.35742967,26.2325775,15.96299067,0,0.781941146,-85.15117335,24.54409353,-74.60255954,54.19489369,-122.0056042,24.02473728,45.01190667,30.57847127,-17.62400663,-7.032469639,,,,
330.7279998,1291,8.675647045,2.170497513,21.35860136,-15.91585616,0,-14.30870883,40.15722316,104.5408155,76.7852024,-3.048375747,155.0114249,-17.21949819,-17.04156782,-24.41957588,47.12337229,85.52120591,,,,
330.7359998,1291,44.25849415,55.2810951,-10.17959896,51.25554086,0,42.07674855,-144.756813,8.418385404,-20.81375297,39.07388156,-56.92103722,15.46500292,-1.068091335,18.96824789,-30.65738439,62.35385574,,,,
330.7439998,1291,14.90631733,2.597341399,72.55122726,3.979243678,0,6.95682918,40.54704098,62.83770232,-4.275830685,42.80514254,9.310292254,26.04702998,42.13457024,30.79021992,58.76672379,27.73226761,,,,
330.7519998,1292,19.76449798,40.27025967,-22.00307755,30.28524931,0,16.96365852,-69.89582965,50.68353071,74.36993712,11.39404605,111.2396378,-3.488824039,-28.27620872,5.843969461,17.67293707,125.3370546,,,,
330.7599998,1292,22.57190705,27.49745229,40.98959896,35.58444168,0,16.30515009,-81.85441712,2.868075818,-67.45714564,64.80813271,-132.4543028,39.01360718,36.25133722,50.67500198,-11.26930219,6.025337498,,,,
330.7679998,1292,1.527752473,-3.490375018,37.09961958,-6.852074039,0,-0.325755463,56.01851738,88.29755581,87.98496417,6.883323073,164.2092706,-5.628047167,14.79743875,-21.19158026,66.93077825,100.1702012,,,,
330.7759998,1292,5.232454179,23.45399592,-36.72797422,25.70241228,0,36.2288678,-134.3665138,25.472971,-27.57175261,19.9815377,-70.17149928,-6.586975542,-3.269662895,9.877026181,-36.0907598,67.52384064,,,,
330.7839998,1292,-14.38896889,-15.34693786,42.8767027,-20.40133095,0,5.422596038,44.34589184,89.23950759,-28.32497395,20.09422194,-23.50954642,-2.611581848,-3.446086116,0.527144688,27.38846224,17.48694381,,,,
330.7919998,1292,2.634183467,20.94791808,-36.8239805,19.31435115,0,25.17445936,-58.91793642,75.73285626,57.45797346,8.498087849,98.94957916,-12.42738434,-39.81665676,-18.0060656,3.759162872,122.381643,,,,
330.7999998,1292,-9.630258565,-10.72413163,7.359087854,9.934579671,0,17.69195629,-75.26419683,36.37062675,-85.73627049,49.15304772,-151.6243464,21.86702087,11.11068851,47.16775271,-24.15961899,5.340605423,,,,
330.8079998,1292,-30.57289388,-29.48493263,0.664672893,-34.86832801,0,-5.941762471,52.18636872,119.1979238,63.06327566,-23.61828003,127.3732239,-32.34914987,-30.07008401,-35.34318418,37.68210375,89.61944312,,,,
330.8159998,1292,7.378407179,29.05052338,-36.45474035,34.79256904,0,33.64001202,-138.7096426,35.59738142,-36.31818226,14.39918287,-88.91402097,-10.8127033,-6.03917811,3.006588303,-50.98441753,61.91449596,,,,
330.8239998,1292,17.71421539,11.86180003,72.93298145,17.81430224,0,22.28717228,47.45567236,80.44788449,0.023834626,47.85406123,-8.776738799,26.07003679,10.92294211,28.13981107,44.9341408,22.88524474,,,,
330.8319998,1292,27.36773723,48.46007094,-14.95420836,44.38703979,0,47.65973898,-56.92687988,64.36631128,102.9929068,39.76234125,131.1631369,23.17451022,-30.45745569,8.425428168,29.81219952,139.0976909,,,,
330.8399998,1292,1.201077523,8.035422536,10.6697924,12.0471733,0,4.886926483,-96.88528544,18.63815624,-58.14296115,65.21604306,-131.3731038,36.39713127,17.65891494,50.50371071,-24.09647721,11.75476299,,,,
330.8479998,1292,-1.961272336,-2.740593497,12.0925001,-26.39729537,0,-30.54325152,11.12445384,66.60412396,89.40541717,0.428326142,139.8348653,-20.05759512,-18.66959481,-33.82524513,25.41361074,67.75115383,,,,
330.8559998,1292,18.41971369,31.35837607,-39.97208706,25.01402781,0,10.63341118,-174.6783893,-34.18466835,-9.029804867,42.19416914,-74.45925653,6.782691657,17.01102397,7.95380214,-56.82895721,37.36807983,,,,
330.8639998,1292,-17.74685617,-32.17673551,32.1495791,-35.84933996,0,-33.70391266,21.27550974,35.44419332,-9.981867881,24.20482076,-26.01080457,4.747809914,14.91960798,6.111923788,11.96570931,-6.117868046,,,,
330.8719998,1292,19.17884807,34.03733936,-33.59478952,19.43902423,0,-0.494010258,-69.00810538,25.32592154,78.04280207,-5.241347003,93.81007767,-12.89455117,-38.18420031,-41.65957399,-15.61182878,96.63372965,,,,
330.8799998,1292,15.91068742,17.8082711,22.26238212,28.88333529,0,12.9501451,-73.92853002,-13.32838986,-54.21233053,68.29172846,-134.6524976,49.52303897,25.63617765,38.60283849,-22.51845275,-1.143346618,,,,
330.8879998,1292,-9.338420875,-16.11227207,17.70720916,-16.36304879,0,-1.428243492,62.65020869,74.53148159,100.2564418,8.604146404,151.4503606,2.878914229,-19.28565754,-10.89452177,49.42463991,92.24638722,,,,
330.8959998,1292,27.92879388,37.17338799,-20.0230488,46.50310976,0,34.84935291,-129.6384055,-15.50019425,-7.844122986,29.86114166,-72.06994254,10.91997132,8.93256164,11.60961626,-42.36564451,60.73197293,,,,
330.9039998,1292,-8.312072218,-20.27998539,52.85350094,-12.78938582,0,-8.859513261,48.41834447,45.78780363,-4.256718952,31.10568333,-17.35100887,18.02863181,25.76065407,11.15261395,34.52248976,16.18047611,,,,
330.9119998,1292,-0.448054398,22.67315725,-37.40841519,17.15512552,0,22.01999384,-55.57363285,39.99107226,77.27886079,5.238579662,94.13369327,-9.681114387,-18.46838947,-24.99029195,0.049430829,121.0987649,,,,
330.9199998,1292,1.379823839,4.295368394,14.44227559,19.23097042,0,20.56521443,-71.6330837,-1.290640154,-70.71649895,53.08543056,-151.9096108,22.61414933,33.5788361,32.47325135,-29.01952527,8.427932099,,,,
330.9279998,1292,-18.04983525,-31.11752598,14.53394082,-21.41968564,0,-5.49735162,62.77235074,83.81959437,87.26125232,-12.06582604,136.1588376,-23.81821657,-22.55030102,-27.68883027,44.54126928,96.72229371,,,,
330.9359998,1292,21.01848095,34.51050166,-16.11891533,54.44422941,0,43.79102074,-127.2655199,-7.406284055,-8.082793857,31.06060284,-81.25250625,9.827600904,2.584743545,19.2858226,-38.38780031,70.70367068,,,,
330.9439998,1292,-1.454607353,-9.849370704,66.51472569,5.709698427,0,10.4090178,58.31134635,52.99694012,1.395941393,47.95497262,-18.04742122,27.88525741,14.62006242,28.58581386,41.29775791,27.8520543,,,,
330.9519998,1292,4.235467899,17.61004674,-17.44207702,28.69337761,0,37.60403608,-39.74753846,56.65141444,94.50752585,16.38157266,109.0154122,-2.479201717,-26.95086602,-14.80380915,17.92724381,139.8701776,,,,
330.9599998,1292,1.215816189,-2.862946481,35.61929172,23.86828432,0,17.23844305,-64.81520868,18.04500903,-46.36271574,50.15394159,-140.2354821,25.89914096,42.97112714,40.77307763,-11.71159643,26.07161448,,,,
330.9679998,1292,-6.079764379,-13.89438706,35.583009,-5.119373535,0,-8.02585435,63.26089847,91.99017706,101.7489136,-8.482999254,143.2308938,-15.37203394,-6.829938249,-22.17901503,55.04316522,103.047528,,,,
330.9759998,1292,23.65951581,44.45536744,-7.506753917,64.37688111,0,67.42263321,-126.7761036,7.239722644,1.122929497,52.53532244,-66.02647723,27.66050252,18.48094592,17.55904502,-24.69355842,81.49147941,,,,
330.9839998,1292,-6.483025955,-15.0454272,60.46700774,-5.314966988,0,9.194815991,48.23487859,71.70708718,5.750684245,55.06060522,-15.61427098,30.28608873,35.10234995,24.31090344,38.40810785,36.86084083,,,,
330.9919998,1292,20.82553299,32.50633269,-18.73612984,28.57939164,0,18.9045755,-59.60974982,51.37826024,85.65405109,10.37463397,104.6880703,-10.33653002,-24.73006246,-0.279961473,1.471607588,131.428627,,,,
330.9999998,1292,20.21374931,19.80734679,36.98930507,32.21916247,0,26.23246556,-81.41592369,0.390594072,-65.19723101,63.64814747,-128.117926,39.65282349,28.58847671,62.18737128,-15.08426987,19.20346175,,,,
331.0079998,1293,12.19417355,6.815421595,37.45900547,-7.856016622,0,-13.64292643,49.7957535,72.93250113,71.25733944,11.19701245,160.6511215,9.455472872,-13.19809227,-11.00271471,51.91200645,100.216859,,,,
331.0159998,1293,52.9526114,71.3186745,2.139694198,62.87063698,0,48.7551966,-137.7638228,-20.5402034,-42.03791785,63.54033446,-46.26451161,44.53979972,22.272729,47.1826656,-28.76685846,72.93046137,,,,
331.0239998,1293,21.38712514,15.13640243,75.53844429,2.268789635,0,22.59288196,46.62407982,43.89106483,-53.59175937,73.95044991,12.42560117,50.78425409,44.14727288,69.14877359,50.17159977,34.61563985,,,,
331.0319998,1293,36.51162878,54.95455545,-21.28406901,21.28581799,0,20.10531687,-59.69352195,35.12013907,-1.230394459,30.74288201,127.1725348,9.226497138,-15.32249585,17.75041176,6.26552023,127.6876081,,,,
331.0399998,1293,34.78846051,37.62057346,26.94237631,24.55504794,0,20.80679292,-83.60379757,-6.020600868,-177.5030427,71.94528062,-122.1588021,43.25597683,38.95811649,67.12310569,-26.86287029,5.504568424,,,,
331.0479998,1293,34.5717295,28.90379698,47.49835972,11.53778621,0,15.34167477,54.13411716,67.73181207,-49.42059586,24.23916942,165.1831049,15.28193774,0.011079632,30.78386583,54.41477538,100.3930554,,,,
331.0559998,1293,56.29841399,70.87460659,-4.228490818,67.5570768,0,47.35376177,-134.4393189,-23.92128615,-167.3138828,67.35346773,-49.36377252,49.217881,7.63475298,88.17203582,-21.51614035,79.45118508,,,,
331.0639998,1293,9.65053334,-3.417252274,54.69310544,-9.854896812,0,-2.326734512,38.32814585,43.62803673,-180.9889177,52.52485306,-8.369139224,37.24676638,16.12306346,68.34955843,41.53673226,24.86322057,,,,
331.0719998,1293,32.38416301,45.69116937,-19.1675702,25.51174541,0,17.19676061,-72.69943698,35.72798168,-107.4189818,15.6683639,111.8290167,-2.295074431,-8.091706245,21.2307786,-0.090426167,118.7596131,,,,
331.0799998,1293,30.46791391,33.13995875,38.64787409,27.98350091,0,17.03535594,-83.48884611,-4.044585568,-252.2492917,71.03298771,-130.0100886,45.48944292,47.19522271,89.78426191,-22.42662915,1.668824979,,,,
331.0879998,1293,19.28374158,11.6311643,48.62745283,-10.01743499,0,4.415562373,65.18768577,75.57855571,-96.4916717,7.960078228,158.1410617,10.61297147,-7.245263713,30.60113235,58.8752021,87.33149523,,,,
331.0959998,1293,37.80450536,45.62400438,-8.924808218,38.64626207,0,34.26443275,-134.226058,-10.49140719,-192.0891774,28.76076036,-62.0719448,25.06140984,9.157250943,54.45141497,-32.79008695,56.67541327,,,,
331.1039998,1293,7.017745118,-8.712341974,65.47763831,-16.18151274,0,-1.028105633,41.54624696,51.87002751,-180.8276321,29.8098394,-23.42844531,26.5862046,11.39905314,46.7437714,32.7792321,5.825668145,,,,
331.1119998,1293,33.90966482,49.11635265,0.182234282,29.31441171,0,39.57785169,-52.17217832,41.9441104,-73.75740735,19.21198445,111.7694514,18.91994868,-23.78565544,21.57960699,17.16284972,120.0525543,,,,
331.1199998,1293,11.74326792,15.05777802,32.97589079,16.30435167,0,30.45067323,-78.32284422,7.416603875,-210.8153647,64.07285526,-137.8033324,62.12974883,24.08587489,79.5655892,-12.4706568,11.50632911,,,,
331.1279998,1293,-0.368765237,-3.37671481,31.8248762,-21.90435566,0,-1.413190566,52.95290555,78.56523607,-64.57673702,-8.27217622,127.9731014,9.356313736,-28.93822837,2.880438739,46.08367913,84.61937815,,,,
331.1359998,1293,40.70775016,60.5723301,-2.899277704,51.26312341,0,35.37842849,-132.1927702,-22.21766072,-140.1394746,41.53733817,-76.94835618,39.83922735,27.66337179,45.93142861,-26.55298418,54.76204309,,,,
331.1439998,1293,-5.587292956,-16.23960495,53.62927715,-22.0839959,0,-6.804657568,48.91894969,48.75046335,-118.5240289,41.33109293,-20.67871677,41.80929578,31.29878266,58.34702929,46.69893986,12.75138495,,,,
331.1519998,1293,6.298434722,16.06045615,-37.45714073,-0.569893141,0,19.13486141,-58.79583816,40.23478431,-38.76378839,-10.27731524,96.64232594,-1.237344839,-47.68539618,3.997666444,-5.805640234,110.1399467,,,,
331.1599998,1293,1.870954139,4.241814987,11.66140233,6.545395459,0,18.37584734,-91.93737761,-9.150892659,-188.1391889,40.99526408,-158.561998,39.75190453,12.42772163,56.99071022,-38.36428596,-12.14922613,,,,
331.1679998,1293,-20.77030327,-17.24550645,5.290260019,-36.66056795,0,-9.731325885,39.80955314,75.91177395,-40.53092023,-14.38055054,115.36581,-5.105949602,-36.63150387,-1.870607627,32.09959763,73.05778478,,,,
331.1759998,1293,21.58741096,44.12654521,-26.98382844,30.42445587,0,39.08027228,-147.9209593,-18.98080106,-125.7274379,24.92679057,-94.72352842,14.93769196,-4.53458702,26.47277917,-53.49920598,51.50714477,,,,
331.1839998,1293,0.133802887,-16.69686919,54.44935451,-28.2084247,0,0.868321432,33.73557036,36.67210234,-103.2386679,30.36702931,-28.42997848,25.54435452,23.34031156,27.06947486,32.84840434,10.94923942,,,,
331.1919998,1293,12.56919355,18.53013781,-36.02358035,-6.947011811,0,10.81730919,-62.46806444,32.82309685,-19.08450675,-11.4197138,104.70479,-6.049536407,-32.90413609,-13.78136806,0.898246709,113.3310833,,,,
331.1999998,1293,13.95487998,15.61001179,18.26156249,7.766295006,0,13.56960081,-85.79537023,-15.07171633,-166.3636463,44.72746354,-150.3416968,34.09307439,27.83763219,46.24258416,-33.95306029,-7.339763922,,,,
331.2079998,1293,-5.368563451,-10.24794435,18.5044291,-26.04877475,0,-6.65175976,49.21170736,65.28260355,-2.065838689,6.000120831,136.0242459,-1.126845714,-13.5219653,-6.05692861,41.56878572,81.61459463,,,,
331.2159998,1293,15.84971922,29.86769462,-32.82447803,25.31161913,0,21.85003593,-142.5390257,-17.57410658,-93.59140714,33.18866476,-77.0324832,15.05732924,-7.147537713,31.00267437,-54.55485888,56.86831104,,,,
331.2239998,1293,-2.641511694,-18.68854211,50.09714698,-28.86274177,0,-20.3265937,33.064074,41.5318967,-86.69745555,16.5563317,-30.37353897,17.02311854,9.610228055,18.56293161,10.80096225,2.908841967,,,,
331.2319998,1293,26.21099531,34.45578289,-19.84907365,16.504482,0,12.62831904,-62.75967639,25.91072805,18.67518263,0.789530588,122.2898434,5.373061227,-26.36901302,-16.97221961,-2.999722939,111.1855136,,,,
331.2399998,1293,15.79236829,14.54668936,27.71792808,19.63420277,0,14.85316236,-92.04795389,-27.345646,-123.9762042,60.66502697,-123.7386839,42.67420563,21.21782886,54.98014974,-26.11644714,-2.130860181,,,,
331.2479998,1293,-14.56016316,-21.33858346,18.71101822,-31.61510487,0,-10.8283396,39.83502399,59.70825115,15.09473911,-15.85538857,137.2476204,-19.87818709,-12.45007053,-26.0373676,35.97707398,78.78495021,,,,
331.2559998,1293,13.38664587,29.5903319,-24.27696952,31.41659543,0,27.28739,-145.2209511,-19.98230896,-84.57516052,17.90193007,-78.02489443,3.695647182,8.157467705,0.618648512,-50.12602497,57.97503328,,,,
331.2639998,1294,-7.876400201,-21.06198161,57.71308285,-17.47610514,0,-5.348824285,31.62548068,33.54184659,-81.42888647,25.29522378,-26.82053842,19.35587281,0.497732118,26.36020085,26.64572134,9.08673825,,,,
331.2719998,1294,12.84425332,21.55924303,-23.70652795,17.10435384,0,35.13046842,-62.14691379,23.42150777,10.8881801,-7.088453003,108.6351224,-9.375598993,-29.30303055,-0.516496891,-0.645993303,114.5976926,,,,
331.2799998,1294,9.228087977,13.31544981,28.78133409,26.01985742,0,39.21678128,-84.30081548,-22.63787614,-135.9176799,50.1871868,-141.6302115,28.36068122,31.20812203,63.34003578,-26.49393207,6.057281541,,,,
331.2879998,1294,-17.92738776,-10.68079411,25.99271442,-17.15037804,0,7.264572112,45.77146056,63.55554637,1.307074025,-8.883977645,133.0986435,-14.68887422,-34.67996817,-0.466550746,39.44715863,86.75249069,,,,
331.2959998,1294,14.11888874,35.41352878,-21.81945055,42.08161764,0,46.86362964,-147.2560883,-16.94871371,-95.17403113,25.35526736,-75.5124567,11.52099186,4.690542114,26.13220731,-52.73599702,56.77654681,,,,
331.3039998,1294,-8.740926139,-21.68247039,56.20185906,-16.14286775,0,7.372919419,28.95629436,39.46799439,-85.18922269,32.22228392,-24.52534979,23.26892834,35.74917958,30.87794931,26.57271934,4.843235465,,,,
331.3119998,1294,-8.822634251,7.214289752,-36.56015717,2.603797497,0,13.5852455,-70.86318138,37.02640084,-9.882626389,-14.10457705,97.18286172,-15.89305334,-40.10852204,-19.22783784,-5.855740862,107.1785546,,,,
331.3199998,1294,0.980453654,2.444104682,20.14297213,19.12961362,0,15.67723974,-103.4882677,-16.56009224,-164.7677146,37.77495315,-157.6205458,25.15717721,13.83803604,48.54339929,-40.6705504,-11.94023717,,,,
331.3279998,1294,3.068721725,-2.188772758,39.12136843,-6.633705803,0,11.00797257,32.41726515,52.6754657,2.86581535,6.996215069,146.3635377,5.984276759,-9.867732434,12.42059257,44.91077109,71.72317506,,,,
331.3359998,1294,17.88125954,34.99293108,-15.79286926,39.00339276,0,38.49825235,-151.7737239,-22.36128285,-82.13604697,38.92419558,-57.65338595,25.87175519,-6.081096224,39.22382624,-42.2012988,54.41130932,,,,
331.3439998,1294,-3.757994981,-17.22065164,61.40517153,-16.00170424,0,-2.011783515,26.84997503,35.89345981,-80.45396015,30.90650647,-22.64028223,26.28084815,20.39942326,38.33131753,16.69724441,0.533631367,,,,
331.3519998,1294,15.63931056,25.17889851,-17.41938078,13.86329589,0,21.64379791,-68.10905142,22.35358757,17.00141992,12.15617045,123.2468437,13.81120304,1.898054117,5.432688134,-4.640027041,104.0955008,,,,
331.3599998,1294,-1.30989082,-7.045060981,18.1248943,4.843968408,0,2.935492275,-96.16994797,-15.21381845,-136.4742756,51.27591688,-135.8991104,42.64611204,17.82778545,41.16943687,-40.50266068,-11.61754977,,,,
331.3679998,1294,1.854045565,-8.472507535,35.08421822,-10.9656545,0,3.348935955,37.28797582,62.41810181,10.78207088,-14.0783535,135.0869384,-8.427991547,-30.88709936,-30.58894163,24.11862117,66.53348204,,,,
331.3759998,1294,33.54954308,47.40927968,-6.00742563,52.88114838,0,46.36022078,-155.2975131,-32.24674681,-54.9989617,48.13069823,-47.94995256,39.86608826,34.52002677,45.15187674,-39.31321359,52.14161505,,,,
331.3839998,1294,-8.622875225,-29.90446573,52.82972951,-24.57622504,0,-11.892636,18.81231633,24.60936437,-49.92015593,39.33642485,-13.36117294,36.38823415,15.82084947,44.57214416,25.39203657,-3.945564691,,,,
331.3919998,1294,9.04358678,2.250396417,-26.84521206,11.42067047,0,23.65146828,-76.61738643,18.11027618,30.93501208,-9.792422967,103.5078948,-10.86759945,-42.98204768,-19.7427192,-17.88545148,94.19001536,,,,
331.3999998,1294,-6.785457381,-20.95659962,22.93641714,16.62757829,0,14.68300015,-105.9624007,-24.10408901,-108.6767355,48.39585229,-147.0430905,35.57305365,57.74869423,53.75407945,-37.9169958,-13.53436761,,,,
331.4079998,1294,-25.38147056,-36.22650672,27.32567805,-21.90906006,0,-17.33063921,31.08352433,59.96631389,36.28673801,-20.49356877,120.902037,-14.08501796,-17.82138869,-20.15542498,32.3829609,66.54788085,,,,
331.4159998,1294,4.396531648,10.87897112,-19.96040937,32.62672708,0,24.80045316,-152.6834336,-23.071279,-51.26069872,18.04022723,-74.09913297,8.964770862,-20.84906249,10.88962779,-49.286347,46.39993,,,,
331.4239998,1294,-20.78974423,-45.32106717,64.16919102,-20.23160916,0,-5.952167329,25.40050042,27.64932477,-39.90906172,24.75336727,-27.20654176,16.90833726,18.04955397,16.13374566,25.38327441,-6.744378605,,,,
331.4319998,1294,1.715849571,3.873023122,-7.407900564,23.48958263,0,14.84877306,-68.39425371,15.36228734,56.25848068,-10.7750984,101.3565035,-8.798048146,-31.26284137,-23.59027748,-1.884654581,95.68743515,,,,
331.4399998,1294,-7.706817947,-17.35744179,24.68737402,20.09652103,0,-2.92149471,-95.74395246,-26.20311229,-83.76088652,45.56233046,-144.5773086,39.95865113,21.08566804,46.80824358,-32.96751984,-17.52515871,,,,
331.4479998,1294,-12.21245105,-29.04970182,33.4179606,-7.264298397,0,1.008903266,40.29495869,50.56515897,69.60083921,-7.325326014,134.9693228,0.440908519,-14.19440843,-11.71700243,32.84658428,63.63033978,,,,
331.4559998,1294,23.01678239,25.66851299,-2.161917678,62.73320537,0,62.81229038,-144.3466571,-34.49473441,-9.534614341,39.92773747,-59.21496172,34.63052695,30.19155315,42.21858054,-41.41239469,56.28609896,,,,
331.4639998,1294,-7.138455453,-29.54500479,67.70821687,0.155198418,0,12.13678974,32.69394407,23.9148546,-9.007945898,44.39379571,-15.3950502,45.11029925,39.26354517,40.22318353,32.05502044,9.960196648,,,,
331.4719998,1294,12.89629039,13.89430185,-9.519524823,30.19413164,0,28.32679937,-65.4606899,5.439076853,77.44381,9.651072298,116.4100331,14.52852145,-30.58866208,-9.37632515,1.105498311,109.5081209,,,,
331.4799998,1294,-0.438080239,-16.79335145,30.62814148,21.61539799,0,18.32566108,-94.97298929,-46.291332,-68.4704093,50.68311389,-139.6315778,43.07003133,30.10274633,52.22859264,-27.53829918,-6.64475771,,,,
331.4879998,1294,-24.74639354,-43.39376786,22.59915175,-27.48433415,0,-12.09183313,41.14139202,38.01639899,74.19530734,-16.94873271,129.9635067,-10.37287084,-16.4809547,-28.04044071,41.25739339,70.58989985,,,,
331.4959998,1294,3.797292439,10.1452207,-24.03754426,35.24623743,0,25.51700285,-152.9109072,-45.55035122,-22.04252658,23.62571205,-82.18007392,13.06818511,9.860002796,3.221009702,-51.68551128,46.89470904,,,,
331.5039998,1294,-27.88462298,-52.10288963,49.96575805,-23.39229473,0,-22.2413669,21.69862744,15.20516118,-27.29348648,21.31374964,-50.57191622,12.85778685,24.58459481,9.55755333,11.16205818,-9.664115669,,,,
331.5119998,1294,-14.89503117,-13.03889518,-33.87050604,1.111548709,0,-3.741101064,-69.88289783,11.48545614,57.9365945,-21.37565177,81.10755387,-24.74642382,-48.87586442,-37.95593072,-15.17469748,93.20120657,,,,
331.5199998,1295,-11.57752167,-14.94308297,12.39120597,10.21704951,0,19.04100762,-101.9657376,-35.71898928,-87.68345001,29.314087,-175.0233066,12.98247412,9.30264521,20.86420023,-50.17916892,-21.00861064,,,,
331.5279998,1295,-19.97110225,-31.73286253,14.40080175,-23.43390918,0,5.517647469,35.16125523,50.95242044,75.49143255,-17.37543843,112.4473885,-18.53111317,-24.47643053,-30.20550686,21.27928969,63.75464028,,,,
331.5359998,1295,5.769533541,8.84258247,-34.44381421,37.03216188,0,24.7128801,-156.9601478,-32.61855429,-13.59976581,21.38256146,-88.49093744,6.562067685,-8.820307204,13.58211049,-61.98710193,46.69408833,,,,
331.5439998,1295,-20.59321713,-40.6342213,45.55560248,-12.53892001,0,-3.812596962,15.28087731,16.62766807,-24.2336377,22.19607365,-53.05263479,10.99373113,7.904052676,18.70556377,5.309940843,-9.988663027,,,,
331.5519998,1295,10.88920523,14.78441313,-22.19520136,28.13010974,0,42.09677251,-74.83341331,2.074631986,81.31658507,3.829266039,98.85388575,-4.943902072,-26.39996835,-6.30961609,-9.719326376,99.20337453,,,,
331.5599998,1295,8.31174261,-6.82300601,26.04969445,31.38520818,0,21.78241744,-113.0216874,-56.92737205,-54.79495259,58.19468149,-150.9309837,35.05075341,46.96236548,61.07172435,-36.19676387,-12.58591918,,,,
331.5679998,1295,-17.39959594,-38.30924952,22.53342268,-17.73467992,0,-26.27218505,16.99880094,6.031454091,83.52569396,-8.448613816,117.1920035,-13.76713427,-20.32829867,-21.81877049,24.89712792,52.54663844,,,,
331.5759998,1295,17.34951373,16.79003892,-14.31448524,48.72550085,0,35.42878497,-164.5419181,-90.92989829,-7.879390587,29.66907192,-82.88469684,13.75102206,-1.632232761,9.443940608,-59.6502899,25.51342873,,,,
331.5839998,1295,-19.62256604,-47.54595696,61.11888939,-10.4371167,0,1.388529097,18.09907772,-21.28365067,-9.813482196,25.98574167,-41.36025548,15.73328311,30.01551733,18.15185348,9.731685085,-15.81214098,,,,
331.5919998,1295,-13.45396176,-11.70352156,-29.26101885,13.2042686,0,4.302137318,-70.02734121,-10.59900161,73.26834378,-17.39279048,91.0818771,-21.56172675,-33.86875709,-38.98812344,-21.82771214,89.19087758,,,,
331.5999998,1295,0.928144923,-6.507501556,23.78639475,34.66559946,0,21.66752963,-98.02833641,-57.46327456,-71.95315312,41.59703947,-163.426604,24.94558896,37.38069242,19.52149332,-46.77176808,-27.01494003,,,,
331.6079998,1295,-15.32479151,-33.08025341,21.80871379,-13.66082627,0,2.645499607,37.58858521,30.06788841,82.66181394,-3.885752918,120.8945777,-8.215675982,-14.0771307,-22.71515625,31.68650561,65.43258742,,,,
331.6159998,1295,1.481299274,1.326066339,-36.3357745,31.85135893,0,35.16094651,-159.0176315,-43.76697837,-9.31029369,26.17265772,-77.26445319,8.563770727,-11.04525325,15.33325564,-60.8872357,43.44694349,,,,
331.6239998,1295,-12.49762614,-33.10849617,51.44655105,-7.006654947,0,11.41485801,9.690502952,2.917212082,-8.27658764,24.26407108,-35.3255432,12.17850408,31.88479433,14.4017769,5.693466745,-16.91546755,,,,
331.6319998,1295,7.643491025,14.20919501,-18.28326094,27.82214165,0,31.27906834,-71.66683676,-9.685500001,96.93793225,6.293331269,113.4498479,-0.852392977,-11.28849121,-14.61041975,-4.202552483,94.6229499,,,,
331.6399998,1295,-17.0741849,-26.25697331,18.04984727,15.96234899,0,14.90162635,-90.59529243,-39.66434197,-55.39107134,48.42661922,-142.6396404,33.12216511,19.76246185,33.94846677,-35.50347328,-14.68520368,,,,
331.6479998,1295,-33.87642727,-46.83605511,14.85884583,-30.26439554,0,-9.865594664,42.85224998,40.36432518,84.02080623,-23.65508657,125.8415366,-25.52496235,-36.7065114,-48.43518063,21.26521516,58.78335793,,,,
331.6559998,1295,4.284452149,14.29434732,-30.9705756,35.11006404,0,36.0746589,-148.7917937,-52.41556012,6.029727907,26.8971299,-76.77163071,4.089930342,1.06802344,6.956549422,-66.81058684,31.04148612,,,,
331.6639998,1295,-27.30367915,-47.02579361,47.87767115,-16.29766027,0,-5.047541273,26.71489358,12.58170605,6.622783244,29.12640414,-42.71947689,13.95460571,23.12486699,14.93554591,1.690990226,-16.84624905,,,,
331.6719998,1295,-1.217016257,-3.006329236,-21.06708017,21.80560857,0,13.79592936,-68.46976392,1.711836043,101.0041496,-11.81724246,102.2084616,-10.39702789,-23.76850497,-42.24192342,-17.64923592,93.12410198,,,,
331.6799998,1295,0.985434411,-15.36556262,18.32804302,21.98179073,0,15.32266512,-102.711629,-47.00448592,-36.76324511,47.25384576,-139.2785358,36.35586052,44.02930558,31.77006808,-41.22209787,-22.48931349,,,,
331.6879998,1295,-26.37183258,-41.83370614,-0.394220404,-33.19668277,0,-12.57150913,25.07020623,39.81441974,103.6504707,-11.12318821,128.5435247,-15.66188992,-29.89159129,-31.00422483,15.790817,52.46277419,,,,
331.6959998,1295,3.426078641,9.164520958,-41.16408061,32.01654667,0,19.81984513,-174.1153455,-54.42887338,5.3600493,17.9244729,-86.52926396,1.092397051,-8.569937609,-8.703691521,-81.32251696,22.11495627,,,,
331.7039998,1295,-25.58869422,-52.1418579,44.83915581,-27.08315058,0,-23.96478967,3.626916346,-0.712009125,3.69510847,13.72299094,-46.15603072,5.899629011,28.82655939,-3.920197212,-4.408042681,-34.90883791,,,,
331.7119998,1295,-15.99536156,-16.10175935,-44.2449066,-8.746441728,0,-1.140536109,-84.41813878,-1.253219511,88.17002415,-31.33559317,90.67100212,-39.41971405,-32.64977306,-52.41415027,-29.14745364,70.34792075,,,,
331.7199998,1295,-8.066606767,-17.32621821,8.513834141,13.3648317,0,12.12885035,-113.1040933,-53.17901244,-77.11403458,28.60843228,-162.9689567,1.532399328,35.72524374,21.26783894,-58.51838831,-37.83540531,,,,
331.7279998,1295,-21.42871671,-35.98017822,19.74847378,-23.9407809,0,-13.06736481,29.44540424,28.0265785,54.53574743,-15.17693247,128.7612811,-20.40855922,-27.10850548,-29.37928466,25.10587705,53.43168992,,,,
331.7359998,1295,0.912113672,5.672288437,-29.20553194,25.31661747,0,17.99242288,-160.6239133,-54.14420837,-53.35487968,10.17215423,-70.75058892,2.489768364,-12.83137307,1.491258604,-53.90573558,31.58603038,,,,
331.7439998,1295,-11.35951108,-36.45396602,54.90113551,-15.89770098,0,-8.84602193,17.405187,-6.105171613,-82.88573343,8.490831706,-37.29315567,5.689728675,26.18320536,23.25825689,17.11797222,-24.80934684,,,,
331.7519998,1295,13.39100054,14.25277238,-25.93391838,15.34066774,0,9.349795079,-65.92978302,-13.8424024,-13.16883094,-13.00897525,107.198631,-16.00554786,-31.03448266,-9.579848107,-2.441548006,86.63567872,,,,
331.7599998,1295,5.158787397,-6.325649955,19.8594391,14.5015725,0,12.2830359,-91.22001973,-50.02703436,-189.0266814,42.45605278,-148.2728367,23.64834254,50.95237567,56.23991892,-30.54000593,-26.34810693,,,,
331.7679998,1295,-8.674711916,-26.78602802,26.61647906,-19.88224343,0,7.376120964,51.71438213,43.21279309,-76.96282684,-22.36486913,128.7082158,-22.13951606,6.167884171,6.852936788,37.04295455,58.22545181,,,,
331.7759998,1296,20.31609242,29.98078165,-33.16055213,38.74230591,0,37.20086954,-135.4671417,-39.89012056,-186.7547151,15.7484982,-73.32980395,10.00945319,-4.058721493,42.43984158,-46.52854607,44.93982683,,,,
331.7839998,1296,-0.927025253,-15.10994478,41.3566673,-13.80276799,0,-0.613591758,41.29682763,14.66176425,-204.9330692,25.77060046,-48.67135261,26.63352142,5.783025318,51.10857338,21.1728227,-10.91449164,,,,
331.7919998,1296,22.4887598,27.37636773,-28.61136352,18.29759858,0,24.38105945,-50.20198806,7.888094873,-115.1558227,-5.773991275,98.17188698,3.372599782,-40.50655784,15.0488564,-0.681331043,96.70433307,,,,
331.7999998,1296,6.509528465,-4.945207409,14.40144941,10.17349819,0,4.743321358,-83.11852668,-42.03276399,-251.566794,40.98923004,-140.2816228,45.41683581,45.67118923,72.62777741,-20.81457109,-20.80133688,,,,
331.8079998,1296,-20.87925685,-35.30538786,8.595306353,-36.34285226,0,-13.68935897,50.80782521,39.23156626,-107.3098572,-31.01239354,128.1292769,-9.388107654,-11.90137441,2.166283091,38.96705973,49.24685407,,,,
331.8159998,1296,12.77973935,28.43779334,-40.3285127,33.09573427,0,35.96279245,-143.0308877,-50.15211316,-199.2382811,7.916623198,-83.36140357,12.28697442,-24.65949722,38.27303086,-54.64199877,32.15962304,,,,
331.8239998,1296,-14.3071041,-28.85117692,42.69403362,-27.10950481,0,-15.14137054,37.66675037,12.58484656,-192.618472,11.52640974,-44.74728388,20.91056781,8.633010706,37.18735964,18.55808582,-21.01797508,,,,
331.8319998,1296,-0.258789714,-5.801302299,-34.64345306,-3.389774324,0,3.893560391,-52.28335863,14.11289997,-85.37675836,-39.96273436,100.6738414,-23.87275286,-32.28676334,-27.82493958,-11.5796378,80.34484259,,,,
331.8399998,1296,-4.522918844,-18.38169145,3.614450262,11.48873756,0,12.9423367,-88.35065841,-38.68283999,-221.74746,16.32623692,-156.4638981,15.90724957,23.48731936,43.84184146,-42.4848884,-31.07360258,,,,
331.8479998,1296,-26.53950468,-37.20896664,-0.285775156,-31.31875153,0,-18.29884101,51.71693402,48.42075406,-72.03977248,-28.03938542,110.281429,-16.73247162,-22.99514858,1.840930958,24.79140766,50.78648569,,,,
331.8559998,1296,8.663896233,8.531818005,-42.11948772,24.51174324,0,15.90087718,-143.6975222,-45.39087904,-148.11003,1.692634502,-95.15098047,0.903271096,-12.01799743,25.95402841,-66.28298802,26.86683291,,,,
331.8639998,1296,-6.973417308,-36.18661753,49.2162182,-22.06911859,0,-6.54814786,27.18827711,-5.69742128,-125.0429121,1.206032049,-46.65758369,7.231669753,17.35665857,35.74713446,18.11691465,-27.73154484,,,,
331.8719998,1296,-0.404220229,5.365340107,-37.25225422,5.348150382,0,11.95689795,-60.60450409,-1.693952754,-21.24675442,-26.39640361,105.7173454,-14.18787478,-21.11552906,-6.028903664,-4.033710134,85.09940499,,,,
331.8799998,1296,-4.244424317,-10.88053249,0.628380859,10.59838779,0,2.330079171,-96.68400989,-49.33861149,-178.4767027,28.89997932,-162.9828594,26.85606588,19.26521376,38.47712685,-51.28848544,-31.97696447,,,,
331.8879998,1296,-4.055997752,-23.08305284,24.26749258,-18.74707583,0,-16.56307016,46.15357519,24.8565839,-18.08619715,-20.80809249,121.7170067,-10.79520645,-26.95767833,-3.445406653,31.99447369,46.28449005,,,,
331.8959998,1296,17.75364615,15.90610555,-23.84488786,32.9748714,0,12.98185868,-138.2057064,-50.69613325,-92.72933636,11.79380434,-61.20494346,8.020503192,11.0195509,39.99327858,-44.46741925,33.37680645,,,,
331.9039998,1296,-14.01690931,-39.23511627,40.38404627,-24.81757249,0,-22.86909939,32.7563045,4.395557539,-110.877567,8.835130928,-42.22780955,8.179804916,30.24100885,32.90187182,8.564328428,-26.07014192,,,,
331.9119998,1296,9.323185762,16.75352049,-36.29061065,12.80851453,0,21.30518898,-56.1463829,-7.766844024,-10.97269909,-14.36343385,96.20052074,-8.943044371,-20.77487716,-0.873377339,-14.02922394,80.34034686,,,,
331.9199998,1296,3.45004606,-7.596252,10.60311339,7.54606804,0,14.28852926,-83.65411633,-46.28165161,-149.6546945,30.46121407,-154.9359823,27.34145684,22.97052416,48.7728892,-36.9358037,-28.8535409,,,,
331.9279998,1296,-18.89802064,-42.51367385,17.69069136,-37.46336854,0,-27.70566647,57.9210922,45.40845986,-8.393806819,-38.40658814,119.4141398,-29.92491683,-35.52713697,-28.98854171,35.16831997,48.54310425,,,,
331.9359998,1296,-0.48297922,5.985506111,-32.6432325,22.38334745,0,21.77962503,-144.1186126,-36.93608574,-95.62513078,-1.352949607,-83.43794841,-8.750495333,9.538806572,1.926926465,-57.58387522,28.44985607,,,,
331.9439998,1296,-24.9650209,-49.92962996,37.69932468,-41.10774612,0,-12.9090287,19.34053872,22.69255387,-92.70533469,-1.403851625,-57.89867257,-2.89886855,43.90222622,7.87959514,-1.457318934,-31.56592924,,,,
331.9519998,1296,9.83219964,0.600337585,-37.30197594,-1.968452849,0,-3.491657236,-67.98336906,12.73166537,23.95600242,-31.48579408,99.73613749,-30.10549146,-24.51891721,-22.03543215,-23.98967631,67.46435177,,,,
331.9599998,1296,6.484740575,-4.605695177,12.42169662,14.62429668,0,-1.630745329,-103.9682637,-41.49832246,-111.3595463,32.15193088,-136.0424155,20.39414646,31.07351331,37.37463345,-49.82294336,-46.43418249,,,,
331.9679998,1296,-32.12622686,-41.1784346,7.241412342,-39.70003566,0,-22.2479169,36.63200083,48.07245391,20.7251049,-22.69080498,127.4288315,-19.31388617,-12.25831205,-26.30448933,21.63257854,41.86708419,,,,
331.9759998,1296,-5.114957655,-0.238162385,-47.66413006,11.12667556,0,16.6604022,-152.8321558,-36.58888388,-81.62674445,-3.427103659,-98.22467813,-14.13357838,-7.333069641,6.522624079,-68.00892821,25.96878402,,,,
331.9839998,1296,-15.78068386,-50.4200423,38.71448388,-38.04811293,0,-27.2581807,20.8466675,14.27920769,-78.32652143,-5.346928882,-60.19474275,-10.31948448,19.03816053,12.43280916,5.510743056,-34.57948758,,,,
331.9919998,1296,1.311858665,-3.580527117,-29.14988976,3.312975215,0,-4.236324671,-64.45282742,8.255977762,29.43190988,-26.83668215,108.8504638,-24.02483841,-24.33677195,-25.126777,-5.361603993,74.35527486,,,,
331.9999998,1296,-6.34602784,-3.758385935,16.31679098,22.31622198,0,18.89467527,-104.5270979,-50.2454223,-129.0872913,37.55630001,-145.9879313,26.18183754,34.81697625,37.61575445,-36.60221097,-36.1179338,,,,
332.0079998,1296,-24.03694615,-27.32568445,11.94468684,-24.53011261,0,-8.679408061,36.48866861,28.00900411,6.613584771,-13.01443734,121.4832627,-11.71278227,-0.519696003,-8.481368588,31.60952054,43.58122156,,,,
332.0159998,1296,12.38088353,14.50053817,-35.27750873,24.46367935,0,22.04283327,-149.4700123,-55.50724755,-73.11017265,5.45007792,-73.04944553,-2.954916324,21.65528085,21.04176183,-53.55506174,26.94911048,,,,
332.0239998,1296,2.898282286,-25.58686023,60.86836591,-20.16428758,0,1.913251533,19.60009015,-11.51366685,-70.5513358,11.43028748,-27.8224679,5.517591163,44.19674481,29.38807888,22.76283655,-31.86533194,,,,
332.0319998,1297,21.64351326,24.8783798,-9.845303265,26.04679797,0,20.70803646,-65.79645376,-23.36873919,28.75018801,0.650171752,127.2252891,0.123821841,-16.289725,9.490728664,6.563109047,75.5821971,,,,
332.0399998,1297,-1.378843804,-2.967599147,19.34475908,28.18104641,0,16.44015589,-90.36039318,-64.54904945,-123.8315526,53.80913177,-136.1515195,49.36208773,42.97470941,67.63968773,-24.19825965,-28.12454499,,,,
332.0479998,1297,-33.24363195,-40.62787247,8.753774052,-32.21792334,0,-11.21550364,53.44722849,31.60504146,-0.788037229,-20.52000231,117.249478,-8.884919706,-13.19430497,-12.28176406,38.54987673,50.48690702,,,,
332.0559998,1297,7.27893047,7.790467005,-38.67923644,22.91879706,0,12.07024923,-146.2292566,-48.1091404,-95.15859767,-4.960198689,-85.42159889,-6.758997048,-11.13193402,3.554603964,-60.26324492,22.42390539,,,,
332.0639998,1297,-15.67065764,-44.77838849,41.18067853,-31.23950844,0,-22.29821536,24.12848316,5.390103141,-84.95849635,8.15408234,-36.48194842,11.02432022,24.85948857,19.22775598,16.95202035,-37.35778713,,,,
332.0719998,1297,-17.56342863,-8.668842459,-47.39016872,-6.333958306,0,9.038046399,-61.9215621,11.65842004,6.566509482,-21.94983762,98.36373173,-21.34900547,-45.49011663,-9.977831414,-8.989110187,70.18934878,,,,
332.0799998,1297,-20.54207425,-26.65751671,-3.948974488,-1.109799501,0,5.249781229,-103.6840337,-38.18952237,-150.7265,19.03121867,-178.268151,5.68495896,24.55078537,35.41372564,-51.13148848,-44.64160785,,,,
332.0879998,1297,-28.28450714,-51.5261297,5.225478587,-49.82510181,0,-37.34695522,35.47630255,30.64632451,0.247569396,-31.65767946,107.1601381,-24.5234598,7.537664147,-38.73391529,30.64107918,29.93651008,,,,
332.0959998,1297,-2.757964935,-1.194042302,-51.48381528,5.866315049,0,1.100050106,-156.13112,-50.33023837,-83.34173474,2.250453651,-84.43611548,-8.768559729,-4.411102079,-7.654615731,-60.03536933,8.916911232,,,,
332.1039998,1297,-26.04102699,-50.12842146,24.3506257,-39.24944843,0,-6.540262239,14.98798986,6.291418516,-81.79025785,5.171851646,-59.67860742,-10.50060411,9.957399324,-1.709179492,-2.477019722,-48.90409713,,,,
332.1119998,1297,-2.944894686,-5.305586761,-52.57129252,-2.944702061,0,13.28775508,-70.23059289,-2.401720814,25.3975701,-20.96703145,88.65688,-29.94609781,-48.15402038,-26.29185735,-21.68569933,62.72131642,,,,
332.1199998,1297,-2.698114391,-15.05434357,-1.554076154,8.66459208,0,2.324711678,-102.4067356,-53.9742223,-114.3013517,37.7230607,-163.8753129,20.58482684,16.85600105,41.78897651,-42.4612834,-45.33629196,,,,
332.1279998,1297,-14.86149416,-36.40302597,14.55791484,-25.63817259,0,-7.074675329,40.91621172,20.00695308,41.96224058,-12.61570482,118.1070135,-16.90783467,-2.455453891,-26.49557588,35.31247244,38.86551356,,,,
332.1359998,1297,2.520987064,3.462104499,-46.77558371,27.31030093,0,27.64365329,-154.6147428,-66.32220811,-40.77993077,16.04211131,-73.26597195,-3.770412498,4.939242429,16.00073722,-59.40623385,29.7397257,,,,
332.1439998,1297,-28.6158899,-52.42775093,25.01244981,-31.4264698,0,-8.201302782,19.94043991,-12.99521296,-46.61678534,13.66667697,-47.65615226,-0.154853072,24.88727664,15.12866445,5.539402355,-31.7793097,,,,
332.1519998,1297,-16.20861975,-14.95504049,-53.3585259,-6.391084755,0,4.825441678,-61.30257597,-12.36093718,52.16306126,-20.8491283,94.28326651,-27.09338552,-34.22023708,-42.76450279,-17.33990018,69.25327995,,,,
332.1599998,1297,-34.10226484,-38.89979674,-15.00394266,-5.069167358,0,-13.57574107,-101.0116765,-51.04883368,-101.108717,21.90822846,-170.8826471,3.544733265,5.47574086,11.66227622,-57.87876005,-49.68223207,,,,
332.1679998,1297,-33.53363125,-47.58592968,11.82359241,-27.65131133,0,-17.62891512,42.36602956,25.38506637,54.52878241,-30.50767984,112.4452827,-32.2280414,-31.96175312,-40.64939684,24.31893014,29.60362629,,,,
332.1759998,1297,-3.459924477,2.136795799,-36.62055693,28.69930126,0,24.90747109,-149.9609192,-60.43211197,-17.2445743,13.3106238,-65.43348312,4.60129647,2.651018758,10.52538371,-51.74106847,25.58914249,,,,
332.1839998,1297,-37.64080697,-60.03457201,31.79213528,-37.57932531,0,-11.29569021,14.8024739,-15.76926931,-28.34306906,9.92225506,-47.45290828,7.826351683,20.09311167,9.785668068,3.693693591,-41.94938875,,,,
332.1919998,1297,-9.592825591,-9.002773607,-37.90463716,-0.892987345,0,18.21647172,-68.53313149,-34.6072563,70.75645997,-26.46230146,93.58638047,-27.10780214,-51.78758937,-42.86396179,-21.43109399,54.63818574,,,,
332.1999998,1297,-18.39116145,-22.20967231,-0.307052942,5.02279667,0,5.854353305,-101.4262219,-76.80124081,-80.46582813,28.31130587,-161.3507226,10.88793515,12.62357214,10.80143497,-49.67676091,-53.90834033,,,,
332.2079998,1297,-23.06942585,-30.82749432,18.13365601,-19.93136269,0,-15.90462893,43.44824421,3.244088953,64.29267163,-17.57336339,116.58978,-19.10262406,-14.09323057,-42.66870406,33.30546607,27.23601018,,,,
332.2159998,1297,14.44916304,27.28831668,-23.11775838,49.57713439,0,28.86485882,-147.3580239,-90.74884037,-3.250951011,27.06681459,-64.915794,20.03330018,12.24429437,10.39355387,-40.31251742,22.42160543,,,,
332.2239998,1297,-24.17921637,-45.8889336,39.73761137,-16.73587141,0,-0.833164815,25.26291834,-35.43218538,-4.39988476,21.75251138,-37.57367358,21.50006573,34.77136851,9.761464251,20.72570455,-32.99816745,,,,
332.2319998,1297,-4.246013156,-4.442605976,-43.23834973,14.40418827,0,16.31894768,-58.92698473,-38.54067872,89.57064839,-18.85468838,105.929385,-16.69517084,-32.11406992,-41.19503396,-11.26511201,68.19501792,,,,
332.2399998,1297,-5.051569052,-13.12543621,-2.150942694,19.83099076,0,2.209818079,-100.2426717,-82.56616693,-61.52534512,33.10046921,-155.6613709,24.7557022,18.67195321,21.70565619,-53.55237014,-46.05667764,,,,
332.2479998,1297,-22.70992895,-39.73167674,7.77021255,-29.89305584,0,-6.917370611,44.13617428,12.30568585,86.91327622,-19.31879836,121.6906963,-15.27225337,-24.82197519,-35.39888168,21.00725134,31.93265991,,,,
332.2559998,1297,13.9405157,19.25794161,-35.95311526,34.37089232,0,40.90180749,-157.7112156,-77.5410278,9.287368786,24.34007938,-67.1036557,5.205602887,-11.94578996,1.203090761,-57.44207815,22.54608611,,,,
332.2639998,1297,-23.2944661,-52.53075963,31.99380432,-32.18721873,0,-16.80007065,-4.941568377,-38.10226694,-0.21523175,17.21094289,-49.10633879,6.443415796,16.48303754,-6.869904688,1.885768185,-37.49060472,,,,
332.2719998,1297,-28.87284272,-33.61713029,-65.66295193,-30.33887772,0,-25.49548958,-99.36998152,-53.17184182,87.13878076,-37.9269308,86.99434375,-35.14760795,-35.9914493,-65.609195,-31.66626075,47.010102,,,,
332.2799998,1297,-27.37988712,-36.72113336,-23.16751839,-18.91724168,0,-24.03196309,-138.3100272,-114.9042279,-72.49785272,15.87432764,-182.5109771,-2.293727419,7.754294065,4.422342988,-74.86182154,-83.92693678,,,,
332.2879998,1298,-35.84946239,-56.25307398,-8.207022747,-50.10463002,0,-27.71188685,17.089937,-26.38731623,74.733809,-33.10283713,96.54302338,-42.46603911,-36.23570208,-48.44183526,0.103074795,5.331524267,,,,
332.2959998,1298,0.290316066,2.840130735,-54.74988062,13.24681032,0,6.433603183,-170.0763591,-106.4173378,-1.86445092,2.634805701,-90.2799931,-16.12626627,-11.31294943,-25.44813658,-74.62404877,2.676316817,,,,
332.3039998,1298,-16.48736045,-44.64585794,34.76752384,-28.82435468,0,-22.07412218,6.185097965,-58.42027441,1.165829793,16.84794436,-59.0029477,8.413730428,19.43698238,-5.54617939,0.714819388,-52.46629983,,,,
332.3119998,1298,-10.56602746,-14.33154654,-47.04303398,-6.926538038,0,9.603247227,-71.3323451,-61.75157562,104.1989408,-15.72725368,95.38604089,-22.26112611,-35.77580422,-34.76273163,-20.38601902,61.50319168,,,,
332.3199998,1298,-30.73708834,-39.70283322,-23.27967059,-20.23865354,0,-6.876769866,-113.8778407,-105.1491968,-54.1548512,31.13739368,-172.7719535,-3.285710426,15.15123344,6.842405731,-61.54887869,-56.14820412,,,,
332.3279998,1298,-59.08610859,-78.40101513,-25.75144102,-69.36459561,0,-38.54821527,27.55710845,-11.25809221,77.8255025,-41.70118406,91.47591105,-58.01668798,-47.01866659,-70.61666854,0.422993718,14.69105782,,,,
332.3359998,1298,-21.86352244,-23.1114851,-66.47985767,2.307186685,0,9.341855918,-173.3992374,-97.46002185,-17.7786536,-31.27117759,-108.7596684,-45.67971327,-42.96593449,-42.09816589,-94.02952164,-4.580732112,,,,
332.3439998,1298,-29.0138251,-62.24207373,32.40816765,-39.98648646,0,-27.21437774,-2.708368245,-51.39701652,-3.848754069,-10.29363099,-64.29699497,-22.65080827,27.18044088,-24.7095586,-12.24105181,-65.36707642,,,,
332.3519998,1298,-11.03717863,-18.82440461,-44.3218394,-9.039433366,0,-2.493712937,-78.40815287,-57.81845447,118.0157376,-22.27906326,101.8027858,-41.74041799,-15.16033326,-53.771455,-21.49530562,44.73780994,,,,
332.3599998,1298,-12.991653,-32.20473777,-5.377128259,10.02306853,0,21.39222359,-119.0844567,-113.5305396,-44.23793208,27.72291262,-171.8842087,-7.721429515,14.98381377,15.74851146,-61.6402105,-63.35645983,,,,
332.3679998,1298,-22.55963322,-52.35570414,13.90084812,-20.00440514,0,-6.492581883,33.69788526,-31.70815459,100.8062096,-27.69054926,111.4193423,-33.89377239,-18.38889179,-33.52600942,22.22485653,27.41153492,,,,
332.3759998,1298,15.54754713,10.76432832,-28.40154315,47.49420704,0,23.54213837,-146.7564865,-113.7939499,24.70407694,15.17861922,-65.64055984,6.235247575,-3.741388387,-1.88038459,-47.25750008,20.36482126,,,,
332.3839998,1298,-4.896842226,-38.79481374,48.20911358,-5.964828648,0,-5.699521017,22.21560984,-59.39210112,15.52685288,32.06871402,-39.58348425,21.6244899,24.01133694,6.779876509,20.18404681,-33.27549147,,,,
332.3919998,1298,-4.52803959,-12.53400808,-40.9390794,6.739426456,0,4.796316885,-67.74232902,-58.36674112,115.0836035,-9.608835606,108.0702517,-20.64623815,-32.75392382,-30.86837528,-9.219732523,76.30963558,,,,
332.3999998,1298,-8.567642617,-26.2729526,1.875123415,15.46717004,0,4.659257137,-107.3289422,-103.3029447,-46.8367774,26.71725283,-163.0751472,7.75757372,14.93262585,10.60473915,-43.60749316,-40.7255306,,,,
332.4079998,1298,-10.49088191,-39.25476053,19.88868751,-16.37023608,0,-21.18380277,40.98212626,-14.27790555,95.23650919,-24.89737719,119.8293771,-14.5498177,-10.2633345,-54.88947413,39.15356098,44.93192692,,,,
332.4159998,1298,15.56278109,11.17261716,-36.72984503,37.08286378,0,23.65806422,-156.398721,-92.93758842,15.59400263,19.38513738,-63.97655836,18.13231488,-0.934298269,3.280325284,-52.90415477,33.67955027,,,,
332.4239998,1298,-8.442919593,-38.78017187,37.83678795,-20.50819162,0,-2.480514621,10.68862973,-43.6304513,-12.576526,29.22071835,-48.30486545,16.88981001,16.07279836,14.59331046,1.745039996,-28.13248497,,,,
332.4319998,1298,3.489005961,-3.262823222,-41.56511314,-1.311688919,0,3.156277082,-66.3771422,-45.80778911,68.62521819,-11.83555684,101.6294725,-24.62282945,-24.86221105,-30.68530439,-19.42232859,81.19294065,,,,
332.4399998,1298,1.023107162,-16.63817697,6.721255957,5.71492519,0,12.03986316,-100.9333284,-89.13566383,-100.9362466,20.80448652,-166.0621184,9.024887968,29.15465687,26.67363916,-51.174383,-35.50925568,,,,
332.4479998,1298,6.84341779,-16.6869776,35.92639916,-14.44635486,0,5.839872605,49.75643194,-9.951096302,23.32504599,-25.33821369,125.7761456,-6.879561361,-3.636774225,-28.18174526,37.31951421,45.31635421,,,,
332.4559998,1298,37.0153163,35.89309649,-15.66703634,45.3533534,0,43.04742979,-139.1991594,-95.39752804,-70.84907309,34.59591527,-34.36793807,37.99739128,20.60786539,41.08991895,-35.4308353,36.18439473,,,,
332.4639998,1298,-9.34408059,-39.15782537,37.74189661,-34.27017668,0,-10.34879216,28.61600044,-34.85592816,-120.1217819,24.08266209,-30.20121382,17.33946248,19.22110191,43.74636249,18.46587087,-28.95575686,,,,
332.4719998,1298,-0.686576276,1.252948531,-50.81440247,-14.77215001,0,-2.220647927,-60.09214856,-35.12944927,-58.87942241,-22.77407074,92.43781179,-38.86910133,-45.44383572,-16.58781402,-17.74325252,70.08841034,,,,
332.4799998,1298,7.192227227,-1.565911061,9.467424591,2.542869943,0,15.85566999,-102.3739934,-87.86895628,-213.520152,39.92565646,-162.6541918,17.14888009,25.24597623,60.0718068,-45.7541485,-45.43282133,,,,
332.4879998,1298,-7.343251401,-39.52485933,23.36740067,-47.83852711,0,-16.28947041,50.88175392,-1.863013144,-76.80949305,-33.71370238,132.2251664,-18.38208007,0.790277083,-10.6748216,36.7101037,33.04460767,,,,
332.4959998,1298,10.50634221,1.377017979,-50.32477278,-0.513671044,0,5.040161568,-138.4938659,-76.81281216,-175.9707923,-18.50215511,-59.3862167,-12.85594778,11.27066396,4.320748691,-61.59441236,10.70855286,,,,
332.5039998,1298,-25.96563368,-52.98537584,23.86298126,-43.54198064,0,-14.27442095,31.23590909,-11.72471076,-203.3403937,-3.708834418,-55.96084954,-0.907171069,3.037366565,26.49767345,0.27764833,-49.64067839,,,,
332.5119998,1298,-11.00571559,-16.77835512,-42.04057957,-9.057977409,0,4.395441599,-52.47723878,-15.02500741,-100.7361139,-28.7992178,93.32683319,-21.15978551,-40.97191962,-0.946342019,-12.97667738,65.34756105,,,,
332.5199998,1298,-2.519426664,-22.74337739,-2.014316042,-11.74267365,0,-0.786270138,-100.2052215,-77.54714027,-227.1761792,23.85767281,-163.1074961,10.95151084,32.97939821,50.41067174,-51.75767537,-53.97584413,,,,
332.5279998,1298,-16.86310714,-47.29285805,-1.343647113,-57.7567758,0,-28.36860604,41.7724129,4.177928266,-77.54613377,-44.79224056,115.907493,-41.81482637,-30.66844655,-19.68246567,20.98945739,17.9331233,,,,
332.5359998,1298,6.160441996,4.444970991,-56.14250104,15.1190131,0,1.747196298,-153.4107286,-79.07375934,-153.5171111,-14.41431607,-63.90784927,-6.298286243,-2.117722461,24.01806068,-59.04931117,5.577198884,,,,
332.5439998,1299,-15.88685023,-41.83262132,31.00483049,-23.96401417,0,-20.61452234,18.28766053,-24.91965453,-150.30712,4.485018286,-41.57964641,26.7672598,20.43897014,32.58128614,7.45333981,-52.43091557,,,,
332.5519998,1299,9.554370313,2.256679019,-33.32260158,3.401201852,0,-0.610326384,-59.49300168,-30.15444931,-36.26816359,-23.12132616,114.8971897,-2.41082985,-54.01004894,-17.81615337,-9.073563096,59.57728073,,,,
332.5599998,1299,-0.067256354,-19.41870518,2.2532939,-8.605238035,0,-13.30788303,-94.26234488,-79.23151242,-161.7747944,34.96808348,-133.7824399,29.63839063,49.98516221,42.64402288,-35.23126381,-49.81223569,,,,
332.5679998,1299,-31.95772958,-64.41214113,-2.182297903,-62.4361032,0,-45.92740136,52.32187393,23.93117464,-21.99872873,-44.24720099,127.6041772,-36.026248,7.770649852,-37.86086885,24.43483474,25.6405604,,,,
332.5759998,1299,14.12088885,7.946720979,-43.95428508,25.52991822,0,4.573051904,-152.9100473,-62.97971146,-111.7270738,-22.24889938,-74.85021684,-13.22732591,-27.79268848,2.322351231,-74.19973127,9.211331582,,,,
332.5839998,1299,2.985403616,-24.61649625,46.71144618,-19.22383493,0,-17.81874082,18.57654507,-21.37436736,-100.3002063,16.1609172,-31.15365434,42.72514053,10.60551766,38.8364986,13.45970601,-42.08276329,,,,
332.5919998,1299,-0.056285279,-9.748737287,-41.38695526,-22.14430574,0,-22.55349387,-63.14251068,-18.02332317,6.96741483,-23.43821776,131.6192275,5.334648899,-30.62341108,-22.85796871,-4.685503928,67.29335837,,,,
332.5999998,1299,-0.63824603,-26.57151317,-2.228439848,-9.252018686,0,-15.35159469,-108.9705765,-75.30779471,-151.857701,12.02812762,-148.1753888,8.955143111,11.11888608,31.52890334,-55.94729234,-56.1893353,,,,
332.6079998,1299,-3.17165581,-43.05316906,16.14042177,-32.37338701,0,-19.40636051,45.47958638,1.756611005,-0.007213358,-28.65446867,133.4887185,-23.90076606,-12.11220724,-9.833395673,33.21371666,31.14806085,,,,
332.6159998,1299,17.40505386,3.289846237,-49.84714581,16.71810915,0,-17.59452316,-156.0856684,-81.35395307,-74.22697091,3.949810272,-46.32451994,6.377062464,17.97220903,15.09042558,-59.50349552,19.02480563,,,,
332.6239998,1299,-19.08864607,-52.32620957,12.9967891,-52.45852847,0,-71.21630717,7.864110359,-24.41917031,-96.92317292,-0.730091247,-41.8020608,13.48621994,9.851580337,11.42556086,-19.93718934,-59.20443913,,,,
332.6319998,1299,-17.71597533,-28.41701513,-63.81408405,-36.09168603,0,-33.66315682,-72.13241355,-20.9546995,0.595768837,-43.03686803,101.2917983,-28.90209594,-58.03621751,-38.77077868,-34.28448773,48.49989063,,,,
332.6399998,1299,-29.1711767,-55.26072086,-20.1756491,-25.38560863,0,-32.15208584,-118.5099099,-74.24004211,-147.065547,-2.684184646,-179.8205925,-16.21147412,9.821532822,14.04024937,-63.97776863,-64.38014542,,,,
332.6479998,1299,-27.85373299,-72.19947965,0.759565568,-52.65669443,0,-45.49739915,33.69317779,4.212373153,5.861047942,-54.23548577,94.88291901,-60.7477006,-26.08100426,-37.28993537,21.31258299,17.93862137,,,,
332.6559998,1299,11.59339706,-13.91872205,-50.20770092,2.911202919,0,1.602560924,-164.1526574,-82.52545307,-50.72377851,-13.6661276,-64.63088541,-26.00244229,7.35863495,-0.169172476,-53.77741811,18.02490181,,,,
332.6639998,1299,-29.10774501,-71.18467724,18.04013503,-65.0779226,0,-52.69978926,4.098352394,-25.22101388,-66.3637767,-19.27647503,-43.03771263,-17.04066007,12.68736471,-8.606158267,-2.257973038,-48.7889546,,,,
332.6719998,1299,-17.76932089,-26.10475043,-52.60020998,-25.49781931,0,-35.13371331,-65.81299367,-29.27863932,19.40951402,-62.11719234,102.447782,-56.1741144,-59.71039272,-56.40111908,-21.98725137,53.42491115,,,,
332.6799998,1299,-9.514327592,-24.41929048,-1.99433827,8.05867863,0,-17.64693547,-99.02145757,-83.64796584,-130.347723,7.858562568,-165.5798735,-5.790428945,19.03498756,26.57266552,-36.53661087,-50.41518043,,,,
332.6879998,1299,-15.38736555,-44.88115745,9.926915009,-29.36034587,0,-31.74522453,59.37152786,5.665510709,10.52291347,-31.38282736,111.416222,-24.99418929,-26.54698024,-19.90624896,46.3530313,39.24928493,,,,
332.6959998,1299,8.032826447,-6.625072426,-49.72593576,10.11760326,0,-3.554077332,-138.5360794,-76.91749186,-60.91922203,-7.52084458,-62.17228435,-1.09291948,-3.20219455,2.309746344,-49.88223224,29.20440253,,,,
332.7039998,1299,-32.26247938,-65.89967187,26.98442563,-55.461097,0,-53.42854252,25.30431263,-26.28395095,-65.53334845,-19.96709014,-43.28095364,-6.456917503,35.23891209,4.253883988,4.534570468,-46.67594367,,,,
332.7119998,1299,-9.485431334,-9.835713163,-38.45507054,-8.818724685,0,-24.78127253,-51.13687855,-39.04198079,37.94438649,-53.13103449,119.9142044,-45.08076748,-31.09332018,-24.88323972,-9.789355695,56.69211882,,,,
332.7199998,1299,-5.083545803,-17.89837204,0.894421037,14.19815143,0,-17.97991232,-96.58244922,-90.37779089,-116.1293975,22.39166102,-142.0794365,12.08433587,29.22477614,54.25103022,-37.42079704,-43.25162039,,,,
332.7279998,1299,-6.589831132,-27.8639668,16.97662764,-14.19280077,0,-34.24416623,50.93984819,-1.563420942,13.46019686,-13.36859578,128.8839901,0.759616007,-16.31962295,-9.156311853,39.51203667,40.87673173,,,,
332.7359998,1299,34.88574228,33.55331576,-26.20849462,53.42211374,0,4.921055076,-143.525419,-94.54093503,-61.65021724,22.87885168,-39.95519211,39.26730636,-19.6954501,21.67930738,-42.42390416,32.36572263,,,,
332.7439998,1299,-22.20774046,-59.97219101,43.24117609,-30.42566676,0,-39.8584172,31.59727296,-32.86505196,-72.21394903,5.768180605,-29.14384279,24.30855308,25.79350027,32.92477725,21.56837665,-30.60136887,,,,
332.7519998,1299,-26.97237219,-40.74445449,-45.50345373,-22.56544093,0,-8.694929836,-42.29408204,-29.21669798,28.82836841,-52.20812723,113.9996013,-46.69551754,0.568648198,-27.77757141,-0.955293629,74.14704957,,,,
332.7599998,1299,-18.99292851,-42.38484622,-17.34650359,-11.13669965,0,-20.82629931,-96.20158761,-88.81277727,-119.0757029,2.041790638,-160.7898286,-10.27301226,30.11941677,26.6387193,-45.20103472,-44.93653668,,,,
332.7679998,1299,-28.80385453,-62.37207315,-6.649855945,-54.68787165,0,-66.02030998,49.00182086,8.507836226,19.00830779,-43.68706723,109.7503652,-34.15510299,-29.96036796,-33.66724219,20.65605645,19.89440262,,,,
332.7759998,1299,4.083736078,-0.645690159,-50.22531284,10.56067007,0,-13.54422708,-151.6868129,-77.16230927,-59.2876759,0.109651856,-62.94947553,2.244602765,-10.00643683,-0.953636472,-66.81746156,9.902397355,,,,
332.7839998,1299,-19.46894464,-52.23633609,45.61428076,-35.58416556,0,-32.75388197,16.43515585,-45.47837864,-67.81618711,13.14334775,-50.99561111,17.29482375,18.74670364,15.93696592,15.48616448,-47.44754292,,,,
332.7919998,1299,-7.51748682,-23.01254391,-25.68879116,-16.78777897,0,-9.371590341,-49.78595302,-44.09694331,41.91689214,-32.55576483,114.0476039,-33.12735098,-14.09748366,-29.51592091,17.10288092,65.54267111,,,,
332.7999998,1300,-9.982998924,-38.21631679,-8.77081526,-27.18376931,0,-23.69354155,-101.7068085,-89.96380944,-103.6460408,6.179354804,-149.8046901,-13.07875087,37.93943038,33.12482558,-33.07843699,-47.33713576,,,,
332.8079998,1300,-28.7894679,-66.44559575,-7.387254795,-74.35092513,0,-68.73865281,44.09742296,-5.750312233,43.68979763,-54.04481384,112.1696998,-57.17241956,-15.49021106,-44.69710334,24.16630026,12.46671199,,,,
332.8159998,1300,-4.689037639,-14.40327617,-53.88152682,3.192053253,0,-23.04472797,-148.4234601,-93.18641749,-38.83998158,-22.04859985,-73.16993698,-29.41720254,-0.990360949,-29.65097072,-66.86180801,-6.193121677,,,,
332.8239998,1300,-22.71213839,-58.40682228,34.11195093,-35.85352953,0,-38.93230923,26.1886072,-47.20448431,-59.08254013,0.598628245,-62.19617359,4.841239319,32.12740033,0.635154365,11.29645026,-58.19123699,,,,
332.8319998,1300,9.520247765,-11.30189126,-31.75930396,-7.065063233,0,-5.706043022,-41.12265904,-53.82884738,57.92871547,-26.6406027,111.510471,-22.96036523,-5.632600677,-32.0914761,9.876179538,64.34498082,,,,
332.8399998,1300,19.4332715,-13.5697783,12.21602596,5.638336116,0,0.166588336,-95.70892903,-117.5495811,-74.15597631,21.58757395,-135.7626996,6.992239008,49.16812935,36.74027985,-30.4686373,-45.6807101,,,,
332.8479998,1300,-8.405438814,-37.75556059,20.49866414,-37.90276888,0,-34.97448559,56.5876293,-24.92577088,77.8651802,-25.49554733,145.2917142,-23.30743196,3.433275975,-19.97309463,47.30792322,29.86116328,,,,
332.8559998,1300,9.138713693,11.56026512,-36.88977607,26.14377844,0,0.415861461,-136.0226253,-102.8429883,-2.097085899,13.31807465,-41.89160269,1.710806971,12.4479376,4.687287473,-40.99465599,23.77079706,,,,
332.8639998,1300,-13.11982501,-45.79827432,47.27472668,-22.05118018,0,-33.22896582,25.83419687,-57.66761106,-22.44845778,20.09602201,-41.14291244,12.85990585,22.07906923,16.92426543,19.38377197,-38.6322798,,,,
332.8719998,1300,-10.61382708,-24.55074564,-37.06659744,-14.13663056,0,-26.12839626,-53.829161,-45.18964641,76.03072598,-30.78878337,124.4486943,-30.40290948,-36.82599262,-47.83912509,-7.804778005,66.64567118,,,,
332.8799998,1300,-17.80816198,-40.15122845,-9.20128691,-13.34828149,0,-28.41904139,-114.6526985,-97.97908533,-77.59813583,13.20581042,-145.0407233,0.912504288,46.63705462,1.332398076,-58.3941137,-59.14353264,,,,
332.8879998,1300,-17.38910371,-51.76899583,17.33660414,-39.00153982,0,-36.1773974,41.51617191,-28.60473605,80.20666134,-34.74821402,124.8753618,-26.96303169,7.078905345,-42.92713882,32.38774793,12.83796314,,,,
332.8959998,1300,15.07543831,5.65257227,-27.6302544,29.33189584,0,13.58613878,-142.9295662,-113.2268695,17.67466626,-4.798037641,-44.07732415,-4.412368386,-0.466313716,-9.02626958,-43.19977813,16.0888577,,,,
332.9039998,1300,-13.8593263,-52.49117555,49.40545622,-27.75319513,0,-27.80482365,22.23291233,-59.44259319,0.371776337,8.512771905,-34.8271937,6.740476531,33.63701842,4.033294395,23.71480877,-44.90527597,,,,
332.9119998,1300,-4.87178304,-24.72900813,-36.45743295,-10.75008411,0,-16.32549805,-55.45557129,-54.65944735,100.1249591,-32.14777789,123.619204,-36.43021002,-31.94560758,-45.60376011,4.650363334,62.23988637,,,,
332.9199998,1300,-8.267499349,-35.10760288,-4.256967562,-3.140043123,0,-16.83915467,-111.5128546,-106.7563527,-60.1761999,10.72408083,-148.4060441,-6.600723088,13.37840422,12.3420427,-48.33820337,-51.38544373,,,,
332.9279998,1300,-15.78787461,-51.17330887,22.42073334,-40.82791661,0,-36.9757113,47.18222273,-20.0533907,87.23465919,-32.0369931,129.3665031,-28.72809873,-7.64936427,-42.07671978,33.05443639,19.67260219,,,,
332.9359998,1300,7.237880184,0.575933374,-35.58335837,18.59382684,0,4.96638233,-142.5748244,-88.01267929,21.54501694,-2.542379038,-39.94356094,-4.714288878,15.81500707,-25.60919976,-51.31099161,12.72648555,,,,
332.9439998,1300,-15.65788589,-47.04392064,41.0008091,-26.10626105,0,-29.34106838,18.94490964,-33.59115403,-6.569391358,4.251109809,-41.36620496,6.627793064,37.67482762,-4.886524383,9.077830646,-44.87432141,,,,
332.9519998,1300,11.79137637,-7.090829792,-24.75276962,-1.538556753,0,-0.316401277,-55.77248757,-44.33964274,104.099705,-25.41841664,133.2645066,-19.42581126,-27.8517598,-35.00917369,5.274175473,69.83524493,,,,
332.9599998,1300,8.103180628,-24.57918459,5.609399019,-6.554769843,0,-10.38701946,-121.2075595,-112.606071,-36.10983429,16.48900941,-127.7584161,4.79568725,29.80135403,9.18069063,-39.4188611,-48.68051061,,,,
332.9679998,1300,-22.38650477,-56.03263619,9.965834906,-53.31427663,0,-61.88990261,24.29418803,-39.3707263,95.81994945,-38.01941362,132.9957211,-42.37446284,-1.994662136,-49.07676809,28.43088271,12.11329859,,,,
332.9759998,1300,-9.892769623,-14.88705858,-52.23259886,5.141035589,0,-21.20165235,-158.4773591,-116.8377846,9.033403917,-3.019511222,-50.0650921,-19.61145003,-11.76099569,-18.57314266,-58.04880665,0.428896925,,,,
332.9839998,1300,-28.1994912,-68.68084263,27.5357168,-46.12267336,0,-54.3652706,13.35531142,-56.77016455,-24.51989757,-9.334085991,-61.75377667,-16.75530559,-1.972138129,-25.10679342,-3.056262249,-61.69347416,,,,
332.9919998,1300,4.790478774,-17.8977546,-37.28971496,-14.66856165,0,-31.80792946,-54.91326044,-56.64276422,95.55953056,-50.49282075,117.5837477,-45.41842939,-19.41870343,-61.73286525,-9.589708623,48.78831414,,,,
332.9999998,1300,1.794435331,-18.4352429,0.566833149,6.338340899,0,-9.186523281,-100.8956703,-108.5928433,-32.66971851,8.280661467,-136.71293,1.664750741,53.71441055,10.41162573,-40.12149512,-61.28576674,,,,
333.0079998,1300,-31.72619576,-52.76972888,11.77984928,-32.63121051,0,-24.31887102,55.5258935,-12.09132492,95.15395696,-41.73409779,121.3328827,-36.68012852,-20.9691867,-54.16270612,34.91108008,18.57636904,,,,
333.0159998,1300,-4.450142027,-10.36795579,-46.99694647,15.39687628,0,-1.530102707,-143.9326836,-91.18396544,13.37306867,-6.819196852,-53.30354991,-14.28907878,-19.1877314,-22.55157561,-51.05727313,11.68848564,,,,
333.0239998,1300,-11.86952383,-51.18748473,31.83143553,-34.00565331,0,-44.57996019,18.80885344,-47.78209993,-0.566482401,2.934959671,-57.88641625,-3.651160701,18.25968352,-6.818331671,5.356147273,-61.71950114,,,,
333.0319998,1300,8.515426898,-2.933714754,-35.65098922,-0.155730694,0,-2.011289766,-47.30296569,-52.82591378,113.9414198,-24.40505172,121.0862458,-25.11314118,-23.31216625,-47.40828655,-2.734897071,48.98553342,,,,
333.0399998,1300,4.73607651,-13.16734588,1.673670526,6.443600067,0,-7.033675817,-104.1231408,-112.4047167,-40.41632933,26.39785579,-137.9797497,14.26166153,38.25108279,13.62055521,-41.62825053,-61.49345302,,,,
333.0479998,1300,-13.88421422,-40.55995624,16.3727462,-35.24327515,0,-39.02261327,46.19635874,-28.64267892,96.01925732,-29.11303117,126.7577864,-24.91344949,-24.19242828,-36.70021214,34.68617129,13.96690424,,,,
333.0559998,1301,4.297623919,-1.730198541,-45.8323278,17.61216942,0,14.40741982,-150.723867,-102.0066627,32.44680911,1.658878111,-40.09217326,-3.60469321,-17.2333342,-11.82713097,-48.56695139,14.44871611,,,,
333.0639998,1301,-12.05429178,-56.33585794,32.22509116,-35.00066983,0,-35.19054374,10.88366892,-49.78283422,7.404729597,-6.31126832,-57.8308833,-14.02468755,24.66976903,-19.54754932,0.321024471,-61.28765053,,,,
333.0719998,1301,17.85259145,-2.794547343,-28.36945787,4.979062575,0,-7.035100546,-51.47997784,-62.07332511,126.3328968,-26.19600894,125.5324078,-29.49482476,-23.61434921,-39.42023842,2.7994682,49.99675974,,,,
333.0799998,1301,-8.440966365,-27.35711351,-7.029293144,-0.869824404,0,-3.862940894,-98.48165422,-105.8984188,-25.09096572,23.94001123,-128.9820728,14.58237555,33.51782187,23.08809091,-32.03449551,-49.37813983,,,,
333.0879998,1301,-34.70547717,-65.54845208,-0.451683357,-54.32835177,0,-44.35994722,53.31646243,-4.807195811,88.64009038,-62.13784118,108.8512365,-58.34289756,-9.142739275,-63.76988707,23.46919306,17.43705431,,,,
333.0959998,1301,21.08022674,3.623223786,-35.19980899,28.51160417,0,15.30060236,-144.762817,-100.2883216,28.25763916,-11.8881171,-53.03839255,-24.1032236,3.405512251,-10.46089918,-48.99268041,15.55203484,,,,
333.1039998,1301,8.951890517,-41.21344673,56.5703839,-15.14154093,0,-13.68395804,23.31016337,-56.18938205,18.30255577,14.58267456,-37.92796783,13.64572341,40.32334629,15.01663594,30.37436062,-37.27491474,,,,
333.1119998,1301,19.12404209,-1.192551007,-15.4825747,5.801143637,0,3.508606287,-41.09391665,-53.4512774,121.027558,-26.48022278,135.5676543,-14.05927781,-9.631524944,-39.92912156,24.42393546,76.56744981,,,,
333.1199998,1301,0.008882004,-17.97576105,5.87305189,5.998821174,0,7.534249008,-95.29473221,-102.8170298,-49.16855377,20.87647566,-135.8104728,15.21609133,31.98820063,24.21025706,-22.99970487,-36.01767388,,,,
333.1279998,1301,-11.00470815,-39.66113098,19.86824324,-41.4969595,0,-15.66218994,58.84810781,-9.100915784,53.21408658,-47.23041493,115.4658676,-37.49251891,-21.32650794,-44.58940551,40.79801563,34.71453277,,,,
333.1359998,1301,33.70366057,28.62202902,-25.4340852,27.82415694,0,26.78120788,-133.4621216,-95.82403506,-27.90400484,-4.861093271,-35.31139219,-0.145921427,-6.630137423,-5.82843466,-29.72584498,29.4934773,,,,
333.1439998,1301,-1.539321631,-29.75041339,54.97207247,-23.20119869,0,-11.50085961,36.44103116,-45.55981822,-65.32482595,17.1395175,-30.26183947,23.97539553,33.43093006,39.7147758,39.05020423,-38.84857568,,,,
333.1519998,1301,17.97091907,9.393280759,-13.93310793,0.315040735,0,7.843106894,-33.21136791,-44.13076537,13.22199177,-35.00366991,126.5376345,-23.45798489,-9.929653124,-10.25042964,21.25291626,65.35670101,,,,
333.1599998,1301,29.56185092,9.243889259,13.73557752,10.19895958,0,0.622145855,-88.85799473,-105.7315904,-150.5774079,18.69369465,-128.5524992,19.43608313,46.54645978,38.2796191,-10.9008349,-52.25044825,,,,
333.1679998,1301,13.87528441,-16.17845003,24.7186574,-38.90854037,0,-27.72414471,69.86847219,-22.67924442,-33.66665603,-27.66764129,143.5571175,-9.78515631,1.278749998,-14.50237547,67.11546009,19.25615264,,,,
333.1759998,1301,31.50036743,28.51335619,-34.59508823,11.4243826,0,15.14169959,-130.1312349,-105.8644301,-130.2908333,-3.145106223,-34.27225645,-1.420611062,4.555480026,10.9173889,-24.05101296,14.1046775,,,,
333.1839998,1301,4.58083496,-23.5470755,47.48834217,-32.60264634,0,-10.65812451,33.03351385,-56.45107994,-169.2859606,7.395183149,-48.90735656,6.950062528,20.52342156,36.4526932,38.32038497,-52.972761,,,,
333.1919998,1301,31.4399735,21.6210783,-18.66449918,0.677491261,0,14.14126602,-33.99782101,-50.90980637,-58.14087266,-29.8245523,132.0015596,-13.69270663,-17.32662059,4.118839852,26.57575808,64.06055739,,,,
333.1999998,1301,23.6837571,2.233787614,-0.153316321,-0.712185514,0,3.630006616,-96.6559749,-102.1582633,-201.4244167,25.0639302,-121.4656252,34.2246967,54.28377126,59.14892616,-21.15541176,-48.79799316,,,,
333.2079998,1301,4.926231766,-23.72628713,20.03045082,-38.77483651,0,-16.78834346,58.86184582,-17.88058708,-69.92929176,-28.77428048,130.5267641,-12.63195994,-13.16294241,-0.572483629,54.88736782,18.01699648,,,,
333.2159998,1301,27.04967873,23.7741024,-31.09724628,25.23684865,0,28.21231641,-134.9819578,-92.12844267,-132.7926981,-9.832459377,-36.39973695,-6.892237154,-1.983611743,20.7476204,-24.07962275,17.86671138,,,,
333.2239998,1301,-3.544789764,-42.07397303,39.74292648,-33.40241643,0,-13.509907,29.44405352,-32.34638504,-149.9250081,-4.078863613,-36.70037049,7.055957155,31.35005799,23.34472974,32.72672985,-50.24992488,,,,
333.2319998,1301,21.64756935,6.033798214,-31.3324053,-11.08098945,0,-2.366288384,-36.76445112,-36.89071881,-36.99133281,-40.551426,135.1290239,-20.04775336,-31.97568476,-34.37019731,16.72184768,53.4889053,,,,
333.2399998,1301,16.49632622,-1.089662986,-1.111465346,-1.725440645,0,-0.030319097,-94.93733165,-98.63648462,-168.7677302,14.3383276,-128.4281875,17.67280153,34.9259419,37.63826218,-22.99749264,-63.946733,,,,
333.2479998,1301,-1.397865432,-35.6556281,22.16039699,-41.95454527,0,-12.15831606,62.03528215,-7.493158357,-17.51423257,-41.95042073,134.7429761,-23.57134377,-8.788803233,6.454182811,53.26131299,12.2458034,,,,
333.2559998,1301,26.96295023,19.35965759,-30.49249539,17.75562482,0,19.30718481,-137.4951312,-93.5366953,-75.59778242,-19.0944839,-24.90365925,-6.624640324,20.67047366,13.8559489,-33.94997108,11.91209669,,,,
333.2639998,1301,-0.566715767,-29.6402264,46.58138524,-30.42421876,0,-14.86761283,24.37145456,-52.1479994,-93.54151664,-0.28569382,-38.15664522,9.983212906,56.05272411,22.68840246,27.89946075,-58.02184544,,,,
333.2719998,1301,16.90270952,4.837751798,-26.70947633,-12.85600936,0,12.89369015,-42.44680204,-43.97369453,19.97963291,-34.12495485,125.3683753,-24.43969244,-23.64846275,-10.62269983,17.40585407,57.94401154,,,,
333.2799998,1301,12.14706516,-10.97215792,-2.773281136,-10.96868495,0,-7.677695903,-101.7596015,-93.30139164,-130.7456778,5.195220755,-140.4347957,2.055465581,32.12934503,19.70551329,-33.47978042,-59.69219748,,,,
333.2879998,1301,-15.09143596,-52.33804844,8.047606841,-58.26388532,0,-37.4204391,57.63782736,0.764413949,-2.569846724,-50.71692132,123.4554784,-35.04580997,-9.206100114,-34.40518983,39.26858274,9.852497052,,,,
333.2959998,1301,4.944485289,-4.750364373,-57.26248289,-4.082966232,0,5.40187931,-143.6402372,-80.13029555,-74.59158316,-25.41391804,-48.37894651,-24.44735708,-9.522103781,-2.966451252,-49.78733276,5.904704605,,,,
333.3039998,1301,-24.97196211,-56.55159778,11.41053302,-57.03299664,0,-48.8571476,18.39835184,-29.19858978,-110.8928587,-24.09843669,-74.56333838,-30.08160041,-0.260144046,-4.044814635,-2.26517339,-76.86990314,,,,
333.3119998,1302,-20.13372846,-32.47977128,-65.12037762,-46.07484262,0,-27.21200591,-45.76527448,-14.30843594,-4.596101181,-60.45956372,101.2622345,-60.0232552,-54.8932217,-38.17375581,-19.79819897,29.04120246,,,,
333.3199998,1302,-14.02078991,-32.53030467,-22.23148468,-26.24213557,0,-13.44235072,-107.4709481,-77.71565447,-139.9303136,-3.769160059,-157.7346601,-16.6384353,15.10398275,11.83275936,-59.30409891,-85.95816361,,,,
333.3279998,1302,-20.6717972,-51.72362183,5.370782107,-53.55165224,0,-38.6390545,50.4466409,-2.62763264,4.450578651,-53.40229713,105.2149722,-54.5488115,-33.80709371,-48.73726357,28.24528889,-10.64011091,,,,
333.3359998,1302,2.146774978,-10.65766709,-57.47936707,-1.080084807,0,10.88767635,-148.8886111,-82.640243,-55.64388578,-28.82231269,-53.38149,-39.72860332,-23.29089033,-15.22188824,-51.9032923,-2.898167735,,,,
333.3439998,1302,-14.33834852,-52.50442784,29.64119932,-43.26870144,0,-20.45277969,19.69364518,-29.81142927,-69.52198839,-16.60111962,-65.11864327,-25.32369664,27.10564092,-8.314213461,10.13302081,-66.62518343,,,,
333.3519998,1302,7.089365949,-4.804130989,-33.72435568,-12.12444648,0,-2.349383859,-41.69699712,-28.30853131,51.19001106,-42.66008924,115.329129,-46.90850542,-14.82293872,-33.57145873,3.870849908,52.1459762,,,,
333.3599998,1302,-2.369070191,-20.9472347,-12.43097506,-9.911746488,0,-3.813845577,-109.8551182,-88.65247436,-102.5098074,8.674545573,-149.7269747,-12.26881274,25.15969002,40.44953668,-45.88334204,-60.51554647,,,,
333.3679998,1302,-19.17100297,-50.94280713,8.267618886,-52.39689005,0,-39.95075796,48.15862142,-4.97464936,24.00632646,-47.17417283,108.8201753,-54.17414365,-24.51331537,-27.52731302,31.94116472,4.957523611,,,,
333.3759998,1302,7.703422394,1.49957784,-49.61770554,6.61607272,0,8.477191782,-148.8960734,-92.69904474,-37.32189349,-16.59756124,-48.45430147,-32.54928211,-7.39356578,0.245972672,-43.54471633,3.190330001,,,,
333.3839998,1302,-19.42207489,-47.78986371,19.04836894,-46.36723655,0,-18.57608005,13.57881514,-39.21010668,-72.6907223,-15.0416487,-73.38665711,-27.53958392,21.93345861,6.837401404,6.813851057,-65.10832351,,,,
333.3919998,1302,4.341570341,-1.744073362,-43.9869271,-13.33238293,0,2.687561524,-42.37106508,-35.42416999,32.77940677,-51.54737421,103.4132508,-56.35166042,-25.98818431,-40.60881437,-3.786913708,53.42238613,,,,
333.3999998,1302,-7.341512154,-23.64576026,-17.17410729,-14.15582483,0,-0.717760383,-99.07729399,-93.59592358,-114.3768638,6.337279937,-155.7562532,-13.84760799,26.99336389,32.77616552,-33.42771845,-52.39888656,,,,
333.4079998,1302,-29.88759029,-61.79753039,-7.861546175,-73.75275526,0,-55.85567502,54.78079208,0.678524749,9.22029749,-63.98312921,93.19173736,-67.24124395,-27.98888478,-44.1623384,35.74617992,8.089109342,,,,
333.4159998,1302,8.791445669,1.603022159,-57.97875347,0.144490946,0,-11.66329925,-141.7777208,-78.74285777,-48.1995872,-35.6730231,-55.42329737,-44.58265813,-21.99866812,-20.05423856,-53.60934522,0.163664882,,,,
333.4239998,1302,-26.35676419,-52.21512286,20.61667136,-43.41234705,0,-12.85794986,29.67634419,-20.87735866,-83.00456764,-13.0640313,-70.16658169,-21.97418757,7.685828716,17.71575097,15.51017155,-61.70852989,,,,
333.4319998,1302,-3.019432887,-5.564329076,-45.89840204,-17.71526284,0,5.988631475,-33.69689345,-22.51347133,13.91739372,-53.69270889,94.79112428,-55.21487943,-58.25184844,-35.63294597,7.038942483,51.62163001,,,,
333.4399998,1302,8.458554198,-8.221971643,-7.77374578,-1.416094909,0,2.678300352,-94.15767846,-84.89531725,-117.2212609,8.011183649,-151.499959,-0.66106276,8.131808664,28.71677751,-32.03475902,-62.45902062,,,,
333.4479998,1302,-16.33940066,-48.27838238,15.67958434,-45.91086399,0,-16.11040391,75.91495625,12.56068446,19.89299654,-38.65164678,117.3946864,-32.07964888,16.4987305,-18.41472394,49.94897463,7.847267774,,,,
333.4559998,1302,15.99966221,9.53783316,-40.49133729,22.8834439,0,24.7993028,-121.0273314,-79.94042092,-45.86618982,-16.06235774,-49.30591717,-24.37733912,16.56002928,3.587052563,-35.71577815,6.988020544,,,,
333.4639998,1302,-10.56662007,-44.62301093,28.64791737,-31.90794644,0,-9.165946652,37.45563487,-28.50886204,-69.02773815,-3.910044402,-71.93861544,-11.42710431,15.18493957,26.34300479,27.15558447,-56.13418029,,,,
333.4719998,1302,5.666665629,-6.47847066,-40.21490593,-17.66911625,0,3.188897964,-30.48074332,-13.70768282,41.06462391,-42.30517682,108.1993096,-38.62783306,-34.30677375,-28.09192031,10.28842152,55.08780116,,,,
333.4799998,1302,20.39208748,5.101599707,6.349405383,11.82261052,0,11.92234877,-103.4698118,-89.04172654,-95.56900463,17.56413115,-140.7742716,16.69889694,27.02342416,27.41183691,-34.62457279,-65.90973454,,,,
333.4879998,1302,4.838253043,-25.98381995,31.7863371,-25.65355764,0,-0.877057752,64.06178126,-5.739961856,51.17377853,-22.83957845,131.7336959,-4.463773855,12.75471961,-5.871533752,64.59022759,12.17076012,,,,
333.4959998,1302,21.57095998,10.99801507,-38.481543,23.57803564,0,33.72801727,-123.4212315,-77.7997936,-14.4859921,-4.503568826,-30.65259534,-1.419366062,6.252930095,24.97620106,-21.55807476,19.14491543,,,,
333.5039998,1302,-2.839770678,-40.46378555,34.48446364,-25.7242888,0,-15.01261806,36.6914196,-30.0699908,-49.37099962,-3.939511094,-64.75838398,-1.914822659,16.12665089,25.0876662,21.7440275,-62.05165103,,,,
333.5119998,1302,25.39895972,7.546269059,-26.93395348,3.276201427,0,0.361665158,-17.69286591,-24.06007151,73.87014776,-22.22004943,124.7653395,-8.525632494,-8.375505957,-21.80142157,23.13695865,47.20975123,,,,
333.5199998,1302,26.03542716,12.05057941,-2.85809275,20.10134482,0,20.25315455,-81.61795516,-83.16041303,-65.11337037,45.44956671,-130.9122575,54.52031414,39.22672771,49.17320957,-20.03039679,-62.07743626,,,,
333.5279998,1302,0.784597362,-21.43897865,6.400635583,-35.52592733,0,-19.25438665,70.18226658,2.031261271,58.26224587,-24.81002993,110.5743495,1.427660654,-16.6224124,-12.30938018,38.12958542,2.585920884,,,,
333.5359998,1302,28.93102117,17.60363996,-39.22123808,19.38385252,0,20.45653209,-119.2687769,-77.3924794,0.842166567,-3.388644443,-39.86462451,1.044217787,5.415580175,5.544227881,-37.49604017,4.598149118,,,,
333.5439998,1302,3.591989251,-33.41722485,49.28278494,-19.64160932,0,15.61990418,55.34472937,-24.41371882,-22.86580998,14.91591586,-53.1744706,12.22705659,37.32367379,28.90701332,39.56013814,-57.97879559,,,,
333.5519998,1302,9.530150257,-3.174890895,-35.05789049,-9.394376124,0,15.20356191,-7.913228845,-13.04658726,84.59731071,-29.74415192,121.898076,-20.74169528,-30.17918387,-19.20617967,24.84152967,57.96877199,,,,
333.5599998,1302,4.350353501,-17.54738379,-13.06426759,-2.700803318,0,9.414151873,-82.28006569,-73.63502652,-59.70488096,22.36613732,-144.3499836,20.19471445,24.79725927,31.88521675,-23.51106721,-58.96946114,,,,
333.5679998,1303,-15.95240602,-46.30917946,13.27599788,-42.05996642,0,-15.5098528,80.87792542,13.5206122,72.11356848,-33.24743208,108.1108596,-22.0641429,-5.462554932,-31.84178633,60.07943733,7.184824068,,,,
333.5759998,1303,10.70693817,3.297280278,-46.10645564,14.38835367,0,13.0852453,-118.8375119,-72.49717905,8.277767301,-18.52841201,-40.66350044,-14.38825202,-1.503436885,-12.0954853,-24.75531965,9.129034957,,,,
333.5839998,1303,-7.643968048,-42.23453836,28.88752528,-31.1011463,0,-10.53542567,40.3180713,-37.95434532,-21.72431298,-0.393289145,-60.95269024,0.733178711,26.7403148,16.31621979,32.13340822,-69.69913136,,,,
333.5919998,1303,1.481627136,-9.309019833,-46.42674614,-15.84391469,0,-1.187968809,-6.922510455,-42.01760167,90.65744385,-30.90016091,115.9944515,-27.40626032,-26.60547666,-29.45089049,26.16630165,41.10677979,,,,
333.5999998,1303,-3.988332468,-22.66431385,-23.7745391,-4.919016348,0,-4.941631806,-71.85134526,-149.2704759,-59.74844859,9.466471164,-153.4690102,6.329435858,23.70596089,17.7691526,-25.1204605,-70.68351126,,,,
333.6079998,1303,-12.00830846,-44.87360594,5.515671462,-32.22655603,0,-10.54109408,90.33561218,-143.2181352,68.36469231,-40.55869607,102.0194396,-25.53246904,-12.06603943,-28.93798055,53.58110448,-4.008584929,,,,
333.6159998,1303,22.90989391,21.8467404,-39.09229637,41.8067339,0,39.16547234,-103.0894498,-254.3315202,10.81830238,4.611839742,-39.26510913,9.04712382,-0.291973485,6.475048836,-17.8171143,11.44352651,,,,
333.6239998,1303,3.833051489,-19.74101402,37.74111867,-7.744576283,0,-2.913223669,44.12251785,-178.484248,-15.40175303,24.79624897,-62.76352567,30.33225349,33.73336985,32.81569303,38.79034764,-55.67344107,,,,
333.6319998,1303,18.20247265,3.158573478,-39.11819894,-2.980518295,0,-4.770148922,-36.85876892,-161.14188,108.924633,-12.0711524,124.2478037,-1.721012611,-7.729860329,-13.85311366,25.40283338,43.93649991,,,,
333.6399998,1303,6.289682077,-16.24766258,-19.44305413,-0.687470321,0,-13.69717383,-117.5326626,-226.5818207,-43.53052367,25.39167031,-143.6839955,25.66448173,26.29782473,19.51641103,-30.20539133,-85.40793761,,,,
333.6479998,1303,-23.65338179,-52.01182052,-9.207040194,-48.46646234,0,-31.66356433,56.90394845,-110.9671477,66.30747388,-47.36441026,88.8641378,-25.67491066,-42.08787148,-39.59702178,35.05649003,-26.00250696,,,,
333.6559998,1303,9.1673292,4.152875067,-60.32125935,14.33922506,0,14.59150501,-126.2630785,-167.1659265,16.37625108,-14.41544937,-56.48567944,-0.240601782,-11.2236957,-4.637988059,-46.78239064,-13.4033309,,,,
333.6639998,1303,2.72731143,-27.60803066,35.91899955,-22.74278279,0,-10.37732938,38.71222086,-112.7199841,3.913620692,14.35754905,-72.78277201,27.56490373,41.56611166,17.69543152,20.79229851,-83.44560437,,,,
333.6719998,1303,18.92959232,7.399857815,-34.70120706,-1.16317149,0,23.19977886,-5.446227185,-83.7431857,125.9750273,-16.05738524,115.7586217,-0.797395704,0.517624087,-11.66047461,30.05764609,39.36723869,,,,
333.6799998,1303,6.81650987,-9.43152989,-17.24261098,9.014994261,0,19.47197544,-73.08577933,-127.0056556,-22.13028628,33.78948079,-147.0081425,37.46460075,48.16060457,43.89029322,-14.34545467,-56.801983,,,,
333.6879998,1303,-9.811909125,-33.00163255,14.2489021,-28.73032375,0,-9.161595019,82.59994521,-34.88452235,96.46489653,-23.98071043,90.43559924,-2.495426999,-26.88186909,-21.59040628,57.13057349,4.348573313,,,,
333.6959998,1303,19.10173483,17.03828448,-42.64005901,25.19960389,0,35.18681012,-119.2406974,-111.6677218,45.4639986,2.630250843,-48.05764163,10.73267756,-7.629186209,4.207526637,-23.08801042,10.25516482,,,,
333.7039998,1303,-18.19520089,-47.00233617,19.09427898,-37.99143639,0,-17.25269613,27.4495746,-56.88464354,12.54714527,1.838673698,-73.80269739,15.82576035,25.63456115,7.847755561,21.49608823,-66.60966612,,,,
333.7119998,1303,3.902852133,-1.608088437,-41.62176147,-6.428415191,0,1.159127721,-31.31670621,-52.71445372,112.9741003,-43.71129114,93.7672832,-15.82198447,-61.24103945,-44.48880367,8.633652823,37.31572437,,,,
333.7199998,1303,11.62652034,-4.957658448,-8.470846621,7.502138242,0,14.71140744,-93.50602758,-121.154429,-17.66006297,23.91749445,-156.5237412,35.5050872,13.5714608,28.01596882,-24.59969213,-67.24203991,,,,
333.7279998,1303,-15.07124085,-47.42640375,4.751418035,-54.02815492,0,-20.29858184,74.14308443,-21.04008336,116.3955482,-31.82605278,95.46156364,-5.803629587,2.054061267,-37.7254494,52.09658273,-3.279699258,,,,
333.7359998,1303,28.26872675,21.50310822,-47.34394848,25.52221318,0,22.24969691,-123.6224477,-109.628979,51.08359395,-11.94495184,-58.1104339,6.75641887,-0.181585738,-26.55325726,-36.54746548,2.530098708,,,,
333.7439998,1303,6.603425844,-24.80279771,32.31752515,-15.18751005,0,-10.5019993,28.8177844,-74.42494022,28.40937728,16.95533743,-75.93767401,35.34390055,33.40495452,22.10047505,26.34770712,-66.48393288,,,,
333.7519998,1303,13.05742769,4.94227494,-34.81008532,-13.1167621,0,2.215986308,-25.53744531,-47.81264309,142.8448709,-21.54737822,109.5958871,0.000646091,-16.56470776,-16.90786306,20.60213226,48.05623174,,,,
333.7599998,1303,33.60094178,19.76586795,7.513342336,21.23161415,0,27.23319349,-94.14640733,-111.4355602,2.625741643,30.63185402,-143.8569418,37.4142389,29.72906237,31.36888852,-20.82747532,-55.51582145,,,,
333.7679998,1303,8.765969512,-18.67218134,27.21311903,-18.84900557,0,8.686530778,67.15045498,-23.55844714,136.5235224,-6.085933371,118.3414153,18.50911559,3.5838991,-0.547012241,69.50513543,19.11946627,,,,
333.7759998,1303,23.33835671,21.35634717,-41.57401461,16.61572774,0,30.28387585,-132.7981863,-95.07326105,66.09249807,12.94365634,-32.89631207,22.57187128,14.54834647,16.56427925,-22.71507026,31.06363015,,,,
333.7839998,1303,21.93949603,-7.840926152,49.03400238,-18.00913802,0,2.059064521,19.20903947,-64.89045573,28.50930101,23.48079478,-63.73352292,26.33482454,30.81649226,16.27565819,29.52273505,-54.01580194,,,,
333.7919998,1303,36.46689602,27.9787727,-12.54989052,10.11725302,0,17.40351263,-28.78027755,-48.55467871,139.0523645,-0.824337832,132.3370083,12.90843576,-15.10874309,-14.21268554,40.50290427,60.81293815,,,,
333.7999998,1303,18.57656269,11.65561034,6.153541372,17.18369661,0,12.97250641,-96.06227154,-97.75519994,-23.54788566,44.30508027,-128.4819997,48.76142438,46.45548238,56.29473036,-7.567389107,-39.1862823,,,,
333.8079998,1303,-3.159476396,-21.96716086,23.61707499,-27.47505941,0,-0.530486754,63.54173654,-16.02676808,74.11757267,-22.52758143,101.4555025,-6.462726369,-9.351450524,1.022844749,61.03841922,17.71549774,,,,
333.8159998,1303,30.41504246,33.03064142,-32.18284272,29.95190387,0,36.75570952,-129.3053227,-100.4176826,-10.70555174,4.786682455,-45.38052745,9.758586844,-3.316914302,34.80216444,-18.5586575,25.7633392,,,,
333.8239998,1304,17.34919654,-5.53878841,55.16604865,-7.070004749,0,-0.679480659,26.90071945,-69.00459832,-64.53727492,25.37358297,-62.19853601,37.25148726,56.9375161,62.64747318,41.85846704,-51.79096755,,,,
333.8319998,1304,27.33123356,22.81626415,-16.36874214,7.31803723,0,17.50660167,-24.48781569,-55.95442258,19.30837842,-18.40330439,119.7568408,1.711618218,-0.841312743,4.013172099,39.24195328,61.14493009,,,,
333.8399998,1304,29.24835454,18.07893072,7.940230365,18.22191948,0,20.8578826,-96.15078026,-111.3622168,-151.7476639,27.4215603,-145.1710615,27.19502502,26.26322468,59.41997057,-12.08326482,-45.1969055,,,,
333.8479998,1304,23.03000693,1.636973371,39.53418004,-10.35295036,0,2.155540867,66.81458171,-27.31234187,-38.82350146,-8.016350685,113.428612,5.465912747,-2.330892521,24.33327095,70.18876068,10.94771461,,,,
333.8559998,1304,45.92862872,49.06462199,-26.08078988,39.50527131,0,28.55975015,-123.2126229,-102.5572135,-109.8226689,26.64280961,-22.19559935,31.13312357,4.527608992,56.83897617,-3.584559334,25.92184791,,,,
333.8639998,1304,18.47178824,-3.211525268,46.78983011,-9.326736657,0,-13.12342963,29.6180692,-63.87663489,-159.3829755,23.99449242,-66.21825571,26.76951935,20.78981218,68.61356317,40.94701103,-52.86588194,,,,
333.8719998,1304,29.43993371,30.97518809,-10.66169941,22.2949436,0,24.04160101,-18.44386258,-50.82142907,-48.62004915,-17.2038533,114.6579921,-5.281496603,-12.46273982,19.23185673,41.53425747,61.30094558,,,,
333.8799998,1304,43.69727139,39.27538515,25.8706306,41.01461452,0,35.4658061,-89.26659736,-118.5511895,-175.4423076,52.02730416,-125.4681031,51.13309886,68.21561206,82.94230495,10.99080691,-33.37556766,,,,
333.8879998,1304,38.9063201,27.36682077,52.35519185,0.030404257,0,8.059689069,73.28502735,-42.65645459,-36.13323689,14.13337992,132.9036224,23.22557553,22.35853545,28.61821647,89.27779819,27.44608422,,,,
333.8959998,1304,47.18562739,61.75900552,-15.65932471,47.21724943,0,48.62568026,-115.536394,-112.9733597,-91.40613058,35.18244149,-15.12631308,28.16106071,6.376337816,52.6359214,7.247540555,45.9320073,,,,
333.9039998,1304,18.23441681,-6.996035418,53.03893097,-12.57352207,0,0.240496517,26.24573552,-71.62133734,-121.4758754,35.58303913,-55.75141611,24.27118576,46.23820987,70.04920908,49.95298273,-37.81304801,,,,
333.9119998,1304,26.3630415,20.48981206,-23.01116198,-5.309177181,0,2.543288912,-29.26827234,-48.68383429,-6.186523128,-10.73059756,122.4228023,-13.66838303,-19.52968429,4.957751677,28.49373483,58.24092099,,,,
333.9199998,1304,28.23366583,25.67372535,5.33914138,18.55395611,0,15.12685904,-97.85567801,-111.9213013,-142.5159316,43.78492637,-140.1677874,27.51893263,17.60593186,61.11777396,-17.54456427,-45.58182084,,,,
333.9279998,1304,11.20923956,-5.656558149,30.67277764,-15.62600377,0,-13.58857154,63.59742448,-36.16945906,-9.131258694,-3.503211162,104.2509136,-6.16443271,5.845641149,12.47056304,68.15201574,12.50747032,,,,
333.9359998,1304,15.15378465,22.28238201,-42.45217066,22.61205705,0,12.69226467,-126.5254958,-95.17921026,-71.04125508,10.5305112,-44.00757749,-4.287728624,-3.56070656,22.05860485,-20.79718879,25.39406191,,,,
333.9439998,1304,9.394312289,-12.20517762,43.00593789,-16.85205352,0,-14.19256474,17.88610374,-66.16081301,-100.9514615,25.58052004,-70.42941813,4.004681004,36.09977615,46.42057061,21.2900283,-56.53826623,,,,
333.9519998,1304,27.48604338,21.00894857,-28.47616799,-1.437059088,0,0.065356549,-37.39908317,-63.65732237,16.05633366,-10.68746505,117.6738653,-24.58474817,-9.264126523,6.153626978,18.28081918,49.61302077,,,,
333.9599998,1304,4.258881305,-4.917701321,-20.38548412,-5.502059336,0,5.048277255,-110.7748962,-111.2426178,-135.0191262,22.21893281,-158.9395958,-1.913044693,1.125974976,44.47834972,-38.66770822,-54.57361978,,,,
333.9679998,1304,1.750816532,-17.11061721,16.97529617,-32.29465389,0,-12.07949022,46.10907944,-32.82349439,-8.030784609,-21.20131276,85.42324831,-36.0971972,-8.51147404,-12.09943234,30.83462955,-6.238368819,,,,
333.9759998,1304,36.44530561,40.23164038,-39.19459837,24.74061242,0,11.16604418,-144.4360802,-118.1153825,-56.66191477,23.60314823,-41.22143616,-6.653623542,5.195163954,22.41086418,-38.4617036,9.859556972,,,,
333.9839998,1304,4.376117798,-19.7106945,29.31329516,-32.04882555,0,-33.38951719,6.579327128,-76.04339765,-85.66096049,28.9425172,-68.49053889,-2.144608092,11.74422298,32.70983352,9.946387257,-65.131962,,,,
333.9919998,1304,15.75751392,12.5822861,-31.61347637,-1.599096418,0,-5.23110593,-42.35292805,-56.18033002,31.80612564,-17.16140078,109.3948528,-38.07229083,-20.42202618,-16.90804771,0.850576093,40.7069524,,,,
333.9999998,1304,15.59173609,12.21601865,-0.936535849,20.8067,0,6.608800746,-112.0909651,-118.3152141,-104.2013214,39.69071319,-152.791642,6.83733833,16.09450601,48.34643146,-34.61082266,-55.69470105,,,,
334.0079998,1304,15.01945767,-0.700858557,34.37662414,-15.9434967,0,-13.15223107,52.42205395,-38.63345849,33.03354105,-1.917946117,101.0425099,-25.76004778,-22.74636166,2.48829768,51.17140916,0.269358066,,,,
334.0159998,1304,49.79830969,48.31176063,-17.80223428,37.15478842,0,24.71926548,-129.6857274,-109.7609152,-7.862785814,26.20822014,-29.63805325,-5.350066813,24.33531692,30.73136275,-17.32168327,16.04297266,,,,
334.0239998,1304,15.06615049,-9.373751435,50.07592589,-13.22352608,0,-12.75683483,21.97839145,-66.11640273,-39.97095812,24.730117,-57.99889169,-0.153703181,42.05577286,31.24517368,29.18812968,-58.10571332,,,,
334.0319998,1304,34.59819842,34.36130403,-7.692701654,25.30703344,0,32.21458892,-31.69194262,-60.9413454,68.05786698,-3.63713525,129.1630667,-27.16415382,-21.79990916,-5.83606268,23.12573621,49.74628491,,,,
334.0399998,1304,35.85617495,24.00843652,18.82579282,35.70357304,0,36.24265936,-103.6044412,-133.7111284,-71.1249404,65.86133632,-119.3492615,23.58538869,43.99534116,67.78745091,-12.58484732,-44.73383888,,,,
334.0479998,1304,17.95692308,-1.57771469,33.4356447,-14.93136328,0,-15.75685799,53.98675066,-55.86211492,54.55115979,-1.709358951,122.6842315,-28.23118465,-1.116276522,-5.549329529,52.30029522,7.368140963,,,,
334.0559998,1304,55.66885996,59.42370157,-18.33892921,53.40394358,0,33.97601358,-138.2354817,-134.0401153,-2.124127779,22.8801537,-23.45039633,-10.1276608,9.371412393,25.27256228,-26.40445082,16.1842159,,,,
334.0639998,1304,29.3910646,4.460930935,54.27237221,2.270954261,0,8.588166662,15.48612666,-95.52998935,-33.61781452,50.74585572,-41.39039877,18.77314585,34.87618807,55.85793184,32.08237929,-55.24497155,,,,
334.0719998,1304,43.88283224,40.71435448,-6.921164605,29.59614998,0,31.84039774,-27.4371696,-84.2872751,75.20859126,13.32806394,141.5140443,-17.41338566,-10.7640912,11.77478337,25.78713691,56.6711049,,,,
334.0799998,1305,38.83231734,27.7846265,18.56305573,44.13652005,0,31.00585758,-89.93244644,-138.8826988,-85.35031118,53.52951887,-129.6441556,10.82819503,43.80788494,68.54188942,-19.59159462,-39.42794726,,,,
334.0879998,1305,14.44668445,-7.194177483,22.35002937,-11.32955019,0,-10.7844431,75.8023048,-45.39698361,30.29220004,-7.174005186,112.1424316,-28.0399281,-18.02322662,-7.678191482,53.77907382,14.54828738,,,,
334.0959998,1305,53.69052994,48.30508362,-31.07317464,54.25564681,0,39.42728603,-114.484815,-120.213853,-18.12107676,23.07916906,-30.71214718,-7.289666986,2.418588646,16.67793377,-23.52421962,19.69878728,,,,
334.1039998,1305,30.06546816,-0.339412758,56.84939088,2.470208072,0,7.793576481,29.86004832,-81.18907857,-47.55460895,32.9925125,-49.35205054,2.770878282,42.46877137,51.45023934,24.10220316,-57.14372393,,,,
334.1119998,1305,40.47425595,40.84737816,-2.776789487,19.03508149,0,19.65431147,-22.10763938,-74.76969599,64.64158625,-5.607911916,140.2707021,-29.2962003,-3.809115524,4.497280169,26.89403439,57.57346357,,,,
334.1199998,1305,42.00419296,24.6430955,25.25425443,43.0684996,0,32.70404604,-84.13226581,-138.5224387,-79.90743762,49.91117097,-125.0915865,10.12446225,51.7782953,64.03544842,-6.181135964,-34.94790014,,,,
334.1279998,1305,26.95245237,-7.233283742,41.7111646,-1.249036974,0,3.817243503,75.68837485,-48.31113936,52.50739701,-2.329916308,128.116433,-27.85837949,-1.073328363,10.96591248,60.73868338,22.95941361,,,,
334.1359998,1305,73.26077344,71.02072921,-5.87155016,61.79535045,0,38.36075743,-122.8379708,-133.2779765,13.43454391,40.84902448,-2.163918322,2.484071051,12.69482197,32.40619683,-18.06216695,27.70688298,,,,
334.1439998,1305,39.06481816,14.90128202,69.01659024,10.9322197,0,-0.885916752,34.86512584,-96.47449673,-11.76569004,58.00361083,-23.39100926,20.5413078,40.01666717,47.50492995,38.86177455,-49.42466932,,,,
334.1519998,1305,22.58321576,27.07739705,-17.34207604,20.42708019,0,2.920652152,-7.196963975,-67.57267189,83.28018366,-4.962411781,137.527697,-29.11736254,-27.82267986,-10.8769907,26.36495756,65.1886916,,,,
334.1599998,1305,38.98592596,30.30697497,15.96525484,44.95607315,0,16.69897091,-79.43306135,-131.0888949,-70.82355347,47.6865955,-136.8198378,10.63049989,16.55654755,53.5759205,-16.42528096,-35.55730447,,,,
334.1679998,1305,45.06145869,10.24065038,45.96685841,-0.883814023,0,-2.728878817,75.68976628,-56.34146129,79.65971427,20.23507666,141.9407502,-8.686527235,-10.25763113,13.02882392,63.10304021,18.76671315,,,,
334.1759998,1305,76.38812948,64.46245004,-4.857586333,51.5628157,0,28.42060936,-119.8566234,-137.5377018,47.26860639,50.03109711,3.368842146,2.424977463,34.10594635,34.70072183,-22.8369127,21.82310133,,,,
334.1839998,1305,34.29198218,2.536647507,80.11081319,10.25229123,0,5.642979239,40.67586541,-101.2305873,16.29880266,52.22228838,-37.09578526,9.124654158,74.03723705,50.26694191,38.24285882,-57.08226257,,,,
334.1919998,1305,14.56387395,16.78977637,-11.54229205,23.40558676,0,20.39222174,-2.69436071,-69.04868066,98.37780802,-1.73517719,129.1566585,-25.51521317,-14.77263605,-7.802369805,34.05407678,65.38803156,,,,
334.1999998,1305,37.54784523,36.64367638,14.72794889,47.16066422,0,18.31440383,-81.01147492,-127.5193316,-65.12128364,53.52908642,-139.6084459,17.69513761,17.16334903,51.50675997,-24.57390694,-36.19223995,,,,
334.2079998,1305,46.19912675,22.8409235,45.43088019,2.926701182,0,-4.929184234,74.668987,-52.76464105,93.05519091,29.00813657,143.6800975,-1.944814668,-2.020906569,5.042101372,56.6205677,14.78211671,,,,
334.2159998,1305,56.56300138,44.62057783,-33.20429393,36.11904223,0,17.05943922,-122.1268947,-121.7305836,54.27557374,47.73024468,-7.492455751,-8.584951004,6.914293409,8.697879387,-32.13163552,20.23406513,,,,
334.2239998,1305,23.98145173,-21.31408126,48.3260867,-5.958319073,0,-11.69327831,27.43126707,-92.05374015,23.98294501,35.48439373,-56.88534055,-22.3443939,30.91149172,20.50413822,11.50251836,-66.30078589,,,,
334.2319998,1305,25.24510471,10.43044166,-17.30193784,27.34467357,0,20.44143443,-14.58737478,-75.2833136,133.3167624,-6.95821815,130.6875199,-43.86198859,-16.30782649,-7.879311442,16.79964193,55.20491233,,,,
334.2399998,1305,31.98723555,21.12485483,6.87705038,50.78975782,0,15.99567524,-79.01850058,-122.3525397,-28.67120969,53.5607924,-131.6302382,12.78153081,25.35857491,61.72266312,-31.50893655,-38.27466339,,,,
334.2479998,1305,24.37138519,5.873062961,33.66833061,14.09429448,0,-13.69704351,82.17968081,-49.88262449,100.9360695,15.9412105,126.3595851,-16.22771395,-12.43098284,1.316755534,42.84263791,12.56022212,,,,
334.2559998,1305,38.53666375,38.87977376,-35.11133585,61.52612922,0,34.57243888,-109.0966092,-130.821587,40.77995824,44.47093135,-34.34883822,-12.45417217,-0.670490039,22.92380817,-30.22895979,23.32496147,,,,
334.2639998,1305,9.83803095,-33.72462813,43.6593489,-1.720435221,0,6.675961753,46.16058434,-85.24133023,11.2098405,43.2586621,-65.88583002,-8.481991595,32.78089624,40.14571106,28.07772338,-54.47536829,,,,
334.2719998,1305,18.5263819,-8.724931325,-24.8514671,5.804451053,0,9.96851902,-6.095402063,-73.13596679,132.4302149,-23.10818587,126.2735596,-50.04006203,-16.2762085,-37.40757057,16.04453279,50.24617239,,,,
334.2799998,1305,23.7959823,-2.004739818,0.506293495,21.72223973,0,-7.098601242,-77.17377364,-132.3430126,-18.04104476,23.19223016,-143.5316367,-12.09960521,34.91683374,8.800169388,-34.26754049,-62.1097347,,,,
334.2879998,1305,9.358255758,-17.13255948,26.62209153,-8.465881256,0,-30.32927514,91.4000226,-37.22345806,115.6676767,0.491638752,116.9110786,-27.78311507,-0.881984194,-22.14858708,49.40090927,-2.260093587,,,,
334.2959998,1305,33.47989842,38.83997412,-35.14115917,61.3237663,0,49.96872183,-100.4880236,-107.4407387,46.15132881,47.36193817,-38.3772912,-3.170858957,-11.16874748,28.40320091,-31.95524045,19.65935802,,,,
334.3039998,1305,20.66720116,-9.781541641,46.45588336,8.932553839,0,12.82374675,41.25536223,-65.98121355,8.867811729,58.16013385,-66.23046814,10.25148368,22.65290646,49.96876902,17.11907419,-52.14730252,,,,
334.3119998,1305,34.60239843,8.398684247,-29.8429892,6.137448995,0,-18.94252478,-27.09431871,-64.00080364,138.7362438,4.102156079,134.3667833,-28.22845247,-21.54216723,-23.60226558,5.792243658,56.21554622,,,,
334.3199998,1305,8.453560254,-25.44181836,-24.31391435,-4.622334112,0,-24.89975473,-108.3257344,-144.8439364,-13.24955117,31.11984628,-148.6611182,-15.05352311,12.39728243,5.909699317,-52.34211444,-72.94388807,,,,
334.3279998,1305,-27.35923574,-60.32720192,-12.4916714,-53.81942854,0,-59.60573726,58.68597212,-52.87241504,96.30969964,-43.90786884,79.98141506,-75.99673533,-42.45640971,-75.58949906,8.676723214,-34.65886303,,,,
334.3359998,1306,22.70910658,21.11786018,-53.62182912,33.0057923,0,-4.341866749,-125.611858,-121.4050757,31.46717967,4.166734606,-60.36070013,-42.26684334,-31.3224677,-22.40952898,-67.93876393,-13.61815152,,,,
334.3439998,1306,14.5379799,-11.90886679,48.10043147,1.436565139,0,-8.682330789,36.13510805,-93.79876537,15.22534088,51.28522488,-59.00987066,7.914999313,47.05917088,37.9103962,10.94276163,-79.20007132,,,,
334.3519998,1306,19.5853252,11.22771231,-29.68120454,11.45572365,0,2.915918223,-10.04156181,-83.79174675,134.0717579,0.964256596,128.0193761,-25.18092583,-6.553104769,-27.52855109,12.86239097,37.86042106,,,,
334.3599998,1306,19.97784704,0.013257591,-11.90811013,28.17426436,0,8.849069222,-80.24705778,-141.7720842,-22.81415623,43.57442626,-157.036104,2.503566944,16.93353915,33.98658679,-36.71292464,-67.10766961,,,,
334.3679998,1306,-1.459176211,-32.2140239,12.25567033,-16.79501847,0,-24.66548117,90.38327755,-49.98033337,108.1392842,-4.279362565,100.0411741,-32.72675069,-7.081433872,-17.02375074,42.26454059,-9.077115721,,,,
334.3759998,1306,22.05059761,18.3414787,-55.0640777,31.84480476,0,-4.813644557,-101.027274,-116.427924,45.84876445,17.43656202,-43.89079984,-16.3878019,-12.56428616,-17.05565308,-43.19559311,2.083571883,,,,
334.3839998,1306,-1.023280712,-31.49065336,20.24027993,-16.49793045,0,-31.26143843,47.1248943,-73.43026637,7.882861771,26.76381536,-76.28485966,-5.50152732,13.34336902,-3.190700093,5.933945524,-81.75947562,,,,
334.3919998,1306,4.89645698,-5.941055079,-49.94255464,4.064590024,0,9.703965096,-0.721492337,-56.44050407,119.7986176,-20.61717167,103.0271983,-48.14618246,-38.93556363,-43.62122877,5.131791629,35.91511598,,,,
334.3999998,1306,6.636299676,-7.092344932,-19.27892149,25.5397493,0,4.162778532,-67.2710901,-119.2119455,-29.55099063,27.02232814,-167.17912,-10.79992734,6.980901527,22.72277006,-35.9212209,-65.35878446,,,,
334.4079998,1306,-2.705355108,-22.51223603,15.33604255,-8.759994023,0,-37.06973949,100.2060829,-34.3571914,112.3103478,-9.775157898,105.9224508,-25.35984605,-10.60944218,-24.39224256,46.53838971,-2.377007543,,,,
334.4159998,1306,16.36045217,25.56472099,-54.53655263,36.66944566,0,7.334602954,-97.67930044,-102.5008376,56.85757474,23.38436184,-41.25279103,2.449960271,-14.1276156,-1.061179578,-38.57588101,20.03078078,,,,
334.4239998,1306,-10.1605158,-35.4589457,12.04842068,-28.57134967,0,-40.64850023,45.41165002,-65.35494297,8.385976858,12.76491414,-96.19932554,-7.911643523,-9.608467409,-6.309595541,-4.736204326,-70.55832478,,,,
334.4319998,1306,3.885200947,-19.70660079,-51.97220488,-12.62583391,0,-37.88329007,-10.83331447,-48.58509553,125.9399858,-40.78655419,93.96209254,-59.14656466,-51.34460133,-57.99461365,-18.05839724,33.77985392,,,,
334.4399998,1306,-6.345573061,-28.58499958,-20.73248995,13.02701691,0,-31.40952093,-87.29892466,-99.23079836,-13.77824632,17.43084295,-161.980359,-12.11179103,31.24739104,11.74705511,-61.26672607,-70.36857118,,,,
334.4479998,1306,-13.30130723,-29.18748273,14.24594365,-7.153988268,0,-48.38600627,79.98417981,-23.07349869,105.2215306,-24.35416172,88.88101237,-29.09760956,-6.696149259,-47.53115091,20.72595757,-9.28412536,,,,
334.4559998,1306,26.46881623,32.45082547,-38.49780124,56.51988871,0,-1.224657792,-106.3814245,-106.5287121,46.85022389,16.81374895,-53.26939406,2.221917734,-20.31387561,-15.07584485,-46.11713064,15.8103975,,,,
334.4639998,1306,3.897752499,-23.83078964,49.65205967,11.44262328,0,-15.75195736,53.97283714,-57.34990602,17.80051354,34.88816823,-71.66140838,12.86804913,24.96494264,17.44244259,20.14712768,-60.44519189,,,,
334.4719998,1306,30.35034919,18.35098891,-6.382950816,41.16094491,0,5.1243679,4.504619101,-45.29460141,125.8357668,-5.279904545,130.9661486,-19.30997451,-25.56992324,-11.49263668,13.70098437,57.85598803,,,,
334.4799998,1306,38.60237832,24.48714196,15.46862702,51.87252954,0,-10.09039792,-77.21043825,-124.7827739,-30.01657544,49.75651603,-132.6537826,31.10195261,22.49631966,45.04145981,-36.5237212,-48.0762524,,,,
334.4879998,1306,26.49560199,7.302222169,42.81619057,14.34251817,0,-22.26654011,91.01306445,-49.0473421,85.06700547,7.430128965,119.4826663,7.039941469,10.3789993,-8.456476589,53.2683599,6.722018117,,,,
334.4959998,1306,64.20316858,70.27890586,-5.721944009,88.56143976,0,33.37430414,-96.05107293,-123.7658016,9.711912714,44.50361131,-13.40561055,34.92137916,9.145250114,50.2559144,-18.04355394,35.39022581,,,,
334.5039998,1306,41.86261602,22.73657993,80.19024992,41.68903153,0,6.007838404,56.15981891,-84.63541354,-42.98612082,56.45537352,-28.70170776,45.67158978,54.48567387,72.95213328,35.39404077,-37.03453233,,,,
334.5119998,1306,42.39183924,46.85284111,5.786582196,51.66505518,0,41.03562442,14.57215394,-63.52809032,47.26303737,18.14206634,159.3669737,-1.147365289,33.34790084,27.16706106,39.23293078,85.06723045,,,,
334.5199998,1306,19.43005726,21.54494964,2.077740247,47.23060572,0,33.77800927,-56.78354371,-105.5990384,-139.9036643,64.41395063,-137.436917,24.03350322,41.13225849,93.17453395,-14.62246203,-12.99684462,,,,
334.5279998,1306,-0.297228177,-11.30055738,13.89667146,-13.31728755,0,-23.34886771,102.0410451,-7.192840426,-50.76653664,-12.42680586,96.87735392,-18.79662157,-36.35142981,9.184898356,35.49123787,21.9150946,,,,
334.5359998,1306,43.38984246,60.3625241,-35.90193309,50.71726693,0,17.92661648,-96.0683645,-85.64566984,-106.3542311,12.95451366,-25.03086788,15.66612539,-15.31549775,29.85012149,-49.03406926,16.54729607,,,,
334.5439998,1306,3.91254747,-0.84042533,31.03007687,-1.463263284,0,-12.2606301,48.3634257,-45.70714282,-134.1962105,38.31107788,-50.06978799,40.27328858,24.3014044,69.23915154,10.85498221,-64.27166444,,,,
334.5519998,1306,3.176969532,10.71900776,-52.48550726,4.919464752,0,-8.725095927,0.022676239,-23.92600588,-38.7757908,-16.04316587,111.66175,-19.26430388,-44.97093454,8.103444126,-3.73599816,49.97511019,,,,
334.5599998,1306,27.62904357,25.02704703,-7.503772944,34.69220503,0,9.650623672,-68.09999298,-97.19604066,-180.4746971,34.69896266,-159.1600542,13.35130096,21.1306128,59.510423,-41.90549315,-51.4793762,,,,
334.5679998,1306,13.65689769,2.94289417,38.91959473,1.899406182,0,5.766080156,106.296635,-17.27900107,-27.9234699,-1.082503805,121.9779352,-2.139888156,17.60535777,25.44791019,66.24102092,18.10762567,,,,
334.5759998,1306,31.77868238,49.00411426,-25.37620015,60.55452894,0,47.6497926,-79.76841723,-82.70539658,-71.3409457,29.08906463,-11.65717413,24.83817198,19.79317106,69.2484516,-6.317504988,47.20970662,,,,
334.5839998,1306,1.145255525,-11.13257649,38.68955294,0.64681471,0,-6.777012523,64.43853488,-47.18074745,-107.1145736,33.57372562,-63.32665796,35.08422568,30.33299595,70.57151143,31.1415374,-41.3880727,,,,
334.5919998,1307,2.693585071,-2.4058327,-35.6938225,0.922094832,0,-8.082052641,18.21846838,-22.38822627,-1.158660877,-35.00562838,112.242419,-29.58055868,-45.43377157,-11.77865216,16.51802133,59.90966989,,,,
334.5999998,1307,10.9865301,3.099084245,0.662107711,29.23390992,0,13.18606515,-51.8773162,-76.36515579,-138.5309915,15.47153217,-146.6479134,-0.496808625,2.880268683,66.37973068,-24.13024113,-42.64586449,,,,
334.6079998,1307,-15.70302936,-21.53277937,29.40563707,-8.274696615,0,-8.156707878,108.3619214,2.143799834,-4.899707461,-19.10528533,113.8755738,-24.04661803,-6.877791515,17.57606931,63.13631808,12.41504235,,,,
334.6159998,1307,9.357683296,23.91968159,-35.45484169,49.82247034,0,30.64122881,-86.91748432,-72.38292677,-61.59050778,2.831795263,-36.62994194,-14.04156997,17.4279364,28.84818148,-20.78771732,31.30476568,,,,
334.6239998,1307,-4.726749913,-25.22118103,39.65623236,6.637350738,0,5.026189061,60.00298679,-35.33170017,-90.51115539,20.95366376,-72.23083354,7.107169864,34.60496445,62.9784284,28.83140798,-46.96493914,,,,
334.6319998,1307,3.145038118,1.697346222,-33.07006117,17.5445348,0,11.70248733,12.44597324,-11.2461842,16.00963416,-27.5113895,122.5168897,-31.36691551,-33.90897369,-9.674095569,25.68619876,68.0720383,,,,
334.6399998,1307,11.86988634,11.7742284,-6.246327065,31.9561305,0,16.36803848,-64.56467139,-68.83468699,-132.0601502,26.57144913,-142.4297914,3.77453665,20.10417407,46.37321296,-23.38817666,-29.67651946,,,,
334.6479998,1307,-22.76060826,-26.35322666,8.800918388,-31.12003074,0,-16.79078031,93.58025856,15.19110295,-7.235473697,-9.609598075,103.1800924,-21.93488333,-30.43940631,11.59117207,44.63650087,17.88146413,,,,
334.6559998,1307,-6.945329118,12.18004927,-54.13561565,17.10712964,0,10.19152985,-102.7206358,-56.95598963,-68.30919135,-1.215328825,-54.12639746,-18.23248696,-33.18015337,12.42176495,-47.69714443,24.65243536,,,,
334.6639998,1307,-13.00467664,-27.46496677,37.85708445,-16.40637479,0,-19.36349216,46.75165005,-30.59639421,-96.15061917,6.47476732,-92.81374777,-4.192442493,23.54704519,24.81870648,6.769323491,-62.04418302,,,,
334.6719998,1307,10.91890339,12.1399385,-22.01707588,9.750721795,0,1.838590538,3.726792132,-22.1468043,27.24450021,-17.29992632,117.1321732,-25.75263034,-7.364136149,-10.7026813,12.27078488,53.85655234,,,,
334.6799998,1307,18.78532282,15.93544421,5.524290326,29.14440412,0,8.928033607,-71.02564598,-88.72540427,-99.22777834,49.50552291,-128.319333,20.26251216,23.48574518,53.83363995,-22.54248193,-37.38554233,,,,
334.6879998,1307,-10.77183302,-27.53597535,17.62583906,-31.31401298,0,-25.35535462,95.19167989,-6.144620144,33.70689851,-10.62792068,115.4250917,-26.07667815,-32.85463817,-18.78687989,53.06751236,10.34166,,,,
334.6959998,1307,13.02120012,22.25120664,-45.48439384,29.29639335,0,16.13960483,-93.54875561,-72.54411489,-25.1078148,2.735702366,-36.18966901,-24.0643248,-11.5646309,-3.44044765,-37.66265174,25.38152251,,,,
334.7039998,1307,-8.037051151,-15.7804458,42.14557662,-1.974468353,0,-11.26147853,51.65632712,-37.71781026,-60.15593998,30.13252326,-69.88844972,5.628191005,22.14231432,42.87334487,18.81856879,-48.29314362,,,,
334.7119998,1307,9.145639092,18.25036452,-21.6289213,13.20198671,0,4.508744787,0.754478002,-33.40292109,56.35211936,-0.787020132,127.615454,-16.7306587,-26.00922279,2.310201087,14.19718407,62.93190122,,,,
334.7199998,1307,30.07863008,27.87222084,11.87860004,32.57449231,0,20.33673468,-74.22307985,-105.2242272,-69.24650377,61.19871702,-122.2536423,24.55786697,41.81664518,61.30586986,-31.90183366,-35.138761,,,,
334.7279998,1307,4.571682818,-7.829747328,29.41663804,-22.96392519,0,-0.070506756,99.59822775,-11.64066688,57.60802123,9.792995819,128.6618722,-17.94447899,-1.543193815,5.859197499,51.32282348,18.92974975,,,,
334.7359998,1307,13.20173529,26.80460661,-41.72890294,24.62411406,0,31.59601812,-88.74878321,-69.35392028,-15.92953921,17.22803623,-30.97601491,-21.52358751,-10.01032707,16.33759714,-36.51708969,36.33459762,,,,
334.7439998,1307,-20.33906038,-30.17386424,37.61893265,-20.72499914,0,-12.92325805,51.26950129,-31.69141585,-68.64765576,24.23098874,-83.27117981,-8.396047559,15.22102969,33.32880912,10.15546676,-46.29154735,,,,
334.7519998,1307,-6.750498,1.385338729,-27.65779794,-7.973773386,0,-1.096925898,-1.352150781,-20.78527593,29.74763955,-23.50719922,107.1503607,-41.03254912,-38.4832195,-24.30177694,5.424067696,61.3973668,,,,
334.7599998,1307,9.729440322,6.81230231,1.418973389,9.700443099,0,-6.298291658,-86.38105851,-100.801134,-110.2493688,27.29690621,-154.8818641,-6.790545193,13.25021823,27.90347292,-40.51020486,-43.31211904,,,,
334.7679998,1307,-8.733289393,-23.51146365,20.35577317,-39.62964323,0,-43.03766105,81.032531,-22.91830602,24.34025259,-15.04946353,97.44679844,-37.74250912,-20.90553165,-19.93287716,41.69649099,-0.102482181,,,,
334.7759998,1307,24.39412017,34.87367185,-33.85689024,26.25530113,0,11.85063823,-103.3170515,-91.7045441,-24.81640035,14.84544252,-30.77881375,-17.20186857,11.70858014,12.33901703,-38.31319228,22.25178393,,,,
334.7839998,1307,4.613254153,-11.8280566,58.94903807,-5.124634333,0,-5.864308134,42.02620855,-63.4688529,-55.68436484,28.41237269,-66.93645719,-5.514689866,62.0262457,38.90828668,18.4102952,-52.90693625,,,,
334.7919998,1307,-2.050015586,5.182384661,-19.4337853,-1.163469574,0,10.04890673,5.654921086,-35.97716372,55.55385904,-20.69407108,119.5309052,-47.16096006,-16.30823973,-12.33352705,19.09068208,63.30219727,,,,
334.7999998,1307,-4.580078871,2.999372766,-8.040242682,0.676049394,0,8.882560368,-69.07027398,-88.78474921,-99.01222496,29.9238058,-154.4788531,-12.1555756,12.99505721,48.05935945,-41.1199495,-33.46007277,,,,
334.8079998,1307,-18.70055554,-24.02459947,15.16727633,-49.68010247,0,-31.85479532,91.19763143,-7.227776308,17.30684677,-17.19975352,89.43134682,-43.49927177,-33.86328621,-21.29258797,25.77296457,1.254721168,,,,
334.8159998,1307,18.16396943,27.57739526,-36.21893339,9.709751212,0,4.076422165,-95.51658104,-72.66389269,-23.61461488,5.914017678,-26.82698362,-22.05043437,-16.2336427,-13.11851865,-50.65265063,15.34628338,,,,
334.8239998,1307,8.104298726,-15.56889099,51.76567227,-31.3769016,0,-23.08625493,45.83606557,-45.99368546,-45.41124488,16.40532737,-58.27693128,-13.39400964,44.75222795,12.50551407,0.247843259,-68.45410168,,,,
334.8319998,1307,8.119936153,8.06047164,-30.77425625,-24.90331223,0,-13.91886278,-1.394783452,-33.71642968,69.32929822,-26.4743075,121.1086822,-55.87576685,-24.81274603,-38.68445491,-5.097370162,37.09348847,,,,
334.8399998,1307,10.08196239,4.93221555,-11.28207863,-6.074539022,0,-2.399557194,-79.21870278,-91.43239443,-79.02766425,27.71527496,-154.4098321,-18.10219068,11.52133739,33.69924923,-58.29672199,-53.35288072,,,,
334.8479998,1308,20.48428564,-0.819019841,42.62487106,-22.46537846,0,-8.312217623,81.39236177,-30.03434176,53.71435622,-1.636938159,106.7443378,-34.20056185,2.765476188,-1.440173119,28.18595075,0.030805065,,,,
334.8559998,1308,50.65220398,57.82079633,-11.80243498,41.51734257,0,28.18642778,-106.2295308,-115.8546318,23.6013904,42.15024808,7.796126356,4.376155902,9.507155093,20.38168661,-30.52015117,29.51441155,,,,
334.8639998,1308,9.691330734,-7.20853178,50.25966105,-21.52980939,0,-13.04644478,41.15686203,-69.90496078,-14.52733029,39.85351181,-38.346635,3.915084675,32.20773862,29.79122253,10.41430313,-48.70119109,,,,
334.8719998,1308,15.64985283,18.6705718,-17.96174589,-7.22353128,0,6.222411239,2.413386364,-47.31404934,90.77529692,-12.6132252,127.6171482,-45.67474165,-13.91289018,-30.20150803,1.713211165,57.55445272,,,,
334.8799998,1308,19.15784067,18.76061283,6.464992258,15.48184804,0,14.9639088,-73.23703496,-111.6056866,-55.6172439,38.85270176,-146.6428311,-11.14800866,25.39474669,29.43934373,-41.01152899,-38.42440932,,,,
334.8879998,1308,11.36915742,-0.378787038,37.0313698,-21.57539198,0,-1.743338288,89.8650506,-37.3124668,65.66096445,-5.704826562,103.6791944,-44.48501412,-14.08516603,-19.16811468,39.13547969,7.466079221,,,,
334.8959998,1308,35.00145223,52.20321835,-21.93869108,31.16554853,0,29.09664845,-97.87414546,-107.1458635,16.64179893,28.40739103,-14.88848442,-17.49481647,-9.654482563,6.031240451,-35.06417483,30.1926078,,,,
334.9039998,1308,-2.627765267,-15.15561302,52.65259058,-26.17580784,0,-10.47371437,40.753508,-65.81337688,-24.40124962,27.82349512,-60.89265038,-10.62069664,26.58529519,22.31287767,3.221160449,-61.3217455,,,,
334.9119998,1308,23.21376514,28.9020182,-1.485548358,4.582688213,0,33.86909769,-3.67967696,-62.84589369,100.9218026,-11.22861232,128.2532672,-41.42177523,-13.39720532,-26.1073503,3.299932491,43.89028615,,,,
334.9199998,1308,38.10320407,44.13566285,29.14059992,29.3716657,0,35.99260937,-73.56169633,-137.9820352,-24.15700968,61.74833414,-130.2934102,12.69821641,36.29823474,43.23894276,-31.08622494,-40.80161011,,,,
334.9279998,1308,14.5757032,4.107423094,50.71687187,-21.53301041,0,-14.67039763,92.76855322,-58.77798443,104.1123633,16.20730916,114.2791454,-24.29580825,9.619895126,-17.14222001,47.21967697,3.113505499,,,,
334.9359998,1308,40.56620235,54.27178329,-11.85855442,38.61207716,0,23.55669789,-98.59943207,-134.6191598,55.20614185,42.41367745,-10.05900036,-9.030846809,6.334561415,2.04081366,-27.68137455,23.37766138,,,,
334.9439998,1308,18.96444473,8.313419784,68.71587616,-6.610107817,0,-7.235975804,47.54553579,-109.3760966,13.65383261,53.27479903,-46.90125065,7.100304282,30.01144788,29.72447673,24.6660798,-59.17986564,,,,
334.9519998,1308,27.12357638,36.10399057,1.106462675,6.423520226,0,20.31378122,11.07544199,-90.55667331,124.3773347,5.011665442,144.8309425,-30.60795799,-7.497974058,-29.69093121,22.50451477,52.43074272,,,,
334.9599998,1308,25.69123109,32.80416383,22.76072435,26.80187965,0,31.61568905,-66.5940732,-146.8084943,-18.51294664,65.03542273,-121.8059412,14.68030175,44.89750477,37.85828154,-23.43900045,-31.99837191,,,,
334.9679998,1308,3.569445311,-5.080051294,45.39811564,-22.44140235,0,-1.926677402,96.7248962,-61.68023745,100.4398484,12.28952498,118.0419018,-21.78550039,-3.165575133,-15.09592172,50.80452126,8.995434674,,,,
334.9759998,1308,32.6287692,44.36874307,-21.98663425,27.38394993,0,39.92540825,-92.18941315,-124.1605997,46.92716382,21.24190723,-14.65502044,-24.77503017,-6.189466893,-14.96191838,-34.71531323,26.71668383,,,,
334.9839998,1308,25.81141886,13.06291854,73.55254488,-3.019243608,0,2.096888574,45.31378708,-102.7951575,20.37552951,45.42349163,-51.03527889,-5.089496552,37.8181915,22.87529083,19.37516026,-56.0887107,,,,
334.9919998,1308,27.11747032,35.10035152,1.870339676,1.822783761,0,-7.400216987,-8.741772102,-93.85645039,140.6308758,8.84519022,150.4834038,-28.67238469,-11.08264923,-21.33867083,15.67795067,46.08190043,,,,
334.9999998,1308,17.84003152,15.11220354,-1.632591639,-6.5454048,0,-15.5899749,-105.642107,-170.6518587,-18.17790224,43.63161178,-125.2251409,-2.489086384,33.40077003,9.680285496,-56.33053359,-63.77380932,,,,
335.0079998,1308,12.42336699,-8.371247673,38.34795627,-42.98042138,0,-38.58239017,56.03934421,-114.7375164,104.2646467,-17.08508843,112.5856918,-45.10011963,-11.59997875,-55.9978011,14.38073247,-37.0375702,,,,
335.0159998,1308,28.19793396,34.56547541,-18.08411513,18.70210234,0,8.50750612,-116.7904531,-171.1706063,64.6503921,6.60082309,-6.920336181,-28.05736447,-8.000038224,-31.58773307,-47.96949698,-6.417936892,,,,
335.0239998,1308,0.5954798,-14.73251439,51.18933262,-19.28060122,0,-12.65058117,35.31341474,-129.344868,18.89742127,28.50280329,-54.9506207,-11.61314747,31.49711013,4.770913593,5.447538319,-75.81636146,,,,
335.0319998,1308,18.20652947,27.30716361,-10.23552625,3.97716043,0,-4.089432592,-5.608981939,-116.7101165,122.8621757,-8.832909096,133.1410388,-41.60199455,-34.05927121,-35.11425689,-0.094888751,29.84269997,,,,
335.0399998,1308,12.76146473,18.46505588,9.873438288,13.35224249,0,-4.770134708,-80.49670569,-169.9237744,-20.55466095,42.38289193,-130.4312526,2.495052083,33.43122716,14.05504868,-43.76073624,-62.43737978,,,,
335.0479998,1308,0.80813487,-7.300362298,37.70463631,-25.80844042,0,-10.4470841,91.23538701,-86.48990714,109.9626998,-7.705093075,112.7104858,-30.76095337,11.66500437,-44.79014635,37.32596293,-13.68048128,,,,
335.0559998,1308,26.89228899,42.46705943,-29.77781538,29.99229236,0,24.25665803,-104.6430196,-155.7244444,58.4049873,17.43085137,-14.82345567,-16.52820488,-17.47281493,-16.95382361,-43.39099892,11.58454282,,,,
335.0639998,1308,-6.814316875,-22.8102678,39.12349619,-25.26746646,0,-31.99256812,35.37096625,-118.0125629,15.09938789,29.34275189,-62.23135079,-2.077882089,0.784752948,0.593884349,3.422684801,-70.47534569,,,,
335.0719998,1308,8.019452068,14.94526117,-18.20674418,-3.941864927,0,-1.37209868,4.863771343,-97.32001142,132.4387611,-18.47912651,127.6314624,-35.773058,-30.11746391,-59.33181845,3.357050877,38.22762485,,,,
335.0799998,1308,5.906506707,14.18441473,1.083051919,15.50578557,0,16.15572585,-73.35723749,-151.9637766,-18.06570543,35.49414543,-142.5599657,3.52443063,33.25020724,4.76628217,-42.72912097,-48.64597609,,,,
335.0879998,1308,3.684969146,-6.41158025,38.65171175,-11.25016675,0,-6.968735656,92.82113364,-74.00142666,112.402737,-5.690829745,106.4601115,-23.91168033,-7.570626583,-34.36547509,40.53421904,0.797507358,,,,
335.0959998,1308,53.20795724,64.24057334,-3.988647838,58.43527802,0,45.45224064,-91.97942248,-154.5882055,89.32600526,36.99360201,7.259810779,12.15414367,16.88135455,-0.005839254,-18.55866654,29.28915765,,,,
335.1039998,1309,2.605349915,-14.16481052,45.72562891,-17.94041483,0,-10.52498585,56.98616555,-98.00649484,45.97343766,42.09900833,-38.83819225,15.54757968,40.82409257,14.31770454,26.96944498,-52.21093219,,,,
335.1119998,1309,8.198154925,15.18344776,-24.87406337,1.324572369,0,1.394168709,21.7503477,-66.43387247,139.1523432,-23.50906991,124.2479876,-43.10472685,-48.03046156,-52.28332095,6.159286736,44.64064782,,,,
335.1199998,1309,25.98236428,36.41086479,22.32660954,38.81776806,0,27.17081883,-56.3933017,-141.5274104,-0.313057024,53.15344681,-129.5573034,22.90323288,15.27968601,18.12499582,-22.31620488,-46.14790991,,,,
335.1279998,1309,0.683429615,-9.800852726,44.71811943,-23.25406969,0,-13.58800066,113.1780377,-50.71577488,129.7031607,6.147736808,134.9606115,-3.220350117,-6.198397207,-29.55185914,65.64176759,7.403305652,,,,
335.1359998,1309,36.43009359,44.90804865,-16.27866861,33.26894437,0,23.61680241,-80.08474518,-121.4252514,73.97307527,10.39608051,1.012819179,-8.862836384,17.90784065,-14.57099385,-24.39217418,21.02810508,,,,
335.1439998,1309,23.8487786,15.80287939,70.86790836,3.862494576,0,-4.302052035,62.18408887,-98.59332309,38.25971638,50.35920378,-40.00361854,24.1338472,54.56112449,18.51545461,37.65360349,-63.31940331,,,,
335.1519998,1309,31.01183136,47.98226788,8.095740316,22.01441775,0,8.423223758,30.29171566,-77.988887,153.0937501,26.60750545,160.4062405,11.02931316,-22.14628442,-19.68049781,44.17157703,58.06886581,,,,
335.1599998,1309,22.38103535,28.62804009,25.1964932,24.89022141,0,10.65400629,-52.01689774,-140.9791822,-12.12130429,57.5982852,-115.4903499,31.21204609,35.36294833,43.73052006,-12.70176316,-34.61255107,,,,
335.1679998,1309,14.46130279,2.90542736,51.87999066,-15.49182366,0,-6.374746994,115.5442368,-62.19016968,91.87728552,-10.76887113,127.701598,-23.62670638,-8.78599373,-15.07186954,66.9330211,4.390878865,,,,
335.1759998,1309,53.97008953,74.170405,-8.17438727,58.05403492,0,51.45265136,-67.03131729,-142.2106745,12.54912036,23.42604498,4.9824735,4.951682866,-9.277012467,13.09163496,-6.803353267,27.37585242,,,,
335.1839998,1309,27.00479057,23.81206385,67.02862791,7.954279508,0,9.038319405,73.11267488,-140.7981708,-65.62108696,54.12770735,-40.42438217,34.63282282,39.59934213,58.97305409,39.09722094,-55.50977764,,,,
335.1919998,1309,52.0128433,64.75001404,16.05530855,29.60825546,0,31.4540428,38.62869016,-153.8340456,43.62981303,21.0892846,171.7828882,7.884677986,-1.266259141,19.57215535,47.32281934,58.03963776,,,,
335.1999998,1309,39.92766177,48.80633571,31.01799433,35.10013624,0,40.34296891,-33.00849455,-194.3294051,-117.0170638,63.23781888,-94.72723637,42.05496995,59.5951262,72.92458957,3.615699703,-31.98715003,,,,
335.2079998,1309,3.732818272,1.486081527,42.95651459,-30.53771961,0,-11.16274078,124.0529381,-89.34409614,-28.53888632,-8.48222785,126.2194786,-10.28860395,2.234433913,10.87075704,68.15271468,5.979079386,,,,
335.2159998,1309,61.76732279,88.11135011,-3.97460124,45.24801316,0,34.09371285,-74.1882504,-177.112155,-86.45416579,29.66071398,1.202791802,19.61399423,1.239897655,42.25991377,-9.68081194,20.3656383,,,,
335.2239998,1309,47.7781224,43.36489222,74.56568544,3.409643428,0,5.169363356,74.42065715,-132.6329487,-123.0720442,61.89634516,-25.68045176,54.8622919,39.84411517,67.17275738,45.49755297,-58.46132372,,,,
335.2319998,1309,32.05966347,35.56559461,-7.207595873,-2.657554829,0,-1.664408636,32.86127761,-88.15420674,-1.234980308,-3.707488151,172.8800722,1.797080304,-20.89645742,-3.114372756,37.34126015,52.50688623,,,,
335.2399998,1309,11.40510617,7.314498272,6.650105159,3.561512702,0,-7.888760581,-51.49323887,-141.4175229,-146.0302616,22.11195834,-121.0153055,10.47661631,49.03866911,46.1877287,-17.60715942,-60.57683423,,,,
