Time:125Hz,Epoch,FP1,FP2,C3,C4,P7,P8,O1,O2,F7,F8,F3,F4,T7,T8,P3,P4,Event Id,,,
489.5039997,1912,48.26560997,36.65902913,-25.56828393,31.42146597,0,36.44325269,-127.4260343,-46.87946266,-8.115835519,22.54967868,-106.8046742,7.085048861,-0.115195769,15.08421994,-39.71298908,26.21114013,1111,,,
489.5119997,1912,31.84685601,-27.00763161,52.8001515,-24.81479207,0,-1.342950918,59.58684048,35.33573048,-14.84005782,40.90343338,-117.8603521,31.93702446,41.19380352,39.84743117,30.52650506,9.294198415,,,,
489.5199997,1912,31.67871345,-5.808996349,-24.39817225,-14.65172192,0,-3.055688856,-29.15783,13.54957913,99.46963295,-18.19426577,84.88363056,-30.40363513,-23.95889811,-30.25855354,9.001318046,83.11325899,,,,
489.5279997,1912,37.01781984,9.039705079,21.63574648,18.65134915,0,33.13007992,-80.09602875,-30.151864,-62.81254682,44.79083625,-227.3147876,30.03302469,23.19532904,41.2918827,-14.77161503,-19.95978205,,,,
489.5359997,1912,35.54555334,-20.23148893,40.154248,-29.48754917,0,-3.38145855,79.98217758,49.42146914,91.43679944,1.60523053,76.09524935,-14.61435358,-0.226901485,-6.031924938,58.53746092,87.99656305,,,,
489.5439997,1912,42.17475196,22.36765439,-22.44330385,15.08362053,0,31.11042907,-136.1173986,-42.86461403,28.53886124,20.36024137,-86.1258043,-0.70456162,6.407286684,7.146739712,-31.21206425,36.38665116,,,,
489.5519997,1912,24.99156395,-30.15505269,57.93258407,-29.86611422,0,1.264764659,48.36470321,36.40864121,5.582991833,28.54669972,-119.999862,14.41913339,33.60940852,27.68430183,31.08239709,14.86264199,,,,
489.5599997,1912,39.14836995,5.818665483,-2.721717758,-2.79670048,0,4.583346682,-40.27015234,13.62501219,128.3678617,-6.88088561,93.82692308,-25.20340148,-1.431329572,-22.20700495,19.32238941,98.11476662,,,,
489.5679997,1912,23.71575571,-4.757658366,14.84526076,3.615141544,0,9.89814903,-90.88808603,-15.36490531,-33.47410513,49.22041692,-216.2193832,29.31524448,31.27975851,36.2460817,-18.5167438,-11.11623628,,,,
489.5759997,1912,20.94573981,-35.00299751,19.60164179,-42.21884988,0,-16.27624725,61.51328472,59.0648393,102.7981368,-11.1070416,70.00148099,-30.90927251,-20.0236832,-17.684314,37.89377938,80.67177304,,,,
489.5839997,1912,49.39124389,26.237391,-22.84915637,25.00577167,0,38.73797951,-152.0624135,-45.12471712,37.68861879,16.07972964,-90.39614637,-6.37854391,16.41407191,6.381847997,-40.94127272,33.59220864,,,,
489.5919997,1912,23.48378715,-32.05561697,50.35136217,-28.16302961,0,2.392100861,31.53460079,31.27079468,20.30304418,28.82175922,-114.9746602,12.70077756,31.4378708,22.31268316,24.22885772,16.92601289,,,,
489.5999997,1912,28.00507167,0.046531847,-18.42490286,-3.033171723,0,10.35348008,-63.76261611,-0.102137674,129.0530531,-15.90067118,85.57265441,-41.10812765,-28.16550258,-32.90560082,0.574594277,88.79588049,,,,
489.6079997,1912,14.61511556,-10.88032213,9.461873249,7.890934196,0,20.15203049,-105.574778,-25.88287314,-32.31045613,41.43120127,-221.1638597,13.84488566,45.50726966,31.71307697,-29.31321919,-14.02649478,,,,
489.6159997,1912,0.0052652,-52.0704368,7.448502803,-50.44170633,0,-23.82934955,45.99819876,62.26318633,109.9912319,-19.33954982,62.90278705,-42.48591809,-17.22196938,-25.69985906,28.23367717,84.5900741,,,,
489.6239997,1912,38.36156864,25.37566743,-27.88555374,26.73633038,0,28.41528784,-168.1252215,-41.74375994,38.70272279,10.39746916,-112.0236257,-14.16277081,-9.599418333,-3.247497853,-57.51755065,25.29816027,,,,
489.6319997,1912,35.27910132,-11.89667939,64.25668227,-5.214601433,0,14.0554901,31.85550573,37.89916104,33.83888472,49.26796681,-112.2178031,29.47431992,37.77515584,30.15853709,26.01842287,17.68420467,,,,
489.6399997,1912,28.39153895,3.582257253,-17.47335453,2.098104512,0,15.71405722,-57.27445813,21.27497317,145.2545348,10.30880911,100.9418724,-17.8603497,-30.20826929,-19.75330072,8.552876658,104.9872332,,,,
489.6479997,1912,19.79539932,-1.270731591,12.23986802,10.95185738,0,16.53807795,-99.95307546,-7.314101335,-25.08327072,50.99804402,-217.680542,22.96923971,31.32354303,30.07151516,-31.18839205,-6.262453874,,,,
489.6559997,1912,30.57832005,-14.09581026,36.22907991,-18.51059546,0,-2.99544239,56.93561787,70.99458225,137.4473518,11.8786464,83.54817888,-10.98253683,14.18321911,-9.043841921,45.3858418,94.32893748,,,,
489.6639997,1912,31.39547254,30.5542336,-29.34134986,23.51239091,0,30.88770062,-163.407215,-26.46288784,71.48219484,47.8244632,-83.89331843,20.35228751,9.486974752,20.2082989,-40.36177812,39.23192074,,,,
489.6719997,1912,-12.7382715,-43.56824675,16.87681435,-51.37876072,0,-31.25647871,6.672553063,32.20717293,22.47533213,33.88966447,-133.3088439,10.57741479,6.584846412,4.028778744,-6.815390895,-3.872915808,,,,
489.6799997,1912,5.296310974,-9.046899904,-44.47234674,-15.38258772,0,-13.27227821,-92.89445837,-20.7451721,120.7063885,-14.2762622,52.37601159,-41.30641676,-42.67945802,-49.59662188,-33.38258623,57.47594508,,,,
489.6879997,1912,4.614628474,-12.27841823,2.936333394,2.794308467,0,4.357808301,-116.0607192,-41.9901379,-24.18895897,47.98680376,-232.849229,21.58085718,32.91472961,22.53359025,-46.29026589,-36.85942836,,,,
489.6959997,1912,5.710267088,-33.30484928,17.04195694,-38.44825392,0,-30.72416125,44.48883069,40.66438487,125.643009,-6.956057852,75.4905942,-31.24021209,-5.42559061,-33.40839014,21.4558254,66.90940981,,,,
489.7039997,1912,26.65636644,27.74243423,-27.80609771,28.29206978,0,27.22566056,-164.7131851,-61.73108606,49.59071769,32.57824729,-93.93076205,7.126258223,-3.235904614,9.005813867,-55.44972299,16.20384155,,,,
489.7119997,1912,-0.372811055,-31.1853811,41.80413361,-25.17507732,0,-12.54694551,25.60892312,22.78861343,21.19700958,43.01570191,-120.8929395,27.6751876,19.32464721,18.98065435,12.37559292,5.410718932,,,,
489.7199997,1912,25.26171627,11.83021904,-18.46591488,8.47360095,0,0.98229738,-78.38005896,-15.9686817,127.4221991,4.480992391,68.07060034,-22.01161364,-24.15850936,-31.52979985,-9.736753191,80.15900494,,,,
489.7279997,1913,20.70661927,1.57264559,26.34514711,16.12759509,0,24.46661639,-105.4820452,-41.75713231,-10.28375875,67.44958159,-208.8563486,32.43440443,43.1708964,49.1061211,-26.1472052,-16.87907198,,,,
489.7359997,1913,4.1755013,-32.2996667,33.39493813,-32.85720733,0,-16.05131856,49.65932046,44.07346358,142.3464252,3.496472717,103.8620906,-25.58965658,10.94738035,-18.24007336,39.01266296,79.77644192,,,,
489.7439997,1913,23.19748731,31.67787894,-18.67757652,32.96425084,0,26.43100539,-168.5286828,-59.57355785,55.86991678,39.06461471,-78.48607937,6.810847754,13.14037567,4.176720179,-49.06921696,13.26550012,,,,
489.7519997,1913,5.475220802,-21.24077479,50.88614892,-19.26391027,0,-7.923206139,25.94739702,21.77086868,36.09643706,59.35919732,-100.3044033,32.55706802,28.11829386,23.09531067,16.03047451,4.123292007,,,,
489.7599997,1913,23.03217311,14.11591064,-13.52998001,12.74871808,0,10.29273012,-75.43740195,-9.770688606,146.8106493,20.78125286,82.98884405,-8.368810885,-17.22885494,-22.27555648,-7.961534258,86.05176207,,,,
489.7679997,1913,8.314739577,4.049963267,23.67448913,23.4020019,0,28.7198741,-106.3035582,-34.94970705,-7.091111265,77.33512139,-213.6265189,47.81981034,41.9623119,54.58545619,-28.51665687,-11.64503627,,,,
489.7759997,1913,-5.419630136,-24.05931317,30.97508009,-20.14880196,0,-7.073701931,48.42079581,43.44527226,134.4287604,19.80039911,85.95765565,-9.057535254,7.669676239,-5.516909875,42.59065568,93.02618858,,,,
489.7839997,1913,18.6180496,33.60382425,-15.22735097,43.42151556,0,39.72218491,-160.5613076,-55.14172894,43.72694525,56.73092434,-102.1564299,16.41403711,16.13386696,19.96543547,-40.61852189,34.30811392,,,,
489.7919997,1913,4.28360979,-20.55510553,57.50179532,-15.10126311,0,8.544526586,38.70472368,34.22541768,26.00975762,64.11361826,-109.2746712,32.24838173,32.32638321,40.09976913,25.16767119,23.85018724,,,,
489.7999997,1913,17.21231108,11.80811634,-10.81167859,2.171468006,0,22.06326011,-66.23105754,2.826887322,133.825075,8.484358494,90.04432966,-16.89745301,-18.0666988,-14.56261516,0.488141435,94.11968133,,,,
489.8079997,1913,8.365564468,4.220683473,28.71817817,10.61145917,0,33.50462244,-96.13995989,-27.18071889,-21.55020607,61.7838351,-202.342509,36.10998462,37.77007144,40.31137311,-28.12101751,-18.33752741,,,,
489.8159997,1913,0.974267422,-20.26297394,37.39358419,-22.10895957,0,5.574693145,58.87701802,50.00545729,125.2664123,14.30911903,89.11206134,-11.03107043,-2.327113719,-13.29133959,41.56323184,87.96825028,,,,
489.8239997,1913,6.664899027,15.92321407,-20.20722236,33.41697829,0,48.39571632,-150.9402257,-40.60355638,25.03858182,40.66335946,-113.7389526,11.59724729,-2.939241445,26.67145597,-36.43622637,36.49294755,,,,
489.8319997,1913,-16.67857807,-46.10707519,47.14293003,-33.66319602,0,-7.874955508,44.54534947,47.27804267,-13.83463917,27.92048912,-132.8339298,4.297935221,17.1877944,28.64938057,22.04748934,18.79547891,,,,
489.8399997,1913,8.872599148,8.583665532,-15.85852738,-3.608046758,0,1.497641994,-63.02335427,7.687957924,78.67326903,-16.54852562,59.39397494,-44.91914549,-20.00518897,-26.12965439,-4.619019094,86.64834548,,,,
489.8479997,1913,12.87582166,11.09566247,29.60068228,18.62886726,0,40.71408252,-93.11539483,-22.74256378,-85.90524701,54.80299299,-219.0924851,28.21143301,34.87347284,61.08388879,-22.89196685,-14.00996525,,,,
489.8559997,1913,10.24268363,-15.15006165,40.81636435,-21.63722567,0,11.99311734,57.85860849,55.59813293,42.69669896,0.754201448,92.69402221,-14.0077422,-1.8027898,13.2751569,47.75175231,93.14823151,,,,
489.8639997,1913,21.16822961,34.92265483,-16.81858421,27.09172468,0,40.26797769,-154.5777954,-42.10819488,-79.76993783,23.05157033,-103.7239354,13.62834091,5.311211778,34.81378953,-36.45705534,36.01763635,,,,
489.8719997,1913,0.926803624,-23.20415636,45.58329191,-32.8401824,0,5.04070002,37.72113761,35.61143974,-123.9282404,28.66756268,-118.5694061,23.66796004,9.482549912,49.1308114,19.21584562,22.56754256,,,,
489.8799997,1913,21.42339416,14.97630109,-18.26194514,-5.02410358,0,13.83932937,-66.30434741,-0.806238216,-24.05037357,-5.499708041,71.87728335,-23.81350994,-28.01053665,15.17914968,-4.421934024,90.98989234,,,,
489.8879997,1913,24.22869776,15.94521018,32.02203624,13.10031087,0,24.33290056,-91.41930488,-31.29383921,-180.4396288,53.95715976,-214.5465429,33.52283133,41.07707447,79.6920904,-19.06602742,-13.574971,,,,
489.8959997,1913,9.684141442,-18.30004758,33.79659653,-30.91265051,0,-11.42403778,55.41090628,43.30423544,-34.08155044,-1.035945468,92.13590254,-7.821000891,-7.54456843,10.21222986,51.07148036,93.03276849,,,,
489.9039997,1913,9.904472482,17.18043741,-29.60665472,14.41535214,0,17.42199086,-156.7489388,-46.91880424,-129.8945047,17.92901874,-110.613541,15.22095644,-16.61762697,31.27458403,-39.39585357,28.27421149,,,,
489.9119997,1913,1.99109844,-25.67138263,45.721376,-29.77807714,0,-9.793907926,36.75613272,30.17388313,-141.358556,21.83687015,-115.8273232,21.5680767,14.06361541,48.89281236,22.30736456,12.37615914,,,,
489.9199997,1913,14.7871965,15.21932435,-19.49696234,3.486348371,0,15.11318248,-68.08048257,-7.286302776,-16.72540553,4.738745465,80.40699648,-5.114604908,-11.05348662,17.49839713,8.632791614,86.17268019,,,,
489.9279997,1913,5.526157557,5.26646666,20.63809915,11.45855582,0,30.09321285,-94.84848626,-32.2467618,-172.9752178,55.86781846,-226.4294225,41.45747226,17.53112968,74.52929639,-24.88673541,-23.29574048,,,,
489.9359997,1913,11.88626776,-15.91090954,32.74188068,-25.61276879,0,4.520208847,48.65543893,38.0663205,-12.45447988,-1.302540761,82.85812053,-11.58237081,-11.07572657,16.88703271,44.90868786,87.10282698,,,,
489.9439997,1913,14.00377999,17.4891485,-21.75177798,21.10107421,0,37.3575798,-157.3929269,-49.88090897,-78.31619726,27.13876266,-100.1265226,18.96348255,9.718751776,42.78325544,-25.92050499,34.45804732,,,,
489.9519997,1913,-11.34745553,-41.46498016,47.75432851,-32.68476249,0,-4.556937043,35.68432713,33.51186924,-92.65731576,6.689236199,-115.8584886,5.767297791,-2.365600492,32.31572443,23.48703167,17.58844307,,,,
489.9599997,1913,6.992926426,2.792730457,-19.25542837,0.64582107,0,14.14490862,-76.01411749,-9.487859714,19.95912058,-19.8322824,70.88225957,-24.47422273,-29.43617386,-4.089539832,4.148213671,89.25935243,,,,
489.9679997,1913,0.991015762,-8.011032606,17.77149067,5.80512343,0,15.38901024,-101.2489974,-34.79351008,-130.1838224,40.81712638,-221.2976118,35.05158831,21.58409854,52.82393473,-23.68969681,-23.22252825,,,,
489.9759997,1913,6.203746391,-27.07335645,31.02386272,-26.15544686,0,-20.34338796,38.91205764,33.86260212,20.85904497,-14.19431172,84.38051405,-20.50590132,-27.52485412,-13.38036306,35.26256669,77.50955315,,,,
489.9839997,1914,22.47583976,22.86536851,-11.1106181,33.15544337,0,34.53511145,-166.616425,-62.98092549,-55.09522973,33.30718676,-100.8248406,21.54335159,7.629064243,40.60006383,-32.45044777,29.15462711,,,,
489.9919997,1914,-0.903893117,-36.04218959,54.24614917,-27.17024052,0,-0.69243599,29.41480449,18.97728019,-68.92087616,26.41871756,-104.1619395,18.57495116,12.26524801,44.57598409,23.79018278,19.9971581,,,,
489.9999997,1914,9.446543908,4.642548871,-17.61545587,3.729128538,0,14.89639691,-82.1432111,-21.56566059,26.04474855,-7.467093873,73.76467747,-22.4980901,-41.04743763,-4.701223522,-3.339533183,88.35014055,,,,
490.0079997,1914,7.237839421,-0.709864476,27.23372174,17.92248972,0,39.67086446,-101.8124085,-45.19640799,-125.9833658,55.69218477,-214.9568538,42.26111936,28.61401191,65.93698377,-21.10158479,-12.39555821,,,,
490.0159997,1914,8.078939633,-28.27075905,29.41606485,-22.17130689,0,1.557221368,39.05894602,26.01773254,31.35130691,-0.579071343,89.23407934,-9.415665249,-5.329481314,5.341194508,42.48246576,93.76816115,,,,
490.0239997,1914,18.14231379,18.09893168,-21.04613443,29.28149819,0,26.02873572,-167.4812613,-70.9246058,-55.52816386,34.1683113,-115.9726357,14.91970964,4.583245982,38.0189782,-41.56334044,29.75767598,,,,
490.0319997,1914,0.498785519,-31.30642819,53.58898366,-21.80908401,0,-9.876663701,25.70300399,8.179092433,-58.60228391,34.59443927,-109.3736851,17.81450726,17.07736324,37.18009882,17.18587838,19.24097127,,,,
490.0399997,1914,7.829494394,2.75354705,-21.61160146,8.890949604,0,9.457112032,-86.9722686,-26.69565961,51.57143567,8.542221062,70.69702361,-12.29906441,-28.17903711,-3.850846303,-5.589161947,92.19601802,,,,
490.0479997,1914,-2.536114519,-9.590496491,20.72266691,15.81997023,0,23.24470856,-103.2288994,-44.04432734,-99.53102526,61.91196247,-233.0014731,38.34150033,30.5890461,61.66585268,-30.15482834,-10.92960508,,,,
490.0559997,1914,2.031681728,-27.16581369,37.27323701,-13.67685434,0,0.054614938,31.3431293,20.49240623,62.01695222,3.579737522,74.65619782,-19.97941024,-4.578842552,1.678035355,36.09815198,92.24724714,,,,
490.0639997,1914,16.78291555,22.18866839,-6.923123441,47.13840923,0,41.11338155,-169.6723803,-74.24744744,-20.2573422,47.21746966,-109.3408738,15.16042627,3.66343602,50.05257915,-33.95652866,31.24426269,,,,
490.0719997,1914,-2.360993191,-29.69362788,61.48566655,-9.061983381,0,4.313463673,39.6409382,19.2184198,-27.90411281,49.2281969,-93.40638727,23.8762189,12.2843962,53.28713214,34.67785933,26.54511943,,,,
490.0799997,1914,14.88029941,12.60814416,-5.311853192,23.16066786,0,35.84660303,-69.9062953,-12.8589382,70.29011554,14.88041213,72.85814644,-9.907964924,-27.63200791,10.1135056,10.60394406,100.3029754,,,,
490.0879997,1914,7.352409883,-1.687252279,40.76810286,25.68092992,0,40.9112879,-83.82329064,-30.54204231,-83.58851801,63.86814289,-218.9500111,40.23617361,45.07429938,76.17359078,-11.87403733,4.494142769,,,,
490.0959997,1914,-5.197126848,-31.39680055,39.88914853,-20.88512558,0,-2.711813448,49.22889008,38.47569808,67.5908507,-1.2240419,95.28223413,-23.19730084,10.55288741,5.595291889,49.48845173,107.5634201,,,,
490.1039997,1914,9.027929197,16.57636818,-5.086586683,36.58697006,0,46.41623473,-157.6190369,-56.4924171,-31.05940942,29.70736675,-113.8082859,3.326116492,9.645961541,45.30839204,-32.52325076,37.33189906,,,,
490.1119997,1914,0.578728299,-31.21793344,68.46703476,-16.24892626,0,3.101047148,42.65463879,29.65737699,-38.13775244,32.55812004,-98.3618776,17.49057711,21.75974054,53.15185235,32.94055293,32.64044097,,,,
490.1199997,1914,6.091562425,1.649250449,-13.02191783,3.303920445,0,8.150898785,-78.68443627,-12.36727509,58.66125171,4.326730609,78.90009293,-12.31164476,-15.49500474,2.806499206,9.386372733,96.34759812,,,,
490.1279997,1914,-13.81699066,-26.49742869,20.22029369,-3.256110213,0,5.80213894,-96.85524703,-34.94095822,-108.2802901,38.82857821,-224.4233565,18.7957557,20.50228663,43.65441965,-21.51247392,-22.10150637,,,,
490.1359997,1914,-12.51060374,-42.6221964,25.29052043,-33.43982554,0,-29.43657421,34.49986665,34.39830024,38.48207005,-26.63175232,81.17044391,-40.76486504,-39.3635927,-26.33714227,32.74532002,76.47028571,,,,
490.1439997,1914,1.735171537,13.891411,-15.55998585,28.49173116,0,21.25130912,-167.6024857,-53.04914773,-47.38479711,28.84489177,-112.4671826,16.47826392,-1.772431441,35.42838361,-37.51279127,19.09490744,,,,
490.1519997,1914,-14.47764939,-41.5939236,54.77986007,-28.15875612,0,-20.8081794,32.3827003,33.60016897,-55.17389773,23.25648196,-103.1436921,15.22858287,15.32450757,39.67754272,24.89626117,14.79349033,,,,
490.1599997,1914,11.67827657,4.956414516,-13.05021671,13.50794667,0,-4.355455415,-88.88949996,-14.69201285,46.13471869,-11.66522885,63.44574786,-23.96160399,-31.90737543,-9.510720878,-1.903060339,83.01467752,,,,
490.1679997,1914,-0.850037938,-10.98457807,28.17861099,16.03148735,0,4.342798575,-93.76514609,-30.61796037,-90.39829907,51.11610689,-208.5267337,45.05343595,36.10414763,56.40493341,-13.23431571,-12.73491094,,,,
490.1759997,1914,-13.3993157,-36.15975478,24.25031878,-28.94156782,0,-25.85147558,37.55534197,40.82497635,55.62409271,-11.58959638,98.37509009,-12.93989046,-30.09303302,-15.80479124,35.82519226,88.31732436,,,,
490.1839997,1914,-4.026685967,12.70924515,-19.36813092,27.96327404,0,23.89831244,-170.6587964,-58.22804148,-42.41731197,29.66392665,-120.3172236,21.1886428,-18.72341796,23.28624798,-43.66233734,21.02882266,,,,
490.1919997,1914,-16.22570525,-38.94910802,53.50892459,-23.36457593,0,-17.80213875,26.59520097,10.23322348,-40.2137716,22.81259119,-114.3227982,15.70765332,2.235670273,27.28492934,24.16959859,13.67158212,,,,
490.1999997,1914,16.94705912,7.63780776,-3.822938939,21.20990253,0,8.019970192,-95.36490768,-43.77394042,66.4110767,-13.19868867,54.17819775,-23.79083165,-17.89261976,-6.667556452,-1.752562788,78.4937859,,,,
490.2079997,1914,7.425771047,-6.774061531,42.21367669,22.20714598,0,18.16507798,-96.08978701,-48.06849895,-58.98928367,61.00572418,-200.5763004,55.95270249,63.16229442,70.25799855,-3.786784811,-12.72579239,,,,
490.2159997,1914,-6.844691597,-25.14948277,25.03441453,-25.6602294,0,-29.17552001,28.30279159,21.76932266,89.11307849,4.783338999,103.1848634,-0.636815367,-19.75518153,-8.665310136,39.54911395,82.85726381,,,,
490.2239997,1914,-0.325065016,13.37417988,-22.87047925,30.8762899,0,19.7327875,-180.9529811,-76.20061528,-15.85366979,32.0925552,-130.876546,20.40861823,-4.879305653,13.89613358,-53.57139764,8.03674362,,,,
490.2319997,1914,-16.66319037,-48.27972889,51.73609746,-23.41956197,0,-16.97081675,25.18333975,12.80829939,-5.105368241,19.72493924,-109.0205393,18.70105022,14.28648755,18.01091331,18.89793672,13.78714509,,,,
490.2399997,1915,17.38720789,10.58150533,-11.82782217,18.68246626,0,2.517194958,-97.26175044,-36.21012096,95.70348069,-12.18081238,61.55022842,-15.02390235,-34.12882741,-8.62143638,-10.992443,83.54947026,,,,
490.2479997,1915,14.38981913,4.506945957,37.36529432,33.67006063,0,37.2464316,-96.52829083,-49.87274674,-37.64328488,74.81015458,-200.0546027,68.90051184,56.09085486,73.43941369,-13.15983956,-3.653766656,,,,
490.2559997,1915,-0.993162896,-18.98193047,25.04197108,-7.974952275,0,2.237536623,31.3283851,23.66487917,109.4019142,30.11452721,103.6789575,15.77397495,-12.87800651,8.153772188,40.69693095,106.0759897,,,,
490.2639997,1915,-0.904185892,14.54745647,-23.57047124,33.21586071,0,30.06816824,-176.1380114,-67.24810468,-5.120603579,44.20526977,-133.0588435,24.43568075,-20.44319603,31.15895858,-53.98588747,30.63857727,,,,
490.2719997,1915,-26.91382436,-61.44719174,47.91082919,-33.40621676,0,-11.81351236,26.96109497,23.44704489,8.596845925,11.37726896,-103.5781353,9.958841921,15.73971533,5.54362878,12.64383386,25.76814764,,,,
490.2799997,1915,-1.798990662,-9.612131745,-24.04657912,4.880559986,0,-13.52158288,-104.8853548,-31.05970737,103.0317094,-32.70757757,58.54574015,-34.32739498,-29.32433918,-50.21476602,-29.89916004,76.63545639,,,,
490.2879997,1915,-7.64375665,-4.856170656,22.64054562,19.76581293,0,0.096276939,-105.846233,-55.80812015,-47.23673581,47.11968592,-222.0673809,39.42732577,20.71139104,34.37115497,-42.27407124,-28.14654544,,,,
490.2959997,1915,-24.58370267,-28.0845149,17.46021125,-14.94341617,0,-10.02589708,26.88651599,17.86706831,107.1446407,13.75302549,78.63137851,-6.471870814,-21.77264644,-11.98495177,25.04150435,87.09052753,,,,
490.3039997,1915,-7.800360764,6.690675391,-23.23635069,38.37740199,0,25.89601221,-178.9549175,-76.28348343,0.63910935,49.92946574,-149.9328574,11.78272513,-7.214509229,29.95089615,-53.66006122,20.10534688,,,,
490.3119997,1915,-14.7410298,-53.47394724,48.43188796,-22.81945337,0,-21.14717576,25.12163966,3.800784764,13.77272768,31.09045484,-100.5207546,7.103740177,10.30530895,24.32735729,24.34241821,20.85209921,,,,
490.3199997,1915,5.665287618,6.486606539,-19.39712456,16.78813675,0,7.091993885,-93.84692679,-39.74480489,112.1673421,-12.63417696,67.8470561,-25.42955556,-16.3622905,-30.36359961,-5.181470389,87.86607298,,,,
490.3279997,1915,4.06390614,9.323930979,36.17392284,32.36053438,0,27.23311651,-85.52166403,-51.49680308,-36.45978863,49.95084275,-219.1793427,39.99290776,41.56855164,43.21795577,-19.82235416,-6.491962797,,,,
490.3359997,1915,-0.051935454,-14.35013323,29.77323453,-11.83035875,0,-6.372685472,41.55826642,23.58336424,124.9140838,12.7246136,93.56507716,-1.333935116,-8.346129992,-2.942179454,46.11881819,107.686556,,,,
490.3439997,1915,-0.726788459,12.41017831,-24.90219783,21.76801125,0,22.41839057,-174.3763035,-63.43497311,17.43453164,50.44453902,-132.7393981,18.13278549,0.625452446,24.35011194,-45.3848253,28.41020442,,,,
490.3519997,1915,-31.96777615,-66.1702481,33.7051532,-48.08824077,0,-27.4604132,6.082573546,1.215956097,8.485143975,22.53566943,-113.0408387,-14.91837937,-9.945529766,3.939526704,0.767832225,5.216590576,,,,
490.3599997,1915,-23.91617406,-32.11899011,-39.27734321,-17.87966458,0,-20.50339183,-122.5969508,-59.32559577,94.48306474,-23.35222265,38.37379982,-56.72342643,-34.36464987,-47.74931169,-26.14142403,59.72095507,,,,
490.3679997,1915,-39.26075588,-45.45786589,1.752062556,-24.17012989,0,-17.72958727,-104.7138619,-54.68550345,-59.35968253,18.36241473,-245.041456,1.470083423,28.03709346,2.768285303,-36.19204573,-40.0859021,,,,
490.3759997,1915,-34.00053903,-53.51594407,-2.415626797,-55.29138087,0,-37.98652027,19.17814121,14.93141874,85.90587251,-40.21553423,51.54172908,-52.98874671,-47.72551156,-65.29598855,10.99822953,62.14572501,,,,
490.3839997,1915,-6.414195788,1.384821691,-25.44817131,18.50818209,0,9.301191811,-176.7168731,-77.6847783,-7.664575943,19.45756718,-162.5857687,-4.850383707,4.92008912,-12.248549,-55.32739203,1.702043505,,,,
490.3919997,1915,-23.55253641,-51.88235481,44.56713088,-28.7740966,0,-26.24195504,38.59578948,20.71904773,13.82333456,28.35377428,-102.3548507,7.02004125,33.69343737,11.58359043,29.41420383,16.82212485,,,,
490.3999997,1915,-11.89029017,-6.113533528,-34.79399526,8.216969558,0,-3.48418079,-91.57319756,-24.08390434,93.73513357,-3.473000935,41.91427166,-26.99811198,-47.12346815,-24.13090899,-9.944381905,79.0826488,,,,
490.4079997,1915,-18.26167,-22.12594019,16.35519636,6.675369149,0,3.573690842,-90.23667582,-30.18438063,-54.09773611,48.71088387,-240.3139407,30.24798615,15.0115369,25.0667747,-28.69927036,-19.49610698,,,,
490.4159997,1915,-9.742665289,-28.2618847,14.48527748,-25.71150185,0,-23.06539456,26.75415585,29.67988776,113.0211803,-3.29775925,80.98955269,-16.94996263,-19.50476648,-39.04094178,30.07315684,85.81502893,,,,
490.4239997,1915,5.891983528,20.71472006,-21.79409554,35.83602043,0,23.34241584,-168.8755667,-69.80915313,6.303544496,38.37100556,-138.5923598,17.77919647,1.786702616,7.122582651,-44.7493572,16.09171517,,,,
490.4319997,1915,-11.20178126,-39.35658059,54.92376943,-15.58797189,0,-8.995624558,42.32651038,26.28423671,15.86194991,34.75367705,-89.74002442,15.22731818,23.38665856,18.45579041,30.53523411,28.80475409,,,,
490.4399997,1915,8.793382332,14.25980281,-14.60837508,24.60998432,0,11.32091014,-90.6755913,-18.02238316,111.8463138,14.44061298,63.61715791,-5.688470692,-18.37712768,-12.69271454,-3.075064743,92.06999366,,,,
490.4479997,1915,-14.15969298,-12.22301765,17.99100485,12.87291891,0,14.20475944,-83.31027486,-26.11357965,-36.24577072,70.48335102,-211.4860734,54.48063468,26.7406017,46.09004491,-24.33240328,-15.33084891,,,,
490.4559997,1915,-23.66548588,-42.51272116,4.718035481,-30.07573562,0,-20.20830904,32.66706771,34.20221319,101.7875348,-3.273384629,78.40034987,-25.03242996,-34.66829618,-28.47618289,18.94757385,78.32600265,,,,
490.4639997,1915,-0.618075966,6.286105096,-17.39596824,32.66106973,0,19.85720167,-164.6158372,-61.27043129,-8.712499977,28.70068117,-158.6742134,0.193420516,6.075960744,7.131894309,-53.5056589,7.05009528,,,,
490.4719997,1915,-15.33791029,-48.3214998,54.6727754,-24.13975587,0,-18.48755324,42.82267638,28.66934431,14.8989898,28.38269281,-90.93715969,8.842778802,21.21535865,11.08720508,26.42585431,20.58760519,,,,
490.4799997,1915,-7.370515134,-3.162550199,-28.55788661,6.80491834,0,-8.039904046,-96.70257416,-23.17466042,101.109885,-4.455619898,55.67799573,-26.80027465,-34.81918403,-31.72057641,-17.03696794,78.67597108,,,,
490.4879997,1915,-28.05245849,-20.3846512,14.82519643,7.584158627,0,0.60535768,-86.94581131,-29.95043403,-52.47323218,47.28422792,-228.8574259,25.31010048,19.40456738,31.18941671,-33.08557333,-24.89499669,,,,
490.4959997,1916,-15.53878757,-25.33454989,26.14314556,-6.919598078,0,-12.57725144,31.77499316,24.68987863,94.80053809,-7.823955375,74.28880029,-31.40024135,-35.01200553,-19.66866596,28.22326854,80.94970508,,,,
490.5039997,1916,14.22187428,18.91240025,12.29661963,53.89534664,0,23.65220871,-159.4190774,-73.77293192,-4.43524577,35.70997443,-142.9975788,12.21111629,24.85107969,30.23838971,-26.07993997,17.20183471,,,,
490.5119997,1916,-12.77482635,-42.34510829,63.19985824,-21.88097022,0,-15.74108324,52.95778466,27.08607194,15.7164273,28.38486353,-64.62535621,19.62853861,42.45368706,27.95246056,48.63419879,26.66478225,,,,
490.5199997,1916,1.161242644,18.70611286,-23.79469509,16.07488604,0,26.27128195,-85.01009849,-23.57080841,68.90875465,-1.743330979,67.73161998,-11.64815932,-31.74427689,-5.778979478,-10.33586373,81.60371605,,,,
490.5279997,1916,-22.0838059,-13.37927091,25.77742578,6.722499845,0,21.95094405,-71.61487918,-34.84915539,-110.0549141,53.40959032,-222.6310562,40.4952241,32.48717033,61.31894231,-14.4275051,-11.95041376,,,,
490.5359997,1916,-32.41759081,-39.6682951,12.39885456,-35.52030348,0,-21.17255896,43.80293977,28.4274883,13.66888414,-19.33044473,79.37966217,-34.42433118,-25.19479453,-10.05185322,39.72456055,92.06956159,,,,
490.5439997,1916,5.996477056,26.51719315,-13.66749145,33.40427933,0,26.53892994,-154.0352098,-67.40329145,-113.0028748,21.71913337,-147.0780613,9.456148418,0.720852309,35.8517893,-41.77636858,19.1510879,,,,
490.5519997,1916,-4.749539076,-23.7740734,50.41335143,-26.0577368,0,-20.74078516,49.08677872,21.75503649,-94.2045513,35.88654369,-64.31184775,36.13141913,20.53810025,40.87103813,40.56245322,31.04899115,,,,
490.5599997,1916,2.306674703,20.95067028,-28.63425729,12.98015651,0,2.488978773,-90.81389833,-30.18106608,-40.90638846,5.170690507,63.46995936,0.201683902,-39.62858185,4.479632279,-4.150054385,80.3812855,,,,
490.5679997,1916,-9.333868305,-3.434338825,35.28078201,18.61419151,0,22.04483209,-70.72408165,-38.33599918,-200.9319387,50.20368979,-228.5776599,46.88688128,28.72582118,76.88106156,-4.458484111,-17.99845588,,,,
490.5759997,1916,-9.83710133,-22.47594018,31.02985906,-16.91050767,0,-0.328710968,43.12113898,26.60194488,-30.67489327,-7.406447577,89.79440489,-7.903558125,-21.80787433,11.99048877,63.00568865,98.81551659,,,,
490.5839997,1916,11.33121478,31.49433828,-7.201788961,36.20973532,0,34.4667549,-150.1029223,-59.55616056,-136.582887,38.22595078,-132.9990975,35.16572719,-6.122576554,47.82602324,-22.00186158,28.72023989,,,,
490.5919997,1916,1.649222116,-14.74988614,60.03359505,-18.88301401,0,-10.37671257,60.4655577,24.78290492,-107.781161,44.4851346,-61.48376613,48.15815254,22.04288161,51.21911483,48.46632331,30.04076178,,,,
490.5999997,1916,16.06117817,36.46173729,-7.677935679,30.57067754,0,22.61916362,-80.57884262,-33.30590788,-25.0614135,24.88367083,62.68374026,22.45729299,-23.043969,21.0595262,13.00308033,87.76951484,,,,
490.6079997,1916,-8.004544229,2.682846763,44.056644,24.42909794,0,32.64674866,-64.13365496,-36.28320326,-164.7117692,74.23033075,-219.075197,77.24719427,32.22628978,82.37628939,10.33007093,1.096682214,,,,
490.6159997,1916,-12.9111862,-23.09767685,28.70962365,-19.6355411,0,-1.565029377,41.20299085,18.42598064,-0.038393284,2.956811611,93.50222914,10.95196342,-15.9982545,6.220290183,61.13063613,104.6256893,,,,
490.6239997,1916,9.440492443,28.61639877,-4.357907882,40.49846504,0,31.92694819,-154.3612548,-75.40248443,-110.0003477,37.9381322,-139.8756436,35.69939524,-0.850630953,43.32371593,-22.78822661,28.63471736,,,,
490.6319997,1916,-19.87295644,-33.34469633,57.89158184,-22.22828392,0,-12.10260272,56.77274454,24.07059322,-77.97092248,35.82604175,-61.27433946,38.2612969,11.38232281,40.97358686,55.22355217,43.60105031,,,,
490.6399997,1916,-12.89858611,8.073322593,-21.18213455,7.998301273,0,6.800773375,-88.26910006,-25.08020505,-7.298520942,0.440291195,58.2657999,0.871853958,-33.57009062,-9.564372281,7.36068642,93.41865344,,,,
490.6479997,1916,-6.662995517,-6.711987583,35.62245445,12.20275744,0,10.45096975,-72.70847515,-39.13793669,-149.2246438,51.58690749,-219.3600642,52.46261563,30.48857012,51.86889536,-10.44148831,-13.12634924,,,,
490.6559997,1916,-9.114244898,-27.3222209,20.16713871,-25.02423953,0,-12.84816396,35.09920663,17.4418044,33.65760499,4.362752602,111.8077623,9.857375615,-1.921416241,4.371707321,45.99074728,90.78372272,,,,
490.6639997,1916,-7.370003636,14.01147917,-20.69412957,22.249754,0,22.33085676,-160.3428749,-66.00805418,-80.20495438,36.02164385,-132.7289218,41.6739336,4.346924062,42.44946532,-39.85690236,12.07081155,,,,
490.6719997,1916,-11.71420305,-27.37605536,53.61116045,-22.66824842,0,-19.62549272,47.39081471,20.95915835,-61.35352623,28.04750299,-68.95547426,39.82901614,7.780058392,32.42155178,28.18150848,17.941529,,,,
490.6799997,1916,11.54249777,24.11766787,-13.95856034,17.28421412,0,8.57334735,-89.21169965,-31.14488325,20.54635258,16.62220426,71.67018739,19.30003636,-14.44121819,4.44487858,-1.379498859,81.54458149,,,,
490.6879997,1916,-3.528310138,-4.722127322,37.37241158,3.816973239,0,12.60416239,-69.34725687,-33.39907445,-122.3933554,60.2902247,-194.0542569,60.93744808,37.26821336,51.88890631,-6.926287174,-11.86656811,,,,
490.6959997,1916,-3.192858479,-15.08026855,23.20133849,-22.22005645,0,-9.855220389,32.63611859,16.3122198,41.1581347,-3.361758173,112.4654174,0.583957908,-7.331795115,-20.45114493,41.35338991,87.77815919,,,,
490.7039997,1916,0.64470781,25.30172966,-24.18485676,29.0106007,0,27.53180718,-155.9298104,-67.13361624,-68.58205138,45.77117159,-136.4447823,46.29535477,15.06940532,42.39148303,-36.57025742,13.5966249,,,,
490.7119997,1916,-14.08053969,-30.29798686,34.38467335,-30.18822244,0,-13.12620616,49.26097269,28.37753331,-46.50669341,32.47403093,-69.21145739,37.44832015,0.264174155,28.9400725,27.71976464,19.73343444,,,,
490.7199997,1916,15.82642431,25.29976868,-27.59925119,15.75250009,0,24.16506981,-87.82082374,-25.39224087,37.40034056,12.8280965,62.91023969,7.395648509,-31.74139249,-6.6798228,-8.265321304,81.33850912,,,,
490.7279997,1916,-16.21303797,-17.53160903,18.86203616,-9.280018987,0,19.76708264,-58.63525463,-19.98589316,-97.56052398,56.35759427,-206.8075867,43.13028688,23.74727975,61.06570284,-14.30816704,-11.00256835,,,,
490.7359997,1916,-35.56879286,-42.25243043,0.578811883,-46.89090815,0,-19.56542211,34.8276493,35.23395722,43.84772633,-26.88900863,76.51045849,-38.71051115,-31.20063972,-31.90642338,20.79691986,74.16438988,,,,
490.7439997,1916,-12.07862563,11.32676725,-17.89161911,23.77494657,0,27.77253917,-151.4949034,-55.48194079,-75.09265019,29.45482339,-163.6495704,20.42738241,17.77909993,22.59409772,-42.6865602,5.337975444,,,,
490.7519997,1917,-13.28440552,-37.1796174,49.82292464,-28.10988542,0,-8.236361618,58.89898011,35.37354266,-40.01180916,31.82504633,-63.29708008,28.41783694,14.84117311,38.41392889,36.74661814,26.08429869,,,,
490.7599997,1917,12.1437386,15.50813432,-24.23734801,15.95565212,0,15.95906776,-90.89357899,-22.53966187,36.72511412,5.375592685,62.05796098,-9.419779568,-36.13944835,2.563995508,-8.281426257,78.97986376,,,,
490.7679997,1917,-6.785624013,-12.73597755,31.20984943,11.97290974,0,24.58996884,-58.21917395,-21.29764614,-94.78842972,62.09523138,-197.5203011,46.67839289,31.39002372,71.84218453,-2.069848445,-6.324049723,,,,
490.7759997,1917,-11.06805032,-16.84308597,22.76502634,-8.142042677,0,11.30014868,52.19828487,38.17529019,57.22677414,0.076225069,106.500451,-7.397313756,-17.15723677,4.173941105,48.39938472,97.77444875,,,,
490.7839997,1917,-11.24855633,17.88222514,-14.93271689,36.98550892,0,42.05888026,-132.6357585,-43.51425392,-74.75900382,38.19652186,-153.2339944,30.71904224,14.76090272,42.29486673,-28.16762321,28.43666424,,,,
490.7919997,1917,-37.07873996,-57.66878548,35.17001764,-38.3761113,0,-18.1297092,66.05834243,46.83110247,-55.2044575,16.7259647,-76.42068892,13.67506863,-1.415652382,22.34439316,36.33446457,37.49401835,,,,
490.7999997,1917,1.486169747,12.34517641,-27.44866877,19.53000444,0,15.90524162,-79.75415696,-16.0592092,13.85086067,-8.215836899,41.51377286,-13.06179579,-50.97290747,-17.03783553,-11.80623553,79.64075313,,,,
490.8079997,1917,-8.083147219,-5.556360773,31.84585691,15.73599847,0,22.30931275,-41.81376266,-15.81877983,-114.4400043,53.60309938,-212.4014596,51.64531265,20.88430895,59.66622077,-5.460456374,-6.697781137,,,,
490.8159997,1917,-16.84448821,-26.32467419,14.28828649,-19.08774086,0,-2.379825841,48.65200429,40.20825671,45.89365542,-3.520233981,101.360642,-4.967305085,-37.78729098,-3.645595445,41.37104913,96.05325696,,,,
490.8239997,1917,-5.336218264,17.78131709,-12.7226473,39.06069433,0,42.96012073,-142.3925196,-48.39640351,-73.93440642,42.31420637,-147.5765336,36.83163147,-6.326290502,43.70854483,-34.64360345,23.37807139,,,,
490.8319997,1917,-25.32256856,-45.10282122,44.04850715,-24.13269263,0,-6.330010113,65.03396947,36.63110169,-37.86933449,22.99715087,-65.4360632,19.40266787,0.130265414,35.33468035,39.02422829,40.03414744,,,,
490.8399997,1917,1.987933348,13.42382993,-26.71646861,22.02021121,0,18.21491487,-83.45480223,-23.40195849,31.88399992,-3.07907464,46.88176587,-7.731449443,-36.58328824,-5.613119914,-5.066564252,87.98350742,,,,
490.8479997,1917,-5.000169127,-3.158639587,35.14124856,14.89593695,0,17.44105953,-47.44008059,-20.49961047,-95.40195724,64.43430081,-198.4502184,66.3795944,29.10504325,62.70144052,3.063653544,-0.969888855,,,,
490.8559997,1917,-12.9333654,-26.29523268,10.49981538,-25.81558621,0,-14.55424123,44.21747819,34.08697314,64.7900971,0.39266056,108.4997502,-3.108982369,-39.23691975,-8.048426275,45.23165886,94.54674453,,,,
490.8639997,1917,-6.865468866,6.922621968,-23.74581544,24.37551342,0,26.01403095,-143.4225523,-55.07509634,-59.37461971,30.5986725,-158.6469746,17.88293971,-12.72202337,28.33733289,-37.70019836,14.63449282,,,,
490.8719997,1917,-23.69288396,-46.92774583,48.68119187,-25.8340834,0,-16.52438925,66.85438865,28.96676665,-10.1071904,23.41819289,-59.96550582,18.64104991,7.178197972,27.12024127,41.8515962,33.48994671,,,,
490.8799997,1917,-3.471723593,11.11834597,-17.65174692,25.6223028,0,9.714935304,-78.04001564,-26.57472582,61.3116836,6.64550861,58.62368356,3.260486434,-35.36965518,-6.962624992,-1.618349302,86.33309406,,,,
490.8879997,1917,-21.04456477,-14.10660825,37.62722125,17.330977,0,18.11269089,-41.09627541,-22.60625869,-80.53424707,60.61882504,-200.9328868,57.47931886,11.6274206,45.65693652,-3.7028367,-1.186141867,,,,
490.8959997,1917,-25.59432501,-31.19897809,21.26590999,-12.85846957,0,5.330447784,44.34706338,27.15234697,79.80761345,6.301489836,107.6061548,-6.021997979,-31.00232485,-11.39431988,45.84817981,99.44401805,,,,
490.9039997,1917,-7.097625916,10.58749238,-4.256543071,40.13733477,0,43.87152315,-140.0827508,-54.60989195,-38.2937999,48.21688765,-149.2879915,29.96641154,5.206523863,42.12559533,-24.13021746,26.4868402,,,,
490.9119997,1917,-20.51930595,-40.90324972,57.48549364,-18.53410243,0,-5.04946579,68.52055503,34.1429257,6.237076258,31.57726661,-51.12401543,20.72285958,4.369076627,29.53701022,46.61143535,44.29552036,,,,
490.9199997,1917,-1.67839836,14.91826806,-16.6360263,30.3230029,0,21.26659063,-85.47382339,-31.91202436,74.50846411,18.39118998,58.08090566,2.642769586,-30.25284425,0.613736903,1.140062935,89.32438937,,,,
490.9279997,1917,-12.63484368,-10.89219773,44.93681923,20.33548998,0,19.08783662,-43.52293832,-29.13711744,-54.76140155,75.66853084,-192.1590054,63.03366909,30.44649534,60.63122022,10.74824391,0.97878918,,,,
490.9359997,1917,-23.08566822,-29.40752212,20.49673753,-24.48664833,0,-6.127892943,47.87541291,29.00757609,106.9113708,7.307416146,119.5691966,-7.846287736,-30.07182474,-11.61879826,51.50797516,102.8550139,,,,
490.9439997,1917,-20.64698152,3.335133058,-17.97860223,15.65211316,0,22.88933201,-134.2681602,-54.8973347,-24.83628249,34.67846136,-154.6994262,12.59760723,-7.602475389,15.95501877,-35.63455696,20.90105282,,,,
490.9519997,1917,-44.1925393,-64.98938721,39.33304538,-46.85893472,0,-32.93972617,71.9794457,31.54890152,13.49283362,12.02739174,-64.77579076,-4.021164931,8.00880203,-6.916524294,31.6383789,29.2277709,,,,
490.9599997,1917,-26.37085626,-11.77984553,-37.20982745,-0.952573966,0,-5.847983604,-86.83163353,-26.24756279,69.18278636,-2.825901902,39.12816786,-24.12724242,-33.88818473,-22.98379087,-19.38905029,72.35276437,,,,
490.9679997,1917,-20.90752028,-18.0702866,33.00758151,2.034089581,0,0.922938365,-45.32391688,-28.34917106,-64.23315168,58.46504938,-209.3304226,41.2415916,15.68175562,44.41005227,-12.04189813,-13.59331127,,,,
490.9759997,1917,-21.18089356,-31.61916209,18.69662148,-25.28044047,0,-13.86431136,45.78136157,20.04910117,110.9413711,0.847068357,106.1910657,-16.56908593,-25.44381707,-24.07931635,41.32468456,90.98043781,,,,
490.9839997,1917,-23.57655051,-2.490544125,-15.75633531,14.82617147,0,27.49486635,-134.2287889,-54.95609548,-18.44824813,33.0344735,-161.4594907,3.066124101,-6.529812259,13.70131826,-34.06145138,16.65855232,,,,
490.9919997,1917,-35.43209784,-52.98381677,51.92061349,-39.36756204,0,-10.31586907,70.7891607,34.64215792,20.02983037,15.28726439,-57.05853172,-17.7414024,-7.582367002,-8.110050867,41.34506077,34.7534399,,,,
490.9999997,1917,-13.69988753,2.65888824,-20.60089727,13.62084518,0,25.89290874,-83.13251519,-19.98035708,86.00106942,8.742389181,50.45727883,-32.66578179,-22.92595688,-20.3204126,-3.15174061,83.04728834,,,,
491.0079997,1918,-36.08061101,-27.78224899,25.33501488,-4.422095892,0,11.86666646,-43.03976566,-14.06143744,-54.58403033,64.90935292,-202.9859568,25.33309844,33.01184336,53.77821222,-4.547252716,-3.799351533,,,,
491.0159997,1918,-51.17955021,-51.43499916,-13.98533899,-46.45837728,0,-43.04072348,18.14307594,12.07735627,86.27481552,-5.499402095,89.96855566,-44.5359531,-59.48365648,-33.10192073,18.70872939,80.19533752,,,,
491.0239997,1918,-44.51458459,-18.12526188,-42.65473941,4.457593676,0,-15.23714076,-174.1245144,-89.85151306,-52.95608222,26.16585592,-186.2518513,-10.2625822,-38.85818854,-3.97080113,-73.97508758,-13.29582971,,,,
491.0319997,1918,-60.94757973,-69.89205965,34.75377144,-42.94310651,0,-41.93356796,46.90585477,2.721486519,1.88737029,8.210334506,-70.81804478,-12.46428892,-16.73495613,-13.2546604,14.51056026,9.685295207,,,,
491.0399997,1918,-45.90622161,-17.49220152,-38.22838465,6.062080171,0,-4.485468774,-97.30676933,-49.22464681,62.75397051,-15.49566288,23.85295311,-40.73426359,-60.45461481,-41.586587,-23.5656872,60.14066829,,,,
491.0479997,1918,-48.74467018,-33.76832194,18.6664931,-2.631436644,0,-4.875266929,-47.13846985,-45.2434386,-69.55683962,43.45160328,-218.4921028,15.23529206,9.525339005,30.62021584,-19.63158916,-22.44166991,,,,
491.0559997,1918,-44.70973007,-37.20193892,3.141452642,-23.47830276,0,-20.64910461,38.41503426,5.257783729,101.4444488,3.206743983,103.9787164,-28.25202698,-29.71530185,-23.37347189,31.07911046,81.71989874,,,,
491.0639997,1918,-34.02534319,3.180739599,-13.90419288,40.68647697,0,31.4706916,-133.2240727,-73.41441608,-34.95198806,46.40773013,-170.1374562,12.3313202,-12.15411925,20.43766648,-41.00536641,8.392081248,,,,
491.0719997,1918,-50.31193737,-47.63211743,47.26569018,-11.52260654,0,-0.92027703,75.63675626,12.36180675,7.799186573,34.31850583,-55.3120703,12.19101571,-0.92413769,24.63622705,43.7324784,40.99046975,,,,
491.0799997,1918,-35.44022329,1.917667024,-34.89240917,28.37434016,0,26.6682076,-86.07741295,-41.89151989,68.83007854,19.5943625,39.73824296,-2.068659735,-28.23642065,-4.814474021,-3.038209579,87.25594264,,,,
491.0879997,1918,-39.76021426,-20.85114404,27.6613639,20.08735438,0,21.15737062,-37.27871213,-31.07628005,-62.92422876,56.94769431,-206.6573529,41.26715255,24.20637585,41.09344138,-5.604198628,-1.266264397,,,,
491.0959997,1918,-40.13839595,-29.1853327,3.098157433,-7.709044413,0,-10.70107182,44.16326653,15.46146756,104.8188152,-0.025816933,106.456381,-16.62795069,-25.77608057,-12.46034703,35.88833632,93.34256572,,,,
491.1039997,1918,-31.04885267,4.781322915,-23.96185619,36.07200932,0,22.03535197,-127.0524856,-62.06002233,-22.53953139,48.94181973,-169.0143302,25.44536594,-0.848537876,24.36385611,-43.59169176,5.999932006,,,,
491.1119997,1918,-47.07723254,-51.59079476,40.15258427,-24.69044148,0,-8.770282163,78.72351759,20.82342433,27.97986094,24.12531532,-48.08563148,8.266390133,-5.372418615,0.519867995,31.34177468,31.54617343,,,,
491.1199997,1918,-36.1610267,1.135071353,-35.61177516,25.92484086,0,22.34413747,-86.11957887,-46.8795973,81.33983289,4.804495333,39.63678659,-15.12903668,-37.70429175,-19.60182982,-20.81297697,72.61316924,,,,
491.1279997,1918,-47.53220627,-23.49476134,25.47287955,23.95332321,0,10.73126982,-29.99575371,-33.1397548,-58.37206379,62.52061036,-214.534737,44.08981804,8.20510816,49.1779135,-12.65435389,-10.55111792,,,,
491.1359997,1918,-38.95219397,-28.20449602,13.0061115,4.605274878,0,-4.010040098,46.2012618,16.33274973,106.7354924,16.26355759,101.3588217,2.926591923,-40.82450449,2.516864827,43.9952796,97.15782634,,,,
491.1439997,1918,-24.84813463,8.282042766,2.364380945,50.15304007,0,35.91791991,-129.940658,-63.94766838,-16.63408029,60.43477348,-158.886149,48.37756569,18.59294732,42.09613772,-24.71184431,17.19425619,,,,
491.1519997,1918,-56.10263583,-63.54771581,47.91707669,-28.93757612,0,-20.05462457,77.86756205,25.51313753,30.29047509,20.40635085,-42.8527156,13.24530903,5.716431074,3.633599665,46.60841231,40.30852626,,,,
491.1599997,1918,-37.35208117,-5.35396972,-33.97441919,22.1953732,0,14.1856782,-89.65164001,-42.90206717,71.9876483,-4.633539189,24.81885394,-20.93877942,-47.99333081,-30.529451,-10.88941697,71.31841486,,,,
491.1679997,1918,-39.03037605,-17.51394531,40.16449823,27.30708586,0,20.52038251,-29.81439911,-29.29405565,-65.22595721,61.4617788,-212.2866892,44.61355686,33.51676152,47.68652153,4.952428223,-7.030347257,,,,
491.1759997,1918,-43.26964963,-25.61894325,11.33894446,-3.50827141,0,-2.799449901,47.09031865,22.23089076,83.233441,4.970886827,104.3625293,-7.491255005,-25.29971652,11.79034896,51.09175084,104.5459273,,,,
491.1839997,1918,-24.41488114,18.60385589,-12.13673398,43.67850132,0,32.18116341,-131.1429401,-63.44097155,-71.61746238,41.15468178,-172.980278,29.8002386,-5.878740179,58.92297566,-32.78659286,17.53271478,,,,
491.1919997,1918,-46.14087707,-48.45789783,41.92217992,-22.43109106,0,-17.14605567,79.1837291,29.16800397,-31.66224801,24.73010719,-40.35263729,23.01177904,9.2079927,39.55463729,50.09089878,47.24486592,,,,
491.1999997,1918,-37.04878859,-2.678019187,-42.24826555,17.55040102,0,13.25787778,-90.21721218,-37.24578467,-7.861882476,3.353600932,26.79735287,2.260906826,-44.06706085,9.177315447,-5.306842697,77.9043712,,,,
491.2079997,1918,-43.19861739,-25.93496908,24.93811439,-0.038834683,0,6.680885858,-38.25877535,-36.56349499,-171.7261708,39.16707588,-225.5785461,39.34357833,2.220491217,52.79247969,-12.40288256,-18.09267804,,,,
491.2159997,1918,-44.85718013,-41.62317469,4.052160782,-32.62493007,0,-18.93623411,36.64171847,7.115770126,-20.35018055,-20.61331739,98.14792486,-24.37833795,-28.94309555,-2.335602713,31.73099232,84.96997255,,,,
491.2239997,1918,-25.28881705,4.525447345,-10.86960042,30.81215516,0,30.31568237,-130.2941025,-74.12034349,-158.6001147,27.78489521,-170.9413485,18.49682721,5.680417839,54.60671615,-34.99900831,2.477473175,,,,
491.2319997,1918,-36.55064604,-45.09472904,46.57306578,-17.04178596,0,-11.7565239,81.26343785,13.35539762,-109.2989321,6.558296098,-45.60560139,4.24989124,1.792701767,41.84433023,44.80974786,37.25588819,,,,
491.2399997,1918,-25.03443854,2.535039962,-36.98267363,22.3571175,0,10.59818727,-89.18930197,-54.63398909,-61.04209773,-6.155021912,25.65571,-10.35112315,-36.16504644,23.66263578,-2.834295926,78.22098321,,,,
491.2479997,1918,-37.04734024,-24.312901,22.40900785,5.672737894,0,1.535353544,-33.21536875,-37.23640512,-187.8246551,43.34134339,-210.7974998,37.71198775,14.5833882,69.87625993,2.395034588,-7.562118493,,,,
491.2559997,1918,-29.31586323,-24.27456586,-1.299457233,-6.182746543,0,-15.99982157,29.70955808,12.61262462,-20.62905487,-11.01699579,101.7473977,-19.54290426,-37.07597006,10.28180324,30.72381734,94.91767362,,,,
491.2639997,1919,-13.07712703,16.70098231,-19.70897897,43.8343419,0,29.58823121,-144.0223043,-72.24731303,-142.4579811,47.70440552,-170.9352546,41.48878425,-15.81184631,69.11374066,-41.36842604,13.95414498,,,,
491.2719997,1919,-33.8974743,-42.19349038,33.39494866,-31.38936157,0,-20.05334604,66.57733238,11.0122033,-79.26718101,21.42277624,-38.97325354,22.30214975,-11.63287074,39.08756524,37.98152337,39.95115665,,,,
491.2799997,1919,-15.00883681,12.96697683,-42.75512036,12.84848775,0,5.444972222,-105.2072287,-60.5640148,-29.32460408,3.098767665,25.68462764,-8.627619661,-29.29076235,17.86774715,-15.02207083,63.91598603,,,,
491.2879997,1919,-32.74308269,-31.32023666,14.41908623,-11.24459989,0,-9.713435671,-40.36732149,-43.39527874,-146.9694176,50.78338101,-205.8245829,36.99463116,10.05730092,66.49142513,-6.569278662,-28.04635302,,,,
491.2959997,1919,-45.52170985,-54.88369276,-20.46916321,-49.5805846,0,-41.42613674,27.14259611,1.742267244,8.589982378,-32.57849044,92.34352941,-47.73483081,-58.34957275,-25.69251689,17.06572838,63.4651137,,,,
491.3039997,1919,-28.5914082,-6.514074527,-28.53361357,8.147102436,0,3.500289064,-142.3977181,-84.07539506,-127.1422119,15.88678029,-194.7284259,-5.638577453,-12.09353163,33.56009961,-50.73570004,-21.24677356,,,,
491.3119997,1919,-37.72294033,-54.31003483,36.23053682,-38.34227054,0,-33.44891168,70.33172951,7.543478927,-58.32238777,10.75462561,-45.4406036,-2.066652623,0.184358365,26.31975308,39.34554306,19.69688304,,,,
491.3199997,1919,-23.49140663,-5.890085208,-50.0140039,1.181622076,0,-0.125219548,-103.9264374,-51.76299505,-19.35822234,-9.692652443,22.29272059,-23.17152291,-51.81494261,-5.747638053,-21.61241341,57.2547044,,,,
491.3279997,1919,-27.12830813,-33.36138493,12.032144,-22.31806129,0,-7.083967344,-37.92637696,-35.678165,-143.8519647,36.64994518,-207.8514453,22.38041331,-8.238536512,49.06466035,-10.78579344,-24.2665471,,,,
491.3359997,1919,-21.08026271,-35.48124316,-10.04872233,-37.57736594,0,-26.47345589,28.52010954,0.110792605,23.72272171,-23.82896789,106.274718,-42.01830894,-43.77628769,-14.73874063,29.52128615,73.05769441,,,,
491.3439997,1919,-19.58625366,-3.659554486,-31.46312442,12.53398105,0,14.08236642,-138.711157,-80.21516768,-117.1594462,19.88567392,-179.3227846,-1.727067023,-8.930874612,37.93189392,-45.68210962,-11.63048354,,,,
491.3519997,1919,-43.46896824,-66.49143691,16.64576958,-57.80982573,0,-38.39526695,74.59247488,15.56908664,-61.12702192,-2.950494287,-45.76239521,-19.62420821,-16.90712249,21.47320111,30.77024491,27.35022169,,,,
491.3599997,1919,-37.0926456,-25.99916514,-66.78356445,-26.14491467,0,-14.72971585,-99.93820785,-46.96597348,-18.8320168,-24.68257064,11.03621586,-47.16151602,-51.99105184,-5.546481866,-27.25210246,53.17729404,,,,
491.3679997,1919,-52.83827941,-61.00979575,-0.44413371,-46.33565102,0,-28.55573957,-39.65713897,-34.37763653,-145.2864514,4.531672594,-218.7377716,-16.06657154,-12.93012726,21.52851386,-28.65095917,-42.51291244,,,,
491.3759997,1919,-35.16546222,-45.69120731,-14.3707404,-47.3144902,0,-41.40243005,16.2459046,-8.687644468,20.88645766,-50.12111683,93.96046064,-75.2680475,-63.30479266,-51.93167901,7.031959795,52.30626817,,,,
491.3839997,1919,-13.36377292,4.842573137,-20.4802848,16.68690858,0,18.88029626,-139.5620674,-89.39888172,-94.36097783,30.34040521,-178.2363357,-2.444671973,0.237374316,29.95584884,-38.0872122,-18.64022842,,,,
491.3919997,1919,-41.39929295,-60.95037384,25.46194784,-53.58836212,0,-36.92541373,77.19535191,12.8073225,-26.55433582,9.821211604,-30.56732109,-15.69014275,-6.98139167,20.21970163,41.51080286,30.93072954,,,,
491.3999997,1919,-30.39150506,-15.11484791,-56.56867948,-13.98091899,0,-19.46009059,-106.068765,-60.21376939,3.445889661,-22.04383092,20.40308465,-46.39637294,-54.99337437,-13.92278043,-35.32348571,47.71259356,,,,
491.4079997,1919,-35.60374756,-41.79617744,14.34113707,-23.97608112,0,-8.751065271,-32.22120418,-50.12144655,-113.7010153,23.50847266,-202.0461075,2.542699334,9.649906163,32.91547509,-20.53846722,-41.68302208,,,,
491.4159997,1919,-30.18091843,-39.12750546,-12.75789673,-36.64542856,0,-19.62040239,33.89732863,-6.82905029,51.89116563,-25.75424365,109.905156,-50.0491131,-48.71137623,-20.49293352,22.15547729,69.40958664,,,,
491.4239997,1919,-15.1453304,2.379746655,-27.8407491,9.008948129,0,9.56939452,-130.3332568,-85.40579608,-85.5306641,29.2273578,-172.1338767,5.389978316,-15.34607296,35.95406334,-46.43110739,-12.40741557,,,,
491.4319997,1919,-41.66905427,-59.20120994,17.28604411,-66.41739375,0,-44.32243988,77.5132024,3.308359401,-19.65217175,-1.761403227,-22.45967422,-18.88337116,-10.29180169,-5.544940756,29.01522894,21.88082744,,,,
491.4399997,1919,-38.19879615,-14.12439858,-62.1548502,-20.3670896,0,-15.22625354,-106.1259039,-67.69209462,6.092975378,-25.85312376,16.94875497,-53.72950735,-50.83105637,-30.64087214,-40.06991889,43.52142593,,,,
491.4479997,1919,-44.20052955,-43.32526371,13.47565732,-27.33202089,0,-22.68922886,-35.50549562,-51.50524457,-122.4794223,19.9486713,-208.0965515,-5.671060877,4.733825766,37.91277418,-21.84243742,-35.56682118,,,,
491.4559997,1919,-35.03650084,-44.46712051,-21.29348591,-50.14861092,0,-44.23864834,19.4423157,-13.21255485,38.57361248,-33.89469987,105.1672047,-55.00630488,-43.90170618,-28.49930145,18.49431385,66.22462346,,,,
491.4639997,1919,-25.90491051,-9.801627054,-42.89889612,-7.193636532,0,-13.21728101,-145.1403566,-89.29237233,-105.9996818,17.31394159,-182.2880661,-5.280365474,-22.13403024,17.21974134,-59.56102045,-29.17550913,,,,
491.4719997,1919,-48.42928366,-65.85033416,17.50477371,-59.37887717,0,-55.60598078,69.95606169,-1.90020668,-42.52887409,-7.404517432,-26.34848448,-25.65575047,-23.64412603,0.550258109,22.47268936,10.0840504,,,,
491.4799997,1919,-27.73868855,-8.278942609,-48.28484497,3.396806689,0,-3.756171075,-105.2785338,-80.61423657,-8.597570118,-22.57304682,17.31036254,-46.81199997,-35.9503471,-17.33040839,-27.62073412,41.92677011,,,,
491.4879997,1919,-28.87010319,-31.76251509,21.3066108,-12.39108642,0,-8.856059912,-25.15620311,-58.64632287,-115.5687515,32.48240533,-199.497271,7.752344362,9.470451127,51.08335672,-1.09113478,-26.81347719,,,,
491.4959997,1919,-35.58344004,-41.11842334,-21.35867428,-48.36741384,0,-41.22774371,29.71078542,-15.18017554,55.72982831,-25.89296142,111.6540183,-51.89396657,-59.84342921,-12.9927001,30.13497081,72.74100515,,,,
491.5039997,1919,-39.83019585,-22.05182732,-41.82629877,-12.47504943,0,-5.014017161,-140.0042031,-96.47775186,-96.56381273,-2.818400086,-187.9604953,-27.62825052,-20.87840508,9.671493243,-57.28273888,-32.77138678,,,,
491.5119997,1919,-61.99670886,-85.02996884,11.23416422,-75.01580429,0,-47.18107699,68.11055269,-10.2615107,-33.39552609,-36.08461263,-37.11031382,-58.51181421,-20.51329802,-16.84680581,24.77444557,10.92313067,,,,
491.5199997,1920,-42.53385158,-28.22005825,-65.69773321,-24.74570814,0,-12.74514502,-109.6384661,-80.72607496,4.68860207,-34.88975735,2.499921157,-71.88903108,-37.53346257,-27.28407007,-30.18872983,37.91285963,,,,
491.5279997,1920,-46.63027384,-55.68966711,4.731051451,-38.2164725,0,-21.31931618,-29.49165944,-56.57458545,-106.1439625,13.12353231,-211.4979097,-20.79938019,11.05306181,23.87544751,-16.08426828,-45.67176792,,,,
491.5359997,1920,-46.85076511,-62.48533989,-29.44241645,-58.54853638,0,-39.72423447,26.10550629,-18.03260737,56.4458887,-53.49124571,98.92497633,-80.21981143,-68.67845506,-40.22616657,17.41848286,60.41524242,,,,
491.5439997,1920,-36.04291439,-23.49002581,-37.01460096,-7.625502036,0,1.834663157,-128.1589595,-93.91168691,-84.45618154,-0.558202112,-191.4314914,-28.02300113,-18.65473104,13.67691792,-49.79266788,-30.72013633,,,,
491.5519997,1920,-62.06024703,-83.8062963,11.1900744,-68.43844456,0,-45.35799497,80.57566944,0.422284769,-10.25188975,-21.23354737,-28.83097632,-45.16700238,-12.94885097,-16.28224197,29.60866601,12.13176553,,,,
491.5599997,1920,-52.59154768,-38.82785861,-75.83045599,-18.7230851,0,-8.026954905,-115.331834,-79.59889912,12.81705116,-40.80033919,1.099868525,-70.99428762,-62.77007028,-33.73574918,-43.96491435,33.30603373,,,,
491.5679997,1920,-48.01914956,-59.38789408,0.643961948,-26.93328011,0,-15.75654773,-40.11299058,-68.70547413,-98.91172944,6.760559145,-215.851358,-19.81028808,-11.97493564,33.19620885,-27.17152575,-47.53398826,,,,
491.5759997,1920,-49.03095291,-63.43774461,-30.63924072,-49.08329309,0,-38.59762519,15.2401195,-25.35533874,73.49033585,-47.05134452,95.35823181,-72.97534267,-50.86302311,-40.21099049,11.64481192,64.12955827,,,,
491.5839997,1920,-35.63638933,-19.83167284,-33.39271784,7.567773905,0,13.52803307,-139.5943378,-99.40883907,-68.83892369,10.75820426,-190.8047516,-19.03157032,-3.709794281,14.10100781,-54.31879081,-20.70678522,,,,
491.5919997,1920,-48.84305097,-71.35931864,19.63622209,-50.8900339,0,-36.01049189,66.72369676,-15.42991677,13.37495198,-4.479600395,-18.81517985,-27.12977626,-20.6319585,5.028564418,35.04036436,23.99368465,,,,
491.5999997,1920,-43.79895968,-35.38301126,-67.73158914,-21.92002841,0,-15.4933281,-120.3858433,-83.75371213,47.48253585,-36.37085305,7.345045924,-57.25970594,-46.76874206,-35.67904396,-37.97696606,35.70677634,,,,
491.6079997,1920,-47.1174707,-54.6314413,10.68499158,-36.07537973,0,-13.78264052,-29.96042014,-54.89398234,-67.98125102,-4.300078581,-205.5194102,-18.02437972,12.01469507,12.46660725,-27.69676795,-48.74497238,,,,
491.6159997,1920,-49.42912431,-55.6386648,-21.96274485,-47.51027432,0,-24.92896749,18.20527198,-21.66829183,92.05977084,-47.44783787,107.3145789,-65.62929075,-54.61172504,-33.80941802,14.23978448,61.89062571,,,,
491.6239997,1920,-34.51350435,-25.59721169,-30.94764285,-0.529015294,0,15.59378726,-141.1938125,-101.3096159,-59.35270343,4.447062407,-188.0476927,-20.37678466,-7.581813653,9.407777251,-54.3037339,-28.05976828,,,,
491.6319997,1920,-34.99747381,-62.48134985,24.40653137,-55.02865729,0,-35.25891208,71.13092968,-12.37107184,22.42094894,-18.53554838,-9.72583885,-38.02999595,-8.163872276,-22.5109195,32.4867571,20.67196782,,,,
491.6399997,1920,-25.87759458,-10.05592646,-54.4758831,1.321037357,0,0.106201437,-111.4020289,-79.66308338,61.59866759,-20.87904322,29.2450283,-47.63621786,-38.08808918,-30.82069145,-24.44816174,45.03597497,,,,
491.6479997,1920,-35.63558809,-42.3938488,20.12593281,-10.49695826,0,8.347875707,-22.53452363,-44.29437151,-53.10393654,21.76142275,-181.8331612,-0.517031698,8.915134483,33.94534047,-11.63967284,-26.66900118,,,,
491.6559997,1920,-31.58628509,-42.30087877,-18.19958915,-33.2945414,0,-12.821206,17.11191091,-10.86769181,109.7958192,-29.47682477,126.9273286,-49.04049752,-48.41888224,-22.44254424,18.0116624,85.90661034,,,,
491.6639997,1920,-32.35325058,-21.54355132,-38.64966781,-0.868922,0,10.31745619,-137.6609836,-88.44775604,-36.22240032,17.74492466,-171.2066326,-6.553032475,-6.090288573,19.19717146,-55.96003332,-11.85010938,,,,
491.6719997,1920,-37.253778,-60.38452718,17.55903118,-53.9331763,0,-30.97039756,74.65246226,0.641999609,31.11469928,-18.44066612,-8.759571882,-37.62585387,-22.92094843,-16.11332276,17.20917292,25.50142662,,,,
491.6799997,1920,10.69167308,26.21349923,-35.13557243,24.5027031,0,19.37926603,-114.867823,-83.74198572,74.24810183,0.778986034,37.65751554,-20.93206001,-26.48773743,-15.22224083,-30.52666511,54.10698936,,,,
491.6879997,1920,-7.056416647,-18.66980146,30.17921698,-4.828123008,0,-3.018962439,-30.22617288,-65.93119204,-18.21334077,60.5603894,-148.1998825,43.45423517,32.28644082,40.27741758,3.174208073,-12.04277359,,,,
491.6959997,1920,-33.36507654,-48.87327793,-29.8811379,-50.61429796,0,-50.3212928,-7.719001917,-55.66933339,118.2485335,-33.81410266,126.6360359,-52.22955692,-57.23543589,-46.3761718,8.539495507,68.29953276,,,,
491.7039997,1920,-30.11909757,-19.78166508,-37.96608623,-5.556670669,0,-8.551618339,-164.5101743,-144.3834108,-43.33506848,-1.59825679,-186.1956889,-23.55731246,-8.564872009,3.079451683,-75.11948565,-41.03783446,,,,
491.7119997,1920,-52.9739117,-74.91956547,9.499675733,-66.74298891,0,-55.04152843,58.69745333,-40.92592007,33.77307021,-22.31478073,-0.456923187,-33.71809852,-19.06053662,-20.94583303,15.94760862,15.70854002,,,,
491.7199997,1920,-26.13284364,-12.93334562,-63.90646042,-3.722518414,0,-28.22154943,-129.691188,-119.3185291,47.57896568,-32.73140611,13.95220762,-44.59941505,-58.62861111,-41.19257985,-50.27872039,30.00716475,,,,
491.7279997,1920,-27.20586394,-39.91825349,18.18840556,-16.22543948,0,-25.62489082,-31.20764998,-89.32361408,-47.20459297,20.5382251,-183.1982383,8.440123026,21.15721846,14.9396854,-18.97570414,-35.50998464,,,,
491.7359997,1920,-41.70162185,-53.62150314,-29.93387412,-50.33527148,0,-46.37884079,10.53950872,-45.64693038,116.2329823,-38.95912252,123.1154958,-52.09743458,-35.75868617,-54.18708192,17.08936599,74.59215833,,,,
491.7439997,1920,-23.8908689,-15.09691667,-39.58146684,2.560233418,0,-0.585545999,-148.2559489,-127.48108,-45.94749186,-1.026491881,-185.4619484,-11.96893897,-5.84449722,-3.257994694,-67.95976356,-37.08708665,,,,
491.7519997,1920,-19.93582711,-47.14147814,26.63643307,-36.59774752,0,-25.08629381,62.627298,-44.61884211,47.80072175,-6.897332888,9.032846924,-13.72929521,-0.110838439,-6.75102083,21.90653137,16.10623905,,,,
491.7599997,1920,-10.45177234,5.256987724,-43.06041062,17.46400058,0,7.521945341,-122.091853,-113.8625853,81.57203685,1.127017799,39.52269287,-10.79963838,-22.85801576,-11.18017413,-24.40890375,49.76084426,,,,
491.7679997,1920,-31.91833161,-38.33386143,23.43949287,-15.29412164,0,-11.76062576,-23.65952318,-71.9797844,-34.61580174,25.34497286,-171.4799481,22.5347584,23.92047838,24.1213814,-9.695953326,-21.72963407,,,,
491.7759997,1921,-23.97172688,-29.34825134,-14.50303904,-35.19578625,0,-32.58080577,7.945498888,-42.82805271,119.2057699,-35.11176453,125.7248612,-42.5147181,-46.54428286,-43.31318186,11.8646954,72.36470341,,,,
491.7839997,1921,-10.3864759,4.683999048,-18.68739207,17.44572187,0,12.99147771,-142.8776966,-115.7822175,-25.1764019,29.86524764,-168.1751605,14.9448503,-10.51966147,25.41509608,-45.6636405,-23.75904277,,,,
491.7919997,1921,-36.79205043,-62.12655818,20.45648815,-50.32013665,0,-37.23766578,72.5790775,-12.20453783,60.42121904,-2.999022747,9.307583205,-11.30634834,-8.251115278,-4.138124863,34.61391495,31.86431007,,,,
491.7999997,1921,-18.66359789,2.758081031,-56.51152615,2.461519372,0,-7.342748974,-118.5526257,-92.14459394,76.37683469,-11.20766216,17.62908107,-27.18453323,-37.42768164,-30.6401105,-43.56013525,40.38105976,,,,
491.8079997,1921,-14.88394534,-13.05609682,28.91913787,-8.787703383,0,3.357161506,-19.04433061,-73.41893113,-25.9743848,49.54334103,-164.1335123,42.20534689,11.99464147,24.54068615,-10.25294722,-33.23358106,,,,
491.8159997,1921,-14.83018232,-23.74853889,-13.21234367,-33.67375331,0,-14.98434731,13.88674513,-47.70550804,138.241616,-14.96439665,144.9637547,-18.50924988,-37.34788048,-45.28186586,21.50353691,67.10243034,,,,
491.8239997,1921,-4.670329215,9.463639718,-23.25450237,17.01581332,0,13.42763688,-138.7225521,-120.4678567,-16.30854331,22.42497421,-166.9019519,5.960170631,5.862028514,13.22634239,-56.49468195,-39.37361306,,,,
491.8319997,1921,-7.123567972,-18.88409614,37.69113477,-24.50883767,0,-21.51091822,76.50659587,-23.97493974,66.70244763,17.31257936,22.45887799,3.357967703,-0.93071473,12.57839592,35.34310226,17.21695668,,,,
491.8399997,1921,6.526899363,35.91171915,-37.05393334,22.89398832,0,6.242447679,-113.263634,-95.0259383,78.6317678,17.99866537,46.04476066,10.42945209,-26.48803994,-2.417477495,-27.07008323,35.96424213,,,,
491.8479997,1921,-10.42786871,-10.11015077,31.64604303,-6.894021079,0,-4.92471245,-18.59377639,-65.81377675,-38.30071622,40.06999709,-147.1873946,40.30846581,29.46316784,37.37714784,-10.26442112,-41.43386825,,,,
491.8559997,1921,-7.651659797,-15.82252595,-8.412518793,-29.43158724,0,-16.01675805,11.81007921,-37.30341309,105.1141572,-32.7179298,149.0519105,-40.2118191,-29.14658913,-30.15629134,15.48845947,57.2781011,,,,
491.8639997,1921,11.18898909,26.5058402,-16.91639625,11.15564962,0,12.81882091,-136.2999355,-104.9977225,-68.17867593,16.57067843,-153.0802573,0.956495443,3.715698486,21.22817262,-54.82668114,-39.16271245,,,,
491.8719997,1921,17.11714811,3.096173109,41.25849068,-30.78049047,0,-20.11613006,74.34651795,-18.18909637,5.301136621,11.68887134,44.36267165,6.27793562,3.510536888,14.85280914,36.01894115,20.04506578,,,,
491.8799997,1921,24.8261559,46.50409537,-31.71764005,22.24165314,0,17.69433622,-112.2605363,-93.98478755,4.340127334,6.826517811,61.46458019,11.97549879,-20.11504171,25.8400958,-18.6992902,41.35978945,,,,
491.8879997,1921,-1.397039058,-6.362365933,36.19285918,-12.52671505,0,-1.909316574,-9.978273984,-57.26807638,-125.9630963,22.26535793,-141.5489569,33.76993267,30.30116989,67.45993303,2.580805004,-31.28809876,,,,
491.8959997,1921,14.44985832,11.47845748,1.774673923,-17.4445997,0,-3.47734494,20.39860742,-34.3281284,26.1523809,-23.38505199,148.2608961,-29.65627601,-7.718986282,3.42379423,32.4551073,69.97579324,,,,
491.9039997,1921,12.99284407,32.22198407,-16.01641812,13.83870765,0,28.70299229,-120.490775,-95.19248941,-134.6172483,43.14401929,-148.2108193,26.54611272,22.10726381,67.28282861,-28.09566782,-20.01498363,,,,
491.9119997,1921,-23.16423093,-40.13600787,15.33298542,-70.97478515,0,-35.12497328,81.8278414,1.397474411,-76.2051018,-14.16023987,28.16544963,-16.80040799,-17.26980282,13.42077824,38.00902943,22.43609817,,,,
491.9199997,1921,-4.318804479,9.86086622,-57.35974087,-16.56510535,0,2.37257034,-113.3292998,-79.74673795,-67.48206175,-35.43652453,23.41670732,-36.29779499,-26.05860222,-8.741898913,-32.8713628,24.22198244,,,,
491.9279997,1921,-9.777714596,-19.07243888,20.08809512,-30.46382051,0,0.493780893,-6.465769779,-41.0876786,-157.2836998,19.60865547,-159.4330891,18.55642936,31.76785262,51.96970483,2.389071476,-38.69773183,,,,
491.9359997,1921,-8.262455538,-3.772308341,-16.66611632,-36.96002917,0,-12.36325864,15.39011142,-20.20483874,1.218405778,-27.89728738,133.8956702,-34.16020797,-43.72813743,-3.487806571,24.06890441,62.28611087,,,,
491.9439997,1921,-21.42126898,0.033469095,-31.90780558,-7.509185996,0,5.143168138,-125.7242273,-86.3462627,-152.0784591,14.36661235,-170.7056553,9.305631735,-4.299718569,50.25764841,-43.67572901,-36.73727669,,,,
491.9519997,1921,-33.72492703,-58.3839162,16.22187285,-64.8702958,0,-46.67199522,80.41835954,4.138957882,-61.47278305,-35.22678015,15.28957427,-30.76819867,-18.44720952,-0.358220059,34.98802764,10.02350731,,,,
491.9599997,1921,12.63857273,32.93563862,-36.26924481,17.40254761,0,15.15143406,-117.3126083,-85.82272307,-32.73423537,-27.7276826,27.27013686,-29.1247624,-30.50567275,5.58976873,-27.5128308,19.63036024,,,,
491.9679997,1921,-0.286867793,9.121501705,35.24627789,-4.534774539,0,16.12923571,-6.776585856,-44.24475085,-115.4481872,41.46297454,-135.8047827,40.36090693,41.79843507,76.10550822,7.912986873,-35.9244539,,,,
491.9759997,1921,-7.058127156,3.901821346,-8.51751432,-21.33160825,0,-8.403992829,16.0938056,-23.18379914,38.36505097,-14.05655153,152.9968068,-17.80052421,-19.41845973,5.300953834,30.01580966,63.7420277,,,,
491.9839997,1921,-10.48598822,8.293949961,-10.76844188,14.10083717,0,10.24999069,-124.7836823,-95.30001917,-116.8218815,14.55927157,-158.9449356,14.9363599,6.119695739,51.76442676,-32.17723825,-36.17136978,,,,
491.9919997,1921,-26.70426009,-43.44777887,32.72234739,-45.25355549,0,-43.74618788,82.22578273,-0.183683455,-23.10482398,-29.57286727,40.10828641,-15.45067542,-8.862576411,3.091008557,46.19588528,17.67920008,,,,
491.9999997,1921,3.75433373,37.16582342,-39.58946754,17.98743966,0,-6.763398686,-115.1183876,-88.98271144,-12.66879834,-11.72192455,46.31586512,-5.837945125,-30.05076515,0.893467689,-28.35912881,20.66475953,,,,
492.0079997,1921,-16.12589984,-5.536113166,20.8849555,-20.80852248,0,-19.1197352,-7.477634487,-56.0122037,-118.2513315,36.47729667,-140.1292766,37.92433768,17.21283533,55.77009565,-0.300713267,-45.17747948,,,,
492.0159997,1921,-25.54975774,-25.13431788,-27.51978832,-42.3207889,0,-27.52901415,8.5018068,-32.1214338,24.6936859,-48.85652483,132.5844026,-49.63316372,-44.11658749,-18.45606991,16.6918669,53.83254568,,,,
492.0239997,1921,-22.64039297,-7.627501927,-24.32067019,4.152120381,0,14.48534644,-130.3911705,-99.04008196,-129.7323116,-13.03083553,-174.2859076,-9.6587707,-2.82806274,40.30297395,-51.30005825,-45.69343636,,,,
492.0319997,1922,-27.2354123,-32.72817592,26.85939382,-42.12639295,0,-32.51355959,78.65209754,-7.554947626,-25.36038831,-23.19207908,33.78992865,-10.71984965,-3.805475968,12.41606588,39.58601702,17.22483194,,,,
492.0399997,1922,3.002886356,46.10721396,-39.14467659,18.12481571,0,-4.383249256,-117.2302932,-92.74656068,-7.439011317,-1.113868919,34.6845642,0.073685608,-24.66596986,8.920915798,-20.54138115,27.90751661,,,,
492.0479997,1922,-23.62569593,-14.02534346,29.17984591,-23.48978202,0,-18.97226367,-2.069777646,-49.37681309,-102.2497376,25.39775629,-141.3884512,26.68917959,21.32842102,42.92215584,7.074380889,-39.7168248,,,,
492.0559997,1922,-23.58324598,-22.68969975,-13.3290331,-29.54284408,0,-24.93540838,18.37874649,-23.95527221,53.50578834,-58.95348712,142.1823001,-55.50851903,-37.58645853,-33.31863481,25.90429945,60.14200288,,,,
492.0639997,1922,1.105218728,21.70955224,-1.682260958,36.76045536,0,20.10916787,-114.6694666,-94.48743126,-87.21147886,5.212028393,-157.3425646,7.263487859,3.299423264,47.31145296,-29.58044289,-29.82866674,,,,
492.0719997,1922,-9.866938636,-10.22487918,44.72083772,-18.98442971,0,-22.11362121,94.45302445,4.298982736,21.02699395,10.80941826,60.12009969,17.33087064,5.04935847,30.95942779,60.27219398,40.25983381,,,,
492.0799997,1922,2.908422314,51.05238154,-35.81133018,21.58888847,0,2.134119353,-107.8916194,-76.88201568,22.29849466,15.0195221,43.86233771,19.09265672,-22.07466028,12.40983283,-17.75900099,42.16085548,,,,
492.0879997,1922,-16.06270903,-3.161207328,32.80518192,-13.58584275,0,-9.711901533,1.64505353,-47.5555043,-83.26438304,30.58563449,-145.6294419,38.92926806,9.275127926,47.67525762,5.852873753,-34.31721105,,,,
492.0959997,1922,-7.971307914,-5.215358074,-1.838371519,-11.01297778,0,-6.968544074,18.97451307,-26.58064321,67.46620486,-40.04738496,142.4323466,-37.62834854,-37.4001112,-13.84259671,30.15918919,64.19417951,,,,
492.1039997,1922,7.534165276,31.00767439,5.836661785,43.67534901,0,31.06337243,-113.7410528,-88.62579712,-81.13119611,29.59224761,-150.7778449,26.67901764,19.87700698,57.25972951,-24.72237658,-26.80393922,,,,
492.1119997,1922,-14.147258,-18.38318651,43.85025433,-24.7970021,0,-16.55642134,90.59203409,7.815804723,15.78246044,20.53073964,63.71729493,19.72456193,3.460776223,25.95149497,65.33104673,39.08375593,,,,
492.1199997,1922,7.728991766,43.80542822,-25.87253472,20.51849103,0,7.485480558,-108.3212067,-73.99057524,15.80716014,12.80968825,43.97423266,5.945087029,-16.32245492,11.45060532,-6.809145726,36.58099809,,,,
492.1279997,1922,0.100636702,8.436505842,44.43494452,-12.04317927,0,-18.35132029,4.04545411,-36.51287372,-72.25964727,35.22884699,-127.6578948,36.2159461,39.12181812,54.46534439,19.23858217,-39.41087631,,,,
492.1359997,1922,-10.03261824,-3.349796936,-11.51684659,-29.06595669,0,-33.28794558,14.86135262,-11.27579089,74.54101828,-30.99274733,159.6981007,-28.50126414,-29.02720879,-16.73256494,34.97497099,53.01708973,,,,
492.1439997,1922,-2.101467287,18.06014553,-1.575768407,22.2600318,0,3.364794187,-115.3447802,-78.17637582,-88.73504483,17.98363253,-154.710293,19.45721813,6.917999212,38.8269956,-28.18095985,-45.41992979,,,,
492.1519997,1922,-7.303262746,-22.83482556,46.43236376,-24.90908209,0,-27.80296927,92.29918192,8.30936044,14.59461258,-3.054911945,55.65407954,2.965158616,4.590126962,17.65694239,59.86860116,26.31569442,,,,
492.1599997,1922,8.928981643,34.02815682,-34.23884151,21.47742724,0,11.53925619,-101.6209835,-77.74084649,16.05879727,4.445834457,34.88870371,2.060258379,-21.22301495,14.7699132,-7.947608621,37.03209609,,,,
492.1679997,1922,-2.368583233,-3.306757699,38.32947679,-11.49052983,0,-9.320652405,14.36413919,-46.29372872,-76.17655398,33.3655828,-140.6063489,33.13740222,18.32924023,43.25475235,22.9424304,-30.28755725,,,,
492.1759997,1922,-1.409064172,-2.164121902,-9.443336268,-19.28490675,0,-26.74611109,23.09744118,-26.08769113,80.95315494,-32.34507179,152.1099587,-31.59835818,-25.47422541,-23.34633761,40.85481406,63.90098374,,,,
492.1839997,1922,-6.393371333,10.51398312,-19.34705619,17.38096479,0,2.428155489,-107.7493821,-83.45355041,-77.91336315,17.13643172,-157.4434267,12.82434069,15.22519362,43.19502599,-29.59671826,-35.87649075,,,,
492.1919997,1922,-23.23968255,-40.3932432,15.1161678,-44.10576109,0,-34.65032859,87.14594806,6.995900273,11.16445915,-17.95908486,34.39383656,-27.72930396,-9.536774559,4.638972619,39.50925522,23.74895294,,,,
492.1999997,1922,-0.863201823,16.94331877,-58.00329114,0.087732323,0,-7.796637418,-119.1064919,-79.99755554,14.70909404,-19.44010406,7.469510058,-34.72300028,-38.60886543,-8.473436687,-34.83343349,19.32005342,,,,
492.2079997,1922,-15.13986354,-23.15896216,13.55386753,-36.68691861,0,-30.66987926,-4.050684866,-43.50652813,-64.36979868,16.04804748,-149.5677397,13.71681058,4.905906599,24.31589859,-4.277383766,-52.9897188,,,,
492.2159997,1922,-7.919409795,-10.34137642,-26.58913565,-35.2475484,0,-31.75091551,6.294901778,-31.18264648,88.99008798,-36.47131359,138.5796422,-40.36131883,-34.40737248,-48.01306342,13.40260466,42.14457624,,,,
492.2239997,1922,6.562481587,18.99110545,-18.85598422,12.4456079,0,2.75859216,-114.8835026,-96.72096306,-59.45528403,27.57636091,-164.9525032,12.08402824,7.592284153,21.44356153,-38.55081899,-50.46183614,,,,
492.2319997,1922,-14.60233723,-32.18218907,21.38897819,-45.56129976,0,-30.51512803,85.78433137,4.019109398,41.62254719,-6.017869594,44.11410528,-23.39990024,-13.74594096,-1.244579553,41.03755571,15.95595956,,,,
492.2399997,1922,-10.13474629,18.1418124,-50.12023603,5.459735757,0,5.287627263,-114.3173545,-66.79345157,28.19302367,-20.37866407,4.914102578,-40.59435939,-33.52937501,-15.71248367,-34.05847345,20.49015847,,,,
492.2479997,1922,-13.30175679,-6.869160492,30.80402568,-9.246924039,0,-3.139938985,7.179729643,-28.2663972,-58.47249521,21.28047246,-161.3115271,9.51501942,9.512326894,30.54733687,9.551468882,-36.06227776,,,,
492.2559997,1922,11.28928864,21.10032339,1.298081144,7.659688299,0,14.41387608,12.21324249,-18.37505455,107.2159876,-3.611422427,140.4107359,-13.79698714,-24.8785305,-5.773507453,40.26135536,70.63082302,,,,
492.2639997,1922,9.909542559,30.42237953,-2.206381494,30.77625555,0,33.28971185,-110.459784,-74.38944282,-38.67144272,53.62905916,-144.6978248,41.81211678,23.48721796,55.51727876,-11.7156399,-20.78268283,,,,
492.2719997,1922,-14.64069724,-24.58914962,30.57225866,-36.72272903,0,-25.60742716,88.87863617,19.19043554,58.16729579,-1.040709061,63.92160502,-15.01212489,0.666016472,1.704491629,61.99299519,33.81078904,,,,
492.2799997,1922,2.659607811,30.890896,-32.78111811,27.65983228,0,23.62089526,-110.8788108,-65.87868686,51.0288428,-2.043772349,25.39677114,-22.2351025,-7.249780244,-4.653626741,-15.59455166,32.8264968,,,,
492.2879997,1923,-19.16930853,-21.76103863,29.77370619,-12.53729366,0,12.05901079,12.64571201,-20.22048891,-36.18670301,29.98553839,-133.5987698,21.96620457,21.86282856,37.75165682,15.53887114,-23.39072705,,,,
492.2959997,1923,-8.184191342,-4.789260205,-14.12828015,-17.01012434,0,-6.760115493,11.31179482,-10.43336366,110.2517937,-34.0074671,145.4408881,-37.02721088,-42.72873345,-33.59388241,24.01891082,65.9093027,,,,
492.3039997,1923,6.019005179,21.4022871,-0.627080251,25.84346953,0,12.10768163,-117.8848959,-87.15824639,-40.6186694,24.92747176,-154.5854756,23.7670337,12.3008776,24.83980798,-35.79709919,-37.61089538,,,,
492.3119997,1923,-10.09888134,-27.49926385,37.12371704,-30.58085084,0,-25.82286983,77.72397636,-5.448676484,70.83780464,-2.345961614,65.79859511,1.219944107,-3.870312811,-8.980493495,42.82385812,22.58777985,,,,
492.3199997,1923,7.04002549,25.00845804,-25.95584536,27.19246673,0,17.06237524,-117.6142595,-83.12843629,71.9013222,-0.420004647,34.73069702,-2.278746647,-7.97983818,-9.603458491,-25.66744561,24.52603178,,,,
492.3279997,1923,-9.368190187,-25.72840305,43.80487339,-11.24175986,0,-6.257951786,6.935105238,-32.85382245,-15.80384315,20.43485635,-120.0445168,22.62118782,36.19351301,31.32299611,10.99569339,-33.96184896,,,,
492.3359997,1923,-0.497418485,-6.607381226,-6.543319679,-11.54781157,0,-8.40684333,7.090964723,-20.73493173,125.8849048,-36.75216951,154.061862,-38.55368402,-29.80680453,-29.93408056,22.60404438,61.19833592,,,,
492.3439997,1923,9.703403505,22.04287167,5.422188506,32.44927571,0,28.9956879,-103.0012421,-84.24242145,-24.13448786,34.44942942,-148.4209195,29.63387086,22.98142421,31.10789833,-23.86268512,-26.22550692,,,,
492.3519997,1923,-1.862746923,-25.4483296,43.69197973,-23.23786038,0,-17.99431952,99.67977931,7.60369787,85.86868624,3.672470322,73.55504132,5.057984472,-1.629472294,-10.83862799,61.87592812,38.15267406,,,,
492.3599997,1923,22.09211234,35.14275932,-21.81929402,37.12758685,0,22.73702856,-94.80698257,-71.98011138,75.55549591,7.898698365,37.32590353,6.856468603,-17.40793653,-6.154199102,-10.78811042,34.778461,,,,
492.3679997,1923,8.805114641,-4.641360813,52.98377757,0.702863805,0,1.193661103,35.70159586,-25.88504694,-9.908002062,42.49083897,-116.4761826,40.48234086,42.28368609,36.33312173,31.33159624,-22.49957081,,,,
492.3759997,1923,15.55388356,11.77306217,-0.555819058,-4.649401758,0,-6.902489478,22.55251493,-17.82865075,143.8362984,-7.505775377,158.1219828,-19.4063651,-13.33822008,-18.83886311,48.44567247,67.61918145,,,,
492.3839997,1923,17.18526645,25.47550823,-3.787430936,20.83504395,0,24.76995526,-111.0991322,-93.09131366,-5.205923126,47.72399722,-146.4833755,37.17399336,29.00424093,33.9768784,-16.73371249,-34.87105127,,,,
492.3919997,1923,-6.295358832,-36.87589646,24.23170186,-50.51078656,0,-42.39124549,71.50587813,-19.14046804,91.4013436,-11.26105356,59.45144567,-16.83574433,-1.932862381,-36.87640918,41.76205974,10.63281728,,,,
492.3999997,1923,14.41735503,26.25608033,-36.35956499,23.11217389,0,1.356224111,-122.3582604,-95.35793322,75.44105376,-3.147300435,14.90856427,-20.1553332,-15.67655684,-11.12018364,-28.59604601,5.267683381,,,,
492.4079997,1923,-6.749185696,-18.59364062,34.33518724,-7.532453836,0,-4.472428389,17.36815482,-33.69997649,-8.178068132,36.78132587,-123.2521585,27.03434404,32.72646532,44.80153337,16.19122046,-34.24081537,,,,
492.4159997,1923,-4.498892202,-13.91870049,-18.75819356,-22.14541386,0,-31.89942141,6.958823943,-21.50055135,130.8774209,-34.56394709,143.9621902,-41.69043681,-36.57933663,-47.48852111,14.4244497,55.36464054,,,,
492.4239997,1923,11.0740448,16.34934652,-2.383024556,18.16620626,0,-4.552895901,-103.8409221,-77.63406682,-19.38832722,29.30010709,-158.5635978,20.18060081,17.14068212,11.4811379,-40.28554364,-44.010604,,,,
492.4319997,1923,-1.237992869,-23.55833262,36.11914775,-30.72052154,0,-29.68487505,98.13909363,9.467939983,89.04581031,-0.218462041,65.30159645,-4.650406753,1.044187968,-27.47075409,44.90344339,25.10058855,,,,
492.4399997,1923,19.92843822,37.00592238,-14.92879163,42.66760551,0,35.7776613,-99.29257873,-78.66034152,75.44842252,10.18019382,17.82918654,-0.936092653,-5.919167036,-3.429102999,-16.70291226,25.27566131,,,,
492.4479997,1923,-5.169335599,-18.542115,53.38332536,-1.718695409,0,5.672257872,34.15756759,-15.23516481,-1.683899065,39.66185942,-121.1593766,34.42712376,48.01233988,46.71386131,29.49889809,-21.82423006,,,,
492.4559997,1923,-2.428546652,-10.66091966,-15.26931214,-17.14475729,0,-23.53870022,16.9715725,-1.645159413,134.2835941,-29.03698451,138.5705696,-35.80922011,-25.91324167,-42.96759649,24.90994865,59.09841296,,,,
492.4639997,1923,16.69820351,25.10763985,6.885391755,35.57486561,0,20.84081738,-100.9809676,-75.00648292,-20.8021434,41.36197739,-164.179647,27.03676686,20.73505678,21.90942545,-28.84343707,-44.89344215,,,,
492.4719997,1923,-5.237810855,-26.8336641,43.26567416,-21.95755892,0,-17.53684568,93.45097268,13.33358284,93.05849295,2.784251448,71.4094417,-4.817460528,9.65806848,-22.32048207,56.65096535,28.276515,,,,
492.4799997,1923,7.412078853,19.62284939,-29.38541654,28.21254943,0,30.91551934,-105.9874775,-64.84144478,78.40811649,-1.418756468,16.95662121,-9.951411594,-7.392924962,-23.25030278,-13.36363621,25.06688593,,,,
492.4879997,1923,8.065860573,-11.07824138,54.85597607,6.259426467,0,20.28774985,32.02757091,-21.50159411,8.189008177,41.91675258,-119.6583413,33.35474736,31.4046068,35.10955548,32.95803633,-21.73860341,,,,
492.4959997,1923,12.60031351,1.388169336,-1.780965969,3.77229982,0,-1.441058024,23.64085047,-12.04492082,155.2954962,-10.29480056,153.6474852,-25.44370456,-26.06023202,-33.40505934,37.73742786,74.68726761,,,,
492.5039997,1923,-0.73094444,2.928075693,-6.152034594,22.2596651,0,18.35987401,-85.80875631,-65.00527799,-5.882954752,38.58840572,-157.7062274,20.48462773,32.89251633,19.63121891,-21.59252897,-24.13325107,,,,
492.5119997,1923,-5.10813433,-33.96518324,40.63180667,-27.07842037,0,-7.175866814,106.4442958,10.96010012,104.7809765,0.559205672,64.91697327,-12.85797774,14.20110099,-27.65341708,57.33606697,40.51075123,,,,
492.5199997,1923,20.7726353,25.27079286,-20.6723792,32.98024115,0,35.94372549,-93.15839557,-75.75865379,91.54173475,17.0286912,17.96521075,-5.284975501,-4.801506768,-23.25770655,-8.226831365,34.92385178,,,,
492.5279997,1923,-8.709242222,-30.06335684,34.79872733,-17.69488307,0,-6.527199739,38.68399052,-18.18461495,7.722859769,42.43300393,-118.8855009,21.56686477,39.7260864,32.08277311,27.47879537,-19.52868486,,,,
492.5359997,1923,-3.877071356,-14.33899486,-18.34894566,-14.74067528,0,-3.056183744,19.20080687,-13.33108855,136.0875747,-25.05086849,133.831707,-45.39945414,-28.80604563,-38.48414505,23.67462906,65.50426508,,,,
492.5439997,1924,-0.85861624,-0.74138054,-5.039948679,22.50117331,0,32.776839,-83.45046353,-67.32418467,-35.39756361,33.79833686,-171.5820567,11.98245016,10.23339769,21.77416243,-22.80779204,-22.03898571,,,,
492.5519997,1924,-12.85370433,-40.06720504,25.23454738,-33.97175283,0,-18.41155417,106.0788481,19.74291528,58.65211652,-1.226577722,60.12339766,-19.26903638,-9.352659707,-6.898542835,56.73263318,49.99811248,,,,
492.5599997,1924,10.65196595,24.15818828,-42.44784271,23.20445435,0,24.88151266,-98.23979668,-64.63134495,18.27157293,2.606769354,-5.699633503,-18.65887012,-27.72326979,-9.463291536,-22.14268585,34.92771385,,,,
492.5679997,1924,-6.991936522,-22.51935112,29.28288215,-16.93945437,0,4.504838998,43.92804469,-10.05905317,-81.65881418,24.78542401,-140.0126171,10.77061842,17.26362465,25.57660635,20.44442908,-11.20436936,,,,
492.5759997,1924,9.52942226,4.534211281,-11.63875427,-1.011739425,0,11.29525126,25.66957889,-12.11162398,40.96033609,-20.95986035,130.3729107,-35.12408751,-27.23502487,-16.11081722,35.38015638,83.75219081,,,,
492.5839997,1924,11.55002817,23.39569088,-5.552379758,28.0327215,0,34.16082896,-80.09021878,-64.6006741,-131.9848844,42.10146153,-167.032428,24.83490067,21.26067243,64.37363764,-15.21500271,-14.28805016,,,,
492.5919997,1924,-9.580039884,-25.33744074,15.24066367,-44.28480601,0,-24.52117966,103.6221778,24.49726277,-36.82101807,-8.825030475,62.91705315,-22.91541616,-13.93194143,7.596374108,49.36756552,45.35721773,,,,
492.5999997,1924,17.90136706,31.54686391,-35.8149366,24.6132388,0,25.4766118,-103.7143338,-67.77224383,-62.52572202,-1.248640988,-0.446047133,-14.82988352,-21.3380038,5.542758086,-26.2635634,25.83962712,,,,
492.6079997,1924,-0.772609506,-21.02237064,31.62694687,-17.86656605,0,-0.509648131,37.6235053,-13.86443643,-135.8028607,18.15962169,-120.8996842,17.02809994,18.25832274,47.83932519,13.60283293,-25.93088355,,,,
492.6159997,1924,14.19288517,10.1307271,-24.02375471,-15.56803317,0,-6.723108071,14.35340284,-18.30938061,5.785056367,-31.86425337,144.4535348,-35.88834478,-49.68441435,-16.81385356,16.98750685,59.8851512,,,,
492.6239997,1924,25.0129159,33.86308603,0.463981538,29.01474469,0,24.66178685,-87.69010586,-79.80152613,-142.208468,46.87119987,-153.2690564,38.5576531,12.07045874,50.51096374,-24.034065,-32.39465824,,,,
492.6319997,1924,-1.569724402,-25.08651523,23.35915316,-36.50633838,0,-31.7217538,100.5284063,8.905522858,-27.51538306,-2.826788235,87.14763974,-2.473002319,-8.519964577,3.701449104,53.24796221,39.62108731,,,,
492.6399997,1924,23.39162045,38.1157452,-32.92471587,26.66912197,0,19.1812074,-99.87725662,-80.1468835,-44.70643504,4.911909498,19.03384498,-0.386199674,-12.07279059,17.67733794,-18.66041583,21.94660632,,,,
492.6479997,1924,5.161734324,-8.880642951,43.73355122,-12.09331753,0,1.031911549,44.70499378,-19.67016935,-107.1796178,34.71066222,-101.6725988,31.27730947,35.89884369,56.14198191,25.35009347,-24.54369859,,,,
492.6559997,1924,2.141096692,-1.12923464,-19.93491777,-17.13979394,0,-16.30710493,12.72468636,-8.654035886,27.17786252,-30.30772218,156.7146983,-32.34935277,-31.55841903,-23.93092819,21.22424121,59.67395592,,,,
492.6639997,1924,13.01357858,19.60013524,5.935753676,28.70304487,0,16.36940645,-89.67557469,-65.67382432,-122.0629128,31.51984973,-147.5239265,30.43115775,20.21862408,49.28614249,-26.76242681,-43.13791021,,,,
492.6719997,1924,-13.84556724,-35.18613652,28.08897414,-36.48311422,0,-31.75685131,91.95521378,20.95750925,0.040643209,-15.7831055,94.22799991,-11.68232094,-9.921266936,1.326358618,46.96991306,29.00003934,,,,
492.6799997,1924,-11.09431722,8.276757436,-50.20677494,6.523020134,0,3.047849822,-123.7168261,-66.97160873,-36.80981996,-16.69296172,7.464842721,-21.62868165,-22.63940749,-14.00211021,-42.09432427,6.819292368,,,,
492.6879997,1924,-12.6270159,-28.54412617,36.78125478,-17.87294804,0,-14.3326857,22.22473229,-23.31461121,-107.0590782,11.70281743,-121.4644192,10.44544632,22.17738029,31.04092133,2.662112072,-44.88719734,,,,
492.6959997,1924,-1.086302928,-7.868827547,-21.46071476,-14.1091174,0,-21.61540001,0.283859941,-19.37584038,38.84961042,-41.46750055,149.8103498,-36.94431893,-43.16057825,-26.32963019,14.38085408,49.73474544,,,,
492.7039997,1924,-10.1162357,-0.433134256,-19.0166514,4.301716785,0,4.207537,-94.4812673,-62.94145092,-119.5589509,18.88939061,-151.6077715,20.4217173,12.32436931,25.23859602,-38.68684817,-46.34903873,,,,
492.7119997,1924,-24.25118333,-41.84137748,13.01114631,-50.74865963,0,-37.90958689,91.82840659,17.57395944,-7.092461107,-20.62152901,78.37247219,-23.66755734,-11.6021436,-18.61769978,30.53172369,22.5172325,,,,
492.7199997,1924,-5.978357189,12.9569887,-51.94399407,8.884935462,0,2.355117625,-118.2650685,-73.15183374,-37.27683609,-14.8773466,-7.423588324,-22.29129875,-33.99896203,-7.243810598,-47.31507602,5.537129416,,,,
492.7279997,1924,-20.18362012,-34.31610398,24.41129171,-28.60265337,0,-15.79344063,27.74304336,-22.42939609,-100.8506936,5.31856372,-120.8719694,8.696873824,11.17656556,21.81146942,-1.735397147,-37.97510022,,,,
492.7359997,1924,-3.476464666,-3.607726807,-23.72464397,-18.98674217,0,-11.94687139,1.066250948,-34.6792052,50.26716885,-37.02725159,141.9073138,-40.62778958,-36.8966332,-36.13209687,3.445386996,49.76331845,,,,
492.7439997,1924,6.202686632,19.23562062,-0.205456453,20.84317162,0,15.09002286,-89.38841684,-87.31382305,-97.85427608,35.71898884,-159.9867707,23.64684641,16.48233885,32.37529967,-34.10549767,-44.84906488,,,,
492.7519997,1924,-8.875908531,-29.71588785,32.74316185,-31.50504352,0,-35.57530853,98.82658033,6.1394074,29.68348224,-6.711550851,94.06998903,-10.29702351,-1.575589972,-13.3446683,58.43195988,41.01820151,,,,
492.7599997,1924,-4.957312108,8.168111321,-43.53356182,11.34726203,0,-2.418419898,-110.6374744,-73.63620834,4.160237249,-11.01606628,9.200027846,-17.58210314,-17.51588038,-7.79483167,-25.44461858,20.41337403,,,,
492.7679997,1924,-17.17481619,-33.87307347,31.28050141,-27.76650488,0,-23.07362681,36.41932192,-19.41323588,-69.7841668,4.893856135,-113.0263199,1.988033833,11.47689397,14.28991476,5.368587725,-35.27044207,,,,
492.7759997,1924,-11.27469759,-11.3648032,-23.07178724,-24.87364739,0,-36.85986296,2.937385561,-29.02380136,68.76081534,-35.39282262,146.9791681,-40.68465913,-39.82550705,-40.18871402,12.68999094,53.08988142,,,,
492.7839997,1924,-40.26901562,-26.28462303,-28.93444727,-21.30959418,0,-31.72473954,-92.04505888,-74.91024234,-98.23755908,6.159469851,-171.5279772,-3.468501091,4.274918428,11.09548321,-44.60279013,-56.3552999,,,,
492.7919997,1924,-44.92143443,-60.53896496,4.434597333,-61.39572698,0,-49.60693432,92.43216107,10.05820736,12.70038116,-50.74439037,66.74765573,-55.80070235,-18.74913862,-52.91436731,27.74113193,9.501541168,,,,
492.7999997,1925,-7.540477692,9.272723478,-45.61867281,10.76751211,0,3.156688572,-112.346765,-81.96242683,-6.983187442,-21.63211727,-0.289306515,-28.79973806,-12.43988702,-22.95811875,-32.68403518,0.862318338,,,,
492.8079997,1925,-31.88050265,-47.04318679,25.45437407,-47.0628632,0,-43.98384603,41.9979775,-22.71992857,-74.94725005,-1.427598089,-101.2040377,-5.618966677,15.12610603,8.697147212,11.30649935,-44.05272048,,,,
492.8159997,1925,-24.11945058,-18.460155,-28.99826226,-32.17406711,0,-42.9084033,0.880781961,-36.2426606,54.81742742,-47.98823722,149.9344361,-58.38818354,-41.79161013,-59.99585226,11.80210041,35.00025823,,,,
492.8239997,1925,-20.36195933,-1.995829122,-15.68947013,6.981091223,0,-14.11939588,-95.11716002,-93.81044941,-105.9169097,21.07320119,-157.897782,11.55665197,12.42845034,11.59681993,-37.74382836,-63.37993409,,,,
492.8319997,1925,-19.58564922,-34.50097243,22.7013254,-39.21706638,0,-38.34024422,96.42413456,-8.113604829,15.71357822,-18.27447422,97.73384012,-22.652833,-6.830859761,-17.41222128,39.08741506,21.27645581,,,,
492.8399997,1925,11.14256438,33.11160432,-27.85591364,29.03777829,0,20.91255022,-108.4885309,-98.3425774,-8.280470068,3.562550094,13.46095369,-9.031414217,1.119254024,2.430990886,-25.370478,13.29519776,,,,
492.8479997,1925,-7.772651848,-18.93857779,41.72906185,-13.70214941,0,-17.72959306,48.68176711,-38.84293009,-70.34076905,20.14866432,-91.99298602,17.03711058,23.91067122,21.58362407,20.25717679,-30.30040573,,,,
492.8559997,1925,-6.006225189,-8.089925499,-19.18412453,-7.63628086,0,-15.82066723,22.20291717,-35.48585464,69.36217565,-28.41326276,167.352493,-32.02518178,-32.86179084,-30.0309484,27.25782711,57.01153853,,,,
492.8639997,1925,-13.67211166,-5.652984287,-10.66053506,8.460553349,0,3.180052457,-72.11278466,-78.57260904,-90.96484353,22.16578635,-151.0191021,10.76832777,12.57963214,25.95256048,-26.53923927,-40.44097359,,,,
492.8719997,1925,-12.30365462,-35.00393368,25.38998157,-42.86140552,0,-52.90371052,99.43062648,-4.965695232,34.8718565,-29.47165429,95.35296111,-38.9961232,-22.52576922,-31.59543144,40.9435229,26.48918521,,,,
492.8799997,1925,18.27337436,32.73220417,-26.51595522,29.51656786,0,-0.542108187,-109.4896976,-100.7835681,18.40685133,4.422048425,18.92153746,-10.63730002,2.444252772,-1.15566234,-21.50975078,1.462870123,,,,
492.8879997,1925,-0.853161062,-15.55093582,40.46310643,-11.06505253,0,-19.06799388,47.2660458,-35.80372218,-43.20131931,27.7266757,-81.57307991,20.17365253,30.74912936,27.79338342,19.70373649,-35.95492015,,,,
492.8959997,1925,10.4715416,6.448127877,-16.32930914,-0.217414452,0,-21.67598399,9.414588356,-40.30601618,99.62672758,-21.43896058,172.6815698,-26.64845294,-42.76623871,-34.16924182,21.75653682,56.21082999,,,,
492.9039997,1925,-2.010261134,3.014305454,-8.886527551,12.19571887,0,-4.374041153,-81.08639721,-87.36198996,-49.8237386,32.04642494,-140.9541467,21.5145659,20.40388082,20.87508299,-25.75093819,-47.45791553,,,,
492.9119997,1925,-22.34748871,-47.31810996,9.64069548,-50.25964002,0,-43.36681716,97.1424168,-7.674557325,64.78229026,-31.00131162,92.52266919,-42.3314974,-15.86263099,-37.57687761,35.12256884,19.46965287,,,,
492.9199997,1925,2.008954707,14.78533615,-49.29170157,21.15590325,0,-0.491719874,-104.1636133,-97.95312596,33.47346717,-9.94994117,-8.755250337,-25.30342707,-19.73002651,-16.01038023,-34.6929541,-5.892731815,,,,
492.9279997,1925,-13.00653829,-29.97818902,19.26134879,-19.11488333,0,-30.63650826,54.79901815,-34.13015739,-22.49567537,17.2497955,-109.1520886,7.448979206,23.2769984,16.16760708,6.388531375,-48.44956976,,,,
492.9359997,1925,-4.588602562,-10.31559191,-45.05475509,-18.34214297,0,-32.500426,0.876785392,-49.85125964,105.4730048,-34.79088889,138.8631835,-48.99446737,-50.18395929,-48.63613374,-7.664605825,30.10961593,,,,
492.9439997,1925,-11.35999461,-6.73502204,-31.04701754,-2.333241294,0,-21.15171623,-94.49915215,-104.8173415,-51.67026845,15.81760617,-168.3237332,-2.339131846,-6.582079167,2.679800889,-57.03009085,-78.14984173,,,,
492.9519997,1925,-23.50167092,-48.60655406,-3.958229476,-54.5817036,0,-52.74310057,80.84082739,-23.59935574,74.8622594,-44.53358045,82.40534749,-57.28433632,-28.8867167,-48.87664949,11.81853115,2.300421937,,,,
492.9599997,1925,4.335734632,15.55779231,-59.49955545,17.676309,0,7.984100083,-127.3488589,-114.9854246,38.17439283,-20.31289574,-18.81854556,-36.07633719,-27.17495822,-29.12186349,-56.74058727,-14.0234241,,,,
492.9679997,1925,-6.517216268,-25.98503654,23.09789023,-19.23408779,0,-13.75955463,36.82753798,-48.96808479,-12.34963086,22.76599326,-105.9923016,6.503131654,16.44113291,6.135906114,4.540618083,-45.3755432,,,,
492.9759997,1925,-4.982037788,-10.59768498,-36.75857608,-18.42407184,0,-19.78036013,-9.485586192,-49.64932653,119.8380239,-30.3578082,141.9866651,-54.48473827,-46.84401608,-44.26732289,-0.737583164,41.44352068,,,,
492.9839997,1925,-11.81838273,-6.125169554,-20.16457955,4.637698642,0,-8.433434525,-90.22180525,-97.52833793,-40.93968213,15.57032116,-167.1809158,-6.826660263,4.183237926,19.67874747,-44.88671421,-65.98665975,,,,
492.9919997,1925,-17.86447433,-39.13691975,8.999596659,-41.83686556,0,-41.1161177,92.24964903,-21.03499397,88.04293367,-28.26227437,92.50926196,-43.72126685,-13.69295115,-38.60737623,32.93496038,13.62878715,,,,
492.9999997,1925,0.493390452,16.40757751,-50.66917422,17.1933954,0,-0.979854735,-120.7225991,-114.8883864,45.10939966,-4.388490872,-15.11035387,-25.73585574,-19.26003114,-25.63148464,-49.9929995,-10.04749047,,,,
493.0079997,1925,-24.78310643,-46.34829686,24.76633143,-32.42375955,0,-39.42689814,40.47720778,-55.66261599,-8.639585683,9.847078872,-103.729308,-4.588261983,17.63729263,5.002441257,-0.387180935,-48.20035665,,,,
493.0159997,1925,-19.64126467,-29.5239513,-41.27629901,-28.80531732,0,-27.67835245,-12.09576249,-66.77580251,117.3004339,-61.7331448,135.2566921,-76.4312484,-46.20131986,-69.35028236,-10.28865,33.65614369,,,,
493.0239997,1925,-5.522879397,-3.030108069,-17.13276809,6.778963943,0,6.780611601,-91.71482131,-113.9702345,-43.34498408,6.912776494,-170.9750701,-9.360988735,1.949774289,-4.916487578,-55.16667361,-68.62223207,,,,
493.0319997,1925,-11.66227149,-34.35469596,17.47591338,-38.31672804,0,-32.37539758,98.05609117,-25.56492455,94.34210943,-14.88350526,104.4354016,-27.89658903,-16.9638202,-38.88968062,35.13493201,21.55307016,,,,
493.0399997,1925,-2.811611054,12.70361256,-40.66184094,14.85743073,0,9.916212998,-112.693393,-109.0413511,46.99782629,-5.260274124,-11.83909552,-26.50855802,-20.19013213,-21.97752016,-38.39497222,-2.648961862,,,,
493.0479997,1925,-8.673688902,-33.38557363,45.20093673,-21.75712273,0,-8.960494154,47.36459515,-49.30512468,2.163708245,12.8764718,-90.33119564,-5.01700557,27.77839138,15.16573121,11.98385184,-40.45664303,,,,
493.0559997,1926,10.05120447,-3.166080066,-8.143138843,-4.293972464,0,0.884170771,3.389861325,-56.24455613,145.7804481,-24.44213276,171.0769666,-44.05841441,-15.70873396,-34.93764074,13.72901628,50.17904491,,,,
493.0639997,1926,7.540217382,8.305539756,9.376418694,18.4380833,0,24.65497481,-72.98515159,-90.27100267,-18.28967704,41.46787112,-141.4404352,18.67001991,26.90869871,27.99831355,-25.38342764,-47.38965319,,,,
493.0719997,1926,-2.16483737,-28.56259024,30.72543108,-35.05011187,0,-15.93634132,93.48505501,-8.677751834,107.7368228,-8.488671818,120.8033709,-24.2154953,-12.90091929,-30.98854959,45.39854278,34.78297124,,,,
493.0799997,1926,5.662991,13.29654324,-40.30622619,10.06100415,0,2.606794394,-130.6396425,-109.0869917,56.95301282,-5.60647694,1.234370302,-19.33214471,-19.38722984,-24.1273511,-39.12358145,-0.405103797,,,,
493.0879997,1926,-26.69969295,-54.52172784,12.39920384,-53.88359762,0,-58.6550435,24.51981899,-58.56522779,-4.195657831,1.944586626,-102.7747995,-6.822034947,5.230245471,-0.842743121,-1.182991373,-56.9172577,,,,
493.0959997,1926,-9.847686278,-20.77074157,-45.25368633,-36.12890414,0,-47.36860667,-25.69212914,-76.98566278,114.963203,-51.92704688,126.0527231,-66.39545356,-54.46399372,-73.84514903,-21.23204764,10.04161607,,,,
493.1039997,1926,-1.545138811,-6.338331358,-7.339129119,2.832404001,0,9.826332261,-88.63780024,-106.7878845,-38.59521256,12.53652082,-168.1044236,1.022038848,10.35902678,-2.50324158,-51.0476948,-80.61061567,,,,
493.1119997,1926,-14.14941691,-50.10393146,15.2670061,-46.01154319,0,-16.92788617,91.78960561,-16.73339544,97.68532947,-36.37318904,107.449852,-33.39930523,-23.96220465,-42.30824973,33.82183252,18.98786985,,,,
493.1199997,1926,9.127632623,16.9687651,-40.41251005,15.02294915,0,20.86901393,-117.4931126,-111.522252,40.64022514,-21.89767869,-12.9996573,-23.74301649,-35.50171968,-36.95712246,-45.88997908,-5.435044904,,,,
493.1279997,1926,-9.129739782,-28.29896388,36.05767484,-27.01564614,0,-10.31190394,47.55940979,-42.36815995,-6.025235803,9.31580498,-87.13344428,6.073648898,-0.097753367,-4.209191199,10.99603118,-35.68642174,,,,
493.1359997,1926,-0.377820225,-9.658251967,-23.49032441,-9.170521364,0,-5.836908349,-11.4455774,-52.78916449,125.3721284,-35.70359158,152.3651072,-39.65730937,-50.03288444,-55.0546654,3.92866853,49.09253663,,,,
493.1439997,1926,6.038361186,-1.188365036,5.352794102,13.98333413,0,23.02273956,-81.79826085,-93.4314322,-31.28275072,20.11883849,-149.9091048,19.17607435,20.89230344,16.91374429,-29.79002894,-51.59754556,,,,
493.1519997,1926,-0.961006369,-29.28111075,27.44373583,-37.84154838,0,-18.71056747,94.49692525,-10.39468903,106.6463656,-24.05244707,123.9331096,-16.84121232,-0.491403742,-29.51732164,49.61466073,31.59787909,,,,
493.1599997,1926,14.28189599,26.61018649,-36.50428468,20.49612964,0,11.09984267,-109.7546201,-100.391337,52.0115751,-2.262372086,-3.233803328,0.496462238,-16.2078678,-27.32500704,-37.39540168,-1.929617764,,,,
493.1679997,1926,-0.244789671,-28.71025876,39.66478638,-24.68902809,0,-9.446959622,64.71891567,-33.32048835,5.241085387,15.78104666,-82.59054128,20.43022073,13.25166472,0.381753864,14.36129748,-36.90645638,,,,
493.1759997,1926,14.17230129,-4.320353052,-15.63000659,-7.706577444,0,-1.112876686,3.998564655,-46.23718277,144.2570445,-35.73168159,156.8121907,-31.86881531,-27.08601424,-53.39777452,14.59721017,50.08579868,,,,
493.1839997,1926,11.45413517,2.606000195,-0.67524989,12.63024232,0,6.003475428,-70.53729862,-87.7711885,-14.45224206,17.03489281,-148.4698742,21.12482606,11.27956792,0.827207129,-28.99825289,-51.12642718,,,,
493.1919997,1926,9.32077799,-26.29520205,21.58642187,-32.85601271,0,-30.33695578,98.47865402,-15.51063027,117.7841583,-23.75856644,121.9506889,-19.33115611,-24.71324551,-35.77984744,38.78101398,28.73082652,,,,
493.1999997,1926,23.5942139,18.56528014,-33.13100159,23.97871133,0,17.05869912,-115.3321462,-106.3696959,73.4464262,-0.543729592,0.193009099,-3.609611181,-2.144865184,-13.71092174,-35.17724646,1.359534468,,,,
493.2079997,1926,-3.076626048,-40.56031788,31.63938306,-28.35524491,0,-15.96156441,52.09377191,-36.53732725,17.72045186,1.499345928,-79.07519243,1.854284786,13.36909499,-6.918659698,11.63424534,-33.08263159,,,,
493.2159997,1926,16.49814634,2.660129401,-24.13516937,-7.347188897,0,-15.32072206,-5.392648371,-55.06689768,139.4980057,-40.13532896,155.4408257,-42.31660795,-37.62563836,-53.91699329,-0.445570822,45.56075512,,,,
493.2239997,1926,15.31477997,8.280599143,-0.051556046,10.75636318,0,1.448839019,-69.98670116,-96.34280138,-13.22429639,28.39962848,-144.1621156,28.9723979,33.80183959,10.99669407,-36.79591102,-58.64043874,,,,
493.2319997,1926,3.486901774,-37.05648109,14.67401807,-43.89973535,0,-31.12605791,101.8926399,-18.60494567,106.9081389,-28.35235101,119.6031793,-25.55454087,-21.50179482,-43.60813224,31.33143763,18.39981328,,,,
493.2399997,1926,32.40226079,24.00754003,-29.13235768,22.24190255,0,20.82350494,-103.3637692,-106.8023372,41.83373189,-5.364831737,-2.877963326,-10.97038597,-10.31815229,-6.491737248,-39.44720357,-13.09841726,,,,
493.2479997,1926,18.26579585,-22.88253029,49.63141516,-18.81819864,0,5.094603784,68.60662449,-31.81489662,-13.7645863,16.46012222,-62.09545414,21.61168367,41.72649676,23.18591606,24.19869547,-40.50904986,,,,
493.2559997,1926,26.20336685,8.103789958,-18.27157123,0.047171073,0,21.083705,3.760724603,-46.41476565,88.48878585,-27.77739221,169.779694,-18.47512813,-24.91623199,-17.35662801,17.99326662,52.04068867,,,,
493.2639997,1926,16.59309264,6.430897641,-4.062190011,8.771055999,0,18.38813781,-68.029513,-85.59941158,-96.51773316,26.28702411,-137.4351691,33.48551052,8.155213635,50.45543199,-25.36832397,-48.3420409,,,,
493.2719997,1926,5.498404983,-34.9010361,13.4465156,-44.87049565,0,-32.22123627,93.18621002,-8.99237154,8.259425139,-39.80596038,122.9248064,-25.69041154,-27.65932154,-21.38318925,30.95669402,19.68285356,,,,
493.2799997,1926,35.00260519,33.60953847,-27.79453104,30.33656544,0,33.9130685,-115.6875798,-105.1133852,-59.83043669,-11.75980086,-6.869695413,4.470249022,-4.060821193,10.3782268,-40.16960559,-6.846017994,,,,
493.2879997,1926,19.55279163,-16.7034619,43.42898685,-23.02499553,0,9.394700313,55.52857429,-33.57010439,-112.5046884,16.47566449,-66.69706693,36.34634115,27.55497884,39.88041119,24.19667315,-28.83472763,,,,
493.2959997,1926,41.36465058,21.10163103,-17.88786747,-4.634305212,0,11.11016895,-8.11102327,-51.18648541,0.962129001,-31.47559142,160.818582,-13.82504196,-22.73539563,-12.32774129,5.850592587,49.37367143,,,,
493.3039997,1926,38.75974905,27.68700215,11.01829584,16.46732001,0,22.67742701,-68.44466308,-89.32910155,-147.2943345,36.28588183,-133.0169342,53.66090805,41.74970219,72.36915585,-25.7159996,-43.22090841,,,,
493.3119997,1927,17.04241241,-21.47842262,21.92439859,-45.52092433,0,-21.72738333,94.83870577,-2.512076537,-12.05072577,-15.38790515,140.1862233,2.284394916,-4.164773211,8.225801854,46.87178532,35.03776746,,,,
493.3199997,1927,41.68744391,37.44879998,-35.42987638,16.97364597,0,29.29776162,-117.585199,-94.62305236,-77.09867968,-3.917489055,-3.446145582,6.50975905,-15.96180306,23.0706641,-42.95604099,-4.890747151,,,,
493.3279997,1927,19.97053946,-24.64574919,30.57111603,-37.1153465,0,-7.752146741,47.83628619,-28.89178635,-112.4594608,8.049630491,-68.16903683,21.25005149,10.57000558,43.11964186,7.363328222,-33.48290268,,,,
493.3359997,1927,30.39974017,-0.334388337,-26.51394407,-16.53922232,0,-5.581850698,-26.01674773,-45.68749923,21.18424889,-39.35854113,161.6787808,-28.01621426,-37.17232388,-26.2828342,-4.594746549,38.77339716,,,,
493.3439997,1927,23.53799924,3.589655209,0.874449361,1.722993096,0,-1.331381175,-86.50294225,-83.09199528,-130.5958131,18.11535725,-137.5595603,27.92423785,9.779628864,38.12369742,-40.84674555,-65.23814643,,,,
493.3519997,1927,7.093848903,-34.97490595,15.43647399,-50.24136502,0,-43.45190771,78.44085469,-4.482902575,1.447775456,-36.79834408,131.9196526,-23.33534571,-18.78748491,-19.7434801,27.06713825,11.66339218,,,,
493.3599997,1927,39.21830037,31.27065069,-26.17910024,27.96041725,0,25.31645031,-127.1051031,-91.25831914,-54.64330861,-12.22723674,-4.783207336,1.329437591,4.658022297,15.92654276,-48.92542258,-18.72023007,,,,
493.3679997,1927,18.03040748,-28.89131405,41.37606504,-33.63784725,0,-21.29302512,48.76300211,-18.05535508,-84.46735507,5.610073027,-58.2935664,25.15782801,30.54494769,43.14575573,11.86140669,-43.39597266,,,,
493.3759997,1927,19.85410663,-5.255856158,-28.51251195,-28.39393421,0,-27.85542658,-24.29613843,-41.26412587,31.30365266,-47.97486857,162.4224997,-32.41699963,-36.12124677,-34.03465717,-6.415415418,21.20222376,,,,
493.3839997,1927,23.10023452,10.4614284,1.707312513,6.174176631,0,1.989841049,-80.88585424,-85.56429296,-135.9148502,6.615680368,-144.1979341,22.34054932,11.73698997,30.11513922,-41.69283409,-80.16730229,,,,
493.3919997,1927,22.56904246,-16.26578363,21.7633615,-33.33494551,0,-32.7442322,90.59339256,-7.018492931,5.907714023,-27.85549025,136.4824335,-11.69604933,-23.66388645,-14.30345919,42.5670944,13.4131293,,,,
493.3999997,1927,42.16556713,39.30456727,-25.88148136,27.8548835,0,20.86745845,-111.42602,-90.07625635,-47.02907429,6.287205805,3.237497664,11.1610788,-15.17585498,4.674959396,-26.71913588,-9.319255298,,,,
493.4079997,1927,7.149572103,-27.18027661,41.44084028,-28.65033477,0,-6.479309864,63.66329085,-11.7941926,-81.75375687,15.89366618,-54.30709992,21.82771049,35.02835433,27.05904264,33.9783887,-31.68378953,,,,
493.4159997,1927,6.359206594,-11.64506891,-31.05875209,-16.42442828,0,4.386357599,-12.17703441,-23.35105545,33.14351335,-36.58870096,157.1718976,-33.113188,-20.3720924,-13.80997638,15.40188199,40.15693806,,,,
493.4239997,1927,13.56582601,-5.576501681,-5.675532643,6.166205373,0,18.7424696,-71.96308305,-63.12077966,-129.5260622,13.22555215,-148.0809222,21.71805525,4.2329037,42.71997257,-32.59318031,-59.84003567,,,,
493.4319997,1927,20.78397479,-23.52125385,18.74509592,-30.73351233,0,-18.17480299,91.96234314,6.981757928,18.8655807,-26.50022571,142.2612417,-12.77700443,-26.90130517,-17.85128044,39.34386278,26.00933735,,,,
493.4399997,1927,40.05769683,35.1700127,-26.47496139,35.52082946,0,33.19658172,-109.2259681,-80.66393108,-33.59565316,11.3310827,5.421894281,15.29529011,-9.988305962,22.04744987,-31.28800422,-5.25983673,,,,
493.4479997,1927,8.95460239,-33.22822889,37.32704705,-24.09722543,0,-11.88239235,65.92080301,-11.2244935,-69.59806354,16.58977302,-58.62440359,24.08460003,17.31551549,35.32908035,21.98611547,-32.68637332,,,,
493.4559997,1927,23.52569085,-3.075010609,-27.14217104,-8.614355962,0,-1.367505229,-15.218729,-38.62730116,54.60417163,-34.38434522,157.430271,-26.09320402,-29.09470002,-33.22147234,3.922801273,35.91480055,,,,
493.4639997,1927,29.5856187,9.749378198,5.27473352,11.96151509,0,20.60336804,-71.81216681,-76.73992591,-86.10110671,33.99194911,-128.1034173,44.07427779,32.45489378,39.74486894,-27.20591606,-62.79037511,,,,
493.4719997,1927,5.089887023,-36.2643223,7.222032034,-51.76396058,0,-35.60089042,86.52100001,3.540581724,51.03236993,-16.62406965,151.0158386,-8.790590862,-16.72580001,-12.58239372,35.58653786,16.10506989,,,,
493.4799997,1927,20.48487655,12.03817416,-46.62857134,6.620386397,0,2.321334305,-122.4771712,-89.14528692,-31.64243443,-13.74907883,-11.16379178,-10.09153644,-35.41572314,-14.09095872,-54.90436736,-33.65279331,,,,
493.4879997,1927,23.48876288,-22.0388641,41.26571283,-21.11311197,0,-15.48745801,56.69334359,-28.52629904,-56.15453989,6.637002442,-51.12843841,25.85359516,11.43199005,13.03743572,12.13387794,-57.28353872,,,,
493.4959997,1927,32.32405765,10.22497626,-23.49498116,-5.499890238,0,3.67886081,-18.76204244,-52.17164558,71.85202313,-16.52421058,176.7438557,-2.144965623,-28.20576902,-10.07125303,4.250183082,25.43453093,,,,
493.5039997,1927,19.26396126,3.57653069,-6.856246628,-4.150726167,0,7.650404519,-70.06535923,-80.95181563,-95.53599507,24.79218726,-130.669363,33.79882181,3.679151852,33.95098216,-43.91832308,-77.90099014,,,,
493.5119997,1927,16.26212077,-24.73010658,5.616880876,-45.13378874,0,-32.63321266,91.58421165,-0.875358548,45.67354538,-30.13669606,152.4635036,-9.991885482,-14.01771964,-22.84313673,26.03095266,3.63899263,,,,
493.5199997,1927,31.89469542,20.00470299,-47.22911839,16.22031843,0,16.61296861,-110.4002367,-84.09822511,-19.91206394,4.164160188,4.044138744,23.26977288,2.251540277,14.34334097,-44.40221437,-31.69523516,,,,
493.5279997,1927,12.02222754,-37.62156948,18.91008315,-39.7752395,0,-27.86800583,64.49819216,-6.558820684,-59.93959429,3.027970403,-52.86994378,18.48824794,1.099474909,11.96353968,3.618584909,-58.52414839,,,,
493.5359997,1927,34.01361431,8.388298223,-35.65965775,-8.333748573,0,-8.280022087,-19.87033836,-35.66684067,61.03663773,-40.50212972,164.6235284,-31.00625563,-53.09095415,-35.58545721,-7.851801492,15.10714702,,,,
493.5439997,1927,21.29151041,-0.361975284,-7.467863346,2.082200516,0,8.271293667,-62.52228062,-67.79396332,-90.46984081,20.91686741,-122.8294063,35.55185131,11.67138563,35.08527989,-30.80582638,-78.6902836,,,,
493.5519997,1927,-1.409990267,-44.28702087,-11.21465919,-63.11070753,0,-52.32657649,91.98277342,13.70946443,41.01989257,-42.35297143,145.0937986,-26.30957534,-34.6599227,-34.30634515,22.7513242,0.277673393,,,,
493.5599997,1927,29.85958605,22.83184034,-47.98383143,11.30167898,0,1.90163122,-119.2108617,-82.1310299,-24.67471648,-14.05833603,-17.76385003,-7.771087894,-19.37060042,-7.61311797,-55.97685317,-44.94588723,,,,
493.5679997,1928,11.1265818,-33.20606972,28.86253809,-35.05846413,0,-27.61447653,62.1326087,-9.231762829,-42.70937917,2.641802505,-47.27338107,13.08627274,28.6166592,11.00149944,11.26511828,-59.81684556,,,,
493.5759997,1928,12.84329569,-9.18407212,-49.31256032,-24.57423684,0,-32.32020388,-28.4683982,-35.60625678,66.88485411,-45.46740248,162.0352147,-37.21325693,-42.52383168,-45.170832,-16.91783904,7.6856945,,,,
493.5839997,1928,17.10241069,-2.021022956,-10.57956852,0.7765061,0,-10.56991499,-71.95890612,-75.28128973,-93.0054164,13.3229352,-141.4399677,22.01071578,4.366100042,21.67783622,-45.97321364,-96.64609885,,,,
493.5919997,1928,6.983243683,-34.65133571,5.328199431,-45.0577886,0,-40.52450595,90.7801396,5.458252947,49.32012165,-40.46506346,139.6541791,-30.72750485,-24.79397857,-39.52017063,26.75176808,-1.58802357,,,,
493.5999997,1928,26.87700065,23.07813412,-37.43480139,18.79438535,0,11.11540797,-118.8856071,-81.98988012,-13.97965112,-9.514071409,-15.86486178,-6.601952425,-17.52101078,-14.67625498,-51.3866132,-40.19421549,,,,
493.6079997,1928,18.4773012,-18.9680951,44.1176726,-20.32438503,0,-16.3165865,62.97978763,-15.25205766,-25.3590637,19.06330888,-40.60353386,24.90713482,24.32180731,21.47554363,19.22681963,-57.65972356,,,,
493.6159997,1928,25.26699351,9.515802083,-31.5112595,-8.335367623,0,-9.601482787,-22.97267339,-37.56213713,89.67486705,-25.58300979,168.5574331,-25.98395858,-30.78426779,-34.1889013,-0.071897165,17.65509804,,,,
493.6239997,1928,24.90346167,10.2518774,0.688901553,8.950755487,0,10.96709906,-62.68526254,-61.20312354,-62.56552416,25.99084524,-132.1267706,25.67975789,24.99532559,22.64501988,-29.49264438,-77.30847958,,,,
493.6319997,1928,23.74007655,-13.43254262,18.09575483,-27.23315803,0,-24.59280983,97.56784085,15.13685543,88.23236587,-15.39309201,151.0083846,-10.27463484,-10.37146458,-14.74953108,42.8292137,19.10089195,,,,
493.6399997,1928,32.21615057,31.52816194,-39.40332452,21.1708426,0,10.14248344,-111.7711117,-72.33679,16.33548768,8.724046075,-13.62271784,10.71298522,-14.55533059,1.296427132,-46.12219484,-25.3405029,,,,
493.6479997,1928,13.5597734,-22.6241621,29.26942236,-27.88452778,0,-21.93285968,67.72039587,0.209438984,-7.268505231,9.390295835,-45.61421282,15.69883718,16.57825441,2.120397844,10.02503941,-50.57866947,,,,
493.6559997,1928,24.37034323,7.10437447,-36.25552058,-3.856668361,0,-8.864193741,-16.62994519,-23.95325171,100.3016616,-30.01235808,154.5914332,-29.06265029,-36.36401264,-44.41075797,-3.168112899,20.14879896,,,,
493.6639997,1928,15.59076371,-2.594113492,-0.393202439,3.834758161,0,4.503855669,-53.15405626,-49.79929571,-58.18358825,25.54428118,-141.5858471,28.11777781,26.78083543,20.04514363,-30.19216989,-76.41132686,,,,
493.6719997,1928,10.36204959,-28.20692096,14.61362337,-32.81244056,0,-23.15018466,93.90659134,15.75281961,90.56849659,-29.47129319,147.4186836,-24.60685204,-0.126555838,-29.53806784,38.93517011,17.38576964,,,,
493.6799997,1928,13.46975186,10.69650705,-47.77743308,18.59276322,0,21.35570032,-115.1280107,-73.96737582,14.53337657,-4.439657393,-28.49681168,-12.36131675,-11.1350962,-9.256189369,-46.25895996,-29.3531088,,,,
493.6879997,1928,-6.199476511,-44.10773327,14.80516989,-39.75188108,0,-18.69307685,72.06047663,4.892943759,-13.38170377,1.585748265,-62.5564544,-6.68046991,7.185948838,-0.512430903,0.450788607,-55.28638575,,,,
493.6959997,1928,18.9825723,3.894677558,-40.01319182,-4.513282376,0,-2.168435805,-19.70165569,-25.66713348,100.4692165,-33.45898979,142.3489988,-41.54454101,-40.68620451,-43.45295295,-17.23603075,16.03944409,,,,
493.7039997,1928,12.80676918,-6.220178638,6.032117088,14.67181074,0,11.25860357,-58.69500421,-57.25826972,-47.69197383,19.23466547,-150.0752731,20.10832915,13.87266254,11.43552215,-37.02176764,-76.78861988,,,,
493.7119997,1928,9.587841934,-35.03356065,19.83751088,-25.55180726,0,-26.82002591,89.94709231,7.873643363,105.3291891,-36.92442417,142.3495752,-30.07683713,-6.53474284,-39.24033973,34.15270439,19.22609884,,,,
493.7199997,1928,23.56980692,15.55574908,-31.82434048,31.71035822,0,19.67281105,-112.6047298,-79.28135427,30.99904505,-4.905736599,-26.91765408,-6.202928119,6.723400195,-6.156002173,-42.25321614,-24.85780523,,,,
493.7279997,1928,-4.700484834,-46.28258662,34.0865491,-27.42693047,0,-21.60478095,74.24063882,2.674224545,3.143467722,-2.646357687,-56.81610556,-0.431902479,18.89346187,-7.610005848,14.55310903,-45.08134694,,,,
493.7359997,1928,12.0620282,-10.65159231,-30.23077089,-3.385710471,0,-8.858977765,-24.46087784,-32.5374361,112.2206258,-41.36904403,142.3263566,-43.50764728,-34.83508388,-50.45919806,-6.23217326,21.49461773,,,,
493.7439997,1928,1.597397484,-25.40206567,3.583193959,2.804575255,0,3.165860058,-53.9129452,-56.18933438,-36.78334763,11.6282048,-142.3044561,9.627187842,15.93386783,9.015643046,-31.88433336,-73.97319077,,,,
493.7519997,1928,-17.97086664,-62.48368625,-1.228423829,-54.35622069,0,-45.90568383,92.95936393,22.32615887,101.3369106,-54.04240091,136.1783895,-54.59246266,-31.18142936,-66.89014957,24.37184145,18.18260225,,,,
493.7599997,1928,8.296611287,0.789892789,-35.84028959,18.21428862,0,12.66350485,-114.8298979,-68.38073755,16.31169345,-18.91098643,-49.95888581,-24.7429124,-10.71893481,-32.52583351,-57.15271437,-33.23384375,,,,
493.7679997,1928,-3.600137182,-49.72019053,50.17337267,-16.38863347,0,-4.930897329,81.62344055,14.96756764,8.592108375,-1.775802783,-52.18241331,1.791674898,26.82716975,-7.731664944,18.35254989,-37.71184619,,,,
493.7759997,1928,7.458980871,-13.28304503,-30.84471888,3.154594617,0,4.035541299,-17.58863649,-9.851981325,119.4772386,-41.97587498,149.2143696,-44.88037695,-32.62823338,-47.03789229,-4.82190212,37.44640161,,,,
493.7839997,1928,12.49656525,-4.550714804,10.61153671,16.9945191,0,15.97711425,-52.0290038,-34.63569758,-33.46049844,24.20175617,-139.1960392,16.07295842,26.81559137,22.55742467,-33.84333,-62.13022083,,,,
493.7919997,1928,3.987237187,-34.25529081,24.9954759,-23.82454922,0,-24.23531024,84.08756616,29.74078512,115.3467768,-23.43408611,157.1575586,-25.43943103,-17.49615475,-37.55123649,34.70294113,33.0187797,,,,
493.7999997,1928,9.981903617,4.30947565,-32.63961497,24.62550754,0,19.4082088,-144.5224304,-77.79117791,27.81794814,-5.198635609,-32.7880344,-9.878246483,-12.93376514,-16.02548964,-57.87347838,-31.37582679,,,,
493.8079997,1928,-14.06055507,-56.79443275,27.50923791,-47.77548039,0,-26.88394883,36.10283124,-10.30715418,6.011932532,-11.69292785,-50.60091259,-12.52789735,24.72683552,-28.03011081,-9.548344816,-63.45152804,,,,
493.8159997,1928,5.229724917,-10.6783083,-44.17851747,-23.41422796,0,-15.47928016,-58.94709794,-39.18101875,104.8123036,-58.07946055,136.2053942,-65.50332912,-40.83036719,-89.58407288,-41.011953,0.539059008,,,,
493.8239997,1929,15.37859464,2.779970574,6.770049731,13.81445663,0,20.65520425,-74.25349038,-53.27244962,-41.12893626,15.37324933,-147.6524413,5.586608993,20.64472386,4.711528666,-55.91401881,-83.75562584,,,,
493.8319997,1929,5.157855164,-29.83700339,17.29769739,-24.49498546,0,-19.55030098,79.75901438,26.11611129,117.4524852,-23.18279755,158.4757339,-29.68770873,0.243333092,-32.49361034,21.64286644,23.47303693,,,,
493.8399997,1929,18.3284627,16.14561134,-35.49866929,27.35884138,0,22.88347288,-124.6061698,-60.61964126,30.71656664,1.322137876,-31.14694533,-13.78925149,-8.453203873,-10.05217863,-59.53181747,-32.17566872,,,,
493.8479997,1929,3.186421106,-29.42055692,32.08975474,-29.27321369,0,-9.127563218,71.40646722,22.53680469,15.3329746,4.807672007,-42.77124612,-6.394270838,4.02959373,-1.375707497,9.447592592,-42.67410352,,,,
493.8559997,1929,13.34458367,5.158938806,-40.33029288,-6.792238146,0,-7.489216031,-29.69622211,-7.959627005,117.0535515,-39.50576852,146.6889543,-48.83865336,-44.4777814,-58.76260115,-15.81994031,25.14595923,,,,
493.8639997,1929,11.04112536,-9.643984828,2.323369223,11.80748515,0,8.446788801,-60.07998374,-37.24184982,-35.52661159,10.76212113,-141.5578302,2.168806226,18.54465084,-1.517052398,-41.86274982,-76.39478474,,,,
493.8719997,1929,-0.14990995,-41.20129126,5.665815095,-35.21577677,0,-28.52837646,78.69220585,27.28345331,116.0473249,-40.80552255,149.3499119,-50.55520231,-18.38581903,-56.35363748,26.86369455,22.32803427,,,,
493.8799997,1929,11.85123408,10.27405331,-41.80754164,15.92512567,0,13.3998585,-126.8573136,-60.14751543,30.41715283,-8.232597092,-45.87605758,-24.76975385,-10.10287321,-32.97446754,-56.37448988,-33.47671934,,,,
493.8879997,1929,-0.94962136,-43.09833339,33.34404889,-33.46811425,0,-14.05769374,66.12344968,23.07116974,17.38068504,-9.906055111,-45.27171661,-19.3724838,19.83712515,-27.61966477,4.350983036,-44.42741106,,,,
493.8959997,1929,19.05847098,1.273256604,-36.31076917,-0.850601678,0,4.540824711,-38.18003878,-13.93579023,118.1757519,-45.59311992,145.8074288,-57.43417302,-38.59267972,-61.02063134,-18.14410673,29.69873119,,,,
493.9039997,1929,25.96333466,7.002441061,10.6314329,21.15160612,0,16.91678557,-55.12993022,-44.23765482,-26.88621599,32.86888359,-140.3632816,16.6548751,18.47891149,18.66214424,-34.98337548,-66.12348697,,,,
493.9119997,1929,27.96490024,-12.59846272,24.01330616,-13.52773197,0,-11.08742517,92.40390296,23.75928281,134.7627098,-5.426920849,159.7119795,-21.76469536,-4.904995331,-30.23906345,31.09254731,30.78200027,,,,
493.9199997,1929,50.70774104,41.65560024,-14.82824358,45.95007273,0,51.28286096,-105.0890378,-60.72323637,58.00452759,28.07085073,-24.1109041,8.024190709,12.96570767,9.56031918,-42.98763304,-15.41809111,,,,
493.9279997,1929,26.98438669,-20.09167857,53.8442381,-14.72141558,0,7.455621143,92.76444118,21.75619592,53.12353203,27.29360961,-17.40476829,12.45777333,39.94168647,16.11826943,28.48944534,-19.21428133,,,,
493.9359997,1929,30.54452342,12.61985313,-21.53311214,8.518001452,0,9.542362181,-18.95870675,-12.3069068,145.6070732,-13.86091184,161.5936205,-31.44612274,-8.25202592,-38.97992982,-2.909898875,43.29793243,,,,
493.9439997,1929,30.00913884,12.26161543,18.36240656,21.02776795,0,30.87408984,-42.48977676,-33.43035714,-17.37929602,44.93590952,-131.6790753,26.58511623,48.37914887,22.89663631,-29.26432715,-56.2833335,,,,
493.9519997,1929,12.68681027,-24.37635378,12.11661163,-31.46854966,0,-9.228114529,91.56357962,33.78313633,120.0471281,-16.82345284,161.3843848,-33.46850149,-9.700824808,-33.91821851,30.35127294,35.4448391,,,,
493.9599997,1929,21.02474962,18.17296993,-30.8281343,25.61041029,0,28.17868771,-119.2799448,-61.53770483,5.422664039,-1.978949245,-36.97208281,-18.3154798,-13.11352372,-5.813492307,-55.99353989,-29.60783677,,,,
493.9679997,1929,13.30772528,-22.77771429,47.65282497,-17.37180794,0,-7.036265902,77.81576365,9.983452188,-20.47153943,3.477150184,-28.19775662,-0.371655538,23.23090057,7.18126268,15.63728122,-40.19670466,,,,
493.9759997,1929,27.43972947,18.78042189,-25.3544783,10.85985331,0,8.915902425,-28.0694246,-25.41465478,66.88774726,-20.40078685,157.1504718,-23.60453457,-24.61273841,-18.8928356,-1.965328769,30.22570713,,,,
493.9839997,1929,20.81531848,5.02680778,17.70875307,17.30799716,0,22.1614809,-52.69359814,-42.69754642,-111.4520586,33.29377058,-130.8014873,31.30505706,24.67090029,50.43319167,-23.89408929,-63.47516572,,,,
493.9919997,1929,19.53111299,-16.56006502,25.33810735,-20.42553768,0,-10.90589612,79.96245457,19.18401341,15.6021995,-30.29448847,166.5598601,-24.39545012,-13.20388631,-15.56556729,37.11653382,27.99740295,,,,
493.9999997,1929,50.272775,51.22040341,-7.514910462,55.75322911,0,52.93754687,-113.2669932,-74.29808308,-82.9582852,4.153973372,-21.08466309,15.33808063,9.600558119,23.60704797,-32.17491935,-20.47311746,,,,
494.0079997,1929,35.36037731,2.80669395,65.23241194,8.586303274,0,28.50767533,90.15614383,11.48306032,-86.90909856,25.83201912,0.311366128,45.15449974,43.69342849,54.1753956,50.61484864,-9.190232186,,,,
494.0159997,1929,41.44185211,34.83027244,-11.5431064,27.93185254,0,34.23794334,-23.70759732,-16.95054644,3.28862689,-7.908914578,171.3522335,6.955439819,-20.89338179,12.22309059,18.09359881,52.84961396,,,,
494.0239997,1929,37.45804319,27.20454324,30.37105503,33.91954654,0,37.83319128,-41.51633334,-30.81827094,-155.4804349,40.25768532,-118.8413784,60.42372548,37.70770803,65.31197528,-8.831843517,-47.78122555,,,,
494.0319997,1929,13.12853631,-12.68927979,19.27156082,-20.24814866,0,-5.98396117,94.91218897,44.99719626,-6.667149717,-17.56982893,180.527225,6.91680282,2.778129351,0.702270772,51.22043646,46.99715378,,,,
494.0399997,1929,21.83913174,31.57195464,-29.44173918,34.75477286,0,38.1847162,-107.6218608,-41.29555325,-109.0446046,-3.032447821,-33.00165408,13.73794301,-10.71254158,19.95533628,-42.29527447,-15.58108755,,,,
494.0479997,1929,24.21205526,-6.281627381,52.84280537,-5.822514521,0,11.61364209,84.15941534,24.54347918,-98.28989194,5.448218827,-20.8353441,28.21691973,25.56613333,36.81307254,32.04963466,-14.96769272,,,,
494.0559997,1929,32.1357156,26.28694509,-19.72844942,18.06068383,0,24.16805611,-30.91708429,-18.70064941,12.74223803,-17.53964334,160.7876983,2.579325694,-12.89527051,0.339243111,12.8865134,51.39968951,,,,
494.0639997,1929,16.23914947,7.980677275,17.71168722,20.62438088,0,23.67631579,-48.19621703,-35.10283833,-149.1978961,24.40396762,-129.6123864,44.8954833,14.62359886,43.34314831,-19.11117208,-52.21979974,,,,
494.0719997,1929,22.77272244,-9.166021019,25.58139485,-16.44885445,0,-12.90657516,79.6011619,21.82666629,8.982352323,-27.39982879,173.3464574,-2.132998046,-19.89280788,-14.37944934,44.84842558,35.72097005,,,,
