Time:125Hz,Epoch,FP1,FP2,C3,C4,P7,P8,O1,O2,F7,F8,F3,F4,T7,T8,P3,P4,Event Id,,,
538.1839996,2102,6.99993364,21.41050777,0,-31.45572434,-54.73372104,-2.57750056,-367.1295915,-149.551295,-84.55110998,4.045070434,-31.84053007,0,-29.734788,-48.34449594,51.26573502,888.1880658,1111,,,
538.1919996,2102,-29.61383054,-30.44029059,0,36.77389165,37.58168784,-12.99265622,256.6953907,67.00595877,-1.904919758,98.34581595,11.13759226,0,50.3934193,50.57570816,-160.8043954,-761.4278207,,,,
538.1999996,2102,155.5915131,-41.17936489,0,-45.59256155,-51.36203681,-50.82060343,178.3510209,9.35718203,-129.3330605,-41.59204205,-38.06152981,0,-68.9511371,-85.20697592,167.4673173,756.4157396,,,,
538.2079996,2102,-59.42919228,39.89547592,0,32.14870035,-2.57139134,35.11376641,-312.5563148,-108.2419442,-3.415627591,95.5530555,4.741669926,0,54.85811361,62.31291835,-140.7702703,-13.52412105,,,,
538.2159996,2102,124.1690534,-86.30735572,0,-3.415044415,0.606276772,-79.95409478,549.2435112,132.9989665,-53.31257936,21.95696536,8.336743988,0,7.345167014,-7.273299809,40.37555977,-303.456759,,,,
538.2239996,2102,40.03996016,4.892979318,0,-37.17000125,-55.36333121,-15.9382356,-373.3555346,-165.2837717,-85.00773438,-18.07123166,-40.26642444,0,-27.93346372,-50.00311093,55.60597705,918.9019215,,,,
538.2319996,2102,-16.32173601,-22.8371206,0,45.20689543,24.96975296,-9.024070359,224.736663,58.90122474,3.540322153,89.24566281,0.787895068,0,73.65178838,58.73227694,-171.8593468,-756.1797711,,,,
538.2399996,2102,181.9619207,-47.69688624,0,-32.33110008,-34.78011726,-51.20473264,196.3379507,13.29003927,-125.3072582,-44.41862362,-33.90607179,0,-86.13475577,-93.8869476,173.5407498,714.4862558,,,,
538.2479996,2102,-34.5019616,36.61037409,0,37.92418901,13.80295103,32.05044188,-333.2545927,-122.1220795,-2.242447197,84.89940883,0.491035054,0,49.18337639,52.94108898,-131.602566,15.1446171,,,,
538.2559996,2102,135.3187463,-87.42097337,0,-10.96677628,-8.585566493,-90.54366176,537.6735699,121.5165392,-54.50684359,11.89013432,-8.954163641,0,29.30171659,-3.266525728,20.03729184,-355.3280246,,,,
538.2639996,2102,69.3292935,1.275635799,0,-35.0524641,-53.563183,-9.649166166,-359.8331181,-167.0906828,-101.9128664,-32.19460307,-56.9442273,0,-81.77174063,-63.54994577,56.55663967,906.2980091,,,,
538.2719996,2102,11.23311282,3.805741287,0,80.00026187,42.7120613,21.42133894,216.076452,66.47670074,0.311013923,109.6773978,2.875458272,0,52.58586927,92.57953698,-166.7950011,-752.3754905,,,,
538.2799996,2102,205.2965585,-27.61151952,0,-23.10458209,-36.24480428,-50.35509402,219.6729802,23.18881167,-124.6202303,-11.33138386,-28.05593427,0,-41.18291369,-38.94924302,175.0160647,688.2792523,,,,
538.2879996,2102,-7.583609978,47.825955,0,34.18213383,3.934727498,34.93127351,-341.5182595,-130.1045386,-29.59565109,88.17888232,-15.25401057,0,20.07337535,38.37300598,-131.3616294,43.4319155,,,,
538.2959996,2102,185.0787281,-37.43829161,0,35.99189455,3.177476323,-51.85255995,556.749485,148.9233431,-76.3370358,41.21767527,-13.03373438,0,-19.73579283,-11.6884615,15.48345018,-374.4194944,,,,
538.3039996,2102,84.797678,98.64202517,0,7.796854631,-54.10311939,41.319376,-665.0282348,-243.5551905,-92.83148402,38.57331564,-31.80582514,0,-70.98539238,-20.89492067,33.53761895,1160.374541,,,,
538.3119996,2102,-138.836337,113.1918168,0,138.3122286,72.43720458,94.96928912,-388.7635557,-110.8608698,109.3549845,253.4643078,62.74926249,0,135.7854881,218.9148156,-421.3187306,-1183.054551,,,,
538.3199996,2102,94.53064199,19.23293271,0,70.41133457,30.5464371,-9.610390294,237.2832761,53.67055188,7.267894245,137.602224,40.98854695,0,50.11778494,104.4825992,-122.5765835,-648.0140168,,,,
538.3279996,2102,96.88099802,58.07182637,0,41.59426896,-6.566700103,14.90894727,-186.7793099,-87.35976423,-48.41247049,77.2023948,-1.724194551,0,-11.53598143,29.8345866,-58.01438819,190.2645441,,,,
538.3359996,2102,241.7198339,-11.80679048,0,29.05612729,3.875991982,-49.76063734,445.6353073,100.8175804,-93.50600108,18.56977754,-6.792188946,0,-32.41365976,-21.944726,77.11345364,45.44301532,,,,
538.3439996,2102,142.5536123,58.09291167,0,31.28632272,-18.31305096,17.20057487,-215.4530424,-101.1869666,-79.13880254,52.34807337,-15.30834583,0,-28.54654827,8.204100935,16.67035114,560.8963115,,,,
538.3519996,2102,118.7154768,28.64175175,0,70.07579089,8.351733722,2.902525976,185.5025526,37.34299998,-41.4065924,102.8018354,3.975414041,0,33.35911237,59.99300013,-99.78366421,-420.1227571,,,,
538.3599996,2102,288.0192777,22.12020184,0,21.65077225,-14.05076733,-29.49265585,248.4782174,38.66453211,-120.6691153,-2.875415969,-14.74406282,0,-42.13474941,-43.47055623,167.0737906,657.003612,,,,
538.3679996,2103,83.83456706,85.02716247,0,79.19191889,25.23053576,49.85047244,-268.1464523,-94.36246799,4.266592627,125.3050317,31.10848359,0,39.05186242,107.0382798,-95.43587723,46.47810316,,,,
538.3759996,2103,241.5671035,-25.13113284,0,37.3103563,-0.391420874,-57.82614466,526.5037036,128.9154202,-69.42717551,39.79605324,5.388854912,0,-8.651839345,17.48207885,55.39893184,-220.2016416,,,,
538.3839996,2103,192.0589362,76.73121448,0,30.08350666,-9.857119788,21.86039177,-252.4878467,-115.9200033,-87.90278851,24.89489309,-21.08609134,0,-35.05269627,-23.3459631,74.80943343,841.0891884,,,,
538.3919996,2103,123.9723568,34.61270548,0,80.22736003,34.76606286,2.707305792,166.1325458,28.98652083,4.559021954,129.9925385,35.38620436,0,41.32288545,97.28871791,-121.6871108,-587.9322996,,,,
538.3999996,2103,312.3437601,0.704492237,0,-0.279760038,-39.18540487,-51.60855552,264.3112021,27.20515468,-136.5679406,-25.09700157,-26.10310984,0,-67.47999428,-64.43187505,171.404849,631.1814472,,,,
538.4079996,2103,109.6319523,97.29723894,0,77.92471223,19.5026621,57.54831798,-338.1595865,-124.2617254,-17.11734068,106.6026248,8.540332831,0,30.95750567,65.04991657,-103.7142289,150.823937,,,,
538.4159996,2103,263.0012392,-21.82382828,0,53.32946786,11.54498753,-58.79218024,544.3006811,133.8627954,-50.71260385,59.85645865,18.95678632,0,-7.040952739,40.69978227,25.813686,-385.4180664,,,,
538.4239996,2103,230.6823973,69.78929839,0,24.11045068,-31.38828492,12.46636788,-262.5137754,-121.4154804,-99.10131185,6.061085499,-21.96585285,0,-25.24528719,-26.71342546,101.8244011,941.9420392,,,,
538.4319996,2103,134.0056169,41.89711027,0,96.05674366,32.40696995,14.15483631,146.8530306,34.67328018,15.18117172,134.3700726,33.37788682,0,66.02319721,94.74932079,-139.9109094,-630.8109281,,,,
538.4399996,2103,336.233461,0.916980109,0,22.53229436,-33.2658135,-43.91664014,308.613059,56.50369054,-131.8681864,-11.1785921,-25.41384056,0,-90.1708008,-24.05668014,172.0561699,588.2267945,,,,
538.4479996,2103,133.9224495,98.79987782,0,91.20746401,32.73813366,69.07697611,-342.7680396,-115.2304789,-23.68328498,105.7532102,8.818354376,0,48.508582,86.18511571,-78.66665204,222.0969047,,,,
538.4559996,2103,274.8434002,-25.2503297,0,61.655561,35.36457573,-54.58745073,565.4524134,143.2727439,-36.71177432,66.26477831,27.78735022,0,18.04280968,23.70363023,27.88895691,-461.3879134,,,,
538.4639996,2103,258.6825116,76.84145726,0,35.7121121,-20.90830187,17.94034536,-240.1515386,-110.9925533,-94.22906525,5.697634924,-17.48086691,0,-54.31042379,-31.85911506,121.9420125,976.5220527,,,,
538.4719996,2103,153.7400799,64.30162012,0,124.7497487,59.41458557,39.18231021,144.1728122,40.59111028,37.19501998,154.0230372,57.82703376,0,89.64846217,124.1510818,-120.3963268,-637.8146151,,,,
538.4799996,2103,361.2256702,5.00978503,0,30.71424177,-19.26234151,-47.35666924,330.2862764,48.99324185,-111.7881672,-3.004796975,-2.215231746,0,-74.11138777,-23.74979009,199.2726402,550.505757,,,,
538.4879996,2103,166.9343963,119.7260638,0,97.38967364,25.20734646,63.45568929,-360.3736789,-134.1696089,-9.218007237,104.7851674,12.18222495,0,39.43828236,78.9179444,-69.0060131,263.1670661,,,,
538.4959996,2103,300.1511483,-12.85063389,0,72.08887442,35.16861182,-55.1845926,556.0718986,133.5281666,-8.834799463,93.08484652,46.10524057,0,46.08929067,60.3180899,23.0277321,-478.9892743,,,,
538.5039996,2103,271.9947744,44.44735547,0,14.55291179,-38.39541383,-14.55953301,-254.0230411,-140.3288491,-102.9332588,-14.5021359,-21.49369137,0,-56.6350778,-51.9208154,120.6223512,999.1545264,,,,
538.5119996,2103,156.9784416,59.92217149,0,116.3891724,49.63564819,21.51929099,102.840245,15.8947192,18.68147429,114.6637171,29.28622684,0,68.04604164,72.71045222,-155.9710633,-641.4935147,,,,
538.5199996,2103,377.7040312,1.203823497,0,25.85909415,-15.51148581,-61.29645989,340.2184258,50.9002028,-106.4918681,1.934523717,-1.91297281,0,-65.56876222,-12.08766364,179.1111131,514.1408155,,,,
538.5279996,2103,173.101717,83.08186265,0,72.15875919,6.451532976,42.08453182,-386.9371162,-157.3453469,-29.3820566,85.50417304,4.026555024,0,31.19208578,65.7104118,-80.20167074,293.4943105,,,,
538.5359996,2103,312.4153839,5.85489708,0,92.90920905,36.1397549,-30.37707307,548.6700099,142.2532562,-34.30511039,69.77163307,22.07694564,0,17.5349235,26.28011231,-9.936999725,-517.4010749,,,,
538.5439996,2103,326.8634037,99.07600696,0,59.34093127,-1.192723814,27.0966133,-210.61032,-95.58651072,-84.62950429,28.58974974,2.806932339,0,-52.19640251,-1.996451285,135.5190479,1001.58742,,,,
538.5519996,2103,206.0114817,61.02861428,0,120.5068236,64.81497104,28.01187918,96.38555768,14.64634664,43.03179709,151.2049501,70.96924882,0,84.92079325,117.8623169,-130.0333637,-625.2269059,,,,
538.5599996,2103,427.3768248,-11.79496403,0,27.3068754,-25.64345465,-58.813535,354.0727008,49.64915534,-109.6005013,-19.80388765,1.149551931,0,-88.56754475,-54.18710704,180.7706541,493.7840296,,,,
538.5679996,2103,229.2402628,100.2799218,0,95.49908918,13.99584067,61.54178215,-382.5690195,-140.7559485,-33.02200046,84.28141551,6.205380459,0,8.370849913,66.62102101,-65.98843646,352.6857184,,,,
538.5759996,2103,353.5540168,-0.67901651,0,100.8935386,45.88308566,-32.67932357,550.3741386,144.5567231,-22.24223523,84.18551584,37.58137074,0,42.97399328,78.71769041,4.710714406,-511.560791,,,,
538.5839996,2103,373.0250667,79.77968064,0,54.44567084,-13.24000852,18.71490157,-199.1981781,-100.7395199,-82.85213763,2.972769225,-1.583193902,0,-46.70702087,-14.94125316,141.9535801,1038.281851,,,,
538.5919996,2103,244.9339025,82.1998072,0,142.2580224,65.96224285,53.31668046,80.26425898,25.4393821,37.51167481,149.0924479,67.2206532,0,65.84838113,113.2398032,-132.5640248,-579.2573678,,,,
538.5999996,2103,471.7046414,0.50312265,0,45.19659093,-7.33052051,-51.94156471,376.3199784,68.04992697,-91.94204923,3.871376756,22.12559969,0,-59.00451138,-24.05310968,193.8290335,472.2124509,,,,
538.6079996,2103,274.4898835,77.92055758,0,68.09371659,8.982851911,30.04328192,-404.1633667,-163.0602505,-14.28902963,70.34082237,20.5475955,0,28.65164466,36.46241689,-57.20457487,385.016436,,,,
538.6159996,2103,385.8540337,-11.58650194,0,76.03194176,36.39585649,-45.11402189,521.6824563,133.1889447,-30.02967528,65.9947128,34.33338224,0,15.70353585,31.200698,-12.04743702,-538.3417675,,,,
538.6239996,2104,411.8482744,64.91985299,0,30.75232563,-17.85348879,-1.372532541,-201.7338772,-100.6473834,-98.74090847,-3.377369815,-7.855513095,0,-73.49849438,-17.68728052,147.7601576,1036.345358,,,,
538.6319996,2104,264.3081465,46.00245118,0,90.35052905,36.49431182,5.408522219,29.87837336,-5.029042004,31.98160421,131.8511004,48.24633902,0,57.49616844,103.0569952,-146.1346953,-565.0062579,,,,
538.6399996,2104,490.0216331,-12.4961291,0,12.25646167,-28.76023514,-61.20204845,376.4218307,74.42481529,-102.6086806,-6.455397549,2.728891959,0,-50.2723007,-53.56083977,175.7086844,446.6223684,,,,
538.6479996,2104,300.1428421,99.22181389,0,68.40634837,14.49013455,65.33302949,-404.4677541,-132.3769928,-24.87575354,84.35351713,20.08013233,0,25.43867577,47.48167596,-43.61512164,437.0190972,,,,
538.6559996,2104,400.9702222,4.47450617,0,73.7732308,38.83669166,-16.28412927,524.2958742,165.239188,-12.61757469,96.24925788,52.32292028,0,22.82524395,48.24322278,-13.33902756,-556.533818,,,,
538.6639996,2104,434.582659,73.82456408,0,19.16220092,-16.67438952,23.87207932,-162.4823562,-58.41409289,-83.71323058,21.72895636,20.90584508,0,-21.57146729,-23.38231014,163.7204553,1048.282306,,,,
538.6719996,2104,273.4892816,77.37621345,0,100.0860805,66.87272139,60.60748192,39.40351407,44.22926978,43.01001362,163.7734773,79.29740865,0,115.371382,132.6492779,-133.4801695,-528.8841742,,,,
538.6799996,2104,492.3626197,16.72615571,0,23.0403001,6.182462787,-17.78160722,417.0423329,136.4451237,-74.5921447,37.59720947,34.40068962,0,-31.73843001,-12.98321853,170.5843001,388.3145211,,,,
538.6879996,2104,311.5650434,106.68966,0,53.51379892,21.1679846,70.32571061,-384.6379172,-100.3678032,-0.242423455,112.1580786,43.95490989,0,41.76184017,65.48982003,-35.2719426,432.5892118,,,,
538.6959996,2104,409.3203571,0.048663156,0,62.24786131,46.46246026,-14.0868902,541.7463372,182.5200967,9.065498993,109.4903309,65.06390571,0,71.41942843,67.54359839,-14.46126495,-598.1337246,,,,
538.7039996,2104,441.6203002,53.48803278,0,-0.155551221,-27.33531564,14.77923612,-139.9886661,-50.45133749,-85.41630492,15.00531162,0.90541138,0,-34.45792498,-34.92937426,156.2518014,1033.026304,,,,
538.7119996,2104,280.5216078,57.89641649,0,80.39028626,48.84160433,44.13610226,19.15384057,34.4584749,25.68832674,145.2570453,41.00368156,0,67.79349737,101.9777685,-149.6111161,-510.3671968,,,,
538.7199996,2104,520.7468572,-0.954496349,0,22.65738733,16.97570092,-23.60520012,452.7323776,146.2931627,-87.23348396,29.26523429,20.50765333,0,-29.72876526,-11.15245747,176.6066243,377.2177145,,,,
538.7279996,2104,341.7580608,82.02698679,0,41.01319089,9.436591309,65.66041092,-386.1106643,-110.2777794,-28.55704915,95.58314537,22.94710387,0,30.3691154,60.69213733,-18.81561338,513.7104079,,,,
538.7359996,2104,422.4253275,-8.990062637,0,53.94893995,28.9481861,-10.80065317,517.560759,174.0692072,-10.75875736,90.21450907,32.56105055,0,48.55596164,43.7420253,-35.70732046,-578.448191,,,,
538.7439996,2104,476.9277706,61.75409459,0,14.5685734,-9.926133987,33.57496767,-107.7103116,-26.56872356,-71.58025419,21.20260966,3.574865491,0,-20.00705992,-39.9669666,154.3319843,1046.466088,,,,
538.7519996,2104,315.2918429,47.08962966,0,74.8200663,54.6059192,45.70371978,8.983575641,26.77639938,49.7631945,153.2136096,56.10131522,0,90.60767349,110.0401936,-140.1128008,-466.5428632,,,,
538.7599996,2104,533.0571527,-9.377707645,0,6.620737749,4.132540745,-34.39840514,446.2249661,135.9046031,-81.92529838,8.22647674,1.886205271,0,-43.23041046,-23.05198114,157.6732217,362.5363629,,,,
538.7679996,2104,354.0331791,118.104655,0,63.53123795,24.67072327,88.99769618,-385.117929,-90.01109379,-13.76199474,103.4079549,13.54737952,0,23.24785747,58.47868281,-37.06088362,540.7094537,,,,
538.7759996,2104,425.7311817,1.567355464,0,69.12811435,45.54220348,-8.095113712,521.7157615,179.3665109,15.67372383,130.3110304,52.67958428,0,71.6960179,88.38560163,-31.87862429,-597.5449854,,,,
538.7839996,2104,446.7651085,82.65478403,0,-7.648759114,-35.00717212,34.66160841,-434.7059151,-143.9254462,-95.08347926,4.02865421,-19.65359237,0,-62.40730874,-30.42916348,180.4596281,1509.828355,,,,
538.7919996,2104,246.0972136,105.1423974,0,94.96167347,60.01037007,88.6397034,-336.7455576,-66.1111509,55.87245698,174.4982487,41.91804534,0,83.93059957,123.7497852,-211.36181,-333.3060504,,,,
538.7999996,2104,558.6665269,-68.39406481,0,14.91304381,26.51739473,-82.59264516,871.249586,265.4076582,-60.27633569,38.12704062,27.93013717,0,20.75128205,-20.65667812,148.0883628,-227.8610438,,,,
538.8079996,2104,373.7018195,78.51517152,0,6.727258569,-19.64120859,45.31953001,-516.3721934,-163.5472924,-61.14154439,22.03183968,-20.77714758,0,-11.88124436,-20.74385038,68.74947196,1158.059277,,,,
538.8159996,2104,331.3867428,30.54668149,0,90.18095962,53.1031029,23.83889754,264.0952268,107.5479843,48.24852639,135.9077868,39.17314014,0,87.74572564,116.7288509,-158.9921055,-786.4276357,,,,
538.8239996,2104,565.9462319,6.819970697,0,11.61139826,3.271918818,-25.41647745,371.8818642,108.1006092,-88.72748247,8.25206943,3.981831767,0,-26.71091088,-13.248955,212.4807557,692.2917319,,,,
538.8319996,2104,319.9506293,86.59236137,0,54.19423368,27.83756654,69.06198656,-427.4331081,-120.6567687,10.95021824,114.0791876,13.96273383,0,21.05153501,75.11201409,-95.54009561,314.8975306,,,,
538.8399996,2104,477.2959806,-49.12843473,0,30.95575977,21.98603635,-52.76860956,616.0696952,182.4553652,-19.69470353,61.3008277,9.708383368,0,-6.953463717,22.00594,3.661381931,-493.9392611,,,,
538.8479996,2104,475.4141722,52.31040111,0,4.548017934,-7.575508995,23.75272161,-193.4904325,-72.09819994,-91.51964949,2.947759165,-34.31516245,0,-45.19545446,-32.7539176,128.5298724,1060.75954,,,,
538.8559996,2104,333.0451777,35.17387387,0,69.61310691,56.30896529,33.62019694,49.41762806,27.81301756,30.15579844,127.3649881,21.90194764,0,87.586506,93.86704817,-153.1445278,-495.6909414,,,,
538.8639996,2104,540.3237662,-33.41051066,0,-8.213200199,-10.57984349,-48.76330963,438.6621273,116.5478164,-79.70194682,-7.834236889,-16.29660601,0,-36.99006357,-46.08278841,146.0592638,364.6492587,,,,
538.8719996,2104,363.1028534,95.58106708,0,54.01310483,29.95210453,81.98928877,-380.8187452,-99.32276972,-9.564577706,74.40313655,-6.809853238,0,9.053618715,32.09769059,-48.70117477,521.111941,,,,
538.8799996,2105,449.0217242,-3.513578254,0,72.96092779,62.59381664,-11.46063463,536.7640502,181.2748638,19.60455661,96.94035359,34.92781298,0,73.600075,75.43534379,-32.82286178,-594.562576,,,,
538.8879996,2105,495.1818036,37.38186007,0,-0.849033877,-26.90743983,-3.066253796,-86.94589131,-49.47546498,-80.16548457,-2.822129372,-21.90903219,0,-32.58947237,-24.35364521,161.2615625,1013.636142,,,,
538.8959996,2105,331.454479,51.64220943,0,79.45109977,55.30888255,49.08323377,-38.36005015,1.513489799,36.19490067,126.3858759,19.94009147,0,61.67875328,95.94212548,-150.0773807,-395.1596111,,,,
538.9039996,2105,552.082795,-20.67513831,0,20.15779307,23.56141587,-38.00401816,492.8352712,142.7457915,-65.5905878,11.40085932,6.343631932,0,-28.36650048,-0.845768323,147.9634372,241.5729974,,,,
538.9119996,2105,388.652002,75.68229916,0,27.39014485,7.976220323,42.08443975,-388.5770848,-128.908757,-27.79619934,50.05572428,-4.3503934,0,1.884892674,18.57952132,-5.985205707,647.9192631,,,,
538.9199996,2105,435.8722096,-23.39231804,0,48.13861122,38.64986132,-37.74758033,472.6059537,139.7541034,9.633577426,71.92210286,15.20408225,0,35.07497178,30.93497381,-63.32235876,-623.1729078,,,,
538.9279996,2105,506.6434521,32.6935443,0,-2.962321115,-27.42478557,-6.633203713,-36.37625237,-33.47911585,-81.8555073,-22.74081998,-20.68812698,0,-56.29769193,-43.1395118,169.3056933,1022.965964,,,,
538.9359996,2105,321.0429932,63.01719872,0,74.50050627,51.92748212,45.16439184,-76.71281922,-15.52373786,40.59654244,126.6327036,30.97113709,0,77.36274481,93.91752843,-152.2874527,-339.6086596,,,,
538.9439996,2105,539.1182286,-33.5762135,0,3.833303508,8.837887472,-66.82971652,507.960955,127.8899221,-66.57578285,5.890223374,-5.018719805,0,-37.32427851,-17.3214314,125.9576701,171.5473314,,,,
538.9519996,2105,382.2902784,69.92013303,0,24.46211629,0.89081318,38.47683723,-395.3562326,-137.9481666,-20.58330303,39.28392614,-7.965077802,0,2.189084934,29.01052928,-1.417386541,693.5012503,,,,
538.9599996,2105,415.7586304,-10.46090137,0,61.12117573,52.49760583,-14.51980664,455.1802544,145.3952752,27.30052603,84.26555204,23.06277175,0,61.8709427,42.75875937,-83.35605683,-669.427728,,,,
538.9679996,2105,510.1427775,25.25523333,0,-8.186910206,-26.34146002,-12.34350903,-4.526262245,-27.18701131,-80.11197653,-21.08030881,-29.7200985,0,-36.82444295,-64.09513029,164.7496599,983.4722074,,,,
538.9759996,2105,325.8665486,61.29378579,0,78.76469194,47.34515365,41.61322948,-105.5951243,-26.45175262,41.46643214,122.9034574,23.85557752,0,68.49054464,110.2619279,-156.7144867,-324.0688985,,,,
538.9839996,2105,550.3822271,-16.82665014,0,30.64057863,28.7030243,-43.25693513,531.0434259,153.8451091,-58.27979294,15.55001421,2.844850751,0,-58.04164523,1.333936314,115.3075338,115.8965315,,,,
538.9919996,2105,402.2836414,78.57875766,0,38.38572189,12.25221466,55.81546545,-376.4927145,-126.2881383,-10.29242539,58.62988296,0.640522899,0,21.77854213,34.88293959,10.57954954,712.6035014,,,,
538.9999996,2105,425.8717017,-21.3039458,0,68.19162839,56.12438231,-17.66078697,446.3567234,130.9339533,25.91527107,91.58492122,17.24838063,0,55.43117464,58.12913184,-88.52257076,-693.6437606,,,,
539.0079996,2105,538.7373398,18.86299504,0,5.911167855,-3.474609422,-8.2368468,22.42888813,-20.1391199,-95.70624298,-32.444136,-39.09521155,0,-82.45322799,-74.22059319,173.74142,979.5505628,,,,
539.0159996,2105,347.451602,61.42845339,0,81.70802392,41.63847777,47.88386108,-135.8197551,-40.823154,49.19661173,126.2486955,23.2471304,0,83.14848967,113.9459633,-144.9717128,-287.7295386,,,,
539.0239996,2105,561.7816692,-36.7522282,0,19.88318462,-3.002119622,-68.73767344,512.5792825,126.7159393,-49.5562316,5.273515483,-15.95687511,0,-32.08238288,-9.051090747,94.41985654,66.66874803,,,,
539.0319996,2105,426.0211664,76.71210492,0,45.78293738,7.862781472,40.25849315,-390.3277688,-136.1675108,-25.0256342,37.04987271,-22.02836582,0,-12.52882223,5.535895315,-3.252264293,731.6856341,,,,
539.0399996,2105,441.5861119,-10.978236,0,78.03969213,52.32661446,-20.22598829,416.8790581,123.7329397,30.21662919,104.1974268,23.71234862,0,50.43684739,92.29349775,-96.44044987,-704.768694,,,,
539.0479996,2105,555.0786275,13.08043698,0,-4.109973736,-18.91722473,-31.00882124,19.27220584,-33.93969396,-87.45475692,-34.36526121,-42.17978753,0,-68.52456098,-52.43682183,161.5478966,953.8083684,,,,
539.0559996,2105,363.7459998,74.13536153,0,91.03975638,56.53149606,49.72131228,-154.345274,-46.96298729,54.47329214,114.3680373,18.38783078,0,76.53054644,100.6698681,-158.7284449,-281.3829698,,,,
539.0639996,2105,570.5150807,-32.00549084,0,29.37726734,8.825889539,-55.79366297,528.490276,138.4589045,-45.37541615,19.00633484,1.173781459,0,-21.45443968,5.550940727,101.9190854,21.62546202,,,,
539.0719996,2105,423.7758766,53.49291319,0,18.31289084,-25.20241263,26.4571086,-409.250189,-154.4598921,-40.54662698,21.94756381,-33.36851006,0,-18.12468147,-21.54772776,-2.293780418,755.5925649,,,,
539.0799996,2105,448.5222085,-16.15209721,0,69.05094186,39.24138872,-24.29853491,396.0140447,107.7989373,28.28704308,76.84493438,4.116530273,0,49.37578988,40.07995977,-127.25177,-727.8722171,,,,
539.0879996,2105,596.2631997,30.48542288,0,18.49293304,4.002713126,-13.75186193,65.61407578,-16.86769369,-84.13948615,-24.11384913,-29.08411956,0,-75.38537714,-38.70698303,176.8236119,951.3134895,,,,
539.0959996,2105,388.2585374,67.1977193,0,87.91490547,47.41237044,50.19068803,-169.2775528,-62.19562901,46.28024289,121.86529,23.08640236,0,50.42904921,112.7528193,-138.8939725,-213.9822318,,,,
539.1039996,2105,592.629475,-56.13660428,0,14.78922927,-5.222899571,-71.65943361,535.3575115,124.0727911,-52.92255556,-0.460781376,-16.34820294,0,-38.86331839,-4.825789501,82.14587487,-7.293249311,,,,
539.1119996,2105,483.1554759,60.76314072,0,30.19016938,4.882066931,35.71183434,-383.7854864,-150.3859338,-42.63480318,15.06812661,-38.61751392,0,-40.35312022,6.165069597,7.830208294,784.2642064,,,,
539.1199996,2105,501.6839778,-8.38117796,0,79.42914486,49.17368016,-11.43247249,384.6079661,103.3410417,41.82208357,91.01056188,12.64446522,0,58.3288694,64.6172901,-114.2780121,-726.5977431,,,,
539.1279996,2105,647.5801826,7.86863706,0,4.109668574,-18.075052,-27.24323401,76.0657276,-19.7259514,-72.88001332,-29.07363797,-27.49225083,0,-48.25735055,-49.08835796,175.4815144,918.8895339,,,,
539.1359996,2106,453.967266,48.46297475,0,77.16651147,50.85369426,43.77283946,-185.7516638,-72.22504597,42.35746061,99.85266314,17.70116963,0,56.29788701,75.37157226,-144.2071692,-198.913004,,,,
539.1439996,2106,673.8483921,-61.51303946,0,18.41099853,-8.218125491,-72.53273555,543.9123451,123.6677311,-62.41722168,-15.56288849,-26.88508685,0,-21.28922701,-55.46664771,68.21266676,-42.01427126,,,,
539.1519996,2106,578.1604132,66.01110171,0,37.11891556,-17.05417113,29.45071796,-377.9290301,-149.4000185,-51.86486374,17.67300712,-44.73387406,0,-38.16207977,12.82327031,7.902689166,837.2056491,,,,
539.1599996,2106,595.1467916,1.791201619,0,98.18684462,62.43776101,-4.121407744,377.98301,107.4682644,37.85382946,106.4330054,20.94984898,0,18.63632319,121.2880444,-118.5980062,-704.3010844,,,,
539.1679996,2106,744.3335819,11.29647422,0,24.36765791,10.78354682,-14.13546172,105.8509978,-6.493823317,-70.2830863,-29.47566309,-20.98231377,0,-41.08706944,-37.33088447,176.9395077,901.4379433,,,,
539.1759996,2106,542.5900749,70.07675454,0,101.6794781,62.07637454,63.76559119,-191.3632664,-67.01619923,61.42142046,112.9682339,30.61480461,0,77.03486163,96.70483226,-133.1665532,-168.8560319,,,,
539.1839996,2106,756.7254143,-39.20367511,0,48.43410787,14.19148346,-51.04788173,573.3042482,145.2627746,-32.04527051,17.02185925,4.538914513,0,-37.81143931,0.191953979,84.3226672,-82.00610765,,,,
539.1919996,2106,631.3206239,48.45207256,0,35.82733832,1.534433435,30.86613818,-364.5379866,-151.2193622,-39.7786474,9.435518394,-27.92902161,0,-9.504266931,-5.258217594,37.77618726,860.4076863,,,,
539.1999996,2106,602.5627336,-30.48096507,0,76.43641332,48.50081108,-17.27487512,350.7314427,83.4850617,36.12593705,77.54895477,15.06377289,0,39.44564344,74.34413446,-114.4667697,-702.4557662,,,,
539.2079996,2106,754.3630108,-7.887837503,0,10.30315404,-15.83385575,-29.31309519,125.6794087,-3.315154807,-88.19363238,-49.3728988,-40.74640317,0,-95.54140513,-54.61657235,172.4457378,892.2762567,,,,
539.2159996,2106,532.2051809,57.43705412,0,88.68137504,48.66548891,51.05441302,-217.2320053,-76.74703876,34.36724098,91.41029963,5.536016522,0,58.98028029,79.8948817,-137.108029,-109.0362023,,,,
539.2239996,2106,724.0478798,-55.58760146,0,29.67603709,11.8061008,-69.95206977,549.8033814,128.9649546,-37.9724847,-6.4635351,-7.489442331,0,-13.95827669,-25.22079868,64.00008051,-109.0244267,,,,
539.2319996,2106,610.0473942,48.89526485,0,24.32452317,-2.614371059,20.59518362,-375.834257,-156.487565,-34.53096827,-4.504672712,-22.44595087,0,-23.61962169,-27.84337896,26.13845892,864.7179102,,,,
539.2399996,2106,567.0508046,-4.674244452,0,93.00409895,65.96160098,-5.232195539,334.8976204,89.89340902,44.16686319,85.41501639,31.24036351,0,28.32788682,93.25573624,-119.5800391,-718.9358281,,,,
539.2479996,2106,726.3103671,26.46065325,0,-1.170897865,-26.11828859,-22.15335198,-101.6030107,-78.97303151,-111.3256837,-92.97986336,-54.15998486,0,-134.6539851,-86.9935136,243.7999671,1441.706483,,,,
539.2559996,2106,392.4636855,142.5929246,0,56.09183396,4.502510902,110.0877584,-1133.604634,-373.2437146,37.18056656,57.56585739,-18.5037634,0,33.3364032,38.7414899,-140.8271325,939.0568907,,,,
539.2639996,2106,487.0024363,33.75394004,0,64.7594493,29.02720088,22.81705728,-190.3519496,-81.48063944,46.20181872,68.11860758,10.46215383,0,38.08631278,66.37785269,-127.7229772,-155.6926209,,,,
539.2719996,2106,544.1037864,89.55584397,0,24.10309408,-13.70677283,49.72370532,-690.8011866,-248.7876513,-34.88701694,-16.65361068,-37.67136264,0,-45.7797789,-23.9759891,41.74738398,1237.42583,,,,
539.2799996,2106,477.4189284,31.47620285,0,79.99612784,45.34690803,30.62531796,-79.59148798,-38.20410532,64.50825854,91.12712924,20.65463513,0,67.57660953,79.03822782,-159.0906806,-421.005822,,,,
539.2879996,2106,699.9778264,-48.32279871,0,41.78886604,25.96167338,-52.21045062,671.3849217,179.0334733,-38.18851733,-2.639037535,-6.208581774,0,-33.76876106,-16.59978162,101.6866014,-130.8764415,,,,
539.2959996,2106,574.3808518,69.57585572,0,44.33164752,6.913881096,38.39224385,-328.2169842,-130.4272781,-36.83585433,8.745180226,-28.38175005,0,-39.59776407,-2.041796553,46.92084471,820.2940351,,,,
539.3039996,2106,539.4571902,6.657415765,0,84.39101545,52.85889338,5.171643096,206.3119067,49.75456157,46.18836839,82.98517578,28.49319149,0,55.58270114,107.3733002,-99.04787377,-516.3451543,,,,
539.3119996,2106,690.7868596,-13.68774666,0,40.88077907,18.16872197,-18.52559801,370.7749997,89.70632283,-44.86024891,-13.1454679,-2.633425814,0,-36.79333595,-14.2827356,133.2191087,328.7737766,,,,
539.3199996,2106,541.0913049,67.33087897,0,62.91806952,14.53484385,46.72599956,-290.7446818,-113.5264961,4.973718079,53.50985833,0.669310939,0,-12.56954172,32.96983635,-8.696073429,441.3312209,,,,
539.3279996,2106,586.4946652,-33.12157546,0,59.95419805,25.09340674,-42.94303657,414.8205004,93.9972627,23.78038233,61.93467556,15.62337595,0,28.71771952,69.48090422,-38.41435016,-496.3902275,,,,
539.3359996,2106,641.1760552,-0.658364721,0,9.662142812,-11.98272208,-24.29239174,15.48153859,-40.98826465,-66.55776246,-42.7487198,-38.52675681,0,-54.94457282,-46.51861801,112.1674084,749.6962687,,,,
539.3439996,2106,504.6494281,35.09582672,0,69.34945264,38.88070826,20.37179808,-107.126868,-51.41225378,34.03261477,65.59667858,12.29634522,0,22.26334926,49.11691343,-110.6994026,-177.3789338,,,,
539.3519996,2106,660.5171641,-51.49355599,0,29.54611511,15.29856811,-59.85348575,488.2904684,117.1911364,-27.36731376,-9.769366398,0.352039658,0,-30.01658099,-23.27701157,74.84211651,-71.07192459,,,,
539.3599996,2106,564.0533514,48.34502383,0,33.68800226,6.477644394,36.31636658,-307.0689623,-120.7896077,-25.80552683,-8.523176461,-21.26210275,0,-22.934845,-13.16088808,38.60780688,740.1634518,,,,
539.3679996,2106,556.1008455,3.167010951,0,80.07727837,49.09643463,-2.124280613,311.8501913,87.21385731,48.40962678,78.23064506,30.16593577,0,46.54602691,75.11345196,-90.01425417,-630.4466557,,,,
539.3759996,2106,689.0284004,-9.746120942,0,6.052384021,-11.4962607,-34.78000167,151.2096586,8.491310017,-68.58218773,-41.01789359,-31.4004922,0,-83.54832195,-45.09028661,156.573644,738.0958705,,,,
539.3839996,2106,500.2619591,43.16814572,0,69.5895614,39.46749162,41.34889314,-230.8185124,-81.66495331,39.62653522,71.21392403,3.93742565,0,53.26795613,80.01165775,-116.8480842,-33.03090536,,,,
539.3919996,2107,676.905655,-34.5577313,0,47.72520528,22.29694234,-48.63015588,540.1891145,145.8850966,-9.362159128,17.75642929,12.48536327,0,6.739073938,27.71251017,60.4742509,-226.2791541,,,,
539.3999996,2107,607.4809521,48.20268844,0,21.7775427,-9.017371269,23.5896442,-317.452077,-131.0510499,-28.49387288,-4.469449661,-19.49447138,0,-57.13042256,-9.66155716,68.16035209,857.0921438,,,,
539.4079996,2107,565.9676528,-13.01194639,0,74.55745759,58.8517175,5.086500236,264.919339,72.32820082,51.02636329,66.70252368,17.84475294,0,75.84248649,42.39497019,-128.5354713,-699.4948872,,,,
539.4159996,2107,735.0292997,0.448777485,0,24.53117484,16.44548784,-12.96292056,217.6940414,47.37948898,-69.05944194,-52.82165332,-23.79141137,0,-44.62084463,-65.17889887,182.8868284,727.8399797,,,,
539.4239996,2107,522.2513754,66.63338564,0,87.82390645,53.09900425,56.98854273,-267.8353577,-82.38881855,58.58316536,88.54341033,27.37237818,0,15.8755272,97.16478559,-90.17276527,10.07230235,,,,
539.4319996,2107,694.5812941,-39.86569981,0,57.50568028,28.3396461,-43.73419729,573.7558407,158.1315219,-0.784468886,21.34921982,14.84968396,0,-3.96566391,43.05921934,52.48214707,-318.7663769,,,,
539.4399996,2107,624.7611552,54.80618769,0,31.57718098,-5.078444831,40.54940765,-299.4178183,-117.0443,-37.69185413,-6.410994781,-21.3342917,0,-31.17166084,8.517119332,86.12696777,911.2226361,,,,
539.4479996,2107,543.969097,-19.80344044,0,66.83744593,45.22920953,-1.824600991,239.0449561,62.70020476,54.78896066,84.26137372,25.33911538,0,48.82012397,71.48333222,-130.9016601,-721.5656958,,,,
539.4559996,2107,707.1654143,-48.75260649,0,-21.11095201,-24.98436572,-56.22285766,230.2432859,27.49489449,-89.33951339,-75.47949678,-47.51308656,0,-73.62223316,-81.46530889,163.6851355,689.7619318,,,,
539.4639996,2107,485.1843036,38.32083185,0,47.00434663,34.78504717,39.65332721,-298.3959521,-107.8038062,17.98029023,46.31635351,-14.13598331,0,28.62804833,46.51295038,-120.8520197,61.41191204,,,,
539.4719996,2107,650.1669446,-40.14262686,0,42.72198689,36.0793054,-35.8137467,587.9499841,174.4102962,-13.29673866,19.60668294,8.849854886,0,0.892176014,0.052955821,34.73512692,-334.7451704,,,,
539.4799996,2107,569.5696366,53.45286957,0,16.10505789,-5.135030033,43.88000359,-282.2375325,-93.82690633,-38.37068728,4.400328758,-11.10746092,0,-36.51775961,-14.04202202,98.48630109,955.9774111,,,,
539.4879996,2107,471.0099772,-22.90194927,0,49.56368586,48.6740741,-2.01715728,226.5685107,64.07062649,48.14417349,89.96815496,29.67782593,0,58.27277415,99.71090531,-126.57221,-699.7691628,,,,
539.4959996,2107,650.3945906,-37.49896787,0,-25.69301296,-23.52320564,-38.06605755,261.4429258,55.81664482,-87.23285455,-55.01058873,-31.10467293,0,-71.25084578,-56.61385998,174.4382368,684.3354348,,,,
539.5039996,2107,428.4155935,62.10670249,0,47.43674699,35.17622646,73.86917809,-304.723359,-70.81803494,37.2114178,84.7256068,19.32877417,0,43.72404576,56.01421624,-103.0295793,103.2990033,,,,
539.5119996,2107,587.4498634,-54.41318429,0,9.36671086,21.61061878,-48.25068187,581.1616272,184.8275926,-0.570369743,34.34618532,36.26978981,0,28.78381089,22.2585477,46.35032316,-374.2110253,,,,
539.5199996,2107,517.6992859,39.65418584,0,-23.64221958,-28.53075241,30.53806384,-286.7627652,-87.6698159,-45.06339517,-12.25230757,-4.236160328,0,-28.94471533,-21.21611343,99.59000247,961.2208204,,,,
539.5279996,2107,421.658609,7.778473027,0,48.63482891,57.98553968,29.87021654,214.2147026,100.0200482,61.5076321,102.3395024,53.17936728,0,83.56309536,74.74745901,-140.0517087,-716.2015126,,,,
539.5359996,2107,627.2769494,-18.95292268,0,-28.6239262,-5.911334013,-31.91369686,298.8132674,94.34098441,-60.5765274,-29.33049997,10.34114478,0,-30.94249653,-55.18473184,192.2905369,637.2607452,,,,
539.5439996,2107,401.6813585,53.01114847,0,24.92811556,32.16896853,62.19603555,-313.2480974,-75.76976106,46.79904741,86.1382569,33.34546518,0,76.231077,75.26125271,-87.88518367,138.1374745,,,,
539.5519996,2107,544.2604969,-66.45421447,0,0.109542891,28.28010858,-45.41089331,588.9520664,186.703812,-6.920110489,25.84224957,30.13074965,0,45.77873792,0.778518032,32.44723,-409.785663,,,,
539.5599996,2107,494.5521369,38.3984567,0,-14.44055665,-16.00347366,35.14548379,-253.2292655,-70.47638404,-55.04594014,-10.84768002,-0.579735021,0,-36.95376024,-37.99130692,117.9132192,981.4646094,,,,
539.5679996,2107,379.8608431,7.335295534,0,59.50809913,58.71628968,34.31626734,200.4951714,97.20756442,63.62178423,116.5620763,54.10983576,0,92.2825755,110.3409475,-129.1045514,-680.6341999,,,,
539.5759996,2107,561.8663708,-22.62059211,0,-21.07174253,-3.584314238,-28.73500976,316.7721831,98.86323544,-60.90946555,-27.40830242,5.042243958,0,-19.17087704,-55.0367339,189.7829237,612.7274968,,,,
539.5839996,2107,331.7435757,64.65061787,0,41.87931246,35.98815848,73.84825182,-317.1029576,-69.37790622,48.2672668,92.85619746,41.17771882,0,37.32703806,63.83416747,-79.40999387,163.4324942,,,,
539.5919996,2107,470.0243735,-53.03813968,0,25.9361711,46.27981449,-36.28287341,596.7335346,197.4242184,2.738571923,46.54880684,34.74115867,0,19.98178319,27.27433042,29.39570025,-448.8149335,,,,
539.5999996,2107,422.7456975,33.1387046,0,-12.8159413,-2.89643899,17.42491217,-238.1000921,-75.9688391,-49.97950415,-8.122147485,-6.31588228,0,-9.490879373,-42.55733402,125.6825773,983.3074154,,,,
539.6079996,2107,298.8658816,-10.31708296,0,39.84376967,39.03743124,6.609190574,165.8748117,64.74790698,69.76708223,102.8240273,47.76309456,0,102.2154515,80.0854691,-138.8329261,-673.0409459,,,,
539.6159996,2107,493.123134,-42.00389338,0,-33.99151937,-30.02219116,-53.09037442,323.9703175,86.28332636,-75.05019519,-50.01777999,-16.95814114,0,-39.97285098,-81.68340021,169.2410213,590.4596307,,,,
539.6239996,2107,264.490907,46.96728235,0,26.70459301,3.698495267,48.13339695,-340.4679072,-90.43692153,19.98926704,80.05481186,12.56038527,0,34.93830231,52.48218938,-89.51089042,224.9670624,,,,
539.6319996,2107,386.9108034,-84.25633806,0,-3.411690913,-0.098908992,-68.27552985,561.8814599,163.5789822,-13.31926327,35.80825276,6.809524205,0,20.99857182,37.5622869,-0.09993479,-457.7860755,,,,
539.6399996,2107,358.554839,13.03150735,0,-30.32095068,-24.09861495,7.774092342,-243.2625452,-88.20089546,-72.60114364,-40.51814793,-41.66179142,0,-43.81041078,-68.56728048,105.2374928,1006.689427,,,,
539.6479996,2108,244.3271715,9.203981172,0,61.39553435,60.76664307,36.25650006,152.0315288,76.87772703,61.83122249,104.6475824,40.77815046,0,78.11243773,58.01836482,-144.4666752,-643.0628281,,,,
539.6559996,2108,438.2214908,-35.53732988,0,-18.18081736,-13.40067988,-47.14620862,340.847053,97.35312797,-63.60819906,-32.01577654,-9.945526136,0,-41.42636857,-59.69966965,174.0151749,554.1916591,,,,
539.6639996,2108,217.7926489,52.16287485,0,38.48205694,25.24796126,51.02025098,-346.1004547,-86.74851689,37.03226078,74.5647443,10.48593806,0,45.39396789,68.39178003,-80.48970896,239.9518352,,,,
539.6719996,2108,347.1226914,-68.53333056,0,27.27683665,36.76299058,-43.80882624,586.4151047,191.1331046,16.51144488,46.60273919,26.73140395,0,43.89562293,48.83933925,8.508050644,-512.2522514,,,,
539.6799996,2108,317.7455544,-3.1570555,0,-29.21837637,-28.02404213,-2.844701042,-222.9394496,-92.40231675,-78.05766585,-50.79230793,-42.94396894,0,-63.43251232,-59.71847689,122.7822751,994.3307376,,,,
539.6879996,2108,196.5962273,-8.731762765,0,58.35369339,46.73413875,21.32527926,117.8286844,45.10028333,41.79568062,83.68368013,16.86381694,0,66.87935609,78.0918545,-148.0960366,-629.2881357,,,,
539.6959996,2108,400.873852,-67.37513725,0,-27.66402163,-28.52332299,-63.67807492,347.6942775,76.46860998,-68.57922423,-48.02015625,-19.60742035,0,-20.70177495,-59.36967548,167.8310196,525.8362199,,,,
539.7039996,2108,178.6805227,20.9667722,0,15.76985368,6.365479415,30.29319302,-380.804009,-131.4600334,19.72237708,19.7550747,-16.35082975,0,31.54088681,-17.13921548,-96.82923547,281.6025046,,,,
539.7119996,2108,314.3331405,-53.9881336,0,52.91131647,53.83691087,-28.80632886,570.0819916,180.8321309,19.76362796,23.22498966,17.95076736,0,47.87657406,-1.694914231,-11.83966585,-527.9494186,,,,
539.7199996,2108,303.8506077,8.10891077,0,2.75753649,-18.42031944,6.816790018,-201.2642204,-79.95158931,-58.10504311,-25.12617574,-16.86533915,0,-34.89300386,-5.647354963,145.9587403,1015.047881,,,,
539.7279996,2108,166.9386764,-20.15704869,0,64.46525351,46.69891277,8.989851781,88.2662788,29.1688066,49.56274756,80.07356086,23.36612746,0,47.12686934,83.68454614,-144.7336665,-608.6227079,,,,
539.7359996,2108,379.8872031,-66.19272919,0,-1.847587129,-11.80314197,-59.56977737,365.7867127,91.20883967,-68.86019862,-60.28376341,-22.14498007,0,-52.47081152,-68.5256297,164.0198064,494.9745097,,,,
539.7439996,2108,172.9734317,32.17655986,0,43.57999248,7.907431383,36.88991502,-378.3819279,-115.5596942,18.96479188,39.03065975,-4.683873925,0,53.32169737,45.83133003,-74.2577967,332.8469461,,,,
539.7519996,2108,301.5816717,-60.15506146,0,50.19238215,40.06261487,-47.30064881,553.2540638,172.8623305,22.78296456,28.30200844,20.72776225,0,59.8096325,-5.369522014,-13.02211822,-546.4911539,,,,
539.7599996,2108,298.4601455,12.94135948,0,7.276614516,-18.9679905,4.755969032,-193.5890979,-74.0403448,-52.49920361,-34.82485834,-21.6339881,0,-52.84248267,-62.27271381,141.346487,1019.662453,,,,
539.7679996,2108,151.3951383,-0.739857313,0,81.3265971,50.20529128,26.32799435,67.78379368,34.02135142,73.17865459,90.56931244,33.09130362,0,82.46868545,102.2602494,-151.868649,-605.7785036,,,,
539.7759996,2108,367.5216818,-51.68349946,0,5.069034757,-8.034541786,-48.55714056,388.7112392,105.0769512,-42.5425543,-50.36327618,-8.385118222,0,-19.18972741,-43.20454788,161.1230382,425.45333,,,,
539.7839996,2108,159.7693102,44.51418928,0,52.69080937,26.535577,54.28998362,-366.4343286,-103.3284529,24.31480744,52.21304726,3.963758028,0,35.83635448,40.41950698,-55.61709674,352.6225987,,,,
539.7919996,2108,277.6991464,-55.34800033,0,63.44835717,60.35596677,-29.30060393,559.5735064,178.8686398,21.53419213,44.65793502,30.70146293,0,55.45591032,19.27975786,0.396844408,-574.7958691,,,,
539.7999996,2108,289.8697767,19.87504639,0,10.87570042,-10.25032219,19.72503327,-170.3222736,-69.94170811,-52.55521934,-27.38337823,-12.63990051,0,-48.60770268,-28.73849052,157.4432847,1013.026433,,,,
539.8079996,2108,125.9958119,-3.777312912,0,74.18821813,52.38013653,28.03471626,51.75941664,21.64664659,74.90013653,100.6532357,35.91486091,0,83.44076782,102.1404413,-149.5026373,-589.0398098,,,,
539.8159996,2108,351.7630407,-56.45013606,0,6.351907189,-0.233563483,-57.72924482,416.7733361,107.1885634,-48.99826058,-51.40019395,-6.283851465,0,-7.847246682,-78.29797599,171.0700499,402.1167053,,,,
539.8239996,2108,157.7918085,47.25514609,0,48.74679084,12.99419282,46.33144449,-370.1014562,-116.9005756,17.6258398,48.87174383,10.3864473,0,33.69615654,37.7118299,-30.82096227,418.1994824,,,,
539.8319996,2108,246.2521963,-62.26620654,0,52.21357475,32.79068552,-42.46728313,538.4748694,162.238459,29.28074524,43.73686058,25.66834586,0,44.49800518,47.60168344,-15.28076925,-575.7198941,,,,
539.8399996,2108,268.9837698,17.89755586,0,10.58805869,-10.52252912,4.481800239,-142.1421272,-58.08379803,-51.26157043,-43.3016624,-21.4439355,0,-44.66646031,-46.07093453,155.6272626,1033.254642,,,,
539.8479996,2108,100.5226541,-4.204954491,0,72.69282544,53.24438111,22.92774556,44.37075202,18.89056692,66.43162374,94.90335397,40.11511855,0,70.90730575,89.53470579,-125.8573414,-521.9225933,,,,
539.8559996,2108,300.9136461,-63.16976592,0,4.159982652,-11.39844482,-54.75780101,419.683803,105.7493797,-58.6354841,-57.98701388,-18.52522653,0,-51.11518091,-72.47158435,167.9664613,401.373771,,,,
539.8639996,2108,100.9478815,49.04612839,0,54.14743797,8.248912437,45.78076625,-388.9482098,-120.9929193,24.69486132,37.67809939,-6.916241542,0,24.41399067,26.33027125,-52.60195597,451.3772643,,,,
539.8719996,2108,175.3882565,-78.61544671,0,47.70336977,33.50843537,-58.76113455,516.3389174,145.8810044,38.86805991,40.03144401,26.92377368,0,60.46439361,31.6998563,-37.42533463,-605.1871552,,,,
539.8799996,2108,199.64828,10.04429025,0,11.89419133,-6.770570937,-0.300714725,-136.5292327,-61.49872045,-61.8204424,-61.43791357,-28.53799847,0,-52.71608464,-71.59434148,145.3216197,1015.724518,,,,
539.8879996,2108,44.12186083,31.16745309,0,105.010735,62.89141627,48.99382614,26.99345223,30.17287311,74.79674309,103.7506929,40.9936174,0,79.62868646,102.4993619,-144.9113806,-535.1135867,,,,
539.8959996,2108,254.816185,-51.02759511,0,17.41615527,-1.031029316,-53.1148159,439.3426807,113.6061606,-40.98220035,-28.0421053,6.197642529,0,-21.47130458,-27.43568975,167.3673018,341.0214149,,,,
539.9039996,2109,50.85610371,57.11839449,0,56.14438171,28.69502139,48.31716447,-389.607293,-123.9740308,29.71076798,40.18927291,12.28148163,0,36.55388917,27.52510761,-33.80837021,468.7666189,,,,
539.9119996,2109,130.9012543,-48.2962538,0,75.01048624,56.41641851,-21.5712843,524.0598509,161.8772092,55.65265822,47.2806153,42.9235837,0,59.90616752,19.38312052,-35.97766552,-658.4423893,,,,
539.9199996,2109,172.7164764,7.4477013,0,13.98040549,-18.17161352,3.85242653,-107.6547106,-65.35284587,-55.96638017,-47.93171304,-14.25061466,0,-48.14775671,-53.01158467,163.5468434,996.3721986,,,,
539.9279996,2109,-5.897751823,4.20832693,0,83.57202504,46.26395158,23.50283146,-8.520335966,-6.796491268,55.7921892,96.79448199,28.95015833,0,73.04691144,121.5778638,-147.3273926,-501.6745909,,,,
539.9359996,2109,208.6269508,-71.80005543,0,15.49079392,1.996267868,-53.82324627,442.777469,108.1021996,-50.08824304,-53.83840929,-15.62670268,0,-43.12741032,-38.28396021,144.763335,295.5984018,,,,
539.9439996,2109,35.978778,56.44268362,0,58.78760971,17.40287887,59.30022338,-393.7459464,-132.5114887,24.56030458,22.79811292,5.810412582,0,30.3162667,22.85754241,-25.50787939,498.8848386,,,,
539.9519996,2109,119.2976031,-49.81128817,0,62.65751516,34.42757986,-36.06090641,494.8192705,139.8374353,37.80237079,53.790722,32.08169204,0,47.34552184,34.04162333,-39.33739095,-644.9498765,,,,
539.9599996,2109,175.7985075,-6.126670249,0,3.692594429,-22.14129246,-11.82580931,-109.3843025,-73.82581419,-60.36482731,-59.62234534,-30.41618581,0,-66.53977288,-70.04386854,153.1786807,1003.24801,,,,
539.9679996,2109,19.25491065,13.63927835,0,85.85595314,47.77988129,26.36150075,-37.64400134,-22.11831807,73.26293133,74.66091305,38.60773419,0,80.77993868,93.31608896,-146.9855037,-495.5715411,,,,
539.9759996,2109,272.5875681,-54.40210294,0,14.91752337,-8.206087535,-63.98126829,445.8738644,101.8422219,-49.17865199,-55.44495308,-5.250192351,0,-62.1473226,-56.06466787,143.8641846,254.9374383,,,,
539.9839996,2109,140.287041,72.40564728,0,69.3075277,34.14056844,55.31843719,-391.9183667,-127.1680939,28.81099151,29.86799432,8.32192991,0,21.88640995,20.98911056,-28.01857698,533.4611806,,,,
539.9919996,2109,233.5493971,-33.92652755,0,78.72176733,55.12957625,-27.08564462,497.1454497,147.5263987,63.81675555,60.3057897,55.79468749,0,83.19486606,47.96795965,-43.42330499,-671.1988071,,,,
539.9999996,2109,291.3332842,-1.281333047,0,-3.00088623,-42.32630543,-14.31235922,-93.08161309,-77.15970425,-68.20388793,-71.23280971,-29.21388935,0,-103.56057,-86.91729828,155.6279996,1003.198137,,,,
540.0079996,2109,118.7801935,17.89669282,0,82.9898358,39.31002071,20.07736079,-62.53656288,-36.38625907,75.80478467,67.7517738,23.07707696,0,51.86677886,87.60863138,-162.6851261,-458.0595213,,,,
540.0159996,2109,345.4008634,-59.55015142,0,15.71173652,-13.59976507,-78.77464173,458.9270355,102.0747937,-22.9325194,-49.45056092,-0.244297497,0,-13.62607905,-40.46722998,133.1584945,224.5613031,,,,
540.0239996,2109,162.7510481,65.65813097,0,57.74226869,5.618918167,47.34121564,-405.6425462,-139.5783743,14.80183352,20.29230679,-1.093719143,0,4.543083009,8.536985344,-22.95920774,587.635011,,,,
540.0319996,2109,212.7391034,-33.0081403,0,79.6062913,61.75935739,-27.70244273,466.9417292,137.3973038,57.36863278,50.28191676,40.34290429,0,54.80987021,53.7973175,-58.03226781,-676.9976349,,,,
540.0399996,2109,276.6634682,8.842897514,0,10.82296921,-11.27024959,-13.7576353,-78.87589286,-62.02777033,-48.07893157,-69.18854547,-20.27349375,0,-53.66190383,-70.58346844,166.1508565,990.782436,,,,
540.0479996,2109,89.31888401,33.85372089,0,94.32949483,54.09150188,40.91673751,-81.96855075,-28.23398927,81.31557561,81.3660583,43.70766239,0,76.44739584,66.48720675,-143.1396591,-422.9138926,,,,
540.0559996,2109,287.5709035,-65.84316782,0,18.36686592,3.783217521,-76.05023084,463.2890008,103.3057752,-23.02556504,-43.84977941,12.64144552,0,-30.9380972,-40.18634437,134.5857208,192.0863187,,,,
540.0639996,2109,75.53035019,51.78189773,0,53.37833523,12.84977892,32.03259922,-420.8101103,-154.2496624,18.34054257,5.835890192,-8.671148826,0,-8.909219593,27.77280159,-21.70434931,610.9601949,,,,
540.0719996,2109,99.8467196,-32.35402426,0,81.97397308,50.21646944,-19.8471824,445.7854032,129.776618,53.4842615,44.22553581,31.8036404,0,31.27466379,42.91034436,-74.94706384,-694.249084,,,,
540.0799996,2109,153.0707447,11.71895569,0,16.28395488,-14.80521159,-5.735472288,-60.79555424,-53.5942898,-48.36902793,-60.1831647,-7.411326023,0,-67.23362283,-74.27444678,164.5769133,990.0254147,,,,
540.0879996,2109,-70.28466148,43.35474204,0,104.6162891,68.41638164,47.22570671,-106.1541778,-26.77369883,97.80741702,99.10280271,52.88067847,0,83.58209952,89.60346312,-143.2927189,-402.1503941,,,,
540.0959996,2109,137.2051314,-56.88909262,0,28.74441895,12.13121318,-61.2334569,471.9112622,119.4990728,-15.09805062,-28.86555183,12.25826103,0,-21.24624779,-16.67444472,125.922954,132.8915011,,,,
540.1039996,2109,-42.7534754,49.26304021,0,42.91700997,-1.131424325,36.10213137,-433.4050471,-155.6561779,18.74846774,7.590976841,1.918812498,0,15.94965311,20.94330632,-9.856458927,637.684634,,,,
540.1119996,2109,-17.36869951,-54.10561026,0,53.87526632,37.97985404,-45.98222525,403.7505676,108.4838021,60.23858907,32.13554833,29.72156926,0,62.88312843,23.80066768,-87.84615948,-715.8697147,,,,
540.1199996,2109,69.59490143,-22.56967914,0,-19.22801152,-26.9690594,-36.73264529,-63.00098842,-65.23024813,-70.11104949,-99.28899909,-41.85682719,0,-83.98552629,-88.32095825,138.1575722,963.5108674,,,,
540.1279996,2109,-123.9502099,39.98717715,0,90.30871512,57.92518779,51.06189005,-137.1469191,-35.96801428,72.78175515,71.47388428,32.93901089,0,47.15081507,69.96490304,-158.0695277,-366.52099,,,,
540.1359996,2109,96.87665421,-59.21027668,0,22.21392981,3.198485074,-64.75965065,475.6615898,119.2225396,-23.23146886,-41.30981288,11.09785378,0,-39.3316902,-45.7805787,118.128209,102.8568237,,,,
540.1439996,2109,-67.66279113,50.85620413,0,40.77948634,-3.72867865,41.30100805,-426.7772151,-154.3646399,5.192874354,-7.544721648,-14.87325036,0,-13.59366561,13.421294,-7.692171404,674.0842198,,,,
540.1519996,2109,-41.57134705,-3.688903537,0,99.49312208,68.82849896,3.436174929,412.0127012,136.4657805,86.20655537,77.82535654,51.26081246,0,76.15649585,72.824812,-73.93840055,-712.9361749,,,,
540.1599996,2110,35.38713675,6.055593666,0,8.734217779,-20.27953912,-18.75972868,-31.04751649,-48.7555179,-34.07591035,-46.9423042,-0.543079038,0,-35.7242152,-53.80053485,170.5064092,953.8225856,,,,
540.1679996,2110,-192.75688,37.73049893,0,79.62938542,31.28160071,41.30920269,-173.771585,-63.57467994,75.78273832,68.02002593,22.53062931,0,60.358257,77.44110325,-165.8527269,-351.1578273,,,,
540.1759996,2110,11.13162191,-44.19437152,0,30.43625744,11.19551375,-63.15100699,474.6955256,122.3654046,-0.783148009,-32.38235007,10.00213414,0,-25.34132188,-32.44433183,101.4376288,47.03704523,,,,
540.1839996,2110,-158.8831957,36.97648455,0,22.79147156,4.189867949,3.550397629,-428.4179331,-172.357404,20.81970736,-8.821959484,-6.095569383,0,-12.46745683,-5.523513459,2.758057398,688.229107,,,,
540.1919996,2110,-153.9169041,-49.29271215,0,52.02712245,33.66429451,-56.37911622,366.6230509,82.58009321,54.30101616,20.71660986,7.603402008,0,21.5863479,36.93644804,-104.8276829,-728.7661014,,,,
540.1999996,2110,-66.01333772,6.232875229,0,5.147589563,-33.52348575,-27.90217243,-22.36944966,-45.03401627,-53.76381561,-81.39619418,-35.0470953,0,-65.13153739,-70.7157386,154.315348,954.8841934,,,,
540.2079996,2110,-291.8026403,62.25963223,0,99.04031833,66.96547152,58.54773459,-167.8238948,-43.21949411,91.90654942,88.02491716,34.51748422,0,83.20414912,69.83771571,-150.3099116,-308.5714933,,,,
540.2159996,2110,-95.98709214,-50.6487231,0,21.40827394,11.21665324,-61.88387819,488.4125399,117.0775092,-0.303731834,-34.66642451,10.46513595,0,-32.72370183,-49.53713264,102.3159378,9.105492065,,,,
540.2239996,2110,-268.3705575,52.91685039,0,31.31141382,-9.402802269,22.59820853,-424.6533378,-168.3290228,17.3580065,-15.68168064,-9.357832859,0,1.15121749,11.20444911,3.235742253,721.0384304,,,,
540.2319996,2110,-290.4987575,-25.41680639,0,76.25469151,65.71705469,-36.35921761,366.5880205,100.9116134,79.66665002,50.84858833,39.84886483,0,72.1777195,67.65366571,-101.5594073,-746.8665174,,,,
540.2399996,2110,-218.9209703,-15.49641828,0,-18.20444592,-39.85304433,-58.42908608,-16.98366165,-61.64578066,-45.74854792,-92.18395304,-20.24888154,0,-93.84105102,-100.9510595,160.2369054,913.8342428,,,,
540.2479996,2110,-567.3710496,84.29802447,0,131.1730696,68.2250375,76.72172367,-371.2153052,-107.9649244,161.0505089,127.6710279,39.24131006,0,119.4041069,136.9857671,-364.2603107,-963.2333765,,,,
540.2559996,2110,-411.3598363,-17.27682196,0,129.4408552,96.0860415,-9.315127426,514.9605763,170.2029756,151.0428996,110.5372661,60.66621479,0,121.4258779,116.1786077,-278.1928761,-1682.201002,,,,
540.2639996,2110,-273.5036574,6.477739875,0,12.52860958,-15.56751388,-25.24069233,-62.94868105,-58.28808986,-12.7406129,-46.79244341,-6.593015119,0,-34.98035034,-51.15920578,71.68851598,585.0447583,,,,
540.2719996,2110,-310.3898037,2.838391404,0,35.20930763,14.315718,-21.27271878,70.1412922,-2.847584373,5.699320984,-8.437767999,11.27728765,0,7.051188784,-6.003533592,35.60391756,242.026809,,,,
540.2799996,2110,-363.0427426,20.82044855,0,50.00344116,15.94310835,-3.067765132,-45.36197462,-32.54425241,34.43385782,13.51262034,15.28699701,0,3.75523081,11.35683461,-22.24808228,115.9344937,,,,
540.2879996,2110,-328.9834758,6.393170384,0,54.60777554,14.13780648,-13.50180498,108.7821468,16.8460364,44.07505913,9.982424217,13.93690578,0,-1.412758371,8.622161178,-24.9307664,-61.60588625,,,,
540.2959996,2110,-248.4678252,3.075824282,0,24.79406217,1.868988754,-25.99709357,65.69729224,-10.04895077,2.580359592,-30.88753196,3.831818302,0,-29.94111045,-14.41004523,97.0507377,493.6317418,,,,
540.3039996,2110,-362.7536139,49.6943291,0,69.78904808,38.43076316,23.89429975,-138.3741086,-50.50074571,72.7262615,47.35032985,29.11888746,0,55.03116359,60.35513598,-80.75189321,-94.3774905,,,,
540.3119996,2110,-222.8600097,-31.18304407,0,21.25291491,12.17175316,-54.66044442,350.2356244,85.06286841,16.04547693,-18.9535829,21.16595925,0,3.273647768,-24.58765339,81.57517647,40.58455393,,,,
540.3199996,2110,-347.8994475,20.45272949,0,6.774957615,-9.280957502,-8.03201008,-292.1965577,-123.674498,13.73368115,-20.65302773,-0.564235197,0,-15.37656394,-16.16025045,18.0006122,568.2472228,,,,
540.3279996,2110,-365.5944674,-0.646101609,0,55.19881674,37.0172712,-13.59552436,246.2146377,74.1380621,61.29685136,30.46883405,26.43713687,0,47.03906161,26.57568832,-93.595461,-533.8642565,,,,
540.3359996,2110,-248.4501896,9.266666276,0,-9.474078478,-9.758250423,-29.11370134,76.80388701,-1.204485846,-13.9851134,-42.98234484,9.921697765,0,-31.37192543,-61.28627556,151.7029449,742.4674311,,,,
540.3439996,2110,-447.6421859,44.51771623,0,43.88304123,32.74436591,22.04672252,-213.857635,-67.18816028,77.73118903,68.90549577,40.14418994,0,68.33747525,72.65522756,-113.1597674,-141.0082954,,,,
540.3519996,2110,-270.1834304,-40.64072368,0,-1.011889522,5.911318792,-51.67586805,454.1968229,133.5253697,-3.278004653,-23.77645256,19.10695351,0,-10.3502542,-9.639005373,73.23666793,-75.27492594,,,,
540.3599996,2110,-379.4360284,62.54227745,0,1.667907459,4.095388934,35.31640044,-363.4701493,-114.8083185,34.60862075,-1.379739796,23.4386259,0,8.642761297,-4.91931562,44.88320444,734.5441968,,,,
540.3679996,2110,-395.9557783,-3.245001516,0,41.94928406,55.59937751,-18.23783373,284.7224687,107.553793,92.58866356,64.76551007,62.48488053,0,94.82734274,58.16070724,-87.94886514,-698.1179551,,,,
540.3759996,2110,-263.6828108,-4.707526938,0,-43.13025591,-26.45148217,-33.65543255,75.71605374,10.08072378,-42.47631217,-69.36174778,7.114325761,0,-34.55848518,-59.94367767,177.3550872,811.1956749,,,,
540.3839996,2110,-486.1211143,65.43819304,0,37.35714402,27.37031157,60.42898511,-253.3606331,-50.04094533,95.04130724,76.29369304,66.64527914,0,88.9794072,65.28889703,-116.4666935,-157.8134328,,,,
540.3919996,2110,-295.9813098,-46.36595427,0,-18.42185315,4.635022539,-60.01226789,488.9786153,157.9023329,17.72505045,-7.347253313,55.88128514,0,20.42938908,-42.94794957,79.84628419,-151.8151314,,,,
540.3999996,2110,-416.5511983,44.30657216,0,-27.95972341,-22.64443163,11.20493976,-396.9402726,-131.7431741,5.707729501,-20.2809168,20.72232908,0,14.92316016,-29.29410274,40.84150596,802.1378862,,,,
540.4079996,2110,-444.3215236,5.009920768,0,35.89269891,34.2114365,-14.42720499,274.3342251,110.5502615,82.14185446,64.28068807,59.54017126,0,72.54201185,73.11304671,-123.5315559,-752.2226378,,,,
540.4159996,2111,-294.3517648,10.85242874,0,-38.23695007,-14.53469827,-32.08612859,92.52361543,26.08685967,-30.70695063,-49.1060567,16.19693743,0,-45.86603676,-53.19301819,169.113851,805.997371,,,,
540.4239996,2111,-531.9943062,40.4230206,0,27.45865158,32.19611408,39.80310801,-270.8372492,-65.68517433,91.94481244,79.94664306,59.66809471,0,113.2034658,70.57774047,-122.8437017,-156.0043018,,,,
540.4319996,2111,-347.7544466,-79.4898838,0,-36.62605597,-11.40330814,-85.64988305,491.1674745,142.2576602,-14.0857446,-33.66320686,19.60427813,0,7.839320572,-54.21826857,61.59656553,-196.4480858,,,,
540.4399996,2111,-462.3985371,45.01826334,0,-20.11423558,-16.48711373,20.11488886,-388.7147,-122.5059655,-21.91335521,-24.36939632,-6.167244545,0,-16.34127903,-44.46531716,47.93592796,842.4421865,,,,
540.4479996,2111,-505.7745337,-16.08070664,0,47.39365711,44.04681115,-5.007482308,276.0241404,119.1872774,81.21883424,83.92379169,60.39060021,0,101.7727683,85.14854181,-108.0694113,-756.9042661,,,,
540.4559996,2111,-352.9078792,-31.19429189,0,-60.26224074,-37.39947237,-51.91961876,98.18937362,16.19372844,-54.50842735,-70.48377098,-5.535727811,0,-42.26619914,-68.79537462,175.0381317,801.408544,,,,
540.4639996,2111,-574.2954828,44.59266374,0,28.35328343,16.72107257,60.11937544,-286.3518295,-66.78035433,73.20420837,68.14743686,33.10906461,0,85.67686705,66.7896566,-130.7629642,-123.031501,,,,
540.4719996,2111,-376.5039622,-65.02352981,0,-11.81701184,-3.233371742,-60.9249888,512.3988734,168.4278218,11.34942222,-0.872608849,31.80331862,0,22.2167519,-1.601319558,60.06521744,-232.7187393,,,,
540.4799996,2111,-479.5965473,36.15773404,0,-29.15132737,-17.13133633,6.047912544,-379.7287673,-120.9709426,-8.301918141,-21.8555455,-1.163237313,0,-9.800551932,-45.15226149,57.44298365,854.0779148,,,,
540.4879996,2111,-516.934774,-6.566670786,0,53.20539732,41.13599559,21.96060045,260.0951225,114.2255412,77.88713269,76.66169205,49.00468771,0,104.5768325,48.07835134,-118.8366485,-767.3480694,,,,
540.4959996,2111,-354.0029912,-26.92075322,0,-40.60882637,-36.61997169,-28.76880145,125.3174139,32.86303592,-61.72130718,-54.86594848,-5.617419467,0,-47.96345693,-51.25109883,180.2376706,790.3122135,,,,
540.5039996,2111,-586.3875679,22.08998133,0,15.74546059,16.85306277,24.78079424,-305.3266767,-84.48747575,61.1281161,57.57895405,24.55949938,0,63.52069338,69.82640891,-121.4761532,-86.09512311,,,,
540.5119996,2111,-381.2337825,-64.08037724,0,-7.318973673,0.275730151,-68.24692753,506.1479472,156.2200904,3.776319386,-21.15441275,14.50805684,0,15.51620892,-16.94207754,46.79620748,-275.8351558,,,,
540.5199996,2111,-458.3033774,60.02716337,0,-3.514531354,-21.4531683,29.94186473,-358.9595202,-110.756257,-9.972026109,-10.06722756,-2.294932156,0,-9.587957488,-15.75222339,63.32857895,871.8586969,,,,
540.5279996,2111,-508.5077412,-13.87811199,0,55.78804874,32.23077367,0.968324769,244.1576562,99.85397483,91.96443266,85.24112916,55.05702376,0,119.9213683,72.3763195,-119.9719381,-769.2715134,,,,
540.5359996,2111,-331.8859173,-42.6183981,0,-45.7273664,-38.91377419,-69.89492052,133.3950683,14.56084793,-43.92234529,-80.39350527,-12.45571451,0,-23.76299028,-80.5412594,167.5458541,748.8054662,,,,
540.5439996,2111,-542.9380666,35.57471698,0,27.00396564,20.33745888,24.04631866,-314.3298237,-93.5902898,61.28153273,41.98903556,14.55474714,0,62.90575798,22.98731294,-122.6711556,-43.29732368,,,,
540.5519996,2111,-350.9567615,-74.57620992,0,2.564128591,-5.963439309,-54.67972734,502.881451,153.2813185,-17.42553432,-20.50459298,2.800445263,0,-8.385484322,-26.02079469,42.14906305,-265.0637118,,,,
540.5599996,2111,-434.2670008,20.59434082,0,-19.64551377,-39.98565346,14.0826054,-377.810957,-137.1007475,-36.82635148,-41.59432836,-33.41540342,0,-36.8646605,-5.699551938,47.76606437,921.4666873,,,,
540.5679996,2111,-478.9554763,-29.04415306,0,40.47521163,22.01693159,-19.31660114,208.3516951,76.36794299,81.05297341,47.89336108,22.95658827,0,89.77320785,53.66338479,-151.3748283,-750.0003786,,,,
540.5759996,2111,-283.2341476,-43.90567328,0,-38.06034158,-51.44249222,-62.14921944,162.1512492,31.23060659,-65.85143528,-96.64235341,-32.308215,0,-71.02291597,-96.6510703,152.1143935,751.0736734,,,,
540.5839996,2111,-499.8021291,35.86110391,0,42.32175705,18.67521758,42.48616476,-317.8054353,-86.26856049,40.82439993,33.25205298,2.782331741,0,49.78153828,56.08606351,-128.1128854,18.57385936,,,,
540.5919996,2111,-317.9912163,-73.18835635,0,14.28902034,10.04435018,-52.99219903,513.5188532,163.2169646,14.18590538,-23.30031587,13.78723311,0,39.71343785,-4.14492267,39.46913845,-303.329011,,,,
540.5999996,2111,-393.6841553,20.19206253,0,-12.50039297,-33.55425837,15.52568787,-340.8577591,-122.779556,-23.38657393,-51.28180304,-24.46994426,0,-23.38531102,-42.5578313,73.31104006,928.1761607,,,,
540.6079996,2111,-455.982019,-20.03559521,0,55.44826987,40.91202276,-9.703917368,206.4109658,75.86397979,61.85743865,44.33138855,19.30242083,0,92.85491736,45.59389365,-131.6027513,-729.1729415,,,,
540.6159996,2111,-267.5591931,-33.3856425,0,-26.81250971,-25.19744502,-62.16106561,182.5586446,29.64742215,-43.80400664,-90.96403785,-21.11777177,0,-24.53049029,-60.06899594,177.7234082,732.4545023,,,,
540.6239996,2111,-486.6163568,47.74435697,0,43.50318593,25.91970211,46.00408079,-325.5929998,-96.84890253,64.3237295,41.27503911,9.7054408,0,61.31109954,67.80136936,-109.791573,33.87495536,,,,
540.6319996,2111,-307.401954,-68.63391046,0,12.69388869,18.35821784,-65.96848512,515.5787993,161.9448615,5.932406135,-20.96757825,5.16482622,0,22.91102201,-28.59044219,27.26119046,-361.2266874,,,,
540.6399996,2111,-369.5789331,32.89696311,0,-7.487554263,-10.42372187,9.133523969,-325.4778436,-120.166827,-10.4309866,-53.62713403,-12.26135823,0,-8.112797332,-38.53515148,85.5957786,930.8580507,,,,
540.6479996,2111,-444.4630667,-1.530746715,0,65.20157342,51.43967283,17.63268977,188.4315659,72.94389079,87.72948099,63.35359595,46.24638367,0,104.2680899,94.23114706,-124.5865596,-740.4631965,,,,
540.6559996,2111,-271.8957207,-56.57594097,0,-45.82440435,-40.11632257,-66.29002615,188.936061,23.56348702,-56.97601028,-93.77918305,-22.11299687,0,-40.50394374,-84.23842948,170.9803014,684.839188,,,,
540.6639996,2111,-505.6950113,34.02858107,0,29.54862591,18.93321514,36.00437736,-343.5828514,-112.8401402,57.17108217,17.31626047,4.879579074,0,63.90632437,18.12621265,-105.525543,66.02413568,,,,
540.6719996,2112,-331.5944699,-59.17954598,0,18.77880875,8.720586206,-68.07096815,516.8580486,164.5289541,10.07702871,-21.54497992,12.10301565,0,16.6232942,-16.08704851,25.37408687,-393.8586484,,,,
540.6799996,2112,-387.3806176,16.7384568,0,-20.7249731,-37.30635078,-9.754089504,-322.4569809,-126.7175697,-33.12698511,-57.33550561,-27.04032238,0,-38.90164852,-39.630185,84.08615102,949.7477464,,,,
540.6879996,2112,-475.8308968,-8.122060948,0,68.43593431,47.63608271,33.99916578,156.0509395,59.51410347,91.93036044,63.18921459,37.54123861,0,110.6170128,101.0573945,-141.6816598,-737.2781606,,,,
540.6959996,2112,-281.0254877,-39.3272944,0,-22.86190778,-35.31276802,-44.21365455,212.1040863,43.01199341,-47.20548647,-78.76960892,-11.22095842,0,-33.20451772,-55.40218627,161.3449111,628.9505603,,,,
540.7039996,2112,-497.3092059,42.4103613,0,31.15871856,14.83642683,37.25276216,-350.9072948,-112.2980047,47.24125673,33.71435082,9.278762585,0,57.50903385,16.80658493,-102.4038367,92.61940667,,,,
540.7119996,2112,-336.8893265,-63.24743949,0,17.70012396,15.44372468,-47.65159193,502.4294664,156.7012965,26.51833022,-12.00252849,19.9957104,0,42.86024139,-23.99874213,18.92752902,-417.184439,,,,
540.7199996,2112,-388.2514431,20.78580099,0,-14.06511696,-43.02928445,-6.923198376,-317.5246652,-121.9721317,-27.05556706,-60.84248252,-22.43476015,0,-37.68381899,-23.62337989,90.91866613,973.8472475,,,,
540.7279996,2112,-484.9519054,-18.78591468,0,55.5217032,34.53060227,-6.32990326,132.2500561,51.32395938,83.34022806,57.49182819,32.90823634,0,76.77957825,94.1071742,-149.1012462,-710.796987,,,,
540.7359996,2112,-290.8611,-69.74454203,0,-42.89129743,-44.31890215,-68.5490204,220.9769529,38.28722329,-44.02570283,-98.63437646,-21.32899035,0,-57.09726684,-96.77814366,149.849226,619.2435724,,,,
540.7439996,2112,-497.4389019,46.98664246,0,41.42101769,-4.734527805,52.58154227,-364.828014,-116.949267,37.15308084,24.2206358,-5.484260246,0,22.2250722,38.50110402,-105.0184765,159.2870528,,,,
540.7519996,2112,-323.0607673,-55.44881291,0,30.30906304,22.05979597,-44.14336071,505.9077823,159.6755511,17.84729784,3.443416105,20.30407898,0,20.09399112,14.19664513,2.926153049,-434.3781472,,,,
540.7599996,2112,-357.5937174,2.401769467,0,-26.08444152,-19.82472309,-14.64533496,-301.1070079,-125.663103,-20.1684983,-64.35582388,-13.70501225,0,-14.1172522,-57.85968577,101.4032269,994.1935112,,,,
540.7679996,2112,-456.1079124,-13.51711008,0,58.98791378,27.80248569,11.97473937,104.9079786,38.2449062,79.12560951,50.03158665,26.25933228,0,83.74587282,69.52031832,-142.3343482,-675.0364181,,,,
540.7759996,2112,-244.1357454,-59.05369658,0,-30.56632638,-43.00056459,-60.88172884,233.9866877,43.83242836,-54.37171014,-94.27001693,-23.77567543,0,-71.99916669,-85.03471375,143.1496779,595.3212324,,,,
540.7839996,2112,-459.3287247,32.13330534,0,19.4881909,-7.147239732,24.42597026,-394.7056712,-143.1264438,50.80243643,19.32068784,7.008353578,0,43.51897736,38.99812553,-95.68647571,198.0660172,,,,
540.7919996,2112,-304.0790172,-53.77506491,0,19.03344922,-5.352918023,-49.842154,465.5023642,135.6246804,36.2143046,-5.291539981,14.32043057,0,32.78458835,7.297007676,-17.98822096,-476.3365249,,,,
540.7999996,2112,-310.1990023,14.32302205,0,-6.869675752,-13.20726452,5.479039281,-288.6695147,-110.3050913,-14.29945331,-65.15661944,-21.64763776,0,-36.40144229,-58.1648129,76.08778404,964.0684361,,,,
540.8079996,2112,-413.025163,-31.73824451,0,55.44938792,40.31591026,5.127752887,97.75533895,34.01899835,83.69758933,48.04336237,40.15291806,0,68.92297522,78.6245307,-134.1265792,-680.1578169,,,,
540.8159996,2112,-210.4697154,-69.86891743,0,-37.36638747,-48.5235084,-59.96469062,252.6658378,46.38145727,-61.00135341,-105.6387061,-22.58632715,0,-83.56873367,-98.84845289,163.7921144,568.0649359,,,,
540.8239996,2112,-433.1960407,21.79379935,0,26.63480136,11.61921462,36.56693036,-387.6650749,-130.677586,41.69451626,8.27574483,-7.605912936,0,33.30957417,6.892075938,-92.44078422,233.4509633,,,,
540.8319996,2112,-314.1438006,-97.6139271,0,5.829149725,8.870763575,-63.32723133,472.2168199,131.2388666,23.17198446,-22.18685859,3.406034966,0,25.05705625,12.3476866,-17.5322514,-500.246202,,,,
540.8399996,2112,-336.8574139,4.44002798,0,-20.08654091,-25.35344248,10.33100092,-279.1514582,-116.5994032,-31.13870374,-84.02967609,-34.52919829,0,-59.90507768,-57.65125419,98.59605402,989.2533517,,,,
540.8479996,2112,-463.460317,-4.848863699,0,71.27464216,56.31873613,26.80608548,75.38123184,41.40940919,100.9200411,65.49440805,38.39744894,0,74.5257122,77.82482842,-137.908192,-655.302106,,,,
540.8559996,2112,-274.7934723,-71.40810671,0,-31.47499545,-18.98010917,-67.40347754,262.1181628,55.7431037,-38.37659505,-86.69504347,-13.73281963,0,-47.48288672,-66.00143341,153.7043888,522.3957642,,,,
540.8639996,2112,-480.1047714,26.2382956,0,19.07234279,9.728912895,35.682549,-405.0495287,-142.1089665,44.37083557,0.775036683,-7.921800124,0,30.029929,16.68877017,-89.29584425,249.3342142,,,,
540.8719996,2112,-338.6300498,-65.93847216,0,26.00667917,24.78618709,-30.47326925,476.3878898,149.1801865,37.35358001,-0.776577374,11.50595883,0,12.25107081,11.00462074,-21.673711,-527.6219596,,,,
540.8799996,2112,-352.2478824,12.66996005,0,-16.02279209,-12.81645331,22.3373248,-259.4038791,-105.2700509,-21.80253992,-62.11368222,-24.12079582,0,-32.27207688,-48.42099364,108.1470004,1001.15791,,,,
540.8879996,2112,-483.523316,-7.951524758,0,55.69343666,41.4359504,24.94541024,48.10671433,17.34457449,97.94625304,52.49651352,27.82719421,0,96.67582919,84.26069928,-150.5350625,-654.8111813,,,,
540.8959996,2112,-278.1836838,-51.46992256,0,-16.30715689,-3.779828386,-41.19387386,292.0116092,65.83623889,-29.98838519,-80.6858287,-16.51915334,0,-56.92249472,-53.64262212,140.6621214,469.3278358,,,,
540.9039996,2112,-498.6993552,42.09769754,0,32.36608164,31.78090435,47.79053352,-391.7922578,-142.0687698,61.4728953,26.43048194,10.01690286,0,39.95270677,32.99975142,-73.02468413,277.9344874,,,,
540.9119996,2112,-401.1481827,-67.36626821,0,26.03013175,19.97616795,-43.35604391,474.3355224,135.1161717,46.60599272,-0.839159498,19.20436391,0,36.99555834,19.24839792,-18.33003333,-567.6809654,,,,
540.9199996,2112,-425.3775249,10.08512324,0,-17.35816573,-32.29499112,13.86329647,-250.944752,-112.0190031,-25.48475732,-72.82047419,-30.53258742,0,-45.35994399,-54.82251739,106.7114964,984.7807111,,,,
540.9279996,2113,-562.8490118,-12.91801854,0,49.04534386,30.16394239,14.91504762,23.37442682,0.717415906,94.45825474,55.69387922,24.47466278,0,77.54737398,57.23374132,-162.0284011,-646.2520374,,,,
540.9359996,2113,-351.8731134,-65.4028864,0,-29.46429634,-19.02049518,-62.74800047,295.9617787,58.02915445,-44.46542689,-96.84319882,-27.26428195,0,-62.47338261,-86.95209514,132.8049424,442.5840612,,,,
540.9439996,2113,-556.4268918,32.34927207,0,15.42867784,2.448365707,37.11205811,-424.4459851,-156.212107,38.12301753,-2.539627652,-11.84953881,0,7.324565841,20.70781683,-82.45785488,326.1722707,,,,
540.9519996,2113,-429.065422,-69.39327266,0,22.84995704,27.08433799,-41.12569638,460.9296832,141.5694174,36.20561503,-5.49477628,8.687889734,0,8.373947905,8.103233349,-41.93336836,-576.9792525,,,,
540.9599996,2113,-420.2335673,10.17704787,0,-17.79937266,-0.416498938,9.562817071,-225.3609667,-95.20201255,-38.43280603,-74.71617439,-30.88989103,0,-37.4388742,-59.00365149,118.6257479,1014.829251,,,,
540.9679996,2113,-568.9936665,-7.782023292,0,43.89318877,33.54292584,20.47331133,3.687098562,-4.968544168,89.81529981,60.72813853,28.75325844,0,77.11707976,87.41608888,-153.2592813,-611.174142,,,,
540.9759996,2113,-229.9765282,-106.0981746,0,-81.94104793,-67.74075717,-107.0514703,515.8783416,114.198185,-117.4681231,-166.2643519,-47.99487318,0,-167.4530484,-143.5967276,296.9034536,986.3107983,,,,
540.9839996,2113,-328.350116,-5.129312056,0,-84.74382665,-73.95495379,-27.25337295,-335.3200323,-162.0806585,-119.9593137,-161.8675425,-69.30079741,0,-158.4445219,-132.451026,266.4958367,1903.725155,,,,
540.9919996,2113,-492.2000109,-32.26666443,0,14.69315879,6.865699657,-0.735811366,70.89557714,5.941037339,51.72932136,8.048171458,6.292264059,0,33.84858004,36.39764642,-91.02077803,-340.2540388,,,,
540.9999996,2113,-490.4390941,-24.48284121,0,7.007707697,4.697215495,13.55732995,-27.28565232,-22.66849416,29.08058706,-25.11352895,-13.13965613,0,23.86941535,1.228695847,-57.29471704,-5.98485494,,,,
541.0079996,2113,-440.4757869,-26.88500747,0,9.401292263,27.41612575,11.77229459,118.0424625,37.59694809,11.49136436,-32.1107347,-7.047015386,0,-8.298443195,-24.50219174,7.768050725,74.66299217,,,,
541.0159996,2113,-453.601008,-2.530531672,0,8.652525182,34.8842929,31.90947293,-23.19160283,-7.271328513,11.70662134,-25.32880846,3.175085896,0,-13.40929707,-22.96132977,39.71758121,302.9529676,,,,
541.0239996,2113,-535.3940719,-4.896753245,0,25.33757482,24.46142425,23.6311761,-35.8906371,-15.24697734,60.25676632,23.28653658,15.82308526,0,56.24793289,76.07481189,-64.12295583,-203.6063867,,,,
541.0319996,2113,-406.679818,-40.97950231,0,-18.16765866,-17.67859813,-28.75704717,219.4564527,53.47888244,-1.851981785,-50.24714952,-14.38868962,0,-34.8607924,0.559776377,74.76458936,249.8013687,,,,
541.0399996,2113,-542.4900354,36.4025988,0,21.58061189,30.74522754,61.11925129,-281.1487596,-82.74899525,56.04063733,6.833595904,-1.908709777,0,17.84722103,28.85193022,-61.16329026,243.0248638,,,,
541.0479996,2113,-471.3701238,-49.19783984,0,20.33239026,42.21731169,-4.308789038,341.2654569,118.6514369,55.31153024,11.10542066,22.27046977,0,44.72285365,39.33080731,-21.53730827,-426.5835715,,,,
541.0559996,2113,-461.8272112,-20.64035398,0,-38.25208228,-13.00251768,4.902421213,-133.1344003,-60.65621326,-25.03442657,-73.47747703,-27.7415063,0,-43.15445446,-70.00156091,86.97231183,743.2133585,,,,
541.0639996,2113,-578.2593134,-9.160490724,0,27.88717445,37.21675035,35.30252921,-47.31793538,-5.79265794,69.93424454,22.77908441,5.170074721,0,46.86870082,20.11079334,-142.1523577,-475.0562338,,,,
541.0719996,2113,-372.5702036,-68.07327433,0,-30.77582208,-10.08035504,-34.03438963,317.3489127,86.09403127,-29.61356334,-70.54976521,-20.03093997,0,-59.39609712,-26.05701713,113.3239152,253.4682013,,,,
541.0799996,2113,-544.3246447,26.80458383,0,4.185951811,16.19824412,55.17767602,-389.6864995,-131.7314135,27.30557763,-8.692478516,-20.36008748,0,6.866462507,43.93148526,-58.2040663,377.485423,,,,
541.0879996,2113,-448.7447431,-50.32990659,0,25.9368168,43.7101447,-7.577074277,414.6380658,143.8486273,62.74434625,14.27466537,16.88295587,0,49.92606255,44.72986585,-56.55304829,-629.1123974,,,,
541.0959996,2113,-410.141109,-8.560772641,0,-42.76222255,-18.22098553,17.64432009,-145.273965,-67.04949591,-22.30836421,-69.23287067,-22.43565747,0,-48.65141244,-40.90435272,119.2303476,890.6716982,,,,
541.1039996,2113,-547.1602855,-2.122984038,0,28.07567383,46.60612355,38.39814398,-59.78785506,-17.11832877,77.62426636,33.94760934,10.58181341,0,66.42309285,50.31599915,-157.0449636,-535.92466,,,,
541.1119996,2113,-300.9761906,-49.92804289,0,-18.02291887,23.11498991,-23.45132869,367.6084371,111.8197708,-16.50302613,-68.16937894,-10.50159096,0,-26.36670398,-55.98134909,117.0159572,232.3715198,,,,
541.1199996,2113,-466.3285281,40.50766033,0,6.825535585,22.74710855,69.37592903,-415.3988508,-134.8032433,50.87352617,13.44111785,4.195514651,0,17.37355389,46.9045148,-38.77319619,433.2801104,,,,
541.1279996,2113,-355.0884798,-69.85072939,0,6.635537733,22.55980513,-29.93526489,411.7753141,125.5666769,50.48292904,2.408714403,9.967322983,0,11.62169233,52.54998553,-71.44423088,-701.4976471,,,,
541.1359996,2113,-271.1322631,2.020707175,0,-39.01051949,-14.6987045,21.61766735,-155.0494664,-68.2735264,-40.59676801,-98.41148096,-34.85669126,0,-60.38538853,-63.6895584,111.6935296,929.6688284,,,,
541.1439996,2113,-411.6509951,11.04660926,0,37.76343258,43.95283336,59.54604978,-75.07299269,-13.80574459,102.5955241,61.73366223,40.04814409,0,91.58324998,79.3404558,-157.7025552,-554.5824253,,,,
541.1519996,2113,-178.1043756,-80.62495596,0,-50.62606231,-6.974456717,-50.80919535,363.1308136,91.5369816,-25.55102593,-73.81491177,-16.11326916,0,-64.04388578,-33.77448022,108.4249032,196.7466836,,,,
541.1599996,2113,-350.1924747,36.08029602,0,-15.35380558,14.67988273,61.77512722,-442.3558484,-148.006194,14.87945502,-29.66152799,-27.30562243,0,-20.22079353,-0.661658816,-54.27801912,471.3694254,,,,
541.1679996,2113,-260.7442606,-49.50142673,0,15.64643151,41.23270239,3.583784229,428.5127501,149.7175643,54.09950768,21.41860856,27.49248558,0,47.63238893,35.99406843,-67.58084639,-714.6600053,,,,
541.1759996,2113,-220.2105205,-1.879805876,0,-53.0584204,1.134629472,18.93993643,-133.3430386,-53.50223508,-29.97491627,-72.71945097,-17.39876541,0,-51.96113887,-40.39748916,138.9203118,960.0501174,,,,
541.1839996,2114,-413.7806435,14.20567708,0,14.49053247,54.82405994,46.98049317,-98.21948737,-13.23763338,95.42906926,47.90532191,28.67017563,0,65.37538811,58.51972186,-157.7127009,-530.495015,,,,
541.1919996,2114,-190.8023079,-71.42635289,0,-61.6066106,-5.684572896,-49.16119323,383.3480522,112.2382967,-19.16368744,-69.44209141,-3.017634577,0,-35.54564089,-46.91500656,108.2113475,164.6172221,,,,
541.1999996,2114,-372.4336704,38.3244657,0,-34.73528954,6.744320838,61.83330983,-447.8681746,-139.3751715,28.95955488,-9.833754444,-7.926712101,0,4.92724029,33.56321724,-41.03030535,505.7652695,,,,
541.2079996,2114,-384.9950709,-36.88001213,0,17.23201522,59.61403063,32.57402218,400.5011277,173.7675873,98.71496517,80.26226861,45.95743196,0,77.95631451,110.4418516,-179.7566335,-1247.133928,,,,
541.2159996,2114,-402.9626715,32.66525047,0,-52.56627919,19.8354976,83.77957092,-437.2529757,-106.4786395,19.05248991,8.842772039,7.240679098,0,-5.046620568,62.89157517,-6.636404797,608.3975399,,,,
541.2239996,2114,-585.195803,105.3667172,0,5.254957079,57.40257725,159.932112,-926.6747617,-245.5584415,116.9123182,109.3193911,30.42636375,0,85.06163908,161.4304391,-252.0953862,48.93887754,,,,
541.2319996,2114,-268.3023643,-63.54976425,0,-40.18923114,31.6478389,-4.05784782,459.0641066,177.4415739,32.95289348,14.2037297,25.91475135,0,23.14444962,47.262422,-18.84150908,-577.8902761,,,,
541.2399996,2114,-241.1871297,-41.71482705,0,-98.28395769,-6.115407793,-0.44671968,99.39935474,43.16285346,-26.54527871,-58.41119765,-7.726787197,0,-12.07894998,-30.49374291,119.2954411,515.4663046,,,,
541.2479996,2114,-371.5687762,-1.429882772,0,-58.96306612,7.829104833,59.90889804,-207.6215801,-37.02297251,34.5089612,-1.728034415,5.353246265,0,53.10105331,-0.004210873,-48.97862448,134.6089145,,,,
541.2559996,2114,-299.3007846,-55.14818525,0,-65.19482442,0.306445712,12.77697569,218.2115366,95.40229309,18.93637998,-9.001177432,12.69598593,0,10.60640843,-5.548209309,-19.50458094,-248.9180455,,,,
541.2639996,2114,-258.3499867,-41.27751083,0,-94.49425584,-25.63776479,-1.661876313,63.39043371,28.78733914,-27.75495108,-39.84243374,-8.138115766,0,-50.35312323,-5.426219705,62.95877834,333.3210064,,,,
541.2719996,2114,-335.3353948,-11.58482833,0,-70.80966597,-14.78443426,27.95668254,-186.2686911,-44.13600226,12.18197545,-1.293906,-2.186935326,0,3.745541249,27.55274388,-53.35879538,154.1150807,,,,
541.2799996,2114,-262.6363855,-56.80361984,0,-65.01662548,4.396564029,-9.41051249,287.3611285,115.9284768,16.73474319,-5.76809796,13.30939637,0,20.03315749,1.249593071,-31.73775698,-315.4660827,,,,
541.2879996,2114,-238.1587055,-11.8847066,0,-90.84213205,-12.03993361,35.06448442,-98.24769322,-14.35209646,-40.38514573,-52.94843398,-11.0110718,0,-34.70520093,-43.99759828,86.33157937,664.5176276,,,,
541.2959996,2114,-345.7196827,-13.92004636,0,-42.37485677,21.24762768,54.30131465,-51.15504778,16.98612743,48.55191928,31.2327162,24.16884223,0,49.55519897,40.85384884,-97.00986755,-315.2108974,,,,
541.3039996,2114,-183.9078609,-50.66662239,0,-78.13583149,-25.10705864,-12.33249039,314.4607233,123.1595894,-11.6766966,-34.13056384,8.359276611,0,-24.55202118,-13.21186412,83.49986395,120.4907577,,,,
541.3119996,2114,-304.7207038,20.41641319,0,-72.29100168,-16.68675196,61.15254961,-344.2917074,-93.53210874,4.394520217,5.086083267,-2.907490847,0,-12.23738698,23.76035094,-20.60791823,478.0513444,,,,
541.3199996,2114,-259.3900393,-72.34676663,0,-62.44669619,33.82220936,-8.198627455,329.8859326,122.047434,30.36269287,5.185405089,14.52557391,0,34.64865372,14.80687642,-70.7305956,-621.728871,,,,
541.3279996,2114,-180.7863383,-16.46778783,0,-102.5940697,-16.3852199,16.31859121,-51.38041779,0.999956883,-55.17616055,-85.82532262,-22.68987059,0,-57.24585647,-58.91901898,135.2208589,825.6485994,,,,
541.3359996,2114,-345.7120293,12.79492245,0,-30.99679153,27.10013121,69.38620549,-130.8709272,-1.04232404,64.0442626,64.0546905,29.22330139,0,55.57186,82.28450141,-127.2024462,-353.3978922,,,,
541.3439996,2114,-141.1172146,-82.8583247,0,-98.15980313,-12.70213292,-35.47158906,412.7322759,140.3137196,-27.02157027,-50.98956737,-2.470616001,0,-35.10384913,-52.48202486,94.84299478,31.80918786,,,,
541.3519996,2114,-275.9349617,27.00031662,0,-70.87784465,-4.435151388,75.37902958,-390.5328443,-99.21973255,-7.912434539,-24.46234582,-16.3114908,0,-24.62381777,-21.2202459,-2.35290308,603.0356341,,,,
541.3599996,2114,-236.8831645,-50.72869911,0,-26.58705383,31.05845742,17.65819796,362.9608466,148.1496957,52.50820688,38.22923864,29.00302472,0,57.65705462,74.47744471,-79.14604481,-747.0841404,,,,
541.3679996,2114,-131.9663682,-34.45662038,0,-108.0675596,-38.60793051,-4.073483167,-37.8971044,-15.46093679,-56.58556195,-83.75310005,-27.49504908,0,-64.71297989,-42.78620278,150.3612173,858.6298655,,,,
541.3759996,2114,-316.7060272,1.774805536,0,-31.26448009,31.83312667,59.53555048,-180.1691228,-28.13156538,58.61154198,46.49767173,15.59041471,0,38.67527965,61.21568707,-145.139745,-370.5250827,,,,
541.3839996,2114,-98.74002135,-93.80963197,0,-87.52392683,-19.89290994,-45.36569995,432.1780467,141.1388501,-40.1117181,-73.32200225,-9.088362469,0,-24.49430149,-56.83567353,89.5933588,-32.9323508,,,,
541.3919996,2114,-223.0937787,29.2209823,0,-60.99317653,-13.58778651,68.89021662,-427.6546733,-117.0515151,-19.20020332,-39.25444384,-21.62295547,0,-10.64719512,-23.00834349,-4.682639852,639.4020821,,,,
541.3999996,2114,-185.1629803,-27.63532662,0,-3.243137926,46.46013732,36.94186226,356.4482045,156.5167503,65.78188894,55.20060329,40.41812503,0,52.65324679,66.62391462,-84.06449882,-795.3028967,,,,
541.4079996,2114,-70.40769235,-31.04807678,0,-100.3528422,-41.27208976,4.165733238,-22.08375559,-10.814284,-49.17788989,-77.48957052,-17.96566242,0,-63.89959265,-70.51698171,165.0469417,850.6563821,,,,
541.4159996,2114,-265.9043913,-5.408596694,0,-37.51936297,11.02977,47.4781345,-212.2173558,-50.26025896,49.17260156,40.37380256,7.094597012,0,32.79197436,59.08021052,-149.5378371,-356.0092486,,,,
541.4239996,2114,-48.45547814,-90.30070334,0,-91.13512698,-35.61485781,-54.12444813,441.225884,136.2023079,-42.03602856,-61.80296301,-20.10883891,0,-54.35801765,-41.78612195,80.66707879,-75.10288028,,,,
541.4319996,2114,-166.4279409,23.31941972,0,-76.74081816,-25.78100125,57.62424464,-442.9584643,-143.0237729,-13.57577731,-34.95123919,-34.90979236,0,-16.71407967,-32.50176363,-11.84046976,660.407551,,,,
541.4399996,2115,-138.3824374,-33.89703276,0,-13.62706053,37.54086583,19.68194084,328.0327401,126.4321074,53.20880894,48.37291228,26.59368353,0,51.65056617,65.99229072,-98.73368251,-800.0988269,,,,
541.4479996,2115,-17.73317414,-6.458849306,0,-81.77789271,-40.50465294,19.29968165,-6.610560851,1.210674298,-61.84538969,-55.31112021,-15.93916933,0,-90.30988912,-32.8502254,167.5573838,849.6854459,,,,
541.4559996,2115,-221.2217189,16.35813176,0,-22.37767469,20.47020035,82.18223222,-225.9106871,-47.3114139,66.07079837,67.84759362,20.6774204,0,38.38655384,63.57028943,-157.8143445,-342.0381943,,,,
541.4639996,2115,-11.02187609,-95.94773107,0,-93.82204164,-34.64448529,-55.07728964,450.0797036,128.038794,-31.20396407,-61.34065788,-9.678073338,0,-34.08511396,-62.44736926,74.13508942,-118.6580113,,,,
541.4719996,2115,-129.436121,23.47501399,0,-84.40295355,-43.99016388,40.82345819,-448.361039,-152.6629594,-25.07481403,-32.60481084,-33.98070132,0,-38.52880847,5.098246787,-7.442448337,688.3797165,,,,
541.4799996,2115,-111.1127729,-30.41968631,0,-21.51015249,33.02203062,15.58566691,311.5052313,119.4662125,61.85976348,46.72380745,22.4461948,0,43.21831297,54.15963943,-127.0602726,-828.8196148,,,,
541.4879996,2115,28.35440562,-14.65420196,0,-92.33286911,-43.61355651,3.232981305,18.58148207,1.855117311,-54.41473847,-76.79003823,-21.28015432,0,-64.20981535,-87.46591535,156.447175,813.5653103,,,,
541.4959996,2115,-171.035694,9.338959085,0,-35.46931034,3.380300199,60.84230628,-241.1024252,-61.23188813,44.21618819,62.19030473,9.549839343,0,34.83715509,91.40636307,-157.7989445,-304.5797738,,,,
541.5039996,2115,39.24321355,-94.4410888,0,-91.81421522,-27.82996022,-50.06177621,467.1459758,138.0307562,-40.13255333,-58.18608119,-16.63791428,0,-56.66848493,-53.30403429,61.89542052,-155.0937972,,,,
541.5119996,2115,-69.62266386,28.03619053,0,-74.47609056,-42.47555082,55.89753647,-429.9865281,-136.8539697,-21.04694089,-40.28094389,-28.7694012,0,-31.27324982,-35.48531218,11.61954758,708.8697496,,,,
541.5199996,2115,-63.58672693,-46.41775352,0,-28.99374887,21.32488791,8.363876658,295.8148374,107.4396526,51.01166366,43.57373503,19.5417016,0,41.26455057,72.7380795,-120.6653514,-838.0689473,,,,
541.5279996,2115,87.96779015,-31.96667622,0,-107.3654568,-42.03000925,-6.528073401,34.29495368,-3.710813357,-68.70965385,-100.4109551,-32.82818458,0,-87.56792638,-90.79046632,158.0581868,787.7778493,,,,
541.5359996,2115,-99.25215493,38.12644689,0,-15.63534851,9.775027482,88.57848591,-248.0135542,-51.90536091,54.52305866,61.06622619,22.86938795,0,34.36374287,62.44636855,-138.7741463,-267.7402865,,,,
541.5439996,2115,114.6215701,-69.19162714,0,-68.10994108,-13.75351703,-31.86718825,486.9468287,151.3311976,-23.51793842,-19.39434314,9.855384363,0,-53.10737022,-1.308057227,76.13589098,-196.0422773,,,,
541.5519996,2115,13.86334059,28.13852193,0,-86.19557215,-31.02417805,46.00450496,-417.0134664,-142.7398131,-18.28148034,-39.58866752,-17.66692001,0,-30.31850249,-23.38382528,32.0522547,728.3032419,,,,
541.5599996,2115,10.56118,-23.11186321,0,-18.01865821,20.48696015,24.49204041,290.583418,109.5001879,53.44954584,45.94215164,28.57546397,0,38.29778674,31.94155601,-115.3856983,-837.2352391,,,,
541.5679996,2115,167.0847583,-11.81560384,0,-87.18823881,-45.38457961,0.25147352,59.98444344,3.391868099,-69.07521579,-70.77902251,-18.79066731,0,-94.1561468,-64.77075246,170.2133119,757.5745401,,,,
541.5759996,2115,-28.72860086,36.5503132,0,-29.99705471,8.241360138,61.24720628,-272.7906746,-81.04197157,65.04605927,60.54431093,28.35391489,0,59.7376298,99.0751574,-128.7296056,-246.858381,,,,
541.5839996,2115,171.7032489,-70.88692194,0,-78.19713039,-26.75301128,-52.42408807,480.380054,133.8431874,-18.19718548,-37.97504938,5.834746428,0,-41.17811521,-24.98047368,61.07196794,-249.7599025,,,,
541.5919996,2115,76.43100776,33.53394908,0,-78.15437136,-42.88100301,43.10450364,-418.83541,-153.2976621,-31.34934233,-46.02253846,-17.49516294,0,-53.08476712,-52.46915452,21.26527901,734.6221759,,,,
541.5999996,2115,69.17729524,-10.02871782,0,-5.765024923,27.44981553,23.84045888,275.5142617,94.44824509,60.35860094,50.34214788,40.38044878,0,48.9665952,54.7572285,-130.1337911,-834.176273,,,,
541.6079996,2115,231.5827195,2.158313635,0,-69.40349284,-42.08582747,4.035623208,94.53084932,14.14148842,-60.56365774,-60.89621781,-3.26628466,0,-91.15717941,-47.49574429,177.8814983,750.1939171,,,,
541.6159996,2115,17.05163384,35.1404458,0,-24.14726685,-5.436708719,67.34668799,-284.7462402,-89.84700563,50.60663924,59.9079594,32.16493135,0,22.00032899,61.18280897,-119.4217825,-187.1315918,,,,
541.6239996,2115,197.4976217,-81.28354498,0,-80.52791391,-41.60566713,-55.58844403,473.5527165,122.1408221,-29.3329063,-55.26723622,-4.737206041,0,-62.10131345,-68.34230812,45.21326594,-263.5572433,,,,
541.6319996,2115,105.9117321,45.10104541,0,-57.41769206,-49.13334397,55.97073262,-415.26861,-140.9488983,-36.09438672,-46.60164235,-30.41391964,0,-74.24844036,-37.55046936,17.54028973,755.7245226,,,,
541.6399996,2115,80.89277839,-15.30019396,0,-0.818874017,13.76261927,30.16746381,248.3891642,91.93516086,48.21843941,64.95610352,31.7654188,0,24.45213485,95.08171078,-140.3098905,-847.1199927,,,,
541.6479996,2115,248.2278947,-25.13636138,0,-94.69352256,-63.28049205,-16.98352846,86.28588983,-1.537513727,-74.68795981,-86.12411745,-22.90438372,0,-101.7212399,-75.18971954,154.4458126,700.4679625,,,,
541.6559996,2115,49.85303941,61.27396616,0,-7.312417965,-0.025324414,79.73107647,-310.1335156,-95.51049907,65.63251112,43.53786134,20.85641119,0,40.60968572,50.1169722,-147.6548479,-192.6301864,,,,
541.6639996,2115,230.3262544,-57.22712288,0,-56.51107624,-18.24744289,-43.11072745,493.6536958,129.7298827,-7.329334691,-26.71628781,17.78806382,0,-26.61312678,-2.839239474,45.58096004,-334.9454643,,,,
541.6719996,2115,128.0811829,17.46184497,0,-86.19165635,-48.86409629,23.38692837,-410.1387474,-166.153778,-47.06594219,-65.70546979,-22.84317621,0,-75.24792857,-57.50240689,41.35631517,773.1634891,,,,
541.6799996,2115,93.96767608,-23.6592665,0,-8.746816962,13.2534019,20.38582392,218.5756,64.05343226,52.77103442,22.40128361,22.93615421,0,24.34228787,17.10601791,-150.9393483,-836.420763,,,,
541.6879996,2115,280.0599859,-31.59292085,0,-86.24256843,-63.34595263,-23.46359796,104.0424866,-4.656184582,-69.60297806,-93.46539188,-15.8269556,0,-102.7301105,-70.59504566,159.576429,672.0881054,,,,
541.6959996,2116,73.55108658,30.05754424,0,-28.96513126,-15.08541866,47.99477932,-344.74834,-127.0773251,37.67004828,19.56483176,6.536004991,0,6.987464184,63.13336374,-148.2381239,-154.5725401,,,,
541.7039996,2116,272.253565,-57.70894333,0,-43.10670748,-10.37781394,-30.64775272,489.8400298,134.9987203,-9.645568118,-50.57233514,-4.191012778,0,-43.6492731,-32.16080403,11.58464599,-374.7451302,,,,
541.7119996,2116,218.8796554,44.19018393,0,-46.29608235,-29.48594599,59.54611107,-382.3112864,-129.7378548,-23.15827049,-38.39867367,-4.881882899,0,-64.42056565,-30.46123605,56.91905942,781.470832,,,,
541.7199996,2116,164.8962503,-24.63809834,0,-11.32521948,17.96027908,10.04744541,201.5091046,54.78617623,59.41235902,46.35598373,32.07190723,0,31.96311406,67.26058683,-135.6839552,-847.0722632,,,,
541.7279996,2116,349.2459965,-45.18380594,0,-101.1250978,-46.22381397,-41.68034557,122.2383402,-9.483914413,-74.39293848,-115.0651257,-40.21366189,0,-101.6006396,-99.00534612,146.4596768,620.6479296,,,,
541.7359996,2116,152.3399486,31.75149022,0,-21.93494092,16.0063218,67.33921035,-341.64151,-114.4199285,46.4156585,12.94283386,4.512726265,0,20.64462707,35.1681905,-137.3504892,-124.3694669,,,,
541.7439996,2116,326.0336873,-69.0197277,0,-47.51260804,1.738310178,-24.40278587,499.1092366,135.5891321,-2.42157273,-43.80796846,-1.528355397,0,-33.05714594,-34.67281794,27.01231533,-409.442383,,,,
541.7519996,2116,272.4529029,38.66147652,0,-56.27530944,-24.51085875,48.91672931,-379.6749123,-142.4841947,-28.90267792,-60.1829655,-28.24405675,0,-73.66965586,-53.65148088,56.98625973,784.8427006,,,,
541.7599996,2116,219.7766505,-10.53636837,0,6.271397229,35.73488958,25.19373471,191.2219468,58.43446969,67.14670116,42.84214138,27.00041545,0,29.36205842,82.33347958,-145.4764013,-844.2739447,,,,
541.7679996,2116,388.7749911,-46.76824058,0,-90.05160449,-42.36899677,-33.33793765,149.4680677,3.109283281,-69.49510764,-107.4615403,-36.04155479,0,-105.7725438,-70.99203075,154.9331226,602.7655274,,,,
541.7759996,2116,162.3964621,45.93116741,0,-11.30412852,5.718650625,68.45310259,-360.2000446,-120.2314562,43.2761543,14.36177358,-2.515448024,0,10.17005051,42.59272068,-135.0389508,-88.91911511,,,,
541.7839996,2116,318.1880861,-37.80088869,0,-14.84169635,0.2032117,-18.67644715,510.8654887,155.6758649,7.107667228,-15.28578384,13.63492969,0,-28.73070222,7.164662095,18.27835535,-460.3446628,,,,
541.7919996,2116,247.1338758,38.95972323,0,-53.7032135,-24.01363934,40.09849423,-359.3191229,-130.6871799,-28.25619632,-42.67498328,-9.778531323,0,-72.84155509,-42.604805,76.17087043,791.6260362,,,,
541.7999996,2116,167.789582,5.655623062,0,11.47439247,41.74307011,42.5821584,173.1664546,56.88307085,82.38575236,51.07853361,35.23051383,0,34.87120362,45.16860096,-138.8809051,-837.265193,,,,
541.8079996,2116,351.6378968,-10.42080039,0,-59.98067588,-38.34298046,-11.15337648,174.0957646,26.8731623,-38.9004183,-80.49383012,-18.69580409,0,-93.06835463,-75.2216559,163.8561369,559.9150685,,,,
541.8159996,2116,136.5976168,35.86455829,0,-23.07208259,-0.128354101,43.93540664,-377.9933102,-133.3030813,46.09575206,23.66895819,2.280423033,0,13.11612887,43.8665079,-114.7720841,-58.73735462,,,,
541.8239996,2116,311.5566616,-54.7967213,0,-31.12414727,13.5849311,-32.19791193,504.7911767,141.3542214,9.288563825,-27.99705786,-2.151035853,0,-22.13134463,1.736041239,16.90130963,-477.5209271,,,,
541.8319996,2116,286.4253469,57.33454564,0,-33.7631201,-14.94361359,63.49445031,-345.838199,-119.9507026,-25.57492429,-45.55188604,-23.94532539,0,-70.87900741,-27.81457684,81.22515805,820.9987555,,,,
541.8399996,2116,220.3672262,5.510058433,0,13.55034389,25.94703489,33.8180714,151.9404302,46.32999272,69.86478921,62.0149889,34.24567128,0,30.63844631,76.46873733,-138.7505406,-820.3925801,,,,
541.8479996,2116,440.4442626,-16.95210204,0,-65.84958299,-37.98419518,-25.35839043,193.605818,27.38703158,-47.51778401,-82.31029184,-19.7224042,0,-113.3726603,-55.37268351,163.5570631,534.5832436,,,,
541.8559996,2116,271.4359344,68.47282762,0,2.66105341,14.66044084,86.66897839,-382.9088424,-125.3000159,49.16394848,35.08022432,7.952361474,0,-6.525106518,37.52360849,-101.6224861,-12.88606812,,,,
541.8639996,2116,442.2134632,-40.90043384,0,-25.60903198,2.218423852,-21.59187275,495.1819965,133.8285317,17.49670615,-1.66475084,17.40916067,0,-13.56618579,-15.1797397,21.62049065,-502.8961102,,,,
541.8719996,2116,402.3934484,44.32379188,0,-54.68810812,-39.81878171,27.70513647,-355.0819137,-137.0563809,-19.26172049,-51.23004255,-24.65899542,0,-80.71823147,-36.04181898,77.63114074,818.972026,,,,
541.8799996,2116,324.0936299,-0.201247104,0,12.29476794,31.93890101,26.30936893,121.8359055,31.95669998,64.9306999,50.75378577,11.73125416,0,24.39663112,90.72913775,-152.1207112,-819.6138992,,,,
541.8879996,2116,531.348304,-37.43989272,0,-76.25443598,-36.75158996,-33.26385571,198.9586726,21.32915317,-65.70909853,-90.81321505,-41.39354919,0,-92.87445692,-59.68927556,155.7991814,510.3827251,,,,
541.8959996,2116,326.4131704,45.21750851,0,-18.47787456,-1.386016143,67.15490823,-409.2570025,-134.7768056,42.89744338,15.18924551,-14.6920557,0,-21.85372926,26.98432013,-123.800678,10.05558481,,,,
541.9039996,2116,484.3206289,-45.88763605,0,-18.21500467,16.29259952,-17.19022896,498.9481833,150.9391301,12.11535272,-17.38933576,-4.664932001,0,-37.79667466,-6.614433823,-8.516616694,-564.9033246,,,,
541.9119996,2116,470.5532457,54.53935476,0,-36.95731878,-16.40447639,48.18490785,-330.2372415,-113.5606579,-23.88669224,-53.70192642,-27.17888351,0,-57.89531094,-37.15416198,85.76174627,812.5149534,,,,
541.9199996,2116,381.1885505,17.80818506,0,18.97751262,43.08473873,37.74043475,105.8134013,34.73929984,87.26327909,61.58648495,27.0953907,0,36.78171208,83.55351345,-149.8994711,-821.559743,,,,
541.9279996,2116,585.9556022,-17.971386,0,-62.53447517,-34.06222813,-25.89498367,219.6645016,36.38447802,-50.58098339,-81.25730631,-23.08138108,0,-104.3778615,-81.3385744,155.5879656,451.4391602,,,,
541.9359996,2116,383.7595631,55.80431268,0,-3.342932683,-6.602898252,68.75967345,-417.4053753,-138.7598056,40.54371791,23.42515486,2.291376422,0,6.700585025,5.285642358,-108.614668,33.50197666,,,,
541.9439996,2116,523.1224422,-55.3523967,0,-23.79627533,0.671989658,-39.24058309,486.9947122,125.948543,5.607178727,-9.725460601,-4.1482676,0,-35.933904,6.603531333,-5.353588389,-580.98544,,,,
541.9519996,2117,506.8683924,59.76439157,0,-29.17045379,-26.79274744,47.71535918,-326.6106694,-115.0099386,-43.93072305,-48.36931868,-36.25976653,0,-96.06086755,-4.367895192,90.29048342,836.5865442,,,,
541.9599996,2117,405.5780584,26.50746473,0,43.05258626,43.72626192,61.45449168,91.6102885,45.97916312,82.13942241,85.49017276,34.99209052,0,59.25713846,111.943218,-147.0942876,-803.158129,,,,
541.9679996,2117,604.7861848,-37.75307073,0,-68.23160878,-51.42887342,-32.1640774,231.50901,36.17084296,-54.47999873,-70.66527078,-32.81440549,0,-105.6013624,-55.52678192,155.5551041,413.331496,,,,
541.9759996,2117,416.5951302,83.68373279,0,16.96862603,10.18037016,98.28908355,-418.1422681,-117.1374899,28.95127331,23.01402366,-19.96352031,0,-27.21894038,34.87615895,-116.7119865,62.67148486,,,,
541.9839996,2117,565.1315006,-2.520728789,0,22.14870106,45.56062538,14.53652767,529.4721263,184.7367441,33.72042857,41.40130981,29.87781774,0,27.42609697,40.08130671,11.1911399,-605.6208224,,,,
541.9919996,2117,541.4594959,53.7098402,0,-48.70374263,-39.65461979,42.70196549,-302.6118558,-111.7348216,-23.58469904,-17.07420524,-5.419142333,0,-58.86002445,-13.32491974,128.917277,846.9326827,,,,
541.9999996,2117,422.4915276,36.26597151,0,29.75204819,45.14437853,76.7603096,73.2886537,34.96050956,77.20451439,67.51597869,27.54392413,0,11.15028784,70.82422159,-159.5773167,-790.5790369,,,,
542.0079996,2117,629.6388729,7.766869686,0,-40.25143688,-8.021486787,14.95178845,292.8912166,88.05821555,-32.827041,-42.7915844,6.348580929,0,-70.26467201,-29.96981026,169.1170188,392.5585866,,,,
542.0159996,2117,444.3894273,89.09986165,0,-5.862013044,-1.896113017,97.84663842,-411.0202617,-113.2019587,55.27721575,71.23257612,38.34070947,0,42.17705549,89.25912527,-68.6463482,119.4250319,,,,
542.0239996,2117,588.5299761,-14.85296679,0,-15.2781719,16.79108079,7.271494081,512.4180705,167.0165317,31.97490467,32.99604651,36.93812615,0,12.96909398,38.64003715,-0.976481308,-624.6953822,,,,
542.0319996,2117,574.4958203,55.7719599,0,-65.99528168,-29.95170662,50.71890813,-283.0557228,-88.82221392,-31.50906295,-34.63749232,-2.174037436,0,-54.98300572,-19.59751217,121.1544331,856.5352472,,,,
542.0399996,2117,439.6130827,30.10034118,0,-4.400092978,38.10756611,64.26309701,54.83950066,42.9153553,80.10608454,81.43522026,49.22223633,0,59.82684864,78.90634731,-144.9254863,-760.1017284,,,,
542.0479996,2117,644.0435756,16.25704799,0,-55.97229355,-15.0235398,20.63846374,310.910476,116.3699933,-39.29195277,-38.326269,9.582250032,0,-73.5024439,-48.06494687,172.2342391,376.231211,,,,
542.0559996,2117,453.405871,104.4476725,0,-13.38604891,22.01676174,111.9420168,-407.3988005,-79.1237976,55.94066114,79.73037247,49.48728445,0,20.56313518,81.89969429,-56.06015187,168.2135683,,,,
542.0639996,2117,567.3226167,-28.73307453,0,-51.13682158,15.99909255,-14.02234405,503.4244786,174.5019643,32.76990998,37.06067791,51.19611063,0,7.673888704,32.52735312,9.216742564,-630.8548058,,,,
542.0719996,2117,556.0347282,59.32675073,0,-83.33918737,-52.47416174,43.62081673,-281.8982071,-76.59019205,-42.94439146,-42.26040795,-2.43411759,0,-60.57685701,-26.89362591,124.2525343,884.6534187,,,,
542.0799996,2117,425.2724155,32.15967639,0,-16.34117442,23.40315941,58.13521165,28.92839856,44.04056204,84.41296668,91.22871571,59.54265246,0,74.54932276,103.9186122,-150.7079151,-731.395409,,,,
542.0879996,2117,633.190271,-21.2660117,0,-90.95468853,-38.70551327,-13.71241145,312.4626634,103.8842027,-58.18124312,-59.70306269,-0.737340451,0,-70.55282128,-70.57536155,165.1771907,351.4592242,,,,
542.0959996,2117,437.0074945,91.85613522,0,-19.72891783,-0.591711296,110.7278212,-440.6088557,-95.78429347,27.25929598,52.7380172,22.31986793,0,11.37490597,51.46768083,-72.42037109,212.7470094,,,,
542.1039996,2117,543.1729206,-21.03459572,0,-31.39162621,23.02985373,5.041415366,492.7191773,174.9040262,39.53817228,50.55217871,41.98896579,0,20.43427146,53.33988571,-15.7859819,-672.9017876,,,,
542.1119996,2117,551.0651273,67.04349869,0,-61.68837454,-25.39869168,57.91443812,-252.0940345,-58.46858209,-33.78251837,-31.48067383,-7.73959019,0,-53.56768971,-35.29108929,132.4589345,867.5258369,,,,
542.1199996,2117,409.8540953,52.45292734,0,16.04538409,42.0167602,82.90257759,17.55299023,52.92058297,97.94453178,106.590233,64.41163261,0,76.03758812,105.2697887,-147.1769782,-726.8348185,,,,
542.1279996,2117,618.398731,-13.2803699,0,-70.26493878,-26.87165837,-3.990756624,340.428178,117.245309,-41.633538,-36.88528375,10.41230795,0,-63.32311541,-54.99873898,158.5371146,283.3567285,,,,
542.1359996,2117,435.657888,99.42027917,0,-5.992583702,15.09763167,115.1314707,-429.0661408,-84.48341012,35.38902495,61.42392053,27.57586796,0,26.90684307,28.2668767,-64.38430076,220.7957276,,,,
542.1439996,2117,531.4762464,-24.44119968,0,-23.00263082,19.10335446,-2.413680555,495.7413355,176.0366488,45.75321412,51.50064626,54.80505789,0,33.73634052,51.4187471,-11.43102499,-708.803281,,,,
542.1519996,2117,553.3700998,49.61095843,0,-76.26045051,-51.28433605,36.38723101,-236.6552058,-65.32205707,-56.59857511,-38.4261244,-9.867092042,0,-83.43285811,-30.14019688,141.2176903,864.5796471,,,,
542.1599996,2117,427.2637769,53.78325891,0,14.93063432,48.30160946,91.07217492,-1.357854849,45.92701869,67.02014447,106.6347035,43.92975904,0,43.28418383,102.5218817,-152.7324117,-700.9444357,,,,
542.1679996,2117,644.7058451,-29.22293718,0,-77.20408387,-17.34640589,-9.130889592,349.0907215,108.9291389,-45.49271926,-38.59346121,4.698446056,0,-54.12702255,-30.11745675,166.6187148,254.4956159,,,,
542.1759996,2117,466.7413582,75.07664155,0,-39.7844725,-12.22026856,86.3325861,-464.1787566,-117.3143112,24.68842097,38.25356879,9.444707919,0,11.15712255,33.11894696,-57.83334253,259.0214234,,,,
542.1839996,2117,583.8978374,-12.13719612,0,-20.93818347,22.48652709,11.53964495,481.3927692,174.6263262,21.68799811,38.07916144,20.3799217,0,-16.66007824,26.22556179,-47.35746752,-740.0932208,,,,
542.1919996,2117,645.2237407,62.55085324,0,-56.57315318,-26.13563065,60.15312088,-198.2534419,-43.24002787,-45.71781404,-24.22045884,-1.310907844,0,-63.68045778,-44.40101464,144.4635212,857.3814444,,,,
542.1999996,2117,504.8889326,43.15515633,0,6.09037733,42.76657503,69.92775046,-22.22641546,29.93653975,96.03430137,114.1887353,69.70513712,0,101.9747466,69.37582334,-134.4121585,-671.2190935,,,,
542.2079996,2118,712.8668667,-30.92749385,0,-73.13617831,-32.51940358,-35.36740361,355.4175014,102.8547881,-51.34303712,-53.40733379,-6.415374162,0,-74.97357269,-62.49298174,152.6682163,221.0030493,,,,
542.2159996,2118,535.3152033,91.34397973,0,-8.892138625,-4.950457466,97.92562267,-456.1873899,-108.0424044,25.73324008,51.97726071,7.423022702,0,5.97960166,70.69817586,-54.66501767,307.9493202,,,,
542.2239996,2118,605.6006608,-20.44995954,0,-11.16430442,36.39723538,16.42446379,476.0353956,169.0401858,35.88073814,56.87721933,29.5706877,0,16.25079104,41.8309037,-30.88406324,-725.7163767,,,,
542.2319996,2118,632.008239,37.06623837,0,-68.45309467,-44.97716097,35.38446895,-210.4756021,-68.97708737,-65.73914238,-56.37015284,-31.72479066,0,-120.6249946,-57.79016855,145.9495989,865.7719112,,,,
542.2399996,2118,478.5881506,46.3613267,0,8.444682574,29.65830911,68.98388232,-61.92747165,5.837539995,88.72346612,98.42033471,43.07115571,0,64.15263129,110.8262921,-159.4750672,-656.003664,,,,
542.2479996,2118,682.1194455,-21.42582074,0,-67.0429842,-15.9314311,-17.08714228,372.9535668,106.04097,-37.52472706,-41.67337831,-5.60076529,0,-44.58266603,-61.07401965,144.5731161,187.320767,,,,
542.2559996,2118,496.1009496,76.53645248,0,-20.00624864,-6.674488961,94.48155034,-470.2436085,-124.3289322,19.79685502,44.90567383,1.149822997,0,-11.92704449,33.00767519,-47.3610544,330.9226337,,,,
542.2639996,2118,563.245347,-54.23698222,0,-36.63666666,16.04601198,-8.943930277,447.8698073,140.9755062,31.50394518,41.3678485,18.77464614,0,11.65781949,26.31017786,-47.39107761,-769.5674316,,,,
542.2719996,2118,609.5896012,6.85306217,0,-86.06399419,-57.82214831,20.48805086,-205.945964,-77.1962417,-82.64261583,-83.73916487,-50.31482843,0,-97.13326451,-87.79997073,143.44008,855.1199545,,,,
542.2799996,2118,458.8404234,34.05443396,0,18.3420664,24.99011697,82.68061093,-83.68862211,8.183888871,57.18310336,88.83660293,25.74656491,0,34.76984038,113.4144225,-160.9182413,-630.8061244,,,,
542.2879996,2118,667.1292745,-39.41893343,0,-68.47937067,-25.74645742,-26.50987363,390.002496,114.5977669,-42.57745232,-36.12949107,-5.02836708,0,-62.2227082,-42.79114644,143.1727561,142.040238,,,,
542.2959996,2118,483.2567526,59.77485118,0,-37.65372986,-29.76534894,66.35986118,-482.4247894,-134.3786992,16.01251735,14.178107,-10.5092538,0,13.83987687,-11.41702031,-42.35455016,359.2792807,,,,
542.3039996,2118,548.2042727,-34.4749926,0,-10.06303685,11.96543328,17.7235483,448.2246606,157.5257635,22.44861181,40.70103939,7.637436293,0,0.826648315,27.32751872,-60.64922481,-788.4350084,,,,
542.3119996,2118,601.5055702,33.14184438,0,-59.44503696,-37.0712386,51.17420266,-159.9799328,-44.69923343,-69.59900315,-36.9853972,-33.66931368,0,-112.6200207,-25.42043697,154.3935736,845.4482862,,,,
542.3199996,2118,408.3298214,20.90484578,0,-6.396690064,12.91298286,59.06355027,-111.1136716,-13.94755286,70.83040479,86.84719731,25.9041951,0,77.01872886,85.53689548,-150.3772627,-612.1845944,,,,
542.3279996,2118,596.0977646,-58.56152396,0,-79.00892467,-49.30254795,-27.28112403,390.8569332,104.7898046,-58.85131314,-63.77255881,-36.34844088,0,-77.64737686,-80.33808421,127.2807401,91.10676083,,,,
542.3359996,2118,441.5441521,72.13750107,0,-19.57140001,-4.958696823,93.81208606,-467.2863302,-123.0066593,0.643211356,26.12795951,-19.70732297,0,-37.15765504,46.77323725,-40.01545756,388.1271716,,,,
542.3439996,2118,500.9497328,-33.93135385,0,-11.08094089,34.26377092,-2.212372554,445.5277174,147.4163884,37.66770591,42.63696631,22.54583418,0,43.76295178,41.18865407,-49.47205229,-790.7617413,,,,
542.3519996,2118,559.4342713,29.75204409,0,-55.29273871,-44.43868069,40.56887611,-146.5722804,-47.17428885,-54.21373946,-60.26856515,-29.76105351,0,-88.97397293,-64.65725364,157.4402273,843.9325107,,,,
542.3599996,2118,390.0583908,41.79886855,0,22.50937554,31.37048809,84.15419844,-120.5722294,-9.116482435,84.49890904,104.6230062,39.48919195,0,46.84462874,122.2018204,-153.2391718,-579.9246303,,,,
542.3679996,2118,582.6507586,-57.85016386,0,-66.70161601,-22.89556596,-40.48572891,415.565377,109.1342941,-53.5644963,-50.08326638,-22.79529329,0,-75.85295985,-59.25870861,136.4467622,74.8800468,,,,
542.3759996,2118,417.8559843,78.77620006,0,-4.514667384,-9.982949132,97.71790636,-471.7435114,-119.3761309,-5.735408883,14.25680346,-28.29085851,0,-33.99319325,11.60118982,-35.17285165,425.9815982,,,,
542.3839996,2118,468.5599021,-21.08860365,0,14.12050532,25.16337595,27.14205175,431.9940211,154.6619983,46.40241593,59.97717407,22.84847676,0,46.35431443,51.8973604,-61.2960214,-819.8294792,,,,
542.3919996,2118,534.2405331,7.726512615,0,-60.810294,-51.40645875,20.63061161,-124.090429,-53.01384658,-62.36416539,-63.36815254,-34.56971221,0,-82.79674322,-63.12915224,170.8263335,825.5386979,,,,
542.3999996,2118,352.8235543,31.86856947,0,18.27548346,11.5629937,70.94902928,-143.6384276,-25.1981108,55.79245511,78.88099865,10.65704031,0,28.8180674,111.5842517,-152.1292261,-548.1235581,,,,
542.4079996,2118,541.0020903,-60.02080083,0,-65.07210206,-45.45426053,-38.27473313,416.4721925,107.7872986,-60.63620702,-63.94717181,-44.58923498,0,-88.6680016,-63.56514973,122.377281,46.6831169,,,,
542.4159996,2118,384.8642045,65.24401001,0,-14.77115537,-15.03144138,76.87170821,-480.9321506,-136.2462638,-2.192438025,2.105127345,-41.14395933,0,-31.32999963,-5.450214356,-31.76950147,455.596332,,,,
542.4239996,2118,431.9059892,-16.74855519,0,25.28828932,38.83619386,22.14759793,424.7108948,151.3792217,48.6686432,67.93666385,10.6714808,0,49.10504994,89.79321288,-67.26756292,-836.2029766,,,,
542.4319996,2118,510.2473153,10.91450313,0,-58.55756379,-51.29099198,16.8482543,-104.9336774,-48.92151615,-60.63603435,-65.13388427,-47.29186183,0,-88.53228301,-53.46220078,169.6510285,815.058189,,,,
542.4399996,2118,341.3093879,33.95955983,0,10.14185517,10.99257606,56.42426928,-171.1874045,-42.80953073,59.20239017,62.34763093,0.303495277,0,41.97470431,64.6589618,-160.2241453,-521.7267622,,,,
542.4479996,2118,541.1280295,-53.70319105,0,-53.46997361,-41.46880812,-49.43357576,425.6283452,108.6400745,-51.09236718,-50.20738751,-38.7986856,0,-55.07041197,-56.98120386,117.3301233,14.38628408,,,,
542.4559996,2118,386.6833739,44.99607229,0,-33.85527479,-49.83168905,42.38854162,-510.3378183,-172.4839837,-8.376776924,-11.96148225,-51.5901476,0,-53.96396145,-25.61615189,-37.63275246,489.6575907,,,,
542.4639996,2119,434.3421493,-36.79631014,0,1.598833417,10.64605655,-9.734311981,373.155259,103.4138662,32.27835137,19.09776653,-15.19670091,0,17.21738535,30.33997979,-100.9419694,-834.6856956,,,,
542.4719996,2119,524.8233019,13.66233818,0,-52.69200205,-55.47772526,7.925636933,-103.6309076,-59.54266165,-62.35404437,-71.46301382,-51.39324247,0,-84.6998166,-51.53416645,158.6344065,826.264929,,,,
542.4799996,2119,348.8337106,42.29390295,0,20.6683289,3.100215024,58.58373675,-206.0405385,-61.99078883,62.87362845,70.51344053,-1.747520735,0,3.642287129,68.4228661,-181.9692566,-503.3314385,,,,
542.4879996,2119,567.0575514,-35.50552447,0,-25.09049511,-14.03266664,-26.29446114,448.2241681,118.0924125,-48.01510642,-45.72553358,-28.96324391,0,-77.16281184,-53.33349648,107.366909,-31.6968098,,,,
542.4959996,2119,419.8674371,61.03112155,0,-11.47150051,-19.65404966,63.14979956,-491.0692478,-163.2624867,16.9762041,10.14324936,-16.6902251,0,4.475128158,15.01488219,-2.54818716,535.1050363,,,,
542.5039996,2119,447.5469843,-33.70282847,0,9.123058066,9.837489641,-6.99200934,357.0065162,96.99362046,58.95484678,29.46696728,1.439356592,0,28.35687767,32.95975176,-109.5336174,-858.8607544,,,,
542.5119996,2119,556.931941,24.04451647,0,-35.55097129,-44.26438539,14.49916681,-71.90060068,-42.16304037,-66.91867814,-73.47207787,-51.4041339,0,-108.1663599,-74.56239419,156.4900938,797.1634573,,,,
542.5199996,2119,377.7096233,47.56518632,0,31.16020638,19.70036066,64.04343654,-214.4416159,-63.5751345,72.32005192,86.67190846,15.28141297,0,61.44878079,90.80100431,-157.6208995,-472.2173926,,,,
542.5279996,2119,578.4553236,-56.99038867,0,-36.98480104,-31.20390337,-47.74895573,445.5260961,106.8488157,-30.83108234,-48.05882788,-25.11000574,0,-56.35984532,-38.08486082,96.83621068,-94.18559197,,,,
542.5359996,2119,442.9452783,52.57649228,0,-15.76383277,-37.23238027,48.50864701,-492.7004069,-163.5594761,0.574916195,-19.32135247,-36.35369097,0,-49.36525873,-12.23162762,-13.34619531,535.8076985,,,,
542.5439996,2119,470.3518679,-22.90951565,0,30.74307025,25.99269436,4.159587602,353.2854455,104.1284964,55.31965482,40.80211181,9.806048436,0,34.79585675,49.39889461,-100.9143393,-861.5871167,,,,
542.5519996,2119,558.0420961,-4.230207103,0,-47.70698802,-62.37664689,-7.585471021,-69.72383769,-56.42915212,-63.46727946,-72.23521667,-42.80242904,0,-93.86579973,-56.84889797,165.7666468,793.2430199,,,,
542.5599996,2119,354.4405553,3.3685699,0,-2.107457447,-19.42802422,32.4094533,-266.0929838,-100.0170329,45.11770292,37.42513571,-14.7896679,0,3.426539834,28.77471473,-180.7600631,-442.3859618,,,,
542.5679996,2119,559.8152319,-49.88122805,0,-15.02606155,-18.94528413,-25.88308608,453.4179704,120.2691599,-52.03761836,-66.60548899,-42.91189105,0,-81.48347489,-87.27888517,76.98597103,-117.9266289,,,,
542.5759996,2119,422.908581,77.46297584,0,19.11056065,-20.16370994,80.35694991,-479.822351,-144.8774532,5.737186988,9.188501248,-22.54111763,0,-13.38228092,29.48019563,5.876479374,571.7904233,,,,
542.5839996,2119,430.1408998,-42.34501495,0,17.41334485,5.075341528,-11.37969028,326.2981642,83.44889352,56.23039012,49.26020809,5.391614774,0,23.76070125,81.97745057,-106.6044165,-882.4482686,,,,
542.5919996,2119,541.131148,-5.190558574,0,-44.96655321,-62.9387425,-10.30207032,-53.49492298,-51.7254922,-75.14155741,-94.5310268,-66.11247246,0,-120.4165422,-89.14860714,150.8631401,767.8107649,,,,
542.5999996,2119,357.6483255,43.59593477,0,39.580642,16.34541188,68.10112611,-267.2931577,-77.97723892,69.31141141,61.45046983,0.208595171,0,56.96501931,67.57993849,-171.4746339,-424.2296541,,,,
542.6079996,2119,560.837584,-68.17397624,0,-28.99937341,-34.15580959,-45.36874258,453.0587044,107.0956284,-29.90548765,-43.95389243,-27.38051279,0,-57.97162902,-44.33248434,80.39464652,-175.6243378,,,,
542.6159996,2119,437.3958265,45.01377976,0,-19.17586727,-53.3627638,39.32071163,-500.0480176,-175.6331118,-20.62705178,-28.35861556,-52.01890239,0,-68.23578203,-39.11283416,-12.4973713,586.1766131,,,,
542.6239996,2119,458.7316654,-23.69038146,0,30.63040227,33.62364585,0.281984019,316.5586667,93.89936376,50.38706191,38.24655019,-4.304747654,0,33.33208836,44.70985515,-126.1951175,-890.0700355,,,,
542.6319996,2119,574.6152023,-1.024899098,0,-32.6351011,-45.5426454,9.46401504,-15.68467746,-25.76177027,-62.43811397,-74.56812793,-46.11747922,0,-95.57007793,-65.10816944,170.1137902,747.9695162,,,,
542.6399996,2119,371.3005035,18.45968483,0,25.23774772,-2.773882929,57.42071655,-285.0086234,-90.05261324,59.5691261,51.9149364,-3.658868332,0,16.93718107,63.74936444,-172.6605361,-416.050274,,,,
542.6479996,2119,572.9020631,-82.89671594,0,-29.45333265,-24.43801287,-57.92370971,465.2367515,111.9889284,-42.97601117,-73.15022067,-45.34309645,0,-63.75995335,-53.19077606,58.81834263,-235.9674192,,,,
542.6559996,2119,456.0497503,58.4742026,0,7.567353008,-36.54112354,69.63397828,-482.354328,-146.975411,-12.94846249,-28.32107108,-45.14702382,0,-31.0630275,-10.35526934,6.440103875,603.9175537,,,,
542.6639996,2119,461.0130882,-11.95346596,0,50.70537329,29.31737572,25.38894121,291.8924709,98.35516695,68.49202063,59.53762543,15.03541261,0,49.6372883,65.69693886,-124.1819108,-921.4481013,,,,
542.6719996,2119,591.498307,-10.66506384,0,-38.69250031,-44.50369263,-14.10571814,-15.25374354,-42.9705824,-58.11625381,-84.53025273,-48.53597285,0,-92.87643751,-81.09313561,162.8472658,691.818402,,,,
542.6799996,2119,404.7554393,27.10259069,0,32.50080497,-7.162221405,50.61285438,-314.4770897,-107.0354771,64.78594397,48.42447061,-6.267860908,0,33.38517355,64.71734865,-167.0734338,-395.5589005,,,,
542.6879996,2119,626.2725849,-47.63386694,0,-2.362591349,-22.78792339,-41.63741636,470.1940999,122.4130902,-35.67689793,-45.7222983,-25.73829561,0,-60.50721186,-45.26547613,59.55055574,-273.4948231,,,,
542.6959996,2119,544.1613521,74.83656099,0,6.89799468,-20.37239946,48.03993604,-473.4670303,-156.3692328,-8.706908354,-19.34825355,-27.26832173,0,-56.99925592,-23.78396455,17.64892309,612.8283424,,,,
542.7039996,2119,579.7854365,-14.45451708,0,40.17357211,23.31975325,-7.504851029,278.9628658,74.79674757,73.88801678,52.68554183,22.09423942,0,44.95241756,69.17158527,-118.5749125,-934.961063,,,,
542.7119996,2119,763.9032942,22.18090916,0,-19.55232986,-49.39836777,-3.364047903,19.04689367,-22.90533772,-64.91926154,-80.37132022,-37.15057431,0,-82.99456849,-73.828367,172.1354648,677.6905446,,,,
542.7199996,2120,592.4347678,65.80199621,0,49.40354186,12.03144024,71.33808147,-314.7796636,-92.35203336,73.42493271,73.73153054,20.78448438,0,30.55332221,66.03484629,-153.0247081,-365.704122,,,,
542.7279996,2120,788.2579924,-59.08261189,0,-13.8003391,-25.04236243,-51.03421482,477.6697149,116.8381384,-20.12443111,-38.7645073,-13.78547231,0,-68.08773812,-35.84861338,67.51605194,-318.4521447,,,,
542.7359996,2120,683.1963776,75.56413954,0,3.346722597,-39.55502181,55.28047547,-475.2373036,-160.5289897,-26.04958614,-33.82932162,-41.88940322,0,-65.57071275,-14.5390033,21.29659364,645.7465531,,,,
542.7439996,2120,658.9903518,-1.097266777,0,45.69439613,24.34790373,13.14196194,251.4406387,75.86181613,62.12490034,63.48188891,18.8185656,0,43.47469083,70.0030027,-133.0814078,-917.9246847,,,,
542.7519996,2120,774.9622892,-18.60991547,0,-51.19073109,-64.20922932,-30.02379072,18.57819666,-32.47755146,-79.26016639,-98.84355002,-56.0859579,0,-112.0275903,-115.849333,160.8975499,663.2673548,,,,
542.7599996,2120,573.840815,27.02083002,0,18.32853333,-9.201927612,37.15070521,-357.8926263,-121.2112277,42.3529706,24.14323167,-24.12888562,0,8.692473707,16.37468875,-170.4369845,-320.2981498,,,,
542.7679996,2120,765.7377337,-61.92155399,0,-6.189039639,-28.04384977,-55.30095891,458.4092605,111.6794324,-30.12163322,-53.71478797,-39.8495551,0,-51.04581845,-37.15181516,43.42384582,-326.8126561,,,,
542.7759996,2120,639.9534843,70.31449968,0,6.524531706,-62.27980204,52.0658439,-498.6489967,-167.8309648,-38.16381698,-36.46733452,-60.77050795,0,-94.52424959,-3.334720406,10.32759165,673.5753514,,,,
542.7839996,2120,606.6904843,-10.71902443,0,45.1770221,12.09735431,-2.633533709,213.2748053,59.89646263,61.86603611,55.34697683,5.567586183,0,24.3026408,71.74233783,-156.1645324,-944.4296291,,,,
542.7919996,2120,747.6769362,0.665919116,0,-18.60053837,-43.13987895,-22.44966714,45.04889789,-14.22813301,-55.10926881,-93.82910826,-46.88868537,0,-83.47747986,-101.2176697,159.4492242,628.462367,,,,
542.7999996,2120,522.9256975,74.48642271,0,63.81152395,5.88340842,80.66671476,-358.9238739,-96.73404725,63.0363145,63.14120437,3.809520006,0,6.868787353,59.7768759,-149.5640945,-299.691182,,,,
542.8079996,2120,696.1413858,-55.8431257,0,2.58823607,-17.15453724,-47.29687376,480.3980006,128.640393,-0.694542379,-18.07977979,-4.855823457,0,-37.67222066,-14.28351451,56.23237834,-417.7204268,,,,
542.8159996,2120,597.8241635,55.35509449,0,-4.350715662,-36.76405025,36.93308848,-466.4171554,-160.0964644,-18.21355072,-50.49984405,-47.65239299,0,-54.00909856,-45.06209696,33.04396294,652.9099763,,,,
542.8239996,2120,569.3468161,8.492967581,0,52.38135124,35.09602552,17.10275853,223.2475986,77.13067079,66.39236789,59.71842167,11.60792647,0,29.181608,55.76176053,-140.2627604,-945.0067129,,,,
542.8319996,2120,721.7594794,6.031915375,0,-27.59971424,-40.63779895,-10.37152082,88.70778343,11.52418393,-50.64812338,-58.99007962,-28.10068691,0,-75.03744148,-60.34330015,178.3598357,596.3126528,,,,
542.8399996,2120,516.6131241,58.62997689,0,22.54267443,-2.086969403,65.06460452,-368.2058827,-109.0459953,60.62139648,57.34892887,7.364117659,0,35.99050502,55.24643217,-146.6406489,-280.6399799,,,,
542.8479996,2120,709.5771939,-54.37230255,0,-30.41968972,-18.7515896,-56.50084414,488.7794106,128.6428105,-8.771434499,-38.17267923,-8.695303737,0,-38.97446531,-47.5910652,35.42919927,-446.4908182,,,,
542.8559996,2120,615.4522901,70.26964211,0,-17.33360487,-29.79485835,47.80389783,-444.4875201,-133.1354166,-11.5197861,-32.02258757,-21.7636447,0,-38.22052897,-33.95685111,36.23878487,682.3223534,,,,
542.8639996,2120,550.5654061,14.79331197,0,39.79729134,37.07718428,33.1966293,210.0971111,91.5209444,83.06250322,86.51930627,52.37144519,0,59.56270578,75.91633057,-133.4240006,-947.907451,,,,
542.8719996,2120,685.0230105,15.74409143,0,-41.21116695,-46.56662381,-0.606604071,113.8020173,30.16788709,-54.3202721,-56.0264111,-3.198493201,0,-87.29138401,-47.55156738,190.0461591,570.0158418,,,,
542.8799996,2120,460.8221199,89.68864424,0,23.3853778,-1.714926206,81.56609461,-369.5452096,-86.42855902,74.60027453,80.46474031,39.77650134,0,51.7147745,95.14962258,-137.8902938,-249.7912998,,,,
542.8879996,2120,614.7023442,-45.39157739,0,-39.98272073,-18.35636467,-48.65255955,502.1657672,150.3772939,13.32026983,-4.197354044,30.41882009,0,-13.1181596,-24.70180756,40.46623594,-492.4467323,,,,
542.8959996,2120,508.8613234,61.19538402,0,-50.45623268,-40.99267267,43.58017302,-430.7435865,-129.8624645,-21.70403823,-38.64002865,-8.342243193,0,-52.43925236,-64.18043319,54.46600891,688.9194147,,,,
542.9039996,2120,450.8071714,18.76353114,0,6.231633815,18.47523048,18.96146318,181.4166063,75.33496159,84.05787434,74.43937528,51.95577325,0,69.94479124,47.20245783,-153.118442,-966.1014659,,,,
542.9119996,2120,594.2915084,-10.08926858,0,-83.80419167,-70.5446384,-45.47930143,111.1593099,13.44072301,-56.98211184,-64.01436144,-17.80893322,0,-93.92523054,-69.91194414,155.9164669,516.3854555,,,,
542.9199996,2120,364.7107797,41.3241273,0,-2.699455356,-1.277447003,60.1893373,-391.1151471,-96.05254642,53.16231938,52.72813868,15.10459404,0,21.33643057,61.74510476,-156.4306801,-237.8824068,,,,
542.9279996,2120,528.4044335,-71.77652707,0,-36.44677579,-4.623550858,-35.63459442,508.0907541,158.0665503,9.06426402,-28.80384472,20.57868742,0,11.38292807,-37.06397281,29.68365438,-540.4743387,,,,
542.9359996,2120,440.0063912,35.27553779,0,-50.27615948,-43.09263778,39.692694,-419.2018407,-130.7875821,-18.75317368,-41.9728667,-15.46740677,0,-32.76935288,-41.67631411,59.98790037,703.6841752,,,,
542.9439996,2120,365.9090884,-24.70337957,0,13.5216237,30.41633676,20.2137129,174.0405334,80.67680796,71.34782401,63.63589129,37.24068424,0,57.80838418,55.75386004,-155.4850617,-955.519354,,,,
542.9519996,2120,528.6365573,-26.02801616,0,-61.2272974,-53.12083348,-21.21028137,153.5406412,43.47956206,-70.96785864,-85.90139612,-20.97663918,0,-85.88838226,-105.7499341,172.8790243,503.0062804,,,,
542.9599996,2120,321.3325398,39.96714094,0,3.049898048,-10.42330339,58.19211855,-399.4858042,-102.5224157,54.09729206,60.86757571,22.24859241,0,32.07575467,48.67190867,-135.4400657,-180.6246495,,,,
542.9679996,2120,474.338097,-108.7027082,0,-56.27016977,-35.33007367,-75.46916576,490.3588481,131.5834621,-7.189740144,-37.9196845,2.529404,0,-21.61800187,-35.42893703,15.62585727,-552.6761952,,,,
542.9759996,2121,399.6532296,32.38233907,0,-43.99242854,-60.73066733,39.83802083,-419.4769641,-130.1449551,-45.6858187,-80.21558026,-44.53142039,0,-79.84647675,-67.23527405,55.7464681,741.1748295,,,,
542.9839996,2121,336.2251862,-1.450448817,0,40.9182889,33.85979248,43.53543864,156.3007463,86.55766182,78.12354118,81.8784887,44.14130007,0,61.80861494,84.07871592,-154.475513,-930.1857914,,,,
542.9919996,2121,492.7567693,-54.50504243,0,-75.74876896,-62.4138086,-42.51047439,164.6588538,34.26470818,-62.10702862,-79.96276611,-18.73876101,0,-74.50967617,-65.26422183,173.0551297,489.7113925,,,,
542.9999996,2121,272.3732993,43.75159013,0,-4.907692272,-9.510131069,63.64529978,-423.8288613,-109.5676913,51.32850401,23.97584378,-1.916537042,0,31.44770572,23.10687667,-141.0315269,-135.5922228,,,,
543.0079996,2121,436.8989554,-65.30412049,0,-20.95482822,3.359846958,-34.24177662,510.8602437,165.5245309,15.97553174,-9.774903118,15.7628102,0,18.98520253,-36.15031021,13.22997686,-597.858095,,,,
543.0159996,2121,377.5165951,19.54314574,0,-58.30850207,-52.33105773,11.05575238,-397.1263344,-130.0691044,-30.18559922,-57.42329889,-22.69215329,0,-43.50102944,-53.00678106,78.99443128,746.1631082,,,,
543.0239996,2121,296.6740037,-23.40244962,0,-4.803011432,7.714641304,-9.132824385,109.0948423,39.16750694,69.63254352,43.3261676,22.63487598,0,44.88160208,45.10828624,-168.963177,-917.9575579,,,,
