Time:125Hz,Epoch,FP1,FP2,C3,C4,P7,P8,O1,O2,F7,F8,F3,F4,T7,T8,P3,P4,Event Id,,,
705.6479995,2756,115.1175716,-17.66919112,-569.7703943,-87.53254275,-60.00496868,-87.32978796,-3.864531844,-52.0105884,-89.54811443,-97.16668318,-76.03697521,-671.351112,-88.08759081,-106.2545407,-57.07066114,26.89457686,1111,,,
705.6559995,2756,115.6648611,-17.58664064,-572.001625,-87.98657261,-60.28339353,-87.64931164,-3.662158496,-52.1848567,-89.81684666,-97.54129281,-76.67927075,-674.3712718,-88.42438044,-106.7710716,-57.12065625,26.90245489,,,,
705.6639995,2756,116.2588144,-17.79013268,-573.9818488,-88.18140261,-60.54790454,-88.0954522,-3.547616568,-52.26879196,-90.06776219,-97.84671086,-77.37486661,-676.9352687,-88.97110396,-107.191628,-57.35922588,27.27981232,,,,
705.6719995,2756,116.6370046,-17.8918182,-575.9245316,-88.47567766,-60.6445712,-88.36988131,-3.598741805,-52.46081144,-90.62611678,-98.23394283,-77.35502874,-679.2019702,-88.96433229,-107.7222391,-57.51685427,27.06848736,,,,
705.6799995,2756,117.2350806,-17.93032707,-577.8929668,-88.90407116,-61.12257163,-88.71813544,-3.590925841,-52.67993631,-90.88681572,-98.72157486,-77.71769029,-682.06315,-89.43458115,-107.9742439,-57.70056903,27.15479749,,,,
705.6879995,2756,117.5166626,-17.94004225,-579.6750236,-89.09116899,-61.20402997,-89.10243911,-3.66811035,-53.11207227,-91.20232701,-99.07487837,-77.9431337,-684.6696144,-90.19470234,-108.2129108,-58.01716713,27.46459957,,,,
705.6959995,2756,117.7428063,-18.09678084,-581.8334062,-89.38416151,-61.39775363,-89.42056867,-3.546556952,-53.21930692,-91.71899983,-99.46876075,-78.13187382,-686.9473209,-90.31685426,-108.8011666,-58.19633972,27.23799068,,,,
705.7039995,2756,118.4587288,-18.26464866,-583.7741296,-89.85116788,-62.01808273,-89.70230992,-3.440964659,-53.24567593,-91.8039512,-99.81031011,-78.71765997,-689.6597911,-90.58670258,-109.2063955,-58.27815909,27.51699531,,,,
705.7119995,2756,118.668104,-18.19736401,-585.3288725,-90.20462248,-61.86814755,-89.81009433,-3.450799022,-53.67070659,-92.187496,-100.2662496,-78.83676215,-692.1693194,-90.83583034,-109.4182408,-58.4212689,27.76300907,,,,
705.7199995,2756,118.8883043,-18.17688461,-587.2855993,-90.57202558,-62.0482383,-90.09134251,-3.311146892,-53.76253963,-92.79945481,-100.468294,-78.86557127,-694.610306,-91.15851926,-109.8171129,-58.49366956,27.67288463,,,,
705.7279995,2756,119.6246285,-18.14271521,-589.299935,-90.89793486,-62.57818374,-90.62951735,-3.486961398,-53.7088045,-92.9559696,-100.5272317,-79.24630086,-697.0668448,-91.61731447,-110.3018681,-58.76993939,27.8285645,,,,
705.7359995,2756,120.0957735,-18.34711535,-591.0177051,-91.11754325,-62.76271496,-91.01130893,-3.716575815,-54.08366881,-93.0239888,-101.0344367,-79.51166311,-699.2801185,-91.88184686,-110.6602242,-59.16182683,27.89890901,,,,
705.7439995,2756,120.4734497,-18.69538046,-592.7217892,-91.39671946,-63.10664412,-91.24098231,-3.480364569,-54.43155825,-93.36997689,-101.6359164,-79.8648537,-701.8045157,-92.42182902,-111.0723412,-59.29823739,27.83196946,,,,
705.7519995,2756,120.8216816,-18.61900985,-594.5281947,-91.75157236,-63.0314871,-91.59892294,-3.546047126,-54.43784792,-93.75962268,-102.0061635,-80.18017142,-704.1790561,-92.58121329,-111.386181,-59.54988773,28.03860421,,,,
705.7599995,2756,121.1897784,-18.61592138,-596.2288292,-92.02220148,-63.06103092,-91.97870089,-3.797947922,-54.59324379,-94.12101597,-102.0901234,-80.21109816,-706.3430915,-92.6740564,-111.8661802,-59.94821019,28.33877321,,,,
705.7679995,2756,121.6295496,-18.7537192,-598.0191123,-92.2607833,-63.44881377,-92.154469,-3.581673775,-54.8010217,-94.45435119,-102.5164794,-80.58343619,-708.7488071,-93.06619112,-112.4145655,-59.9593005,28.25312536,,,,
705.7759995,2756,121.9304212,-18.65110844,-599.9037647,-92.60777968,-63.63145758,-92.4384086,-3.673810887,-54.8262574,-94.667485,-103.0235582,-80.9545451,-710.8591122,-93.33153348,-112.5722241,-60.07925264,28.35844275,,,,
705.7839995,2756,122.4162869,-18.69624062,-601.5941101,-92.85283605,-63.91656892,-92.75251436,-3.699502964,-55.22232777,-94.87862694,-102.9918414,-81.17188992,-713.0813827,-93.81771473,-112.8825662,-60.45279283,28.42660523,,,,
705.7919995,2757,122.8767926,-18.77481779,-603.3233912,-93.22081603,-63.94956204,-93.03040633,-3.416030913,-55.65243966,-95.16364999,-103.3981555,-81.55035379,-715.5654733,-94.03419648,-113.2659138,-60.38928382,28.13982207,,,,
705.7999995,2757,123.2034669,-18.80287993,-604.9634109,-93.58330056,-64.02183315,-93.30254197,-3.850752795,-55.58505745,-95.707472,-103.9369552,-81.74707772,-717.5984458,-94.1777159,-113.5259256,-60.63189713,28.45751325,,,,
705.8079995,2757,123.6631793,-18.91365062,-606.3537622,-93.6676557,-64.38677257,-93.53858427,-3.937541092,-55.64105238,-95.94843373,-103.9559781,-81.87963645,-719.7474796,-94.48942754,-113.8152308,-61.02314196,28.69759507,,,,
705.8159995,2757,123.9018062,-18.85857709,-608.003961,-94.0951188,-64.6258834,-93.93100068,-3.595768497,-55.98250663,-95.96031517,-104.3766343,-82.07620059,-721.9508991,-94.88060531,-114.3909558,-60.93510555,28.4352476,,,,
705.8239995,2757,124.047198,-18.99000275,-609.8570293,-94.42798497,-64.90772922,-94.03535873,-3.896264404,-55.92795801,-96.42133,-104.7043399,-82.53899776,-724.0195157,-95.34820046,-114.8273152,-61.21717939,28.5103843,,,,
705.8319995,2757,124.4754979,-19.27974367,-611.2798803,-94.54731554,-65.13741366,-94.13955489,-3.906925478,-55.91131812,-96.82901816,-104.8696254,-82.87316547,-726.1471427,-95.51824375,-114.802025,-61.59809699,28.76869347,,,,
705.8399995,2757,124.9902834,-19.27039434,-612.6313855,-94.84455659,-65.35014432,-94.53134508,-3.614619636,-56.4077175,-97.06954124,-105.3889984,-82.77649384,-727.9628165,-95.84826007,-115.1884592,-61.68612883,28.93100749,,,,
705.8479995,2757,125.3923643,-19.20468579,-614.2440576,-94.94815637,-65.50717974,-94.79789224,-3.670284886,-56.60985532,-97.22501359,-105.4894272,-83.14193324,-730.1976428,-96.05579368,-115.6010704,-61.71650726,28.94280549,,,,
705.8559995,2757,125.6507673,-19.25364293,-615.6941233,-95.20719657,-65.58396999,-95.12349706,-3.753640732,-56.57002998,-97.4133014,-105.7612678,-83.60167002,-732.2434148,-96.1217229,-115.6905818,-61.87939959,28.98447759,,,,
705.8639995,2757,125.8583899,-19.29059526,-617.1007662,-95.67850735,-65.73186123,-95.57762933,-3.729388496,-56.75478862,-97.81832882,-106.1609529,-83.51584619,-733.8358678,-96.43297321,-116.2075711,-62.13081333,29.1104965,,,,
705.8719995,2757,126.3023588,-19.42655944,-618.5117015,-95.9362611,-65.79250006,-95.9371184,-3.614606478,-57.01352391,-97.94612341,-106.3566044,-83.51703229,-736.1925037,-96.57265697,-116.7886463,-62.1047919,29.09903301,,,,
705.8799995,2757,126.8244036,-19.46291576,-620.0967452,-96.082025,-65.87413543,-95.88229012,-3.599231962,-57.12552568,-98.05314575,-106.8422504,-84.01635593,-738.1719897,-96.8024782,-116.8199641,-62.3891923,29.25661981,,,,
705.8879995,2757,126.9999098,-19.54862491,-621.699441,-96.36944157,-66.06757977,-96.08284575,-3.83230122,-57.10166493,-98.54676266,-107.1668815,-84.48738396,-739.760617,-97.12850384,-116.9731297,-62.69852334,29.47057061,,,,
705.8959995,2757,127.2230391,-19.84991388,-622.853546,-96.55917788,-66.42022303,-96.71202849,-3.824494156,-57.32653119,-98.74003846,-107.4764212,-84.4861445,-741.7130884,-97.47842566,-117.3852025,-62.68243268,29.2502901,,,,
705.9039995,2757,127.6018666,-19.75666578,-624.1441157,-96.69310844,-66.7313893,-96.68862975,-3.469756942,-57.44555342,-98.70340144,-107.6240647,-84.48255507,-743.5343455,-97.78798451,-117.5825984,-62.88365272,29.20894451,,,,
705.9119995,2757,127.864032,-19.76588095,-625.5580576,-97.02700658,-66.82965604,-96.80930417,-3.481316904,-57.48651266,-99.00806071,-107.756736,-84.7322822,-745.4117205,-97.93269546,-117.8715186,-62.99162941,29.41456825,,,,
705.9199995,2757,128.2028303,-19.92178209,-626.8278413,-97.21679928,-66.99687229,-97.25738984,-3.613804571,-57.73752322,-99.28204233,-108.1781893,-84.96486414,-747.1830349,-98.23020561,-118.1950624,-63.14307349,29.37678295,,,,
705.9279995,2757,128.4658839,-19.84514039,-628.1635014,-97.44631227,-67.09192098,-97.29012669,-3.540587937,-57.80123931,-99.61985117,-108.3619558,-85.1237824,-749.013889,-98.44488031,-118.4042826,-63.26444991,29.57976541,,,,
705.9359995,2757,128.7854009,-19.86499314,-629.4343457,-97.70106572,-67.07832819,-97.47940683,-3.816232304,-57.98861039,-100.1610828,-108.6257273,-85.49053528,-750.8589774,-98.64108273,-118.6627477,-63.40052674,29.82935469,,,,
705.9439995,2757,129.2786822,-19.94039837,-630.7001169,-97.93369048,-67.23326506,-97.71186751,-4.011184926,-58.34517853,-100.2587433,-108.9311525,-85.84907169,-752.3658349,-98.89055972,-118.9405628,-63.91372373,29.83057524,,,,
705.9519995,2757,129.4740502,-20.08797075,-631.8736399,-98.29460777,-67.45799082,-97.89526337,-3.87925559,-58.50155151,-100.4072381,-109.2763521,-85.76203301,-754.0720935,-98.98694064,-119.21384,-64.02341673,29.78145046,,,,
705.9599995,2757,129.6427969,-19.8923233,-632.9691432,-98.2658962,-67.61941318,-98.17077099,-3.76147754,-58.41231648,-100.7728494,-109.5258666,-85.80704609,-755.8581927,-99.29808691,-119.4725708,-63.82598853,29.77305758,,,,
705.9679995,2757,129.9825417,-19.8383155,-634.2730016,-98.28058343,-67.7595775,-98.57147689,-3.613039361,-58.51330046,-100.7583739,-109.4361398,-86.16733231,-757.2887045,-99.64065133,-119.939753,-63.93655882,29.98574176,,,,
705.9759995,2757,130.3868397,-20.03174011,-635.6266252,-98.74349104,-67.77168309,-98.81629481,-3.783491231,-58.86205263,-100.9863546,-109.6330646,-86.37645939,-758.8335012,-99.5682367,-120.3207905,-64.13411566,29.92665469,,,,
705.9839995,2757,130.8066546,-19.96924561,-636.8741691,-98.95433525,-67.79998761,-98.78218805,-4.033679432,-58.80648876,-101.1362043,-109.9449484,-86.6404344,-760.6747062,-99.68447481,-120.346369,-64.34543391,29.83504986,,,,
705.9919995,2757,130.8102005,-20.2091655,-637.9023445,-99.00970086,-68.1196644,-99.17011145,-3.970723637,-58.89933697,-101.2523172,-110.3055783,-86.98287653,-762.0059241,-100.1649213,-120.6135026,-64.47599211,30.13626249,,,,
705.9999995,2757,130.9943251,-20.23246175,-638.9254467,-99.25107475,-68.28216801,-99.49563196,-3.903625312,-59.29425635,-101.7629738,-110.7042673,-87.00853322,-763.4476354,-100.3180969,-120.8663673,-64.57958364,30.092264,,,,
706.0079995,2757,131.4563123,-20.12983703,-640.1585784,-99.4272221,-68.3739317,-99.3690324,-3.775960652,-59.39973571,-101.8736264,-110.7786533,-86.85544229,-765.2909806,-100.4796901,-121.1149379,-64.80861745,29.98702482,,,,
706.0159995,2757,131.6575477,-20.14494688,-641.1429722,-99.65331876,-68.6673013,-99.52150352,-3.723861748,-59.37304307,-101.9836638,-110.7825106,-87.13336746,-766.6118734,-100.8935409,-121.375311,-64.84970605,30.09340966,,,,
706.0239995,2757,132.0761612,-20.14045463,-642.1081481,-100.0308262,-68.77697413,-99.95058202,-3.884878677,-59.25286796,-102.01666,-110.9850425,-87.49814911,-768.1685405,-101.0366709,-121.3574811,-64.7945714,30.21421403,,,,
706.0319995,2757,132.2698017,-20.38195886,-643.276571,-100.2402768,-68.86287535,-100.0114715,-3.915348069,-59.43769238,-102.1772228,-111.3995457,-87.51834657,-769.7242684,-101.0413332,-121.8281259,-64.93573094,30.35947718,,,,
706.0399995,2757,132.2778001,-20.34750189,-644.178897,-100.379665,-69.03910986,-100.1107557,-3.902913601,-59.85400366,-102.7358356,-111.6404082,-87.80678556,-770.9775239,-101.3236417,-122.0571492,-65.16421555,30.24051622,,,,
706.0479995,2758,132.6228032,-20.41722717,-645.3131856,-100.6838675,-69.06137503,-100.613093,-3.925323202,-59.83057277,-102.8184773,-111.7314158,-88.13785783,-772.5458982,-101.68878,-122.203296,-65.39614151,30.28977422,,,,
706.0559995,2758,132.8960654,-20.55686423,-646.5271933,-100.8631465,-69.03455461,-100.7690216,-3.828143259,-59.80704655,-102.9291773,-111.8940987,-88.19484804,-773.8689346,-101.6781838,-122.8611231,-65.45186331,30.43119388,,,,
706.0639995,2758,133.1561524,-20.51759846,-647.247604,-101.0366521,-69.25325226,-100.7844941,-3.868460096,-60.06923941,-103.1306561,-112.0731924,-88.39486467,-775.24653,-101.6986546,-122.8490631,-65.45065653,30.35964981,,,,
706.0719995,2758,133.3774793,-20.59804178,-648.198497,-101.4033142,-69.43755991,-101.0223402,-3.870844551,-60.15919965,-103.2544345,-112.3896476,-88.51160993,-776.8235117,-102.0276423,-122.9424985,-65.53285261,30.48397476,,,,
706.0799995,2758,133.5380846,-20.4497775,-649.0637725,-101.3711261,-69.37551164,-101.2299103,-3.775106671,-60.24817639,-103.5547474,-112.5695153,-88.4094682,-777.8822139,-102.1484363,-123.3768955,-65.70434606,30.62663932,,,,
706.0879995,2758,133.7277732,-20.39307838,-649.7097817,-101.3502545,-69.57675427,-101.4561517,-4.041105002,-60.36359477,-103.8101951,-112.6105685,-88.58617796,-778.9324708,-102.2589415,-123.4401467,-66.09204029,30.59679642,,,,
706.0959995,2758,134.0531405,-20.53821246,-650.724306,-101.7338786,-69.94068143,-101.5336409,-4.035926216,-60.33986414,-103.7826541,-112.8244035,-88.84059648,-780.4180183,-102.6471246,-123.4658739,-66.2044096,30.54546894,,,,
706.1039995,2758,134.321542,-20.50221757,-651.75138,-101.7222795,-69.80915513,-101.5687122,-3.710466633,-60.42322216,-103.6204153,-113.1324614,-88.98832405,-781.5832593,-102.8179247,-123.5731848,-66.08490384,30.70813668,,,,
706.1119995,2758,134.3026245,-20.57458581,-652.536284,-101.7358688,-69.87744273,-101.7351014,-3.742193973,-60.60464307,-103.9967535,-113.3313238,-89.28162379,-782.5635939,-102.7398077,-123.7571589,-66.11714597,30.81791654,,,,
706.1199995,2758,134.4269332,-20.76688094,-653.2032635,-102.0414674,-70.26663978,-101.7769262,-3.71962559,-60.85038749,-104.4345488,-113.3963123,-89.29866888,-783.8948692,-102.9095942,-123.9312541,-66.21915041,30.51883436,,,,
706.1279995,2758,134.7524877,-20.76262555,-654.1324119,-102.0841253,-70.064912,-101.9721289,-3.761080571,-60.81595236,-104.51997,-113.5541167,-89.42814243,-785.1049367,-103.2459023,-124.1971807,-66.45961648,30.59253375,,,,
706.1359995,2758,135.1953384,-20.77019305,-654.8989583,-102.1792909,-70.19464498,-102.3187876,-3.962821485,-60.67407164,-104.5024309,-113.769575,-89.6414992,-786.0983357,-103.3312643,-124.3868629,-66.50581553,30.86937506,,,,
706.1439995,2758,135.3915933,-20.72257133,-655.4789414,-102.4062956,-70.49760673,-102.4300937,-3.883236484,-60.75032003,-104.445959,-113.8305531,-89.54500238,-787.0145606,-103.2909793,-124.6465399,-66.38115336,30.87605047,,,,
706.1519995,2758,135.3443774,-20.73795785,-656.459234,-102.594245,-70.40370125,-102.5538511,-3.958420092,-60.80837665,-104.8128147,-113.9513508,-89.79835476,-788.0888841,-103.528471,-124.9354784,-66.524286,31.09152104,,,,
706.1599995,2758,135.6234611,-20.86057907,-657.1321942,-102.7910617,-70.63271245,-102.6503392,-3.890880405,-60.91251766,-105.1386318,-114.1971411,-89.96771003,-789.3281303,-103.6714347,-125.0049115,-66.68490796,31.04247838,,,,
706.1679995,2758,135.7695464,-20.67526698,-657.7267891,-102.892401,-70.73419217,-102.7394071,-3.558262334,-60.94250879,-105.0616944,-114.2056378,-90.00209229,-790.337539,-103.7677952,-125.1950347,-66.70845617,31.01482497,,,,
706.1759995,2758,135.7251397,-20.6719927,-658.5311579,-103.1037338,-70.7891921,-102.9589981,-3.731542154,-61.24865533,-105.1912373,-114.3051306,-90.1615505,-791.4094238,-104.1905912,-125.3134092,-66.74244552,31.06261743,,,,
706.1839995,2758,136.0496214,-20.93066468,-659.0101364,-103.1912246,-70.95690569,-102.9026402,-3.728388605,-61.47361457,-105.4247257,-114.5256567,-90.29216876,-792.4321117,-104.1720197,-125.4363591,-66.78462528,30.74255219,,,,
706.1919995,2758,136.2751637,-20.9601744,-659.7638412,-103.085577,-70.81119742,-102.9699652,-3.678122724,-61.24348667,-105.6155116,-114.6088522,-90.34076099,-793.1506785,-103.9448475,-125.5174102,-67.02865506,30.94482691,,,,
706.1999995,2758,136.2822692,-21.02461616,-660.464362,-103.3949307,-70.83168432,-103.2485102,-3.951987562,-61.5306519,-105.9047532,-114.9131686,-90.24619032,-794.0728367,-104.2232691,-125.6496625,-67.18121779,31.05469236,,,,
706.2079995,2758,136.5471865,-21.13815749,-660.8644067,-103.5110215,-71.16064832,-103.3260444,-3.750368048,-61.77088501,-105.9113354,-115.1387855,-90.53764345,-795.0775415,-104.5340293,-125.9071876,-66.97829135,30.95998724,,,,
706.2159995,2758,136.8962374,-20.95838007,-661.6796729,-103.5816843,-71.40394612,-103.6463086,-3.801078917,-61.56898402,-105.808562,-115.1318574,-90.76615832,-795.9614383,-104.6147662,-125.9894439,-67.11753445,31.1897122,,,,
706.2239995,2758,137.0811258,-20.99445918,-662.1845615,-103.9266737,-71.42338097,-103.815042,-4.104949456,-61.62304041,-105.8861223,-115.1885843,-90.69576276,-796.8790225,-104.828,-126.3543578,-67.48000014,31.13390643,,,,
706.2319995,2758,137.049541,-21.19544614,-662.4465057,-103.8952004,-71.3095417,-103.6649872,-3.96978861,-61.73664402,-105.8727353,-115.3331356,-90.81639982,-797.7240579,-105.0924377,-126.4754631,-67.53569063,31.22777768,,,,
706.2399995,2758,137.0287183,-21.02518356,-663.2215121,-104.0159494,-71.40894708,-103.6560549,-3.989158828,-61.77655314,-106.1413,-115.4588411,-90.9965797,-798.4455503,-104.944999,-126.2743116,-67.65979582,31.26664893,,,,
706.2479995,2758,137.3662284,-21.03098296,-663.8796681,-104.0832683,-71.58205128,-103.7159293,-4.030281146,-61.79072018,-106.4397689,-115.5259177,-91.03767289,-799.1053401,-105.013625,-126.3871698,-67.68236163,31.03307655,,,,
706.2559995,2758,137.5963957,-21.07831889,-664.1570052,-104.0198646,-71.53778769,-104.005445,-3.912424468,-61.89456115,-106.4277407,-115.5619585,-91.02901238,-799.9839369,-105.463892,-126.6107416,-67.56973804,31.03073371,,,,
706.2639995,2758,137.6280649,-21.00839427,-664.5439182,-104.1674862,-71.5662733,-104.1601174,-3.857743092,-61.97734545,-106.5613451,-115.5682078,-91.23749347,-800.7146951,-105.3383953,-126.9058874,-67.78351784,31.18978417,,,,
706.2719995,2758,137.8793208,-21.07007775,-665.2003476,-104.2068619,-71.75570585,-104.0761597,-3.827655988,-61.98863549,-106.486751,-115.8502032,-91.28068553,-801.3821214,-105.1631648,-126.9783854,-67.74636407,31.29638062,,,,
706.2799995,2758,137.9207819,-20.89701471,-665.5799207,-104.3285097,-71.96313317,-104.2144862,-3.895578705,-62.16306102,-106.408974,-116.0621235,-91.40795213,-802.2290676,-105.523124,-126.9645535,-67.65095063,31.17510411,,,,
706.2879995,2758,137.9592565,-21.04271889,-665.7225811,-104.4907078,-71.99028203,-104.3994677,-3.938073021,-62.22326777,-106.7110285,-116.005754,-91.62300071,-802.712668,-105.6360377,-127.0643864,-67.88703595,31.08799504,,,,
706.2959995,2758,138.1538784,-21.23419215,-666.2408501,-104.5927292,-71.87154769,-104.4958091,-3.957574922,-62.19265917,-106.7217646,-116.1453726,-91.31687636,-803.4032168,-105.6890233,-127.2162298,-67.93527043,31.19838881,,,,
706.3039995,2759,137.9868234,-21.02836973,-666.8827381,-104.6919349,-71.86316564,-104.4816155,-3.95950329,-62.10306814,-106.9224707,-116.2084897,-91.46632797,-804.0997378,-105.7699513,-127.3523222,-67.98747055,31.4335505,,,,
706.3119995,2759,138.0754497,-21.28090906,-667.2784163,-104.8933037,-71.98330304,-104.4170348,-3.81143242,-62.10702493,-107.2979163,-116.3893903,-91.84273787,-804.6403023,-105.6180434,-127.2574888,-68.00433474,31.55046485,,,,
706.3199995,2759,138.5189338,-21.18448791,-667.4749722,-104.9963095,-72.09841356,-104.5736368,-3.886393339,-62.33933732,-107.0559668,-116.5965794,-91.7991356,-805.3724726,-105.9199641,-127.318564,-67.95743843,31.42936664,,,,
706.3279995,2759,138.6756635,-20.96083023,-667.7432358,-104.9308377,-72.16295883,-104.7199884,-4.083926921,-62.32750672,-107.0153685,-116.361387,-91.82907852,-805.7685926,-106.1797006,-127.5981556,-68.06687482,31.28962404,,,,
706.3359995,2759,138.6856076,-21.42525323,-667.9803057,-105.0537742,-72.17629803,-104.7709088,-3.942926422,-62.42782021,-107.1864037,-116.5461218,-91.76061342,-806.435947,-106.110604,-127.7050363,-68.21050504,31.26335358,,,,
706.3439995,2759,138.6999412,-21.4105551,-668.3288566,-105.2620456,-72.15223003,-104.8925742,-3.906368538,-62.51465512,-107.2256123,-116.9305387,-91.90854538,-807.2063983,-106.2438715,-127.5766627,-68.26055131,31.31484699,,,,
706.3519995,2759,138.942046,-21.15805684,-668.8841719,-105.2097715,-72.30870657,-104.8980932,-4.049374153,-62.25623586,-107.2627966,-116.7709016,-92.07655187,-807.4556189,-106.2083872,-127.7336806,-68.25472912,31.42706178,,,,
706.3599995,2759,139.0383243,-21.15476139,-669.1125634,-105.0702283,-72.37668811,-105.0189576,-4.032152663,-62.31167029,-107.2230701,-116.5985092,-92.076647,-807.8259534,-106.1508445,-128.1369553,-68.41994557,31.54641342,,,,
706.3679995,2759,138.8708778,-21.19861058,-669.1227692,-105.0964618,-72.36664285,-105.1923447,-3.901250135,-62.50636095,-107.3547352,-116.6923343,-92.23558751,-808.2430884,-106.2719193,-128.0029891,-68.34800606,31.48113256,,,,
706.3759995,2759,139.0898367,-21.25354354,-669.1727748,-105.1303364,-72.41193811,-105.166999,-3.795882363,-62.56255361,-107.4887077,-116.9196042,-92.03504937,-808.5655098,-106.3670253,-127.8610154,-68.03339841,31.4966927,,,,
706.3839995,2759,139.2259201,-21.09777474,-669.4656705,-105.381984,-72.20566415,-105.0215157,-3.848982188,-62.5274198,-107.6855253,-116.9008141,-92.02248333,-809.1165006,-106.4070733,-128.0652667,-68.15486829,31.59570195,,,,
706.3919995,2759,139.1756501,-21.21974376,-669.7980038,-105.5483458,-72.15263513,-104.8036503,-3.824923945,-62.46147545,-107.8438676,-116.8163199,-92.40202663,-809.5084036,-106.2786894,-127.9025928,-68.32849298,31.45827837,,,,
706.3999995,2759,139.2383391,-21.33116181,-669.8831429,-105.5112476,-72.270117,-105.1675377,-3.672136344,-62.60564668,-107.7015094,-116.9359275,-92.2817764,-809.8108563,-106.286477,-127.9480845,-68.16415827,31.49666302,,,,
706.4079995,2759,139.3575025,-21.21371403,-670.0732915,-105.6156871,-72.32137203,-105.5711472,-3.717858738,-62.76320929,-107.6423587,-116.9686339,-92.21013121,-810.3056426,-106.5253355,-128.332952,-68.2149605,31.57727076,,,,
706.4159995,2759,139.3939213,-21.35479674,-670.2010446,-105.4286951,-72.54829813,-105.2640841,-3.953915061,-62.78525287,-107.6978908,-117.1678075,-92.45182246,-810.4552957,-106.7466692,-128.3178193,-68.60094432,31.37066432,,,,
706.4239995,2759,139.2317359,-21.41396486,-670.2200975,-105.4036821,-72.63225985,-105.3984619,-3.977412023,-62.69093896,-107.6289419,-117.2742338,-92.34335531,-810.6896589,-106.7710452,-128.4572368,-68.73842813,31.45719213,,,,
706.4319995,2759,139.5498407,-21.46911846,-670.4081976,-105.7661466,-72.38584738,-105.5134255,-3.93878317,-62.57878052,-107.6021703,-117.2412364,-92.21127591,-811.2446073,-106.5807403,-128.5152806,-68.51180012,31.66432278,,,,
706.4399995,2759,139.7717675,-21.25428854,-670.4029521,-105.5334977,-72.40837878,-105.3377401,-3.908475851,-62.64103399,-107.6509652,-117.3550957,-92.29292848,-811.3305172,-106.6328686,-128.3144472,-68.52696577,31.61982108,,,,
706.4479995,2759,139.3825719,-21.13446214,-670.2988172,-105.1964996,-72.58935021,-105.7947952,-3.716485145,-62.72450165,-107.8351082,-117.1590106,-92.46257291,-811.2533879,-106.8412069,-128.4669584,-68.60344587,31.49169137,,,,
706.4559995,2759,139.3951001,-21.45488107,-670.3808322,-105.3665483,-72.59101422,-105.5145927,-3.804285879,-62.70395884,-108.0793899,-117.1750046,-92.40936381,-811.5217947,-106.8945572,-128.4091587,-68.41686296,31.5585017,,,,
706.4639995,2759,139.5242218,-21.34747848,-670.5594114,-105.5481523,-72.5878729,-105.073458,-3.87099526,-62.8033711,-107.9171934,-117.4436421,-92.2385935,-811.7599122,-106.8502115,-128.3012515,-68.54541802,31.72048785,,,,
706.4719995,2759,139.6706319,-21.40120519,-670.5835144,-105.6616764,-72.5174315,-105.6215164,-3.866869277,-62.94427952,-107.8935358,-117.3367613,-92.55864821,-812.0151999,-106.9019155,-128.5130935,-68.75360862,31.42224215,,,,
706.4799995,2759,139.7984323,-21.48618293,-670.4794374,-105.659282,-72.54269492,-105.5508695,-3.927293427,-62.86676037,-108.0251335,-117.3554591,-92.51852649,-812.2993193,-106.9403804,-128.5842573,-68.73893648,31.45159777,,,,
706.4879995,2759,139.4892162,-21.37052053,-670.6721441,-105.6852933,-72.66945383,-105.3521308,-3.810574912,-62.80867097,-107.8778386,-117.5290226,-92.28557561,-812.2511725,-106.7567643,-128.5281731,-68.62212919,31.73609614,,,,
706.4959995,2759,139.5265001,-21.3607765,-670.5887844,-105.679243,-72.70164456,-105.718647,-4.05022703,-62.90990215,-108.0310997,-117.4769563,-92.65625224,-812.3170386,-106.8855623,-128.4558399,-68.53604596,31.43926103,,,,
706.5039995,2759,139.8367222,-21.12348434,-670.4104053,-105.7021973,-72.68600699,-105.7292277,-4.038601758,-63.05133019,-107.9861376,-117.419225,-92.73794992,-812.5099793,-107.0761464,-128.6373015,-68.77600419,31.37426974,,,,
706.5119995,2759,139.9011315,-21.21491905,-670.4092019,-105.8285224,-72.8317803,-105.6182929,-3.698147339,-63.01512472,-107.6534338,-117.4281658,-92.49214299,-812.5710686,-107.0378441,-128.7690202,-68.69759579,31.51108831,,,,
706.5199995,2759,139.6695297,-21.41653043,-670.1076634,-105.583813,-72.85653422,-105.6279123,-3.883507881,-62.82073963,-107.85411,-117.4244868,-92.40468336,-812.6109081,-106.9999224,-128.6000947,-68.64029097,31.467111,,,,
706.5279995,2759,139.420325,-21.43030885,-670.1096627,-105.5794988,-72.70112618,-105.7194589,-3.863481428,-62.88514025,-108.1076092,-117.566771,-92.44487383,-812.5888323,-106.9014324,-128.6872244,-68.75193771,31.39881277,,,,
706.5359995,2759,139.7014775,-21.40727561,-670.0479754,-105.8309968,-72.86430922,-105.6404174,-3.828070662,-63.03868865,-108.0743567,-117.5230344,-92.44771361,-812.6755405,-107.0231182,-128.6516481,-68.38863832,31.40962711,,,,
706.5439995,2759,139.8791686,-21.22760127,-669.7685107,-105.6991636,-72.77417073,-105.4990426,-3.964616102,-63.05403081,-107.9758548,-117.3861654,-92.43429266,-812.6861169,-107.0398661,-128.5902044,-68.54839322,31.38977911,,,,
706.5519995,2759,139.5378021,-21.17773365,-669.7735392,-105.6208146,-72.58379837,-105.7453182,-3.633441918,-62.85541778,-107.86958,-117.3042505,-92.6544396,-812.502155,-106.9560336,-128.6870903,-68.74553536,31.2097843,,,,
706.5599995,2760,139.5608092,-21.20146732,-669.590622,-105.6021739,-72.71210241,-105.7114907,-3.51964619,-62.73110176,-107.9190182,-117.0279182,-92.73960048,-812.3436572,-107.015948,-128.5860422,-68.36272559,31.42784295,,,,
706.5679995,2760,139.7254371,-21.36777475,-669.3499953,-105.6877453,-72.57448076,-105.6078278,-3.792098979,-62.9331468,-107.9759922,-117.246121,-92.56591862,-812.4102722,-106.9126174,-128.5866358,-68.36873742,31.58794346,,,,
706.5759995,2760,139.584458,-21.46365411,-669.0952327,-105.9258821,-72.58945314,-105.7256959,-3.777989343,-62.87897457,-107.869653,-117.4983335,-92.42648383,-812.4481894,-106.9139088,-128.5626214,-68.57313081,31.27419577,,,,
706.5839995,2760,139.6531568,-21.35215974,-668.8194455,-105.9941517,-72.66531193,-105.6642324,-3.713909027,-62.89719612,-107.9118226,-117.4200084,-92.34996215,-812.3621482,-106.9915692,-128.625346,-68.60151715,31.15345324,,,,
706.5919995,2760,139.5825801,-21.45105084,-668.6521417,-105.8842802,-72.49121288,-105.6316474,-3.929781488,-63.01273619,-108.010081,-117.6072565,-92.31606242,-812.4002714,-106.8599854,-128.6007525,-68.63732373,31.33876666,,,,
706.5999995,2760,139.5028697,-21.46601199,-668.4530914,-105.6309338,-72.62581393,-105.417545,-3.842319881,-62.84787685,-107.9361575,-117.5392769,-92.37658284,-812.0299502,-106.8237635,-128.4400248,-68.64618309,31.46061589,,,,
706.6079995,2760,139.7626695,-21.41930323,-668.3471427,-105.636798,-72.71393002,-105.2376028,-3.648657919,-62.8401637,-107.8673002,-117.4101016,-92.66409961,-811.6102316,-106.9954549,-128.4925312,-68.59221757,31.33667386,,,,
706.6159995,2760,139.6290359,-21.50506097,-667.9640894,-105.6273643,-72.59881849,-105.3231956,-3.842567963,-62.87670856,-107.635323,-117.5248666,-92.62760092,-811.5290664,-106.7766988,-128.2858279,-68.5679542,31.30245215,,,,
706.6239995,2760,139.3410915,-21.37695224,-667.58254,-105.5067685,-72.4505774,-105.3587311,-4.018081549,-62.84798276,-107.5981356,-117.4697562,-92.31474801,-811.2025403,-106.4788119,-128.2839726,-68.56657123,31.37601806,,,,
706.6319995,2760,139.4958487,-21.25659462,-667.2983814,-105.5102935,-72.4933308,-105.3720085,-4.073720732,-62.66137759,-107.8875221,-117.2961658,-92.48340825,-810.807344,-106.7898975,-128.4776619,-68.7044204,31.41638711,,,,
706.6399995,2760,139.4734544,-21.4165901,-666.7174923,-105.3806757,-72.61541209,-105.188837,-4.028373466,-62.55880451,-107.7906793,-117.145971,-92.42676048,-810.6059454,-106.8469472,-128.2250898,-68.71473343,31.46137527,,,,
706.6479995,2760,139.3018855,-21.30682242,-666.4557247,-105.4803671,-72.35225512,-105.1594512,-3.994739573,-62.79349197,-107.6736736,-117.0732858,-92.08091045,-810.4771361,-106.5899625,-128.068146,-68.50449155,31.34557522,,,,
706.6559995,2760,139.32556,-21.27463296,-666.131501,-105.3914593,-72.4078285,-105.4391809,-3.812584049,-62.72623115,-107.6700114,-117.1193412,-92.06949596,-810.2223294,-106.5042811,-128.1156289,-68.52276584,31.25071049,,,,
706.6639995,2760,139.3510687,-21.57456121,-665.7346735,-105.1445689,-72.46930155,-105.333291,-3.711913021,-62.57024477,-107.4547412,-117.2068579,-92.17107685,-809.844064,-106.3761905,-128.1252567,-68.48381494,31.30269196,,,,
706.6719995,2760,139.4047376,-21.27853506,-665.5830716,-105.2349926,-72.23695015,-105.189354,-3.891083698,-62.6786631,-107.3848053,-117.1313987,-92.36758685,-809.3742194,-106.4261351,-128.1092198,-68.28119058,31.25995581,,,,
706.6799995,2760,139.2302136,-21.11634757,-664.9999047,-105.2652921,-72.26735491,-105.2746329,-3.78272069,-62.49574091,-107.3803265,-116.950659,-92.308399,-808.8734917,-106.3743789,-128.1760194,-68.39152397,31.11626099,,,,
706.6879995,2760,139.1475986,-21.27481595,-664.7137433,-105.199233,-72.25048999,-104.9852492,-3.621906916,-62.41765599,-107.4004735,-116.8374975,-92.14909252,-808.7139126,-106.2824437,-128.0904773,-68.40851811,31.15334958,,,,
706.6959995,2760,139.1004084,-21.05853021,-664.5215608,-105.0675522,-72.30614993,-104.7180504,-3.566424323,-62.70743388,-107.3590613,-116.8599392,-92.23306099,-808.4067902,-106.3807027,-127.6820295,-68.00863148,31.23906851,,,,
706.7039995,2760,139.0577999,-21.15281757,-663.4871697,-105.2566627,-72.30480288,-104.8865158,-3.773786861,-62.56357309,-107.0976661,-116.8105462,-92.03493096,-807.8261301,-106.3013083,-127.6061351,-68.0324067,31.13239785,,,,
706.7119995,2760,139.0291215,-21.33152703,-662.9875535,-105.3353171,-72.18820763,-104.9405952,-3.900648262,-62.28459024,-107.1265928,-116.7883261,-91.8801418,-807.6870363,-106.349531,-127.757933,-68.37016738,31.08457503,,,,
706.7199995,2760,138.6285124,-21.24867662,-662.8520867,-105.0161715,-72.28822954,-104.894284,-3.725262395,-62.34231915,-107.2346307,-116.8929616,-91.93027192,-807.2259583,-106.4358635,-127.6683474,-68.21172557,31.17471494,,,,
706.7279995,2760,138.6410975,-21.10285226,-662.0563724,-105.0164901,-72.23235952,-104.7576741,-3.907398113,-62.38501866,-107.133572,-116.5071994,-91.79042283,-806.4748575,-106.1400385,-127.6385202,-68.00082816,31.27923685,,,,
706.7359995,2760,138.6581326,-20.99098311,-661.7049247,-104.9216734,-72.03780916,-104.5267513,-3.86720484,-62.34438326,-107.2023184,-116.2419693,-91.91978951,-806.166722,-105.9618987,-127.668157,-68.14533621,31.18837681,,,,
706.7439995,2760,138.5615635,-21.08059479,-661.3356955,-104.6538142,-72.01527377,-104.5619719,-3.799687855,-62.35813919,-107.1046311,-116.4247783,-91.88970068,-805.4280565,-106.0706007,-127.2685385,-68.12945273,30.96586346,,,,
706.7519995,2760,138.6227517,-21.14581847,-660.5705896,-104.5977393,-71.94441443,-104.5761189,-4.046264915,-62.45184681,-106.8265568,-116.2803002,-91.59391723,-804.7640799,-105.9199471,-127.1423812,-68.08722701,30.84559383,,,,
706.7599995,2760,138.4254154,-21.25667084,-660.2282314,-104.6917923,-71.86375305,-104.4720848,-3.786022184,-62.32568311,-106.7614839,-116.1986211,-91.74285052,-804.6068167,-105.7586034,-127.5716422,-68.2045974,30.83002247,,,,
706.7679995,2760,138.3566426,-21.29006326,-659.5645155,-104.6658889,-71.85961068,-104.2705548,-3.605981079,-62.20034653,-106.6546707,-116.2578701,-91.63423778,-803.9489612,-105.9395914,-127.2356104,-67.94724361,30.99030671,,,,
706.7759995,2760,138.1725167,-21.13775749,-658.8101538,-104.4528039,-71.65739979,-104.2306155,-3.931478123,-62.3800657,-106.6436096,-116.2990128,-91.39327992,-803.2627121,-105.8254706,-126.7986133,-67.81020456,30.86820428,,,,
706.7839995,2760,138.1196708,-21.05314136,-658.3314707,-104.4632416,-71.54589229,-104.3312225,-3.930781709,-62.16727056,-106.5473479,-116.2012508,-91.46526034,-802.6804443,-105.4273326,-126.9531411,-67.93932113,30.69804542,,,,
706.7919995,2760,137.9738855,-21.04977374,-657.6207895,-104.4199987,-71.69783067,-104.2380092,-3.67573824,-61.97712486,-106.331852,-115.7500485,-91.45147257,-802.0622919,-105.4702701,-126.8131929,-67.72032432,30.89225692,,,,
706.7999995,2760,137.7548802,-21.08236903,-656.9870327,-104.2286609,-71.75958368,-104.2404847,-3.783430741,-62.11915062,-106.6404502,-115.6433621,-91.32141606,-801.4633101,-105.5637659,-126.7088069,-67.55837129,30.79805283,,,,
706.8079995,2760,137.884565,-21.01618433,-656.3847783,-104.1411426,-71.61120628,-104.0619649,-3.765066864,-61.93625434,-106.5176831,-115.6602652,-91.1318228,-800.6547881,-105.397126,-126.7780262,-67.6788559,30.74792686,,,,
706.8159995,2761,137.6029812,-21.03767712,-655.8079634,-103.8619546,-71.43311153,-103.8936386,-3.624772055,-61.91190607,-105.995323,-115.5160494,-91.12013653,-800.1073471,-105.3750313,-126.61684,-67.67391078,30.77281411,,,,
706.8239995,2761,137.5034064,-21.05191324,-655.2684533,-103.7212982,-71.39257008,-103.828924,-3.818293944,-61.90954314,-106.1660026,-115.5014303,-91.20244947,-799.2723257,-105.2922198,-126.5262618,-67.57550285,30.65224881,,,,
706.8319995,2761,137.4907082,-20.90657078,-654.4504297,-103.9713594,-71.44157135,-103.7520465,-3.770325679,-61.75935195,-106.0133744,-115.3957298,-91.16317238,-798.5732318,-105.2843052,-126.4541614,-67.57887754,30.75409636,,,,
706.8399995,2761,137.3618715,-20.89635294,-653.7150045,-104.0293776,-71.53170224,-103.9065373,-3.729930133,-61.73529393,-105.5049525,-115.3132033,-91.02729629,-798.1984548,-105.4245261,-126.2969223,-67.45964506,30.64064079,,,,
706.8479995,2761,137.3904099,-20.88716389,-653.0847991,-103.8598074,-71.45097931,-103.7473587,-3.821385769,-61.6065763,-105.507463,-115.2120493,-90.93208327,-797.2277561,-105.2662928,-126.2183612,-67.34263704,30.54105616,,,,
706.8559995,2761,137.1249815,-20.84757293,-652.2834409,-103.774703,-71.32948293,-103.5933037,-3.725135052,-61.58804605,-105.4531188,-115.0770912,-90.87630898,-796.529083,-105.1297376,-126.0787622,-67.34726608,30.60879944,,,,
706.8639995,2761,137.0039272,-20.88817871,-651.4951856,-103.6034683,-71.23933444,-103.6307675,-3.775755923,-61.56282911,-105.4047346,-114.9917845,-90.69641625,-795.8711313,-104.9020655,-125.9591141,-67.21799484,30.60334827,,,,
706.8719995,2761,136.8246639,-20.89461075,-650.5918858,-103.3549161,-71.02332539,-103.3766095,-3.732979545,-61.41473197,-105.5727053,-114.7496812,-90.48028479,-794.9148,-104.5261607,-125.914547,-67.16483989,30.7217802,,,,
706.8799995,2761,136.644188,-20.81381882,-649.818742,-103.2772771,-70.99547805,-103.1290106,-3.610069637,-61.34227888,-105.3191651,-114.6433798,-90.30908727,-794.0645114,-104.622949,-125.8198133,-67.17982798,30.57576917,,,,
706.8879995,2761,136.6501044,-20.80055984,-649.3282032,-103.0969929,-71.05131042,-103.1812063,-3.659500795,-61.41115026,-105.0339732,-114.7872617,-90.3477908,-793.2312405,-104.5771356,-125.638977,-66.99407577,30.41157685,,,,
706.8959995,2761,136.2706813,-20.91434439,-648.4704242,-102.8810351,-70.94716444,-103.1824593,-3.761699959,-61.39042708,-105.1767791,-114.681941,-90.41556529,-792.4020076,-104.3304816,-125.4334951,-66.84891384,30.45383205,,,,
706.9039995,2761,136.0770755,-20.91528085,-647.3258987,-102.9455412,-70.81138188,-102.8928342,-3.76919799,-61.19559886,-105.2501038,-114.5465789,-90.18063584,-791.5749154,-104.3916552,-125.294683,-66.90100527,30.41953724,,,,
706.9119995,2761,136.1704672,-20.85655472,-646.4666755,-102.7037554,-70.74391089,-102.7857603,-3.573822035,-61.02213034,-105.0138759,-114.3890263,-89.89508887,-790.7714319,-104.2037007,-125.1780933,-66.85290141,30.51133203,,,,
706.9199995,2761,135.8645329,-20.78675684,-645.797516,-102.4944331,-70.51958573,-102.5653617,-3.642059347,-60.90643817,-104.7213393,-114.0398024,-89.73156137,-789.6756783,-103.9423525,-124.9961969,-66.71442606,30.52015317,,,,
706.9279995,2761,135.6479256,-20.73213894,-645.0274622,-102.7486921,-70.35377648,-102.2278094,-3.839522237,-61.08129522,-104.7149457,-113.9820998,-89.81033972,-788.8293353,-103.7645045,-124.7001419,-66.70754416,30.42753808,,,,
706.9359995,2761,135.5743614,-20.76957894,-644.2083787,-102.5268149,-70.50524103,-102.381112,-3.583129798,-61.03430919,-104.6428969,-113.9077637,-89.89558942,-788.1133171,-103.6289044,-124.5628306,-66.64599123,30.27407065,,,,
706.9439995,2761,135.2666488,-20.75816785,-643.3396615,-102.2762928,-70.4060617,-102.3250924,-3.552393989,-60.80079985,-104.409006,-113.8053536,-89.65393482,-787.018468,-103.7003468,-124.5385543,-66.46469382,30.02064051,,,,
706.9519995,2761,135.2906325,-20.6802029,-642.4747333,-102.219323,-70.17942117,-102.0272878,-3.765656881,-60.85491337,-104.4127514,-113.7204206,-89.63194616,-786.0113359,-103.5670785,-124.3045688,-66.44625049,30.03916808,,,,
706.9599995,2761,135.2494355,-20.5575579,-641.6547788,-101.854589,-70.22587278,-102.0216424,-3.594569743,-60.67534095,-104.1601099,-113.3709407,-89.64100127,-784.9705424,-103.4085268,-124.0259013,-66.47789538,30.06967877,,,,
706.9679995,2761,134.8593795,-20.61235948,-640.6602361,-101.9196876,-70.16302235,-101.9573498,-3.634475164,-60.5091066,-103.8734124,-113.0562235,-89.31878865,-784.0056465,-103.3357183,-123.9222985,-66.35172965,30.08909516,,,,
706.9759995,2761,134.7322706,-20.72755208,-639.6012322,-101.9792711,-69.90772586,-101.8365306,-3.666360007,-60.51030715,-103.9516351,-112.9502589,-89.16861335,-783.1368443,-103.0957677,-124.0873572,-66.25401357,30.16959118,,,,
706.9839995,2761,134.6135269,-20.51810478,-638.6564049,-101.704215,-69.95193689,-101.7333447,-3.415293191,-60.38672008,-103.7187171,-113.0868011,-88.94708688,-782.1670043,-102.9502021,-123.9991806,-66.1567769,30.02847649,,,,
706.9919995,2761,134.5182635,-20.3690765,-637.6067102,-101.693059,-69.87348785,-101.4773019,-3.560332596,-60.34832598,-103.5351597,-112.9154135,-88.69019406,-781.0347415,-102.8888462,-123.4929313,-65.95764334,30.03050992,,,,
706.9999995,2761,134.4713385,-20.53790936,-636.8782635,-101.544494,-69.7215187,-101.1751553,-3.634408389,-60.36295845,-103.522578,-112.5864012,-88.8472566,-779.9061973,-102.7109897,-123.3276742,-65.76083242,29.88736161,,,,
707.0079995,2761,134.0477371,-20.58856498,-636.0920058,-101.3903093,-70.01498378,-101.0203397,-3.548949108,-60.19263885,-103.3416543,-112.5270647,-89.01530522,-778.9412355,-102.6277054,-123.1690887,-65.80373032,29.68769025,,,,
707.0159995,2761,133.7498427,-20.37871477,-634.5713819,-101.2877509,-69.83707445,-100.9771222,-3.580132081,-60.13536344,-103.2505684,-112.3520347,-88.68310212,-777.8177988,-102.631063,-122.925347,-65.78019727,29.82005479,,,,
707.0239995,2761,133.8204798,-20.26422203,-633.6211412,-100.9927368,-69.39402707,-100.9165875,-3.471590145,-60.10882481,-103.0623798,-112.2394194,-88.19126398,-776.7351386,-102.4150143,-123.0359047,-65.45334066,29.71203311,,,,
707.0319995,2761,133.6209892,-20.26383529,-632.7680412,-100.8126367,-69.25820832,-100.7174852,-3.548610467,-59.77060562,-102.9105657,-112.0334433,-88.20983123,-775.650221,-102.1234215,-122.7707545,-65.4468593,29.70073719,,,,
707.0399995,2761,133.1174758,-20.22640945,-631.545839,-100.6078073,-69.16055745,-100.4831765,-3.61928734,-59.88353525,-102.8388568,-111.7476344,-88.1528604,-774.5045256,-101.8560341,-122.3249535,-65.47843357,29.77700103,,,,
707.0479995,2761,132.960358,-20.30829289,-630.6974991,-100.4386291,-69.1120941,-100.4527305,-3.428744804,-60.02252135,-102.6507254,-111.7128337,-87.92841828,-773.2430037,-101.6536629,-122.3198613,-65.2724471,29.53910934,,,,
707.0559995,2761,132.9662965,-20.30169571,-629.5335255,-100.3021592,-69.0031709,-100.2826584,-3.383476074,-59.65670946,-102.4212732,-111.5921307,-87.93803352,-771.9017628,-101.568833,-122.1889732,-65.17235684,29.52046066,,,,
707.0639995,2761,132.7095953,-20.11503412,-628.5683656,-100.3167015,-68.96988868,-100.0689913,-3.45739453,-59.53372246,-102.3382005,-111.3820431,-87.76966812,-771.0111062,-101.5265358,-121.8715144,-65.09745277,29.66334218,,,,
707.0719995,2762,132.5806233,-20.16691368,-627.626628,-100.3305624,-68.81692987,-100.0587892,-3.376027994,-59.4313969,-102.2719669,-111.1607781,-87.68668472,-769.9634774,-101.4476193,-121.6461925,-64.93421247,29.59286333,,,,
707.0799995,2762,132.4390591,-20.30322908,-626.2987823,-100.0018838,-68.65213972,-99.82932678,-3.40908647,-59.46443734,-101.8681926,-110.9887659,-87.50627643,-768.5893537,-101.1345887,-121.4191084,-64.77047591,29.43525495,,,,
707.0879995,2762,132.236733,-20.15020705,-625.3852603,-99.96286222,-68.69522039,-99.53261579,-3.396567877,-59.43330915,-101.6122872,-110.9670861,-87.22037876,-767.395707,-101.0299183,-121.2874396,-64.81705776,29.29735682,,,,
707.0959995,2762,131.8887944,-19.96496027,-624.3557338,-99.77384815,-68.50112468,-99.50066976,-3.339544982,-59.05691529,-101.5505019,-110.6617744,-87.28545869,-766.149324,-101.0287137,-121.1179432,-64.60155159,29.38244017,,,,
707.1039995,2762,131.4683016,-19.98525738,-623.0593571,-99.29997546,-68.34506875,-99.39112537,-3.545983641,-59.20220291,-101.446474,-110.2964855,-87.22505282,-764.7583723,-100.7035068,-120.9104183,-64.59559762,29.33305136,,,,
707.1119995,2762,131.4572408,-19.94250507,-621.8991947,-99.28911056,-68.4113164,-99.03836509,-3.275263577,-59.3309582,-101.3985373,-110.2123473,-86.99603307,-763.5562811,-100.6186149,-120.7814427,-64.73691445,29.0203929,,,,
707.1199995,2762,131.2315501,-19.9518066,-620.7984377,-99.39940621,-68.14144221,-99.00688836,-3.348213139,-59.0703691,-101.2475256,-109.9977621,-86.75316704,-762.5404777,-100.5991837,-120.5774344,-64.21048522,28.97773852,,,,
707.1279995,2762,131.0303107,-20.10723367,-619.6717358,-99.23677239,-67.7631669,-98.95082402,-3.692110163,-58.83640868,-101.0449315,-109.922712,-86.58358068,-761.0916035,-100.2142333,-120.4175765,-64.27958421,28.95875407,,,,
707.1359995,2762,130.906232,-20.01939686,-618.3752616,-98.77236707,-67.78801946,-98.60133097,-3.242744168,-58.66693161,-100.7683059,-109.7973047,-86.4953277,-759.642677,-99.92234408,-120.2421935,-64.26230946,28.93957476,,,,
707.1439995,2762,130.3445814,-19.9351366,-617.1542419,-98.51741373,-67.62285023,-98.50287944,-3.287630542,-58.7815214,-100.6020597,-109.505834,-86.13165691,-758.2957844,-99.77586162,-119.9225109,-63.70385637,28.9555526,,,,
707.1519995,2762,130.2351293,-19.97525194,-616.1468228,-98.56841573,-67.41872109,-98.22981162,-3.465510438,-58.56784006,-100.4478912,-109.4873239,-85.96701229,-756.7763816,-99.60068283,-119.5662857,-63.907437,29.01835279,,,,
707.1599995,2762,130.1327013,-19.81344112,-615.0198011,-98.16828323,-67.46988313,-98.00697207,-3.339542667,-58.28753846,-100.1641397,-109.2357193,-86.12227983,-755.6522305,-99.52358602,-119.5113839,-63.82258335,29.0102551,,,,
707.1679995,2762,129.698949,-19.64235041,-613.746542,-97.8009637,-67.27681741,-97.96569656,-3.434924886,-58.48079606,-100.04575,-108.8514887,-85.89235471,-754.1856207,-99.20281727,-119.5004639,-63.50744899,28.7066749,,,,
707.1759995,2762,129.6506983,-19.84938121,-612.4484625,-97.92385134,-67.34009843,-97.78340858,-3.588001576,-58.3492511,-99.87733822,-108.7329681,-85.64113474,-752.6249095,-99.01961928,-119.04435,-63.72180378,28.65686379,,,,
707.1839995,2762,129.4229092,-20.00723935,-611.2873552,-97.75922716,-67.51890798,-97.67309784,-3.776898188,-58.02301109,-99.68239094,-108.6688637,-85.70059428,-751.6384722,-99.18581702,-118.8730432,-63.81703194,28.68873903,,,,
707.1919995,2762,129.2312212,-19.73590079,-610.0395365,-97.51430668,-67.28188958,-97.42435199,-3.445849007,-58.08573816,-99.47353735,-108.3881039,-85.57963734,-750.1819576,-98.92053429,-118.7838293,-63.62494694,28.46821608,,,,
707.1999995,2762,129.1101363,-19.69747049,-608.6314667,-97.39157274,-67.06505355,-97.26339432,-3.393920185,-58.02137238,-99.21388885,-108.1555013,-85.25668841,-748.477485,-98.66289367,-118.3937752,-63.22842367,28.47221373,,,,
707.2079995,2762,128.5261143,-19.77902202,-607.6679958,-97.1496112,-66.93317657,-97.084992,-3.538643317,-57.73273051,-99.18105574,-108.1006272,-85.03947238,-747.1176826,-98.56837224,-118.2555797,-63.09122594,28.59483003,,,,
707.2159995,2762,128.3633193,-19.64311939,-606.6006375,-97.00458935,-66.68443614,-96.98059111,-3.147652725,-57.80083987,-99.09195334,-107.7843106,-85.05632092,-745.8230262,-98.2147764,-118.0233028,-63.01202265,28.42320866,,,,
707.2239995,2762,128.3733756,-19.50069315,-604.9710841,-96.85676082,-66.48288619,-96.89178775,-3.311841328,-57.58685685,-98.64188244,-107.4682095,-84.98412372,-744.3560674,-97.99632918,-117.7474743,-62.6867588,28.33322507,,,,
707.2319995,2762,127.8644582,-19.39804005,-603.5096293,-96.72528544,-66.39247263,-96.40751361,-3.367431836,-57.26726287,-98.34541512,-107.2301157,-84.6191261,-742.7825539,-97.90398323,-117.4917241,-62.55390081,28.32720918,,,,
707.2399995,2762,127.6168988,-19.36827567,-602.4461525,-96.41888744,-66.29362771,-96.23559861,-3.349789967,-57.41577765,-98.33650469,-106.9444187,-84.46843081,-741.3529072,-97.58783044,-117.2410848,-62.54782253,28.25733965,,,,
707.2479995,2762,127.5197098,-19.25964102,-601.4267698,-96.05623189,-66.16395427,-96.09514007,-3.605691076,-57.19615255,-98.11854983,-106.8247337,-84.44107854,-739.6287727,-97.26138665,-117.1559873,-62.67559845,28.33157594,,,,
707.2559995,2762,127.1354404,-19.3610165,-600.0061112,-96.00426477,-66.01084421,-95.8347311,-3.328953368,-57.03866519,-97.85561968,-106.68546,-84.25002929,-738.202457,-97.27155004,-116.8123199,-62.41856158,28.18898607,,,,
707.2639995,2762,126.9177926,-19.52309161,-598.3719828,-95.7620111,-65.90558182,-95.58838722,-3.301833903,-57.27668596,-97.53874768,-106.4604913,-84.01626602,-737.0544928,-97.15421258,-116.4994437,-61.92366549,27.92545832,,,,
707.2719995,2762,126.7552227,-19.35812264,-596.9474663,-95.44057403,-65.70903119,-95.29214897,-3.314200554,-57.06045014,-97.34085219,-106.3581884,-83.69486143,-735.1066196,-96.75289122,-116.2336604,-62.04633534,27.85605092,,,,
707.2799995,2762,126.5461793,-19.22624135,-595.5086632,-95.42909912,-65.49664755,-95.35780705,-3.112610518,-56.77326374,-97.22908415,-106.0487589,-83.43711625,-733.5182063,-96.52768854,-116.0161778,-61.95450174,27.93658201,,,,
707.2879995,2762,126.2269205,-19.14508209,-594.2282707,-95.28671189,-65.4426173,-95.20797218,-3.110610132,-56.85149327,-96.81952453,-105.6873608,-83.22733441,-732.261672,-96.32464727,-116.0036738,-61.59791074,27.94021932,,,,
707.2959995,2762,125.7926826,-19.14458115,-592.9890116,-94.90008329,-65.39150306,-94.92825808,-3.22111581,-56.54994816,-96.876966,-105.5914381,-83.12436417,-730.4987143,-96.23787981,-115.6012738,-61.71186908,27.75519653,,,,
707.3039995,2762,125.6023992,-19.28720576,-591.4339604,-94.57809598,-65.29020767,-94.70841019,-3.219059841,-56.30383057,-96.87287059,-105.2306514,-83.01465527,-728.7448643,-96.07605667,-115.3290073,-61.65724263,27.55107335,,,,
707.3119995,2762,125.1666197,-19.15848301,-590.1143303,-94.54738875,-65.08617599,-94.36034359,-3.157140268,-56.51635549,-96.32980362,-104.9957268,-82.83134979,-727.2148003,-95.665345,-115.2265076,-61.30896549,27.42830261,,,,
707.3199995,2762,124.822612,-18.90338945,-588.6921958,-94.67401787,-64.90870538,-94.27946352,-3.559344667,-56.31275018,-96.25064849,-104.8622381,-82.68360177,-725.909563,-95.61796032,-114.7990494,-61.30978363,27.61473525,,,,
707.3279995,2763,124.8631976,-18.86839685,-587.0935508,-94.46614292,-64.81573316,-94.06615928,-3.563042644,-56.10369277,-96.01523433,-104.4926662,-82.25944189,-724.4292825,-95.51527385,-114.6515338,-61.35046446,27.57127359,,,,
707.3359995,2763,124.4999621,-18.81972083,-585.7922244,-94.16981356,-64.6687169,-93.77745195,-3.365221013,-56.05765929,-95.60940867,-104.3526924,-82.04553956,-722.7413469,-95.17846791,-114.4430299,-61.10960606,27.36392072,,,,
707.3439995,2763,124.172251,-18.7714671,-584.3224143,-94.02781371,-64.505353,-93.64661465,-3.54034536,-55.85887686,-95.57245726,-104.0917737,-81.98464248,-721.0932404,-95.0380751,-114.0760578,-60.99286579,27.42911031,,,,
707.3519995,2763,123.8968157,-18.79637253,-583.014221,-93.76434384,-64.27852432,-93.30836777,-3.349676325,-55.70398663,-95.22169596,-103.8905855,-81.83660789,-719.508115,-94.76829057,-113.8516668,-60.874723,27.3212614,,,,
707.3599995,2763,123.4275948,-18.76207549,-581.770048,-93.432473,-64.18795402,-92.98907637,-3.152788787,-55.50729573,-95.03753725,-103.7032502,-81.9667823,-717.8290351,-94.60658804,-113.3570924,-60.59101097,27.34954636,,,,
707.3679995,2763,123.2378497,-18.63914337,-580.061116,-93.01381967,-64.23162025,-92.83003944,-3.014392062,-55.48313503,-95.12487752,-103.2039529,-81.57495654,-715.7648511,-94.41974488,-113.0443554,-60.330841,27.27072558,,,,
707.3759995,2763,122.955585,-18.5807971,-578.6057982,-92.78508333,-63.77986587,-92.67137371,-2.943558028,-55.35582586,-94.90203688,-103.0237552,-81.12805842,-713.8898636,-93.89928445,-112.9923391,-60.20141932,26.88127217,,,,
707.3839995,2763,122.6115118,-18.71856638,-577.2809392,-92.68987447,-63.46329935,-92.42051824,-3.202707565,-55.05453614,-94.53357799,-102.8727815,-81.29937105,-712.4865456,-93.75374508,-112.6331526,-60.14257894,26.97879375,,,,
707.3919995,2763,122.519002,-18.7581156,-575.7083811,-92.34275305,-63.582095,-92.26036811,-3.256385999,-55.00254379,-94.19973286,-102.6651559,-80.97309924,-710.7108106,-93.48429243,-112.3686659,-59.98258579,27.12646797,,,,
707.3999995,2763,122.1373258,-18.69085401,-574.2062814,-92.15741867,-63.21011325,-92.1515932,-3.022966926,-54.84500634,-94.04149514,-102.5112867,-80.57118837,-708.6654915,-93.07047554,-112.2085542,-59.8355944,26.85557825,,,,
707.4079995,2763,121.7122951,-18.66404311,-572.5259705,-92.09064346,-62.94957217,-91.8330226,-3.10733652,-54.57924922,-93.82458566,-102.0805089,-80.53161706,-707.2203665,-93.01487549,-111.8427096,-59.70733434,26.87257029,,,,
707.4159995,2763,121.6560193,-18.48343986,-570.9952104,-91.83798682,-63.01422544,-91.64627259,-3.353769939,-54.49354656,-93.44841313,-101.8749602,-80.12579701,-705.8215862,-92.6242129,-111.6181558,-59.61923445,26.94892997,,,,
707.4239995,2763,121.3308246,-18.49128615,-569.7001419,-91.61344803,-62.8483483,-91.40514044,-3.253415148,-54.36086921,-93.16330444,-101.8355311,-79.95685086,-703.8307692,-92.43398677,-111.4126795,-59.51487644,26.7129986,,,,
707.4319995,2763,120.854267,-18.56927057,-568.1280126,-91.33266199,-62.74058805,-90.94911433,-3.023283591,-54.27436743,-93.03421572,-101.478631,-80.06684967,-701.9925007,-92.40623248,-111.1245064,-59.19954587,26.63738041,,,,
707.4399995,2763,120.6641165,-18.37122676,-566.6239608,-91.05208499,-62.69122882,-90.82918648,-3.006245348,-54.17463315,-92.76673497,-101.0384829,-79.69038077,-700.2647599,-92.17982018,-110.7186057,-59.07007373,26.58320272,,,,
707.4479995,2763,120.4443968,-18.35671872,-565.0473569,-90.98473651,-62.57726718,-90.65945286,-3.355928862,-53.86270755,-92.41933593,-100.8006379,-79.56780542,-698.3871715,-92.14325539,-110.3389915,-59.18624007,26.51175097,,,,
707.4559995,2763,120.0502986,-18.30982011,-563.4510478,-90.6008847,-62.37352879,-90.40572063,-3.39380049,-53.85512781,-92.20744108,-100.5835962,-79.48244102,-696.6406232,-91.85974729,-110.2835884,-58.99015141,26.43509841,,,,
707.4639995,2763,119.6659191,-18.30793916,-561.857239,-90.11750968,-62.11148787,-90.36146985,-3.02672924,-53.83967051,-91.98790795,-100.2694652,-78.82453536,-694.6828759,-91.6806741,-109.9438537,-58.76778326,26.23037805,,,,
707.4719995,2763,119.424469,-18.43821922,-560.0232419,-90.02511901,-61.93773001,-89.99038407,-3.041524295,-53.55996363,-91.88309702,-100.122395,-78.77270564,-692.7660641,-91.39684958,-109.5469231,-58.5821024,26.1811354,,,,
707.4799995,2763,119.0777828,-18.1933087,-558.7933318,-89.84594978,-61.76452099,-89.72345677,-3.016064609,-53.45134613,-91.62501741,-99.97277585,-78.76210767,-691.0905063,-90.82270612,-109.3230483,-58.12837858,26.22337198,,,,
707.4879995,2763,118.747368,-18.05130267,-557.4639636,-89.722191,-61.43259845,-89.7019167,-2.955728336,-53.32961468,-91.28862179,-99.54562239,-78.50755043,-689.368021,-90.60945797,-108.9443286,-57.9944797,26.13181876,,,,
707.4959995,2763,118.6107214,-18.18312973,-555.5290098,-89.4915721,-61.28528534,-89.45130744,-3.143300727,-53.36821358,-91.07191958,-99.19576961,-78.46995165,-687.4086354,-90.47758784,-108.8864361,-58.00147018,25.92392043,,,,
707.5039995,2763,118.2202848,-18.04116485,-554.0819838,-88.93624203,-61.41490964,-89.22863277,-2.996727503,-53.1490558,-90.7881098,-99.09375431,-77.92528534,-685.2411047,-90.46883494,-108.6655601,-57.80709754,25.883411,,,,
707.5119995,2763,117.7576118,-17.86538207,-552.4766124,-88.73946241,-61.15154974,-88.82074322,-2.879067015,-52.65041546,-90.53833735,-98.78082541,-77.82834975,-683.3857254,-90.17053811,-108.057732,-57.69086091,26.00264072,,,,
707.5199995,2763,117.5344048,-17.93067571,-550.6152766,-88.7461166,-60.78980752,-88.38593274,-2.961324975,-52.65285897,-90.14765587,-98.35423255,-77.79069595,-681.6621161,-89.71673566,-107.7269039,-57.44483077,25.95337905,,,,
707.5279995,2763,117.257658,-17.84721454,-548.9951341,-88.37541535,-60.79198056,-88.15621061,-2.79311137,-52.52299838,-89.90002316,-98.07189634,-77.26646756,-679.7682319,-89.59455762,-107.3943069,-57.20623335,25.79984707,,,,
707.5359995,2763,116.8874678,-17.77965386,-547.3274227,-87.93519815,-60.66237515,-87.94401989,-2.801149679,-52.30463555,-89.68848564,-97.78448774,-76.96844006,-677.7944335,-89.32217058,-107.082738,-57.18302732,25.63291449,,,,
707.5439995,2763,116.4848383,-17.80709796,-545.8426563,-87.76031262,-60.32860955,-87.96878028,-2.864059405,-52.33315202,-89.31255233,-97.59900394,-76.65871102,-675.8069647,-89.10009513,-106.9047852,-56.94370437,25.54772811,,,,
707.5519995,2763,116.0960466,-17.67221376,-543.9891615,-87.54081384,-60.17032091,-87.75563401,-2.838960455,-52.21227959,-89.3129834,-97.33306329,-76.6844868,-673.9026375,-88.72819751,-106.6668533,-56.66180779,25.46243819,,,,
707.5599995,2763,115.6767489,-17.62433007,-542.2595217,-87.37535811,-60.21181606,-87.25187929,-3.063161897,-52.07885797,-89.21777717,-96.92110551,-76.46611745,-672.0384398,-88.45155649,-106.398422,-56.69955247,25.2524164,,,,
707.5679995,2763,115.3242036,-17.60302553,-541.0681408,-87.16772585,-60.10833764,-86.93041351,-3.1505655,-51.76848207,-88.85023888,-96.68348186,-76.24011924,-670.2251384,-88.43803174,-105.9103855,-56.64644624,25.20764223,,,,
707.5759995,2763,115.1965901,-17.58540664,-539.1375527,-86.7363555,-59.84291365,-86.82007852,-3.106549139,-51.52079,-88.69541247,-96.54392643,-76.23197362,-668.2065605,-88.23062022,-105.6346209,-56.47230894,25.35404667,,,,
707.5839995,2764,114.8049853,-17.57816409,-537.2964069,-86.61355627,-59.58814806,-86.67496221,-3.020870948,-51.49798568,-88.32646465,-96.42827486,-75.60873693,-666.1483309,-87.89263098,-105.4476531,-56.22232258,25.35195518,,,,
707.5919995,2764,114.2465788,-17.47979983,-535.8581882,-86.50597197,-59.43536183,-86.23665374,-2.902461007,-51.32341431,-87.86396225,-96.03969838,-75.4834218,-664.3669178,-87.37683186,-105.0284811,-56.06388762,25.14719038,,,,
707.5999995,2764,113.9226389,-17.53164278,-534.0635329,-86.24745102,-59.32697863,-85.92003549,-3.009291707,-51.23987733,-87.84422348,-95.59842717,-75.5721623,-662.3654562,-87.32821714,-104.8272638,-56.14792897,25.08152777,,,,
707.6079995,2764,113.7556572,-17.50013266,-532.5518879,-86.03242857,-58.98873266,-85.7142584,-3.076701787,-50.9779424,-87.52993268,-95.62775087,-75.17126706,-660.210477,-87.31319395,-104.3668627,-55.91654215,25.05070449,,,,
707.6159995,2764,113.5559199,-17.3409749,-530.8827283,-85.57127545,-58.66053451,-85.61274071,-2.796716888,-50.65502058,-87.0487191,-95.18902572,-74.94551468,-658.242023,-86.68631961,-103.9747444,-55.49910271,24.94229397,,,,
707.6239995,2764,113.0603675,-17.15740744,-529.0144645,-85.22051486,-58.51388532,-85.4166294,-2.573976193,-50.74332903,-87.01367622,-94.55836062,-74.65523944,-656.2199979,-86.20862151,-103.9618545,-55.27011251,24.80687114,,,,
707.6319995,2764,112.739004,-17.04208806,-527.3432327,-85.090159,-58.4097552,-84.96310695,-2.862324782,-50.76484187,-86.63502411,-94.32778998,-74.43888694,-654.1722461,-86.07016033,-103.5297958,-55.23678049,24.5137872,,,,
707.6399995,2764,112.6139208,-17.27542991,-525.5207539,-84.87401433,-58.27765838,-84.72367684,-2.872577158,-50.44800334,-86.22362867,-94.08637604,-74.22490074,-652.2448939,-85.96361799,-103.1090502,-55.12869117,24.4940707,,,,
707.6479995,2764,112.1189252,-17.19150105,-523.9792765,-84.5042517,-58.03813477,-84.43457016,-2.84482056,-50.09491552,-86.19068453,-94.08085111,-73.96989292,-650.2152238,-85.63316625,-102.8886727,-54.95117927,24.66272618,,,,
707.6559995,2764,111.6536007,-16.93115272,-522.165641,-84.22211316,-57.86703975,-84.17801021,-3.033265147,-50.06970108,-85.82090829,-93.68301315,-73.90701652,-648.1043293,-85.34249422,-102.5682214,-54.82131966,24.51015377,,,,
707.6639995,2764,111.3001547,-17.11011173,-520.2384146,-84.04293103,-57.67257169,-83.90124178,-2.584849545,-50.09695849,-85.60783798,-93.30888095,-73.50673836,-646.0172367,-85.1648141,-102.2903953,-54.33017456,24.33959509,,,,
707.6719995,2764,110.8838225,-17.06859185,-518.7331213,-83.52167273,-57.42174623,-83.48700501,-2.68823966,-49.9353749,-85.60101903,-93.2562708,-73.30250926,-643.7904049,-84.84851723,-101.879717,-54.19769261,24.23702888,,,,
707.6799995,2764,110.7082994,-16.8332402,-516.8650921,-83.2346643,-57.36998939,-83.28977591,-2.973372063,-49.58639265,-85.04300693,-92.69808401,-73.2702653,-641.8708923,-84.50386356,-101.5211266,-54.32438392,24.09675284,,,,
707.6879995,2764,110.3985478,-16.74892396,-515.1120521,-83.19183683,-57.13801289,-83.01360111,-2.752303705,-49.27179192,-84.61198433,-92.30594301,-72.92952027,-639.9637521,-84.32629811,-101.2161678,-54.01247902,24.19096721,,,,
707.6959995,2764,109.8523024,-16.61837543,-513.3796636,-82.98153502,-56.73758617,-82.69100183,-3.016020898,-49.32597621,-84.50873113,-92.06256799,-72.73888038,-637.6307901,-84.09073136,-100.7506635,-53.96437962,24.13240543,,,,
707.7039995,2764,109.5849079,-16.62359866,-511.5819634,-82.85081886,-56.76723124,-82.64346391,-2.798803642,-49.16237603,-84.24240107,-91.6979506,-72.53399232,-635.6975802,-83.65353055,-100.4188467,-53.77171679,23.90519021,,,,
707.7119995,2764,109.2817958,-16.60214338,-509.8232167,-82.44681924,-56.74165151,-82.44068884,-2.508903794,-48.88738666,-83.91435801,-91.54814248,-72.2716658,-633.7409543,-83.5144634,-100.2146615,-53.45692212,24.0123682,,,,
707.7199995,2764,108.6743989,-16.45538606,-507.7386962,-82.06461651,-56.37348391,-81.87533996,-2.870022154,-48.90123185,-83.64433932,-91.14692388,-71.906894,-631.4282605,-83.35107301,-99.88770565,-53.37244251,23.86036144,,,,
707.7279995,2764,108.1991257,-16.43463083,-506.0254183,-81.77041754,-56.14656802,-81.59125093,-2.875499827,-48.70100248,-83.63543749,-90.69389902,-71.46674234,-629.3047211,-82.94313516,-99.40568164,-53.06752699,23.63649456,,,,
707.7359995,2764,107.9914196,-16.43602663,-504.2481531,-81.37338244,-56.02219355,-81.55006628,-2.786528961,-48.30908479,-83.3049324,-90.62869063,-71.25577434,-627.02902,-82.66215288,-99.14543081,-53.05008978,23.89796028,,,,
707.7439995,2764,107.7466466,-16.2679381,-502.3623439,-81.25570995,-55.88990051,-81.30650939,-2.843700604,-48.24260357,-82.75085043,-90.27213254,-71.06760709,-624.7671346,-82.2906972,-99.02835286,-52.91652699,23.75887491,,,,
707.7519995,2764,107.3118289,-16.13740898,-500.7334762,-81.0466656,-55.54615647,-80.92389953,-2.734192592,-48.25127971,-82.71245228,-89.84920286,-70.89364532,-622.8678329,-81.96384147,-98.6202175,-52.44046955,23.32285923,,,,
707.7599995,2764,106.9185783,-16.36014096,-498.790129,-80.67375837,-55.29324,-80.70009408,-2.655623447,-47.91476276,-82.35145469,-89.70439996,-70.78368543,-620.837534,-81.9003327,-98.21649693,-52.37349374,23.3803536,,,,
707.7679995,2764,106.5356969,-16.17941631,-496.9281258,-80.37401571,-55.34005162,-80.60974231,-2.640312664,-47.89839379,-81.83300595,-89.30018566,-70.40125207,-618.5542054,-81.63734765,-97.98207237,-52.26530023,23.39688265,,,,
707.7759995,2764,106.1928407,-16.00947727,-495.2147758,-80.15294309,-55.01559252,-80.08837239,-2.565693034,-47.8231721,-81.64815505,-88.83960944,-69.97652127,-616.3160757,-81.18683231,-97.55947716,-51.93046402,23.19220298,,,,
707.7839995,2764,105.9556735,-16.32619175,-493.3797287,-79.90477673,-54.73785672,-79.59970472,-2.641592447,-47.35478333,-81.19276255,-88.70093474,-69.85212858,-614.1887497,-80.84533372,-97.05981847,-51.76053937,23.16772257,,,,
707.7919995,2764,105.3847562,-16.03304838,-491.4899991,-79.54276947,-54.66806041,-79.51139027,-2.658221485,-47.14708162,-81.02483526,-88.53149768,-69.70667185,-612.1301982,-80.61491347,-96.67583254,-51.68816525,23.14681727,,,,
707.7999995,2764,104.9974408,-15.89675105,-489.7513788,-79.37968972,-54.44541798,-79.26253909,-2.603186397,-46.8793046,-81.01481789,-88.06776268,-69.42133679,-609.9389238,-80.44869828,-96.39961678,-51.46804967,23.11167318,,,,
707.8079995,2764,104.9271465,-16.02267543,-488.1215249,-79.12072005,-54.35056319,-79.00035222,-2.676436744,-46.89950818,-80.34208259,-87.80017176,-69.16937101,-607.6858962,-79.97033527,-96.29152007,-51.20639232,22.98692372,,,,
707.8159995,2764,104.5047487,-15.67892625,-486.1535362,-78.59132954,-54.04263664,-78.76998197,-2.451898483,-46.97477721,-79.87954772,-87.42289592,-69.03261244,-605.4907837,-79.58165802,-95.85129449,-51.07296654,22.64166136,,,,
707.8239995,2764,104.1816974,-15.64749087,-484.2627454,-78.42178955,-53.76147293,-78.47261695,-2.588891282,-46.63425811,-79.91240848,-86.86410168,-68.7664672,-603.1300961,-79.40877909,-95.35118188,-50.86640775,22.58890197,,,,
707.8319995,2764,103.7934628,-15.81394361,-482.48041,-78.32674461,-53.64719695,-78.24689419,-2.852101858,-46.46133863,-79.55228928,-86.84515212,-68.47484932,-600.9289145,-79.1025088,-95.16850674,-50.70114421,22.65825403,,,,
707.8399995,2765,103.1388525,-15.68816071,-480.3898663,-77.64514512,-53.3621504,-77.81284892,-2.468827318,-46.36783996,-79.10462335,-86.68801201,-68.31131201,-598.9198792,-78.91861447,-94.733283,-50.53338144,22.41795965,,,,
707.8479995,2765,102.7982599,-15.42621641,-478.3526921,-77.28750457,-53.19199961,-77.34177821,-2.561773887,-46.2384636,-79.00128377,-86.14746619,-67.83874354,-596.522251,-78.51958331,-94.13698249,-50.36271864,22.30215958,,,,
707.8559995,2765,102.6004595,-15.5084563,-476.505267,-77.277298,-52.97048317,-77.21287033,-2.542720294,-45.99326277,-78.72517375,-85.69907511,-67.50307626,-594.0784398,-78.12132698,-93.84240013,-50.25608418,22.30775679,,,,
707.8639995,2765,102.204154,-15.70934836,-474.6247293,-76.62721313,-52.8083201,-76.86421894,-2.253003276,-45.77306309,-78.412397,-85.39973076,-67.27445696,-591.8189098,-77.85074577,-93.77768,-49.85855028,22.16666046,,,,
707.8719995,2765,101.4636448,-15.45172877,-472.7519689,-76.37796355,-52.79097232,-76.39683252,-2.583704172,-45.68535024,-78.26800971,-85.27225829,-66.96248067,-589.5767715,-77.59388339,-93.31721805,-49.60709305,22.09466682,,,,
707.8799995,2765,101.0210092,-15.48766855,-470.9356585,-76.35550416,-52.57830981,-76.23661948,-2.458931479,-45.47794094,-77.91680644,-84.85424242,-67.08097935,-587.5293867,-77.52641889,-92.71203502,-49.70267874,22.0832297,,,,
707.8879995,2765,101.0261106,-15.4918891,-469.0861089,-75.83986523,-52.343567,-75.81775346,-2.341057236,-45.2972715,-77.53459749,-84.52364098,-66.78415646,-585.3765826,-77.18084251,-92.43226161,-49.50903083,22.07065171,,,,
707.8959995,2765,100.6323777,-15.24475675,-467.2138084,-75.67636913,-52.12291691,-75.59955582,-2.568913314,-45.09525515,-77.16082064,-84.34346096,-66.35588948,-583.0734927,-76.97542928,-92.12776445,-49.17686665,21.96649366,,,,
707.9039995,2765,100.2505333,-15.41253412,-465.1633753,-75.58353836,-51.90164273,-75.49651293,-2.440513986,-44.67298346,-76.82070747,-83.76514133,-66.19214012,-580.9080718,-76.73168193,-91.77698576,-49.0072956,21.79722576,,,,
707.9119995,2765,99.80463335,-15.19467995,-463.3288507,-75.3131627,-51.71638402,-74.86376728,-2.538002348,-44.55783349,-76.67367646,-83.42068638,-65.85656335,-578.6364715,-76.10732453,-91.42379013,-48.84624542,21.83629556,,,,
707.9199995,2765,99.17342919,-15.19034102,-461.597278,-74.83454405,-51.47256612,-74.61616531,-2.526472018,-44.74633378,-76.3601293,-83.20828354,-65.85723724,-576.2091604,-75.89145671,-90.9089024,-48.68020415,21.54120649,,,,
707.9279995,2765,98.97659059,-15.5455951,-459.3787755,-74.49331217,-51.35617332,-74.50117577,-2.491203829,-44.42157461,-75.95920784,-82.91649247,-65.35220875,-573.9966386,-75.67039696,-90.47465787,-48.39573246,21.32414541,,,,
707.9359995,2765,98.49388462,-15.04113718,-457.397219,-74.50797355,-51.03171011,-74.12937664,-2.513958487,-44.05754708,-75.69256352,-82.63637589,-64.83355844,-571.778934,-75.11718191,-90.48325431,-48.22539985,21.57801376,,,,
707.9439995,2765,97.97358687,-14.72520689,-455.5845207,-73.86104034,-50.67796381,-73.9470528,-2.160602515,-44.03147545,-75.48314115,-82.17472113,-65.02091828,-569.1732125,-74.83751911,-90.19150068,-48.04088097,21.37057488,,,,
707.9519995,2765,97.73703301,-14.92024195,-453.6984267,-73.35574066,-50.6937678,-73.62104629,-2.401727095,-43.90472075,-75.11880295,-81.77269704,-64.70199798,-566.6193597,-74.76999356,-89.59473108,-47.60572651,21.14282545,,,,
707.9599995,2765,97.23661751,-14.91442716,-451.7071746,-73.44249233,-50.30946323,-73.23251578,-2.678842966,-43.69735902,-74.76062078,-81.56224751,-64.29155508,-564.4301629,-74.35774215,-89.35119541,-47.6125162,21.11153788,,,,
707.9679995,2765,96.95577482,-14.78292046,-449.6025968,-72.9705877,-50.09557747,-72.8785907,-2.359907111,-43.36694922,-74.60680659,-81.37964795,-64.05597038,-562.2770119,-73.8832649,-88.88534765,-47.59848949,20.9554272,,,,
707.9759995,2765,96.53262325,-14.66199932,-447.9322505,-72.55735149,-50.28629253,-72.62430014,-2.373053813,-43.23695412,-74.27501156,-80.86294164,-63.78469499,-559.9399436,-73.79387884,-88.44579588,-47.20037792,20.96236399,,,,
707.9839995,2765,96.0495155,-14.84327021,-446.0365876,-72.48689391,-49.88448247,-72.65493199,-2.413464539,-43.16568713,-73.87847336,-80.64814143,-63.70092917,-557.6732507,-73.70896519,-88.27489819,-47.04415776,20.98541413,,,,
707.9919995,2765,95.76208334,-14.62570648,-443.9612498,-72.0484207,-49.4216012,-72.28580131,-2.159347192,-42.85659851,-73.56410199,-80.44706505,-63.46766201,-555.3430067,-73.14244281,-88.10875561,-46.89722027,20.83737056,,,,
707.9999995,2765,95.20489472,-14.45113843,-442.0560641,-71.64944843,-49.29904333,-71.68454516,-2.257612156,-42.72536638,-73.26430703,-79.65260411,-63.02479479,-552.9072724,-72.58904879,-87.69695612,-46.67175304,20.73923282,,,,
708.0079995,2765,95.04380715,-14.75647082,-440.0416025,-71.52589166,-49.2564466,-71.54727588,-2.558252871,-42.47634948,-72.86814082,-79.57738596,-62.61007281,-550.763406,-72.71229472,-86.98495111,-46.52078879,20.72287617,,,,
708.0159995,2765,94.8663693,-14.33276144,-438.2629128,-71.22929785,-49.13463113,-71.27316885,-2.51253474,-42.19906093,-72.45504365,-79.43640227,-62.4860088,-548.3826213,-72.5178791,-86.71011369,-46.38285199,20.50526962,,,,
708.0239995,2765,94.21908699,-14.06276152,-436.1892107,-70.87095917,-48.66025075,-70.85678499,-2.358966241,-42.18622032,-72.30233753,-78.6465745,-62.41771446,-545.9351529,-71.85700426,-86.41150507,-46.20410713,20.39968313,,,,
708.0319995,2765,93.93686546,-14.21092597,-433.8438497,-70.59026149,-48.32770957,-70.62438524,-2.235255823,-42.00090882,-71.89080045,-78.3631886,-61.92524901,-543.705988,-71.51985261,-85.85780159,-45.8681435,20.45711561,,,,
708.0399995,2765,93.70424247,-14.25784353,-432.0273084,-70.30721423,-48.33338116,-70.24210153,-2.273686288,-41.71797795,-71.27233519,-78.23846512,-61.5844508,-541.1311808,-71.31656545,-85.52662029,-45.67894027,20.21987673,,,,
708.0479995,2765,93.05747216,-14.55275654,-430.0989453,-69.98169415,-48.09068008,-69.92338548,-2.303596803,-41.57566226,-71.20185977,-78.06105603,-61.3739845,-538.7037731,-71.15893179,-85.12180449,-45.50758929,20.00026606,,,,
708.0559995,2765,92.53897506,-14.3016315,-428.084833,-69.5814561,-47.92403606,-69.72704584,-2.124358611,-41.37955703,-71.14433239,-77.70001285,-60.95166291,-536.4815849,-70.71942685,-84.68668403,-45.20497679,20.09409858,,,,
708.0639995,2765,92.10883468,-14.01494367,-426.1753791,-69.32574268,-47.75239631,-69.47301912,-2.304167708,-41.244874,-70.70372118,-77.22407388,-60.85238229,-534.1419612,-70.22749893,-84.41992945,-45.13249516,20.13904647,,,,
708.0719995,2765,91.54508411,-14.12662886,-424.0368745,-69.19374417,-47.29161361,-69.10346536,-2.298538287,-41.22574135,-70.3866299,-76.92235791,-60.48377635,-531.8484313,-70.04069755,-84.14493215,-44.94329795,19.91567712,,,,
708.0799995,2765,91.22195066,-13.81418621,-422.1530175,-68.9581003,-47.28963805,-68.70389672,-1.987533977,-40.79604251,-70.16143148,-76.35678912,-60.08604776,-529.4853423,-69.73443209,-83.71131615,-44.58120579,19.88870857,,,,
708.0879995,2765,90.99274962,-13.73023017,-420.3308369,-68.50395217,-47.26463711,-68.38818547,-2.134081721,-40.55975029,-69.88630051,-75.90070355,-60.21196768,-527.0758496,-69.48702922,-83.27977048,-44.38902012,19.95752998,,,,
708.0959995,2766,90.61311369,-13.89924662,-418.4044616,-68.08217477,-46.80290855,-67.99872115,-2.151344131,-40.66277311,-69.288891,-75.84935063,-59.83613629,-524.6752009,-69.23166659,-82.9308649,-44.31307047,19.57581534,,,,
708.1039995,2766,90.01718118,-13.80554878,-416.2801707,-67.86492426,-46.55886841,-67.69212498,-2.035759695,-40.17625657,-68.89874218,-75.54431437,-59.41319778,-522.0973717,-68.64099153,-82.54683602,-44.01307086,19.47656868,,,,
708.1119995,2766,89.51272716,-13.73748015,-414.2259644,-67.62757625,-46.43767821,-67.42139358,-2.108564391,-39.97005777,-69.00348218,-75.08039715,-59.3810372,-519.7049612,-68.32889825,-82.09837582,-43.70019856,19.59574985,,,,
708.1199995,2766,89.35429539,-13.59359572,-412.2435405,-67.26698085,-46.30523783,-67.22268369,-2.063914475,-40.01197708,-68.54605106,-74.73749118,-58.99760823,-517.6350561,-68.31444675,-81.84091921,-43.59769211,19.37852511,,,,
708.1279995,2766,88.93902851,-13.4230545,-409.8720373,-66.96884804,-46.12055714,-66.9509445,-2.151028759,-39.60709811,-68.07006893,-74.25796418,-58.57610445,-515.0593067,-68.00661325,-81.49939502,-43.43416923,19.37187429,,,,
708.1359995,2766,88.46073829,-13.39143543,-408.0342758,-66.66021951,-45.84095183,-66.50832107,-2.21466037,-39.56673744,-67.8410036,-74.01777746,-58.42082357,-512.5676609,-67.63797071,-80.94476178,-43.35732458,19.22290829,,,,
708.1439995,2766,88.04595566,-13.29719036,-406.1470006,-66.24649754,-45.56298235,-66.30949582,-2.065633131,-39.49462327,-67.32823825,-73.77489791,-58.14526673,-510.3056791,-67.17641302,-80.70203438,-43.15390508,18.9664982,,,,
708.1519995,2766,87.52873795,-13.36361782,-403.9762113,-66.00331781,-45.39265124,-65.96885982,-2.075790256,-39.13228177,-67.10067864,-73.24596277,-57.91249942,-507.6182108,-66.84426395,-80.32056152,-42.89333613,18.89599961,,,,
708.1599995,2766,87.25839595,-13.4364981,-402.254699,-65.54911864,-45.29469535,-65.58093729,-2.191539204,-39.03299999,-66.91509478,-73.11038458,-57.75126208,-505.1984206,-66.73361558,-79.99407556,-42.66738935,18.73914639,,,,
708.1679995,2766,86.79417088,-12.99342917,-399.9589896,-65.1105314,-44.88592429,-65.26063615,-2.167790313,-38.98292537,-66.47960716,-72.66700787,-57.1898096,-502.8509732,-66.205612,-79.65880056,-42.46265894,18.65513227,,,,
708.1759995,2766,86.24207362,-12.93350956,-397.7821931,-64.95528409,-44.59220744,-64.89592309,-2.061043353,-38.71842813,-66.16986223,-71.95530336,-56.7019573,-500.368119,-65.90562012,-78.94167438,-42.26909998,18.46354382,,,,
708.1839995,2766,85.82292531,-13.18531355,-395.9874364,-64.62161738,-44.50498765,-64.74852956,-2.070733277,-38.47535924,-66.03786444,-71.79752454,-56.55053196,-497.8329985,-65.79927895,-78.85492478,-41.83891322,18.37820154,,,,
708.1919995,2766,85.28665174,-12.98407517,-393.7352557,-64.28739029,-44.16173881,-64.47004397,-2.12495958,-38.51501607,-65.83877165,-71.44474366,-56.26274663,-495.2692504,-65.32326437,-78.56106285,-41.86751585,18.33770865,,,,
708.1999995,2766,84.95689907,-12.89124127,-392.0660115,-63.93569543,-44.02864711,-63.92093235,-2.101653783,-38.1550055,-65.34963792,-71.15358571,-56.13587863,-492.9866256,-64.99172808,-77.79517245,-41.87099052,18.31524075,,,,
708.2079995,2766,84.63169653,-12.80983346,-390.1216673,-63.71995579,-43.83558153,-63.44611284,-1.964064949,-37.77448173,-64.88573755,-71.03278998,-56.01252723,-490.5618681,-64.68175718,-77.53752397,-41.19177049,18.43652391,,,,
708.2159995,2766,84.15296179,-12.75479141,-387.6373735,-63.37876757,-43.43090824,-63.29116941,-1.948218,-37.92094713,-64.57785964,-70.42906934,-55.47368607,-488.1014575,-64.32930684,-77.02833355,-41.01214869,18.17799877,,,,
708.2239995,2766,83.85355159,-12.81387047,-385.9048711,-62.91923283,-43.46240616,-62.96452619,-2.167515249,-37.64043833,-64.19315274,-70.03785276,-55.16261783,-485.7581235,-64.00137501,-76.59480025,-41.10487887,17.94179699,,,,
708.2319995,2766,83.41460602,-12.72910211,-383.8291229,-62.84903129,-43.36695513,-62.57527207,-2.202886934,-37.34175642,-63.95879654,-69.84546639,-55.08482248,-483.2929808,-63.7391781,-76.40704451,-40.73085174,17.8367492,,,,
708.2399995,2766,82.74773315,-12.59104835,-381.5619684,-62.55201828,-42.92606046,-62.54016116,-2.04601934,-37.38311655,-63.78013657,-69.41779979,-54.76028634,-480.9246231,-63.49498348,-75.91883185,-40.59352725,17.61387918,,,,
708.2479995,2766,82.61709454,-12.43804835,-379.694295,-62.15868137,-42.60229765,-62.233871,-1.868483923,-37.06741324,-63.27378904,-68.97992564,-54.41081028,-478.4012058,-62.93721961,-75.73779119,-40.45427431,17.60422805,,,,
708.2559995,2766,82.34633684,-12.45083718,-377.6492467,-61.82429942,-42.37152173,-61.80095707,-1.913562988,-36.84914424,-62.88928192,-68.57920054,-54.10947462,-475.8365362,-62.67646066,-75.37760951,-40.08432465,17.66647874,,,,
708.2639995,2766,81.56116817,-12.46103798,-375.7010417,-61.29349613,-42.37976992,-61.55957996,-2.098370225,-36.67625606,-62.67409456,-68.31573389,-53.93832867,-473.4195562,-62.59907354,-74.92530551,-39.98576008,17.50024699,,,,
708.2719995,2766,81.37435207,-12.41738632,-373.6003489,-60.9879149,-42.31825946,-61.15182417,-1.929966713,-36.32951439,-62.24657504,-68.03298081,-53.73640522,-470.8017793,-62.15816413,-74.73356795,-39.72543685,17.40487722,,,,
708.2799995,2766,80.96576665,-12.36015955,-371.464167,-60.81427643,-41.94255973,-60.74380434,-1.781715863,-36.48646755,-61.97799799,-67.71614607,-53.26511022,-468.3676222,-61.99826979,-74.05058748,-39.3003409,17.30060181,,,,
708.2879995,2766,80.41825429,-12.15796171,-369.5879188,-60.54337673,-41.5195747,-60.63025533,-1.868090853,-36.21776146,-61.56301841,-67.34654513,-53.1022829,-466.0520715,-61.68876716,-73.68036499,-39.14878619,17.20333678,,,,
708.2959995,2766,80.23166685,-12.03153982,-367.4449145,-60.2708574,-41.32789122,-60.24716375,-1.866331439,-35.60504355,-61.01058527,-66.76495352,-53.1266903,-463.6989307,-61.07900959,-73.43936275,-39.05687196,17.37634465,,,,
708.3039995,2766,79.59929336,-12.16608276,-365.3004879,-59.91255369,-41.33645259,-59.73352094,-1.8280004,-35.66704634,-60.8629058,-66.43244234,-52.63416572,-461.1655087,-60.9207085,-72.80225146,-38.81050294,17.135309,,,,
708.3119995,2766,79.2657804,-12.0401292,-363.2972817,-59.56329193,-41.14828749,-59.63795712,-1.818804554,-35.5658468,-60.5494343,-66.31601253,-52.16827427,-458.4443724,-60.64828687,-72.49859145,-38.65649131,16.93957821,,,,
708.3199995,2766,78.97476915,-11.74797682,-361.1691302,-59.26375705,-40.77903887,-59.19848574,-1.892819113,-35.30257936,-60.14355031,-65.88373279,-52.07688666,-456.2114264,-60.23476662,-72.03030728,-38.50305042,16.87282652,,,,
708.3279995,2766,78.30932283,-11.99904808,-359.1899121,-58.94395849,-40.34028704,-58.67820181,-1.862293243,-34.99555417,-59.78193831,-65.38427023,-51.78048096,-453.8172903,-59.83279053,-71.52723626,-38.2243378,16.55387071,,,,
708.3359995,2766,77.71643182,-11.7769953,-357.1442917,-58.67754972,-40.09943255,-58.56555227,-1.736017196,-34.67207053,-59.59792143,-65.07229955,-51.42236737,-451.0844411,-59.51428869,-71.33686084,-38.07307479,16.7426403,,,,
708.3439995,2766,77.24840094,-11.55583725,-354.9977493,-58.15927353,-39.98919652,-58.29721328,-1.782908264,-34.61780367,-59.63319861,-64.68776646,-51.19551264,-448.568972,-59.38349785,-70.81863295,-37.77432302,16.79576644,,,,
708.3519995,2767,76.99057714,-12.07783908,-353.0917965,-57.87507618,-39.87884146,-57.93882869,-1.891541882,-34.50706681,-59.18992072,-64.36522841,-50.85823307,-446.1400436,-58.84898803,-70.38031902,-37.64228155,16.52120753,,,,
708.3599995,2767,76.53057667,-11.8085954,-350.9888219,-57.7991047,-39.73019131,-57.56978141,-1.958328003,-34.4512537,-58.69145377,-64.24290935,-50.48575359,-443.767954,-58.44456111,-70.22443614,-37.66235466,16.31192279,,,,
708.3679995,2767,76.19389994,-11.37870737,-348.799878,-57.28891496,-39.31677923,-57.25863756,-1.821531718,-34.14640291,-58.28289262,-63.75013247,-50.37408473,-441.2874221,-58.23120714,-69.72994693,-37.20780848,16.25290229,,,,
708.3759995,2767,75.77176372,-11.37221559,-346.6917744,-57.02461972,-39.07020984,-57.01620505,-1.728886166,-33.82540835,-57.93790374,-63.06416701,-50.11587989,-438.8129064,-57.83054674,-69.23125041,-36.77566458,16.37046306,,,,
708.3839995,2767,74.98282231,-11.07269648,-344.5299161,-56.66499184,-38.73645793,-56.63850274,-1.920459628,-33.82978676,-57.78290022,-62.729281,-49.50193666,-436.3673778,-57.42839493,-68.87320052,-36.54497406,16.12911672,,,,
708.3919995,2767,74.62050244,-11.00140868,-342.5325228,-56.19786509,-38.39038328,-56.30272035,-1.91677341,-33.56619227,-57.39963908,-62.37141909,-49.28086101,-433.8519178,-57.01618925,-68.43901947,-36.32493157,16.02021104,,,,
708.3999995,2767,74.36226906,-11.13275507,-340.5078384,-56.02013804,-38.40603726,-55.98948763,-1.716960368,-33.32440453,-57.05840751,-62.10466983,-49.13011451,-431.2730586,-56.69968102,-68.20808284,-36.24569339,16.03812091,,,,
708.4079995,2767,74.00818163,-11.22066018,-338.5219075,-55.61560559,-38.14807624,-55.63576204,-1.623321583,-33.19366613,-56.73673039,-61.92886849,-48.83933935,-428.6858138,-56.30702511,-68.01248235,-36.17996382,15.76563019,,,,
708.4159995,2767,73.66765451,-11.22294074,-336.5955602,-55.3925988,-37.82464519,-55.37389279,-1.763478104,-32.94181172,-56.31128187,-61.38483495,-48.63663715,-426.3082632,-56.12753356,-67.53937816,-35.93265205,15.62348234,,,,
708.4239995,2767,73.12472513,-11.01131636,-334.5216114,-55.02491702,-37.75290432,-54.90730863,-1.900791019,-32.71846117,-56.04671685,-60.98070152,-48.30904952,-423.78756,-55.90449857,-67.00805636,-35.69471094,15.73667402,,,,
708.4319995,2767,72.58500674,-11.03374528,-332.2661496,-54.48335289,-37.63811651,-54.37650356,-1.696321275,-32.59670092,-55.70952439,-60.79952932,-48.07833854,-421.0855015,-55.51219698,-66.53201881,-35.58756669,15.71810463,,,,
708.4399995,2767,72.09568631,-10.92045397,-330.0903325,-54.3288185,-37.34211499,-54.26170501,-1.757967756,-32.44857695,-55.34487282,-60.33048751,-47.693233,-418.6486379,-55.42323537,-66.07964941,-35.27770265,15.3338553,,,,
708.4479995,2767,71.80088309,-10.72391681,-328.1380907,-53.98352585,-37.1524065,-54.06243993,-1.841458833,-32.14755632,-55.09074863,-59.97610683,-47.18913923,-416.1596721,-55.0924128,-65.81317344,-35.08154155,15.23678142,,,,
708.4559995,2767,71.49519981,-10.88207415,-326.0793906,-53.74253135,-37.02826064,-53.54239558,-1.579876919,-31.9917675,-54.73129044,-59.70453386,-47.0474069,-413.597243,-54.64782701,-65.33436592,-35.08897717,15.38065017,,,,
708.4639995,2767,71.08299365,-10.79122217,-323.974183,-53.48986023,-36.73783415,-53.12304557,-1.609606434,-31.80633651,-54.30049548,-59.1645586,-46.99251776,-411.2128606,-54.23844367,-64.67149391,-34.70137307,15.26073661,,,,
708.4719995,2767,70.82168797,-10.71515892,-321.8364922,-52.88720359,-36.55082751,-52.93991512,-1.582229733,-31.56041267,-53.89172165,-58.89568968,-46.66279607,-408.5847702,-53.79439431,-64.45890727,-34.40411479,15.01870379,,,,
708.4799995,2767,70.20364135,-10.78883061,-319.8559102,-52.70878082,-36.44099737,-52.86030833,-1.525067151,-31.42131711,-53.58353283,-58.81467433,-46.15590764,-406.0780364,-53.75290206,-64.28068669,-34.26266886,14.7877511,,,,
708.4879995,2767,69.61301022,-10.67558821,-317.993102,-52.45525255,-36.30974912,-52.44926157,-1.661767348,-31.14429736,-53.3834394,-58.45428975,-45.90608738,-403.7557747,-53.52667435,-63.92393877,-33.96339863,14.91490223,,,,
708.4959995,2767,69.3660554,-10.65722985,-315.8917711,-51.86660693,-35.94797221,-51.97014789,-1.605968132,-30.97817414,-53.02172775,-57.921944,-45.89749068,-401.1361662,-52.94610942,-63.49923202,-33.94762061,14.85114438,,,,
708.5039995,2767,68.86334418,-10.644065,-313.6555008,-51.73879875,-35.60495726,-51.75119731,-1.39558955,-30.91214609,-52.56369491,-57.42743467,-45.51990029,-398.6951684,-52.69762066,-62.9990216,-33.69329297,14.4212335,,,,
708.5119995,2767,68.43193174,-10.43079589,-311.5749341,-51.63199259,-35.46187027,-51.28014416,-1.36566593,-30.50578493,-52.3133337,-57.2527003,-45.05158765,-396.2758686,-52.39891176,-62.65798229,-33.25096411,14.56391678,,,,
708.5199995,2767,67.94876385,-10.32525899,-309.6410688,-51.1679138,-35.08246622,-51.01855602,-1.57275774,-30.18782535,-51.96451196,-57.00049907,-44.8461104,-393.6362459,-51.92840188,-62.16360878,-33.22813245,14.65177025,,,,
708.5279995,2767,67.39802276,-10.38768576,-307.3726488,-50.89769299,-34.8859388,-51.02676705,-1.590130033,-30.28685782,-51.75133952,-56.44254503,-44.59394697,-391.1481985,-51.67927393,-61.81672849,-33.02093787,14.39841098,,,,
708.5359995,2767,67.07417906,-10.27545821,-305.3144514,-50.48669436,-34.86131002,-50.56700777,-1.564756944,-30.09534574,-51.66439691,-56.12212136,-44.42519652,-388.7618412,-51.32412972,-61.56346183,-32.70651729,14.39463567,,,,
708.5439995,2767,66.59655905,-10.19847604,-303.3131893,-49.84311876,-34.5546466,-50.21691033,-1.472229243,-29.79705935,-50.97400728,-55.8042059,-44.04842093,-386.1352587,-50.96692772,-61.05074022,-32.5392422,14.16025949,,,,
708.5519995,2767,66.34806459,-10.22404986,-300.9625018,-49.63737596,-34.32737029,-49.94623494,-1.377740151,-29.85649068,-50.59795852,-55.49046067,-43.5540088,-383.4231488,-50.65892393,-60.82503322,-32.19530538,13.7848739,,,,
708.5599995,2767,66.10607039,-10.12462536,-299.125328,-49.56398114,-34.10515006,-49.50263144,-1.546103215,-29.59733064,-50.49596724,-55.25506474,-43.23217256,-381.0275814,-50.23290571,-60.447234,-32.08947432,13.73863715,,,,
708.5679995,2767,65.37255243,-9.991337243,-297.257331,-49.16005618,-33.81752028,-49.16231854,-1.466217643,-29.08183223,-49.9140993,-54.7244642,-43.08124227,-378.6754676,-50.01527677,-59.95020135,-32.10907256,13.86926974,,,,
708.5759995,2767,64.77089958,-9.785339239,-295.0359178,-48.83798913,-33.68212602,-48.72204434,-1.360872871,-28.9383732,-49.62804258,-54.17453657,-43.0453115,-376.1437803,-49.78611814,-59.47459787,-31.65779229,13.96836199,,,,
708.5839995,2767,64.50536541,-9.600190567,-292.8387986,-48.68591896,-33.35660374,-48.40377224,-1.391638246,-28.92746956,-49.45312006,-53.68667687,-42.44765395,-373.5856718,-49.45549695,-58.84197544,-31.28956864,13.72285591,,,,
708.5919995,2767,64.16431197,-9.562653527,-290.7238643,-48.10791393,-33.14978038,-48.14880021,-1.37350592,-28.73135398,-49.05527459,-53.2883585,-42.10942478,-371.0505406,-49.09302174,-58.45357419,-31.24434453,13.50234605,,,,
708.5999995,2767,63.68966531,-9.747267911,-288.8993692,-47.74487001,-32.90643987,-47.84849194,-1.424044713,-28.46488909,-48.723262,-53.15064861,-42.08282591,-368.560122,-48.65443163,-58.11045255,-31.1151981,13.62299938,,,,
708.6079995,2768,63.39046667,-9.701256276,-286.7830312,-47.66656769,-32.41817605,-47.60971725,-1.449302079,-28.20504564,-48.36437112,-52.98705569,-41.53281561,-366.1003606,-48.32997219,-57.97545987,-30.89135112,13.32604715,,,,
708.6159995,2768,62.91970951,-9.338888231,-284.6151581,-47.14448235,-32.4810646,-47.22721167,-1.399175037,-28.08072959,-47.86222519,-52.32378577,-41.40181136,-363.5627111,-47.9199424,-57.70495895,-30.61012929,13.03817856,,,,
708.6239995,2768,62.28379351,-9.397472418,-282.9238301,-46.91558595,-32.37405231,-46.84473388,-1.164905457,-27.90492144,-47.60322805,-51.8360449,-41.47705128,-361.0978733,-47.66458405,-57.10282191,-30.3726059,13.29637108,,,,
708.6319995,2768,61.97877324,-9.453249786,-280.7848966,-46.69623683,-32.02288363,-46.38242145,-1.144042386,-27.69837432,-47.50552501,-51.90569123,-41.02527069,-358.6782427,-47.50306547,-56.64171769,-30.02192113,13.18809335,,,,
708.6399995,2768,61.48216965,-9.276898586,-278.4512649,-46.04504488,-31.83228588,-45.88840895,-1.442830282,-27.71143228,-46.96586811,-51.4287935,-40.587337,-355.9449642,-46.97295557,-56.03535851,-29.84452172,12.95272766,,,,
708.6479995,2768,61.02827275,-9.328159188,-276.5464795,-45.76578137,-31.38965086,-45.81512421,-1.452004901,-27.37776983,-46.56883366,-50.9869102,-40.50633482,-353.2334019,-46.53543498,-55.68677744,-29.89256967,12.82241061,,,,
708.6559995,2768,60.8215357,-9.346658591,-274.4008862,-45.55485547,-31.2925372,-45.6404581,-1.24954668,-27.01086636,-46.37169297,-50.78333962,-40.1628354,-350.9336575,-46.26913563,-55.66054999,-29.55952594,12.66664111,,,,
708.6639995,2768,60.2427018,-9.148622312,-272.25836,-45.0980361,-31.33235181,-45.20193117,-1.181259813,-27.03067281,-45.88734125,-50.21262938,-39.52759168,-348.5108104,-46.05849742,-55.23928576,-29.25866774,12.77655535,,,,
708.6719995,2768,59.81739411,-9.003455282,-270.2976953,-44.95787536,-30.95456901,-44.98574996,-1.27246348,-26.92430532,-45.6041664,-49.96958576,-39.27689347,-346.0075122,-45.81298125,-54.73574384,-29.06756404,12.75993807,,,,
708.6799995,2768,59.28329437,-8.938888001,-268.139404,-44.70509809,-30.45491074,-44.79951349,-1.371207424,-26.62909476,-45.51366518,-49.64011275,-39.08704425,-343.7334474,-45.28108029,-54.42556873,-28.80839205,12.8539341,,,,
708.6879995,2768,58.67457207,-8.848638446,-266.0887359,-44.23899088,-30.23182975,-44.49434131,-1.346296242,-26.36912867,-45.16929309,-49.17773167,-38.7675734,-341.1817533,-44.94326618,-53.99086499,-28.63281043,12.81819465,,,,
708.6959995,2768,58.44839456,-8.804647015,-264.0664327,-44.01666204,-30.10783639,-44.11466361,-1.312149145,-26.25327958,-44.76812521,-48.9151045,-38.49648939,-338.6230679,-44.70273219,-53.58523828,-28.40314936,12.56970128,,,,
708.7039995,2768,58.00471909,-8.627302241,-262.016999,-43.71144534,-29.82484501,-43.58995018,-1.313640171,-25.99768894,-44.4677314,-48.35376676,-38.23520241,-336.0753275,-44.32645456,-53.21160545,-28.28548818,12.46802475,,,,
708.7119995,2768,57.7150923,-8.586284741,-260.0803293,-43.36174452,-29.67299287,-43.03062897,-1.341774768,-25.72088593,-43.8874936,-47.88965265,-37.95415146,-333.3235054,-44.08956431,-52.6183558,-28.211191,12.03132432,,,,
708.7199995,2768,57.29567747,-8.778121906,-258.039287,-42.97610427,-29.44055895,-42.90464124,-1.353062226,-25.57495055,-43.42660228,-47.7074045,-37.72809359,-330.853213,-43.69674514,-52.0737245,-27.9855864,12.02670534,,,,
708.7279995,2768,56.68201634,-8.522473055,-255.8874159,-42.60967315,-29.21500023,-42.78011428,-1.238017365,-25.34956935,-43.40848148,-47.33014363,-37.6375042,-328.3779129,-43.30202924,-51.78589434,-27.7023696,12.21799451,,,,
708.7359995,2768,56.36000493,-8.530509441,-253.7765708,-42.37576623,-29.10825929,-42.34994414,-1.291289339,-25.1282622,-42.98403754,-46.96770456,-37.12355818,-325.9434137,-43.06604,-51.54149851,-27.39363032,11.77564073,,,,
708.7439995,2768,55.87904446,-8.780964513,-251.8194546,-42.07325111,-28.8594405,-41.99202422,-1.348040292,-25.04509657,-42.549506,-46.72345344,-36.56838221,-323.5499368,-42.81081359,-51.20838041,-27.30759814,11.76542141,,,,
708.7519995,2768,55.44830038,-8.194451102,-249.9082178,-41.6134393,-28.51447374,-41.67072734,-1.172257933,-24.99264976,-42.47275435,-46.14293829,-36.61527997,-320.91325,-42.46700674,-50.78698117,-27.10573762,11.91063987,,,,
708.7599995,2768,55.05533723,-8.112097364,-247.9224892,-41.18641936,-28.24367159,-41.43881801,-1.183224988,-24.62244718,-41.8691646,-45.67463058,-36.4340567,-318.4526259,-41.91016048,-50.30561466,-26.60558427,11.6277134,,,,
708.7679995,2768,54.57143759,-8.49216053,-245.6777923,-40.96352361,-28.23805701,-40.97997601,-1.160544832,-24.29337194,-41.54283639,-45.52991054,-36.08109372,-315.933153,-41.60322345,-49.80360195,-26.69834507,11.63068499,,,,
708.7759995,2768,54.09816375,-8.164760703,-243.4945843,-40.53963893,-27.93878424,-40.59891781,-1.110335791,-24.18082049,-41.61820952,-45.16938662,-35.79830154,-313.3973449,-41.39748084,-49.39279957,-26.58384192,11.53591573,,,,
708.7839995,2768,53.59106016,-8.075437668,-241.6480058,-40.22484497,-27.56401373,-40.44176763,-1.330865563,-23.90226697,-41.05128649,-44.82475987,-35.41895125,-311.0821784,-41.01520807,-49.11293554,-26.08698653,11.19286024,,,,
708.7919995,2768,53.33947565,-8.012256772,-239.541521,-40.08095112,-27.63839454,-40.002407,-1.309225743,-23.80706994,-40.76287301,-44.46126097,-35.28401877,-308.5624392,-40.7674581,-48.64816397,-26.22010547,11.25333185,,,,
708.7999995,2768,52.9359648,-7.969589727,-237.43257,-39.61770034,-27.29606036,-39.70423804,-0.995629138,-23.72565304,-40.70635316,-44.0694068,-34.83149805,-306.0246539,-40.36820727,-48.25660621,-25.80369336,11.1694259,,,,
708.8079995,2768,52.45933038,-8.3655489,-235.4221704,-39.29292581,-26.83339945,-39.59960626,-1.094129383,-23.53164446,-40.00833877,-43.84217479,-34.35875273,-303.4556817,-39.91475688,-48.06147422,-25.40436162,10.79617928,,,,
708.8159995,2768,52.23256674,-8.125868686,-233.4857419,-39.07323308,-26.74850158,-39.18581151,-1.370505349,-23.47315945,-39.52350907,-43.60634601,-34.38684508,-300.825293,-39.69081585,-47.62306727,-25.6464149,10.71044995,,,,
708.8239995,2768,51.65498519,-7.829241513,-231.5565256,-38.67755311,-26.53387102,-38.71705219,-1.193964417,-23.10785181,-39.43945646,-43.30972757,-34.0321064,-298.6328886,-39.45759254,-47.26122421,-25.18809757,10.61021624,,,,
708.8319995,2768,51.2425205,-7.858858598,-229.1141339,-38.26490969,-26.34711429,-38.46894822,-1.082001531,-22.83700279,-39.01752081,-42.64702215,-33.65127342,-296.2616351,-39.03360259,-46.97073839,-24.92105917,10.60394387,,,,
708.8399995,2768,50.86745698,-7.494381689,-227.142852,-37.81942171,-26.07650995,-38.0238079,-1.183842181,-22.7892941,-38.54194251,-42.12333432,-33.50016869,-293.4478908,-38.65806907,-46.43696483,-24.90044025,10.60495823,,,,
708.8479995,2768,50.3095757,-7.52626542,-225.4535794,-37.53896014,-25.83249461,-37.65713101,-1.08599006,-22.58582214,-38.40924794,-41.9522301,-33.16666156,-290.8953801,-38.44287974,-45.90467193,-24.35873813,10.36868317,,,,
708.8559995,2768,50.12809998,-7.696705119,-223.1989104,-37.3682203,-25.86975794,-37.62295183,-1.100998193,-22.40572429,-38.07504185,-41.62055683,-32.89218414,-288.5270645,-38.0861414,-45.61651413,-24.21294967,10.33805643,,,,
708.8639995,2769,49.42872576,-7.401882949,-221.0780133,-37.15488079,-25.6656366,-37.34595028,-1.054670562,-22.12242886,-37.60373311,-41.27089304,-32.4615114,-286.2760389,-37.88181666,-45.49744605,-24.11270487,10.3151566,,,,
708.8719995,2769,48.80224369,-7.301615154,-219.0662859,-36.89617853,-25.43210898,-36.90153442,-0.862309913,-21.87385235,-37.47629779,-40.76336616,-32.08071645,-283.8074374,-37.80101914,-45.11211994,-23.7953387,10.34540785,,,,
708.8799995,2769,48.73120405,-7.433287827,-217.203394,-36.48823585,-25.26893585,-36.61226678,-0.974154681,-21.80971881,-37.24158729,-40.44901121,-31.97091434,-281.2320792,-37.32340121,-44.58661612,-23.73219808,10.2003112,,,,
708.8879995,2769,48.17967038,-7.541644272,-215.3238598,-36.11695968,-24.82157398,-36.21954889,-0.982318024,-21.69227622,-36.85793501,-40.44252339,-31.70664702,-278.8413966,-36.78239324,-44.193707,-23.34075357,9.786553756,,,,
708.8959995,2769,47.74477279,-7.363638596,-213.106051,-35.76368263,-24.54983742,-35.76647047,-0.940064804,-21.30463893,-36.53265372,-40.0743773,-31.52474213,-276.290773,-36.39222496,-43.82223891,-23.17770233,9.839969052,,,,
708.9039995,2769,47.30537112,-7.186652254,-211.0799482,-35.54091811,-24.55439439,-35.63747471,-1.029830811,-21.05544528,-36.24961461,-39.54442493,-31.3508853,-273.9498806,-36.05302564,-43.4695896,-23.26847459,9.96605261,,,,
708.9119995,2769,46.72402011,-7.254287336,-208.9941529,-35.37439154,-24.48270572,-35.37943077,-0.983355809,-20.95631709,-35.88131991,-39.22412845,-30.86306962,-271.4786814,-35.96473597,-42.98003809,-22.77798783,9.937092837,,,,
708.9199995,2769,46.49198013,-7.04899846,-207.0549906,-34.97673596,-24.25987608,-34.88588789,-1.09188989,-20.636649,-35.42230847,-38.80998505,-30.60785926,-269.0193282,-35.79081171,-42.6016053,-22.65460333,9.754470829,,,,
708.9279995,2769,45.99999184,-6.989255531,-205.2212922,-34.62120878,-23.82566482,-34.59062815,-1.169342602,-20.61295978,-35.2760688,-38.38789737,-30.39213727,-266.8884836,-35.39265584,-42.24752443,-22.54199377,9.392141216,,,,
708.9359995,2769,45.76734377,-7.018180725,-203.043107,-34.20296585,-23.41227416,-34.17034579,-0.989281533,-20.47542385,-34.8489127,-38.21947225,-30.00425275,-264.1689017,-34.9612814,-41.55114159,-22.14115445,9.443496982,,,,
708.9439995,2769,45.54448611,-6.78252516,-201.3165564,-33.8047386,-23.16877247,-33.80929798,-0.897803407,-20.08737653,-34.3531963,-37.73406124,-29.85559922,-261.4739465,-34.51554304,-41.1787709,-22.18911416,9.495103235,,,,
708.9519995,2769,44.79616242,-6.857897137,-199.384006,-33.67476057,-23.0762741,-33.76661568,-0.842443437,-20.01537469,-34.15000298,-37.26729212,-29.61871093,-259.3415296,-34.38241041,-40.98773275,-21.79992427,9.272277142,,,,
708.9599995,2769,44.43608911,-6.708405378,-197.0669163,-33.4079408,-22.97151792,-33.41130411,-0.905538909,-19.73562704,-33.66684112,-37.02568461,-29.12509353,-256.9432427,-34.04956521,-40.49211561,-21.47026857,9.082746155,,,,
708.9679995,2769,44.05762085,-6.44346868,-195.2400457,-32.88349824,-22.62339105,-32.87424333,-1.044823508,-19.57360349,-33.45599733,-36.55835135,-28.81181033,-254.2947753,-33.52883171,-40.17713241,-21.61450002,9.025834387,,,,
708.9759995,2769,43.70147619,-6.57259949,-193.3140167,-32.48951685,-22.37870853,-32.7109475,-0.913941275,-19.71445001,-33.12062884,-36.32333629,-28.91214654,-251.7727024,-33.30185918,-39.7623367,-21.16690828,9.073650528,,,,
708.9839995,2769,43.32556632,-6.469196899,-191.3285118,-32.42486924,-22.38000111,-32.41511487,-0.889799204,-19.18680745,-32.65528378,-36.01497279,-28.60824113,-249.4490418,-33.02886091,-39.33996522,-20.97666587,8.998341356,,,,
708.9919995,2769,42.63182264,-6.411174677,-189.2751809,-32.16853698,-22.18520031,-31.99597425,-0.855100081,-18.7323784,-32.58361936,-35.51100515,-27.97563657,-247.2894907,-32.71402437,-39.21916484,-21.05484647,9.025043803,,,,
708.9999995,2769,42.41230831,-6.388631643,-187.0690557,-31.68748376,-21.88692998,-31.77907208,-0.640626504,-18.94983122,-32.18451228,-35.12185653,-27.83491694,-244.7438681,-32.23539625,-38.63749411,-20.54309338,8.886637988,,,,
709.0079995,2769,41.93420633,-6.299240671,-185.2364262,-31.34642721,-21.57265559,-31.32524021,-0.752452695,-18.82363548,-31.81117013,-34.86618733,-27.6740781,-242.0809697,-31.97809222,-38.02428119,-20.2910253,8.605188765,,,,
709.0159995,2769,41.36445964,-6.310208305,-183.231679,-30.9335427,-21.26595221,-30.97960832,-0.840634864,-18.55344131,-31.63828325,-34.66868382,-27.27507753,-239.763563,-31.80694436,-37.7696865,-20.28798581,8.412853997,,,,
709.0239995,2769,41.22294427,-6.085670607,-181.1027524,-30.63867305,-21.32403564,-30.72238031,-0.586530164,-18.47910171,-31.30994705,-34.19157071,-26.83914897,-237.1779781,-31.54592687,-37.40023004,-20.01787357,8.224290468,,,,
709.0319995,2769,40.58283208,-6.07832611,-179.4769309,-30.37377499,-21.09926682,-30.38694523,-0.627695924,-18.19885516,-31.03618819,-33.82852122,-26.75366058,-234.7405371,-31.45892989,-37.08183453,-19.73874627,8.340375205,,,,
709.0399995,2769,40.0318244,-6.14531772,-177.4820334,-30.07935214,-20.87629846,-30.22616994,-0.910351757,-17.88136747,-30.7372419,-33.49789612,-26.7040126,-232.5280584,-30.89403086,-36.70162755,-19.52844424,8.415374702,,,,
709.0479995,2769,39.78403203,-6.004598823,-175.1745127,-29.92655115,-20.82650389,-29.71028814,-0.726443226,-17.74144582,-30.35357756,-33.15397672,-26.11160836,-230.0774852,-30.43096731,-36.32691673,-19.33766925,8.224649285,,,,
709.0559995,2769,39.45100883,-6.1027694,-173.4152269,-29.5574785,-20.24309235,-29.41980021,-0.6640109,-17.69432874,-30.04832131,-33.01075262,-25.79891996,-227.7870918,-30.19903064,-36.02222306,-19.18824503,7.967787699,,,,
709.0639995,2769,39.08361969,-6.002657828,-171.5356159,-29.24250948,-20.08563188,-29.29039084,-0.859359401,-17.53042415,-29.71565575,-32.56973163,-25.61454645,-225.4310898,-29.8483473,-35.60581421,-19.00975272,7.996154253,,,,
709.0719995,2769,38.6281039,-5.838648288,-169.4995589,-29.10749999,-20.02646056,-28.72879497,-0.705873781,-17.22703379,-29.2785992,-32.07806204,-25.29368259,-223.1354873,-29.77275903,-35.09770287,-18.64608526,8.005696695,,,,
709.0799995,2769,38.23336617,-5.897690783,-167.7373431,-28.57485325,-19.55555394,-28.71715904,-0.721449362,-16.95896594,-28.93737433,-31.81342067,-25.24422463,-220.7330428,-29.27004045,-34.60076894,-18.4544649,7.752102862,,,,
709.0879995,2769,37.71286629,-5.693604313,-165.8265354,-28.13929372,-19.4488623,-28.57649965,-0.665522918,-16.818517,-28.78623191,-31.46909904,-24.87215908,-218.1368742,-28.64666218,-34.57656333,-18.4464709,7.703070942,,,,
709.0959995,2769,37.34894047,-5.549510743,-163.6946414,-28.19058948,-19.31987565,-27.99727082,-0.555160382,-16.88294603,-28.63168949,-31.05756983,-24.48493412,-215.9406802,-28.50692689,-34.26177178,-17.97324859,7.467100093,,,,
709.1039995,2769,36.9317559,-5.585386895,-161.6039036,-27.79424236,-18.99317212,-27.75244379,-0.918026485,-16.75289893,-28.23166254,-30.7063685,-24.25536157,-213.4704577,-28.15254333,-33.58347999,-17.79205259,7.255962157,,,,
709.1119995,2769,36.44440247,-5.479065163,-159.7424702,-27.27516484,-18.93835149,-27.46715148,-0.944187919,-16.41412375,-27.75582481,-30.43347929,-23.9442137,-210.9273996,-27.83735314,-33.41646218,-18.09120791,7.317568631,,,,
709.1199995,2770,36.31247161,-5.377766257,-157.948211,-27.11858556,-18.68132966,-27.20812024,-0.562890013,-16.23603745,-27.27572913,-30.03186484,-23.90008188,-208.7372471,-27.7214312,-32.96656269,-17.68701386,7.168169673,,,,
709.1279995,2770,35.91519774,-5.326347576,-155.892343,-26.80251356,-18.21804383,-26.79032464,-0.489375877,-15.87660932,-26.84740812,-29.59126693,-23.50050726,-206.2767829,-27.38084242,-32.49581595,-17.21534875,7.120349615,,,,
709.1359995,2770,35.49295393,-5.224855907,-154.0149997,-26.48467571,-18.27294936,-26.45888392,-0.613651946,-15.6275536,-26.69776047,-29.34629631,-23.12101328,-203.9787935,-27.0891756,-32.32099331,-17.1211629,7.239076994,,,,
709.1439995,2770,35.08137028,-5.131181739,-152.2956266,-26.07750194,-18.15897306,-26.4000699,-0.482940287,-15.5509087,-26.50078883,-28.92286973,-23.0406478,-201.7518462,-26.76120632,-31.92153716,-16.82384813,7.117778902,,,,
709.1519995,2770,34.5034013,-5.141642964,-150.1412007,-25.76906936,-17.85801252,-25.8442789,-0.437747742,-15.22023708,-26.07634614,-28.55975085,-22.61171814,-199.2139171,-26.34742252,-31.57144255,-16.59736156,6.952807698,,,,
709.1599995,2770,34.17576607,-5.249785591,-148.216712,-25.64476453,-17.65817647,-25.39075366,-0.611835523,-15.01538516,-25.67833938,-28.34032334,-22.33711864,-196.9310233,-26.06238835,-31.22979888,-16.45784961,6.950366341,,,,
709.1679995,2770,33.8733323,-5.230485476,-146.3391097,-25.23353336,-17.19330928,-25.39350914,-0.560676494,-14.9028897,-25.49458347,-28.01806211,-22.16925628,-194.6663143,-25.65871115,-30.85995376,-16.19266549,6.876416646,,,,
709.1759995,2770,33.34248701,-4.938599129,-144.2091658,-24.85509965,-17.11705186,-24.96355981,-0.538975357,-14.63660943,-25.32363699,-27.68429906,-21.77488406,-192.2073103,-25.38139706,-30.37624673,-16.06766465,6.696948513,,,,
709.1839995,2770,32.69034192,-4.692437941,-142.5816629,-24.46842287,-17.11301506,-24.35707697,-0.564427015,-14.60300746,-24.97012418,-27.1938646,-21.61500345,-189.8293368,-25.28354,-29.87770717,-15.98131148,6.635500669,,,,
709.1919995,2770,32.37555952,-4.802703376,-140.8310544,-24.11857932,-16.7738299,-24.10750978,-0.605253971,-14.69659027,-24.76713656,-26.93668423,-21.70821842,-187.4696034,-24.90835017,-29.48432353,-15.73952457,6.643227613,,,,
709.1999995,2770,32.15709073,-4.841577735,-138.8150739,-24.0853781,-16.47793152,-23.7365251,-0.616281377,-14.33155563,-24.38208913,-26.49909062,-21.32767212,-185.1130394,-24.45112147,-28.95596872,-15.64090631,6.503415613,,,,
709.2079995,2770,31.72468311,-4.605601686,-136.9494986,-23.88794029,-16.24494614,-23.4826418,-0.441283916,-14.02577704,-23.84804348,-26.04737479,-20.72351504,-182.921029,-24.18578764,-28.64045661,-15.37876711,6.32277463,,,,
709.2159995,2770,31.32119941,-4.837932525,-134.9661858,-23.47007035,-16.18583541,-23.39694692,-0.462240836,-14.05872023,-23.7968373,-26.10751435,-20.51100858,-180.807834,-24.06547849,-28.51705732,-15.03152963,6.111259036,,,,
709.2239995,2770,30.7373669,-4.852427547,-132.9365684,-23.1663906,-16.10112502,-22.90663913,-0.529294567,-13.96254556,-23.59913815,-25.72551754,-20.27445598,-178.3366746,-23.68565724,-28.13159577,-14.94441446,6.052340418,,,,
709.2319995,2770,30.1314817,-4.308808754,-131.1060654,-22.90909398,-15.96433791,-22.49987305,-0.593858342,-13.73918198,-23.07484972,-25.2146393,-19.89090358,-175.8984531,-23.15816917,-27.71207439,-14.64771178,6.223919837,,,,
709.2399995,2770,29.76847306,-4.38795017,-129.3187847,-22.58410247,-15.77065633,-22.26137866,-0.653126986,-13.50348951,-22.78706088,-24.93559868,-19.60547717,-173.7114964,-22.95328944,-27.37992513,-14.41998926,6.086502506,,,,
709.2479995,2770,29.6400917,-4.365477883,-127.309384,-22.25661978,-15.31200391,-22.05619825,-0.553543461,-13.38448154,-22.60893294,-24.62735359,-19.41526962,-171.3554948,-22.70622574,-27.00925606,-14.3854724,5.872473553,,,,
709.2559995,2770,29.46968857,-4.223196431,-125.4076489,-21.84287886,-14.92422898,-21.95337608,-0.495971045,-13.1787949,-22.25179056,-24.3087708,-19.1978608,-169.0570037,-22.49549079,-26.71402464,-14.22655542,5.760740533,,,,
709.2639995,2770,28.91780053,-4.396769012,-123.6626541,-21.50664197,-14.83178129,-21.60580642,-0.357062327,-12.86188138,-21.86076102,-23.94334939,-18.95358198,-166.6771811,-22.24469149,-26.4012201,-14.04471697,5.677584797,,,,
709.2719995,2770,28.5763595,-4.174717253,-121.7741144,-21.38374834,-14.69883749,-21.23205507,-0.429300308,-12.63297517,-21.59614044,-23.66524061,-18.6407213,-164.3092743,-21.70823368,-25.93380769,-13.8511359,5.751650409,,,,
709.2799995,2770,28.35864772,-4.177029978,-119.9335379,-21.04924572,-14.48948136,-20.96802754,-0.622533492,-12.45306987,-21.18868596,-23.25142473,-18.45912576,-162.1655037,-21.49932768,-25.44821973,-13.72676066,5.641284479,,,,
709.2879995,2770,27.76389742,-4.184227621,-118.2478359,-20.63021186,-14.27872571,-20.73848224,-0.493135401,-12.40301309,-20.88465858,-22.8499555,-18.4594136,-159.803864,-21.32358462,-25.11573203,-13.56166115,5.427121402,,,,
709.2959995,2770,27.26325309,-3.941842034,-116.2118146,-20.37567884,-14.11994979,-20.38621961,-0.405068573,-12.29696726,-20.74858196,-22.62808507,-18.03223571,-157.4652687,-20.88556461,-24.85114766,-13.23430274,5.309627083,,,,
709.3039995,2770,26.87473265,-4.098699896,-114.3126854,-20.18361134,-13.8827637,-20.002714,-0.421454925,-11.89628669,-20.42446318,-22.34578095,-17.53910173,-155.2357289,-20.67403315,-24.56020089,-13.03763587,5.372307711,,,,
709.3119995,2770,26.60101496,-4.11019058,-112.7379912,-19.89508122,-13.41188648,-19.96347352,-0.328595891,-11.66740793,-20.11442071,-21.98063932,-17.41085862,-153.0899083,-20.28553867,-24.3842531,-12.95146217,5.403463562,,,,
709.3199995,2770,26.39202203,-3.956172399,-110.6697347,-19.44808367,-13.42589101,-19.65419749,-0.389034607,-11.54272143,-19.73143902,-21.71368837,-17.04595704,-151.0423752,-19.7793602,-24.02888911,-12.63874606,5.24825814,,,,
709.3279995,2770,25.8606114,-3.931080243,-108.7578026,-19.17897956,-13.51894573,-19.16727006,-0.492644155,-11.2193261,-19.40021986,-21.50559245,-16.74935799,-148.5620389,-19.76121657,-23.45936643,-12.53163212,5.250110118,,,,
709.3359995,2770,25.24265782,-3.868346744,-107.0015581,-19.01929202,-13.07442596,-19.0045965,-0.272336167,-11.237914,-19.27762478,-21.03130564,-16.70410519,-146.335355,-19.56004355,-23.06293465,-12.41933735,5.086243984,,,,
709.3439995,2770,24.83846066,-3.693750078,-105.2395031,-18.79338509,-12.84392107,-18.7395411,-0.317315725,-11.14330293,-18.95755347,-20.55207521,-16.35042585,-144.3735399,-19.07250009,-22.74645396,-11.89041084,4.855856976,,,,
709.3519995,2770,24.60501279,-3.480648195,-103.7053108,-18.39109379,-12.69499915,-18.34482742,-0.410684681,-10.79229927,-18.46805407,-20.30038142,-16.09051356,-141.8028262,-18.94311558,-22.4958994,-11.84398463,4.808740991,,,,
709.3599995,2770,24.29055332,-3.514481384,-101.7922641,-18.07470131,-12.22350553,-17.95869658,-0.120583007,-10.6399968,-18.21621067,-20.10968597,-16.14166468,-139.5706508,-18.55826964,-22.08596767,-11.74729604,4.671713275,,,,
709.3679995,2770,23.77970028,-3.569683324,-99.87171078,-18.01641148,-12.01890477,-17.69474686,-0.130988777,-10.28425957,-18.1147736,-19.70472031,-15.94009687,-137.5005911,-17.93509622,-21.53744996,-11.31147788,4.709679476,,,,
709.3759995,2771,23.42443781,-3.509513131,-97.99702116,-17.61974472,-12.13985287,-17.41185714,-0.403679803,-10.2025467,-17.7521004,-19.38165324,-15.38881051,-135.0573913,-17.79697546,-21.2040306,-11.22410836,4.67028007,,,,
709.3839995,2771,23.12715895,-3.436448099,-96.00814853,-17.14040676,-11.98205904,-17.14501815,-0.449798312,-10.51996737,-17.37523293,-19.25631884,-15.05675424,-132.9744086,-17.62287967,-20.91604287,-11.11184135,4.304940034,,,,
709.3919995,2771,22.56137627,-3.425535741,-94.34975306,-16.81730919,-11.63211002,-17.1043993,-0.117187132,-10.27057519,-17.2332408,-18.7099121,-14.88488878,-130.6356419,-17.45047099,-20.73791375,-10.92213611,4.166348667,,,,
709.3999995,2771,22.17510551,-3.385032492,-92.75048354,-16.37527668,-11.36899117,-16.69007745,-0.137406236,-9.803635951,-16.97314973,-18.4296904,-14.53399961,-128.171794,-17.22647693,-20.41056037,-10.5745328,4.214744863,,,,
709.4079995,2771,21.89405752,-3.122952658,-90.98539719,-16.17226344,-11.28272269,-16.24750676,-0.51661422,-9.896581448,-16.60245658,-18.169382,-14.41661299,-126.2023636,-16.64032121,-19.78531843,-10.55111326,4.047134304,,,,
709.4159995,2771,21.58562407,-3.095086183,-89.02881223,-16.08900138,-11.20356754,-16.16130847,-0.422959411,-9.827498125,-16.31209355,-17.55473347,-14.29139979,-124.0767036,-16.47988435,-19.55095915,-10.67720065,3.938416446,,,,
709.4239995,2771,21.29120314,-3.338450814,-87.13827719,-15.70288986,-10.96229499,-15.79922502,-0.272392318,-9.309694801,-16.00871313,-17.5020217,-13.76536342,-121.8746795,-16.47995031,-19.34126557,-10.30172627,3.961781791,,,,
709.4319995,2771,20.6523688,-3.157479651,-85.61731928,-15.52705614,-10.62463272,-15.59253807,-0.284228988,-9.171449759,-15.83964509,-17.16449953,-13.47646174,-119.6904666,-15.9339956,-18.89377659,-10.12296104,3.913060425,,,,
709.4399995,2771,20.23329065,-2.788610573,-83.82744627,-15.43985533,-10.27474682,-15.22082198,-0.196910803,-9.158644665,-15.63062714,-16.70210793,-13.42921044,-117.533347,-15.40006167,-18.65714278,-9.841143911,3.966787008,,,,
709.4479995,2771,20.06306445,-2.930309571,-81.87379607,-14.83674765,-10.17291692,-14.50284319,-0.112774797,-8.857146269,-15.18565586,-16.4896989,-13.06883881,-115.4348067,-15.30058828,-18.18218675,-9.585304131,3.828782632,,,,
709.4559995,2771,19.63792827,-2.931789481,-80.28872028,-14.44253844,-10.0492032,-14.56903996,-0.229544391,-8.66555164,-14.79261047,-16.06000586,-12.89351221,-112.9828328,-14.88570173,-17.74691885,-9.555344996,3.685778207,,,,
709.4639995,2771,19.26194688,-2.664360793,-78.4088839,-14.47882647,-9.87323684,-14.55570944,-0.247923895,-8.661872876,-14.62530146,-15.95182643,-12.73575232,-110.7099057,-14.47709593,-17.6000339,-9.229741562,3.77782444,,,,
709.4719995,2771,19.02038164,-2.788587729,-76.57423222,-14.14595995,-9.642001931,-13.97108991,-0.126023956,-8.521589634,-14.29988681,-15.58052001,-12.24106113,-108.8467597,-14.40877686,-17.19671204,-9.173818805,3.508364773,,,,
709.4799995,2771,18.70701658,-2.958523583,-75.01076205,-13.63858801,-9.226361237,-13.71632087,-0.263410847,-8.198531142,-13.72717962,-15.29270651,-12.0540614,-106.6390066,-13.98068143,-16.78968182,-8.999381271,3.468659232,,,,
709.4879995,2771,18.25075501,-2.892337571,-73.07312819,-13.4658106,-9.344249954,-13.614063,-0.243805877,-8.040461353,-13.61667761,-15.28306387,-11.81457112,-104.3192954,-13.83883221,-16.5046617,-8.675969354,3.476516158,,,,
709.4959995,2771,17.86199822,-2.533993761,-71.49365141,-13.23023713,-9.314854996,-13.41470779,-0.103528761,-7.902859404,-13.38817022,-14.81159686,-11.58841992,-102.2377106,-13.65774773,-16.26792565,-8.647607551,3.016472884,,,,
709.5039995,2771,17.54654183,-2.433602152,-69.88155925,-12.9187741,-8.805809223,-13.0549389,-0.191534649,-7.771065869,-13.05266264,-14.42322375,-11.53261025,-100.101285,-13.26254223,-16.03781642,-8.314540539,3.231187888,,,,
709.5119995,2771,17.19826064,-2.684300535,-67.89261739,-12.76063827,-8.800209166,-12.64352841,-0.174819537,-7.663004779,-12.9785416,-14.06161299,-11.2045792,-98.0182115,-13.15471702,-15.59176117,-8.060342774,3.314034912,,,,
709.5199995,2771,16.87390363,-2.663438425,-66.44148681,-12.32462396,-8.624930254,-12.40012203,-0.122281864,-7.366211346,-12.26381408,-13.87889855,-11.01645466,-95.91733682,-12.76439102,-15.05941717,-7.970462295,2.988765689,,,,
709.5279995,2771,16.42564951,-2.541470553,-64.80940733,-12.10503614,-8.358971849,-12.10401346,-0.159500925,-7.232204282,-11.84259931,-13.67053792,-10.82003828,-93.8812897,-12.50878975,-14.7417328,-7.7167044,2.980746842,,,,
709.5359995,2771,15.81887901,-2.313957692,-62.76688767,-12.06632712,-8.357951069,-11.86857826,-0.182805569,-7.06024247,-11.94787912,-13.12667844,-10.5479938,-91.75145216,-12.29054589,-14.56643747,-7.51783427,2.832040265,,,,
709.5439995,2771,15.41432673,-2.281669055,-61.10211469,-11.50085265,-7.986431012,-11.56553957,-0.174851251,-6.830352198,-11.75801083,-12.76581427,-10.24581887,-89.42116127,-11.97866119,-14.21834792,-7.432751637,2.944082242,,,,
709.5519995,2771,15.18437451,-2.310562371,-59.51450448,-11.18703944,-7.893542277,-11.12868875,-0.03952888,-6.780692746,-11.61151587,-12.39477702,-9.907811512,-87.49822919,-11.73643488,-13.56156867,-7.327795646,2.776937635,,,,
709.5599995,2771,14.8450934,-2.051377594,-57.76106814,-10.83913549,-7.882706793,-11.03187801,-0.074619622,-6.547561016,-11.167825,-12.2275405,-9.85196879,-85.31964543,-11.28334749,-13.16003521,-7.047879527,2.601667662,,,,
709.5679995,2771,14.72290656,-1.938667158,-56.16619373,-10.38963754,-7.298509583,-10.68034319,-0.192875243,-6.374126296,-10.70011652,-11.96232186,-9.609829682,-83.03718554,-11.08438292,-13.25020611,-7.002280308,2.756939874,,,,
709.5759995,2771,14.30995256,-2.011552225,-54.53612388,-10.49196926,-7.122796884,-10.28634301,-0.130038396,-6.384394417,-10.5990704,-11.45810192,-9.35636624,-81.17603039,-10.8299903,-12.733966,-7.018820353,2.404754062,,,,
709.5839995,2771,13.65485738,-2.132842731,-52.73737851,-10.28912139,-7.214930429,-10.3896717,-0.15505542,-6.156035644,-10.46329421,-11.40360738,-9.270805869,-78.84249021,-10.60499664,-12.2024962,-6.667613971,2.302688973,,,,
709.5919995,2771,13.56178069,-1.94529384,-50.99888528,-9.953212514,-6.844616433,-9.95893177,-0.172464433,-5.885520921,-10.06172527,-11.0135958,-8.804447526,-76.89291527,-10.5698131,-12.27854848,-6.499949465,2.343747107,,,,
709.5999995,2771,13.13765257,-1.774456743,-49.30217975,-9.72534557,-6.677275915,-9.437904851,-0.159347026,-5.746754983,-9.546655989,-10.52835148,-8.411584084,-75.23513738,-9.940881985,-11.71673957,-6.438331323,2.186531897,,,,
709.6079995,2771,12.67009742,-1.808073132,-47.61092529,-9.373838719,-6.607022082,-9.3736355,-0.060989137,-5.578110813,-9.447529258,-10.49705385,-8.367842873,-72.84812261,-9.490836463,-11.29902448,-6.052215928,2.223237686,,,,
709.6159995,2771,12.53098346,-1.668882071,-46.08727571,-9.296873064,-6.258770136,-9.099179917,0.070760952,-5.434486862,-9.212708394,-10.07087596,-8.160603706,-70.71068561,-9.536196242,-11.24939436,-5.982877904,2.109550344,,,,
709.6239995,2771,11.94573915,-1.65495646,-44.36593227,-9.031008868,-6.076674042,-8.805807816,-0.073174912,-5.183714303,-8.947407431,-9.631869133,-7.974996995,-68.77124679,-9.252155109,-10.70513283,-5.955720994,2.046733713,,,,
709.6319995,2772,11.47476374,-1.700884172,-42.51485277,-8.516386525,-5.951567347,-8.582671052,-0.193182399,-4.851722666,-8.855477269,-9.50970738,-7.705993585,-66.76727292,-8.867100604,-10.46436831,-5.623116654,2.303326737,,,,
709.6399995,2772,11.22673125,-1.718865756,-41.16272787,-8.294864296,-5.742052949,-8.415187259,-0.080025341,-4.716622641,-8.334889521,-9.343160873,-7.144489903,-64.75045846,-8.621338132,-10.27814729,-5.432574702,2.054204672,,,,
709.6479995,2772,10.96447696,-1.734772211,-39.55765593,-8.083444611,-5.568382677,-8.208238675,0.041568895,-4.700917197,-8.056056453,-9.140575355,-6.975245871,-62.71642699,-8.41410966,-9.8819725,-4.935150836,1.588357658,,,,
709.6559995,2772,10.64421308,-1.651483091,-37.77789804,-7.766516695,-5.397833279,-7.858015392,0.024997689,-4.540427696,-7.873166186,-8.840574236,-6.834360942,-60.8134781,-8.141517398,-9.652269113,-4.709534366,1.663729637,,,,
709.6639995,2772,10.27007626,-1.581724995,-36.20007334,-7.54545084,-5.170710113,-7.579845555,-0.053725602,-4.418811597,-7.544507843,-8.426515799,-6.57394087,-58.60900009,-7.840303763,-9.191302168,-4.935376299,1.684048289,,,,
709.6719995,2772,10.01872158,-1.408220932,-34.44951571,-7.280938465,-4.879584344,-7.200985522,-0.038126354,-4.453063574,-7.28714789,-8.124909293,-6.446756326,-56.47369953,-7.474793142,-8.735459274,-4.856456345,1.568520302,,,,
709.6799995,2772,9.621519145,-1.22080217,-33.03746819,-6.858362394,-4.617517955,-6.936692939,0.081595546,-4.21404381,-6.942030924,-7.900477891,-6.111664599,-54.44731888,-7.070131077,-8.475391969,-4.558992448,1.420758075,,,,
709.6879995,2772,9.214645363,-1.269944905,-31.46578141,-6.60601547,-4.522592058,-6.826231971,0.04007985,-4.005022626,-6.926866979,-7.342449508,-6.055477144,-52.36657578,-6.932134238,-8.292561198,-4.228894191,1.35105832,,,,
709.6959995,2772,8.892603516,-1.241972844,-29.62871124,-6.507827215,-4.522782201,-6.494307168,-0.065367407,-3.974512694,-6.588411763,-7.010908376,-5.86793662,-50.49511159,-6.789716924,-7.982329286,-4.210695298,1.3278799,,,,
709.7039995,2772,8.570575038,-1.079289418,-28.14382055,-6.045075248,-4.366434916,-6.146601267,0.062363578,-3.752307968,-5.996922775,-6.979473323,-5.541685174,-48.45180205,-6.50388812,-7.456672674,-4.142005431,1.201656133,,,,
709.7119995,2772,8.223652578,-1.072238992,-26.62089896,-5.896915329,-4.214765236,-6.073791538,0.043450705,-3.670492151,-5.975549932,-6.542527829,-5.468958782,-46.35455256,-6.227783587,-7.305907403,-3.925753369,1.252718905,,,,
709.7199995,2772,7.913033814,-1.172237219,-24.94280146,-5.927525803,-4.048537613,-5.943067377,-0.021506575,-3.55556364,-5.729583806,-6.229934794,-4.984535318,-44.57841965,-6.053449563,-7.10582613,-3.756414274,1.058757999,,,,
709.7279995,2772,7.6031264,-1.257684569,-23.25213258,-5.424437739,-3.735790717,-5.642569121,0.194893212,-3.306520881,-5.455543362,-6.014806665,-4.76760107,-42.68038657,-5.809873739,-6.749162659,-3.572470499,0.789422977,,,,
709.7359995,2772,7.124641102,-1.235805508,-21.78022266,-5.152494151,-3.466968283,-5.435908865,0.153160976,-3.139874545,-5.380303985,-5.852106743,-4.704913728,-40.5739833,-5.361249894,-6.659294126,-3.492995708,0.920039214,,,,
709.7439995,2772,6.816147539,-1.197686069,-20.31911475,-4.910916612,-3.273616448,-4.977193628,-0.038165278,-2.918950245,-4.914683334,-5.818123559,-4.495331756,-38.66646362,-5.041760853,-6.147299404,-3.191313026,1.057495003,,,,
709.7519995,2772,6.497707558,-1.098945196,-18.69432109,-4.678115627,-3.29481302,-4.633175662,0.038727359,-2.819443827,-4.555749965,-5.297370469,-4.334449734,-36.86285499,-4.83061131,-5.675844098,-2.982773843,0.792139894,,,,
709.7599995,2772,6.247378989,-0.91102741,-17.02636769,-4.430382398,-3.226447891,-4.526262903,-0.036949424,-2.704556821,-4.257027339,-4.902440463,-3.810166025,-34.88011887,-4.661307378,-5.611344789,-2.918364312,0.629519994,,,,
709.7679995,2772,6.073703992,-0.855563749,-15.35272652,-4.01278581,-2.861926048,-4.131531352,-0.13178959,-2.487135372,-3.90851111,-4.725043828,-3.616886016,-32.75037953,-4.379146182,-5.242107755,-2.845287248,0.775431468,,,,
709.7759995,2772,5.570870371,-0.919863196,-13.97698975,-4.120400475,-2.587205505,-3.834006624,0.036803069,-2.317807917,-3.763132167,-4.348192573,-3.458369809,-30.89631387,-3.979049803,-4.812692653,-2.760874803,0.582030426,,,,
709.7839995,2772,5.285610372,-0.811463167,-12.56632412,-3.915640761,-2.527396191,-3.545534148,0.200480111,-2.144559647,-3.582520315,-4.198240188,-3.289251823,-29.14019131,-3.849240866,-4.396736946,-2.311741146,0.591473036,,,,
709.7919995,2772,4.842066994,-0.731951418,-11.00341273,-3.455459425,-2.483301087,-3.328267768,0.11965695,-1.938198485,-3.417607001,-3.908876275,-3.270300444,-27.1439258,-3.759771102,-4.152375876,-2.236427864,0.608395596,,,,
709.7999995,2772,4.277123442,-0.813453408,-9.388911732,-3.376988513,-2.196851216,-3.295804971,-0.016884148,-1.93851921,-3.092953148,-3.454971194,-2.898014699,-25.24015785,-3.397561472,-4.152523283,-2.169304362,0.312348988,,,,
709.8079995,2772,4.20355553,-0.529993906,-7.75479161,-3.00894772,-2.070483465,-2.791295084,0.142174609,-1.929156563,-2.870066539,-3.297058113,-2.874561191,-23.39713879,-3.191598037,-3.593602764,-1.765768185,0.369713945,,,,
709.8159995,2772,4.002939705,-0.578715854,-6.302365165,-2.596248498,-2.089862497,-2.461232105,0.010169047,-1.557342576,-2.721592315,-3.076649241,-2.667134166,-21.39912777,-3.175051045,-3.054197421,-1.906227892,0.281073366,,,,
709.8239995,2772,3.592561618,-0.724634056,-4.687573317,-2.421967887,-1.82095229,-2.494598131,-0.009402143,-1.50759926,-2.273925495,-2.891908927,-2.116822293,-19.28506656,-2.851743615,-3.028971146,-1.788397491,0.11999519,,,,
709.8319995,2772,3.142466454,-0.24664905,-3.138824647,-2.26259604,-1.447344027,-2.15907184,0.347933504,-1.498384971,-2.166060833,-2.681049321,-1.969798693,-17.35097366,-2.424294353,-2.779196563,-1.204185448,0.137598881,,,,
709.8399995,2772,2.857823021,-0.279424017,-1.778864859,-1.963045281,-1.193890856,-1.957693688,0.119511621,-1.189177336,-2.05668756,-2.076059559,-1.868584485,-15.60184387,-2.198988757,-2.483379289,-1.199040933,-0.106111157,,,,
709.8479995,2772,2.529588861,-0.425857016,-0.27550959,-1.741946268,-1.176876326,-1.627987556,0.145136993,-1.072884914,-1.711053278,-1.791317883,-1.700087292,-13.74239008,-2.005011225,-2.204710996,-1.312183695,-0.209340675,,,,
709.8559995,2772,2.091532835,-0.103562716,1.22108669,-1.555208692,-0.988260903,-1.310361868,0.39678658,-0.959352643,-1.560530522,-1.742532057,-1.4393535,-11.94210804,-1.677709075,-1.731294893,-0.823768713,-0.094130477,,,,
709.8639995,2772,2.050229708,-0.007142439,2.836790126,-1.159534644,-0.692310279,-1.380283404,0.205177554,-0.918244713,-1.232779679,-1.231378285,-1.160984769,-10.01385805,-1.359760535,-1.518547694,-0.638099896,-0.180633125,,,,
709.8719995,2772,1.75929467,-0.08541988,4.443803275,-0.975458479,-0.664313205,-1.101523686,0.139133079,-0.602496191,-0.801187375,-0.869966642,-0.974122394,-8.099141033,-1.140483171,-1.428842793,-0.812444102,-0.317267298,,,,
709.8799995,2772,1.124496596,-0.091029461,5.654265618,-0.826938671,-0.478252651,-0.783298189,-0.003924099,-0.271392593,-0.594754379,-0.751667083,-0.748023242,-6.435479369,-0.848811035,-1.153945517,-0.638259186,-0.28991166,,,,
709.8879995,2773,0.844886805,-0.17701562,6.944771184,-0.517831127,-0.244357648,-0.618256911,-0.044455872,-0.350745725,-0.613865906,-0.560496455,-0.600251471,-4.481411746,-0.659391664,-0.834265138,-0.527965571,-0.189682683,,,,
709.8959995,2773,0.663536344,-0.192184029,8.597768312,-0.25070405,-0.192183693,-0.510112279,0.098653948,-0.211990457,-0.362972235,-0.578414218,-0.327626404,-2.642682761,-0.527639686,-0.400253749,-0.391312504,-0.408159292,,,,
