Time:125Hz,Epoch,FP1,FP2,C3,C4,P7,P8,O1,O2,F7,F8,F3,F4,T7,T8,P3,P4,Event Id,,,
618.7439996,2416,0,0,-89.97712933,-146.4789907,-20.38224033,-54.47044227,-88.82506001,-82.38264207,-13.58987877,-92.59307966,-11.64237996,-61.98220428,4.375808347,-35.95780301,-71.72695157,-14.25857749,1111,,,
618.7519996,2417,0,0,35.57850221,-2.875788387,51.25795588,86.63887424,6.205054181,50.23985866,-52.96510173,-122.5385007,-71.54199497,-118.116424,-35.22209683,-65.77778594,-358.8076374,-98.21961736,,,,
618.7599996,2417,0,0,-13.68859342,-76.8499201,53.14178379,24.81713514,-16.36415742,-20.73658441,64.09446898,-9.148492333,51.63658679,-5.341942537,80.61882611,47.54193221,-247.0367286,40.15086416,,,,
618.7679996,2417,0,0,-48.60521295,-91.08076304,-27.36860339,-14.71528992,-85.49588608,-52.91929138,-92.46331009,-168.3200073,-93.06126663,-142.3582996,-79.84447861,-112.6414179,-138.1080138,-109.7008655,,,,
618.7759996,2417,0,0,103.9604118,50.71773428,139.9326347,129.9119538,64.13360122,100.602927,83.23368425,10.76578296,55.86926913,4.918620267,100.4216562,67.18737488,-396.8273885,16.19902456,,,,
618.7839996,2417,0,0,-58.072883,-123.0738873,-12.02273742,-39.42120964,-78.20357526,-65.24105321,26.64506726,-59.32169722,24.03962266,-28.43423673,41.82306342,-3.996514927,-32.77523473,17.02426373,,,,
618.7919996,2417,0,0,42.76006672,-1.038881828,46.56536725,85.69843567,16.85701764,41.03730689,-39.30031172,-113.8331797,-61.61444668,-99.53234558,-26.80957442,-66.26007231,-333.2310932,-91.98992072,,,,
618.7999996,2417,0,0,-13.55167963,-80.36633543,43.92512665,10.67532375,-15.27364225,-29.90094987,74.60552241,-4.283348237,59.41214652,10.70632411,91.97775389,46.5299692,-234.2908933,49.27677914,,,,
618.8079996,2417,0,0,-48.34606829,-97.53973503,-36.35538846,-14.75451581,-81.20304061,-51.74902436,-79.06494589,-163.6642028,-84.55080447,-131.0467641,-71.11288516,-104.733527,-131.5306203,-99.35204881,,,,
618.8159996,2417,0,0,85.62328395,30.5510456,122.6059022,127.9973202,73.10892737,84.99086201,58.21996227,-17.3051995,29.24850722,-13.71450976,68.48684404,44.31614187,-399.9664774,6.84839786,,,,
618.8239996,2417,0,0,-70.70203109,-134.5315145,-20.10714209,-39.19544187,-84.33361417,-81.09527092,-3.13996991,-90.45175797,-1.838998806,-48.89574139,11.87541447,-29.05009814,-48.22807087,21.87134256,,,,
618.8319996,2417,0,0,67.93157409,14.48611601,81.47237322,114.475082,31.63251702,61.10793,-27.02207081,-110.7558191,-47.25353935,-91.91040947,-21.10437944,-52.00903303,-331.4399915,-53.4294295,,,,
618.8399996,2417,0,0,17.31458265,-68.67997605,85.42755376,30.78996793,15.81963547,-5.996931334,91.1313522,1.485045233,73.58860267,20.51973181,100.6081792,58.53454175,-212.8846814,88.0908835,,,,
618.8479996,2417,0,0,-32.86927133,-103.0754283,-19.81833194,-27.40975391,-77.10522668,-58.63095439,-72.00304235,-167.3933861,-83.12204773,-131.6254338,-66.4185545,-117.153569,-130.0965845,-71.6810515,,,,
618.8559996,2417,0,0,107.6778946,28.58680437,134.5122317,109.8144122,71.97150155,61.75889758,77.99966036,-7.172059804,43.55796644,-10.86309225,76.54548524,37.63583097,-404.6654857,30.53448961,,,,
618.8639996,2417,0,0,-38.2531903,-126.7678532,-36.96045734,-55.1891756,-74.85386342,-91.04011666,20.52256217,-66.46032607,17.19836967,-42.05055187,21.11577633,-21.16901398,-48.53108556,36.79494059,,,,
618.8719996,2417,0,0,91.8826493,24.51530232,-10.3776628,100.724974,19.88855327,72.12689311,-4.614619879,-80.80246517,-32.28956035,-84.63776672,-10.6210898,-40.63698454,-337.8392558,-40.66772232,,,,
618.8799996,2417,0,0,27.62670344,-57.53810354,-54.83901595,32.89326092,-5.567203686,0.796975984,109.9187929,34.3782626,87.01818049,25.53628902,106.0475905,70.41309125,-207.7716589,111.402209,,,,
618.8879996,2417,0,0,-40.86332918,-101.6914578,-161.2409849,-32.88937622,-92.58875016,-64.51973184,-73.62748523,-146.8094759,-86.11710018,-140.7657027,-72.26281292,-111.5357345,-119.0390901,-53.34600217,,,,
618.8959996,2417,0,0,85.33841123,23.64209008,10.64223253,103.5508197,52.9053742,68.8806449,61.85028966,0.300572611,24.09447878,-31.62438968,55.47012918,30.52970566,-394.2610077,35.63148597,,,,
618.9039996,2417,0,0,-46.95714717,-111.9779414,-91.58608204,-23.76969838,-73.79420631,-66.80761266,19.81360081,-47.75357278,10.30686276,-48.51588542,12.43279485,-22.94008499,-20.18962486,58.98927098,,,,
618.9119996,2417,0,0,76.68200579,27.20370888,11.23096262,117.2342759,42.44094181,73.84483763,-3.491333707,-65.58178634,-35.24472158,-87.51048413,-3.823256033,-43.48069808,-293.1696382,-10.60596771,,,,
618.9199996,2417,0,0,15.14162351,-58.38230485,16.68679392,39.52434014,35.93972148,2.875669723,96.76086351,32.65110017,74.88146758,10.77914671,98.66332453,53.21176195,-172.5057983,120.0966307,,,,
618.9279996,2417,0,0,-11.94720842,-64.64527242,-48.36306308,12.16946337,-40.89073498,-30.21831213,-52.3258318,-118.8952214,-63.06315699,-123.4813499,-52.91638825,-99.00304938,-90.01454537,-29.79731148,,,,
618.9359996,2417,0,0,99.1089234,39.20521651,94.92124025,111.6775713,77.49755173,83.92240568,106.2270411,42.88118017,69.52595244,4.582224963,103.7194307,63.62446225,-358.6840678,74.07511344,,,,
618.9439996,2417,0,0,-80.82038686,-145.2025904,-71.33781593,-86.50394819,-83.21568537,-94.61296512,10.70938728,-56.66162057,5.313191328,-64.80002877,8.43354217,-37.30056427,-26.78676394,46.76780194,,,,
618.9519996,2417,0,0,40.23896787,-9.111315888,10.18216248,39.09401582,3.380289103,30.8549924,-52.34285498,-108.3174523,-78.49203966,-140.7888512,-50.15705142,-88.56453947,-350.8414064,-70.97169737,,,,
618.9599996,2417,0,0,-15.90566877,-93.78155558,4.28974601,-34.88072981,-25.53836528,-37.87388068,60.79997366,-2.308076734,40.88699357,-34.58651774,69.82858331,17.28747895,-225.9424393,65.08258912,,,,
618.9679996,2417,0,0,-49.7830563,-108.0213968,-73.32715937,-59.72423745,-92.2668975,-75.70514876,-84.89267841,-150.6499783,-95.18323754,-167.7748001,-74.48778548,-137.4040788,-135.7823041,-69.53807298,,,,
618.9759996,2417,0,0,80.78655501,15.17668643,87.01712601,75.62526633,58.58962057,55.98287427,61.54213946,6.112471849,29.01382122,-42.38846864,72.57270602,22.95727395,-395.1485835,31.53478217,,,,
618.9839996,2417,0,0,-70.41454075,-141.2114484,-50.62512535,-74.88268853,-79.96925577,-83.6074326,-9.570889238,-71.08898363,-10.0431354,-82.48424132,1.13334439,-48.96615964,-26.66078562,30.99618808,,,,
618.9919996,2417,0,0,50.55021525,1.51380363,41.43220923,60.49347158,17.39288597,43.69925829,-35.66417383,-89.13394701,-59.43718044,-125.5749121,-28.31277038,-65.13677015,-323.9408621,-42.41392117,,,,
618.9999996,2417,0,0,-8.673463844,-77.15457618,35.30460906,-5.142562724,2.649219093,-19.21606751,72.588129,14.77468161,55.26952926,-20.26535738,82.06422463,45.24552867,-206.2616245,90.92087246,,,,
619.0079996,2418,0,0,-36.34242864,-82.68526893,-38.87926797,-13.87410429,-53.3908596,-23.4254889,-81.29558453,-143.6454345,-88.18632656,-153.8301268,-71.83049536,-117.6780864,-127.5668977,-48.57745623,,,,
619.0159996,2418,0,0,91.57454248,37.14433532,123.1556842,111.7079025,88.82846597,103.6073049,74.23126726,17.47202911,44.0712383,-21.71831448,84.31855523,43.69933025,-381.5419281,66.25585418,,,,
619.0239996,2418,0,0,-62.736324,-125.3691447,-21.99655384,-56.99838351,-64.16865137,-61.49275057,0.213607344,-62.85249654,1.817469097,-66.95330626,16.44079815,-27.00298682,-16.39132544,49.43384174,,,,
619.0319996,2418,0,0,62.00398945,15.13301291,61.9808764,60.94652221,24.78550824,60.78899116,-31.33803673,-87.51293521,-51.41281394,-109.9946064,-16.09886382,-55.44888325,-314.3999766,-45.91772218,,,,
619.0399996,2418,0,0,24.91860402,-49.24673346,72.94256516,-9.273460934,27.3410418,-10.13351016,98.69272017,37.62224783,87.8934874,19.21061431,115.8038469,64.45790425,-174.8476048,96.2870708,,,,
619.0479996,2418,0,0,-7.32624319,-64.05077787,-10.98472069,-32.76783151,-31.75187909,-43.89896769,-47.69166059,-111.2820918,-45.31084261,-108.6189727,-27.70425651,-86.12900322,-86.18834712,-49.93418676,,,,
619.0559996,2418,0,0,78.50066374,17.05790666,100.5507316,56.37610543,58.22751038,55.22579912,73.12849534,14.14539355,52.3312114,-10.41179945,87.93267099,38.44361746,-358.8906042,25.45961643,,,,
619.0639996,2418,0,0,-69.78500553,-132.323516,-38.86448734,-99.66021922,-84.478892,-96.14010666,-5.836939644,-73.7203528,2.345190435,-62.78688922,0.904870693,-46.22237198,-15.88293437,4.219877313,,,,
619.0719996,2418,0,0,79.16394225,36.56968667,75.03600378,60.06242068,47.71385084,69.07494172,-20.99810067,-79.89719814,-34.39289898,-89.3419072,-18.40376648,-46.98440173,-311.6731321,-57.24279416,,,,
619.0799996,2418,0,0,19.2294267,-48.72726732,66.34337645,-7.949494733,21.11112576,10.14642978,92.02865793,30.4340534,87.79601091,27.59899723,101.8985313,68.820648,-169.4022347,97.05174049,,,,
619.0879996,2418,0,0,-24.50966646,-72.84184506,-27.32996902,-39.78740255,-53.25760549,-31.23094585,-63.24314383,-130.218171,-60.55877988,-113.4275339,-54.04746897,-93.64164179,-91.02552568,-45.2872369,,,,
619.0959996,2418,0,0,98.48434551,41.77380621,124.1675705,69.33955467,89.67308663,94.42287928,79.74233861,17.6327954,54.57640704,0.789169579,89.8963599,53.67788652,-346.8510288,56.7435368,,,,
619.1039996,2418,0,0,-39.96884837,-105.1792904,-8.281445155,-73.7813008,-42.51903571,-46.21649178,10.49267004,-57.45300014,13.78758458,-40.66939536,26.82009207,-17.2892694,12.74880413,47.90904673,,,,
619.1119996,2418,0,0,92.32422702,41.95566959,81.8486523,67.72949503,63.74284939,89.36711176,-7.855002948,-68.61802371,-26.86896616,-74.02349955,-4.088896753,-32.52024118,-283.9106366,-28.70271589,,,,
619.1199996,2418,0,0,41.52994283,-39.61170188,83.55363696,-27.9189254,43.4690116,14.40918807,112.8451346,45.48110745,103.0920922,42.61660404,111.9938926,71.97596724,-133.5868095,110.884502,,,,
619.1279996,2418,0,0,-4.538863352,-68.79179639,-6.876883138,-61.1935022,-36.55264815,-34.14664323,-36.47993833,-109.6561477,-36.17211864,-93.9402284,-30.479033,-84.32300279,-55.57694232,-39.83455641,,,,
619.1359996,2418,0,0,88.8005749,21.17612435,113.1814195,48.05123477,76.99295275,63.90556268,84.45581873,16.47482741,59.38787419,-0.567995766,90.77023884,47.24693543,-329.9978354,38.76229933,,,,
619.1439996,2418,0,0,-55.71855056,-122.6170965,-29.80866205,-111.1278901,-64.64443265,-87.48606733,-7.64771081,-76.58332139,-3.467374409,-63.60787424,0.551124321,-47.00839345,7.460920973,11.8878948,,,,
619.1519996,2418,0,0,84.75624962,40.75301654,75.46703069,44.52992791,46.60808114,59.08848387,-12.57335605,-67.23985113,-27.96742979,-79.40464431,-4.883718191,-42.22365683,-282.7412256,-42.98998185,,,,
619.1599996,2418,0,0,20.1708623,-44.94281659,66.39903458,-27.30970736,15.65357771,-11.39269433,101.2103116,40.76893855,94.64571445,34.2749037,105.4969093,72.23382602,-128.6638913,105.1801028,,,,
619.1679996,2418,0,0,-11.88629214,-56.73247866,-17.62300508,-37.78409541,-51.21990036,-44.80253946,-60.09482123,-123.7840345,-58.34427706,-111.9378803,-52.10210078,-78.70669157,-58.61335383,-40.17636426,,,,
619.1759996,2418,0,0,90.78034737,36.05306088,120.8206122,77.5627149,88.01602011,52.56626397,81.45081973,21.9747732,60.49645368,2.710035022,95.08820588,68.21025319,-309.4082171,64.29322153,,,,
619.1839996,2418,0,0,-66.86444818,-123.7707836,-22.78801644,-84.57353625,-56.79634092,-70.15155444,-9.449237932,-78.84019664,-1.816547176,-62.59465311,4.419926073,-35.05573224,29.19204353,36.12866516,,,,
619.1919996,2418,0,0,77.52680289,39.35261611,87.81618111,83.72683933,52.25365584,115.6885903,-16.98025018,-76.3131263,-31.73596148,-83.34035249,-5.013004669,-28.12857701,-269.9133736,-13.29313277,,,,
619.1999996,2418,0,0,0.206708151,-70.5470071,70.13580341,-14.10231796,27.18007375,10.67151819,88.82939853,21.65511537,83.51446849,22.35729768,97.14231322,65.26380353,-115.145848,124.9996724,,,,
619.2079996,2418,0,0,-36.3095259,-95.80942689,-26.07805605,-76.61354551,-37.01985579,-42.3903347,-85.12204167,-163.398681,-84.51088184,-141.253099,-73.53299955,-123.89949,-62.61758789,-64.00368866,,,,
619.2159996,2418,0,0,84.87704072,14.75427009,111.4645822,36.36173652,100.1500403,70.86071865,70.06601815,-8.408420114,45.69135784,-13.99594775,88.38531249,38.38815536,-309.0469446,32.04149996,,,,
619.2239996,2418,0,0,-53.64863591,-123.0955771,-11.12278607,-96.21903598,-30.94422355,-69.97839323,-5.650280143,-92.54399871,0.361614627,-59.07337546,3.604687641,-45.77938706,43.50760118,13.50361643,,,,
619.2319996,2418,0,0,86.98451049,40.685539,102.1555308,47.20357045,78.44573709,69.21494059,-10.57183077,-87.37860219,-27.89302157,-75.26051066,-4.37115869,-43.81033027,-245.6179461,-42.96042698,,,,
619.2399996,2418,0,0,1.911571965,-65.51161126,68.15310892,-50.44671089,32.18535768,-23.59607262,91.24410267,13.91567746,83.76237741,29.97203148,109.0792225,60.54245687,-89.57673179,95.65812165,,,,
619.2479996,2418,0,0,-20.14726261,-65.99119418,-2.622035778,-40.14178924,-28.80476973,-22.99392378,-70.65404374,-146.9333104,-67.68144004,-113.7599895,-52.89604888,-100.5305899,-41.59312544,-54.72095531,,,,
619.2559996,2418,0,0,83.68599389,27.71133741,128.4105207,80.40543174,95.51575698,73.52362891,74.94797479,0.094213569,54.15177265,7.819138669,93.71702572,48.15784705,-287.8213726,58.07297496,,,,
619.2639996,2419,0,0,-72.85532857,-128.1292005,-23.79988564,-80.00130194,-49.76112661,-82.31586428,-26.40210438,-108.2688162,-18.57883226,-64.13994049,-8.252112856,-54.28316483,46.7987832,24.63131488,,,,
619.2719996,2419,0,0,78.92781821,46.71516629,95.99669852,82.06884373,70.42170907,96.75424837,-17.00458728,-80.82766953,-32.75636891,-65.31959419,-3.75698329,-23.83852854,-250.3734085,-17.98059421,,,,
619.2799996,2419,0,0,-13.43445273,-74.86185928,49.43920282,-21.13109141,17.24690602,-4.102735384,79.04278716,9.034674297,71.85584956,30.0779416,101.7945925,66.16651993,-98.52159697,108.727767,,,,
619.2879996,2419,0,0,-41.64158793,-89.61258965,-35.48287831,-50.88067553,-54.49297072,-41.78016204,-105.5465468,-187.0522151,-104.0468772,-145.4846318,-89.0238866,-127.4954259,-67.03620187,-78.74074386,,,,
619.2959996,2419,0,0,77.57836346,16.02459291,113.1266575,58.59684487,73.32156619,60.53129433,63.47734405,-13.1815313,44.05205251,0.391973557,75.5652123,44.62916118,-297.0820872,38.1188262,,,,
619.3039996,2419,0,0,-80.92607141,-149.6476624,-39.04424027,-107.9673064,-73.03396782,-103.5119382,-20.78599978,-106.7885002,-11.53432344,-56.89227729,3.444178918,-57.25739079,53.23576592,3.579308765,,,,
619.3119996,2419,0,0,62.18229204,12.05731351,73.65949083,32.89078886,42.66767639,47.90851096,-35.24144372,-117.5480377,-53.21321818,-92.65504654,-18.07643115,-66.31008897,-254.0363148,-71.6130688,,,,
619.3199996,2419,0,0,-11.88553045,-81.75379865,56.71070041,-51.72827742,19.85549411,-36.49719998,72.5540544,-12.92434809,64.09233038,17.3832025,84.05363342,46.92614192,-82.71848419,67.3917627,,,,
619.3279996,2419,0,0,-48.19171255,-94.86606629,-25.96932123,-59.95790432,-34.00303488,-60.53272685,-86.37885494,-174.2899458,-85.58937842,-125.621285,-76.45183438,-112.4728,-34.6009177,-83.56526316,,,,
619.3359996,2419,0,0,51.85593752,-4.30722511,95.0277137,39.0740342,70.29201517,37.51442955,55.11022401,-27.33960622,32.6998274,-9.183147196,62.40102937,34.75291172,-288.3942527,28.68296693,,,,
619.3439996,2419,0,0,-76.23568003,-137.1022872,-39.55312427,-103.3519289,-58.88386641,-90.40747374,-34.1653708,-124.5565506,-29.10160752,-73.54651657,-19.18354165,-56.64553268,50.06254425,1.820245614,,,,
619.3519996,2419,0,0,76.70011612,31.97458416,84.3298918,69.1641077,71.72845745,81.58732862,-19.47976515,-106.9164752,-40.32036446,-79.93872149,-3.655393091,-33.4574701,-242.8984066,-35.71743636,,,,
619.3599996,2419,0,0,-29.0892197,-98.24613382,36.82949401,-30.98288651,7.694977046,-29.4618497,78.00766056,-13.95654854,67.81006106,21.01010945,89.48912581,57.83879623,-76.39755252,107.4484774,,,,
619.3679996,2419,0,0,-57.03064983,-105.1363651,-41.85531919,-44.22395289,-49.23521656,-39.68835891,-105.7239286,-201.7313473,-109.8124515,-150.0457833,-90.60087121,-129.097517,-53.33337749,-69.81601208,,,,
619.3759996,2419,0,0,75.23663431,14.75169,118.1039723,89.86918123,93.31172144,90.05105945,52.83194743,-41.62783869,23.53304763,-21.43230809,73.11040119,40.26777561,-290.9087746,45.88665569,,,,
619.3839996,2419,0,0,-74.21850596,-144.5324794,-22.13942496,-60.78231263,-44.3504046,-74.09484921,-12.53146584,-112.696975,-10.5900516,-57.26123966,1.989203406,-31.58751678,75.31687651,32.56345764,,,,
619.3919996,2419,0,0,53.72751444,1.451721856,76.79680458,65.44337477,67.5578511,59.07581206,-25.82487229,-118.2070255,-46.15121383,-85.37784503,-16.29817101,-44.5603572,-238.680943,-44.71772857,,,,
619.3999996,2419,0,0,-17.19673439,-86.19101824,47.8301682,-29.97299757,17.25763795,-25.78115104,60.93750198,-34.7517728,50.80237113,5.091309005,77.21976223,36.2291298,-80.22578801,72.17126656,,,,
619.4079996,2419,0,0,-21.27181887,-67.37693569,-10.35710639,-32.87742808,-30.29763248,-22.19029334,-78.18966052,-171.3114081,-79.57884372,-113.4651465,-61.23776147,-100.808153,-20.84080063,-66.44987904,,,,
619.4159996,2419,0,0,88.62786217,32.17882998,127.6521348,72.42401048,99.48296852,76.16952875,86.06328888,-0.252816908,65.0256072,31.87902621,104.7570045,77.99592835,-240.917724,60.05965796,,,,
619.4239996,2419,0,0,-67.51260073,-126.573,-32.66599242,-74.17607751,-52.79912747,-91.3498933,-11.80456296,-107.2620405,-2.81992412,-37.96393717,12.06408818,-29.23749877,96.87242564,24.70595756,,,,
619.4319996,2419,0,0,75.42908375,35.32806841,84.79282919,83.71355018,70.0921582,67.48295022,-17.17461582,-102.5054066,-32.04839431,-60.58092097,2.338707725,-26.91737391,-219.1608399,-27.10778696,,,,
619.4399996,2419,0,0,-7.098454203,-71.85328643,61.46117269,-25.06118088,19.69462447,-27.13565427,77.00013961,-5.510459284,75.7472216,40.20279946,95.70461418,72.73947784,-43.72006547,114.1195265,,,,
619.4479996,2419,0,0,-28.41374513,-78.65084796,-16.55892875,-36.65165431,-45.18339277,-44.46211285,-93.15517119,-177.4323409,-87.60332535,-116.5732823,-75.46290674,-103.4093085,-18.19037217,-51.39453287,,,,
619.4559996,2419,0,0,85.24565325,17.51203222,123.4277852,81.24822614,94.39114209,71.9929664,71.33263056,-15.67064347,49.21053187,11.1344972,88.99045351,62.16036049,-250.8870851,70.48218753,,,,
619.4639996,2419,0,0,-65.24085252,-143.5941708,-26.51473231,-73.79733345,-46.23892169,-76.61312565,-14.30494812,-113.1288285,-13.34235283,-57.15955536,-0.868446901,-37.08371764,93.52018382,43.95556545,,,,
619.4719996,2419,0,0,88.49211288,21.42364781,80.61330246,97.3857895,77.06563152,76.78262511,-26.45512708,-121.5057272,-55.63575276,-93.67260304,-20.20436238,-49.22414057,-243.5752683,-27.41181448,,,,
619.4799996,2419,0,0,24.13408541,-68.51792257,51.35916549,10.02803089,39.25183272,-19.51628676,95.32460235,-6.380779998,73.42438858,22.2407209,109.0004137,69.29817188,-58.38240564,122.0891776,,,,
619.4879996,2419,0,0,-10.77390377,-78.83552248,-52.77496576,-37.57228495,-30.61665297,-46.3647193,-55.70508799,-154.2117137,-73.93396716,-118.6896624,-45.52732096,-87.05676263,-16.47795979,-25.7063603,,,,
619.4959996,2419,0,0,72.08224067,-0.549588182,9.805501048,42.97560768,78.69972183,54.32236493,69.08012019,-20.20191718,26.85386531,-20.23215041,74.63803363,39.73511707,-271.527149,69.61838938,,,,
619.5039996,2419,0,0,-74.65355158,-148.8172114,-176.4931025,-92.76968681,-78.19406456,-101.5539414,-27.25869936,-117.465795,-39.48918997,-88.12005691,-21.48776589,-64.70105509,66.12392821,32.12504076,,,,
619.5119996,2419,0,0,76.89769902,19.77821738,-49.89841263,69.67607757,48.67573938,48.08209599,-22.30057156,-99.40851355,-59.160578,-99.5066687,-22.12029448,-55.51501881,-250.6740833,-27.7762188,,,,
619.5199996,2420,0,0,6.048882268,-72.1314346,-58.8481782,-25.61673833,29.23388129,-27.08301372,86.15474801,6.218358357,64.57586188,13.89577312,90.90421293,49.63447006,-54.98762256,122.0124903,,,,
619.5279996,2420,0,0,1.128299336,-51.63615656,-100.4723367,-15.06180911,-18.94738151,-29.27017512,-53.98374479,-130.4549191,-63.65567438,-105.8644107,-52.24252168,-89.84783407,4.06413905,-8.030428304,,,,
619.5359996,2420,0,0,112.3131652,49.14939857,55.65067528,92.70267738,114.3380518,76.58687104,100.3146766,29.66191229,68.71753896,25.16762065,104.6114795,65.23999743,-231.9286497,104.1469409,,,,
619.5439996,2420,0,0,-41.4606967,-107.274955,-92.29377524,-64.14718077,-31.63473617,-75.00529941,16.49970639,-62.97816184,12.60885839,-34.20228677,25.489686,-27.25105648,109.0903504,77.26767794,,,,
619.5519996,2420,0,0,73.95494551,29.67753907,8.042629069,83.07102035,60.65505178,54.86270281,1.052498023,-69.63553551,-29.77285685,-68.48970106,0.2766599,-32.04900523,-222.4392787,7.293637927,,,,
619.5599996,2420,0,0,-17.10361592,-85.81950186,-25.29403236,-21.17205508,15.43778504,-46.39714681,74.77127544,-0.810407477,55.40808524,7.950970409,77.55252906,33.45017237,-68.28113575,116.0866002,,,,
619.5679996,2420,0,0,-15.38732415,-63.58477454,-74.13707727,-27.00532912,-26.01961879,-37.98451596,-63.2969563,-144.5621054,-77.20277996,-121.7688264,-61.60915459,-113.2400552,-33.88207497,-28.05834977,,,,
619.5759996,2420,0,0,85.17333312,29.08350575,60.28194368,66.64094959,88.18682852,57.62854501,86.85149259,6.849788012,49.41017597,0.941146071,82.97611923,42.79118597,-261.7259959,79.43668672,,,,
619.5839996,2420,0,0,-65.54986118,-123.9437621,-90.94563389,-76.24166033,-57.74615514,-109.9885886,-7.759763051,-88.65607054,-14.07613786,-60.31196296,-4.023990018,-49.85731753,78.22974101,48.22339116,,,,
619.5919996,2420,0,0,86.37271158,45.81159521,38.51796775,96.71760588,67.41366025,50.94291797,1.945950648,-68.49226559,-30.30663272,-68.57840271,6.618234646,-28.82472581,-240.7126208,7.479411626,,,,
619.5999996,2420,0,0,-2.937420784,-67.82702418,4.732199396,-0.231076437,13.62492414,-37.69519634,86.57017333,3.31772517,64.55327662,16.37878539,83.1946533,44.63886767,-65.02596998,124.1239089,,,,
619.6079996,2420,0,0,-7.307165526,-50.88411916,-51.37135709,-1.585135911,-26.79160019,-36.30684966,-52.55416465,-138.6002803,-69.35866906,-110.2237188,-61.98533539,-101.4426464,-32.0072016,-25.17408813,,,,
619.6159996,2420,0,0,109.9599959,58.03595244,101.7224655,97.57055369,101.8117011,71.84902569,119.0182983,41.8351797,78.05589946,36.62549068,118.4636404,81.62611485,-249.5118023,110.3222589,,,,
619.6239996,2420,0,0,-67.86094945,-122.4183377,-74.18488803,-74.74258763,-71.59058618,-106.345742,9.023801871,-73.24191167,-2.177925666,-41.7253576,19.02459337,-26.67635519,90.75627329,64.68521476,,,,
619.6319996,2420,0,0,57.61578788,23.6978763,27.03925132,70.27775314,58.56208765,29.0874234,-16.5687196,-89.28449997,-52.21848297,-85.38019033,-11.06703767,-46.11002983,-242.6048196,-18.64476361,,,,
619.6399996,2420,0,0,-13.08157121,-63.7587627,15.91756984,-6.670184848,27.13738135,-46.91617471,78.83780475,3.093962844,56.14656091,13.46320091,84.75112447,45.67069526,-57.43507959,111.0344775,,,,
619.6479996,2420,0,0,-38.51340352,-67.25119889,-61.6611056,-15.01941475,-49.05200969,-56.16503164,-68.77586642,-143.2949397,-83.60308485,-118.4671187,-63.15050181,-100.0887933,-27.94046767,-35.27489754,,,,
619.6559996,2420,0,0,64.29333217,24.15113808,69.13053108,66.43550666,80.33236356,33.43329881,70.66525051,0.435285532,35.65207613,-2.309682712,71.33168362,42.57896583,-261.9196326,68.61592448,,,,
619.6639996,2420,0,0,-50.38202311,-93.15282857,-47.13707135,-51.5391044,-33.8018778,-84.13936244,-7.611831355,-87.32057317,-9.049567826,-48.83648574,1.450181631,-39.75082191,93.36574258,46.31852515,,,,
619.6719996,2420,0,0,90.57022145,63.05105991,64.03711505,108.7654599,74.96348195,61.78663318,11.93598871,-60.37940112,-11.2384382,-45.82698455,26.15250388,-8.296601205,-212.9539368,5.84322732,,,,
619.6799996,2420,0,0,-12.38039065,-64.01078741,12.83675098,-17.25890658,7.998929217,-61.45442377,90.35564384,13.37553176,78.3383888,36.60320223,102.8691533,62.6837226,-41.81686435,113.7239606,,,,
619.6879996,2420,0,0,-8.314274489,-40.98390546,-29.354083,-2.586646343,-14.05652898,-34.36592992,-61.3571591,-140.3042235,-69.89707739,-104.0375965,-49.56492319,-93.07461196,-28.68567639,-43.6760507,,,,
619.6959996,2420,0,0,93.33531887,47.76594007,108.560585,85.60449084,112.1808713,49.50819248,101.6937306,22.7592403,69.63967489,31.86944289,111.5200422,73.59452474,-241.8375841,83.90487887,,,,
619.7039996,2420,0,0,-76.14136436,-123.8850684,-68.50193154,-99.44126521,-64.82136139,-128.2026012,-6.674663394,-96.62702356,-10.31822941,-45.98065195,3.41704745,-49.86461991,89.41514387,32.36712144,,,,
619.7119996,2420,0,0,69.08851558,43.33985659,47.25797717,81.0528235,55.58802925,62.32879471,-15.23192229,-94.56850047,-43.00544794,-72.47403799,-9.11997413,-44.96245515,-253.8374831,-29.88015733,,,,
619.7199996,2420,0,0,-16.58584965,-59.36937437,18.51782043,-5.549032572,12.4186105,-41.90526899,78.77820517,-0.032288449,64.38223004,29.00891395,84.86012503,63.92600738,-63.83534374,111.5157132,,,,
619.7279996,2420,0,0,-24.90804441,-46.59788768,-45.63907366,-9.283850291,-30.63383216,-54.96780082,-72.15790424,-148.9288607,-79.38282239,-102.8803454,-64.62731098,-93.66644178,-43.24964718,-40.25601603,,,,
619.7359996,2420,0,0,93.12286952,61.91925759,98.88946451,121.4374625,103.087692,70.45393933,85.65969601,12.83967763,59.86672688,31.13320749,89.36368389,60.46084591,-259.5706228,82.05535996,,,,
619.7439996,2420,0,0,-49.26181034,-82.93120857,-50.21276075,-30.50029656,-39.43096541,-85.07519295,0.799481298,-76.94822908,5.126771506,-25.76154493,7.985512964,-23.43909047,98.90908717,62.7616079,,,,
619.7519996,2420,0,0,97.33585113,76.52577962,66.05317501,106.3458711,79.04566295,70.24861666,11.42738522,-55.1537637,-9.619585693,-34.50274006,20.3635504,-5.58415114,-221.1336689,10.11444548,,,,
619.7599996,2420,0,0,17.73399423,-25.11290214,42.54748264,10.85719522,36.11540013,-19.77700709,101.4561129,25.53871654,92.23457925,57.52567841,107.9199446,79.681638,-32.59574993,133.4626428,,,,
619.7679996,2420,0,0,1.87701396,-20.52545079,-19.8364425,13.22320122,-2.906231354,-30.44739558,-48.41732902,-127.4825099,-52.74994622,-82.02664602,-36.20004608,-70.22188186,-6.023202244,-14.6734059,,,,
619.7759996,2421,0,0,83.26252202,48.05377681,100.3343709,116.1179933,100.007934,53.70067112,99.26286889,24.98076887,72.74276307,38.3221163,115.1791014,77.15045794,-227.4958484,90.15510119,,,,
619.7839996,2421,0,0,-61.66985771,-98.82601372,-41.47126925,-38.2349468,-44.20279598,-103.2487857,-2.402827467,-88.27061856,-3.952943377,-39.35789645,7.999076249,-35.85380457,94.45263295,32.29035755,,,,
619.7919996,2421,0,0,96.86604959,78.12011772,88.92940903,99.50814402,92.9062544,65.08457891,15.34244973,-63.61845376,-13.70940468,-42.35873945,25.70649549,-12.89735465,-223.7711963,-14.21199189,,,,
619.7999996,2421,0,0,0.279662523,-36.25838708,41.64183378,3.714148338,24.1914582,-37.43972924,105.1785643,24.78345627,90.70504471,56.48683896,117.8114124,78.5505468,-21.02120614,124.8073976,,,,
619.8079996,2421,0,0,-21.73996408,-38.39783427,-33.13904308,12.47864198,-29.75608881,-46.71461009,-63.6917857,-142.8564001,-70.6701724,-95.86679077,-56.13794127,-87.25677058,-15.48493733,-38.00858701,,,,
619.8159996,2421,0,0,69.03510085,39.88101414,88.28200796,100.6111136,93.38789581,57.50641116,81.02952488,3.276994868,52.62207566,21.35977149,89.380193,57.02934706,-229.9367572,69.75588879,,,,
619.8239996,2421,0,0,-88.60733059,-118.130465,-70.7843622,-45.67963289,-64.83496218,-108.0829637,-22.95006382,-110.5152122,-24.41946068,-57.43535063,-9.365200225,-53.43658536,97.05749486,29.54419746,,,,
619.8319996,2421,0,0,70.4454259,51.33874379,63.5516258,112.8057378,70.1763218,51.95368348,-16.86297454,-95.05557744,-43.88951156,-70.74009668,-4.086547438,-33.92630353,-240.2738791,-21.32585724,,,,
619.8399996,2421,0,0,-7.025386447,-49.80325401,38.98956709,3.687752525,25.62119921,-35.7904255,81.52399274,-1.497419839,66.8867138,31.98737952,94.92628234,63.06419544,-25.72593764,112.0765291,,,,
619.8479996,2421,0,0,-29.49009336,-43.25508182,-35.03158511,2.253287089,-34.46051679,-41.12693032,-74.01070337,-155.4659077,-84.28657594,-108.1637743,-59.93756549,-88.27858535,-9.563535497,-42.54277373,,,,
619.8559996,2421,0,0,82.82895516,58.81369569,105.5763392,107.1091035,111.3438707,77.56992243,83.01386717,8.978832318,52.7658083,28.17661833,97.4773187,75.15279228,-218.715361,79.3301722,,,,
619.8639996,2421,0,0,-65.27176891,-96.29105181,-44.12042499,-49.44007191,-38.85092782,-90.56683303,-11.28547031,-95.91046313,-13.62579493,-37.35197079,7.535257297,-37.23659023,125.4121662,34.04045128,,,,
619.8719996,2421,0,0,65.06964828,46.22337397,54.96871151,112.4835171,59.88186191,42.34263647,-13.67938347,-96.84057578,-43.29935291,-64.25143846,9.000579402,-38.60398439,-211.2190922,-38.3544254,,,,
619.8799996,2421,0,0,-7.775326462,-48.53217788,24.8172434,37.55734001,28.55283523,-39.32579177,82.05969448,-8.985288152,65.65158087,33.37784149,103.8444415,56.51134374,-4.616737275,92.23532523,,,,
619.8879996,2421,0,0,-24.10530626,-41.31479927,-35.96004314,1.704898181,-21.9483412,-47.62716211,-70.36753347,-160.0029085,-80.12569755,-99.05749662,-50.90743328,-92.1025842,6.594581155,-55.2748339,,,,
619.8959996,2421,0,0,66.12556327,37.36991109,93.14000035,82.79923137,93.49354079,44.41934451,70.64280319,-13.22702413,42.26065509,21.83696775,92.67624951,56.30287616,-208.3931322,62.98302696,,,,
619.9039996,2421,0,0,-83.72371624,-110.2965142,-50.12264634,-40.33258689,-44.66089673,-112.1737585,-33.5292626,-123.038037,-34.6376304,-54.02509474,-13.96583168,-54.25692445,134.3004721,18.55201656,,,,
619.9119996,2421,0,0,36.84999108,29.00773196,45.90694549,88.84910701,58.75202347,25.38641669,-39.38141299,-117.8953351,-66.14976145,-75.01205041,-18.24794366,-47.97471876,-197.3317198,-41.42840186,,,,
619.9199996,2421,0,0,-37.04033157,-67.7874286,4.033233854,-10.54484196,8.743824754,-51.0211021,40.83095902,-44.50571485,29.80639775,11.62506824,67.56625545,29.77463595,-4.199795181,90.98913118,,,,
619.9279996,2421,0,0,-8.637233965,-20.76530591,-21.72812392,23.70206145,-4.460211575,-14.85019222,-84.90645356,-174.2190845,-91.70819733,-104.7191722,-62.56646255,-97.6335346,11.36245675,-44.823374,,,,
619.9359996,2421,0,0,77.10013845,46.05870519,99.69337757,116.6660512,106.7972315,66.50358192,82.55514482,-4.6538682,56.74397086,37.61916273,105.2614468,72.76636735,-174.3816491,82.47724527,,,,
619.9439996,2421,0,0,-81.95745703,-116.3682884,-64.97271408,-37.22034957,-58.68092309,-111.8172877,-32.52125252,-128.2531496,-30.17583617,-49.2376518,-12.1512461,-54.50030156,152.6979042,23.90835358,,,,
619.9519996,2421,0,0,75.58346922,58.15958192,67.43617901,109.4194535,72.81459389,41.81251805,-17.30744005,-101.4977794,-43.0800938,-54.36999975,-0.425334092,-28.26772814,-183.2819435,-36.25817075,,,,
619.9599996,2421,0,0,-12.11495338,-48.98855624,27.38259472,3.531913379,15.98835846,-49.44982877,77.18137155,-10.38083061,64.62162378,47.32369254,94.96422329,63.06859114,28.66851247,95.60564857,,,,
619.9679996,2421,0,0,-26.40114036,-42.26897736,-39.20483605,7.027448749,-21.99580302,-39.70175603,-71.32058868,-162.3801323,-80.0339348,-87.50025512,-54.05093432,-88.978936,24.03622191,-48.93382251,,,,
619.9759996,2421,0,0,50.75716699,19.36375729,62.90497821,87.82642346,89.78496272,30.7294398,61.98324966,-24.71383741,37.99041652,22.795714,82.78556949,52.40468472,-191.6527766,56.38467616,,,,
619.9839996,2421,0,0,-89.48197198,-116.3412097,-77.04521922,-36.92235216,-62.64152569,-118.7777987,-57.54192514,-147.7345338,-50.07118138,-65.80661429,-43.28375278,-76.00075274,134.4057492,1.186810155,,,,
619.9919996,2421,0,0,62.20313207,53.10287625,62.25148437,121.7666958,78.44141989,56.98289469,-16.90262256,-96.77214586,-37.55808153,-46.02915727,-4.423922675,-27.3681057,-176.3007878,-15.68578095,,,,
619.9999996,2421,0,0,-29.76321275,-63.65401166,14.06649231,13.36707441,32.49417161,-46.05365045,63.24558608,-25.03466331,55.79742929,34.79752305,85.55729953,51.40077189,42.5261363,109.5928503,,,,
620.0079996,2421,0,0,-9.660665084,-23.67516214,-19.15136918,36.86716066,3.048436703,-23.93584602,-88.2638683,-180.0178433,-93.30395302,-105.8556408,-68.0265418,-101.6374088,43.8670525,-43.83753814,,,,
620.0159996,2421,0,0,80.75962196,49.71241789,101.9681247,100.6355918,110.3915754,58.47630513,88.88812972,1.075768874,63.15432399,49.04832762,108.1777574,81.97636707,-141.8831115,90.15418679,,,,
620.0239996,2421,0,0,-72.46974294,-102.7029877,-61.29937927,-38.92477995,-49.95462952,-100.1195509,-23.81746489,-120.1825592,-20.07278604,-34.85651131,-2.603569325,-34.00048558,185.7901869,26.74723722,,,,
620.0319996,2422,0,0,60.39715658,49.37086249,46.79801365,114.5504336,58.0632696,49.89653534,-21.062145,-108.1014615,-42.50600701,-48.52858166,-2.229270728,-23.25937141,-160.1008763,-25.84771249,,,,
620.0399996,2422,0,0,-41.40539822,-76.96485398,-10.49093509,-16.24841603,2.315283049,-72.73477009,47.70051179,-45.19755953,37.65751533,24.98276038,65.44891912,36.52848614,24.43031532,81.30017816,,,,
620.0479996,2422,0,0,-13.58295977,-28.48816282,-29.13711002,37.44620378,-1.08137527,-37.07012125,-83.34414917,-182.1917253,-91.93339696,-99.93389477,-65.8444128,-91.55838101,26.72069669,-58.26640572,,,,
620.0559996,2422,0,0,78.72630733,52.31314044,106.0405559,141.217332,112.6600282,53.67370215,93.63758449,-2.75470682,66.56899508,54.34592137,115.3535528,89.31802477,-144.6779305,95.91829765,,,,
620.0639996,2422,0,0,-65.87146558,-93.81806893,-40.76011025,-32.37403687,-31.09094437,-111.4363328,-17.96541395,-119.7261084,-17.96261913,-27.32080531,5.820695269,-36.79548071,186.6129812,43.32451465,,,,
620.0719996,2422,0,0,75.06357781,64.07071737,71.75715272,105.2506692,88.7417625,50.67527457,3.336980867,-92.59488047,-23.56801923,-26.38146188,24.63859581,-2.138541007,-134.8113929,5.628690807,,,,
620.0799996,2422,0,0,-64.19687438,-96.19464342,-25.83800691,-17.55157967,-12.16716726,-85.22811465,49.92434524,-55.53720877,36.2707043,23.49964048,72.77175049,41.54758102,57.15345233,101.8299393,,,,
620.0879996,2422,0,0,-58.91732504,-74.40821622,-71.56078595,5.757914822,-42.58091619,-82.5003897,-120.5947521,-225.6552947,-131.2625602,-139.7155729,-97.63875765,-129.4747405,20.4250293,-72.04906649,,,,
620.0959996,2422,0,0,49.04233731,19.30132609,66.38436617,95.36722601,77.44383805,17.80841605,49.57011199,-46.71479137,23.5542499,12.7484436,64.76612981,48.03487922,-170.6198406,66.88042805,,,,
620.1039996,2422,0,0,-101.3985162,-130.762147,-94.24390014,-60.35461558,-86.1944482,-136.0661119,-63.99174181,-164.1489331,-59.90422382,-65.54658435,-55.66295844,-77.87106238,152.2180487,6.921373185,,,,
620.1119996,2422,0,0,75.30323093,55.33386907,55.44109416,115.4908947,63.91954217,52.23860059,-19.88968562,-110.8764257,-43.73825119,-45.7754989,-10.72624603,-26.0638269,-169.5524174,-12.9217079,,,,
620.1199996,2422,0,0,-4.629260627,-51.79677087,26.89921186,8.138822335,19.76323147,-47.30461035,83.98366172,-13.81933836,69.90761274,57.90326593,89.99073507,70.25973283,65.02108223,132.7562467,,,,
620.1279996,2422,0,0,-9.96387119,-40.19846813,-29.08373516,14.77363902,-20.34183892,-57.37604289,-74.40593208,-175.6637329,-90.9515598,-93.83187794,-79.96564881,-94.65853484,42.94481139,-32.84083644,,,,
620.1359996,2422,0,0,82.97885809,32.15982355,72.06968229,105.3332913,92.39219203,32.39160639,86.25787589,-10.72552371,48.62862107,37.37193197,83.08769105,73.10456911,-159.0386768,101.9580566,,,,
620.1439996,2422,0,0,-71.61639038,-123.7496146,-96.63598737,-58.35367397,-67.52465765,-133.3099895,-24.57067677,-128.1030814,-37.60585772,-53.79949153,-20.58839053,-50.62887548,163.6436222,49.12691336,,,,
620.1519996,2422,0,0,74.4069495,41.5917058,29.85568006,113.3669504,56.5190973,26.93792661,-16.13565355,-108.9571929,-58.58933509,-69.87456089,-17.35514765,-35.30278658,-178.7602831,-0.530082917,,,,
620.1599996,2422,0,0,-13.89021877,-67.62584221,-24.10426523,34.86290947,5.397879096,-58.76829362,64.58038424,-26.59935755,37.58871968,19.94381484,67.0642836,45.51290823,45.89887984,137.9149481,,,,
620.1679996,2422,0,0,-6.605483175,-36.1453283,-64.26884661,51.7209748,-16.23282365,-43.77783772,-71.1683447,-159.0052664,-96.6403506,-106.0040288,-65.63884462,-99.93657746,44.22023809,-1.29184704,,,,
620.1759996,2422,0,0,78.25207219,41.9916983,56.60315301,131.217254,94.79143947,41.49296402,86.21180842,5.592976234,42.87530317,26.83748561,86.9543149,65.12547768,-144.1465784,128.1547202,,,,
620.1839996,2422,0,0,-81.91306198,-115.8172946,-118.4335312,-41.56619312,-68.16986387,-134.6407578,-43.36393156,-129.5405064,-55.60270191,-75.26204745,-41.73398904,-69.12623437,173.1493385,62.27670979,,,,
620.1919996,2422,0,0,73.11639714,55.45353929,7.105870969,104.741377,61.65993211,17.61482295,-13.06651198,-90.44741182,-52.32812504,-70.26741043,-11.33868264,-37.15238715,-158.5587327,18.84160332,,,,
620.1999996,2422,0,0,-12.5297615,-47.9296593,-34.09866887,13.78980526,4.183302641,-57.90299202,82.87539112,6.773516936,57.95872478,34.2235971,79.2986426,60.14718408,71.16030143,147.3931163,,,,
620.2079996,2422,0,0,-5.753509684,-19.6369135,-66.96623574,43.81756868,-20.51982911,-41.17936994,-64.20984581,-136.1179416,-87.63962983,-98.01735831,-68.67075114,-88.87257586,52.75283827,-6.737642374,,,,
620.2159996,2422,0,0,75.28839972,48.08830406,50.0556312,121.8770806,93.49504461,22.76910387,92.74233004,27.59947838,51.55899628,38.50721445,93.51487974,73.35039862,-138.498721,118.1676769,,,,
620.2239996,2422,0,0,-67.12815466,-91.51907329,-97.9954229,-21.9524289,-44.49176269,-112.9773147,-23.08806973,-93.67111836,-34.36093659,-49.0134789,-23.43623144,-44.73634018,175.4583385,60.55557958,,,,
620.2319996,2422,0,0,99.43691833,87.79463332,50.89761335,151.9888413,100.8425031,59.98631634,21.55879372,-45.88841197,-19.41437162,-31.7143121,25.06710311,4.142273143,-154.9548689,46.35904051,,,,
620.2399996,2422,0,0,-19.40624315,-56.22695926,-22.73833888,41.18284327,16.51676026,-74.27620628,95.43664955,20.9818168,69.04203341,49.29485971,97.05210331,72.63359068,65.83088596,161.0372095,,,,
620.2479996,2422,0,0,-14.14790769,-26.81662332,-56.72378663,68.05990304,-4.133846195,-38.81204672,-74.2730088,-145.0825541,-96.0491025,-107.1999703,-74.73479447,-98.03445227,32.48355018,-14.12335743,,,,
620.2559996,2422,0,0,91.69898974,71.65563224,93.97302842,139.2737309,126.1172966,70.75102943,100.6865681,36.70336932,60.13011211,44.25006536,113.3627549,88.76337578,-138.5403732,142.1754819,,,,
620.2639996,2422,0,0,-76.76981424,-97.04689561,-81.51017469,-15.66522298,-48.2241734,-113.5050052,-19.47572526,-88.78390042,-32.65898799,-47.19744399,-13.37966938,-29.39003208,182.210668,77.26655314,,,,
620.2719996,2422,0,0,77.27659351,69.37115342,48.26675442,163.534317,89.96864492,47.96983796,-1.18703355,-65.26878031,-43.39969492,-56.62987347,0.17113802,-18.63051326,-162.1136611,22.36943171,,,,
620.2799996,2422,0,0,-4.299571155,-30.42394776,12.8896334,39.86118615,35.65464339,-44.80446992,95.05599002,24.16349507,67.41632743,45.84800434,96.03584449,66.13504552,71.62582993,156.8729201,,,,
620.2879996,2423,0,0,-8.744947351,-10.73856812,-51.00214446,40.28706432,-11.83590735,-48.35574139,-57.87013621,-122.695089,-77.6450043,-84.33001804,-65.09291854,-71.15470423,42.78896753,-2.486924811,,,,
620.2959996,2423,0,0,86.46073159,72.56709592,66.33123155,135.851336,111.3940831,49.49210031,98.08166935,41.06169162,65.70013828,54.72842283,103.1890779,85.85692845,-143.3482859,124.8913798,,,,
620.3039996,2423,0,0,-49.29220132,-62.16130074,-64.78197652,13.49138741,-24.21092236,-84.4002379,-4.503187715,-67.29794564,-8.584898667,-19.64682076,1.476802433,-22.93175859,189.654467,71.319868,,,,
620.3119996,2423,0,0,94.48060326,96.00961113,61.34276503,163.3190688,101.798757,59.71150793,17.13125796,-37.9325116,-14.72174556,-19.18627696,17.54170099,13.26561474,-143.4395313,29.61514569,,,,
620.3199996,2423,0,0,-4.945121384,-24.36522986,-0.004631803,39.57943027,35.1621626,-55.5121092,95.48916672,30.75770412,77.6839365,64.94024008,105.0403785,79.66379705,85.4985872,152.1120858,,,,
620.3279996,2423,0,0,-6.961554258,-3.513823504,-41.70341951,72.78934989,2.2564552,-38.24687187,-48.28955514,-115.1025047,-67.44903437,-70.86895414,-41.1811348,-61.40428827,63.65553757,-3.332288234,,,,
620.3359996,2423,0,0,62.22691078,55.73975262,75.71723914,138.1141024,102.6445999,41.92420598,93.51056876,30.41243904,55.3924433,45.86664423,101.4011221,85.00483055,-126.8915803,115.4573197,,,,
620.3439996,2423,0,0,-103.3492711,-113.3959831,-96.1013755,-38.49166045,-74.40528378,-141.7906776,-39.65537257,-110.5050047,-48.80091574,-57.4849027,-25.79333741,-55.22796906,177.5767695,40.064579,,,,
620.3519996,2423,0,0,42.8024723,38.78477472,9.82275784,124.4936363,47.47469319,22.26128545,-29.42570356,-98.36681431,-67.86933471,-73.23420301,-14.25823245,-42.60663433,-181.1030949,-21.7728579,,,,
620.3599996,2423,0,0,-31.22319687,-54.83316158,-23.71621234,25.34662346,8.115092993,-47.37745075,59.18498919,-18.26223658,35.84147046,18.7254083,74.70511665,36.4554873,52.28774826,106.2797589,,,,
620.3679996,2423,0,0,-6.542576107,-5.943039464,-28.6424049,58.9946625,-4.912318653,-37.57651085,-60.14059433,-128.617025,-77.49360268,-81.77210211,-56.2364681,-71.09101484,52.76454338,-20.39951116,,,,
620.3759996,2423,0,0,76.04947055,62.52735864,86.10158732,146.2971578,113.0660474,63.56299413,98.3199904,34.63782752,63.2668736,56.8664123,99.44336623,88.12045385,-125.8016698,106.3591241,,,,
620.3839996,2423,0,0,-80.48416044,-91.62203131,-90.36999401,-31.30628824,-47.43651743,-96.49983726,-23.4024171,-97.71146747,-32.87506025,-37.9321578,-16.37379739,-39.04273916,185.568882,42.50582856,,,,
620.3919996,2423,0,0,64.203641,64.33866263,34.9474793,127.4853209,70.23190719,29.07589748,-9.28391918,-74.70599345,-46.08764076,-45.68465013,-6.3915829,-13.65106764,-160.228879,-4.21312709,,,,
620.3999996,2423,0,0,-19.06051204,-43.66391774,-7.774779486,53.1747493,28.28142102,-45.09447917,68.13329376,-6.912025899,46.65384543,36.04095131,75.78943788,46.62630708,66.28875543,110.5404489,,,,
620.4079996,2423,0,0,6.961088104,4.897397524,-33.33918316,66.02722098,14.33150386,-16.61574238,-49.82181702,-125.2740437,-69.57415537,-69.89029362,-41.06601157,-68.41804902,52.85230327,-11.35501866,,,,
620.4159996,2423,0,0,92.2976199,78.28133805,92.17596571,150.7091179,124.0150951,64.44864064,114.8420607,44.92092844,78.10902031,73.86267324,116.9617882,103.3427471,-115.6548243,130.5063406,,,,
620.4239996,2423,0,0,-46.815938,-54.49251723,-52.90937492,28.31869846,-14.94490262,-69.64683752,-2.528898209,-77.23280659,-9.380025498,-14.10367685,0.363100853,-19.60678787,206.9198503,69.33855982,,,,
620.4319996,2423,0,0,107.8618764,116.7814861,87.05287596,172.535214,117.0843103,79.97714436,35.77405655,-25.955231,4.593483914,5.993570086,37.20789321,35.05213889,-116.0555323,53.24539006,,,,
620.4399996,2423,0,0,-4.300128763,-20.19925275,14.65289284,54.32593434,38.43482913,-39.79930182,106.0877513,34.42236326,89.6184047,80.53694819,114.0027625,89.16144185,112.3314701,163.0795393,,,,
620.4479996,2423,0,0,-7.735701677,-3.385112243,-44.72970097,69.10005128,-5.835827628,-34.59468882,-58.33608869,-131.5982512,-74.93016734,-76.36728536,-46.16867631,-79.83108634,54.73694723,-17.37846191,,,,
620.4559996,2423,0,0,55.39362807,47.88314746,61.87518666,126.4815857,83.94764236,18.76327032,85.53561492,21.89521364,52.72362949,48.60770294,90.76152391,79.90788144,-130.039357,98.35105572,,,,
620.4639996,2423,0,0,-114.9471779,-117.091872,-112.3439142,-39.1295676,-84.64787414,-153.4055027,-45.65891031,-116.6293191,-52.4709704,-54.7025359,-44.69283533,-64.90742099,178.2655538,14.91229203,,,,
620.4719996,2423,0,0,28.90705623,42.71190425,18.58260787,115.0594952,47.61716794,12.20283688,-38.81949081,-100.7640441,-74.2077818,-71.29523852,-36.8178536,-41.81872784,-182.6427062,-35.69467081,,,,
620.4799996,2423,0,0,-51.40824811,-58.76091683,-23.03926701,26.85312408,2.02452297,-69.13231586,41.04721718,-24.10634335,21.59395432,15.52124603,52.20772352,43.18209083,53.86253657,97.14155257,,,,
620.4879996,2423,0,0,-23.16265944,-8.114372561,-53.89791466,58.0059746,-12.24771276,-35.81024186,-72.03352335,-138.3779964,-93.10878841,-89.10322382,-61.82463855,-78.28979641,34.85240975,-26.55553953,,,,
620.4959996,2423,0,0,57.54150155,54.08596509,74.96590917,144.1919332,104.8449211,46.74021635,85.84668124,20.11003459,48.07617129,47.19320338,97.48925089,90.8263917,-132.5235626,106.0573483,,,,
620.5039996,2423,0,0,-87.49661034,-92.19443563,-80.3966394,12.43305797,-50.27319678,-93.3009447,-43.56954627,-121.6609799,-50.96777516,-54.5893746,-29.79573517,-54.16334556,186.5447574,33.26750297,,,,
620.5119996,2423,0,0,40.49825119,51.89160897,20.79139402,137.1467188,56.22636441,33.07246082,-11.8639747,-84.43728937,-47.17042785,-46.91389763,-7.594026484,-23.20591607,-162.7970197,1.444349527,,,,
620.5199996,2423,0,0,-71.00656524,-81.72883913,-44.36278784,3.266779328,4.30370547,-93.43217241,41.98154034,-34.24749606,22.7865112,13.68826094,51.41386728,39.55431748,54.15041498,96.71853606,,,,
620.5279996,2423,0,0,-36.79214102,-26.86525947,-61.42785252,34.81329738,-7.84087874,-46.37857458,-108.5217274,-181.1862315,-123.8791179,-125.1757373,-97.1479811,-107.4297374,19.89287464,-60.7349329,,,,
620.5359996,2423,0,0,44.66969608,37.17279267,54.11032741,118.5042471,88.78513028,15.01823448,66.25528528,-3.23386987,34.15898443,29.26848059,80.50286491,68.71069104,-139.9664539,82.61416559,,,,
620.5439996,2424,0,0,-96.53833825,-103.8600276,-95.41280184,-11.11325241,-48.07525329,-135.9239552,-44.34107382,-121.2716834,-51.34772351,-55.37377547,-27.07872706,-46.79427133,172.3663844,8.853972764,,,,
620.5519996,2424,0,0,37.51488141,45.71011462,28.66998506,120.4928446,59.26984148,11.97099976,-15.41205719,-78.53501864,-50.61603021,-46.85098942,-5.600685488,-4.291323339,-168.0997299,-26.45327117,,,,
620.5599996,2424,0,0,-73.85707685,-88.09982355,-37.23807309,10.05712444,-18.94073311,-104.9585399,33.90927162,-36.48212008,12.77752721,9.199842191,44.83701942,28.82438142,53.02173096,65.20273678,,,,
620.5679996,2424,0,0,-19.94437164,-10.80248066,-38.65265811,76.11609219,-3.90783687,-45.67790958,-91.0933812,-165.1141289,-111.9225529,-109.2906306,-84.22800717,-104.7181338,19.05448515,-76.96115143,,,,
620.5759996,2424,0,0,60.14802191,53.62229138,75.66366209,131.9349869,105.2025279,27.13161133,97.91894177,32.8761438,64.42508682,64.82350678,112.9176202,101.3412672,-107.6854841,93.28665005,,,,
620.5839996,2424,0,0,-100.7991693,-109.9006796,-94.78614964,-20.43730559,-44.28640265,-117.2333168,-47.28543997,-121.4131724,-54.80607279,-53.2643969,-27.10805316,-52.37235537,209.3621825,4.925953498,,,,
620.5919996,2424,0,0,46.53818256,54.84463061,38.35689055,148.0889996,78.8407227,41.08288516,-26.53705182,-98.43103342,-65.83666632,-61.40693048,-18.70424624,-24.67008673,-143.513657,-35.24559257,,,,
620.5999996,2424,0,0,-60.43243292,-65.79511368,-31.15782221,22.32568821,-5.687951058,-67.02912253,48.74250201,-23.14878449,28.93804981,29.19973061,68.49761584,56.23566693,97.94644523,95.11915711,,,,
620.6079996,2424,0,0,-31.75840519,-15.67629759,-58.64536988,53.56364056,-8.363910026,-26.972328,-92.56251049,-160.6303336,-109.3543467,-96.80439206,-72.80546434,-85.22489453,63.05408008,-52.52532838,,,,
620.6159996,2424,0,0,43.58969236,39.38849192,60.21926046,142.2873577,93.93965906,20.93619154,70.44855651,-1.318083007,34.77768686,39.39679037,78.41548655,75.19613416,-99.21156555,77.99625065,,,,
620.6239996,2424,0,0,-101.5500074,-103.7355258,-92.73330901,-2.785112296,-59.78572329,-120.1042474,-54.60346025,-136.5461086,-62.30748513,-59.43288192,-38.19907476,-62.16779256,204.3253414,-1.674751221,,,,
620.6319996,2424,0,0,72.46777778,84.52223314,51.73692362,148.3562751,88.06403256,60.52199363,-8.171692584,-82.410985,-43.61354554,-34.54259274,6.315511313,-8.172414636,-127.1342157,-19.67853917,,,,
620.6399996,2424,0,0,-16.62272718,-28.30912658,-1.721751519,45.79472263,31.12198681,-46.33099689,94.45865446,9.288452806,70.49604901,70.65439458,105.2237206,87.81958159,139.1053152,121.4141219,,,,
620.6479996,2424,0,0,-13.58829421,-3.406649861,-35.46714135,64.94142044,28.64817042,-32.28447553,-55.13501143,-134.0376151,-77.88838035,-66.54795595,-39.55822835,-54.51921219,93.11130223,-38.92279454,,,,
620.6559996,2424,0,0,52.38561521,48.53273489,75.74320688,118.7489124,124.9696106,34.1323987,72.14415755,8.698685376,39.2774972,50.73187078,93.73634973,91.88204561,-80.19983711,78.50988627,,,,
620.6639996,2424,0,0,-83.76092153,-86.16933076,-67.52519252,-6.849972197,-31.47693255,-84.50516988,-37.52908654,-110.1437761,-45.75526671,-35.49543004,-16.19297994,-32.53215085,236.6102366,24.0050613,,,,
620.6719996,2424,0,0,48.58592056,58.80159447,51.84948102,153.2654,94.79934443,46.21387986,-11.10771265,-79.23892813,-49.24046934,-37.34255374,0.858983362,-1.204762063,-118.6363474,-10.04414505,,,,
620.6799996,2424,0,0,-62.73169697,-74.22990633,-40.60957557,28.97672865,4.31722539,-96.38418579,30.66312646,-43.36204712,12.32608382,14.30157354,45.36567306,45.63581084,101.9123142,81.34720068,,,,
620.6879996,2424,0,0,-26.53530373,-14.41714084,-69.28107701,63.69970478,-5.178192465,-51.62919437,-87.72399893,-166.7937896,-108.4444614,-98.28039085,-72.08798279,-81.55880712,61.26754026,-61.63026988,,,,
620.6959996,2424,0,0,35.07326707,34.83694527,39.98425054,126.7089031,85.87338955,16.16400748,79.72162362,2.243987444,43.8501345,49.95171844,92.4080158,84.55511475,-92.98762236,80.29861121,,,,
620.7039996,2424,0,0,-119.1741971,-115.7518395,-126.6588911,-36.13079009,-89.39199259,-131.8918554,-74.25839868,-154.7252943,-77.91181426,-70.20668649,-58.58004733,-74.64726742,196.2756992,-11.30445729,,,,
620.7119996,2424,0,0,49.46942139,67.30942601,36.33356375,112.9123551,70.47973099,33.74638,-28.08532917,-97.63203694,-61.5747434,-47.46659922,-20.50465074,-19.20752473,-148.9582678,-33.20711949,,,,
620.7199996,2424,0,0,-51.45150639,-56.98595266,-11.78645209,0.116604221,13.48031443,-77.42682805,65.84751697,-15.01081466,45.0928962,48.45269067,69.42704177,76.97232985,114.2350699,102.8729256,,,,
620.7279996,2424,0,0,-38.22790371,-29.03597221,-69.6497665,48.87564664,-18.10120613,-44.38116201,-100.0879275,-187.4435945,-119.3629286,-110.695349,-86.37530908,-94.17118421,54.56994422,-72.35469734,,,,
620.7359996,2424,0,0,37.09988931,31.97418008,46.05517022,130.6572353,95.07953073,29.94180661,55.5127544,-25.04513427,22.86365925,27.38652784,76.17614352,56.39292391,-102.4266881,55.19325289,,,,
620.7439996,2424,0,0,-101.5763592,-96.82474586,-84.2202218,-22.17588919,-38.28151844,-115.6987188,-48.82045658,-132.1635351,-55.06670239,-46.81790727,-34.41499824,-47.09230024,224.760864,8.44493988,,,,
620.7519996,2424,0,0,51.6910029,68.6641567,40.11246332,134.8737515,89.59163359,41.4358298,-21.6528538,-95.13198216,-55.43891892,-40.98833829,-17.65407069,-8.453473395,-126.7698756,-16.1690798,,,,
620.7599996,2424,0,0,-59.15514087,-61.91150319,-45.65274947,6.252450748,-0.399956462,-62.75915619,40.58606885,-36.4216049,24.99626405,31.92532882,42.49149602,43.90415127,111.3880473,93.74961258,,,,
620.7679996,2424,0,0,-24.35977222,-2.8711829,-69.93563878,51.33230024,-10.43561058,-25.51629198,-92.74106898,-170.731086,-108.950065,-91.0637846,-92.01967372,-81.95793397,59.01693234,-53.8143109,,,,
620.7759996,2424,0,0,60.28211672,61.55290293,50.34680123,150.1914374,105.8357028,33.06871102,90.58132528,15.04866039,57.59744075,69.19769886,91.85943905,106.5447799,-85.10164278,91.64470039,,,,
620.7839996,2424,0,0,-101.345551,-100.836021,-115.5679216,-13.60344683,-63.27494375,-122.5391146,-35.62887969,-117.919015,-41.00972405,-26.75494867,-32.04067671,-33.33903061,225.9268172,7.524887158,,,,
620.7919996,2424,0,0,49.19135851,62.5029013,22.28177176,124.2277967,61.31344254,34.86962134,-29.99679974,-106.252172,-62.85945117,-39.83778645,-29.73993662,-16.08860212,-139.6701172,-44.77181927,,,,
620.7999996,2425,0,0,-46.23954308,-53.6220941,-32.47793848,4.543060724,2.837584848,-73.95712154,54.82112842,-28.6507611,38.0645121,51.02538522,59.64197708,62.88256695,120.6022515,83.39228952,,,,
620.8079996,2425,0,0,-37.96316339,-25.71088336,-74.22003201,38.40511835,-21.03659599,-39.39932915,-80.97984371,-164.8279597,-95.92324979,-74.04324463,-76.13835725,-80.2341104,72.95033611,-67.57322123,,,,
620.8159996,2425,0,0,25.65290861,24.57199819,31.55798158,91.1484771,75.39960344,19.96546761,47.53802826,-31.80845379,22.15507811,41.31422656,46.89104357,53.03669039,-103.739966,39.72426024,,,,
620.8239996,2425,0,0,-108.5777612,-106.7744435,-122.1348784,-60.70687731,-58.66175975,-130.300353,-66.06906797,-152.2035213,-62.44842348,-41.89804694,-59.65883976,-59.78857081,219.653015,-20.69340143,,,,
620.8319996,2425,0,0,46.08174363,54.70155292,9.152007011,121.3020164,75.20861269,35.08258316,-27.68929498,-108.4683566,-53.83609336,-31.8087118,-19.34624243,-17.23701935,-117.7204228,-46.78758305,,,,
620.8399996,2425,0,0,-58.1093281,-66.53528444,-53.56775219,2.587641559,-2.948553881,-82.34523682,29.33480344,-55.54323954,20.97347666,34.51437968,37.27432764,29.77277093,115.5757913,55.65063237,,,,
620.8479996,2425,0,0,-15.03727557,2.26523767,-59.57471013,40.93453684,-7.97782712,-49.53722907,-87.00434809,-169.5282646,-91.86281352,-67.14220351,-80.57505236,-81.39411224,71.77934801,-67.17456958,,,,
620.8559996,2425,0,0,73.34313175,71.30044904,73.42517813,131.8982471,94.76689969,31.78022267,79.68765976,2.223098061,62.12595956,79.26063368,86.97351814,85.61007209,-70.2573183,79.2196614,,,,
620.8639996,2425,0,0,-72.49545529,-78.6651295,-102.8973508,-27.26529582,-62.14853051,-116.6827362,-41.03853834,-123.7946465,-35.65626808,-16.98148649,-36.57220761,-39.20063966,240.1607421,9.642465305,,,,
620.8719996,2425,0,0,87.4588524,83.88706349,27.43655325,113.5408929,78.65052151,37.7846334,9.605470089,-73.15829313,-25.31655432,-6.048184001,4.849889143,16.71270226,-104.1071591,-13.85204214,,,,
620.8799996,2425,0,0,-11.65926832,-40.77843519,-21.06268545,21.44002427,10.3888277,-68.3188444,72.14750558,-21.75221732,44.91589986,50.27790771,73.49079464,56.13465108,133.6350372,86.85709179,,,,
620.8879996,2425,0,0,12.66226202,5.594625135,-51.24099801,81.52728835,-0.520493655,-22.23247343,-61.31525376,-150.6293692,-90.62819032,-74.41654735,-65.75534917,-73.9898642,83.06149438,-46.94476779,,,,
620.8959996,2425,0,0,81.77867547,60.82600418,51.32213845,136.2419804,101.5864045,50.39214848,102.562072,21.10982555,57.42270622,65.43670518,92.19539347,95.69104407,-55.55355458,103.5947478,,,,
620.9039996,2425,0,0,-60.01116573,-74.77773887,-108.7561462,9.953263627,-47.49893831,-89.51564211,-27.60040038,-108.6365854,-46.08770782,-41.35161314,-33.87535961,-46.64038496,235.6630688,36.8607769,,,,
620.9119996,2425,0,0,117.7989396,116.5662475,27.86377798,194.3404418,107.706328,92.0269506,21.19760222,-45.50741226,-23.61853636,-14.77615519,9.921359076,20.29411061,-109.1418593,37.76145074,,,,
620.9199996,2425,0,0,12.9612778,-10.95354854,-82.44363847,38.08421096,37.42513538,-30.51055731,92.27740443,24.26592296,65.83566123,69.68694413,92.54649263,89.9053889,161.6558594,164.0341254,,,,
620.9279996,2425,0,0,30.3818188,27.19625493,-144.671132,84.5812606,18.44375506,-9.35724895,-42.03975919,-109.0399002,-69.34963567,-56.66165781,-40.93829302,-49.50317203,107.2416093,14.89625847,,,,
620.9359996,2425,0,0,99.37232229,85.2488142,-24.55221444,173.5614283,115.7734901,59.02223607,121.7498958,57.12381061,80.55803422,84.31476363,114.2498781,113.9725765,-48.96549158,143.9647592,,,,
620.9439996,2425,0,0,-78.214904,-86.67280656,-201.8744922,-19.49431624,-66.97599339,-133.2148349,-29.76285927,-92.55499178,-42.52238709,-30.82814679,-28.15967023,-45.86959084,224.1635727,44.99502553,,,,
620.9519996,2425,0,0,68.05889307,67.6525628,-69.52713378,130.6321774,61.3331791,10.8039524,-9.964255792,-65.09805526,-51.5671702,-35.7671325,-13.42709612,-24.1749887,-148.6096293,-5.498318275,,,,
620.9599996,2425,0,0,-1.836300263,-22.61022182,-96.32520103,40.68913437,22.75711799,-51.5060979,76.76822602,11.18359977,54.32314609,51.55573244,73.26114365,53.13546366,118.9752382,113.9424028,,,,
620.9679996,2425,0,0,30.19864011,36.20412611,-105.6672356,79.14701639,16.13406935,-15.30187302,-36.04205987,-92.82406101,-57.22169704,-49.40854392,-35.95080832,-48.82223109,80.05896301,-4.469140695,,,,
620.9759996,2425,0,0,73.72764674,65.86748121,-8.373853152,122.3721955,95.65671273,20.69640748,113.4548661,65.208639,74.75267496,82.52762651,107.4276804,105.7067621,-71.93139049,130.0114146,,,,
620.9839996,2425,0,0,-59.58544381,-65.80145032,-154.0540995,6.086338036,-43.1727706,-99.04929579,-31.80063603,-86.14673017,-44.2597107,-35.85742214,-30.26381887,-51.0658046,214.9262008,41.72563848,,,,
620.9919996,2425,0,0,104.8565325,112.2141876,0.429528652,202.4171156,97.31971066,78.12088722,9.563901078,-34.60353511,-29.99233426,-16.94217611,13.8206436,5.646842237,-121.3290136,28.86364073,,,,
620.9999996,2425,0,0,-22.12224573,-31.9942654,-62.66056787,57.914488,10.27501059,-51.73279388,77.01108685,31.77039637,54.96518974,62.18228813,73.86757455,74.84798489,141.7203221,146.8069079,,,,
621.0079996,2425,0,0,32.53820558,41.69910317,-65.98557803,105.3221995,27.00829624,10.01821751,-49.15886921,-94.9760475,-71.90246596,-57.87337948,-56.80765408,-54.15264768,76.10513541,6.357223615,,,,
621.0159996,2425,0,0,122.9158187,113.0731446,41.16656342,173.0239666,130.0504028,77.11929367,130.084908,81.50571451,91.64406891,96.61052006,129.2665186,124.2863841,-47.74102569,156.186558,,,,
621.0239996,2425,0,0,-38.14422859,-44.85811508,-117.2095397,18.3429779,-33.17592557,-88.19535209,5.814990969,-48.8243425,-6.967953612,-0.355452887,4.871420374,-7.209948124,256.0188931,75.56123587,,,,
621.0319996,2425,0,0,116.1886984,121.6906295,28.72884051,191.5079819,116.6357605,85.15620225,38.15660638,-7.121589711,-2.138727979,9.413372369,36.68805001,34.5164138,-103.2904654,45.05867842,,,,
621.0399996,2425,0,0,-19.04703715,-33.20940507,-69.61502589,34.82087118,7.068909751,-67.79167019,80.53002222,33.58414943,60.40041559,66.8269379,92.57569603,75.61025251,148.5243005,135.3939231,,,,
621.0479996,2425,0,0,-13.59925824,-4.794797944,-99.46974184,43.51312803,-27.31573907,-53.19673981,-78.46837327,-124.3802824,-99.67721339,-81.69879459,-71.76967924,-89.1118941,60.80134845,-45.24551247,,,,
621.0559996,2426,0,0,67.96025941,66.14881476,19.37696469,118.0818793,91.02397399,33.6323647,87.44438672,38.54236485,49.58484984,57.72969325,92.11640393,78.37789427,-84.60271443,92.58195882,,,,
621.0639996,2426,0,0,-88.43653594,-84.07640174,-144.8558717,-13.22433486,-66.53736861,-121.9004384,-44.25454154,-99.53677861,-55.95986301,-46.56278417,-39.47240734,-54.71094195,225.0952762,18.19186016,,,,
621.0719996,2426,0,0,61.38896168,75.52352746,8.973202223,163.7968767,69.42544381,39.58908092,-13.49909689,-62.39694889,-55.15777634,-39.18267982,-11.53573205,-21.74030629,-127.2762659,-13.82906393,,,,
621.0799996,2426,0,0,-29.63629629,-29.0320612,-44.4838174,50.21318946,13.03220163,-63.51939104,67.88263925,13.69944339,42.75758297,49.37967669,75.45419031,58.34341541,134.2956333,111.4029442,,,,
621.0879996,2426,0,0,-4.876944515,24.04681705,-84.22946652,82.81059282,4.302000693,-23.82201945,-71.54896394,-116.685194,-95.13382735,-73.6235252,-67.16175777,-72.21071481,66.37198703,-23.90225119,,,,
621.0959996,2426,0,0,54.52389956,62.84305395,16.79426824,147.5180704,92.32637672,27.88980147,76.16043593,32.67772448,39.17780411,54.5866436,91.68629215,78.85016666,-74.37497201,110.499131,,,,
621.1039996,2426,0,0,-85.24950819,-76.41573205,-123.3396155,1.256388601,-57.50813919,-138.011269,-44.86014413,-98.73957466,-56.56213903,-47.71443746,-31.96790855,-51.26651636,220.7267719,21.10751425,,,,
621.1119996,2426,0,0,70.08151,91.40764123,13.10714086,144.8885449,75.71469689,28.99191918,-3.593977986,-45.96332291,-41.55038564,-27.15505278,-6.712649629,-9.094390475,-134.2983932,-14.32252444,,,,
621.1199996,2426,0,0,-36.83593045,-33.33070297,-57.9325762,26.47397912,-3.778387377,-61.02653148,61.37081863,18.42926789,41.58084157,50.80177363,66.93381143,58.89167486,137.6097837,98.4815142,,,,
621.1279996,2426,0,0,0.252942785,25.024296,-63.09832978,80.41209645,-5.555243214,-22.06717725,-73.16568278,-110.5012473,-95.34077503,-74.76099665,-67.20216053,-68.00435552,77.50241465,-42.71426164,,,,
621.1359996,2426,0,0,75.14104538,82.29890964,52.16431532,138.9136285,93.36892321,38.01763184,88.21177966,51.32756417,54.06888607,67.03088531,95.19759606,86.47544198,-58.51447095,96.31364631,,,,
621.1439996,2426,0,0,-61.01018103,-45.97189685,-100.0233172,2.519500325,-43.6606096,-93.65869236,-26.79540114,-68.95453895,-33.71879018,-21.8963943,-18.17898575,-26.96367943,249.8309392,32.73081519,,,,
621.1519996,2426,0,0,86.48355116,109.4871795,32.60361288,173.4617088,95.1874006,60.89292556,13.68231121,-19.76595822,-23.41297729,-5.637352754,17.44768688,25.27138106,-87.29484683,13.63138459,,,,
621.1599996,2426,0,0,-37.30044395,-38.84745334,-55.11582032,25.44486017,0.010511786,-68.43026942,61.92003976,15.54808666,42.00532076,48.18727111,77.52680243,60.94488386,168.7233106,102.0461552,,,,
621.1679996,2426,0,0,-20.69122134,3.754105641,-78.80684001,57.33547979,-10.3614138,-43.59865486,-78.48071856,-117.9567241,-97.53035692,-83.21513648,-62.02685264,-73.26321406,82.21791034,-47.69288132,,,,
621.1759996,2426,0,0,34.51161097,44.06008851,22.47373666,127.6555647,82.12989286,11.87404394,61.35195335,29.0522213,29.67773124,40.36850379,74.5895609,65.17035263,-66.90535236,71.40400593,,,,
621.1839996,2426,0,0,-106.2204672,-94.63779162,-139.2974647,-27.68519764,-70.77802372,-142.3956082,-74.23285947,-119.3999854,-80.96062455,-70.04610405,-56.89085368,-82.18982985,223.6453511,-23.05581045,,,,
621.1919996,2426,0,0,52.5085871,73.01252677,11.36949697,136.9414528,74.43731362,13.62916695,-10.89190088,-52.40260432,-46.53760806,-35.50330671,1.369434135,-14.02027423,-116.3630655,-26.7660038,,,,
621.1999996,2426,0,0,-57.15497284,-54.26195648,-57.07327871,24.11446358,-2.862547958,-83.08806113,44.57323484,-2.725833457,27.74164114,28.44682794,59.4187638,38.02451245,150.0602181,77.53647309,,,,
621.2079996,2426,0,0,-23.85384825,6.639356187,-77.26704346,63.88631487,-11.82271241,-46.82575924,-102.0881862,-141.5500471,-119.2306493,-104.0766616,-84.44371023,-94.57564961,70.13962046,-71.84925278,,,,
621.2159996,2426,0,0,52.95002809,67.37971685,41.02367123,129.9760572,94.63231423,26.06581801,79.04417628,41.55059135,47.60670411,56.35434481,97.12569988,85.10293523,-54.44607164,81.11574443,,,,
621.2239996,2426,0,0,-91.17690763,-72.86565314,-116.0186764,-5.30272412,-52.30323946,-116.4704697,-30.78864485,-78.24434193,-39.11665048,-32.15639832,-13.18329919,-33.24266847,255.3729628,13.41931763,,,,
621.2319996,2426,0,0,35.69723883,66.90359529,-4.030058342,145.2841765,58.29650007,-0.290532095,-18.06120428,-58.76224077,-58.09094175,-42.73747352,-10.27926228,-12.59112069,-111.5295127,-30.65211559,,,,
621.2399996,2426,0,0,-77.83398169,-63.89826042,-81.63845206,18.12569713,-27.40933824,-103.6971329,29.74684885,-22.92320444,6.034554488,13.32857323,30.99171661,20.00325116,134.1135282,54.87837907,,,,
621.2479996,2426,0,0,-28.11147585,8.832495473,-78.61029808,80.71477638,-12.89949615,-38.76271001,-80.44652076,-129.6241064,-107.0366082,-90.99597527,-82.29551962,-81.91766356,64.81548547,-66.31166429,,,,
621.2559996,2426,0,0,43.10156143,58.30289633,38.63313025,144.2562612,89.73385374,7.046197146,84.54534619,39.31597677,42.84639,53.81004172,87.50810174,87.78399681,-53.54253598,81.60920718,,,,
621.2639996,2426,0,0,-104.778034,-84.69166968,-123.9661483,-11.57584208,-67.90775817,-125.3088724,-45.06269418,-99.649126,-59.93779263,-48.61975602,-37.94527446,-46.75492885,250.8245484,-7.678981591,,,,
621.2719996,2426,0,0,32.61931786,66.9239649,-15.72741201,134.4255631,49.87967578,40.47690525,-29.1882909,-70.04633512,-68.41697265,-50.34625985,-19.76878155,-12.03272015,-114.1267732,-41.41158882,,,,
621.2799996,2426,0,0,-64.74781155,-56.52397427,-72.61711656,15.38739498,-15.35841638,-77.36744324,30.61301347,-13.74445096,10.47130808,21.21753054,50.11680288,35.03250104,152.1149797,62.10018158,,,,
621.2879996,2426,0,0,-26.27308995,1.233970608,-63.98024039,89.73756883,-5.56769615,-37.62671262,-77.16701512,-123.3154591,-103.098792,-81.35648465,-65.97503271,-73.7793745,96.82768834,-75.19300082,,,,
621.2959996,2426,0,0,12.71413636,24.66471262,7.944026499,142.0497121,62.761232,1.441921538,53.86873511,8.636173271,15.08556953,33.49077642,60.58186899,63.59171711,-46.61069079,43.13807859,,,,
621.3039996,2426,0,0,-109.065131,-90.72841019,-136.1094783,-22.11508836,-77.77538457,-123.0890932,-76.4234632,-131.2981739,-86.16997747,-68.92649981,-61.67400347,-79.5273698,238.3990274,-34.80001636,,,,
621.3119996,2427,0,0,47.318644,79.98368123,11.80346282,132.852603,65.75275083,32.76263168,-10.2285197,-58.46070022,-49.03953092,-26.99889448,-3.236423201,1.242319696,-95.95268997,-27.83059863,,,,
621.3199996,2427,0,0,-101.5434587,-90.6474668,-98.77650854,1.804964061,-42.12700968,-122.393016,23.36683878,-27.02876696,4.841979394,20.93397298,33.47628495,38.69926906,155.0533788,58.58300656,,,,
621.3279996,2427,0,0,-60.10817742,-29.27765876,-112.6768765,65.27256808,-44.33602536,-67.02376067,-123.6420851,-171.9964807,-143.0003715,-120.2665824,-107.013206,-116.2590498,53.80931304,-102.4244179,,,,
621.3359996,2427,0,0,17.73934841,31.69491915,3.557058398,128.4273419,57.3329321,-6.688862669,43.85637859,-3.957537408,9.712871995,24.0781971,57.62654603,52.42221131,-65.8487061,43.62631638,,,,
621.3439996,2427,0,0,-111.0212346,-92.78618207,-131.8932078,-22.7576346,-79.804615,-133.4228472,-73.57209807,-127.0783154,-79.75205196,-63.6394162,-61.34826823,-63.78399419,242.9715074,-32.31731681,,,,
621.3519996,2427,0,0,67.31554714,94.3605251,26.38628495,148.3668007,76.98695351,49.78052151,0.01185816,-47.51607248,-33.77706143,-14.71650481,10.25450301,14.95094258,-86.23832429,-22.00075649,,,,
621.3599996,2427,0,0,-58.63205981,-52.60152081,-59.23363907,31.67426731,-18.00600168,-89.72396077,55.85434077,0.242740852,39.88441643,50.83742089,72.77951537,69.35928049,184.5319297,81.46404619,,,,
621.3679996,2427,0,0,-39.46316961,-6.704541466,-77.42433496,77.71758985,-33.1642263,-34.15826504,-95.04535076,-145.9523937,-112.9392427,-88.984608,-78.35266723,-75.31118958,82.10776755,-85.55278962,,,,
621.3759996,2427,0,0,30.74992819,49.42425077,27.48995245,130.1724098,71.25702616,24.79469536,66.05867231,19.83503309,35.01150612,53.85155318,79.19149538,85.43149116,-48.40670589,60.4686519,,,,
621.3839996,2427,0,0,-106.6895186,-82.87307542,-112.4745637,5.555355859,-68.87692624,-107.9373715,-56.17869185,-112.8290953,-61.6970678,-42.48494155,-41.18485873,-48.09632693,256.8857846,-16.72829341,,,,
621.3919996,2427,0,0,36.57294759,73.93120878,21.44488534,149.5746734,58.98787862,59.73915062,-17.90645085,-67.11929846,-50.20407555,-26.8430592,-2.686143355,-2.905026216,-87.59838619,-29.17014789,,,,
621.3999996,2427,0,0,-75.27193833,-57.11272961,-74.80189644,-5.155468621,-22.3965457,-87.94320946,21.24808798,-28.71129905,12.04551349,25.69947745,42.48508919,43.32528395,173.8079209,69.9979978,,,,
621.4079996,2427,0,0,-23.95814632,14.85441928,-76.8347845,64.56698403,-12.09732859,-24.06873502,-90.52540133,-139.0185077,-100.4109633,-77.30433668,-71.31124079,-59.49144294,99.33148935,-66.39291362,,,,
621.4159996,2427,0,0,16.52359098,35.01383948,13.92383623,113.4271307,59.49928828,10.80498431,60.78327162,11.60492272,37.13615533,56.80575908,78.20274149,87.48584091,-19.53096261,69.39605233,,,,
621.4239996,2427,0,0,-117.0932225,-94.96582055,-124.1116174,-19.78306567,-74.36436152,-128.0055079,-85.68552127,-144.7866329,-85.61150283,-66.82675224,-64.1776673,-73.85251547,261.8186757,-34.11316242,,,,
621.4319996,2427,0,0,48.97000709,84.17916094,29.89293632,136.4740208,79.2048034,59.63512433,-13.97894811,-68.23337687,-43.86784981,-21.25889303,3.004060528,1.002098322,-79.6964594,-27.01422646,,,,
621.4399996,2427,0,0,-100.7281503,-86.41050651,-90.32326402,-27.75288656,-43.17318882,-110.3163267,21.59091828,-33.50993853,13.54288434,33.51221773,41.62446373,34.81088555,179.4066777,66.76799219,,,,
621.4479996,2427,0,0,-65.50439932,-26.57464522,-96.38948277,46.72300056,-52.16753746,-70.50055026,-130.7337356,-174.3870311,-136.9239601,-104.1965709,-110.1310187,-100.922496,72.37141596,-106.3767218,,,,
621.4559996,2427,0,0,7.955007006,31.49892828,27.32910659,100.8291321,54.15531629,-17.38176613,27.28033574,-12.0676382,8.069996682,36.76951626,43.92579893,60.95906409,-51.28880318,34.97370472,,,,
621.4639996,2427,0,0,-107.2939626,-82.02577536,-124.0826698,-45.35256067,-69.07718429,-132.3937646,-86.08945348,-137.842251,-83.08027765,-54.00550707,-64.48286415,-65.952711,254.99161,-38.02721688,,,,
621.4719996,2427,0,0,62.07784492,100.3395491,16.42365219,151.8736689,76.76742948,83.85366566,-8.743345027,-52.98044097,-30.80350054,2.690539136,8.747381922,28.58538786,-66.07906114,-22.09158147,,,,
621.4799996,2427,0,0,-69.04517772,-50.198697,-54.91374635,28.81642606,-12.25148164,-72.63488481,29.91621129,-15.451379,31.66885604,59.90567701,50.46593841,58.35628047,197.7775525,83.28067979,,,,
621.4879996,2427,0,0,-14.6553901,27.13430444,-30.14967446,85.61988164,12.15502808,-31.70289353,-97.70390137,-141.6965445,-100.1878142,-65.29786036,-70.9597601,-73.06290421,100.7887441,-67.4848605,,,,
621.4959996,2427,0,0,61.72975567,86.10857677,77.70678997,157.0251039,109.1040461,54.23699975,80.28390391,35.18672561,63.63651901,89.51439223,97.98985971,114.5402233,5.424741489,88.7793037,,,,
621.5039996,2427,0,0,-84.5096518,-62.10304942,-94.46258195,0.333455845,-47.06026836,-104.9978251,-46.87018505,-102.3755031,-40.24527944,-13.47234,-27.94254534,-21.72330774,309.1701394,6.848594712,,,,
621.5119996,2427,0,0,50.12126382,82.28288463,32.56388803,128.1196631,69.17804574,37.49739974,-8.17697878,-55.31259573,-31.10996813,0.041873937,16.31917833,25.21120143,-48.77788357,-22.64440748,,,,
621.5199996,2427,0,0,-77.84901269,-67.35550457,-55.34718455,4.12565613,-28.20616303,-89.52368567,10.88480645,-40.17952538,7.984997539,31.96985489,38.70779342,40.12216005,201.8742612,52.43670169,,,,
621.5279996,2427,0,0,-22.01430837,7.803747179,-42.59798284,75.09304531,-2.757303286,-20.75320252,-106.8519789,-163.3387489,-115.413134,-85.38910848,-75.06973964,-82.92938535,115.0168511,-80.91445443,,,,
621.5359996,2427,0,0,44.57684983,62.33911534,71.79887786,121.0857155,96.07436832,55.6150164,68.86535349,11.51335179,43.65159388,66.26861597,95.47537265,91.15367033,10.1843097,81.65530193,,,,
621.5439996,2427,0,0,-93.74947269,-69.63341177,-99.76040652,-16.38301635,-55.8054907,-97.07444407,-71.08166894,-129.7104758,-70.67601973,-41.18745772,-47.649069,-48.3173377,291.9548323,-6.97883729,,,,
621.5519996,2427,0,0,69.93945244,100.9818369,46.93498251,165.027144,86.52802479,61.48686577,-3.799450899,-55.67698818,-30.0683827,4.033456239,23.93789756,31.70888032,-54.57562971,-10.12907837,,,,
621.5599996,2427,0,0,-68.8791846,-58.99215823,-32.28940261,29.19978603,-13.53456724,-76.44862208,41.91229722,-20.23768011,31.29119999,54.85365063,64.94294107,60.43609731,212.1657519,76.45657364,,,,
621.5679996,2428,0,0,-60.6675853,-27.63387784,-83.2108685,44.23669288,-39.90614016,-57.22003595,-111.9066662,-175.3253095,-128.5699276,-94.49275652,-97.57558632,-102.8024349,93.57360283,-104.6949364,,,,
621.5759996,2428,0,0,19.63398575,38.05829781,13.77199184,95.56125349,54.68576696,5.163093679,49.23034752,-12.59683169,20.34194853,49.15999981,65.26606223,60.81845575,-29.3600765,29.08307737,,,,
621.5839996,2428,0,0,-94.08859541,-69.93434759,-100.0443241,-22.53685471,-67.34034658,-119.6722614,-64.4677501,-127.3993934,-69.98644942,-38.09026927,-46.54785212,-52.31766142,274.9029136,-37.7630964,,,,
621.5919996,2428,0,0,79.62826872,110.0542329,69.86381579,152.2616295,105.3267616,63.77649735,6.5791966,-47.37762506,-27.80973122,4.889827471,25.35808021,30.51563033,-54.87002235,-25.53115027,,,,
621.5999996,2428,0,0,-26.22338779,-16.92666589,-4.296927196,41.93899353,25.68067357,-43.91614563,73.75488502,10.82445935,59.78996944,82.05743769,89.39301521,91.55059839,243.9016952,98.37979129,,,,
621.6079996,2428,0,0,-25.72890191,5.582197546,-38.06005723,74.72008289,-18.62117948,-26.75452937,-69.65809912,-128.5396087,-87.06755904,-50.87645723,-54.18804071,-48.2366718,143.2500427,-53.17748328,,,,
621.6159996,2428,0,0,39.96270696,46.73178267,64.17799474,120.4789055,79.0309588,14.5740218,64.44748552,8.814927604,33.09493297,61.01708704,86.71985273,88.36294917,3.079052431,60.523892,,,,
621.6239996,2428,0,0,-77.4228392,-72.58374308,-84.2821413,5.93484119,-52.58387411,-98.54181208,-54.82343734,-120.1289426,-65.66943359,-39.27811217,-36.33874917,-35.90476618,299.5458595,-13.32498374,,,,
621.6319996,2428,0,0,40.63208245,53.22609571,24.53411081,137.4726068,46.73151449,52.16039,-14.97438665,-76.83043263,-57.56123277,-28.07951118,-4.734045232,6.927496345,-66.45208351,-23.34031825,,,,
621.6399996,2428,0,0,-56.32695514,-61.76359594,-36.69147455,8.987902987,-18.15992957,-71.4382562,17.23875024,-48.17058976,-7.379716585,11.53579695,19.67484271,27.56961555,178.7278826,65.5109871,,,,
621.6479996,2428,0,0,14.48328854,31.39362872,-39.38730037,95.08294288,8.41180549,2.510474788,-77.49832339,-134.1058108,-110.1004067,-80.22336044,-77.59321029,-58.0192637,99.14482883,-46.15109325,,,,
621.6559996,2428,0,0,59.01555717,53.89593511,22.79815844,111.7555729,72.99653631,30.1314306,89.31875956,32.79359291,40.34945228,60.88956682,85.86707812,107.6156764,-9.357211027,108.6471327,,,,
621.6639996,2428,0,0,-81.46146955,-82.84111787,-127.3369552,-29.19208569,-77.3768559,-123.3128335,-54.75530769,-119.8835392,-80.12552603,-64.15708878,-62.47145591,-50.15077243,263.6464911,15.38165009,,,,
621.6719996,2428,0,0,57.35569343,65.60046622,2.998500807,154.8134053,55.91510825,36.00937723,-9.740534283,-65.59199029,-64.25822312,-45.05533171,-6.834474054,3.06943444,-91.56605054,2.05487809,,,,
621.6799996,2428,0,0,-52.90584282,-63.06390586,-72.14029483,22.43113492,-18.31008085,-85.02145564,34.17324618,-26.17977465,-0.93660206,10.54297631,38.15123265,36.66614028,179.2802311,94.7535557,,,,
621.6879996,2428,0,0,-3.42608952,14.87343549,-60.18132295,85.81685725,-0.917476289,-16.04444608,-76.66946908,-129.1595522,-113.8676974,-91.81774201,-74.90630479,-71.35827115,87.38126023,-31.52643933,,,,
621.6959996,2428,0,0,37.74655491,45.30134701,16.01012937,115.9106805,78.54527063,29.74049097,72.45229843,24.30913563,25.54108484,40.5028966,79.35113432,86.4590623,-24.19423439,115.9584416,,,,
621.7039996,2428,0,0,-108.4135317,-92.90752322,-155.9553811,-41.93646805,-82.00686991,-131.6119455,-81.7995502,-131.9399531,-100.1325709,-82.75900106,-79.7667027,-65.49532553,248.7362847,16.9593884,,,,
621.7119996,2428,0,0,28.94399384,51.60141881,-22.86810326,123.968123,41.07926302,8.375088002,-44.59088413,-79.99337304,-86.37615107,-64.22981549,-31.71086444,-18.85440664,-119.0213854,-10.44638663,,,,
621.7199996,2428,0,0,-75.56077024,-71.93912604,-85.64696015,-2.233368198,-28.0466053,-98.03759029,-2.400525695,-44.56175477,-23.73078071,-13.92457246,16.48445929,17.04176612,154.1694784,76.27833454,,,,
621.7279996,2428,0,0,-33.53091725,-2.495789306,-92.68282595,43.61802016,-26.39725873,-36.57211337,-117.162265,-151.0583164,-142.0588668,-119.5300476,-107.6536318,-86.22351526,70.27713411,-48.19850242,,,,
621.7359996,2428,0,0,17.29784847,31.99094723,-9.466287554,100.0810194,62.72362556,23.30151724,31.6468081,4.100589357,-1.543472482,17.44466245,52.02922805,66.0479771,-46.41767309,96.42397998,,,,
621.7439996,2428,0,0,-87.9740108,-69.63598206,-126.8731669,-13.51858008,-50.85243913,-91.46039085,-88.29366063,-130.2958975,-98.82916543,-81.71118086,-67.91910822,-66.89569829,236.785827,8.166239653,,,,
621.7519996,2428,0,0,54.59764629,84.72721192,14.94015344,146.2667301,73.51538092,50.48868353,-18.08982619,-52.37179354,-61.46886142,-38.2938658,-4.08029261,6.93953142,-99.94501153,6.508689531,,,,
621.7599996,2428,0,0,-83.44401764,-69.13151526,-90.67303843,20.79705998,-29.108812,-84.687002,8.831445814,-23.99634618,-12.11877766,5.142097681,28.26204542,28.31809109,164.0548799,95.35147035,,,,
621.7679996,2428,0,0,-37.91883924,-0.60679541,-81.52161439,56.97444448,-23.53730598,-33.93325342,-115.6218615,-141.2707005,-140.4213949,-112.0890943,-99.63637452,-90.68795544,52.66158145,-52.75612427,,,,
621.7759996,2428,0,0,19.56620541,39.64708812,18.4948574,93.13093935,61.32709877,13.99325168,43.29398852,19.99865324,3.599927769,26.75087843,58.59182799,75.09621191,-54.93991392,81.33598201,,,,
621.7839996,2428,0,0,-105.0533034,-78.5989874,-136.5972384,-16.6117536,-69.7558479,-115.5212803,-89.39644284,-120.6003807,-103.220058,-81.09415669,-78.49860549,-64.12608537,226.0682974,-0.089477473,,,,
621.7919996,2428,0,0,40.5831456,75.62635017,0.828018651,131.330127,63.78387095,33.75332722,-25.30955566,-45.55399906,-67.23360491,-40.57585784,-17.62110576,9.22941816,-120.4858918,1.49595955,,,,
621.7999996,2428,0,0,-81.93537863,-67.42057625,-79.61999158,-10.46321513,-31.66779683,-90.86043789,11.7614282,-13.51265509,-11.00820128,9.56032655,25.74202881,42.118781,150.5903646,81.63672197,,,,
621.8079996,2428,0,0,-25.3278156,12.72018354,-59.00948514,47.96696445,-11.91777647,-28.99286299,-106.2067614,-130.0825747,-133.1433957,-102.0354893,-100.445277,-87.63828636,45.839478,-64.01089862,,,,
621.8159996,2428,0,0,24.51588272,43.3517909,27.64521506,94.67825961,66.68571532,8.663631654,57.22084653,36.00841974,17.80662879,43.71057755,61.68137608,74.7168731,-47.61288001,81.57704806,,,,
621.8239996,2429,0,0,-112.8519469,-88.45979684,-140.629324,-27.68120053,-89.43239714,-136.1984669,-80.78946116,-111.5028149,-96.94892653,-70.97096773,-71.04630721,-63.89116166,233.9376282,-11.89122707,,,,
621.8319996,2429,0,0,50.73896154,87.7241947,12.70134992,122.2309787,64.61769814,23.07172096,-22.29138075,-43.10516553,-64.69045923,-35.82299291,-17.02744004,5.048133451,-118.9433875,-21.55654347,,,,
621.8399996,2429,0,0,-59.44046287,-41.4711752,-61.95644861,8.812705156,-14.23874374,-84.21971685,29.06863033,7.587446036,13.03444038,33.74674722,34.94578462,50.08949916,173.3897991,79.67228306,,,,
621.8479996,2429,0,0,-24.14093238,19.10613459,-71.60479462,75.96519124,-21.86539081,-28.17690604,-80.10190726,-100.0331773,-99.19194109,-68.18210202,-78.20311386,-67.14105572,76.96242261,-48.59429411,,,,
621.8559996,2429,0,0,9.424161898,33.52621104,5.403875837,85.03232988,49.46709255,-14.27156113,61.99047609,40.47491024,28.61758457,52.51051801,62.90791446,76.00132296,-47.29846482,73.4106638,,,,
621.8639996,2429,0,0,-115.61777,-91.72833799,-132.9124635,-36.15429278,-86.50689418,-140.1155913,-88.49558261,-121.5844201,-98.30929699,-77.32889099,-90.43143524,-85.27100611,215.9451098,-41.96605449,,,,
621.8719996,2429,0,0,58.08555316,93.27281937,19.16348338,120.5383381,72.49384142,49.78993886,-12.89704563,-37.19546751,-49.44840756,-24.94134324,-13.51479953,-2.153535858,-118.7280141,-33.35185993,,,,
621.8799996,2429,0,0,-58.32008546,-38.76863678,-68.85668895,-13.15368549,-8.901356825,-61.56979495,43.28751487,15.91095341,29.9633338,47.57813942,52.72906808,61.61829245,181.0370411,81.21632399,,,,
621.8879996,2429,0,0,-22.48032897,19.96525935,-62.39317422,65.40549808,-21.38581581,-23.11143841,-79.66182783,-108.198424,-99.48566488,-73.20110908,-81.15336312,-63.46991936,71.17201858,-60.83940776,,,,
621.8959996,2429,0,0,25.93845288,51.70674038,31.2566938,87.12016973,57.58678062,3.744324844,69.40137129,42.34375192,34.67812866,55.83412565,66.60990943,81.84444547,-41.20728725,69.66511836,,,,
621.9039996,2429,0,0,-86.25492686,-55.4752867,-95.97274604,-17.00415212,-54.95446793,-95.27744656,-54.96391703,-89.83930551,-67.00064104,-44.72420654,-57.5534923,-46.93606757,253.1172521,-5.961215795,,,,
621.9119996,2429,0,0,64.27180471,101.609695,36.8595528,149.3576892,72.8727208,43.76892407,18.6850428,-12.24312965,-22.36870844,1.592526501,9.686626452,28.451013,-77.1761576,2.750956112,,,,
621.9199996,2429,0,0,-80.07484006,-62.36432167,-83.47297815,-28.09340565,-52.92658774,-121.4606493,34.92865098,-0.984760202,17.46771657,33.70915877,32.40436698,36.60798238,188.5588295,63.24972559,,,,
621.9279996,2429,0,0,-28.16107394,13.65977251,-72.723549,41.1677152,-35.49310075,-41.69454783,-93.12822713,-126.2529848,-115.0659987,-90.05923869,-100.6853215,-84.65122899,65.66657356,-87.20276142,,,,
621.9359996,2429,0,0,36.83164079,63.90333363,30.0410776,98.90272244,69.40760576,12.71170362,78.80010406,50.07313223,46.38567156,65.27984899,80.0585194,90.78710973,-25.1256004,78.49549156,,,,
621.9439996,2429,0,0,-82.06267774,-49.38444485,-103.6033348,-22.68858507,-61.4076677,-108.1521167,-61.38578813,-92.18758611,-65.03875872,-39.47795153,-56.85285989,-55.52727805,258.7694666,-3.520363389,,,,
621.9519996,2429,0,0,81.18302333,123.8351664,52.14977715,151.0118679,86.78982913,66.63224275,16.85022718,-6.489479563,-15.00622121,15.30406542,6.739132855,32.03075654,-76.09997797,12.38722213,,,,
621.9599996,2429,0,0,-52.73242912,-24.18737483,-45.4323657,13.28519829,-9.322133095,-72.63904083,62.99225862,32.93236931,51.57816442,73.90208437,52.84060163,68.77094457,213.4363355,108.5145409,,,,
621.9679996,2429,0,0,-36.29503199,13.40038386,-63.70322504,53.18983483,-31.3777759,-46.26021054,-89.64983607,-118.3740587,-107.2981513,-72.52892448,-100.4655134,-82.61146257,78.81963422,-64.19036353,,,,
621.9759996,2429,0,0,15.49769307,45.20258844,17.90068011,92.01380527,40.15244514,-11.45245859,54.6406072,26.98124744,24.16876773,48.47029062,53.03758144,69.36015686,-34.60434525,58.3318375,,,,
621.9839996,2429,0,0,-86.07048251,-50.86671033,-111.9160685,-29.06360031,-73.95405243,-119.1600004,-64.51648209,-96.6654933,-69.17878501,-47.20500957,-72.04812436,-57.51890627,254.5422761,-19.33751632,,,,
621.9919996,2429,0,0,53.61379724,96.91383986,27.6084642,112.3080348,65.16237642,37.00094536,5.017391349,-15.26320762,-28.3394082,-1.268829759,-4.861543245,21.84524051,-84.95880236,-8.044336194,,,,
621.9999996,2429,0,0,-69.93130931,-45.13651636,-59.59960228,-7.737351471,-23.24173571,-84.3742901,30.2071094,5.659111163,16.75070614,35.3091917,36.87467256,43.91088285,191.0348218,67.88194135,,,,
622.0079996,2429,0,0,6.872879527,52.27876624,-26.39798125,78.23934072,18.96058961,1.654611781,-69.84216473,-99.68426109,-89.95697672,-62.75296882,-79.47223563,-64.2633031,92.89085893,-63.94093319,,,,
622.0159996,2429,0,0,35.44138623,67.56318321,59.10197504,105.9804699,84.39827916,22.85341181,103.2195553,72.99950491,71.31823693,94.36637359,95.63370029,115.5906531,10.12910281,91.17519036,,,,
622.0239996,2429,0,0,-102.3524936,-57.31143982,-85.45555856,-16.0903505,-72.76902707,-123.2917182,-57.38692341,-84.2047629,-63.17937485,-32.49611405,-62.42999535,-40.10435788,261.7727114,-21.94907029,,,,
622.0319996,2429,0,0,77.43756748,127.1080783,58.62240997,150.4446389,88.57110564,46.0800378,21.1406195,1.312725502,-13.58284103,24.40871556,0.627957218,33.99518489,-85.87128782,-14.18541,,,,
622.0399996,2429,0,0,-47.75657574,-20.0682985,-46.68376866,-0.795536965,-3.9884202,-91.23956298,73.22445274,39.74671086,58.95638451,86.83345314,66.04689777,76.97861011,216.3567302,84.4274632,,,,
622.0479996,2429,0,0,-0.386759777,54.15559103,-18.81770621,65.51999087,3.611183222,-26.33043253,-59.56088004,-90.5057522,-78.0232521,-39.76516718,-72.88949595,-44.66482909,93.39048946,-69.48719501,,,,
622.0559996,2429,0,0,53.1193417,92.89175985,82.33646853,131.3981712,91.42733383,40.49880778,106.3790686,78.13203649,79.46810568,114.2562305,86.59394722,118.0170429,2.222734033,86.06248579,,,,
622.0639996,2429,0,0,-83.19864323,-37.47145481,-74.67686437,4.11271657,-49.86229624,-88.4409946,-33.7281533,-67.47748521,-32.5279275,4.312005016,-44.96483291,-28.0203612,296.5880429,6.829912304,,,,
622.0719996,2429,0,0,58.6124527,115.0296834,48.52641342,135.115046,72.24257554,32.59039607,10.09898932,-10.14717677,-14.38454627,28.39106514,-3.097486924,32.00573091,-49.92789107,-6.441171273,,,,
622.0799996,2430,0,0,-74.09030929,-33.94583927,-47.48631837,-9.537369258,-29.91988882,-107.2842686,36.9660766,13.93708501,35.93345988,70.87745986,22.00325266,60.81360123,227.6057492,67.01957161,,,,
622.0879996,2430,0,0,-19.12696529,38.36300935,-25.7642731,64.95063947,-5.007233162,-27.33084361,-77.5545921,-105.5694431,-86.55041393,-46.95771163,-95.22552297,-48.78549329,114.419003,-69.57992317,,,,
622.0959996,2430,0,0,35.17579417,73.06117987,56.80044193,106.1967118,70.6772548,7.17929448,81.55572627,50.46864258,58.12440443,89.57410327,76.42126752,98.90181424,26.72158096,71.09220925,,,,
622.1039996,2430,0,0,-99.54240874,-51.27882288,-79.75668051,-20.50593049,-68.27818659,-120.3542853,-55.86374714,-93.30482343,-55.70624537,-21.65909982,-71.8489747,-53.86530965,305.7997244,-23.73878549,,,,
622.1119996,2430,0,0,56.17953413,108.6887841,67.45957646,142.0618213,85.78732849,46.06834836,22.00062301,-12.14714405,-8.393804937,26.43789809,0.536002994,32.9905949,-32.33420739,-9.4927343,,,,
622.1199996,2430,0,0,-62.33247257,-30.51400296,-40.23307077,-3.436795945,-16.09662658,-95.27265933,49.82120909,11.58604224,41.85266718,69.57735726,48.29488075,57.87086114,255.5980953,65.14799646,,,,
622.1279996,2430,0,0,-13.60444558,48.82911516,-7.7432984,58.58292236,-0.571336551,-36.54711063,-75.49838708,-105.1034116,-86.19357793,-40.92621068,-94.41861847,-59.86258253,138.4716634,-79.36041702,,,,
622.1359996,2430,0,0,50.56778828,98.92288974,107.9474424,130.8013152,102.9232219,28.53934793,110.8815405,79.93105041,91.01715166,128.5522415,99.68144702,120.9923501,74.75366923,97.69378629,,,,
622.1439996,2430,0,0,-83.75713703,-27.46141035,-52.20350125,33.03730227,-40.50418086,-96.04084361,-28.63017563,-67.97752975,-20.83002485,13.76360864,-36.47281158,-30.76157637,366.4409146,12.41163579,,,,
622.1519996,2430,0,0,39.85811069,106.8788607,84.98239326,161.421628,73.96055676,26.65564541,3.801815616,-21.57346816,-12.71959667,30.27131907,-23.86509067,26.01294576,3.269062271,-5.599248353,,,,
622.1599996,2430,0,0,-85.1195526,-38.71923257,-32.39296884,-28.67116573,-39.046143,-128.4244288,32.45804142,-0.278915117,38.29315651,73.78023958,21.80445821,56.70755302,292.2354752,68.57507328,,,,
622.1679996,2430,0,0,-44.07540028,27.41070213,-67.81073796,24.96869906,-34.75969922,-76.59283897,-95.91738056,-120.8768732,-93.58895469,-44.43107718,-108.7508206,-69.77778054,178.4919197,-84.19483876,,,,
622.1759996,2430,0,0,2.452576488,57.38187543,38.21919978,98.38276332,60.78346968,-10.01255566,47.2357607,35.05559334,44.08708034,94.96968381,43.98427497,71.73769978,94.41684757,50.44915416,,,,
622.1839996,2430,0,0,-107.7385847,-46.75117968,-73.01507996,-3.566347909,-58.88693292,-115.1942988,-70.12432591,-98.07739756,-50.48434265,-0.418452504,-62.48925302,-62.73187946,403.4825496,-25.72827645,,,,
622.1919996,2430,0,0,24.66545457,101.1490923,72.44417924,120.6819306,68.99602386,-0.044367844,0.751103283,-17.18008684,-7.264928656,51.21365662,-11.95932838,24.04893801,75.17994113,-19.64532377,,,,
622.1999996,2430,0,0,-115.5168434,-56.69172435,-54.20560215,-45.45788037,-39.29622881,-144.5704221,8.535305711,-7.084515145,25.02321281,81.84103326,11.61979767,29.81372218,367.8437645,31.35496565,,,,
622.2079996,2430,0,0,-54.61238637,25.24385523,-58.43164988,48.6704982,-24.59505061,-59.16727252,-104.5045068,-129.4917949,-99.29568888,-37.68293452,-96.81650398,-89.46257083,268.78854,-110.4966742,,,,
622.2159996,2430,0,0,-3.316108854,64.5662489,64.44497709,111.2367823,63.4250758,-23.01704688,71.20925831,48.62028334,66.05029527,122.7442173,54.17019599,84.0452792,214.4684968,56.58981728,,,,
622.2239996,2430,0,0,-111.6137277,-36.3413084,-67.3090617,-1.820231207,-46.68002838,-133.3047064,-63.13969278,-86.69284423,-39.46510766,20.01925371,-68.07801419,-47.59395971,531.6698161,-31.31657408,,,,
622.2319996,2430,0,0,36.01851137,118.8303486,74.57615729,142.8995272,87.71497596,18.48874611,10.96622044,-7.496240099,8.301168042,67.8555032,19.27316054,41.53078736,211.4777806,-17.00944597,,,,
622.2399996,2430,0,0,-122.7760773,-56.91896464,-34.34927108,-47.21924955,-48.43946161,-160.3257933,26.06856451,8.551024522,49.2032693,103.0495632,17.56086882,41.7284006,503.101208,51.35621072,,,,
622.2479996,2430,0,0,-62.50794729,23.77952674,-37.12090629,31.7599022,-24.28269877,-75.20064615,-119.0766067,-128.6269447,-100.6970452,-37.77126356,-126.399242,-105.2572232,378.4399361,-116.342622,,,,
622.2559996,2430,0,0,-2.450118552,66.52901169,53.99086935,107.2340913,72.15192578,-8.342356518,53.13912433,41.4899962,61.01483726,115.5921221,51.26270539,70.12257687,322.9709036,49.77523298,,,,
622.2639996,2430,0,0,-136.2492193,-58.34872252,-75.78467413,-19.61309725,-72.0296391,-151.8571,-73.57426835,-93.11336604,-42.25687287,16.32481289,-74.28343592,-47.18892611,631.2924863,-28.5377299,,,,
622.2719996,2430,0,0,6.524585994,94.45098388,67.84338993,114.1422036,68.66460178,-4.435436064,-25.19334275,-32.28732172,-22.88445034,40.63503727,-16.08485533,9.127427115,275.4155789,-36.78991816,,,,
622.2799996,2430,0,0,-124.3194425,-56.36246127,-77.35648451,-51.80756221,-40.86912637,-156.9673774,-5.793077338,-14.29513934,23.54113047,82.1269392,-4.336919672,18.35031065,583.1108166,35.21120821,,,,
622.2879996,2430,0,0,-57.23717901,30.36739585,-61.22443038,48.07452692,-22.78011419,-85.69656441,-113.4304547,-116.1298706,-86.30549529,-14.09368392,-119.5301621,-61.06925507,494.3131998,-106.8583018,,,,
622.2959996,2430,0,0,-16.88666396,54.35024156,34.65396599,86.68229063,63.63436138,-39.06917556,49.91231687,53.97627682,65.85275831,134.1648655,50.34160786,97.81602986,422.1397854,39.85073947,,,,
622.3039996,2430,0,0,-163.0957162,-84.65761303,-141.1163032,-69.4518752,-83.5696841,-180.2095736,-111.1699545,-109.9360242,-70.05164771,2.363210794,-102.3990261,-103.4779309,708.0162985,-70.91065929,,,,
622.3119996,2430,0,0,-8.034648892,84.43196994,16.29978166,97.87248746,61.01160468,-9.155812884,-51.36870592,-39.59795186,-33.02282903,43.11277293,-55.79109679,-17.18914162,373.0548915,-63.30819328,,,,
622.3199996,2430,0,0,-116.6715845,-40.52525871,-100.2256588,-44.58410638,-32.32325718,-144.1187289,-9.716698362,2.032180545,35.41497304,103.1790951,-23.86709297,57.01639618,708.6716305,26.64312639,,,,
622.3279996,2430,0,0,-54.35406149,37.96708202,-79.98048547,51.09158342,-14.52902295,-95.81258254,-116.5587076,-102.1858419,-77.69265714,0.568506219,-114.7688281,-70.98197812,623.3582353,-113.7583218,,,,
622.3359996,2431,0,0,-23.11031651,58.546116,47.96611111,96.69820674,58.1603641,-50.45967122,49.60549772,66.53579893,79.84759221,156.0435916,50.34240491,85.33394471,556.1034564,44.43438455,,,,
622.3439996,2431,0,0,-150.1157369,-59.64831781,-160.7058498,-73.90508314,-76.13598007,-161.8131346,-103.2503538,-85.14109696,-45.47276954,35.11163587,-99.67046268,-47.77404793,857.3746875,-57.47540864,,,,
622.3519996,2431,0,0,21.09761296,104.9016602,-51.66941077,99.01425922,80.97239811,-3.331437515,-36.14591778,-15.79472987,-5.182349081,72.28053678,-20.38223907,22.78570079,522.7076333,-51.76530791,,,,
622.3599996,2431,0,0,-103.0637428,-36.83612521,-117.7408093,-15.07929358,-21.73822466,-142.5249279,8.19006141,19.89691386,63.97910128,133.4613883,15.6560949,49.42071429,850.9149915,41.86337723,,,,
622.3679996,2431,0,0,-62.43116635,33.37226009,-124.9480578,9.577666492,-7.973628714,-67.83581799,-113.383692,-92.80678355,-63.10186047,23.17076574,-106.1177664,-69.04584994,748.5316965,-99.26068512,,,,
622.3759996,2431,0,0,-8.890794461,70.36997521,13.10135662,41.71234461,80.45402735,-15.25561341,35.39211146,59.9150538,77.87613813,157.9429339,37.22052025,99.98534946,669.1826223,40.59579183,,,,
622.3839996,2431,0,0,-106.31357,-17.50393849,-53.6043825,-29.00622065,-41.47388036,-123.9650338,-82.50425058,-58.60916054,-11.70087478,70.80596994,-86.7447928,-25.93252106,992.7298001,-39.71978635,,,,
622.3919996,2431,0,0,37.781799,126.7748892,6.670396229,136.4286374,87.83961992,23.47571456,6.765573461,38.48573307,48.47999598,137.4823201,19.38890504,60.42038747,653.4802932,-10.24122847,,,,
622.3999996,2431,0,0,-110.932694,-40.16400062,-123.3186079,-4.27140597,-42.43130958,-138.6651891,7.201719305,39.51778542,72.4627279,159.0781946,-0.202253985,70.32564019,940.2761131,52.51053721,,,,
622.4079996,2431,0,0,-47.0951658,42.90240963,-97.75045655,22.00089559,-21.13264445,-75.18074046,-124.8963074,-80.46502886,-64.38015152,34.89612554,-131.4491869,-63.10935914,818.1419551,-97.9900285,,,,
622.4159996,2431,0,0,9.273161488,65.18431672,-130.7423929,2.268350221,69.98489731,-26.50298404,39.14492425,82.33025949,90.6558988,177.1675921,61.00917297,115.8837896,742.6013439,62.67976528,,,,
622.4239996,2431,0,0,-121.4573471,-53.28118371,-261.4070244,-104.4201392,-64.4968593,-149.6230334,-102.2156238,-57.29712409,-21.98431585,64.29008391,-104.55776,-29.1353691,1067.276005,-22.09651923,,,,
622.4319996,2431,0,0,18.99012025,91.8874394,-90.19932122,42.2714048,73.4667644,-10.27530896,-45.90388157,23.64812491,12.52251547,105.4197342,-36.91357265,12.10456749,720.7605543,-18.39276055,,,,
622.4399996,2431,0,0,-93.59633217,-50.73197158,-266.0671534,-104.3315186,-25.78172449,-137.4617664,-37.55441319,42.55264862,57.34816477,140.7440024,6.12972563,41.88295806,1034.951048,51.69313431,,,,
622.4479996,2431,0,0,-28.84349321,44.94862997,-217.6160085,-24.45693925,2.926391281,-52.50653676,-154.3289811,-59.66315338,-46.99246753,55.26557279,-110.0739455,-58.41211525,960.016502,-74.51606506,,,,
622.4559996,2431,0,0,-12.09240177,44.22533408,-159.0989816,20.97893364,70.22604334,-23.6394365,-20.32825338,80.43551255,95.78606703,205.6163688,35.96135865,71.9499509,904.6672262,64.52947614,,,,
622.4639996,2431,0,0,-135.1497827,-73.29729715,-323.6587315,-121.6914107,-73.58734326,-149.0471225,-179.0696567,-72.3348399,-19.7230336,73.03194191,-113.1117444,-58.70006027,1258.517751,-48.03957996,,,,
622.4719996,2431,0,0,22.84218059,100.7956657,-137.018222,-37.29017934,74.75095322,3.29020346,-108.3609364,20.1453273,37.02862854,113.3510316,-40.19347787,41.03590645,965.8597523,-30.75340317,,,,
622.4799996,2431,0,0,-116.0503842,-53.67304812,-253.1491597,-140.0419111,-26.6120347,-137.5546177,-96.96399809,32.74983655,77.20872999,153.3472256,-26.18017735,37.79984263,1304.02371,50.58511317,,,,
622.4879996,2431,0,0,-37.4503896,44.94437647,-235.8770101,-16.03354412,7.914149362,-56.16636588,-199.3901968,-57.77597861,-28.47102643,56.24754812,-125.8426779,-46.56397474,1208.610763,-78.36643628,,,,
622.4959996,2431,0,0,14.19896247,73.49907822,-194.4802059,-26.24120991,86.90679102,-11.10505272,-35.33186847,113.5618048,129.6028206,204.482605,54.7151974,115.183559,1136.414216,78.9001883,,,,
622.5039996,2431,0,0,-116.8948775,-54.02367557,-327.935462,-180.1726047,-53.68225624,-128.2002562,-187.8030094,-44.19986952,1.682507227,80.82390844,-93.02362384,-56.19753729,1457.502305,-20.79591693,,,,
622.5119996,2431,0,0,49.92368254,119.1489908,-182.5243293,0.029397384,111.1069689,47.59675235,-111.0747624,46.78295744,51.72189676,134.2751778,-19.14459219,70.30657511,1110.640076,-0.21406437,,,,
622.5199996,2431,0,0,-65.61257838,-16.92900217,-365.2564698,-105.2571656,21.43300521,-81.1297253,-78.46429911,72.97083062,107.8984067,183.4440063,13.99825425,72.625924,1439.100743,86.09261573,,,,
622.5279996,2431,0,0,-5.917932589,65.72104795,-299.9944853,-74.7718904,39.47175608,-23.93502433,-174.8791614,-22.06415,3.52718619,87.99770059,-75.9467462,-57.65412745,1353.074412,-44.2094197,,,,
622.5359996,2431,0,0,11.20083479,65.54040222,-254.680346,-106.0530738,86.24352341,-14.96854384,-33.60617738,134.0287366,140.6118577,224.936067,73.73084987,122.1876157,1256.483375,94.87701852,,,,
622.5439996,2431,0,0,-112.6996096,-50.92641051,-500.092401,-229.9744126,-59.0938184,-140.9434367,-200.9991896,-37.2812785,-2.475033979,85.4043673,-99.83030527,-51.96655787,1540.625119,-31.40581874,,,,
622.5519996,2431,0,0,65.70902677,138.6158112,-266.7627774,-39.70134874,113.2018809,36.09444455,-98.04781755,71.03335586,68.40894696,157.5208193,1.110531033,55.02892672,1187.44868,0.474213991,,,,
622.5599996,2431,0,0,-91.74056061,-33.90709688,-348.3448685,-175.7621307,-0.975647265,-109.4203546,-74.56869002,96.13644004,115.6047926,203.3136333,17.50267134,75.41456743,1516.763449,85.69967074,,,,
622.5679996,2431,0,0,-41.37234302,32.19465489,-423.3491723,-127.410271,7.205659368,-38.66537431,-212.7475648,-36.33549417,-29.22674648,69.06182052,-110.490258,-58.89571166,1386.149165,-74.40456563,,,,
622.5759996,2431,0,0,14.47060025,64.47533751,-366.5036011,-126.2338425,79.685819,2.896028621,-56.35127233,120.1277836,120.0947153,209.18907,53.34335326,109.0912832,1270.583097,78.01066701,,,,
622.5839996,2431,0,0,-123.4800698,-59.63985511,-479.528859,-251.5153423,-60.36256401,-123.3312921,-207.4801804,-40.51372799,-7.72853044,82.48576738,-106.1342675,-65.57155641,1574.570637,-34.23662931,,,,
622.5919996,2432,0,0,46.55731074,119.015811,-306.1781838,-58.21704008,106.5094398,49.57433305,-119.874853,65.51469365,51.2274083,148.1886629,3.119584613,40.69052249,1197.449407,-13.72954082,,,,
622.5999996,2432,0,0,-65.62859365,-12.78895169,-417.1841228,-219.2607228,16.98322645,-78.13435861,-71.6180015,114.348269,123.5983445,216.6150072,43.40199755,89.27856981,1528.054385,92.51041076,,,,
622.6079996,2432,0,0,-30.45487313,45.40484915,-413.4247922,-155.8436068,27.2744925,-27.37308445,-185.7306065,-10.79615768,-2.381412389,101.3470582,-87.3010156,-41.64296575,1419.129218,-56.39411393,,,,
622.6159996,2432,0,0,-7.594754352,51.75362904,-326.3731113,-120.9969689,86.57486547,-5.108061632,-46.95639125,129.1637231,124.4889919,222.6070684,63.70632269,104.2330932,1276.20864,71.0838437,,,,
622.6239996,2432,0,0,-101.9675778,-31.03605457,-433.3134559,-253.652694,-29.32017962,-92.28579708,-188.9098843,-15.50837719,2.809995528,99.59879912,-84.26264726,-50.52251583,1582.74516,-34.38218975,,,,
622.6319996,2432,0,0,59.28962676,134.0081347,-309.6791312,-57.10753253,121.5192054,69.98787171,-84.09168047,95.77208015,76.12334628,178.6552703,17.75790453,65.87755806,1223.605712,-2.182434039,,,,
622.6399996,2432,0,0,-96.95783061,-44.2156941,-449.989401,-219.7118896,-5.367600313,-89.79205367,-65.03310549,106.6048809,118.9294512,215.6320747,38.49952679,77.21376307,1513.358809,78.4971777,,,,
622.6479996,2432,0,0,-25.8544871,47.00100573,-412.2792861,-185.2233747,24.55391881,-14.33207992,-192.7048917,-29.26668272,-23.65370463,78.99735559,-89.42196401,-65.1758716,1371.844656,-86.42593814,,,,
622.6559996,2432,0,0,5.006654285,57.72131513,-362.4975455,-140.7399313,81.05098608,-3.477599186,-33.58953272,133.8112248,120.3685518,218.7682987,68.78361306,114.9029959,1249.948477,55.95787977,,,,
622.6639996,2432,0,0,-120.0436793,-61.7276545,-459.2831298,-257.8416076,-56.11737214,-119.3888521,-186.5036261,-19.83591521,-10.39154935,89.56641503,-98.12400209,-48.21714467,1549.83256,-40.05968185,,,,
622.6719996,2432,0,0,57.08826865,115.6496569,-281.7106002,-113.0092562,110.863949,56.99853379,-94.30925415,73.93489647,47.25524608,146.5729931,4.139436492,42.80377455,1159.389165,-14.13769375,,,,
622.6799996,2432,0,0,-100.2144397,-62.78233292,-462.1231668,-284.7882168,-28.82450281,-121.2726032,-79.74291528,83.12374197,84.60003795,173.3072766,32.65311307,59.32623171,1444.001127,57.60738675,,,,
622.6879996,2432,0,0,-54.20657279,5.08416884,-390.9181125,-215.638058,-18.42627286,-63.42872956,-224.0112828,-62.30093912,-68.98256453,23.04835241,-129.9460392,-106.7199019,1283.121451,-111.0714717,,,,
622.6959996,2432,0,0,-2.553707392,36.0643399,-290.0102642,-167.599756,68.08225232,-9.174432041,-50.49931428,109.5835313,88.97590571,170.966502,35.58289318,74.79896555,1149.2216,45.61288306,,,,
622.7039996,2432,0,0,-111.4288189,-67.81918161,-476.6868625,-269.2754222,-71.50675142,-123.0911887,-193.7872648,-35.14264489,-32.712478,50.42126557,-87.15720921,-49.71158152,1456.432536,-50.59956463,,,,
622.7119996,2432,0,0,56.30117518,105.2392032,-309.5079397,-104.5383251,80.81805356,42.86560779,-111.3221342,46.71750089,19.99451452,99.96499671,-4.235475354,13.81290712,1055.99406,-31.91127725,,,,
622.7199996,2432,0,0,-81.31001371,-52.03716338,-405.4775826,-266.5918581,-15.7588883,-89.59274092,-69.5049809,77.84301149,84.09314198,153.8649038,18.85812082,38.90095149,1352.074307,67.77118104,,,,
622.7279996,2432,0,0,-17.44118029,33.26749645,-354.8989831,-180.1236297,8.151484833,-21.27778207,-188.1958559,-37.02821632,-45.94374278,34.15646521,-85.81563909,-56.23425733,1210.5936,-82.83419501,,,,
622.7359996,2432,0,0,30.21018741,62.87767575,-276.0580884,-140.5830962,76.60169336,8.305122456,-25.79057812,123.3909538,104.3353667,174.1567035,75.04639353,100.6678773,1061.861318,63.92030343,,,,
622.7439996,2432,0,0,-89.30995747,-53.66526837,-417.811207,-265.8026958,-46.82377583,-103.4003138,-159.5903879,-20.25792973,-9.809897337,59.90744124,-81.57566569,-55.76771788,1360.05505,-27.50223044,,,,
622.7519996,2432,0,0,68.92599529,108.6313601,-251.6570523,-81.3435308,111.0363709,76.8116034,-70.4188079,62.36224575,41.51761908,110.5339776,27.10646458,38.95044524,949.8555539,-10.49032782,,,,
622.7599996,2432,0,0,-61.19980188,-34.40851531,-378.1269395,-227.6965069,-6.636901375,-67.41305539,-51.21962767,70.75526634,82.44728829,144.1549313,48.89829447,70.11874616,1230.097894,75.83954373,,,,
622.7679996,2432,0,0,3.526753748,52.39674271,-340.167857,-146.2553171,13.98097013,-6.901180255,-168.2076749,-37.67688413,-40.07088355,36.9836962,-85.13640058,-47.8259534,1104.845662,-64.88555518,,,,
622.7759996,2432,0,0,47.17084306,74.8624273,-234.7388962,-79.3335073,97.90696941,48.21203597,-1.649067658,125.2455275,114.2050206,182.7618115,101.3471661,90.31276495,968.3614244,86.35465328,,,,
622.7839996,2432,0,0,-57.25264029,-16.3784755,-352.9256421,-203.7182385,-18.55330868,-62.1041163,-135.903268,-17.97234139,-1.760897938,68.40762335,-45.11343663,-28.36551882,1269.922248,-0.175188176,,,,
622.7919996,2432,0,0,114.679153,157.729988,-218.7208511,-43.94683466,138.8921735,99.38528909,-31.4847019,89.76447072,68.83616955,143.4744726,44.25817689,99.46356322,880.5429655,28.23058727,,,,
622.7999996,2432,0,0,-30.80507192,-10.91305441,-317.0213333,-170.7100845,20.13474523,-40.70333704,-7.467115828,98.44610191,113.7847482,176.0915725,92.76459714,83.54863782,1164.580283,103.9947305,,,,
622.8079996,2432,0,0,-1.810739505,47.61399495,-256.1195388,-124.0346014,22.93926853,2.427477627,-146.8765761,-38.58702133,-35.73140254,36.98043981,-60.72052971,-52.4509968,1015.156409,-56.89593859,,,,
622.8159996,2432,0,0,22.74808426,52.64304878,-249.3610343,-144.5548833,69.09380654,8.552362165,-10.63322311,101.1255085,87.6962822,157.8285748,67.02183884,115.7099361,848.9361611,63.51343263,,,,
622.8239996,2432,0,0,-84.60244041,-49.59058321,-398.7469385,-252.3954383,-70.15814421,-118.3389807,-154.7397989,-56.6500202,-37.08269598,31.65033707,-60.47561541,-37.8221202,1132.702755,-47.8704052,,,,
622.8319996,2432,0,0,82.13957463,119.1975052,-205.3064897,-47.62382009,95.7284902,52.09337951,-53.79839867,38.83720227,30.75279358,95.42545213,36.20234974,39.50692108,744.9053899,-21.70720495,,,,
622.8399996,2432,0,0,-58.8938858,-41.16850522,-307.2856137,-191.6061506,-9.716416254,-69.18780394,-34.20409149,44.62757993,70.49015641,121.4040129,52.33634345,43.95263938,1030.514892,57.99776817,,,,
622.8479996,2433,0,0,-15.89553451,32.22547582,-252.0187713,-128.0940977,4.668617317,2.048624489,-160.667925,-82.58360831,-67.15629881,-9.075497299,-74.92797497,-59.82791682,893.1807106,-79.72102868,,,,
622.8559996,2433,0,0,16.92116626,41.07180821,-216.1423836,-102.091861,67.15218356,22.02975408,-9.2624452,68.71850623,73.44458608,122.7852639,77.14678143,103.3066826,755.4647811,65.17353088,,,,
622.8639996,2433,0,0,-77.16125491,-46.29014533,-337.2838907,-214.7893801,-48.1375008,-79.59608193,-153.0233322,-86.20594372,-47.47537583,0.26080241,-69.64166148,-60.47243813,1043.483834,-42.73496778,,,,
622.8719996,2433,0,0,92.27296448,136.8179743,-129.4916467,-39.66306661,116.6581072,95.56440551,-50.48330409,20.21624584,24.27352182,81.00148048,29.31287139,48.35417593,653.6991822,-1.500830908,,,,
622.8799996,2433,0,0,-59.31698895,-42.2155221,-285.7799067,-182.4388035,-18.79363048,-65.53284919,-25.35042964,38.52261008,69.57435117,121.3272247,57.52069059,70.43041811,939.4691574,78.76623705,,,,
622.8879996,2433,0,0,0.061330456,32.92206211,-248.6486819,-110.7394694,1.820773273,-1.23238326,-149.0127664,-93.25625626,-66.32249395,-13.40954784,-73.51530662,-65.694378,787.0337721,-87.11168228,,,,
622.8959996,2433,0,0,39.14807468,56.98180676,-163.8118342,-81.12309925,73.39932768,31.48561894,8.332141429,65.22422414,79.03077941,127.9199314,85.14759225,103.1682494,647.1687371,63.19242174,,,,
622.9039996,2433,0,0,-80.9753456,-54.10529826,-307.5584274,-198.4836053,-70.39259117,-90.48055986,-136.5721233,-84.36741121,-47.74555215,6.018458199,-50.69439826,-50.54554569,933.5816898,-40.4006458,,,,
622.9119996,2433,0,0,85.34133174,120.5361734,-119.5959686,-41.22717205,93.76113885,78.14112089,-47.4753731,2.333087676,6.886448653,63.25128728,31.18281277,38.89675047,530.9688843,-28.77419895,,,,
622.9199996,2433,0,0,-48.83734251,-33.91910243,-236.7289801,-179.2430357,-11.67627603,-65.20763243,-17.22837616,24.18571702,59.84922146,112.4250133,56.8765543,76.83682078,827.3457841,61.5248593,,,,
622.9279996,2433,0,0,12.84483518,44.98428497,-206.2425,-96.80565396,12.33021571,2.106972714,-127.425907,-90.71165361,-61.36295556,-3.529751036,-48.04601813,-49.56387508,696.252397,-82.1014681,,,,
622.9359996,2433,0,0,52.82732326,66.81199873,-131.3404339,-60.36761195,87.24123344,44.09253777,28.75623206,61.60341281,80.88432055,129.287951,103.8840036,113.2937537,558.9563748,65.33869538,,,,
622.9439996,2433,0,0,-66.06414389,-44.89049885,-242.8538424,-164.6039721,-45.59560813,-73.59209261,-117.7986582,-88.82664745,-44.61837957,7.375286151,-53.22815436,-34.9116759,845.3968209,-30.7865221,,,,
622.9519996,2433,0,0,82.74816382,109.0440209,-74.89229182,-21.32995738,96.50288847,70.64473652,-34.13030254,-2.822021125,7.110373057,60.0168494,34.03001112,37.62224132,449.5079977,-24.97655867,,,,
622.9599996,2433,0,0,-53.52693575,-37.2534239,-214.1737729,-173.6489266,-19.20291159,-60.14278495,-13.00776532,6.882657878,46.02357531,89.24237899,58.95679912,65.19038548,739.2459487,50.86585334,,,,
622.9679996,2433,0,0,26.59001565,66.62561849,-162.9298113,-79.37424445,16.08464754,25.21056698,-115.98758,-91.03866633,-67.88084639,-11.14467235,-55.97628764,-36.62237103,606.7474611,-74.88985969,,,,
622.9759996,2433,0,0,44.79565483,59.88964284,-115.0286549,-59.30432046,59.28128927,23.36341501,53.39587003,75.07606077,85.33869304,137.615748,104.0179504,119.7629442,476.483122,74.91226459,,,,
622.9839996,2433,0,0,-96.07537731,-72.05755083,-247.6454622,-163.7137161,-92.9311255,-94.9328518,-107.5951084,-106.6577362,-64.96500761,-17.73884643,-61.28837722,-50.84679383,740.8529287,-53.05908896,,,,
622.9919996,2433,0,0,77.77248073,102.2671272,-60.0505031,-2.095610516,86.73479325,77.53203192,-34.13605385,-25.78117043,-20.10548717,29.54816638,14.99264012,36.40168206,341.1413628,-39.62164549,,,,
622.9999996,2433,0,0,-49.47440183,-44.49297614,-174.5835362,-169.7643721,-12.05768268,-66.96946414,-0.595602558,4.323227444,37.09737549,81.90633855,57.34399495,63.78048053,653.0659196,55.39166354,,,,
623.0079996,2433,0,0,9.191516317,38.97990071,-101.228611,-76.21085075,13.45267073,23.29485448,-109.0294724,-107.3588247,-84.51599988,-31.72885972,-52.66383947,-48.93468835,518.5812058,-88.66496937,,,,
623.0159996,2433,0,0,28.58629688,35.01455986,-82.81571321,-67.549627,57.21114307,34.71315875,37.27188869,37.1130562,54.66632408,100.8996267,82.41696325,104.9353878,383.4601711,43.11962528,,,,
623.0239996,2433,0,0,-81.65264931,-62.54991574,-247.0285046,-177.8184037,-76.71859566,-71.6877718,-116.6431632,-126.1353237,-78.49631886,-30.49615177,-73.70945116,-60.23725906,660.2900029,-66.22542079,,,,
623.0319996,2433,0,0,82.94759986,104.0734262,-38.52953398,12.58370156,95.05011491,98.28300161,-20.8411739,-28.53868373,-15.94561192,35.17446272,35.03142268,33.27552322,273.3869097,-33.27740638,,,,
623.0399996,2433,0,0,-69.00681152,-67.58370611,-149.5863863,-131.1680356,-36.59293562,-69.74164177,-1.988780047,-24.00819561,21.73887092,64.5906577,45.4184743,44.96066183,572.3757412,39.09451406,,,,
623.0479996,2433,0,0,18.74827495,51.69383042,-84.15546552,-14.76609984,10.217295,35.29794845,-104.0771607,-121.7888231,-92.34658422,-37.07902762,-65.01994969,-50.68773724,433.5661154,-95.65598772,,,,
623.0559996,2433,0,0,52.82740424,64.67368239,-36.08344173,-13.33029081,86.30246528,61.77381117,74.90643232,62.94589456,79.38057279,129.7773576,118.2450159,133.3120185,320.3361823,76.58998036,,,,
623.0639996,2433,0,0,-87.85933696,-69.27121586,-203.7906631,-161.8096914,-74.0485802,-82.42695419,-87.00690983,-118.4521457,-66.95241639,-23.19777939,-58.31936388,-46.48375822,595.5803847,-47.29837942,,,,
623.0719996,2433,0,0,82.54060845,101.8624883,-8.836934984,24.67076257,92.62764242,88.77758933,-3.548963489,-38.97779629,-20.3331464,20.50963373,30.54858522,40.47201704,193.9919713,-37.98200978,,,,
623.0799996,2433,0,0,-46.89363011,-50.87395929,-115.5787569,-128.2347536,-12.48945525,-59.56174061,29.05011751,-11.07291388,36.93003565,68.38810355,73.83737726,67.88948768,498.7008228,51.40017999,,,,
623.0879996,2433,0,0,28.07953177,46.04150328,-72.40325616,-31.30327096,11.83730974,20.39913969,-81.10811107,-120.1441361,-82.87290377,-42.87158175,-41.6602831,-45.98236051,362.9114078,-88.23384394,,,,
623.0959996,2433,0,0,61.26388979,58.77215372,9.758310767,11.63250492,80.3188448,58.85926791,82.08580483,42.27018758,69.93174396,104.9295821,116.2669748,120.9507871,255.4227944,70.19630504,,,,
623.1039996,2434,0,0,-85.48147494,-73.11875516,-125.9146715,-129.4824883,-77.54371594,-79.10454279,-80.79813812,-123.0116236,-69.5964178,-31.74344722,-62.6690777,-45.46933302,544.5341967,-43.25734924,,,,
623.1119996,2434,0,0,76.7988484,93.66036178,27.8854805,38.27330013,78.19041782,92.55445904,-21.25646586,-52.81820377,-36.83252637,7.472342375,0.507994448,25.66004736,129.9624144,-44.46443053,,,,
623.1199996,2434,0,0,-38.10029124,-48.10729678,-98.40982801,-95.85356272,-0.512561424,-34.99572676,9.799760703,-29.93509516,18.73833765,57.52861909,53.68935973,54.10043963,431.0366925,45.19719445,,,,
623.1279996,2434,0,0,26.67825688,37.46724667,-63.10389209,-9.117338779,10.94717232,23.21763875,-84.81409601,-125.0353684,-89.1057062,-41.61587029,-47.50729509,-37.89910454,293.6838109,-87.72949082,,,,
623.1359996,2434,0,0,66.03644788,54.71217135,11.30975906,29.77156258,62.0904429,57.24682123,71.38155283,30.63946496,52.60276716,92.63026549,89.30918333,109.3916085,152.8933187,62.8229854,,,,
623.1439996,2434,0,0,-47.11779844,-54.21677001,-107.1236362,-99.7479332,-55.80514252,-59.34535741,-66.29783712,-114.6539599,-67.19985318,-27.52183676,-50.59097019,-49.63021189,440.4910437,-26.20727811,,,,
623.1519996,2434,0,0,91.44628136,90.11647365,40.74893467,45.4751908,75.38224193,82.41545637,11.03968443,-32.73075418,-24.81515971,15.29408217,26.36588675,38.67059952,40.19295979,-16.04481163,,,,
623.1599996,2434,0,0,-38.35465387,-55.81518059,-88.36787481,-95.6178974,-40.16842507,-61.57151485,16.29963082,-32.99342528,-2.569562652,26.82275379,32.98685043,44.37193286,315.8188255,50.2512753,,,,
623.1679996,2434,0,0,55.19655272,56.79288035,-34.92033172,-1.39931764,11.9225359,28.10031204,-67.32811927,-108.0878799,-98.32708328,-60.54265629,-47.60489205,-44.74196673,188.6944633,-69.12016534,,,,
623.1759996,2434,0,0,67.01415645,46.97537068,9.865163789,22.2349582,57.09085033,51.06370183,98.06919745,61.7762847,57.43840035,86.63716534,105.1363148,113.9394865,79.8981637,91.39263704,,,,
623.1839996,2434,0,0,-65.54793899,-77.08048605,-134.9404534,-97.78091192,-94.49405071,-84.63664994,-82.01361748,-117.0931538,-100.2257507,-70.13496761,-83.05503184,-62.62660809,340.954863,-30.81289551,,,,
623.1919996,2434,0,0,111.6862052,97.87184267,39.49977738,80.49147289,68.6883486,77.75317598,9.54353721,-17.94190483,-37.70163079,-3.995438499,12.85715048,30.19650304,-49.82123499,-7.373308991,,,,
623.1999996,2434,0,0,-11.78376383,-44.21873818,-66.09667817,-42.1305177,-25.14991244,-52.62693946,51.22660294,11.97319519,25.13505343,47.56577303,53.69709315,43.74321344,259.2394835,88.06425531,,,,
623.2079996,2434,0,0,52.21255998,48.51096292,-18.5223718,27.09827515,5.345104875,23.68939114,-61.3729461,-88.6150471,-95.2176968,-63.68024339,-54.37156085,-54.91841359,109.219542,-48.36009051,,,,
623.2159996,2434,0,0,67.77021157,47.46307482,40.43844218,44.48666765,58.88664793,62.03179396,94.04247907,73.45575664,52.69074759,76.7222251,101.8673431,116.892181,-9.165640189,108.8699193,,,,
623.2239996,2434,0,0,-46.23727385,-59.87997207,-97.42465468,-56.80123685,-78.17323309,-49.85978598,-66.03504887,-91.22502136,-85.9693575,-62.6618758,-65.83364538,-61.12992008,266.1047961,-0.209076152,,,,
623.2319996,2434,0,0,121.3654003,107.2885461,31.14606565,92.76136234,64.93363522,87.13673249,21.55863357,2.872060164,-23.99651757,-0.797044993,27.52642436,24.5930138,-118.9968407,20.42228164,,,,
623.2399996,2434,0,0,-10.5327953,-36.89995359,-62.57259312,-36.37715413,-23.76644258,-41.7654797,52.37061075,23.47273763,29.9261542,40.83586941,61.04146721,49.5110654,183.9589164,104.1637708,,,,
623.2479996,2434,0,0,60.71446079,66.44759974,31.68275709,49.64020273,22.35509064,50.09348807,-56.0421527,-73.23557107,-88.69703746,-63.63052601,-53.34633731,-48.07439776,32.67233517,-33.94504167,,,,
623.2559996,2434,0,0,95.50721687,83.8796588,80.48351112,76.03752037,78.50805297,80.67941701,112.9470367,102.773689,74.66904463,95.67212005,116.429654,127.7729245,-65.2127362,134.2734878,,,,
623.2639996,2434,0,0,-10.47049767,-16.65827727,-39.76813627,-20.75689563,-31.28902547,-17.82226121,-35.6774257,-56.40814323,-52.6355967,-34.56933869,-30.15156272,-44.90760229,225.3554427,25.88472059,,,,
623.2719996,2434,0,0,130.7066908,129.3449362,113.410079,100.7573751,96.01641313,107.2342424,44.33511282,29.48384169,-2.81741541,17.23558816,50.60242369,44.94845788,-159.8600723,33.48051311,,,,
623.2799996,2434,0,0,-21.2846217,-35.47842987,-31.91446382,-42.63690603,-40.76700555,-60.77406225,52.6934164,37.81579471,29.73356992,43.27720572,54.34674953,60.89920198,133.256096,101.6354525,,,,
623.2879996,2434,0,0,62.23283793,63.44645431,32.74679169,67.2255534,31.7664622,47.76452112,-56.92406385,-70.88479416,-91.52383227,-70.10084089,-52.1724793,-61.81632037,-19.27503981,-48.732535,,,,
623.2959996,2434,0,0,89.65406315,65.64259852,88.97860558,71.33401377,83.07164034,77.80238985,112.4371385,89.61633264,66.55366066,78.12527224,125.5519244,108.0562018,-108.2055654,109.3552067,,,,
623.3039996,2434,0,0,-43.49306089,-51.03677698,-46.71950155,-46.63498854,-77.31064131,-58.39428698,-49.98497503,-77.48199896,-76.72181969,-62.20172609,-52.20111528,-55.41828079,155.0502358,-10.95996705,,,,
623.3119996,2434,0,0,123.1544619,120.0593937,112.0595728,128.3739483,91.73172202,106.2259493,40.17316276,19.26614383,-17.25267648,-0.053363679,37.92510172,36.37111576,-257.3832374,2.838215479,,,,
623.3199996,2434,0,0,-0.145043602,-19.29822739,-2.755409009,-11.46453202,-18.27243011,-27.65367194,72.91784269,43.23834845,42.7425967,48.76965199,77.44760589,64.59912111,65.08125721,100.6646043,,,,
623.3279996,2434,0,0,51.3290991,64.81801945,75.5854543,66.8548049,8.135882435,47.53664821,-44.6000786,-66.09301968,-82.49750119,-64.60884855,-61.01268207,-55.31522507,-81.82812187,-44.3701825,,,,
623.3359996,2434,0,0,63.54149941,54.88110629,96.53039422,84.5419961,61.72644549,60.13538176,100.1716203,78.9493084,53.85739416,67.21991165,95.37805913,85.12503891,-202.2644848,90.75917926,,,,
623.3439996,2434,0,0,-48.56089474,-54.12469304,-68.28876638,-38.20199933,-73.97580911,-62.11648477,-57.78832683,-86.97949326,-81.69135839,-70.31972066,-45.31664661,-78.48421602,77.47492421,-24.74820224,,,,
623.3519996,2434,0,0,115.2332184,116.7273497,127.3627269,121.1271057,96.14129431,118.9423982,41.6824301,18.57602535,-12.55710705,-1.924560057,41.97364457,32.91501519,-307.7386904,5.288818025,,,,
623.3599996,2435,0,0,-25.04299984,-38.61435263,19.98483423,-8.011528864,-14.70420021,-28.68887863,59.51054645,18.92220288,29.2140483,29.69190599,55.12119992,46.19519085,-0.414749384,83.814833,,,,
623.3679996,2435,0,0,34.09813108,41.3505787,66.63790966,59.85691212,7.077726483,30.10594553,-54.22587458,-100.5317957,-99.57830198,-90.46434766,-72.42800245,-81.0536343,-156.4941061,-73.88725723,,,,
623.3759996,2435,0,0,69.78424843,54.32961403,133.2068767,66.50327985,68.70462836,60.23126886,121.7633092,76.66586291,61.99829614,64.25191383,103.141049,85.7238046,-257.8887877,80.90688013,,,,
623.3839996,2435,0,0,-39.82217795,-46.51003807,17.36860128,-9.368664776,-64.73570228,-48.58518971,-32.70643401,-83.53448883,-66.38347383,-66.59077343,-32.00002188,-74.06393198,27.5383005,-28.01448063,,,,
623.3919996,2435,0,0,112.0961632,112.3801667,180.0910931,160.7711811,98.54889359,127.065933,50.26745092,7.621171421,-8.790925191,-10.49004706,38.86958907,11.02191762,-366.0900922,-4.872317854,,,,
623.3999996,2435,0,0,-20.7557424,-36.37551294,24.29788881,-6.21777809,-11.75385074,-27.11870488,75.98923053,31.02815674,40.95659329,32.84122054,52.89484604,34.23610478,-47.50181086,86.60411634,,,,
623.4079996,2435,0,0,46.57163218,52.58291269,57.03379928,82.20916002,1.430211385,31.67624659,-34.5727364,-76.33307553,-79.86055106,-77.77590763,-43.07520444,-63.81811696,-198.1734447,-60.51583326,,,,
623.4159996,2435,0,0,60.36420945,48.56608465,125.0516654,89.46252144,57.07990989,55.44001226,109.4399859,61.11265811,55.56516974,48.76872776,104.950346,80.56248392,-320.5736559,74.90461235,,,,
623.4239996,2435,0,0,-73.32328398,-74.25139127,-26.65105279,-42.25540945,-94.48762522,-79.15792929,-58.17729776,-114.8635316,-91.40861531,-96.1429027,-73.1942706,-97.87666511,-44.62057667,-44.47950293,,,,
623.4319996,2435,0,0,72.48719582,76.50412375,136.3184519,124.0911061,45.40637757,78.58908785,24.00327076,-21.25840544,-41.78010599,-42.37948138,7.555992823,-8.731241143,-446.8289761,-27.76113202,,,,
623.4399996,2435,0,0,-53.88457979,-65.60037258,69.70284393,-4.240974618,-34.19865527,-47.48442446,35.55485962,-18.01679738,-5.502496302,-12.92647554,22.38141705,-19.30911354,-135.8524406,49.00960411,,,,
623.4479996,2435,0,0,30.61287538,40.6248665,108.4686491,85.28791597,9.604312677,38.79777598,-61.45328292,-116.0251802,-113.3018593,-110.8532767,-83.89629591,-113.7902784,-258.8853364,-82.20195865,,,,
623.4559996,2435,0,0,59.37125883,48.85167338,106.432795,80.86962953,57.47374165,50.91148207,114.6639836,62.20233865,51.54441211,45.56748697,95.50162456,90.53640498,-356.4317829,78.65113157,,,,
623.4639996,2435,0,0,-65.36962061,-64.30324529,1.090572842,-23.4113683,-71.00675574,-68.17704228,-39.92383641,-95.55454389,-78.65401359,-84.92732892,-45.516695,-81.84616612,-76.32468001,-37.5885214,,,,
623.4719996,2435,0,0,83.28847752,89.25293427,178.0158193,139.3214591,80.54013738,106.3437251,31.36487663,-17.03407558,-34.64746474,-37.99189902,18.52785873,-14.452068,-472.2559749,-27.36452886,,,,
623.4799996,2435,0,0,-43.41823499,-58.79040084,29.78225056,-13.39986602,-30.66019604,-41.12417235,54.02516002,-6.135597406,10.33431284,-2.603994416,33.7338718,8.234478044,-160.7295148,54.98524069,,,,
623.4879996,2435,0,0,31.76479411,41.0357891,104.8987891,97.53998035,-0.53479673,32.06332834,-38.75036969,-97.15897518,-92.22422752,-96.73532703,-56.88408433,-79.80156982,-300.4759889,-81.98250112,,,,
623.4959996,2435,0,0,57.29771131,51.53845406,178.9768134,111.981803,61.35726578,57.06972863,114.3087994,62.83028324,54.06320321,48.28628259,94.89159857,82.16719314,-410.380324,68.40268431,,,,
623.5039996,2435,0,0,-52.10982012,-47.2951239,43.56786183,0.739473783,-55.35485287,-51.4197727,-25.30195307,-80.59531203,-65.72380149,-68.11939078,-50.77492822,-79.3878782,-110.2795854,-25.70992491,,,,
623.5119996,2435,0,0,98.05167416,107.3170204,183.0344669,153.4453566,86.83780344,104.1894873,56.01997477,9.844512282,-12.1797727,-12.62122433,35.37710658,19.18765953,-485.8677316,-7.96952418,,,,
623.5199996,2435,0,0,-41.67560721,-53.70469173,46.57565871,-10.98887553,-32.65749858,-52.83856014,52.25603182,-0.534902822,11.67611928,6.079989437,44.86508291,24.56210295,-183.8144791,52.21412693,,,,
623.5279996,2435,0,0,26.27943362,37.71703069,114.752485,101.8069157,7.088492101,25.09004173,-45.39868216,-102.0767695,-98.85715193,-98.00319355,-61.08668971,-91.26903561,-322.7876266,-87.12758987,,,,
623.5359996,2435,0,0,44.54356562,41.26415429,184.2407196,122.4522384,77.25320435,52.94815419,111.3181055,58.01395271,51.17933928,42.79058238,90.88496348,72.92972508,-419.724966,69.92684732,,,,
623.5439996,2435,0,0,-61.03315562,-52.45088872,64.80136643,-5.610822739,-39.43719665,-41.2552569,-41.53461,-95.72513399,-76.84141462,-80.77987071,-57.6005225,-76.05397159,-131.5619015,-33.01135324,,,,
623.5519996,2435,0,0,104.5411694,117.7675366,211.9834949,160.5023489,110.2560706,121.1923046,58.87251501,5.484034745,-9.256935094,-12.92519551,37.18598254,31.25064164,-509.5547068,-3.778874598,,,,
623.5599996,2435,0,0,-37.96749045,-39.93046525,69.33175504,16.17475012,2.591958332,-30.31383098,77.3568949,19.89997966,34.43962421,20.9098409,63.24990057,46.32073859,-195.3504662,78.43282777,,,,
