Time:125Hz,Epoch,FP1,FP2,C3,C4,P7,P8,O1,O2,F7,F8,F3,F4,T7,T8,P3,P4,Event Id,,,
541.1999996,2114,0,0,-32.14045892,-201.4990609,-8.858321527,-91.40210257,51.13972454,109.978514,130.1205284,39.25661435,105.2044134,120.2936628,61.77116956,63.13148,438.1653291,35.93016394,1111,,,
541.2079996,2114,0,0,-28.89910157,-169.3949623,-18.91652354,-57.61273549,31.42783634,125.035398,-16.07027786,-110.7331286,-42.68801212,-19.26143378,-83.46720677,-81.32602263,436.6373383,-120.361122,,,,
541.2159996,2114,0,0,46.58574277,-105.0621823,58.88437888,-1.832311368,120.9889116,173.4145024,145.7446578,51.25493922,97.14669821,123.125847,71.72554686,74.38698795,169.6616496,9.648799218,,,,
541.2239996,2114,0,0,-94.95038426,-240.4950259,-79.98602967,-150.4244921,-25.00524052,24.91538924,26.40956816,-68.27043066,8.619756716,34.11167387,-63.70681515,-49.88617748,574.1775539,-74.39242824,,,,
541.2319996,2114,0,0,46.12921017,-90.47902489,63.08174866,1.951643047,103.1207476,170.2343199,46.55184658,-39.32904773,6.94496484,42.8530008,-33.16268797,-15.51855358,158.6052872,-94.77031787,,,,
541.2399996,2114,0,0,-76.62847872,-237.3663563,-53.95909214,-136.1165409,7.43937725,29.32885634,95.61440847,-3.133893248,66.43939756,86.98442873,16.63081711,23.15336845,387.6111663,-15.43443846,,,,
541.2479996,2114,0,0,-41.29026373,-168.2032559,-37.45841894,-67.69717721,14.22441512,84.17235643,-42.1945956,-137.6866905,-70.68039829,-44.08340146,-129.6347168,-113.2803834,386.3550058,-164.4354359,,,,
541.2559996,2114,0,0,46.53916187,-95.86826485,81.52991637,-1.496957817,131.0407795,158.6512271,141.4313549,57.55297589,100.1506443,133.8036704,60.10371022,81.07299087,147.074525,8.76906902,,,,
541.2639996,2114,0,0,-106.6018573,-251.2383422,-85.85292118,-168.3058774,-35.55939605,1.665077094,11.16509596,-74.95789998,-5.426850352,26.99549782,-70.79122905,-55.26162396,559.2529791,-87.07369686,,,,
541.2719996,2114,0,0,68.28872712,-68.26498371,59.99170854,28.78505393,108.0360374,187.3011154,42.44162918,-40.61257202,-4.717716045,34.78337028,-42.58882308,-24.67642049,141.868797,-101.4474747,,,,
541.2799996,2114,0,0,-37.05287125,-200.8287936,-16.04663636,-108.4128185,34.03961286,47.40759493,131.13427,35.43034709,93.52525157,120.3039106,44.8803131,58.09940055,386.3042268,17.80546674,,,,
541.2879996,2114,0,0,-35.00703133,-167.8041441,-17.50882279,-84.42186991,5.664445158,73.55812494,-22.11889559,-118.2268726,-62.88950966,-29.54429287,-108.2732979,-90.16735251,389.4434675,-142.2754321,,,,
541.2959996,2114,0,0,52.48191482,-89.60075364,69.76388466,10.19862353,112.6563549,182.2078869,129.2513274,35.54706506,68.86928133,101.7120883,42.79450623,57.376255,107.846712,13.59128718,,,,
541.3039996,2114,0,0,-90.24457607,-221.3506162,-87.96431645,-151.1172164,-33.18330704,2.882307083,15.74731197,-81.56731701,-20.29584193,3.64314303,-69.81481211,-61.55576523,522.4589397,-61.188812,,,,
541.3119996,2114,0,0,53.13598187,-53.06715978,56.27308106,7.20200403,95.22067414,144.281106,48.83345988,-29.62986895,-12.23577601,19.65884403,-39.7121852,-12.46034183,127.2260709,-70.43361897,,,,
541.3199996,2114,0,0,-58.93146133,-186.4412828,-43.7071319,-115.768793,11.70787052,57.01931521,106.1415113,31.10392792,59.95751599,80.23492769,18.14705295,35.95689279,346.978716,36.49583185,,,,
541.3279996,2114,0,0,-19.74837703,-120.0241921,-28.81998934,-63.94844064,13.98353755,96.34208978,-34.05618117,-106.3731381,-77.59383485,-56.33189599,-120.1321933,-105.4275661,367.2475204,-107.7094129,,,,
541.3359996,2114,0,0,64.73105318,-43.03000564,75.68878655,14.43082981,123.4360771,165.832673,141.2050513,71.59442963,84.57567909,102.7758454,52.00944064,78.52263113,106.7277513,51.3715256,,,,
541.3439996,2114,0,0,-102.8245274,-205.6966535,-104.339054,-164.7188659,-47.4426508,3.489306275,6.342329415,-68.10924784,-20.3910608,-9.159645418,-77.24896508,-62.09818032,498.1466069,-49.44548536,,,,
541.3519996,2114,0,0,77.12415674,-13.3353901,64.66152087,34.39747766,103.9062692,181.9433683,43.58231245,-23.40796906,-4.105514741,10.20699452,-39.79076119,-20.00921594,99.94001121,-55.2465688,,,,
541.3599996,2114,0,0,-13.65764417,-122.3571216,2.469111535,-57.98550905,45.53403737,88.17963666,131.659237,58.81747812,101.1444175,101.6857017,46.86491919,58.16816922,338.8372479,64.35195352,,,,
541.3679996,2114,0,0,-26.33949102,-99.74521291,-13.15601326,-54.13271654,17.60107501,91.3088832,-23.79485576,-84.13689069,-52.34330582,-37.14610489,-111.1857985,-91.95198277,360.0490759,-99.56384021,,,,
541.3759996,2114,0,0,50.33311523,-34.95008996,85.9944512,3.545436267,120.6350168,158.7494366,126.9926632,81.1125443,84.44582646,106.4272711,48.62230178,72.18865163,78.25503796,39.28861562,,,,
541.3839996,2114,0,0,-78.90344477,-161.3748178,-68.58529668,-148.3814748,-19.60381888,26.99178628,6.981343729,-46.12036413,-8.397817489,6.967019224,-62.9552773,-59.73026105,481.7593496,-49.92177633,,,,
541.3919996,2114,0,0,92.79090313,32.46305993,84.84986019,40.44542024,133.5238189,215.3269995,56.54511387,9.323541531,12.50894539,39.04382239,-18.13538455,-2.749981919,101.8579576,-33.17507732,,,,
541.3999996,2114,0,0,-42.79086492,-120.538119,-25.19065648,-104.9710628,32.3436379,61.91520633,114.9734904,60.6938694,86.80578115,107.0539804,53.39396985,55.6502648,319.4490059,76.3742239,,,,
541.4079996,2114,0,0,-48.61475028,-97.80779294,-55.28311316,-100.3337271,-12.59623617,46.48362597,-58.2146372,-110.2125567,-81.07219046,-54.12890876,-129.7630797,-115.6564012,319.4655727,-110.761981,,,,
541.4159996,2114,0,0,79.39158924,16.62876932,86.46076806,31.8358333,130.9028387,183.7021338,132.6270043,88.51769926,92.25312314,116.8628196,59.62525988,82.30470856,43.99600528,56.06451081,,,,
541.4239996,2114,0,0,-71.805837,-133.4069229,-70.76546404,-115.2233892,-18.15666314,40.79985873,28.59460724,-23.71827523,13.57605338,32.35431642,-36.71276529,-39.39823546,470.1991344,-18.26169093,,,,
541.4319996,2114,0,0,62.65908037,19.63369896,58.74169008,16.08243147,99.75327772,164.0947072,50.54011234,8.262896123,14.26862486,44.63177606,-32.30794587,-10.25368425,73.9413326,-49.87736589,,,,
541.4399996,2115,0,0,-43.81296264,-112.3438019,-21.96560844,-117.9933939,22.51633661,30.94249466,109.570497,65.60126089,91.48735004,113.7618672,40.98401075,53.16519258,275.4786781,37.82450151,,,,
541.4479996,2115,0,0,-52.08405175,-98.15064746,-54.36814888,-101.5443913,-18.96391548,58.51644744,-56.84366553,-104.3706096,-78.05076912,-48.80177444,-121.1464369,-116.9750095,301.5924052,-141.163924,,,,
541.4559996,2115,0,0,45.27129811,-15.88541124,56.92549213,-16.75240379,94.13471406,166.6280084,111.7637948,65.53010839,71.56347274,98.32311331,49.32042034,60.04942417,18.27669287,17.63107128,,,,
541.4639996,2115,0,0,-82.65404537,-147.1158677,-73.80374063,-150.1988288,-30.99070617,15.51003647,-1.411941601,-58.73745297,-12.61373753,4.751399116,-59.53583997,-63.59436868,445.9390192,-56.7376007,,,,
541.4719996,2115,0,0,77.32285698,32.02667308,86.56652218,38.47163671,117.7204556,185.1213554,47.22637216,-10.5029148,5.928585773,31.54560866,-25.03292066,-21.39673087,83.79329949,-64.60705956,,,,
541.4799996,2115,0,0,-31.79835985,-96.0097914,-0.79807253,-80.20748639,34.36159552,69.40372393,133.7147125,68.34020163,102.863332,122.8507601,74.35737409,60.98394988,293.8737902,58.93251619,,,,
541.4879996,2115,0,0,-39.92828184,-77.59658032,-36.97396438,-80.02239556,0.222043395,75.68637419,-38.67311568,-97.6850922,-64.30656168,-30.82536978,-99.39100839,-102.5599115,322.0931446,-111.1760078,,,,
541.4959996,2115,0,0,57.54113577,6.778806655,77.14309447,-8.803684187,116.6669499,161.4383039,117.7201797,67.63403063,80.9418691,114.4101569,59.35567689,65.68527848,32.35862076,37.2837104,,,,
541.5039996,2115,0,0,-77.20317899,-132.6262035,-63.95732137,-136.3920812,-29.96481523,10.8703505,8.147129793,-51.74160382,-1.168067641,23.29639386,-37.46530095,-51.52268817,453.4788858,-31.43773878,,,,
541.5119996,2115,0,0,83.6815119,45.53493405,89.77033558,52.45028881,116.1618403,194.3566455,46.82811769,-5.218153234,6.836457813,44.06241456,-14.09714405,-6.450280866,82.36400782,-49.62813543,,,,
541.5199996,2115,0,0,-2.580786697,-63.00348573,18.25286189,-63.81242554,55.46068749,85.99982125,136.2373384,83.66032179,109.0067486,138.8128502,72.33418277,83.89803262,295.1978092,67.78875728,,,,
541.5279996,2115,0,0,4.964430522,-36.7163447,-0.605707618,-38.62438788,29.36646866,92.66396985,-6.63359102,-62.22433405,-34.08586566,-1.108067197,-65.32224064,-58.03877608,354.7881551,-89.96147696,,,,
541.5359996,2115,0,0,72.6804372,19.59446452,91.52256392,26.08438059,121.1577449,187.7819712,159.5337023,99.51569188,111.2673592,142.0190885,101.6142327,105.9370074,62.33644888,50.10817315,,,,
541.5439996,2115,0,0,-108.4515166,-157.0833645,-99.44759033,-163.3802936,-62.17089787,9.692509262,9.908304086,-56.97165987,-9.315374979,17.71822269,-51.43905456,-51.21811591,446.4778972,-53.79473332,,,,
541.5519996,2115,0,0,57.37362259,23.93465715,64.66650774,14.09020734,92.88428665,165.7589813,13.14883922,-38.26474966,-32.28707242,6.603218133,-50.2338561,-33.21060549,46.10506514,-93.29787607,,,,
541.5599996,2115,0,0,-22.66034493,-81.79345313,17.20737627,-89.24604051,46.10252651,79.07317981,117.1901865,60.44005488,83.17756047,109.4004105,60.2398786,66.2537573,263.4466862,43.63687249,,,,
541.5679996,2115,0,0,-42.3810731,-76.35329818,-35.09407018,-89.54372722,-7.949406162,72.44660498,-38.00678596,-99.73762984,-69.26513349,-40.70931859,-94.29133479,-92.14340328,331.5282047,-117.7144799,,,,
541.5759996,2115,0,0,47.96584372,8.209366972,75.95620791,-2.616810031,103.7085897,153.7834145,107.6128445,51.12464283,59.65509396,91.19321746,53.75676039,56.72792906,22.06129488,9.94741598,,,,
541.5839996,2115,0,0,-96.60555114,-129.5608671,-67.16831436,-161.0542609,-48.11052623,-0.680179372,-0.582708669,-68.04639156,-21.5521415,7.080508433,-54.66821736,-67.3174174,433.6399028,-53.51299841,,,,
541.5919996,2115,0,0,63.4523735,45.31731052,70.95415955,11.34606882,88.01402989,140.2778097,36.19959484,-31.67324597,-13.72023323,20.01745177,-16.01008814,-33.2716865,62.09717551,-63.46479249,,,,
541.5999996,2115,0,0,-29.0829769,-70.01467091,0.895649228,-88.84006073,33.77199337,40.10577013,118.08155,49.19721216,82.62950459,105.9803746,65.98636153,50.94884656,250.7331707,50.89772033,,,,
541.6079996,2115,0,0,-45.30354402,-58.14814434,-44.50179473,-84.67494541,-12.49356375,83.42797664,-55.83956962,-114.5270708,-83.34529236,-48.33835467,-110.051198,-109.5801877,308.6964994,-117.3142517,,,,
541.6159996,2115,0,0,67.68179158,39.22190691,71.13996266,10.34489196,116.0171104,186.8092928,113.1860834,59.95710731,68.91655805,104.3892106,73.05598771,64.01863075,19.17604322,35.75711142,,,,
541.6239996,2115,0,0,-79.99392155,-106.1058862,-61.83197484,-131.3211519,-29.77133589,21.99441236,17.03637179,-44.3382049,0.278786195,30.80683965,-29.44906526,-41.14115111,454.4603895,-29.26019358,,,,
541.6319996,2115,0,0,58.80123776,52.49034374,82.30427857,41.56020693,93.01770839,189.360979,33.10587726,-17.83107329,-11.40499956,33.65005822,-24.42050801,-12.17066597,82.07871345,-57.95561097,,,,
541.6399996,2115,0,0,-30.78418292,-64.55479143,9.899888304,-86.74976584,38.71877561,75.70280508,115.7384457,56.08171942,82.42591619,115.3525865,68.29611562,66.7972987,261.5714447,46.319979,,,,
541.6479996,2115,0,0,-41.9472592,-50.13786249,-36.72243565,-101.2243612,-6.974206439,62.88495022,-44.85071515,-108.0211887,-71.71830234,-35.21496559,-95.89786919,-106.3622901,332.4636987,-132.7174269,,,,
541.6559996,2115,0,0,62.52542273,42.93625132,87.80934382,-0.156108434,111.9887899,151.1406183,126.9192054,68.6874534,80.35084275,121.0813077,75.77046122,60.64521211,33.9815178,20.70212826,,,,
541.6639996,2115,0,0,-109.0895823,-129.7500936,-67.76623721,-153.6884337,-50.63463846,-12.42068736,7.370986585,-58.45408216,-12.64006019,22.71209328,-39.88131555,-59.85848527,445.2842211,-57.02422467,,,,
541.6719996,2115,0,0,26.80712547,19.49084133,39.5317946,8.855258967,66.73979974,144.9120805,-3.386134793,-62.87468265,-46.92521937,-5.481961557,-53.88078264,-62.98063299,56.35888708,-104.0724043,,,,
541.6799996,2115,0,0,-49.80961506,-85.07507086,-18.3561705,-110.0313013,9.17394972,24.73170738,96.66541873,26.32384176,62.68856463,90.97590861,56.37702469,15.88262797,241.898922,15.07864046,,,,
541.6879996,2115,0,0,-75.6024888,-77.0981328,-47.2809616,-132.1280054,-49.38171154,20.41323461,-70.7848999,-136.8552436,-98.94826591,-61.85033158,-124.2011526,-147.6599173,321.9842951,-162.6885538,,,,
541.6959996,2116,0,0,36.33649497,24.13455345,55.72669541,-28.28827909,80.56107044,126.5666426,86.32604363,33.06911429,41.87452019,83.64851918,23.86489058,40.38534213,9.698286699,-13.12044621,,,,
541.7039996,2116,0,0,-96.36572332,-116.9914433,-86.61602387,-160.4098239,-56.78799675,-23.93336934,1.921778037,-63.75456914,-16.30570268,17.15939261,-35.69039527,-56.088378,448.8548318,-70.06483381,,,,
541.7119996,2116,0,0,49.53335516,52.57964493,65.32690932,18.05433666,75.00162643,158.2319267,13.48888677,-42.77964187,-27.43943254,16.70416951,-33.18532764,-41.89754928,93.59489285,-100.3349413,,,,
541.7199996,2116,0,0,-38.79257219,-57.24680393,-8.238648226,-85.48478434,14.35645991,31.29388622,112.1935272,58.00766967,83.58836702,120.4366035,57.54165102,65.85228415,268.2369995,36.05641459,,,,
541.7279996,2116,0,0,-79.01802891,-78.39547442,-70.12913618,-111.6822698,-61.63584091,-0.026625705,-60.23008596,-119.8621921,-88.2241091,-47.19949058,-104.3896919,-120.4624457,338.3126426,-161.5218956,,,,
541.7359996,2116,0,0,17.84347222,4.820412414,47.31714024,-16.55227247,67.49386978,141.5931463,84.83404342,21.6667413,33.32499973,71.74830626,32.14745563,21.46837124,9.263813678,-43.36006414,,,,
541.7439996,2116,0,0,-113.0124244,-127.6391344,-86.97903624,-163.4718948,-63.58698228,-11.46726253,-14.85343604,-84.68131054,-35.26647526,-3.201061738,-65.2833317,-76.81808207,445.4905004,-85.58896603,,,,
541.7519996,2116,0,0,39.70448717,42.68225054,47.67803468,-11.41644732,60.21326618,128.0271845,-2.206418837,-61.11664697,-40.76402153,6.090997196,-38.46813825,-56.2325707,96.14483372,-115.8405167,,,,
541.7599996,2116,0,0,-48.18501809,-74.06205163,-23.14732229,-119.3733852,9.529722305,18.94178951,105.4728449,37.68464548,76.76409645,113.9026656,63.83579549,42.77479511,261.2270388,9.296860687,,,,
541.7679996,2116,0,0,-63.32463427,-66.79862141,-49.92197007,-122.3861403,-38.50298623,13.66465297,-64.31072584,-139.60975,-88.60060578,-50.21210753,-118.625121,-142.7760754,342.4611512,-173.2998346,,,,
541.7759996,2116,0,0,74.92359061,64.87260875,104.0815246,17.32574546,113.3419974,191.3635675,122.481159,49.09167262,79.67368218,116.529939,78.59168302,43.00183913,35.75187778,-12.57952137,,,,
541.7839996,2116,0,0,-70.51503589,-80.49454962,-54.48527098,-118.367806,-28.75665318,37.25659151,53.55537407,-21.4019454,40.20711689,75.43243793,8.624125615,-20.07081102,489.1754348,-29.35541736,,,,
541.7919996,2116,0,0,44.08226139,51.16282519,34.20007019,0.991122346,59.81761974,131.6328841,22.85484434,-43.25241389,-10.23415339,39.10911139,-29.97799363,-41.24083371,116.7378389,-103.8031675,,,,
541.7999996,2116,0,0,-26.19586894,-49.01317186,-21.13391008,-115.3830641,12.13272047,48.19355696,112.2110019,32.56302139,93.34987466,127.3196961,65.50439961,35.32011463,258.5075488,10.3820683,,,,
541.8079996,2116,0,0,-22.35434853,-28.89485578,-30.01682094,-98.21174124,-22.32869855,46.48595572,-31.06292491,-117.3786436,-43.41285041,-5.783694434,-83.18749093,-114.9837345,370.2477307,-136.614044,,,,
541.8159996,2116,0,0,91.03487408,71.75396623,110.8491961,13.54383213,104.114849,145.9399989,145.7373,54.57933553,106.7830534,144.36827,94.15145831,56.60758102,58.27836912,-5.420924467,,,,
541.8239996,2116,0,0,-60.39006043,-82.5874018,-27.71295919,-153.0267787,-41.77459538,-7.997208155,65.49867723,-40.6371129,48.90359889,76.34744868,13.68668476,-34.37835302,493.0940319,-53.42171939,,,,
541.8319996,2116,0,0,69.10403484,60.8974214,75.56456198,1.668297865,70.07575121,136.9330523,48.13607578,-51.40748675,8.038478918,45.19879093,-4.496932991,-43.96709781,133.1323019,-110.0106916,,,,
541.8399996,2116,0,0,-30.20113779,-68.5349008,-18.28116039,-121.5658258,-4.100136826,16.75567532,125.0445588,16.13421582,91.82051766,116.6610122,81.67466554,21.76417882,267.094551,-10.06825709,,,,
541.8479996,2116,0,0,-42.74448626,-59.52647063,-32.14217911,-131.0198332,-50.11129308,-18.54986645,-39.22265565,-147.7806689,-68.33232193,-39.39468611,-87.60639574,-144.0594836,370.9783905,-177.9654364,,,,
541.8559996,2116,0,0,84.7939409,58.51874939,88.99951616,-6.118847033,94.18871091,123.263462,131.5429087,33.288181,84.46464691,115.191671,82.36979159,40.38824716,61.8927311,-27.25720873,,,,
541.8639996,2116,0,0,-80.33598179,-106.2310886,-104.3741375,-172.0638521,-81.6464482,4.10748832,37.52978429,-67.68508717,20.67225378,43.58991757,-2.416999834,-55.19496711,492.0147586,-65.37786485,,,,
541.8719996,2116,0,0,59.57893611,56.88281679,49.47664128,-9.054971623,36.62358484,120.1940998,19.88456869,-75.60354445,-19.17154075,16.11031357,-22.62651285,-62.53452864,119.7374072,-114.6128569,,,,
541.8799996,2116,0,0,-3.452728238,-30.88927975,1.436746532,-93.32265557,14.17376304,46.23576327,121.8340662,25.65307894,92.18571577,123.2754878,71.90736322,40.36449828,263.4091495,13.35060139,,,,
541.8879996,2116,0,0,-9.733340267,-18.62753564,-41.38961369,-76.23221601,-32.80555025,96.49076824,-15.71135839,-113.796534,-40.6956004,-2.85332465,-73.25330249,-103.6864462,395.0655184,-123.3348917,,,,
541.8959996,2116,0,0,96.6945969,69.47145769,98.27629674,22.23518158,84.1354776,136.6809668,153.4469815,56.62591852,103.9306155,141.0616923,99.05271821,57.18912725,51.73133707,7.320896158,,,,
541.9039996,2116,0,0,-77.35002072,-110.257166,-68.55531226,-171.5002056,-83.03947397,-54.86546341,33.1088614,-71.52551021,7.432684024,33.63909581,-22.20105781,-74.17338027,436.2107671,-90.16965178,,,,
541.9119996,2116,0,0,81.41170653,75.91861375,76.79723824,-3.484252081,59.91788114,146.7813164,36.04604873,-58.80736854,-18.30708445,14.82267012,-33.28333841,-60.41833413,83.31607408,-126.2839031,,,,
541.9199996,2116,0,0,-2.719084489,-27.35528394,-3.192172586,-125.5660874,2.891742266,17.49092251,150.0773245,55.61723176,100.9370552,128.9714817,82.20633275,47.01242505,233.0177816,16.33672411,,,,
541.9279996,2116,0,0,-37.3171547,-33.75195052,-67.99676938,-153.0048188,-70.77802933,-21.50467147,-35.91121581,-126.500376,-75.55493481,-41.15895871,-98.32810898,-146.3166581,327.688511,-173.2331645,,,,
541.9359996,2116,0,0,101.6584955,104.5286411,102.2314333,3.327082068,96.03932945,137.0125903,143.1412845,60.11914645,85.64297332,115.1476519,90.40664721,43.7076736,-13.09140758,-17.71149541,,,,
541.9439996,2116,0,0,-80.51075185,-74.79803068,-85.52975978,-148.0621736,-85.52868107,-19.38208489,41.55869777,-38.44844152,16.55460353,39.16522248,-9.011071988,-55.20877503,414.6535001,-55.74893064,,,,
541.9519996,2117,0,0,47.50370117,77.90564952,19.64721016,2.543803215,21.55176349,117.0438519,-2.559375274,-63.56242812,-43.89980515,-7.703736696,-57.25723461,-89.90809289,42.53430524,-119.5068103,,,,
541.9599996,2117,0,0,-3.324435784,8.100497059,-6.897512529,-94.1693771,16.90966765,50.08958307,114.1785039,55.18430095,87.65171648,113.3621153,64.36064154,21.289575,173.3637339,27.4762768,,,,
541.9679996,2117,0,0,-27.10971825,12.21202894,-62.61807801,-120.2660789,-47.57744579,31.54436388,-47.03509829,-98.41941171,-59.15372521,-29.87835353,-96.1749645,-140.2818987,309.6011295,-127.174931,,,,
541.9759996,2117,0,0,90.15646114,120.5374488,64.57859506,-12.5077194,82.83009356,124.437424,111.4304694,71.83520888,80.71837204,113.2751017,81.68499529,35.09638585,-37.97039495,7.164814112,,,,
541.9839996,2117,0,0,-69.37884159,-43.78463117,-75.44725423,-169.1259266,-70.41688982,-36.42851759,18.53944228,-19.60315742,15.68604736,43.41507384,-14.72664563,-57.45724449,385.9733456,-45.53535558,,,,
541.9919996,2117,0,0,79.90842191,122.1345203,59.74345795,-1.114510426,53.63808853,120.1313431,3.097972167,-26.84630056,-22.24801456,12.82921411,-39.2227671,-73.16279461,55.10848455,-103.5349998,,,,
541.9999996,2117,0,0,12.5802949,27.13993241,5.924499099,-104.1460751,22.75242144,27.46013224,125.4776429,80.8947777,107.3544842,126.7470044,100.8234887,38.60066992,188.5082766,36.67391643,,,,
542.0079996,2117,0,0,-11.65870855,30.31167478,-15.18230671,-87.78028745,-32.29860953,24.1284521,-32.72572411,-79.32383939,-44.10102526,-23.20951219,-67.02317449,-123.8598114,323.2934803,-127.6809017,,,,
542.0159996,2117,0,0,88.20096871,120.6188276,95.72601646,31.28402051,87.46953709,135.9016335,125.5513623,81.13151768,87.84495992,110.9108047,91.96242426,40.54127919,-15.69315325,9.952153938,,,,
542.0239996,2117,0,0,-107.5792953,-79.40013537,-112.1014043,-189.16123,-91.74839502,-54.80778256,8.709470528,-43.01619856,-6.488197473,11.98801766,-19.17594149,-77.62874584,380.3077918,-59.75670372,,,,
542.0319996,2117,0,0,59.89433243,111.8792818,54.86542008,3.049844544,52.67878088,127.6462036,-25.76503275,-62.32062339,-64.06101971,-34.30241298,-49.46714794,-103.2566135,18.99466678,-133.0496086,,,,
542.0399996,2117,0,0,3.399212176,29.05865566,8.600007581,-78.62465299,23.76546429,52.51152368,115.0814395,68.49488102,85.37801981,101.1595982,105.184059,31.47994853,163.5135242,41.36670549,,,,
542.0479996,2117,0,0,-51.10535959,0.811329674,-68.04259891,-126.5639366,-60.66540758,10.14783543,-53.18994734,-100.4270137,-72.05866352,-52.51132612,-77.88837552,-127.032756,300.4506371,-123.0845615,,,,
542.0559996,2117,0,0,76.31395772,123.6753263,80.54062059,26.84928613,77.75138656,133.8796034,90.1851136,56.96395979,50.79916047,74.95994218,54.53826816,29.72876866,-61.53776344,-4.811066358,,,,
542.0639996,2117,0,0,-67.8128154,-24.40153957,-78.5201712,-115.6643849,-58.08660742,-19.85220487,20.9593841,-21.06612045,9.692403427,24.74131935,-8.932224164,-54.98775867,373.1766318,-25.98571818,,,,
542.0719996,2117,0,0,82.54621286,144.9782978,62.25140084,46.46214515,69.94912717,140.2547487,9.059182765,-26.11374774,-22.51889563,5.975748803,-16.27729958,-58.92763488,48.12266842,-80.64955343,,,,
542.0799996,2117,0,0,5.107208398,36.69720008,6.054122767,-69.83085561,15.79825848,35.81037117,126.7473905,89.9156817,101.9937074,125.763342,102.9021692,54.41423467,168.7474351,46.62385727,,,,
542.0879996,2117,0,0,-37.8528563,13.87870671,-61.92551689,-123.32935,-55.61059489,-16.25275949,-46.8929382,-84.89649602,-63.44818571,-35.37464892,-77.96040314,-129.8388454,307.1292181,-140.2789376,,,,
542.0959996,2117,0,0,101.7054688,143.1076683,116.2750361,22.43973204,101.0271789,124.0140771,105.2676563,65.79085821,63.75419889,92.41759331,76.26643462,20.54032787,-52.84238767,-29.45042082,,,,
542.1039996,2117,0,0,-47.08727813,-16.35160491,-28.47855435,-120.6858282,-48.50992869,5.324996056,51.74161245,-4.792975411,34.76879128,51.64687527,37.78995535,-47.2370562,392.094142,-50.30322729,,,,
542.1119996,2117,0,0,84.58922543,132.1836442,76.56864963,21.55146678,59.6579184,135.4358609,46.96090679,-6.62945371,9.104664489,34.91366998,20.21548226,-44.94151383,80.96106589,-97.77033751,,,,
542.1199996,2117,0,0,-2.131922211,18.72823564,3.385442354,-98.57098396,14.92235627,10.42542653,133.6472086,71.72993371,102.1776896,119.6629465,97.44589596,39.61890806,166.4937689,4.485867539,,,,
542.1279996,2117,0,0,-53.87355117,-7.845483544,-80.48812333,-145.3948771,-68.50199878,-9.828943976,-65.41430031,-131.3266978,-86.78822303,-64.3469671,-76.38171607,-163.589464,297.5517045,-184.2836307,,,,
542.1359996,2117,0,0,64.08030134,107.7233179,62.91743141,-23.60145094,59.92971541,107.9353152,87.89883496,32.8250473,46.43273311,75.60625648,69.8180625,0.6619827,-52.93897599,-43.69486021,,,,
542.1439996,2117,0,0,-112.5034011,-71.28857171,-101.0953137,-186.444877,-98.46593525,-42.55800246,-5.972676795,-65.12648697,-18.95115843,4.856101221,-31.89311025,-96.57361461,353.7840146,-87.30058344,,,,
542.1519996,2117,0,0,38.84831764,104.0448231,23.04490721,-6.458406954,28.27040897,121.3520507,-40.73935718,-96.4729848,-74.49214967,-40.55778785,-57.94582358,-123.2040937,6.154719315,-145.4037166,,,,
542.1599996,2117,0,0,-3.087758098,41.36342222,-7.429297967,-51.38849558,13.10511863,36.79352513,101.8630994,41.3671192,74.20491304,101.0715551,77.11435248,25.07834564,116.9779135,25.23072198,,,,
542.1679996,2117,0,0,-64.37704368,4.611474508,-75.38953463,-88.39636933,-66.45465935,11.36157878,-65.09968841,-124.3938112,-80.16208029,-47.89407737,-88.41757441,-145.2117751,280.7720297,-132.1643208,,,,
542.1759996,2117,0,0,50.31119659,113.7299793,69.07303631,-4.781184146,72.59651333,115.5526872,63.18631229,13.56965638,28.13611707,64.74255048,30.79210629,-14.65682936,-99.10181501,-24.10403279,,,,
542.1839996,2117,0,0,-88.83900516,-32.77512552,-74.81784014,-145.3910224,-60.32518283,-30.56210642,-11.33180719,-61.78875169,-18.62719229,12.02960837,-35.05258969,-86.18774831,318.0095318,-61.67211918,,,,
542.1919996,2117,0,0,68.30116486,138.2839149,68.1153612,57.04902859,66.82429526,146.7347902,-5.887216266,-45.30737694,-33.28052845,7.145766705,-16.89367118,-61.87342202,29.89331496,-94.34748779,,,,
542.1999996,2117,0,0,0.788579572,44.34337188,35.08868498,-45.79639322,34.09262072,48.72035739,123.3537889,73.1050972,95.44251441,124.9653572,96.86529265,59.04340827,133.4660503,42.53992943,,,,
542.2079996,2118,0,0,-51.71250539,12.9914586,-53.34119446,-100.4148786,-53.98876276,3.845619099,-59.95140573,-115.5825297,-80.29905701,-49.53225329,-82.24729503,-139.5740242,275.5499661,-151.2282679,,,,
542.2159996,2118,0,0,80.22796126,133.1341386,66.57211181,17.95965891,79.02069481,119.7163368,89.08600616,46.09841513,53.26617491,85.2487693,73.63791777,20.14559188,-88.10574289,-19.52461897,,,,
542.2239996,2118,0,0,-87.78612473,-41.68014967,-91.53552503,-181.0967676,-82.63945053,-65.05794628,10.04964698,-45.00060585,-0.11842778,22.26888535,-6.568067011,-68.19797358,335.9461964,-65.35004265,,,,
542.2319996,2118,0,0,48.14312458,117.4074854,47.97406398,-16.69144858,31.93473115,105.3913863,-17.81701449,-71.61035057,-55.11248141,-22.82746138,-41.1715292,-98.18150719,14.77621468,-143.1079112,,,,
542.2399996,2118,0,0,-1.658979877,46.54929171,16.60083521,-63.55322991,24.83073641,64.73452187,106.4080316,51.42923442,73.10502171,98.61875533,82.42459006,25.1898299,101.2508015,18.83550319,,,,
542.2479996,2118,0,0,-35.97569953,34.38496526,-54.49224319,-104.5055997,-45.15307766,16.27996221,-55.12827241,-116.0113663,-76.99263811,-48.20331818,-76.31781222,-140.4330204,280.6610573,-138.0057436,,,,
542.2559996,2118,0,0,99.99104006,163.2232656,91.15043182,39.90626144,95.49237993,142.0306312,113.0476025,53.45668716,70.18993026,100.6694517,84.23526564,34.47641305,-69.9783312,-7.155774388,,,,
542.2639996,2118,0,0,-74.35687403,-15.22561306,-77.63235832,-121.626124,-67.37849604,-23.82088662,31.20034502,-30.13150155,18.34686609,43.05886643,6.043320442,-53.90295779,358.0352356,-41.02526545,,,,
542.2719996,2118,0,0,65.75199544,145.6813389,49.41514481,3.914807204,42.50303405,113.5387724,-8.465412135,-52.56031479,-39.66290394,-1.469361151,-33.3245453,-88.18941624,52.00734574,-121.6751001,,,,
542.2799996,2118,0,0,33.37474996,89.2873886,53.30376705,-35.58026618,51.38347473,71.87725748,131.0824518,83.34046267,102.411784,133.451496,107.0569999,53.50928841,144.9918732,32.24867152,,,,
542.2879996,2118,0,0,-8.918709107,71.58155633,-9.332135452,-44.46202379,-14.34016093,45.94319939,-18.91789862,-69.79042553,-39.90898645,-2.078702302,-40.88355338,-93.11309717,343.5422078,-111.3286403,,,,
542.2959996,2118,0,0,113.8351132,185.5118034,117.2686807,54.57337128,116.9223062,154.9189592,136.9664733,98.07693797,92.61906858,137.4032314,114.4960508,76.39461821,-21.02797223,17.70490458,,,,
542.3039996,2118,0,0,-69.36952681,-13.44053502,-57.27482525,-125.1895342,-48.1041809,-29.19778773,43.38893142,-4.721054731,26.81497566,64.06431835,17.73243806,-22.87057083,381.5049664,-35.13489263,,,,
542.3119996,2118,0,0,39.52847663,109.2342168,27.52366475,-4.768371898,38.47177098,111.362898,-16.69493068,-65.83030439,-54.66206939,-7.208826687,-38.13389524,-86.927611,58.53038382,-137.1648564,,,,
542.3199996,2118,0,0,-16.20611903,25.53267772,3.716556444,-104.0105826,10.1652463,44.12552472,101.8096658,41.53727768,64.28734311,100.9298762,91.50373351,17.70885756,120.8240353,-6.537882927,,,,
542.3279996,2118,0,0,-59.89158366,1.332865616,-41.95232575,-109.5496644,-63.98365592,-6.523352827,-70.57477303,-135.4198799,-100.5427307,-60.92393139,-93.79802667,-157.8129933,304.8412805,-186.6461702,,,,
542.3359996,2118,0,0,99.6282771,153.0128542,108.3268908,54.13595954,107.1754135,135.4618215,98.65279882,41.92659315,43.51539485,89.17927015,81.49460853,18.87523126,-46.53679124,-52.32922814,,,,
542.3439996,2118,0,0,-63.10101097,-14.76857366,-48.31391433,-149.389531,-50.97192482,-53.91847619,58.60504465,-7.20292883,31.63126845,67.68148304,44.2270218,-30.5384453,402.7810498,-47.89692097,,,,
542.3519996,2118,0,0,11.54994941,83.74796452,13.07378516,-54.92423958,-6.055838029,51.17507585,-16.17721044,-79.1082421,-63.89997505,-18.66377352,-45.77354912,-99.43873356,73.75823092,-161.9911212,,,,
542.3599996,2118,0,0,-45.26875639,2.026451314,-38.14325621,-113.9464355,-19.67095311,26.52735049,66.64070831,1.179845239,20.92400383,59.18685365,56.16404172,-14.42787519,96.43844592,-50.58642689,,,,
542.3679996,2118,0,0,-84.31608273,-12.10858664,-89.47472218,-146.6271403,-84.35944561,-11.40521333,-94.87153252,-150.6650642,-123.1021521,-76.92278985,-99.07313759,-159.4806011,302.6380195,-185.9195865,,,,
542.3759996,2118,0,0,57.91833973,124.3098173,60.8522909,-11.38494516,62.65205931,115.9440045,60.11593801,17.41500206,11.24240449,64.33837113,41.72995267,3.879849424,-66.77857186,-63.10842974,,,,
542.3839996,2118,0,0,-78.12992225,-20.67585744,-64.19235919,-142.6453125,-56.83317878,-17.19614859,18.83486775,-36.64212962,-5.365179776,38.37392652,-9.925858312,-57.7308819,372.4312655,-74.37628832,,,,
542.3919996,2118,0,0,46.47501154,126.5201319,49.25599535,6.100714958,38.46799402,102.9990813,-5.721325773,-53.6030502,-46.86912909,9.135010432,-33.24937655,-70.93016291,102.1607122,-137.6902621,,,,
542.3999996,2118,0,0,-5.922113459,42.58048116,10.17660103,-76.22030509,14.52205668,34.93718182,100.4634348,53.30469254,64.86493584,113.8314067,84.47202678,41.44031604,140.2719057,-10.62790745,,,,
542.4079996,2118,0,0,-63.98012508,0.922926944,-58.49016225,-119.8770837,-62.12827908,-7.218899613,-72.18024759,-126.4821847,-97.43836203,-48.39899616,-89.99712965,-133.831759,333.8481904,-173.9828504,,,,
542.4159996,2118,0,0,74.58901134,132.6992857,70.42600804,0.412138854,81.74259814,118.7027126,83.94644409,32.17836295,32.82656936,82.08315166,68.20864616,16.58147617,-46.78188869,-54.62371104,,,,
542.4239996,2118,0,0,-75.40377543,-31.67062395,-84.17836267,-178.4086695,-71.50596522,-36.19078445,21.2195689,-36.41735342,-1.518102815,40.49677401,2.340987385,-57.45304832,367.378744,-72.90311713,,,,
542.4319996,2118,0,0,50.40728204,109.7492351,44.2622658,-12.4011691,27.19490365,83.9797473,-20.04988817,-82.33668576,-63.86077898,-12.9567114,-42.13825743,-95.16996607,75.85214145,-152.5049721,,,,
542.4399996,2118,0,0,-3.696815298,31.08058323,19.17414543,-78.1592888,21.52942952,4.240548047,108.3972917,36.72781947,63.79744235,102.1511854,97.46154909,27.3741664,118.9807536,-17.79783107,,,,
542.4479996,2118,0,0,-81.11727768,-19.71460758,-66.34435372,-157.8776091,-76.46030356,-27.93147192,-89.50054566,-150.7784777,-116.4678839,-71.32996226,-99.52458246,-159.6599061,313.9631098,-186.3874138,,,,
542.4559996,2118,0,0,63.35245863,117.2186727,66.52134582,-20.95449569,66.56086024,116.4445554,47.19112905,-10.63895598,-1.942151085,45.35709249,41.89659739,-19.12813445,-86.43306665,-60.94477981,,,,
542.4639996,2119,0,0,-88.11174654,-46.85747616,-102.2298843,-180.5016747,-72.7846834,-46.18155113,10.40922364,-67.12512724,-17.09080414,14.07185455,9.864737098,-72.9904861,332.8237274,-70.46392948,,,,
542.4719996,2119,0,0,39.34651656,107.5637181,18.12682258,-21.06449218,29.48768184,129.1993669,-34.65491074,-105.4046051,-85.09495377,-41.73242157,-41.29982422,-98.90733386,52.87909548,-149.7990399,,,,
542.4799996,2119,0,0,9.94968788,52.22415225,12.9760094,-53.83324188,22.96672899,59.69677902,93.02842933,29.36314325,50.17191268,91.31309016,90.97486811,44.95819872,103.238247,17.71058111,,,,
542.4879996,2119,0,0,-51.9754243,6.041249548,-65.42346733,-86.90740738,-63.90482967,-7.985610839,-71.32212892,-134.6002894,-95.71038909,-52.93126802,-78.10782941,-133.1882107,313.5734106,-147.3061019,,,,
542.4959996,2119,0,0,90.53249819,143.8148846,93.56139297,48.44559047,96.06227515,171.7734041,79.71513561,16.3288645,28.15336516,72.04375033,63.09986117,6.470891606,-94.90994212,-34.17781407,,,,
542.5039996,2119,0,0,-70.29382056,-23.03609868,-65.68766234,-164.3704168,-61.68130641,-18.91042758,13.27800236,-52.05515095,-3.840478702,34.83319302,8.932053214,-54.47977442,315.449912,-40.12531742,,,,
542.5119996,2119,0,0,48.48881312,117.1566703,5.072729526,-38.69292461,14.23183624,89.03088267,-46.92267007,-105.7787832,-78.74103748,-26.9851688,-50.23626411,-95.81816289,20.95880802,-146.099185,,,,
542.5199996,2119,0,0,20.11986623,58.41129137,-0.253397921,-71.94850771,23.53389582,45.83643302,101.0694061,32.45473387,60.2097972,104.0306296,83.97166749,43.36600156,41.88563908,5.006143116,,,,
542.5279996,2119,0,0,-31.24823155,29.67644064,-48.46083509,-118.3195244,-46.02250628,-2.382278252,-53.66655202,-122.4641707,-85.0783359,-42.81937725,-66.03855615,-129.0980288,274.1822151,-140.2571065,,,,
542.5359996,2119,0,0,116.9387718,172.7725266,83.59360218,21.85896029,96.61341356,145.1194924,92.25566918,26.51581559,36.24987013,76.84278013,90.1205161,12.85915695,-110.9694536,-25.10884957,,,,
542.5439996,2119,0,0,-45.28088529,0.84025307,-78.3709571,-136.7005155,-62.5473113,-15.73343334,34.46156409,-38.06622766,4.26560747,37.85025945,22.99928863,-57.62601177,299.019868,-27.60335462,,,,
542.5519996,2119,0,0,74.23088854,148.797038,27.1561066,0.847881132,25.42613453,126.1742003,-27.15129632,-84.78233797,-72.34007556,-27.70435892,-45.0809974,-112.6928934,13.54522616,-111.8366524,,,,
542.5599996,2119,0,0,40.74162967,93.68963169,9.219416177,-61.18282008,20.28701031,46.1169831,105.0500479,50.99964055,65.67420122,100.8726625,91.82789316,24.16722713,25.95570837,44.18238084,,,,
542.5679996,2119,0,0,-36.63345209,45.32653404,-66.821771,-95.68246455,-62.67261013,-9.657840897,-65.62636554,-112.1996693,-88.34138476,-51.0127723,-77.9384776,-152.4734524,243.3231752,-112.890559,,,,
542.5759996,2119,0,0,99.99169399,177.8407534,82.93954156,27.65664612,86.90070831,156.105825,58.32240009,12.98287173,13.95733504,47.4059843,59.12439532,-20.33599193,-169.1654317,-15.0365178,,,,
542.5839996,2119,0,0,-49.43379237,20.54408932,-70.36566409,-160.1480174,-63.33269156,-26.55072276,10.40417194,-46.53609689,-5.560772576,14.083968,11.73530525,-67.97592287,240.6353525,-13.589013,,,,
542.5919996,2119,0,0,85.01215522,190.4607433,46.23272153,23.95837017,50.6198047,128.1732692,-27.7920578,-60.44681157,-62.7440015,-28.3154153,-33.92771447,-113.0680863,-22.86324999,-88.83863827,,,,
542.5999996,2119,0,0,53.12826468,127.3255295,46.01474688,-30.98011162,56.41400653,87.89803619,101.0983294,67.89047797,72.17395742,98.56476593,118.416317,7.772701925,-8.863700484,65.21713851,,,,
542.6079996,2119,0,0,-28.31502875,58.85981176,-57.74139427,-103.8178774,-52.78553106,13.15799514,-71.55319443,-113.9470532,-86.17433901,-61.35225983,-53.40919275,-172.0121736,224.5014876,-93.27690225,,,,
542.6159996,2119,0,0,114.7919805,198.2453593,80.59566691,51.99527691,97.36915176,159.7387419,68.48619655,38.64445224,23.72858623,52.42636625,75.45965125,-31.70801186,-187.2715614,5.812673783,,,,
542.6239996,2119,0,0,-65.8961274,0.77410638,-86.38736273,-149.4408221,-73.1791883,-53.37035404,-0.182840919,-41.28962702,-13.6839772,5.972300239,18.56191877,-106.0035252,198.9786123,-14.80773422,,,,
542.6319996,2119,0,0,41.84769459,136.4968415,5.172081008,-13.54204362,2.240324441,67.83232432,-76.10962501,-113.9826401,-106.6283534,-76.46066613,-62.53780946,-194.2987001,-87.05918286,-134.7847248,,,,
542.6399996,2119,0,0,38.69754005,113.8723457,31.87382786,-46.98591207,37.91659547,60.59689362,84.32152002,52.53192449,54.19469621,78.57549878,93.91096559,-37.18936489,-80.1330792,35.05676084,,,,
542.6479996,2119,0,0,-28.03133428,59.47917534,-55.73767459,-116.8308453,-45.18736874,-1.816892269,-74.38865302,-111.7301752,-87.82960155,-63.07842252,-64.10462294,-187.4503342,173.0136075,-99.93008024,,,,
542.6559996,2119,0,0,119.1069182,204.7573915,76.84430012,41.79559815,98.30610723,156.6208891,50.90643639,14.23133689,10.58179494,38.59862263,65.42794324,-55.91202096,-227.9172828,-6.996527682,,,,
542.6639996,2119,0,0,-34.14456,50.40258081,-49.23984331,-125.7954543,-36.64630709,2.917353894,24.89189743,-14.12689256,10.41359941,31.43755065,46.86723365,-88.60521059,175.6045714,10.85291307,,,,
542.6719996,2119,0,0,90.06374118,192.9290338,61.88802904,32.8339718,66.91540279,124.3176792,-23.23894962,-51.96210784,-55.42249275,-25.86953704,-16.19226771,-138.7959611,-74.04787757,-75.36961693,,,,
542.6799996,2119,0,0,74.02614124,141.8816112,39.02165072,13.39258387,66.45969777,84.67786823,125.6763586,83.74053324,95.5095983,111.3640414,129.4726695,-6.395617868,-62.42848578,74.76782138,,,,
542.6879996,2119,0,0,-28.14523848,66.24168964,-61.37006281,-89.33639625,-51.6670467,21.63275205,-50.9102575,-98.57809663,-65.40806845,-46.46267988,-46.22726018,-188.2009058,167.3900334,-88.75296256,,,,
542.6959996,2119,0,0,95.86207493,190.3047865,82.983629,30.29326543,92.33320712,165.7489694,51.15677046,17.61824126,11.21889047,42.34683146,49.98218073,-65.05552437,-256.8789522,-5.150043038,,,,
542.7039996,2119,0,0,-51.71494039,20.19887042,-82.10924547,-140.1553843,-54.38387044,-17.59927501,7.549829824,-44.1947422,-6.629860632,11.33725694,25.13857001,-125.0893241,145.0710293,-3.575213201,,,,
542.7119996,2119,0,0,49.58543447,145.3759453,6.235786598,-29.10770864,13.30520405,85.8692014,-57.41018056,-109.925747,-91.24322474,-68.02671467,-31.36107551,-198.0221843,-110.7072302,-118.1021703,,,,
542.7199996,2120,0,0,12.49037246,86.81007969,-3.823311798,-71.65305464,13.30407125,38.76535909,76.0722979,22.83740617,41.23822963,59.97005288,93.55119706,-63.58240148,-128.7758314,18.97120137,,,,
542.7279996,2120,0,0,-48.57873739,36.89523501,-89.02128887,-117.1026937,-72.06870056,-29.74359154,-88.81862593,-146.0310137,-108.4740692,-89.28882745,-71.3718666,-228.6528183,116.7923909,-136.9089522,,,,
542.7359996,2120,0,0,94.31441842,175.0035331,79.50659556,32.27021109,79.44198966,114.2582078,41.154319,-11.5253914,-1.736123188,20.74088057,48.49359454,-83.1135746,-284.8138306,-41.49844804,,,,
542.7439996,2120,0,0,-74.94856137,-1.305773053,-75.10892171,-140.0793936,-72.09422722,-66.96251892,-1.242437873,-64.72591314,-20.18999206,-4.301209102,3.152561305,-143.6207192,105.0171836,-38.68496738,,,,
542.7519996,2120,0,0,51.10110814,151.3706366,31.95993483,-13.90674086,27.13669517,69.24276552,-58.19595482,-114.6334288,-101.6661486,-74.10801997,-43.71958477,-196.9184886,-142.6051906,-138.2709351,,,,
542.7599996,2120,0,0,32.00209839,112.1986322,28.00485546,-49.96871323,44.05000061,88.32374594,93.97928408,39.18729899,51.76719364,74.9872065,105.3081608,-23.44149455,-141.859774,32.64239563,,,,
542.7679996,2120,0,0,-61.70821561,32.01637729,-112.8661022,-127.0036478,-84.77997916,11.27087101,-92.088051,-146.6191337,-116.475711,-87.97915253,-83.80717803,-215.2963493,100.4916373,-123.0567294,,,,
542.7759996,2120,0,0,87.98805615,170.5313294,44.03661888,13.76183136,61.86778429,119.7279916,28.41389843,-28.33864824,-26.17492581,2.356031291,37.84648091,-94.10812251,-323.5299475,-47.9984972,,,,
542.7839996,2120,0,0,-41.73404942,34.8625311,-69.05252407,-117.8713405,-49.69492097,-5.001379924,15.57204442,-50.43914554,-12.7792217,3.817292503,33.55296072,-105.4740168,82.31734436,-23.73457895,,,,
542.7919996,2120,0,0,86.56904806,191.0484436,37.61202564,29.19984577,44.3527076,133.6477548,-31.17305497,-79.18391738,-75.00838441,-41.73311919,-10.87769119,-149.8633556,-129.1053322,-96.49778691,,,,
542.7999996,2120,0,0,38.21005412,114.4296815,35.33202944,-35.39191418,33.1247671,55.77856243,113.8494365,61.49744621,67.50245371,93.77149333,117.1700657,-9.959195712,-137.9756456,57.78803324,,,,
542.8079996,2120,0,0,-54.47300051,36.11175271,-67.02029225,-122.4495001,-77.79888438,-17.89799132,-84.63390647,-144.280491,-115.0296806,-91.67546959,-73.60923089,-205.9360352,88.30006626,-121.9105292,,,,
542.8159996,2120,0,0,124.582144,210.4486389,96.34768541,48.3339879,101.0988048,145.0752456,42.64569709,-11.03672578,-15.4049076,11.77473492,63.17919899,-78.24055812,-327.7808962,-28.87918539,,,,
542.8239996,2120,0,0,-36.17044114,39.20949562,-65.05823237,-121.8284449,-42.9517434,-31.74528823,42.46976081,-24.24667614,8.283986946,25.14831707,51.84037419,-88.13792112,97.12278871,6.055829751,,,,
542.8319996,2120,0,0,61.92282762,161.9468237,16.7773361,-14.39396499,24.55774934,85.71480581,-42.20691962,-99.15320834,-88.95654978,-62.34652718,-25.99395137,-154.2193244,-133.1357116,-109.156123,,,,
542.8399996,2120,0,0,52.82645559,128.190202,30.45679643,-33.16116544,47.42192833,62.37811846,92.42891333,40.93166455,47.73180067,69.70225998,111.9026357,-25.17075227,-167.2776739,42.00689796,,,,
542.8479996,2120,0,0,-39.61583126,54.47577077,-74.13456651,-111.4974867,-64.56463879,-18.21888923,-69.0484337,-126.5887468,-100.8791124,-76.0163609,-53.14050794,-189.094347,91.02777331,-107.583773,,,,
542.8559996,2120,0,0,101.6794192,194.4889956,75.65242987,23.30532235,82.337777,129.8669138,48.71709384,-0.625934756,-11.76740744,17.55470977,70.35187072,-49.31294424,-329.9441695,-27.63342101,,,,
542.8639996,2120,0,0,-58.0845637,23.02886259,-84.6805199,-132.2652973,-62.01603847,-14.55245752,10.6897996,-46.65010752,-24.83488718,-2.746858459,31.44344158,-100.6740907,48.22925908,-14.22860283,,,,
542.8719996,2120,0,0,55.17034631,163.5951936,10.45904148,11.55169669,22.83580986,112.285938,-60.1784968,-123.4800724,-116.6617553,-84.80618512,-42.1510763,-172.9733357,-179.6247596,-120.3975305,,,,
542.8799996,2120,0,0,53.36333147,139.5334857,43.12980197,-20.81657805,55.56060622,74.54614342,99.26737323,45.39348853,47.28819376,73.18422081,120.9457815,-5.663074647,-187.1758142,53.34801021,,,,
542.8879996,2120,0,0,-37.37520513,66.01802104,-62.366386,-121.4539051,-62.99581407,0.814732509,-72.81938973,-121.3519708,-101.2698402,-69.13214549,-55.42145858,-172.86451,84.94017873,-97.40902971,,,,
542.8959996,2120,0,0,118.3729091,221.4066361,84.50703798,36.80198865,89.68585583,149.6384256,52.23283967,-4.049872099,-6.711146749,31.4376043,65.30765779,-43.66892514,-335.4512153,-21.51902868,,,,
542.9039996,2120,0,0,-20.41328955,67.07778146,-62.84091889,-112.0996525,-41.04171731,-17.8763398,34.19646026,-25.17149243,8.613480534,40.135595,54.49318629,-77.68797676,59.19145812,5.72334358,,,,
542.9119996,2120,0,0,76.66759876,189.3025825,16.90712317,-4.303767069,25.59675557,104.9974287,-34.90926285,-85.84062675,-73.24597227,-28.49714505,-20.40266919,-139.5566192,-163.21186,-101.7105599,,,,
542.9199996,2120,0,0,54.82639435,146.95462,33.5796057,-20.60465393,45.32750733,73.92001257,109.3564211,56.58193892,66.42241013,106.6784962,126.468626,12.83929627,-210.2978635,51.92261602,,,,
542.9279996,2120,0,0,-26.40648601,82.174434,-56.29106613,-73.79505197,-57.81303609,-4.280263967,-69.76204282,-118.9828351,-94.02851936,-50.89132046,-48.63998076,-164.5918792,55.42106215,-104.7833311,,,,
542.9359996,2120,0,0,125.1834817,235.9926293,95.4040939,56.53099867,97.3163266,143.8512147,73.41483744,22.49707836,11.55579903,59.80147173,81.48776436,-12.52016689,-354.8910493,-16.75495124,,,,
542.9439996,2120,0,0,-41.55705433,57.11198546,-60.07677898,-131.3393362,-50.73273094,-34.12440263,43.83898824,-14.83094674,6.801310214,48.65340361,53.07412984,-48.83407505,29.88976502,5.422841638,,,,
542.9519996,2120,0,0,59.89992093,181.2166083,24.02053361,7.156288388,19.56609267,84.85913017,-48.40074438,-100.069705,-96.50754541,-46.62331052,-41.75274437,-130.9288062,-189.207012,-110.8259831,,,,
542.9599996,2120,0,0,59.89047479,154.8761501,31.58298691,-10.07777392,50.46439057,69.20713526,119.9018889,62.54965732,62.8202235,103.003958,130.9287987,36.9756159,-226.3175502,55.77247658,,,,
542.9679996,2120,0,0,-36.92820522,72.17367957,-77.36428491,-99.65953786,-75.98723662,-7.682067451,-63.39423283,-119.3749964,-101.0248438,-59.94970431,-47.46051138,-155.1491996,52.26501831,-100.1983831,,,,
542.9759996,2121,0,0,99.53226583,209.4931371,71.55325621,58.1311205,60.48386872,137.2435424,53.92302575,1.03373092,-13.72267903,28.51919892,56.74547322,-29.46823953,-366.4704593,-24.6894418,,,,
542.9839996,2121,0,0,-53.80468312,42.16271078,-87.95930131,-115.0146132,-71.02715592,-20.49885025,42.15892608,-23.3874808,-4.608186124,25.60361029,46.74049492,-53.51681737,13.61413093,-2.455683207,,,,
542.9919996,2121,0,0,70.74640021,192.940041,17.4574177,3.61784497,23.66420953,123.3807244,-44.21172745,-105.4319925,-99.05907937,-60.15867578,-39.76343554,-136.301097,-187.9267327,-111.3886302,,,,
542.9999996,2121,0,0,52.52555206,152.7547919,29.58011744,-17.49199692,38.93986982,71.43602357,125.1735558,63.00263439,66.43113357,99.27150069,125.0051348,43.9130085,-220.6449449,62.187943,,,,
543.0079996,2121,0,0,-53.89500565,60.33194202,-84.54061535,-109.1263573,-89.89107961,-32.9269837,-57.51592296,-118.3768774,-101.1004383,-66.2236411,-58.55842371,-137.1390696,53.24296754,-106.2693885,,,,
543.0159996,2121,0,0,140.6949732,251.7307465,118.8266549,67.82467934,104.5325623,160.7999654,62.73942789,3.400933324,-10.45910284,27.41288754,57.57634977,-18.16228633,-358.6530138,-23.38264021,,,,
543.0239996,2121,0,0,-31.03726838,60.26113461,-63.46057123,-103.210308,-47.15449563,-23.76631571,71.64102152,2.159625034,21.82934898,50.64117889,76.0306658,-18.5018617,50.47526943,30.3726465,,,,
543.0319996,2121,0,0,41.94263975,155.1135783,-12.54366857,-8.190934259,-7.911587542,63.06435135,-54.26982011,-108.6510018,-111.940759,-71.21283159,-44.87148523,-127.0658703,-170.6037948,-118.1464269,,,,
543.0399996,2121,0,0,58.9918161,149.2670839,43.49744413,-24.50458172,41.14219264,56.95168894,94.44822564,35.42903027,30.39361369,62.11342281,96.12452032,10.99988658,-236.6534324,30.86572235,,,,
543.0479996,2121,0,0,-47.53864237,59.74936358,-80.88987116,-109.9069445,-82.74241983,-30.30615008,-52.02861028,-121.0834165,-103.2395672,-72.25989436,-50.90202122,-144.1601731,63.1209728,-100.1157914,,,,
543.0559996,2121,0,0,121.4029841,228.2819276,82.02059601,61.12330173,83.81523545,128.5673915,48.14248677,-7.129777969,-29.56701933,10.15687179,46.58168593,-16.61519332,-368.6191836,-32.69858771,,,,
543.0639996,2121,0,0,-24.68083527,65.8615862,-59.11165342,-105.2309622,-45.91151108,-31.49375968,51.80867424,-12.88086899,-4.018014654,26.33322648,48.50042754,-27.94685365,15.69837329,9.003694771,,,,
543.0719996,2121,0,0,67.5610639,183.2912656,18.90994583,18.60864914,16.55488768,100.9489493,-26.07272313,-90.89871764,-95.67228857,-58.69853394,-24.32344382,-107.6946039,-173.1681792,-99.2154863,,,,
543.0799996,2121,0,0,86.35612016,175.0164879,62.51925402,18.89083462,71.53310828,92.63414747,130.4282761,63.95364503,58.28880437,88.49695735,133.7382853,55.25008548,-237.5084141,62.05094761,,,,
543.0879996,2121,0,0,-39.18372614,62.15084119,-74.67489906,-103.0520828,-72.07968264,-32.36382394,-35.06467001,-108.2530139,-90.83696347,-57.8593301,-36.03926483,-122.0293186,53.3953218,-92.24745055,,,,
543.0959996,2121,0,0,94.99617967,196.7431811,78.00437607,42.46065316,60.13099353,102.4908286,48.28480169,-15.34365057,-38.11126618,3.173200312,40.18297583,-24.38167154,-388.9827773,-49.43833415,,,,
543.1039996,2121,0,0,-42.80069895,39.51552293,-69.66105625,-111.6929949,-67.00444649,-36.86105347,30.21090148,-40.69181721,-31.63370232,0.654922083,24.70765129,-46.29951976,-19.28375864,-20.63314789,,,,
543.1119996,2121,0,0,61.64302518,166.0352149,-7.232514958,-12.61682109,-3.7477841,89.0249132,-38.67658762,-106.8611508,-111.0254803,-69.67015199,-36.98889262,-115.492646,-193.8573293,-114.0102932,,,,
543.1199996,2121,0,0,79.93382473,158.6933965,49.46956784,-25.7045418,50.61277182,66.63656595,125.6132407,52.57938119,45.68660493,78.23934622,121.6507275,48.25147519,-262.4537561,43.22802013,,,,
543.1279996,2121,0,0,-11.11189993,80.82476367,-57.86228586,-88.12885503,-58.82454828,-7.369524415,-33.05514458,-115.4681982,-96.14309151,-65.11549596,-48.04725412,-124.9982456,40.93700014,-103.5668073,,,,
543.1359996,2121,0,0,137.4843619,232.5437054,87.41287663,76.1734292,83.96335486,145.9439882,91.22746673,21.41414318,2.593505704,41.36351034,73.34417717,11.5658789,-370.347486,-4.317871398,,,,
543.1439996,2121,0,0,-24.65952703,54.06121076,-64.55569815,-116.3203187,-60.96373541,-39.95046897,62.69216355,-13.1167939,-4.331408549,23.85737705,44.8740354,-20.12115366,-25.24683132,7.285337144,,,,
543.1519996,2121,0,0,69.32389896,170.9631154,-0.230415923,-12.50870199,-6.648969893,66.19702349,-41.98279291,-117.9304122,-124.8322476,-89.5007561,-64.54885334,-131.8956726,-232.6658688,-133.4699579,,,,
543.1599996,2121,0,0,88.8848139,169.1651661,44.75537931,4.561657257,40.00785315,63.69387992,137.1915298,65.11223946,49.35671168,77.34450271,105.6978724,46.23715706,-305.2732122,54.85729178,,,,
543.1679996,2121,0,0,-14.29042199,81.8322739,-80.18241981,-90.30308106,-78.85504913,-21.7088892,-26.66141993,-102.3499837,-98.41033798,-73.56176352,-62.93512891,-126.33612,1.419582815,-86.18127635,,,,
543.1759996,2121,0,0,136.0871236,238.5525476,66.43662465,32.53697545,73.11342578,123.7598377,74.24319647,1.325178013,-30.62606822,-2.826861833,47.75691785,-21.84243382,-413.1187355,-16.22949424,,,,
543.1839996,2121,0,0,-18.18780345,79.17082722,-52.40482494,-128.1432788,-57.45914385,-54.18784336,55.22629678,-5.641395307,-19.68767208,3.737994643,34.05359476,-29.98197585,-41.28807412,25.2034305,,,,
543.1919996,2121,0,0,59.13593395,186.866789,11.34290911,-11.29271971,-12.09643807,48.1385923,-57.60020096,-96.23319023,-137.6295705,-98.04993803,-80.0227946,-127.1842581,-227.4682967,-106.999984,,,,
543.1999996,2121,0,0,82.98865765,190.6477907,31.74954213,-23.79678738,37.03157019,73.52869992,111.1040786,64.68259483,22.47554705,51.95338206,97.31917636,39.03832069,-320.3720853,65.20164599,,,,
543.2079996,2121,0,0,-3.437157045,128.6651303,-69.16614095,-90.70651728,-63.34941395,4.639119205,-35.94554689,-81.45662052,-102.7974812,-73.76920324,-47.13055453,-110.4976448,-2.979090635,-49.79168913,,,,
543.2159996,2121,0,0,142.0422533,283.9800719,92.47045864,87.54779377,87.15947112,149.1685091,68.33120572,40.40510571,-23.22199325,18.98455586,60.35516309,5.569327449,-422.8070781,25.19586957,,,,
543.2239996,2121,0,0,-7.745376622,119.2202145,-47.76189722,-73.42679691,-34.98556754,-17.60392016,63.07824291,31.17824594,-3.771473752,30.21473913,57.18212731,0.162066443,-76.4915101,61.8240175,,,,
543.2319996,2122,0,0,83.88006519,239.6279915,26.52989921,30.29519166,30.14352262,88.34748835,-32.76074398,-56.71594377,-107.9895628,-64.76641067,-49.5154267,-89.67085764,-256.1789931,-67.75864679,,,,
543.2399996,2122,0,0,93.79951378,228.9676577,46.95329587,12.1581199,54.48168082,85.00474952,127.2278233,94.85740819,45.70417151,82.69709866,109.9227988,67.67304576,-346.6962316,89.09650752,,,,
543.2479996,2122,0,0,-8.731726078,140.4909737,-68.16329217,-75.43811673,-68.11426399,-9.800098365,-33.51981583,-69.72811236,-92.31818659,-56.05407952,-44.55936298,-95.63744322,-32.9188098,-45.9045187,,,,
543.2559996,2122,0,0,154.7508346,306.2013351,108.8546463,91.15525107,105.2102755,158.2918724,75.31887159,53.42743553,-8.736685495,35.27619686,64.2236915,21.18502771,-461.1468034,23.65534169,,,,
543.2639996,2122,0,0,2.711600698,136.6228255,-47.55223017,-90.31771949,-35.22650379,-16.82495311,77.89944025,41.17164068,15.49965001,47.68153265,71.56827584,11.33103396,-115.2095743,61.42538988,,,,
543.2719996,2122,0,0,68.07310136,236.0127765,4.787754297,-3.593210605,-4.018469466,52.97527491,-39.42161086,-71.27611377,-109.5213972,-66.73041697,-44.84834345,-97.51817213,-306.1947822,-81.5731882,,,,
543.2799996,2122,0,0,78.1396374,225.9154768,39.68348934,-2.200738677,43.82094769,50.35089645,116.523154,86.34879646,38.346806,77.70565276,102.8670118,60.65163729,-433.2133153,72.6312084,,,,
543.2879996,2122,0,0,-25.81426135,129.0881685,-92.12523521,-97.97640224,-82.10556133,-34.80053163,-36.52774874,-79.36689,-100.3073499,-66.05748966,-45.04643186,-108.0035915,-114.443779,-67.28916835,,,,
543.2959996,2122,0,0,130.7380065,293.77332,69.91273506,45.73271694,68.4957133,143.0867244,54.13729384,19.22790585,-32.02262053,7.842397364,49.45285932,-1.530904659,-523.9697294,-9.877325657,,,,
543.3039996,2122,0,0,-1.771520053,143.4060315,-43.5109543,-99.43556459,-41.31354885,-22.06952036,65.6704003,24.71261452,6.989125389,39.7547789,51.78385613,8.791651023,-170.3197654,43.79119833,,,,
543.3119996,2122,0,0,84.16872092,251.3101196,31.0607691,15.95538654,14.63224394,74.71798253,-27.40452424,-66.03625657,-97.37117124,-52.01534866,-40.39432759,-83.52459794,-321.7947863,-82.98845203,,,,
543.3199996,2122,0,0,95.06508569,241.563507,40.92717799,8.183173222,54.99824859,102.3795386,119.7904057,84.67028511,46.9888983,88.4148622,114.7350597,76.70572771,-424.4535706,77.00529058,,,,
543.3279996,2122,0,0,-14.1644347,141.5591697,-90.09879266,-81.92615695,-73.03988827,-7.369093088,-46.64814328,-83.31876865,-96.17753153,-57.39715067,-46.41024505,-92.63086788,-116.1700378,-61.39485288,,,,
543.3359996,2122,0,0,129.9813575,290.0685434,79.54787593,60.46987219,75.81691768,132.6884157,50.39785981,17.64206235,-27.90280891,18.50743863,53.94357667,8.182945217,-541.1468947,-14.28752375,,,,
543.3439996,2122,0,0,-22.43921228,121.2343365,-72.20709665,-123.8370572,-52.84480664,-34.93541236,54.69168216,9.481853921,-0.69712,37.44340007,61.11301136,5.393988832,-197.0777151,27.05247773,,,,
543.3519996,2122,0,0,68.13765005,237.1329599,10.02603987,-21.97811331,2.827532078,65.54998097,-54.44581058,-97.58818685,-119.401206,-69.20457289,-52.88699344,-107.0071199,-355.6034733,-113.784815,,,,
543.3599996,2122,0,0,83.32438,228.9597714,68.70916192,-19.33756846,53.37477594,76.14301093,114.5349739,71.33406718,41.45146982,90.35582656,106.0945225,62.27195493,-464.0829998,52.83142823,,,,
543.3679996,2122,0,0,-39.35262314,113.6495791,-91.76491633,-134.4991679,-93.37952241,-48.54603834,-49.69684536,-94.93213383,-100.390186,-51.01285357,-57.94586556,-99.63483627,-151.2155949,-84.06549044,,,,
543.3759996,2122,0,0,136.887416,291.3660785,71.10784527,38.27652069,69.82413385,117.532609,39.61438458,-0.298257428,-37.91037087,16.85274913,38.67129564,-6.013990323,-577.4568677,-42.45358221,,,,
543.3839996,2122,0,0,17.19658719,154.7643675,-36.00672593,-84.54076708,-27.83941114,-25.44172666,81.53240562,30.46247082,24.82537794,65.81804765,83.79675807,22.96678812,-216.5023657,30.8841353,,,,
543.3919996,2122,0,0,102.4436397,272.9064114,23.99624811,29.04275358,18.18361686,89.40569351,-22.86282969,-61.90255203,-86.06469281,-32.79003961,-26.53288726,-70.26691451,-350.2449778,-87.92416943,,,,
543.3999996,2122,0,0,117.094753,265.7209596,68.25441666,25.47610857,65.79378522,107.0140013,138.4869362,103.7544924,68.72258883,121.8942064,135.9921895,98.30213567,-452.8389839,91.2966556,,,,
543.4079996,2122,0,0,-13.5517328,145.031861,-64.9311604,-107.7619586,-76.11293003,-40.74868027,-20.62572241,-63.70815854,-69.51222169,-21.31322402,-17.9579722,-58.35273467,-129.9596078,-42.35810832,,,,
543.4159996,2122,0,0,146.2587597,317.6746826,96.38866851,58.18555912,76.12201532,130.9403231,40.30495709,11.03549926,-31.57612709,24.27649362,39.56117674,17.26993675,-571.5840654,-21.16835914,,,,
543.4239996,2122,0,0,-8.31191358,143.5769686,-45.73302872,-107.3659448,-49.63727913,-27.54609181,61.37509284,24.54667329,11.21195533,60.81542451,54.35289894,22.99399939,-224.9555884,45.70098491,,,,
543.4319996,2122,0,0,66.56881374,237.969664,-8.338739064,-20.27549078,-13.38108334,53.39217446,-46.27228653,-85.5690237,-106.8275805,-52.86552716,-52.13391095,-84.29213907,-366.3962783,-89.262566,,,,
543.4399996,2122,0,0,122.276315,269.3044463,57.86411966,23.2041999,65.64449286,97.20961045,114.1009058,76.90738718,47.42322627,91.28819903,121.7677286,78.43957385,-487.9844147,74.71528505,,,,
543.4479996,2122,0,0,1.373254267,154.8954592,-61.30231955,-102.6800875,-63.69632551,-42.7192073,-17.33574788,-67.02341198,-64.74042938,-26.6161643,-16.3752213,-65.57000366,-128.2465527,-40.20649921,,,,
543.4559996,2122,0,0,158.19887,319.5421213,93.11311293,71.29178683,87.41329183,144.8901249,71.45543907,25.09058193,-5.673403332,35.28487543,66.81539228,31.52210391,-540.7551743,0.297218932,,,,
543.4639996,2122,0,0,12.97962661,160.9270072,-37.38142325,-57.60029686,-22.77915116,15.88175009,86.62604428,41.31118787,31.21587839,64.10435705,88.9431678,47.36110105,-197.9220382,74.31980988,,,,
543.4719996,2122,0,0,73.68773336,245.6783601,25.79811735,6.1468889,19.15110841,68.73370091,-20.26660869,-58.79772615,-83.67357084,-37.67920734,-26.14643315,-51.89618715,-319.590831,-62.15663033,,,,
543.4799996,2122,0,0,106.9367691,254.9150945,80.32424833,10.31958186,72.38163056,99.29955431,131.7562005,90.5704169,61.01798153,101.7558668,130.1414898,97.90455796,-451.545636,82.55489764,,,,
543.4879996,2123,0,0,-18.21279223,138.2186319,-70.33593822,-92.47656371,-75.78519779,-28.63415877,-30.28312197,-79.61740166,-79.52099448,-41.07859976,-32.37949249,-73.22613882,-117.5775517,-45.17597664,,,,
543.4959996,2123,0,0,142.8105282,305.8280497,92.63825371,75.71676101,87.04784237,131.8364479,62.67747764,31.89300371,-12.9594235,36.99024666,58.86897598,37.62823139,-533.5918579,1.373469254,,,,
543.5039996,2123,0,0,-16.68559633,128.094577,-43.9346297,-113.8393492,-45.72229173,-29.29755611,72.79000601,37.7872092,18.23914913,57.73857856,77.41314789,44.18876395,-199.8509488,57.5531284,,,,
543.5119996,2123,0,0,45.5828259,212.0306074,-5.619361029,-11.61309194,-17.66910407,35.00541304,-64.00201568,-109.6779988,-129.9059015,-86.89105471,-64.87832507,-95.1812046,-342.5392047,-106.0115842,,,,
543.5199996,2123,0,0,114.1262987,257.7233951,81.28486114,64.2439637,85.94540142,100.88531,121.9619872,79.4783017,47.41169554,86.34864968,121.6062886,88.95478233,-462.8392569,68.25849859,,,,
543.5279996,2123,0,0,-2.95636031,151.9994931,-40.64907405,-81.07648651,-44.91423591,-9.496268393,-0.01601878,-40.27595457,-51.03340518,-10.84791811,-0.153054134,-35.26901473,-83.38256568,-19.28935033,,,,
543.5359996,2123,0,0,135.0435055,293.8669424,88.91037427,47.29936736,85.49050634,122.3970862,58.50671977,26.4687283,-20.96063389,28.90503252,61.17102216,42.33997502,-514.2973785,-0.011802764,,,,
543.5439996,2123,0,0,-34.88406257,99.71669107,-67.71518141,-111.0476876,-57.13316085,-52.07723222,44.76582818,3.537598228,-16.88556322,23.72297736,57.08340728,14.63288527,-207.7815925,22.02660321,,,,
543.5519996,2123,0,0,20.09492385,180.8362513,-27.67169002,-30.8306407,-27.65478454,29.92597157,-81.01278895,-119.9781886,-150.5579168,-102.5934862,-72.13546198,-108.2280392,-336.8365482,-125.1415772,,,,
543.5599996,2123,0,0,66.24838364,205.0777375,42.72336352,-11.52827964,53.92623268,58.4665455,85.08901497,45.15643707,5.734973689,45.71520765,90.03215264,64.90958086,-489.0027628,39.80395334,,,,
543.5679996,2123,0,0,-68.1765643,81.24830187,-93.84917389,-124.6797593,-98.36675257,-78.51334174,-63.33926201,-113.718469,-124.8606421,-86.70521102,-61.82458381,-94.82431129,-137.4001089,-88.17008457,,,,
543.5759996,2123,0,0,92.43138245,250.151488,66.77668415,63.62784673,55.27606701,69.26094985,10.01448004,-22.56154986,-77.27931607,-23.82624501,7.993908267,-2.968738172,-561.4895145,-61.20429536,,,,
543.5839996,2123,0,0,-29.21920503,99.53396717,-29.8376653,-86.13895242,-41.41513336,-74.87915122,42.66466812,0.3533757,-23.8923809,18.02934796,40.54025278,14.42470531,-234.0481627,1.437657239,,,,
543.5919996,2123,0,0,55.03668771,210.1560376,22.04172691,4.439352615,0.787958985,92.81403184,-43.69375389,-97.28720725,-119.1517262,-73.5536304,-50.54978263,-76.99518802,-308.9249176,-108.0581018,,,,
543.5999996,2123,0,0,104.6027604,243.499309,59.74148396,33.86172772,72.83902853,135.73773,124.6489407,85.13019136,46.77474184,95.23062346,121.2394658,111.3243611,-432.3485972,79.65768276,,,,
543.6079996,2123,0,0,-39.5051986,104.0795746,-82.58750963,-112.1697272,-87.90750308,-55.41142337,-32.75601245,-71.48939939,-84.94169568,-35.35481682,-41.92492147,-48.28141818,-82.88189739,-55.47220475,,,,
543.6159996,2123,0,0,112.9327528,259.3269596,84.20257576,40.81627636,57.02502247,114.1344493,38.08122985,-6.150561386,-45.05482093,4.666417796,18.19952232,21.28306848,-519.6044211,-41.99348355,,,,
543.6239996,2123,0,0,-20.92548761,99.97317606,-58.01393755,-107.9612929,-51.24568928,-52.4680372,53.43457273,-4.082633435,-9.450219382,21.78262213,53.39562532,19.87740142,-207.4407225,16.32629816,,,,
543.6319996,2123,0,0,42.0764305,187.8514096,-17.44104319,3.125454386,-21.20960716,23.31081553,-49.15785283,-107.9270633,-119.0013891,-81.74199914,-50.28830364,-80.32321923,-295.4380846,-114.9344829,,,,
543.6399996,2123,0,0,88.55053924,210.7986075,70.40557007,53.16963927,65.37341204,82.75627687,117.9391274,65.51217293,37.33188183,73.26692121,105.4388817,98.56372041,-433.6569581,53.05373513,,,,
543.6479996,2123,0,0,-36.4041666,89.37205153,-59.55648791,-86.92123205,-60.15100612,-41.7825602,-39.50638751,-93.40075261,-100.0357384,-67.09924655,-42.10939593,-66.31915027,-69.36124419,-70.69070968,,,,
543.6559996,2123,0,0,130.9948987,267.1272212,109.3118479,71.54304414,97.91834525,137.1852123,55.75783225,0.962814863,-36.6699747,0.447036752,48.59629116,29.60688105,-475.8455456,-21.97841795,,,,
543.6639996,2123,0,0,-8.467841587,107.0836116,-38.09004853,-82.54979947,-28.80845524,-33.99079631,83.02054183,27.43849524,13.9074096,40.79884168,76.11627706,66.36570297,-145.3671037,50.26684423,,,,
543.6719996,2123,0,0,54.58480929,193.1341113,-6.072896904,3.003320213,-5.15467071,30.85645042,-43.82866469,-97.83493859,-118.509675,-85.12385125,-54.37158104,-56.08409147,-245.359974,-107.1844304,,,,
543.6799996,2123,0,0,108.9207264,226.8395289,90.69387891,56.42738719,85.38536427,78.42327943,141.2975135,80.35193992,53.67055443,83.16903479,125.2673256,115.3716311,-395.4430132,71.13628055,,,,
543.6879996,2123,0,0,-39.83888608,83.22316353,-71.22246786,-78.55847132,-75.00704766,-63.76639692,-17.85458388,-77.38861578,-78.85036481,-47.59765735,-29.18960503,-40.67365341,-24.04581986,-47.18585981,,,,
543.6959996,2123,0,0,106.2673667,239.8329435,75.78823345,51.61771119,56.12952196,93.44144756,30.10759959,-22.32779883,-56.25232484,-19.17823601,13.3101546,11.07833058,-465.9766008,-42.93813311,,,,
543.7039996,2123,0,0,-41.48409583,73.69964872,-59.8965265,-128.4867533,-62.88723959,-90.70979231,54.11186589,-2.600804772,-11.16121163,17.46492124,41.63933772,33.66706933,-163.8674791,16.50924845,,,,
543.7119996,2123,0,0,-1.461754311,134.0189999,-48.31808182,-59.12086731,-43.67603616,-24.07223765,-77.55344775,-131.1786271,-152.1427195,-111.5077874,-84.30179405,-85.51835602,-271.255556,-150.4966034,,,,
543.7199996,2123,0,0,70.97710874,188.7431604,62.80966465,9.653332688,54.43762531,76.30793122,94.18721606,37.12914872,2.972533862,35.93854136,81.8036372,70.52532681,-447.467095,17.0203727,,,,
543.7279996,2123,0,0,-37.18343348,90.4192042,-51.44655443,-79.75073359,-76.4592041,-29.58363691,-33.02753844,-92.3217874,-97.1331825,-65.91556942,-48.15486807,-54.24601272,-44.24367305,-56.22667111,,,,
543.7359996,2123,0,0,106.0344392,238.1489097,75.15458614,67.83385345,63.97175876,106.6366866,37.32662673,-16.14931134,-49.22435732,-7.508113016,19.43501104,28.41181472,-453.6824139,-28.87704549,,,,
543.7439996,2124,0,0,-35.16325885,78.67589917,-62.30964427,-95.38846246,-51.04184711,-56.99484929,56.53298456,-2.230650147,-10.04690897,19.4085906,42.50768818,38.96393548,-154.6396643,27.11751505,,,,
543.7519996,2124,0,0,24.55600191,164.4244927,-20.97848401,-4.329513636,-26.96101246,14.31595066,-60.99494616,-118.0542496,-134.5508392,-99.58486671,-66.8804903,-65.78622972,-232.7017564,-110.7692642,,,,
543.7599996,2124,0,0,88.49690373,205.5564357,59.73889313,32.72943916,68.36034395,53.3968631,118.7995666,54.18382182,32.6667696,59.81053021,103.7898777,96.92273794,-405.7305495,48.51770352,,,,
543.7679996,2124,0,0,-31.54514041,95.42700363,-71.83508872,-97.73950701,-66.70924354,-57.33094561,-15.78777317,-89.30520974,-78.39251312,-56.51740146,-39.47342447,-47.02515835,-17.52519056,-57.49414326,,,,
543.7759996,2124,0,0,108.7862571,243.6642802,77.61223806,53.23185118,68.87865143,107.0468435,57.24804382,-10.96260668,-35.53940957,-3.849548182,38.31291777,49.50687742,-436.3640891,-26.88917976,,,,
543.7839996,2124,0,0,-18.47024692,92.87384298,-40.67949626,-101.9078274,-30.99077756,-58.11433283,74.23453032,3.470663901,0.266219806,22.02073979,48.87587847,55.77605361,-154.769912,28.08383063,,,,
543.7919996,2124,0,0,58.42080175,197.4479105,10.36574878,-16.90467405,1.773064532,-3.471273253,-40.88282314,-103.1146924,-120.6837848,-93.49785525,-76.94736547,-63.30923065,-231.7929324,-104.7470435,,,,
543.7999996,2124,0,0,99.60975411,222.9524073,71.88403876,26.66613383,66.5910459,35.88086475,148.3575952,82.2403629,49.92786437,70.40957506,113.6654771,118.1510618,-414.7495136,75.85946517,,,,
543.8079996,2124,0,0,-41.99197643,96.39821962,-85.70296618,-86.69358666,-88.06272311,-39.22785573,-16.56658129,-84.51748198,-89.41005251,-74.82789604,-47.15872093,-53.61114011,-47.61913843,-34.32908165,,,,
543.8159996,2124,0,0,117.7441483,270.6030418,73.02781547,81.80511907,62.53358713,119.8897027,30.78803367,-18.116473,-63.75717065,-41.55914468,0.048682722,12.92709873,-470.9483016,0.29386709,,,,
543.8239996,2124,0,0,-17.18907143,117.4749703,-49.37336082,-74.00295987,-45.6974825,-51.58990876,64.82118272,13.71321794,-10.0311863,3.172653168,39.13178419,45.76754365,-175.6580755,65.42357637,,,,
543.8319996,2124,0,0,53.16952665,217.991469,-10.97567612,6.621575066,-16.20039581,50.42317072,-51.83170519,-91.90335729,-126.9147261,-104.0414274,-65.76204146,-69.14160441,-241.3079622,-75.36382265,,,,
543.8399996,2124,0,0,114.6461393,260.9749681,77.9337325,53.29526326,75.83978387,63.5720993,131.2625119,97.26511535,46.5067136,63.89376911,109.5880688,118.4387158,-426.424507,106.9987661,,,,
543.8479996,2124,0,0,-31.01631399,121.7892208,-68.17301565,-74.4721549,-78.97671451,-74.53848706,-24.05865125,-64.876094,-83.29072386,-72.9332316,-49.56346311,-43.73457349,-59.7241764,-21.82651481,,,,
543.8559996,2124,0,0,139.5704519,307.4836098,85.65912139,82.32902804,78.87499857,120.1684223,41.93156015,10.66741437,-41.69897885,-23.28742705,31.13875726,20.60594736,-483.7770636,4.537799406,,,,
543.8639996,2124,0,0,-9.448834636,149.1194523,-35.17258702,-85.1929226,-26.4852168,-47.50775117,85.44733545,57.38501303,22.82040751,33.79870122,60.17259944,73.29292696,-178.1604731,95.57051629,,,,
543.8719996,2124,0,0,22.58282329,206.9485659,-10.02424885,-14.29653717,-24.17518272,9.735973617,-66.25009104,-80.83007112,-132.5331468,-108.4713569,-93.02933818,-68.62418311,-259.4235471,-68.40725086,,,,
543.8799996,2124,0,0,99.60896853,252.04061,54.8096096,36.65212341,66.23167788,53.26412794,109.3823544,85.1973932,23.16307654,43.48156753,95.83864627,83.21331046,-471.1800604,88.70065599,,,,
543.8879996,2124,0,0,-44.16050875,113.7618558,-99.01912688,-89.66950122,-86.62860266,-84.35686516,-21.29771661,-63.3500243,-85.72893572,-74.21653864,-44.7673125,-57.01255452,-74.0030486,-24.93285299,,,,
543.8959996,2124,0,0,125.5896461,298.9611377,87.61838325,92.67222109,76.87138767,103.2743167,42.94400717,15.69583024,-45.28568719,-27.615123,28.13079041,25.73871116,-491.4734333,0.874344096,,,,
543.9039996,2124,0,0,6.367646656,156.7209739,-21.00263967,-68.02704506,-9.631655754,-33.03029179,95.76005483,68.74321216,26.18198008,32.64774831,76.3275,74.12776378,-195.7104156,95.7927493,,,,
543.9119996,2124,0,0,24.41555242,202.4801382,-17.99233789,-22.70064765,-21.67073068,13.5176464,-52.54732633,-82.48692649,-124.6716616,-111.9669069,-83.07700826,-76.65600151,-253.8220804,-71.00721282,,,,
543.9199996,2124,0,0,97.95164961,258.5861489,68.59568741,48.42165689,67.90752841,64.1846321,116.02139,85.80343332,29.82582127,41.29003756,98.35224684,94.0775954,-470.0269646,88.59655288,,,,
543.9279996,2124,0,0,-31.9565424,128.1486298,-75.06756003,-73.64966746,-71.4020784,-91.377337,-7.423293128,-36.6360701,-68.56199052,-56.43002823,-25.05201092,-32.02432521,-66.66087379,-1.256573381,,,,
543.9359996,2124,0,0,119.6620101,282.1362182,86.43607701,97.44296698,77.86894406,52.65774641,48.86073383,20.45622711,-41.06161717,-23.40626806,28.42605402,23.5615754,-485.8846275,-1.178240791,,,,
543.9439996,2124,0,0,2.168225894,140.2757808,-15.24094989,-38.06988435,-13.67953447,-41.31214956,96.53697333,50.50011081,20.21158801,21.02896889,73.81066063,64.80155946,-209.6215165,71.58751233,,,,
543.9519996,2124,0,0,18.71370317,190.4296516,-11.30026555,-8.154989954,-28.50775183,36.05350309,-49.18168549,-88.39712541,-122.401553,-113.0314516,-69.13654038,-73.6074961,-243.6484589,-63.44094225,,,,
543.9599996,2124,0,0,71.74131492,231.3216196,60.91472892,26.14835028,55.57528978,73.90634496,100.5917414,69.39080849,15.26044902,26.95409642,85.96457864,77.98856809,-469.4389648,84.71891523,,,,
543.9679996,2124,0,0,-64.47213066,102.6878954,-89.30195118,-96.11144715,-92.27185656,-65.88257619,-40.20263204,-77.22615397,-105.7643696,-92.43722866,-59.54126001,-62.61005467,-98.39441208,-38.87551367,,,,
543.9759996,2124,0,0,90.43527068,269.5360655,73.02014704,71.49462248,46.10496958,79.5174168,24.01311928,0.737671353,-64.4539667,-39.61369358,9.223401733,18.36911026,-508.4689028,-9.214292322,,,,
543.9839996,2124,0,0,-21.43436308,131.2097119,-20.87468895,-79.35819712,-33.04035277,-51.44970441,76.01588853,42.78014049,6.448156034,16.04265641,65.56008934,60.52279236,-225.4070711,71.36136866,,,,
543.9919996,2124,0,0,23.32686411,201.6718748,-1.192972623,-6.061328999,-12.86388487,21.86221871,-61.70808497,-99.48563392,-131.6733088,-116.6742183,-74.1544486,-80.23669219,-260.5949563,-88.15669866,,,,
543.9999996,2125,0,0,103.1991985,263.7443899,87.18820683,62.34675584,86.79871787,76.96017983,125.1773673,96.55789583,47.36815361,62.51650066,113.073984,105.4021724,-465.9652021,92.26310863,,,,
544.0079996,2125,0,0,-50.11003719,110.6787997,-84.80696787,-111.1835035,-82.95984422,-80.02545746,-11.05222903,-47.79681956,-62.12290268,-51.17012542,-15.20933432,-37.46788868,-67.45644843,-18.35157815,,,,
544.0159996,2125,0,0,93.5994342,264.9551452,58.78182892,56.63832303,51.18624874,75.28659247,20.06102043,-10.53660125,-56.38061078,-35.28085234,18.50891091,14.59834027,-495.9119532,-25.97416948,,,,
544.0239996,2125,0,0,-6.0289376,141.8207523,-20.54290235,-41.87308319,-20.59866593,-39.74742742,80.74477975,40.74914363,15.79366937,24.11266232,65.28524694,60.51277353,-225.7842119,65.76095469,,,,
544.0319996,2125,0,0,33.78058205,201.9988441,0.498131461,11.32399585,-14.5008838,19.74861285,-39.52413093,-83.74401996,-111.6052892,-98.27971664,-57.28488181,-65.45672138,-241.4242592,-75.04822739,,,,
544.0399996,2125,0,0,100.2573781,249.5341549,87.06721298,45.8803668,79.54702865,67.89782326,126.8809167,87.27074789,42.03257855,55.22302297,113.4027573,110.272649,-460.8054879,89.07065928,,,,
544.0479996,2125,0,0,-44.14499502,112.4950354,-69.95294693,-83.86253395,-73.16966393,-92.61046228,-7.775842821,-52.72000031,-67.92387275,-58.62843,-25.23453111,-39.12080785,-62.36651979,-12.95357114,,,,
544.0559996,2125,0,0,109.6009494,276.5859515,86.61204093,96.47629129,73.92995359,54.22495137,42.53585557,13.55819114,-40.37869197,-19.5988246,25.27697621,26.85550449,-479.9205446,-8.940209155,,,,
544.0639996,2125,0,0,-16.90277125,129.2116558,-16.2826455,-74.08485311,-20.70886019,-66.51289119,86.20762074,49.91610117,21.57881743,32.41423775,65.1909327,69.07867825,-223.3231478,73.30090079,,,,
544.0719996,2125,0,0,15.68303899,191.2296089,-22.38072969,-13.41853379,-27.17603056,26.41051288,-53.16721197,-94.16120067,-121.0022809,-103.5978882,-80.2864179,-72.61165674,-242.2357652,-71.97231726,,,,
544.0799996,2125,0,0,105.307676,261.1771446,77.70645149,78.43190767,86.84208742,90.42847037,125.9422529,93.47470395,45.81878296,63.36340048,106.9349527,115.8249651,-455.6790017,104.8020511,,,,
544.0879996,2125,0,0,-51.40362964,108.0576004,-74.89602115,-83.54439491,-75.79864119,-80.17266382,-16.02442777,-55.64531354,-71.03648001,-60.43337987,-29.90783712,-34.01156849,-57.87957914,-3.644919097,,,,
544.0959996,2125,0,0,96.96125745,269.0160866,72.58594094,79.54121851,61.12928473,90.77744453,23.31807753,-11.52134212,-57.62884883,-42.28063001,8.545250913,20.74712681,-486.1833997,-7.83684851,,,,
544.1039996,2125,0,0,-10.56071299,137.1023507,-20.60938552,-53.11748336,-16.75304689,-46.13050741,82.64148784,44.24964999,19.88629598,24.80549622,72.12104731,73.51419378,-221.6588355,91.23723614,,,,
544.1119996,2125,0,0,7.913447202,176.1007531,-24.60120742,-15.53797105,-34.07475546,-11.35561779,-69.34167368,-101.4664044,-132.9247683,-119.2412334,-78.2416319,-85.9895643,-236.7018913,-75.89716225,,,,
544.1199996,2125,0,0,70.54075643,219.8544392,52.96222589,30.92135675,55.34839342,37.81923556,94.74663108,63.98681775,16.97757571,25.67754715,89.93618051,87.71520003,-474.5281821,68.92877119,,,,
544.1279996,2125,0,0,-71.18921383,85.2100004,-94.4171125,-122.0250542,-97.12499982,-109.4425588,-42.29733361,-82.32018177,-93.21149998,-95.47853979,-48.7753785,-52.39436154,-72.87159452,-39.71800289,,,,
544.1359996,2125,0,0,104.0299277,268.1763285,82.25795614,78.36969563,63.81630922,82.48317255,12.52292771,-22.67940683,-65.69715972,-62.40850611,0.312213582,5.795067885,-474.8062456,-30.28448377,,,,
544.1439996,2125,0,0,3.941702917,141.8032379,-4.316639612,-27.33209463,-3.255283525,-36.72125083,99.7876152,51.95270173,35.03411803,29.22009293,93.64525836,77.96488337,-192.4386259,88.35143101,,,,
544.1519996,2125,0,0,22.42803002,190.2665416,0.747961237,0.676232129,-23.29076487,-3.144929122,-51.20338654,-89.57069985,-112.9003889,-104.719119,-61.25089861,-66.47991876,-206.132008,-72.44747793,,,,
544.1599996,2125,0,0,80.55407912,232.6504447,85.56129797,47.29311074,68.67220824,38.79521593,100.415133,73.19291862,25.7373963,37.46962804,85.5919795,98.17402497,-467.5537624,77.30871427,,,,
544.1679996,2125,0,0,-60.40230916,91.16712266,-84.29194558,-89.63626028,-73.14108265,-102.021102,-28.2147347,-66.67960665,-80.83185649,-75.31811549,-29.87167295,-38.37680924,-64.93607842,-16.44208851,,,,
544.1759996,2125,0,0,100.5862133,259.5118645,65.27230216,74.42535367,66.32822129,63.46953553,15.80652842,-22.25855515,-61.6656041,-50.0950589,18.80152928,12.47774072,-466.9115715,-19.36536544,,,,
544.1839996,2125,0,0,-25.70968192,107.0514032,-33.99972876,-62.22595668,-28.70291341,-85.00093174,69.94502041,24.91994994,10.67487486,11.74155976,73.902114,58.88368384,-206.4740155,65.49626876,,,,
544.1919996,2125,0,0,-9.586398705,150.7272371,-30.50757146,-12.55331034,-48.97861784,-29.4007182,-82.74822986,-119.8617873,-144.5027947,-133.8261507,-83.76463198,-89.13298902,-214.0475263,-103.8945014,,,,
544.1999996,2125,0,0,74.94099994,215.84601,77.38532181,39.47556073,57.75826253,36.13858739,96.07267933,58.4712103,16.20070111,24.3851075,90.11952222,93.71972586,-465.1055766,61.78910363,,,,
544.2079996,2125,0,0,-55.96255792,81.47970629,-74.92266892,-109.9303445,-71.79018436,-126.1693819,-14.58871981,-67.69383733,-70.24462029,-72.31961321,-15.11198127,-27.4862773,-44.75990447,-24.76672207,,,,
544.2159996,2125,0,0,88.45382793,240.7088754,68.44988279,70.53495317,64.69448054,45.74651929,18.28808139,-28.00949645,-64.46194766,-58.25051973,5.385235004,3.726414277,-452.7267777,-42.5813767,,,,
544.2239996,2125,0,0,-46.63141912,83.34875196,-42.45842096,-68.68806937,-42.31431151,-74.87367758,70.20953107,18.27020948,1.416577037,-1.530631663,57.1499677,44.26039693,-214.8923854,54.6086847,,,,
544.2319996,2125,0,0,-38.98772469,117.4611276,-56.41091485,-57.73882952,-72.86062496,-39.47074633,-84.50385028,-135.7811467,-153.4717467,-148.477502,-94.08760947,-95.93617537,-221.4962958,-100.8753525,,,,
544.2399996,2125,0,0,46.3658083,181.8525943,53.07492359,22.05137078,38.81379699,29.22858708,64.88284164,14.28722551,-18.09821627,-12.17497315,48.36801365,58.15985162,-492.2872812,34.18389662,,,,
544.2479996,2125,0,0,-80.55512044,49.75681295,-90.20247122,-89.27369223,-87.90849286,-111.6509985,-42.99507911,-107.0998773,-100.6734789,-103.54274,-46.10931641,-60.82177189,-61.01034736,-52.04564291,,,,
544.2559996,2126,0,0,70.09409913,221.0354217,53.35121903,47.69006384,46.72133566,59.07873311,6.538337001,-51.99549568,-78.10251918,-73.29885592,7.891938531,-0.989669535,-450.8589206,-45.69769559,,,,
544.2639996,2126,0,0,-25.21681693,100.75224,-26.53266388,-69.67870379,-27.65411789,-56.82739358,65.72139975,3.544298988,-3.232944501,-5.694882376,67.76824961,47.06746508,-214.6639669,55.16146849,,,,
544.2719996,2126,0,0,10.39520001,156.4855083,-13.77888554,8.048893378,-24.55098608,-23.74888306,-51.53554581,-109.2015128,-118.4748841,-111.2370576,-50.12490607,-64.00691069,-176.9459268,-81.47221922,,,,
544.2799996,2126,0,0,56.54327005,193.9422472,59.5775832,21.91196804,48.59394146,19.40704743,102.3860756,53.91171238,20.73569045,33.58690014,96.14062422,103.9177739,-448.1079743,63.93363198,,,,
544.2879996,2126,0,0,-98.55150599,40.482952,-93.86825663,-123.5480969,-112.9049524,-133.8886689,-56.22168964,-110.575847,-111.1920891,-102.0701162,-62.61314353,-60.08885238,-68.35056113,-52.95113323,,,,
544.2959996,2126,0,0,81.59541366,233.143838,87.47864973,84.67907871,53.28173932,55.5792052,-0.105146539,-52.25341085,-79.28797973,-64.60724836,-8.844154201,-4.070319353,-457.2430574,-51.07937724,,,,
544.3039996,2126,0,0,-23.89184475,104.4345407,-25.87888907,-85.5015966,-28.57100184,-74.38759797,86.60275571,25.49112678,21.78697691,24.58405582,84.05858874,69.69657362,-205.5407629,63.67146802,,,,
544.3119996,2126,0,0,-3.51753767,148.36336,-46.95592228,-45.3105885,-45.37348148,-48.79919723,-65.85248344,-115.8100933,-123.6574466,-110.6265906,-67.50909361,-67.35376974,-184.2023589,-98.35663669,,,,
544.3199996,2126,0,0,78.72937611,212.6607109,71.19954594,53.5010117,65.63375269,21.81081277,93.33641096,54.39329221,28.40167684,46.22083295,87.45735515,101.582567,-448.5584533,56.12149215,,,,
544.3279996,2126,0,0,-87.65626179,40.65528908,-95.84951725,-123.6429293,-102.0017171,-153.0001004,-36.7662332,-94.2272894,-79.34948698,-73.01774718,-41.65219305,-54.42995739,-38.24987331,-42.40998068,,,,
544.3359996,2126,0,0,61.55613827,204.6666742,33.68064764,41.5625912,25.61256278,20.46405619,-11.41627575,-67.03540552,-81.90840797,-73.27221721,-15.7213077,-22.55015818,-450.4494992,-66.87528463,,,,
544.3439996,2126,0,0,-41.34664177,83.17181765,-55.69512538,-84.75753811,-49.32226716,-78.60308901,58.20944728,-1.597323803,6.260618669,7.156603571,57.34064303,52.162122,-224.2232259,50.69548917,,,,
544.3519996,2126,0,0,-17.46096855,134.247042,-42.87258728,-52.79061494,-51.52010587,-28.50489676,-78.72250127,-139.5370699,-128.5126711,-119.9571035,-91.18820843,-86.02304901,-187.7975003,-98.13054074,,,,
544.3599996,2126,0,0,76.84949576,211.2026482,64.93622917,40.27077358,55.65251033,48.75580932,99.78986855,46.22349437,34.4801094,44.06917725,81.54939425,97.81987388,-457.8322226,57.48321464,,,,
544.3679996,2126,0,0,-90.86060661,38.76647309,-108.9094311,-132.2054662,-121.8086957,-140.248271,-30.51014848,-91.27359201,-69.15550792,-63.09967296,-49.216709,-45.26998694,-48.73125547,-41.15886995,,,,
544.3759996,2126,0,0,57.41880441,202.0149981,43.23929091,25.5755847,22.32282862,25.47045302,-9.132249816,-66.76516602,-75.08762044,-59.82987754,-31.63140466,-23.51924901,-451.4435112,-73.97443912,,,,
544.3839996,2126,0,0,-27.23612229,94.76611833,-39.04247109,-66.67376908,-34.83749496,-76.40615523,76.25395611,12.26117628,23.2215488,31.39623369,60.59044126,62.77376773,-226.2413061,47.5934889,,,,
544.3919996,2126,0,0,-2.697277378,146.296396,-33.73870009,-22.01412035,-45.65621934,-44.14151288,-62.64090275,-118.1620589,-108.9599199,-87.18864415,-80.49579152,-70.65907211,-178.2185903,-93.0095279,,,,
544.3999996,2126,0,0,93.76540581,227.12013,89.55222716,41.52952466,75.09784933,43.87555928,119.309041,68.10691341,58.79984652,80.55107145,111.3935704,118.2759532,-440.2154956,71.78964239,,,,
544.4079996,2126,0,0,-58.61463501,70.7629286,-74.1531144,-113.1733135,-87.36822152,-117.2425885,-3.940330501,-76.00759472,-41.39126256,-32.56276675,-6.884656051,-18.70368601,-26.43509292,-19.74064591,,,,
544.4159996,2126,0,0,90.38871927,233.7779214,79.4215484,85.43455449,44.68377819,45.39917385,15.87559015,-45.68978003,-44.54554892,-27.25699579,-1.031292341,8.49393076,-424.0459107,-43.8269912,,,,
544.4239996,2126,0,0,3.951255314,114.3183662,9.961629907,-37.10809227,-13.02058934,-64.50199994,108.4632342,44.35491112,62.69515578,67.49676182,95.41138144,96.07319679,-199.4358286,81.15952986,,,,
544.4319996,2126,0,0,21.79167731,149.1255263,-7.873485261,-44.81525514,-28.94843522,-29.68207312,-41.75361973,-112.0976297,-89.73354269,-82.31151705,-58.65808024,-66.17300566,-152.6292159,-86.47244681,,,,
544.4399996,2126,0,0,97.97690271,208.5626099,73.42347642,31.54285115,67.72116824,48.14554135,126.5515916,62.58153629,56.4257234,63.66034444,110.0551407,111.0061566,-432.6728223,69.24746351,,,,
544.4479996,2126,0,0,-49.16607924,60.89331843,-78.70351974,-99.49127782,-91.0488132,-123.4846758,-2.132220244,-74.35716209,-50.08072462,-53.00410079,-17.941177,-21.51574715,-27.08470108,-7.922449053,,,,
544.4559996,2126,0,0,122.7382044,252.323386,94.11588126,95.67278691,66.90208478,60.87660652,18.93791547,-43.93100904,-56.779851,-50.19645888,-9.15264067,11.00090328,-415.8302749,-27.12571474,,,,
544.4639996,2126,0,0,17.11036634,118.5843865,6.06785571,-14.6792224,-10.10192926,-49.48312521,121.4958741,61.36760385,56.06634053,53.99940375,99.43543598,115.3369798,-182.876664,118.529442,,,,
544.4719996,2126,0,0,1.155872565,126.9998876,-24.4747856,-14.79709471,-64.16840908,-54.02163973,-57.83245825,-113.4177277,-119.7643578,-118.0619095,-81.4561361,-75.5364239,-145.1234571,-56.99082085,,,,
544.4799996,2126,0,0,93.62530754,208.5927596,71.33350826,42.4902124,52.25661376,45.28342664,90.34271796,41.1540092,12.64476425,11.66235279,68.99930247,76.27162411,-450.7663789,74.84679063,,,,
544.4879996,2126,0,0,-37.75670721,72.9316703,-81.26860674,-117.7757047,-89.03848406,-102.4888948,-0.988317637,-55.82889879,-54.42289688,-65.88994538,-22.45939572,-9.75195756,-14.90966435,26.61428326,,,,
544.4959996,2126,0,0,110.075973,237.3186944,70.08898712,68.63509327,45.80688291,48.96797084,17.64789844,-23.3086853,-61.71688393,-61.96582274,-8.392203371,17.3143646,-392.385284,-0.622046409,,,,
544.5039996,2126,0,0,0.466971464,101.5322194,-13.76388805,-43.57300826,-25.12740096,-53.83972543,90.21168306,44.07684948,25.98344241,14.55855563,78.07001286,70.27135034,-198.0289171,104.9829631,,,,
544.5119996,2127,0,0,16.99312365,140.9544681,-10.02392823,-28.90852564,-42.92920354,-23.41418464,-61.11331035,-115.1220898,-121.2757406,-133.0090535,-74.62948819,-85.70317091,-144.046755,-45.52268351,,,,
544.5199996,2127,0,0,107.6196199,221.3989777,100.5809879,76.29594241,74.83195588,53.54689805,113.4952295,68.03421647,33.97051893,24.17477173,103.6513946,104.3607836,-441.4380179,100.8163879,,,,
544.5279996,2127,0,0,-67.41516665,45.57726841,-91.010661,-100.6941348,-106.7929689,-130.1677155,-9.904794049,-53.58271274,-58.14732318,-72.9468474,-24.16195452,-30.15951594,-30.68353011,12.34791443,,,,
544.5359996,2127,0,0,83.77958941,216.9595283,42.43683542,40.18883737,24.42613306,34.55712036,-15.72468556,-47.45008209,-84.608607,-88.21206702,-36.95144309,-29.10749585,-434.1232402,-27.64802739,,,,
544.5439996,2127,0,0,-8.332957597,101.9693859,-22.27058437,-49.87136029,-24.12141876,-79.94744956,79.53339699,42.20799001,20.74703725,9.554326596,69.2893598,68.43272304,-253.47346,98.54699663,,,,
544.5519996,2127,0,0,-9.683190487,121.4775931,-35.16306058,-34.55932227,-60.17717519,-76.05635683,-72.90795931,-112.7212445,-125.8054911,-132.9080894,-88.74673775,-92.80346431,-185.7021982,-69.33465253,,,,
544.5599996,2127,0,0,95.14778926,217.0568799,67.96706171,37.44352579,53.87576492,40.4668717,79.74040653,49.44956787,12.31956072,8.970949744,72.15965852,70.38930195,-484.0430516,64.79053793,,,,
544.5679996,2127,0,0,-51.43257025,69.14809338,-93.83547794,-92.08231733,-97.50676808,-112.0752378,-20.3664784,-55.36109802,-58.7275684,-63.85025736,-24.02988079,-24.59497545,-58.7629461,17.85621618,,,,
544.5759996,2127,0,0,100.103895,234.810716,60.23155502,82.17271175,35.49523652,36.94312605,0.085387717,-32.89618154,-61.936998,-56.90172449,-8.171310889,-12.21609587,-438.5557283,-14.00193026,,,,
544.5839996,2127,0,0,-3.438910426,113.3935086,-17.00441142,-57.28242201,-35.67601578,-81.04349797,86.0887865,48.91929664,36.22736729,32.26313733,85.12295338,69.92478695,-266.6287861,91.87368008,,,,
544.5919996,2127,0,0,-12.12800859,132.3479409,-41.3378019,-33.86631411,-69.26475781,-60.65558771,-79.91097285,-109.4357295,-122.7654981,-117.967722,-90.59932849,-76.90451029,-208.3869521,-72.05906417,,,,
544.5999996,2127,0,0,98.12718812,230.6353938,85.13708713,59.76777399,68.60690944,63.11523732,85.88960063,61.79733599,24.25640223,34.44553237,76.53542993,86.88779074,-508.2991805,70.85438431,,,,
544.6079996,2127,0,0,-58.76916476,73.40228915,-79.61745687,-103.1976474,-91.38985394,-106.3631392,-8.718430942,-44.23525467,-42.29719325,-34.79476755,-13.7292812,-21.13284245,-71.92543197,21.19991605,,,,
544.6159996,2127,0,0,92.48239306,236.8990285,65.0957685,79.56799881,35.94056474,42.5699638,-8.747673272,-38.04904335,-64.16437108,-47.87353922,-19.18933672,-11.00689704,-446.4453158,-21.36936285,,,,
544.6239996,2127,0,0,17.64345642,133.6812749,10.61372259,-36.08379454,-5.823401414,-46.45631501,95.31954444,59.21523482,48.57950557,50.55389656,89.90009901,82.52427682,-257.7969599,101.5496937,,,,
544.6319996,2127,0,0,0.786014118,143.3999556,-27.76650561,-25.44931603,-52.39141032,-40.00434665,-56.00178891,-90.39312834,-94.86744395,-89.34746346,-60.42551188,-62.72340465,-168.36802,-45.6459592,,,,
544.6399996,2127,0,0,88.82107762,217.8189027,73.35274535,77.6516307,53.48267962,30.87784165,82.33740682,58.42015752,31.98588126,37.06290027,80.75564959,84.48602456,-496.7442362,74.09425081,,,,
544.6479996,2127,0,0,-64.89809137,57.82478183,-88.98358736,-96.68020252,-103.8659007,-141.6771294,-25.39385058,-62.745362,-49.70112095,-53.01374688,-31.60294331,-45.42594789,-90.8492397,-6.949746841,,,,
544.6559996,2127,0,0,82.22407621,226.0646317,56.6654722,38.07530647,23.76505771,33.37020828,-22.32121582,-55.87012707,-71.03713195,-63.22226373,-29.37170985,-29.15653477,-455.3688313,-43.75778064,,,,
544.6639996,2127,0,0,-0.862696684,115.1086962,-7.561432034,-63.76324225,-25.4196683,-68.02646193,72.68541418,41.60031681,38.22238016,36.91070384,77.72321573,80.46198686,-277.0223334,88.60333049,,,,
544.6719996,2127,0,0,3.445083973,133.0952112,-36.00510961,-20.3138146,-57.2931091,-58.45899285,-80.93855709,-117.6705916,-110.4566246,-108.052828,-82.4053872,-86.47134103,-186.0807553,-78.12791997,,,,
544.6799996,2127,0,0,117.5322618,237.4744871,100.3541644,83.49834597,73.10465193,39.78964344,94.43514297,54.80380477,43.74952836,46.15353786,96.532183,83.2422732,-486.2806371,67.79230122,,,,
544.6879996,2127,0,0,-48.99468678,74.39798681,-62.90281214,-83.97195,-93.73371978,-123.3988059,-0.519713241,-45.75977133,-26.43750724,-29.75557746,3.205586605,-8.559178661,-69.97035126,14.68444364,,,,
544.6959996,2127,0,0,97.54550831,242.6295219,75.80767766,79.36332708,31.53549229,75.59282437,-10.95369109,-42.88574539,-58.11780161,-47.80417594,-21.57955548,-4.185728103,-447.0074747,-23.96181069,,,,
544.7039996,2127,0,0,19.47759023,137.9473544,10.66908579,-16.07167253,-10.11468338,-23.61650469,93.52061975,63.89047368,60.14122807,65.04560112,86.11742292,101.8377841,-275.7901154,126.139981,,,,
544.7119996,2127,0,0,-18.68162958,119.145639,-54.99042888,-25.05500055,-80.82416558,-59.76937333,-77.67017682,-109.3435463,-107.7035003,-95.52828208,-80.34674979,-77.3933382,-196.0405695,-60.80281567,,,,
544.7199996,2127,0,0,77.17595759,207.5706684,68.96218259,49.72046323,31.70084186,31.56245114,61.54976404,32.18509793,14.00795502,27.23145187,64.06437642,64.54463334,-537.7392088,49.69653459,,,,
544.7279996,2127,0,0,-68.09802427,59.62906962,-89.02045527,-110.7552731,-110.9598526,-135.6489526,-36.52582864,-70.269836,-53.7211333,-47.68618176,-33.82657135,-35.82338579,-121.7624208,-6.486934864,,,,
544.7359996,2127,0,0,75.68016014,221.931048,29.53245285,48.59395106,9.850647168,14.2082661,-35.16758193,-60.94550815,-75.56011724,-58.50983317,-32.76000316,-24.74624945,-474.1542705,-64.60127443,,,,
544.7439996,2127,0,0,-13.91844101,111.1880872,-27.55001902,-48.88248761,-48.39822841,-76.71056988,61.38573516,28.01091176,33.50160207,42.85593917,65.66383907,67.53771236,-320.6594234,63.09266088,,,,
544.7519996,2127,0,0,-26.39289156,120.3224358,-55.18288518,-35.23007525,-89.28062424,-63.53756999,-102.0276698,-140.250448,-124.0326258,-110.9274073,-105.5420505,-111.7630781,-231.8054714,-100.7617753,,,,
544.7599996,2127,0,0,101.3783002,235.698581,85.70913261,72.65037056,62.82805704,46.90142116,77.28850779,41.58320195,33.71079617,45.02576027,84.39022126,75.57184885,-538.8916887,45.2033121,,,,
544.7679996,2128,0,0,-55.68745565,74.34935677,-70.79943819,-94.52961395,-93.27763181,-111.5102934,-4.902296466,-45.52287191,-22.14429297,-16.90852506,7.878569933,-5.087284755,-100.0837993,4.740186538,,,,
544.7759996,2128,0,0,92.37804812,242.5904147,66.87216042,67.84624712,28.05414465,55.27870542,-8.492499294,-37.53941311,-50.37496024,-33.60803512,-5.897306274,-2.712062646,-449.8339276,-45.29388505,,,,
544.7839996,2128,0,0,29.04100262,157.2837773,23.91179712,-7.238354969,-3.078585355,-38.74458618,103.5445493,71.14751144,73.55726615,80.72440368,109.1157873,112.1724836,-292.5880491,101.7898691,,,,
544.7919996,2128,0,0,-29.29082157,121.4942155,-49.75231214,-23.81855535,-95.06992045,-82.25937036,-78.61813755,-111.0679833,-99.00941436,-84.01450593,-70.09735801,-74.56570221,-192.7226336,-76.96142702,,,,
544.7999996,2128,0,0,53.94095586,194.8011677,56.09410831,45.73071073,8.294129859,-5.086729886,43.39902637,22.70717155,2.902288574,23.37462951,50.0605056,54.6117213,-544.1067949,13.42494121,,,,
544.8079996,2128,0,0,-71.54723781,62.10135307,-73.86317482,-116.9267215,-113.3568065,-145.7603616,-33.42627196,-58.23550113,-49.41627094,-38.35596339,-27.08984386,-15.83887338,-122.7863629,-22.0025395,,,,
544.8159996,2128,0,0,73.57823831,218.3648938,51.75327263,36.41736153,3.621248918,15.74193291,-31.6047402,-60.35631538,-74.2142383,-60.09511178,-26.21025784,-19.24156824,-461.2799942,-68.94292784,,,,
544.8239996,2128,0,0,-1.176317304,117.2598226,-3.09896721,-56.70543361,-36.72908035,-72.8405647,66.55473595,26.88786213,35.42176379,34.59973018,69.95885796,58.66195227,-312.1738328,58.90936635,,,,
544.8319996,2128,0,0,1.24932867,139.7667122,-30.51171613,-31.40953676,-62.4472671,-53.22946544,-67.03893864,-102.703747,-88.02131327,-84.54334055,-60.38503988,-65.09636973,-164.9449395,-74.19728096,,,,
544.8399996,2128,0,0,87.1138639,211.4153985,57.2175774,54.61487797,41.19133405,31.28338896,77.7066765,45.85785615,34.70472915,43.18998497,90.39430164,90.50030813,-490.5122188,42.38794732,,,,
544.8479996,2128,0,0,-98.88790607,23.97861675,-121.1855627,-133.6180989,-136.6952084,-174.9733367,-44.96997699,-89.56706724,-60.62733721,-60.24621019,-35.17673352,-45.25790984,-96.37436561,-28.10604662,,,,
544.8559996,2128,0,0,69.88801419,209.5125288,48.77970858,83.38350735,15.31035632,17.34804873,-49.23879436,-87.82170595,-86.25300531,-78.52474842,-38.80548052,-44.40335001,-431.8596009,-75.2561685,,,,
544.8639996,2128,0,0,-1.486639948,112.897062,4.00482011,-10.63560655,-29.19184703,-50.97900837,73.82754468,33.26930144,45.17449969,46.70784815,84.4476127,71.99084241,-271.0579234,75.68086247,,,,
544.8719996,2128,0,0,-62.08170941,80.82227799,-73.0409994,-99.37639438,-130.7243433,-99.67643169,-102.3476299,-140.6061177,-123.2428334,-113.0428808,-102.0265454,-92.1697944,-162.0965211,-95.34064769,,,,
544.8799996,2128,0,0,59.35422372,186.4946649,55.30570001,35.34953575,17.71609587,31.08350601,30.67733374,-0.766120203,-9.076972814,2.211332899,35.59825984,50.83785242,-517.0004527,10.57557155,,,,
544.8879996,2128,0,0,-90.44715194,28.57415271,-96.05982257,-98.23651284,-121.54808,-130.5323985,-39.0350547,-78.13025237,-51.15918177,-47.55718914,-32.37120866,-38.92188418,-79.61817022,-18.87758064,,,,
544.8959996,2128,0,0,35.4594609,179.7217009,25.21460669,24.64594541,-24.16474549,-4.926845791,-52.02913266,-82.1458699,-88.01514555,-71.40265408,-51.85408713,-32.07970642,-419.7646657,-79.52080409,,,,
544.9039996,2128,0,0,-7.50520858,103.3579291,-8.242034654,-32.37891377,-37.34363903,-65.27805804,48.51723034,16.20086971,23.1046771,30.90613071,63.5190924,65.90654042,-296.9732925,50.24200879,,,,
544.9119996,2128,0,0,-17.4359683,103.0985179,-48.50891714,-33.73758374,-82.39317994,-76.47144394,-82.33034339,-125.9277424,-99.12066591,-90.1857234,-64.38472019,-86.26985028,-136.8366892,-87.26202802,,,,
544.9199996,2128,0,0,64.41783228,178.0938484,57.50459966,29.30989869,26.93538206,10.8839388,70.07055807,24.53125401,27.75134288,39.25180816,75.89543995,69.2344857,-472.753301,30.52205417,,,,
544.9279996,2128,0,0,-109.2971456,1.021515803,-107.6023313,-136.3379354,-141.4952216,-155.5803912,-56.10944328,-101.396136,-68.14727668,-61.67049246,-50.11150639,-57.16435046,-81.80407899,-39.94377952,,,,
544.9359996,2128,0,0,61.45191154,184.3908539,53.43778963,42.44766145,-4.180829063,14.02246554,-54.70339552,-94.83539307,-86.61574166,-76.35844828,-51.18688239,-48.49113386,-408.7263756,-87.91530844,,,,
544.9439996,2128,0,0,-0.693577458,91.85258538,13.70610104,-48.11253603,-24.22718494,-66.88998519,93.01826938,41.23827025,63.99079145,60.86400938,97.47808945,85.90801692,-254.9576193,72.4794837,,,,
544.9519996,2128,0,0,-62.55514171,50.92573595,-66.06391023,-66.97187458,-117.7423898,-111.9110333,-95.70238305,-152.8414077,-116.5431797,-113.1131925,-89.98208682,-105.2982249,-126.1906499,-118.2766782,,,,
544.9599996,2128,0,0,70.22321831,175.5928705,81.92208711,62.54748929,32.48400804,14.24578769,48.3215931,-7.448583371,5.86642012,9.872147488,51.24906321,39.79650919,-486.4043485,-9.945138756,,,,
544.9679996,2128,0,0,-62.70835541,37.77923125,-62.12151077,-104.9047169,-95.91992546,-114.4960975,-8.875041277,-67.32057813,-23.84933369,-25.41073421,-0.200664203,-32.93207346,-44.83405963,-15.95954583,,,,
544.9759996,2128,0,0,68.22812968,192.9727727,49.82280966,49.83564182,-4.239070119,29.23277501,-19.08688693,-66.73796329,-53.18479178,-41.93409355,-21.51213691,-18.53611345,-355.463826,-62.35332597,,,,
544.9839996,2128,0,0,-2.425068268,98.77521115,0.682039205,-36.14464204,-35.40509969,-67.44056908,88.92361203,38.60274522,63.472524,65.82930903,80.09116427,102.0735428,-243.2689543,73.71901977,,,,
544.9919996,2128,0,0,-55.40957553,63.97967049,-68.8225526,-74.3119414,-110.2833848,-113.1270612,-97.12680476,-146.8683296,-113.3729243,-102.1954925,-94.23549783,-93.00948569,-117.0707573,-106.8381532,,,,
544.9999996,2128,0,0,62.43352122,174.018534,75.8485635,59.79822333,27.04630573,2.747103481,48.23949989,1.11788516,7.483172048,21.66765993,43.00351435,53.21894576,-478.2366791,-1.752656456,,,,
545.0079996,2128,0,0,-69.3103408,32.12379307,-66.70674458,-86.85849682,-96.6047412,-100.7923264,-12.95636397,-67.64263303,-26.4813315,-22.71356642,-10.72857613,-11.18423651,-39.99293661,-19.07654074,,,,
545.0159996,2128,0,0,63.73459962,179.993151,43.09023225,67.39330104,-0.65744875,46.76123805,-29.9576987,-77.8510177,-62.30484432,-47.01129733,-11.82076901,-18.72020383,-351.7426201,-67.86318161,,,,
545.0239996,2129,0,0,-8.668349908,84.7228774,4.918290465,-19.42858459,-35.6830987,-66.63595045,72.07781257,19.09568841,46.69522227,53.14408389,74.19587858,78.68507755,-248.2719222,62.51285103,,,,
545.0319996,2129,0,0,-31.57735068,81.09596656,-39.6376565,-57.58725261,-75.49535288,-67.19686665,-85.36320247,-138.4508193,-101.3526582,-92.51771891,-81.24751738,-81.73791113,-87.08693643,-93.79562925,,,,
545.0399996,2129,0,0,90.30979846,192.2917535,100.7410048,66.20933971,62.91840762,49.3317107,79.76851682,31.22510519,40.98699591,54.10401376,80.98655061,96.88044703,-421.1452678,39.75347792,,,,
545.0479996,2129,0,0,-76.71302559,16.38564093,-62.37441824,-90.77204665,-99.14121261,-123.1409285,-0.081598327,-57.71180406,-12.58623947,-8.884426372,-9.794113874,4.789535886,12.72801424,2.050445508,,,,
545.0559996,2129,0,0,49.07697549,153.6367255,34.19343758,51.91603795,-2.094575641,15.8718729,-27.32270118,-83.71225531,-61.75030042,-53.31694746,-11.87541636,-28.93198048,-309.5664376,-74.3050436,,,,
545.0639996,2129,0,0,-30.99833575,46.72348066,-11.72277721,-44.76864437,-39.92038135,-87.75632408,65.66548631,1.96632423,39.15513533,38.0525915,72.13239686,67.48095046,-217.7226825,52.10346231,,,,
545.0719996,2129,0,0,-61.56066442,36.63529955,-49.29062594,-67.5156756,-94.50758356,-100.6080612,-108.0146428,-165.0729182,-122.4649066,-119.0715372,-117.1248145,-106.1911102,-53.59098197,-107.567784,,,,
545.0799996,2129,0,0,68.65222093,151.5794873,70.39936401,44.52271075,37.21551046,7.715835638,54.66661141,5.291951968,14.85373157,21.28593522,55.46728226,54.6982663,-406.1772963,15.23920801,,,,
545.0879996,2129,0,0,-104.6800439,-29.547139,-116.2658895,-144.0347929,-139.5234797,-176.790796,-37.76922715,-94.25069176,-47.9347264,-49.68099544,-40.09437235,-36.49876509,4.230450285,-33.66387331,,,,
545.0959996,2129,0,0,45.76243765,143.9741841,24.24152056,41.02514005,-20.6486631,6.611722591,-62.12178594,-99.64087098,-88.65654334,-77.76633666,-62.12348618,-43.34627104,-315.8389856,-96.96580793,,,,
545.1039996,2129,0,0,13.17567443,81.07286285,9.721387391,-10.90521956,-21.43497687,-55.60202812,78.70439566,37.63235657,53.54348645,58.51548347,71.37856942,84.93523059,-209.9361006,66.84511286,,,,
545.1119996,2129,0,0,-24.6624974,59.61425441,-48.01762707,-46.67996884,-84.87300453,-86.10673012,-80.16595711,-129.6918243,-97.50881465,-92.42441599,-85.0515511,-81.395842,-35.64897511,-85.50615585,,,,
545.1199996,2129,0,0,87.96284484,169.2066462,88.52002966,78.16659171,44.56525532,39.03986841,74.29282842,38.19772714,34.36018008,44.44698385,69.2311342,89.25744213,-392.4029392,48.9055056,,,,
545.1279996,2129,0,0,-67.80367691,6.700572092,-67.39188479,-90.7502257,-106.6489838,-135.3189699,-9.549189476,-50.6120126,-23.56192636,-21.41871426,-25.06406086,-7.561794058,26.75409657,24.20682312,,,,
545.1359996,2129,0,0,86.23041033,178.5592705,61.69819747,86.01390678,17.30632836,18.68586045,-33.6679381,-72.82843198,-70.0302096,-65.70669255,-30.87982306,-34.95870817,-285.3816646,-45.17799039,,,,
545.1439996,2129,0,0,17.81231134,86.51381509,21.58863327,10.89219607,-12.27562148,-61.50061761,101.2520177,60.27091626,67.91163222,62.24150265,94.79963001,96.77586881,-188.4081131,118.0630897,,,,
545.1519996,2129,0,0,-41.89942067,49.2802908,-56.96273913,-68.10091959,-99.66644489,-94.67105543,-88.19851483,-125.2006348,-109.7643728,-111.3661185,-107.0926408,-92.49845552,-30.42735497,-54.24691184,,,,
545.1599996,2129,0,0,96.17668423,180.3519754,82.96650074,67.93864305,51.35704375,34.40102635,56.97750761,33.54069919,14.18147334,14.71725657,56.61181586,70.15638876,-403.4657359,60.10319596,,,,
545.1679996,2129,0,0,-67.32053479,9.144878825,-70.12838041,-77.27982581,-96.53819384,-143.6052814,-1.422413821,-30.53420951,-17.18665649,-27.50093106,-5.20367591,-4.614122772,27.15214454,50.67889784,,,,
545.1759996,2129,0,0,57.8010055,156.9056335,43.73074556,54.20891484,-0.045963581,14.74187695,-45.08550249,-67.97729637,-83.94759385,-86.87929732,-50.55700888,-57.2503516,-294.3403606,-37.60716734,,,,
545.1839996,2129,0,0,16.67600364,90.03491391,15.93258891,0.920918657,-13.55716581,-53.66563447,88.03934573,63.43143574,51.28384584,38.52930205,81.8668998,83.33511835,-208.3209835,114.7570349,,,,
545.1919996,2129,0,0,-14.75828555,80.99543719,-33.88149335,-2.7283219,-68.5328098,-79.72481212,-56.25659522,-82.63195034,-80.14096004,-93.38727981,-68.73699654,-60.99750622,-8.757617712,-22.95074948,,,,
545.1999996,2129,0,0,110.1918452,204.7525074,105.5356594,106.263074,75.97688983,60.74804205,85.9781063,73.79070687,41.6126171,35.80042896,88.99388875,88.3682611,-377.3032704,97.22380444,,,,
545.2079996,2129,0,0,-70.16682216,15.15026608,-71.73428193,-86.06612871,-100.4900056,-141.4786749,5.629187234,-6.674167569,-10.79184945,-19.43761961,4.176670918,9.164576454,41.27538892,75.98466392,,,,
545.2159996,2129,0,0,63.53202379,165.0995601,45.05256609,67.92014933,1.32405478,-5.795865389,-32.49190256,-44.11040826,-73.19406098,-76.63780868,-43.71999982,-25.78401659,-267.727535,-13.59481751,,,,
545.2239996,2129,0,0,11.81034879,82.09406668,17.75219141,-9.647755741,-14.92761504,-62.06980159,90.68633267,71.78114469,52.42102955,38.55677086,96.70031468,89.92947376,-191.7290583,131.7484795,,,,
545.2319996,2129,0,0,-64.30409687,22.03416474,-76.15741793,-71.41744785,-123.5182553,-132.1463274,-90.5561962,-109.3132006,-112.1682041,-120.9497983,-85.58177266,-94.11793205,-15.03820799,-35.53695371,,,,
545.2399996,2129,0,0,63.04834409,144.0664974,57.85382282,59.60623822,22.09729304,-10.41938282,37.1480983,27.85358673,-7.265047842,-10.47254897,39.19280617,37.90111373,-411.1066675,46.8737264,,,,
545.2479996,2129,0,0,-87.62303148,-12.66575257,-85.94760665,-111.2193848,-112.1719061,-154.6073249,-24.69550357,-39.65102967,-43.67802505,-53.10716314,-23.63359978,-34.24400274,13.42583441,32.87037787,,,,
545.2559996,2129,0,0,54.32978366,151.5840295,42.86129364,62.5792923,-2.275084149,8.612949403,-45.82376251,-54.00008103,-83.60548734,-83.82550652,-56.80936986,-43.70621212,-278.4858683,-24.84511857,,,,
545.2639996,2129,0,0,20.05925621,88.77473612,24.20252109,34.2952803,-2.326288005,-42.82967503,91.81929884,86.0124923,60.82938939,52.04144898,95.16022648,96.58756042,-207.4742553,130.5659605,,,,
545.2719996,2129,0,0,-45.20380482,43.47939326,-59.51980075,-42.33984592,-94.34859563,-104.916806,-78.55811044,-87.07486598,-92.48577623,-99.0597454,-72.04159789,-75.47502075,-12.07265684,-30.40433512,,,,
545.2799996,2130,0,0,74.24241732,159.9603582,78.24300127,53.47122916,43.08939746,16.11904168,52.08449167,40.48633824,15.27552543,12.41308188,44.87208096,55.11467906,-405.5521853,62.03144583,,,,
545.2879996,2130,0,0,-95.66252359,-19.94063689,-88.18233826,-118.1446317,-121.3329744,-157.8518544,-24.31992041,-43.76214371,-35.63254552,-43.94834742,-22.2924633,-31.41794278,7.179451374,35.25386878,,,,
545.2959996,2130,0,0,33.898112,130.7224886,27.57742138,41.63407145,-25.7133916,-14.46998219,-65.37298838,-74.99604845,-94.97216112,-94.02298611,-52.86109831,-50.40157684,-282.3900498,-44.4397977,,,,
545.3039996,2130,0,0,4.525927053,75.47861708,31.79388259,4.631410489,-6.342497022,-48.25539865,69.72255436,57.16597968,46.44684275,38.44969061,78.99112256,84.72622875,-209.022344,108.7362553,,,,
545.3119996,2130,0,0,-61.74578929,24.38024416,-60.44509689,-47.81707641,-102.4900057,-112.2685066,-103.4052013,-121.5459201,-112.2984829,-117.6397368,-100.4011132,-102.6053306,2.618185756,-53.0755711,,,,
545.3199996,2130,0,0,81.9176033,158.5021108,68.27639561,78.18222466,39.46452513,17.5018581,43.80864782,24.15579916,10.30258138,3.77255528,60.54068983,49.62797749,-384.3635158,49.35189204,,,,
545.3279996,2130,0,0,-53.61584296,14.95133009,-61.32647369,-77.09730693,-85.48568459,-123.2539851,5.554731197,-20.82391454,1.660608101,-13.32974297,25.28642309,8.594949133,51.44287021,57.52962759,,,,
545.3359996,2130,0,0,59.59450131,151.4720744,54.2564475,67.13735836,5.538915454,6.765164531,-40.73944503,-59.63034479,-61.99958091,-61.87736559,-34.92919382,-36.30548301,-228.2541434,-22.35803625,,,,
545.3439996,2130,0,0,6.131423141,74.23563571,23.40059583,7.769948006,-6.629497077,-56.26239716,75.30980571,52.55355065,55.80083354,49.23704637,87.39336118,76.56648303,-194.3039788,109.9763017,,,,
545.3519996,2130,0,0,-53.1622385,38.15651737,-47.11419282,-41.67992223,-91.44361344,-104.7633591,-86.47014187,-104.060054,-92.31259955,-95.10293619,-77.27140467,-75.5379756,13.62414771,-43.13292394,,,,
545.3599996,2130,0,0,67.21690584,151.1809735,83.45824028,74.48984125,41.77516004,6.937568134,46.35962133,35.08840169,13.01689247,17.72423354,53.03802574,69.06495457,-373.9223055,52.05469987,,,,
545.3679996,2130,0,0,-96.80603831,-28.05606196,-92.59621609,-96.92636218,-118.3226212,-168.0940899,-25.56988009,-47.96141334,-35.5615581,-40.23314826,-5.292874869,-14.56491151,31.69648539,23.0297327,,,,
545.3759996,2130,0,0,41.2489062,134.6718163,37.65519707,65.7465117,-10.92105895,3.016173241,-66.40217383,-79.28016587,-94.70839252,-91.26513299,-53.00074807,-56.33247102,-251.4963707,-53.44175164,,,,
545.3839996,2130,0,0,-2.081235208,68.59949113,17.75398433,1.508363056,-7.799418986,-53.14750699,74.50745377,60.49148231,48.89070806,46.78343669,77.91965777,86.25783081,-199.1486146,122.4607295,,,,
545.3919996,2130,0,0,-65.54896183,21.305491,-63.77457204,-67.27522254,-101.7770689,-124.6655213,-92.55419274,-109.5452795,-105.2438689,-106.877691,-79.68618921,-75.86002004,11.83562837,-32.83465004,,,,
545.3999996,2130,0,0,58.11348046,141.4706767,95.03940592,77.50428349,36.34088012,19.82181479,35.04964618,24.97923482,-1.900461668,0.397790204,46.71861814,65.45674462,-386.1624205,57.48177107,,,,
545.4079996,2130,0,0,-111.290544,-41.12539853,-92.02413564,-92.27996902,-119.113245,-154.6994178,-32.21179603,-52.37875523,-41.85496793,-47.93761986,-25.08973393,-12.98162607,24.08315489,44.31841588,,,,
545.4159996,2130,0,0,42.02753052,130.5582414,17.76306083,42.02300799,-15.48000022,-4.606007162,-71.84418084,-89.09874225,-100.6804887,-100.9041938,-60.82631886,-64.48931911,-251.0179658,-45.98210005,,,,
545.4239996,2130,0,0,3.533527159,67.6564025,20.18356636,6.796417711,-18.09454022,-38.45138509,78.17976098,61.22680072,51.83216116,43.07110435,91.77512513,90.25791902,-196.9560049,118.8225143,,,,
545.4319996,2130,0,0,-68.80026685,10.23821105,-68.87123218,-37.68686676,-102.4094224,-94.72293672,-96.07980265,-115.7831387,-107.2166416,-116.3347904,-76.36811447,-78.98874383,25.31146831,-40.74293464,,,,
545.4399996,2130,0,0,72.12534173,145.9536538,79.50507543,85.84867648,49.9143457,38.13591977,38.15473526,24.77486686,3.879519521,-0.217559393,55.12444836,56.56183038,-360.2499516,53.54041807,,,,
545.4479996,2130,0,0,-97.93811484,-34.35627591,-80.00469754,-76.88493844,-110.3768522,-140.8547114,-17.27014597,-33.50666239,-23.31705362,-32.61520974,-4.049574921,-2.932197453,61.95697639,47.31506813,,,,
545.4559996,2130,0,0,45.27096023,132.3911483,54.56598394,66.9216449,6.680282279,17.08538591,-69.92761622,-81.69461902,-94.54376632,-94.27528008,-52.70068984,-46.89414637,-215.325288,-44.74983783,,,,
545.4639996,2130,0,0,12.9109123,74.66760813,51.42343421,15.29996635,18.68460443,-28.5710309,84.11498516,67.06471042,62.12294253,55.92581547,106.7052604,107.773585,-169.2905362,130.2715474,,,,
545.4719996,2130,0,0,-64.29860253,10.33415628,-53.91573799,-25.70025764,-85.95837104,-107.7656531,-79.17539446,-98.40528196,-86.00637546,-90.94617027,-54.74500281,-62.19473551,64.29256153,-22.31339308,,,,
545.4799996,2130,0,0,81.48327672,151.8562254,94.53093495,93.64090983,64.33769782,28.55215578,51.36215278,41.85814816,19.5908972,19.46107649,68.12150069,76.07790666,-335.2958027,64.17816553,,,,
545.4879996,2130,0,0,-102.9437523,-43.50601247,-92.71806905,-101.1898385,-107.8136794,-151.7483397,-21.03401073,-33.30726144,-22.84851878,-28.3049727,-7.961034459,-0.529138857,68.61506193,45.90604866,,,,
545.4959996,2130,0,0,20.08005067,100.6902952,12.68536796,55.06797137,-15.12579298,-5.7700013,-87.03017145,-96.8621396,-106.0121196,-104.0044942,-70.40226205,-70.19094289,-208.6884422,-59.18649261,,,,
545.5039996,2130,0,0,2.939580787,57.18374818,25.20926289,15.75640649,6.839925926,-51.75837155,72.88388294,56.97072237,53.89838198,43.98985544,92.65273558,93.54274922,-165.0453493,110.0674529,,,,
545.5119996,2130,0,0,-84.65620347,-13.13919659,-85.20823639,-52.89177011,-114.7763888,-125.622893,-101.8560645,-120.0445187,-105.9390493,-114.4339559,-81.05852958,-82.48732599,67.88601424,-52.44880694,,,,
545.5199996,2130,0,0,61.20183461,132.1710677,76.6562416,96.45705922,36.47067421,36.62775111,24.62969608,11.99988972,-7.768229637,-9.299026808,39.80028547,38.44867902,-349.6066964,31.96930225,,,,
545.5279996,2130,0,0,-98.3958986,-40.34938468,-65.74138852,-78.4655666,-98.87311476,-134.1183972,-9.286731681,-24.9470737,-14.75347488,-20.51976996,3.945191229,6.279078651,72.46917164,46.4619332,,,,
545.5359996,2131,0,0,3.204886825,81.76887013,20.95033315,41.0014318,-27.39580961,-3.377541949,-75.74584025,-86.64753808,-96.44584011,-90.68821797,-55.17543033,-47.22737968,-189.7381747,-56.95159706,,,,
545.5439996,2131,0,0,-43.97508133,11.84470187,-0.22316073,-13.6459054,-28.81351141,-51.82200482,40.02568311,23.83725374,20.23380245,19.97600182,56.74462616,64.76386378,-194.1584251,73.67944402,,,,
545.5519996,2131,0,0,-115.8058744,-43.23939066,-100.2734409,-76.71334573,-125.0529581,-133.7413762,-142.1321718,-156.5965477,-143.8874358,-138.6674709,-128.9324627,-118.7534497,34.59975793,-93.81620123,,,,
545.5599996,2131,0,0,79.10410329,140.6503197,84.00256418,101.4324279,66.03404634,50.00237783,20.39145091,7.800971804,-7.007348435,0.208531509,45.65745243,41.11326695,-339.7801831,23.57268593,,,,
545.5679996,2131,0,0,-73.32785436,-29.27776946,-61.58247444,-68.49161371,-64.55146493,-107.2735992,12.47147823,-15.5568315,11.16236699,4.049950124,38.43466378,15.40043942,108.0357513,57.05156455,,,,
545.5759996,2131,0,0,10.72937288,83.60163319,18.81283891,39.17349464,-11.39678409,-20.61080828,-65.75294075,-85.99937503,-78.4303003,-73.91256793,-44.51029987,-50.13078942,-156.8975156,-57.72418907,,,,
545.5839996,2131,0,0,-6.300369364,46.00540133,37.35832716,19.52928052,9.611271923,-60.05070337,59.56384782,41.49314056,50.19866058,53.29705042,81.22057803,84.20292095,-160.0317795,84.06127634,,,,
545.5919996,2131,0,0,-83.61116107,-12.16255019,-53.27062409,-47.67060864,-87.93786567,-101.949512,-99.09637516,-124.2287035,-94.38721102,-89.34139217,-82.03730365,-85.51914514,91.32709359,-62.83919927,,,,
545.5999996,2131,0,0,66.82340172,136.2689092,86.63895083,95.6264992,59.06918772,55.77525871,33.27371789,18.45043417,15.87163987,25.09121319,54.28886289,50.92978654,-310.1998305,39.18415548,,,,
545.6079996,2131,0,0,-95.44600398,-46.24330504,-78.54854808,-66.80050716,-90.03322105,-129.674155,-14.37739873,-27.32309287,-0.673531278,1.1260637,7.084332597,7.201781892,104.8263818,47.75637646,,,,
545.6159996,2131,0,0,-14.08665953,57.75205952,-0.373978063,22.6877074,-37.40289717,-23.0876954,-94.10861634,-106.4094911,-96.88184473,-87.52659204,-77.66746987,-63.36710756,-158.8540471,-76.65855315,,,,
545.6239996,2131,0,0,-25.07282185,26.03264746,19.45067426,-18.06016057,-11.96007918,-57.32527165,40.14398826,23.87587399,33.99977567,36.48576801,59.25227448,64.61100731,-184.3736153,63.64047937,,,,
545.6319996,2131,0,0,-96.64145114,-31.90301325,-73.34275233,-73.54077846,-107.0461129,-135.9112583,-113.1183564,-132.5337289,-108.9180768,-104.6796153,-97.82911746,-97.96167889,67.85129394,-83.61602257,,,,
545.6399996,2131,0,0,34.78827741,96.987571,56.71041313,49.99597555,33.79499694,4.467495151,18.03738359,2.131352305,-1.523466802,5.451345086,27.57859167,44.24569807,-332.6448346,6.517342761,,,,
545.6479996,2131,0,0,-119.8249647,-69.84556451,-97.8552522,-97.62246136,-102.1135156,-138.0073339,-34.18707194,-57.24466599,-24.2021798,-23.62621742,-16.86243093,-10.08949042,59.61956557,8.82799418,,,,
545.6559996,2131,0,0,1.563696688,72.25370966,3.534054778,75.64909581,-14.470276,17.31166246,-93.32611901,-110.7924809,-103.0301405,-89.32068055,-66.94609559,-63.98732305,-183.3118805,-85.09262056,,,,
545.6639996,2131,0,0,-19.07113559,26.44245992,9.984732043,25.62736613,3.247623047,-34.5102819,58.52116761,39.33977008,49.34588774,55.18601995,80.44219515,80.90099051,-176.8821784,78.18410091,,,,
545.6719996,2131,0,0,-118.1798369,-52.69058439,-103.2633372,-96.71225617,-122.3201612,-139.8552675,-120.5712566,-145.0751939,-112.527328,-104.948238,-105.773224,-107.6881575,73.23865637,-88.63139754,,,,
545.6799996,2131,0,0,48.07615123,118.5657234,69.7440592,63.4006488,42.30353778,22.01492087,6.156228657,-2.555699381,-10.97928188,11.78549771,17.31953261,42.08994737,-339.9489914,2.691114348,,,,
545.6879996,2131,0,0,-88.8123916,-33.73496083,-57.48903934,-71.63596785,-77.76506958,-135.7241356,-18.43246241,-23.11479082,-1.010040017,20.72524597,0.692532687,23.3221881,78.64428326,38.11881613,,,,
545.6959996,2131,0,0,-9.063483654,61.60172012,10.03361848,39.90346529,-27.21770159,-23.67040078,-95.54165784,-104.5090659,-91.80075172,-64.64304681,-66.28427798,-60.31503213,-152.9612121,-76.72131958,,,,
545.7039996,2131,0,0,-36.09863982,15.92786463,7.672476223,-12.49091257,-20.28664155,-45.94682111,27.1708624,13.6204783,28.64735106,46.19357425,48.35348995,58.57906102,-182.2676115,54.01763088,,,,
545.7119996,2131,0,0,-97.61959658,-24.80496233,-87.4787133,-87.51537954,-113.0355257,-105.2517396,-136.0941638,-142.2964518,-113.1240407,-94.89431775,-120.3868356,-99.61509215,83.90761226,-86.09540592,,,,
545.7199996,2131,0,0,62.54907561,126.7313896,70.42065081,90.54040955,50.65502797,46.69207218,8.061493124,5.859564041,3.426265029,24.72328319,42.65211346,51.88947973,-302.671523,16.53918268,,,,
545.7279996,2131,0,0,-87.48785381,-39.02397139,-65.02797118,-60.90118673,-80.96327072,-117.6498793,-21.48623233,-35.68316467,-1.925104206,8.181152387,19.87345258,13.60777288,104.5182838,31.56072919,,,,
545.7359996,2131,0,0,21.22315543,96.44027725,35.02390775,58.2038813,-4.228198098,5.382683178,-85.3835693,-90.56423721,-77.14963075,-61.2436391,-60.11272483,-41.14686131,-118.5408943,-65.45310188,,,,
545.7439996,2131,0,0,-12.07171256,40.14171619,31.96200234,19.68113255,3.506494784,-34.92021744,53.58089429,50.67985273,60.58404489,71.41854674,78.74069531,102.0977373,-139.4536652,89.31237595,,,,
545.7519996,2131,0,0,-104.8863354,-38.52225344,-92.32882661,-67.14702306,-110.0161188,-117.0574546,-129.5737774,-133.4756076,-107.2136224,-92.29524611,-101.5161407,-83.18609093,116.3349475,-77.08856661,,,,
545.7599996,2131,0,0,54.62158209,114.7055431,64.33628581,93.82918741,54.44503536,35.74310361,0.493229861,2.786165295,-4.502881789,14.87543894,32.26488696,53.53752329,-291.4775334,4.059683447,,,,
545.7679996,2131,0,0,-104.8502755,-60.43424022,-75.11256746,-80.84932876,-89.62133062,-137.0041027,-35.39357303,-39.9024785,-13.74495294,-3.770904411,-8.81947865,5.093225731,102.2314209,14.68500607,,,,
545.7759996,2131,0,0,-4.129652596,69.69836754,10.58346987,21.15800771,-28.55802203,-23.19900756,-111.7007574,-108.7705363,-103.872586,-85.00658396,-92.54982935,-64.28029541,-124.9037,-94.84724366,,,,
545.7839996,2131,0,0,-0.682642403,49.02295448,32.65641495,15.05723509,4.891466782,-38.39002887,52.46250781,51.34358296,56.30235281,68.0587546,80.57574005,100.1843579,-158.5603566,78.76991945,,,,
545.7919996,2132,0,0,-68.90257499,-11.35264701,-58.52606123,-23.83917397,-88.56115628,-99.74102013,-104.9338029,-112.0961617,-84.77787722,-74.92542804,-88.61339795,-71.62397755,104.5828372,-57.55634904,,,,
545.7999996,2132,0,0,89.17104796,142.731055,98.69893362,130.409697,72.31625525,53.9013454,35.94216281,33.63794058,26.23995149,37.52618821,51.23999349,73.62637456,-292.1294898,49.27547322,,,,
545.8079996,2132,0,0,-56.96318033,-13.62345997,-34.50067461,-48.67906935,-57.43657649,-104.9763735,14.02801101,5.783625263,25.84115329,29.56174533,29.24593218,47.22452774,105.6190697,83.46328617,,,,
545.8159996,2132,0,0,55.98250069,129.3636801,60.58678788,97.08405231,19.73694453,34.67591232,-61.96287971,-57.11397608,-63.75820821,-48.23452396,-58.16856735,-14.79245327,-105.9793894,-22.75843017,,,,
545.8239996,2132,0,0,25.77243065,74.70889083,52.12747836,58.98805682,26.04518133,-11.18359137,95.47688752,98.28930605,90.15959174,96.66293286,110.5041605,135.5889317,-126.6207582,151.3756411,,,,
545.8319996,2132,0,0,-94.04241562,-26.57166347,-78.03584849,-83.22243308,-113.4236208,-131.2493178,-111.121881,-109.2976617,-99.68562211,-94.02898515,-100.4982122,-82.71596777,127.8819869,-25.98116109,,,,
545.8399996,2132,0,0,70.11549309,143.232972,81.3239224,92.17685193,45.47404402,39.24422759,-3.057192189,19.16354389,-16.82581735,-5.72680172,7.880881751,48.15187128,-290.3482479,38.45347988,,,,
545.8479996,2132,0,0,-78.66807047,-22.62768338,-70.35622104,-36.41096426,-93.05781642,-115.3765375,-8.182925341,11.72128734,5.44833187,6.18117739,12.0166636,29.21777402,104.8495645,81.44902711,,,,
545.8559996,2132,0,0,21.35272242,106.8596475,8.883383598,76.91590732,-21.68353504,9.288146684,-102.7523518,-69.70905842,-96.96367414,-86.3443539,-87.55112834,-66.53401007,-128.1768183,-32.80994719,,,,
545.8639996,2132,0,0,41.1732256,107.1596656,48.09901421,67.32174054,36.36632294,7.937395823,66.15414431,109.5226681,74.39444352,78.7432067,87.34952155,114.9950512,-163.7039561,156.3185895,,,,
545.8719996,2132,0,0,-61.9138191,15.67538956,-60.2127636,-24.3427165,-86.3378871,-99.23406553,-87.24684995,-50.35179714,-60.09619157,-56.48506179,-64.98472775,-46.52402909,124.3326222,21.53791454,,,,
545.8799996,2132,0,0,81.36776113,164.1429004,95.84262021,117.2364611,61.83989806,47.24442128,12.61283459,54.09842726,13.45778091,22.56174334,28.03643995,51.7855351,-301.0152331,73.39961206,,,,
545.8879996,2132,0,0,-59.81898266,6.100641656,-52.51502721,-58.502085,-68.44139381,-127.1568172,-4.533750992,29.91102953,22.70778667,20.7257753,1.875023582,25.33922269,88.8292299,99.48811464,,,,
545.8959996,2132,0,0,16.31510339,101.1101322,4.685324302,43.08784437,-21.89500258,-36.54234681,-86.3147152,-49.20124904,-71.92481884,-67.50340278,-88.30203365,-54.29568208,-122.1845312,-25.73386309,,,,
545.9039996,2132,0,0,8.525044138,75.1749525,29.49833454,25.60234217,10.8841381,-29.38438953,54.22135832,98.20490312,66.25756356,65.31435827,68.30075149,87.62654068,-186.664452,124.5202491,,,,
545.9119996,2132,0,0,-80.34845689,-1.152653909,-87.02050304,-65.21994045,-106.9626592,-109.8393771,-120.4175236,-75.82536982,-89.47542709,-88.95837039,-94.32719128,-91.26741405,95.35132503,-16.22956582,,,,
545.9199996,2132,0,0,49.85826423,125.4961907,49.61197699,80.29771773,30.75453032,14.22481621,-12.87302413,32.25140785,-8.853798694,-4.691886716,8.357608604,15.20427022,-317.0960135,42.53309837,,,,
545.9279996,2132,0,0,-95.46319109,-27.28870702,-68.70226415,-70.35008521,-91.01152367,-145.8088238,-30.51690693,9.245751888,1.36764349,-3.890247403,-12.09572185,-9.387036741,55.77158903,64.64845952,,,,
545.9359996,2132,0,0,17.86909551,114.632506,22.34815489,67.37801125,-15.45514586,-21.43200179,-110.7833266,-58.5644621,-90.20704574,-79.94411975,-97.95222903,-71.95051293,-147.5681201,-39.76388655,,,,
545.9439996,2132,0,0,9.840047353,75.85028535,12.19006621,26.60589485,2.350291548,-53.77632583,44.10053165,91.61517562,58.58136875,64.95957917,59.71397331,78.7723154,-186.3234814,123.1953908,,,,
545.9519996,2132,0,0,-86.98936013,-7.143694903,-103.2224761,-80.89910038,-116.9642505,-144.4745848,-115.0135843,-76.3066337,-80.97643496,-77.97112489,-99.1392028,-93.61695792,106.9640757,-21.54811832,,,,
545.9599996,2132,0,0,63.25127357,152.4098936,73.00837164,88.75701138,45.96985411,34.1725495,-19.60494745,33.61488646,-6.992907378,7.410914573,-4.405024499,31.04312197,-320.0782328,41.72389679,,,,
545.9679996,2132,0,0,-70.86403297,1.299018242,-47.3438536,-57.85350372,-72.26456562,-109.0029993,-27.38172938,18.11002989,11.48098953,17.31847349,-11.27091889,18.77450061,69.34502414,88.36511342,,,,
545.9759996,2132,0,0,32.11830344,127.3256433,32.15266503,70.84453429,-1.090119268,1.210219696,-81.14468216,-36.99235071,-56.96596827,-45.91273644,-68.47943136,-44.90811315,-103.4518999,-10.72470304,,,,
545.9839996,2132,0,0,19.64247603,91.13832634,31.8640076,43.41402507,28.30821945,-18.96138783,50.93489798,94.864913,70.85609256,78.03456143,74.41950505,96.9015767,-168.1217505,124.1210822,,,,
545.9919996,2132,0,0,-59.49959068,22.04646717,-56.9304643,-20.82060088,-71.62854658,-96.12951008,-96.65967185,-59.46556661,-59.28068255,-57.15396905,-80.60491271,-64.4055404,136.4004022,-3.780968906,,,,
545.9999996,2132,0,0,74.20928549,159.7671071,98.45129042,136.9917286,67.32850989,40.97667405,21.83388372,69.23019288,32.97566551,42.87182388,31.82873893,54.29846345,-267.4337753,69.67140387,,,,
546.0079996,2132,0,0,-98.15340566,-31.04968447,-83.52092734,-88.03022922,-85.20831557,-147.6234968,-28.39476985,14.16403529,7.629357325,12.48990427,-0.783786065,6.379700501,85.69650081,68.48073757,,,,
546.0159996,2132,0,0,6.651333767,95.44453309,5.14681638,27.81265615,-11.08637052,-24.73742038,-103.6631993,-58.95810126,-85.65994044,-74.41765138,-83.27416887,-62.46019129,-109.2047119,-41.60753993,,,,
