Time:125Hz,Epoch,FP1,FP2,C3,C4,P7,P8,O1,O2,F7,F8,F3,F4,T7,T8,P3,P4,Event Id,,,
527.0879996,2058,0,160.5968407,0,-719.5246366,48.40775601,50.74420756,0,119.4171617,0,-175.7933035,315.5779438,0,57.64400593,49.41722046,0,0,1111,,,
527.0959996,2058,0,33.23185037,0,-723.54043,40.46765803,-15.55486369,0,76.47309979,0,-70.58075411,-189.756376,0,-100.7956273,-21.43505231,0,0,,,,
527.1039996,2059,0,396.1757683,0,-626.1926045,-49.31895701,-62.36113636,0,11.34040742,0,-165.3360651,400.3380127,0,111.59134,44.77219021,0,0,,,,
527.1119996,2059,0,-68.67749022,0,-807.7705777,135.2901143,104.5283283,0,184.8560549,0,-102.635552,-37.39235537,0,-70.41619296,1.003708145,0,0,,,,
527.1199996,2059,0,328.1706836,0,-625.4145432,-38.71649392,-99.33737459,0,-10.84913158,0,-92.12057172,94.78761414,0,18.84677237,3.893980039,0,0,,,,
527.1279996,2059,0,198.5979648,0,-716.2888848,70.13702817,53.46740966,0,121.4123099,0,-175.0644509,322.76694,0,69.1426899,41.91481401,0,0,,,,
527.1359996,2059,0,57.27950369,0,-732.3835032,66.42704547,-13.75381327,0,73.70820183,0,-86.43707912,-189.8447167,0,-88.79027141,-28.80954174,0,0,,,,
527.1439996,2059,0,413.1985676,0,-639.7274841,-29.02736217,-62.51056863,0,9.590960669,0,-179.450199,387.4574633,0,119.1584518,33.00867838,0,0,,,,
527.1519996,2059,0,-38.52330922,0,-803.1440862,124.708815,75.00637801,0,155.7409294,0,-123.4326236,-51.44634108,0,-62.64930734,-8.075394897,0,0,,,,
527.1599996,2059,0,330.2718389,0,-649.2786178,-40.74472012,-120.8171683,0,-24.41547936,0,-137.9307157,85.34259867,0,25.74389275,-1.132753235,0,0,,,,
527.1679996,2059,0,166.9482826,0,-778.5996665,90.16702473,56.88828147,0,134.6923872,0,-214.757269,300.2621086,0,65.63720867,27.48986965,0,0,,,,
527.1759996,2059,0,53.74219151,0,-774.9744292,71.0035311,-25.10603012,0,65.80204,0,-110.8683465,-208.6161681,0,-92.80625276,-42.02776904,0,0,,,,
527.1839996,2059,0,436.4798207,0,-665.3421464,-24.52434757,-73.98521278,0,-1.442985096,0,-213.8562356,405.4842582,0,127.8778165,35.54560218,0,0,,,,
527.1919996,2059,0,-38.50576176,0,-852.5418986,153.9264381,91.80916385,0,169.1710699,0,-157.6482223,-22.76200108,0,-56.11861282,-9.762607235,0,0,,,,
527.1999996,2059,0,341.0315021,0,-684.9572829,-34.13259307,-121.3162721,0,-33.99989107,0,-159.7070138,105.5170751,0,24.1859039,-7.301339863,0,0,,,,
527.2079996,2059,0,204.4088822,0,-787.9525324,78.30622738,47.82407731,0,111.5793335,0,-253.1514559,334.7683533,0,70.67746349,34.40638079,0,0,,,,
527.2159996,2059,0,75.23884884,0,-802.2677413,76.68919485,-6.085080653,0,72.13236612,0,-159.0370539,-179.4690494,0,-88.50868591,-36.52116689,0,0,,,,
527.2239996,2059,0,470.8921218,0,-683.0945949,-38.77448517,-75.23743085,0,-9.618012443,0,-264.8315844,416.7473071,0,129.3395356,45.40822334,0,0,,,,
527.2319996,2059,0,5.72638063,0,-861.8188533,135.15858,77.6328537,0,149.7081759,0,-242.9070327,-11.25393705,0,-47.51512902,11.45378218,0,0,,,,
527.2399996,2059,0,363.7591762,0,-718.9840793,-20.03685689,-109.1141388,0,-28.22520657,0,-260.9011846,111.696388,0,30.61297185,4.174109516,0,0,,,,
527.2479996,2059,0,232.2203732,0,-820.012796,92.37532014,57.11242169,0,114.2137347,0,-347.6884268,344.3768272,0,73.17861552,43.25418524,0,0,,,,
527.2559996,2059,0,83.44955458,0,-848.7732206,90.62359954,2.356705084,0,75.39413694,0,-267.252295,-162.4215628,0,-86.03752161,-24.98646358,0,0,,,,
527.2639996,2059,0,436.4559464,0,-762.3955216,-11.77305326,-47.08084277,0,10.29329412,0,-371.1118908,411.7707447,0,122.618339,36.20018509,0,0,,,,
527.2719996,2059,0,-21.38240541,0,-929.0302764,153.8657977,115.6321029,0,170.1340993,0,-327.9621899,-23.28451731,0,-55.62835405,-7.265611456,0,0,,,,
527.2799996,2059,0,343.9413326,0,-778.1610688,1.73560925,-61.46248308,0,2.781548342,0,-331.5707613,110.8274001,0,29.67808141,-10.83806975,0,0,,,,
527.2879996,2059,0,195.130236,0,-892.3278433,119.488367,100.636203,0,154.2317493,0,-386.2057412,323.3981505,0,69.43100452,14.75017524,0,0,,,,
527.2959996,2059,0,52.05922988,0,-908.7661394,102.5008397,32.00833901,0,99.47059622,0,-297.9159458,-188.7348124,0,-90.31807636,-50.86208598,0,0,,,,
527.3039996,2059,0,416.9448289,0,-801.7785317,-6.855113885,-28.44628931,0,18.5954081,0,-423.2877401,403.4642275,0,119.2043315,24.66080424,0,0,,,,
527.3119996,2059,0,-37.25907847,0,-960.5194164,149.145003,107.2157939,0,164.6311809,0,-367.72865,-35.28992602,0,-62.16429014,-17.94628232,0,0,,,,
527.3199996,2059,0,328.3759543,0,-808.4809996,-17.8087646,-86.67730023,0,-16.64208421,0,-366.4847175,100.4473305,0,26.44483019,-13.40575589,0,0,,,,
527.3279996,2059,0,193.0313515,0,-905.246589,87.66478878,69.26849098,0,123.1982486,0,-426.0122465,329.0358641,0,70.47010683,23.32126382,0,0,,,,
527.3359996,2059,0,76.99477555,0,-902.2585977,66.76313879,-6.69422369,0,64.92662579,0,-301.6906761,-173.6711808,0,-88.49432805,-40.69961519,0,0,,,,
527.3439996,2059,0,443.2475864,0,-809.7528506,-20.5525684,-48.01415938,0,2.85111702,0,-385.2566388,427.7379628,0,120.5468962,32.87741317,0,0,,,,
527.3519996,2059,0,-19.58698015,0,-980.0496233,148.4451706,102.8791098,0,160.815065,0,-297.8552686,-10.16409439,0,-65.72549338,-13.31526164,0,0,,,,
527.3599996,2060,0,339.0924968,0,-835.56348,-16.76590277,-85.92049922,0,-15.33575453,0,-266.4857643,113.7254429,0,17.03387408,-11.81505554,0,0,,,,
527.3679996,2060,0,197.7075136,0,-941.4114737,93.2882895,77.25413037,0,126.4378682,0,-314.4774476,340.3947749,0,62.82778062,25.99028199,0,0,,,,
527.3759996,2060,0,83.76643286,0,-931.5588805,64.57067835,-7.484760259,0,59.95498061,0,-194.4080245,-160.9301484,0,-88.63086217,-35.66623484,0,0,,,,
527.3839996,2060,0,436.3420484,0,-852.3880249,-18.38788402,-43.8517619,0,11.60379961,0,-285.9246894,425.3995907,0,124.377427,32.53875154,0,0,,,,
527.3919996,2060,0,-21.72880073,0,-1017.354051,142.5529061,94.78497411,0,152.6209258,0,-211.3165498,-17.81546601,0,-56.8059872,-20.5668456,0,0,,,,
527.3999996,2060,0,370.5980032,0,-832.5379793,-55.41442475,-132.0997562,0,-68.5816208,0,-219.5676035,129.3709117,0,34.17527889,-12.16898533,0,0,,,,
527.4079996,2060,0,222.3197792,0,-944.5021234,67.95480674,44.45201598,0,94.16680381,0,-306.7713225,363.987802,0,73.1095471,26.91159535,0,0,,,,
527.4159996,2060,0,89.15413575,0,-944.2194796,66.51518026,-16.02864172,0,52.95247142,0,-175.1982916,-154.9689787,0,-93.0062547,-49.41626701,0,0,,,,
527.4239996,2060,0,464.0737718,0,-821.4586458,-36.76187826,-71.10048614,0,-20.88772843,0,-254.8108355,433.4022963,0,117.0533889,20.55284023,0,0,,,,
527.4319996,2060,0,17.0481013,0,-967.1957409,118.2010087,68.39722742,0,127.1506105,0,-200.7028626,3.221601023,0,-66.33651208,-19.35149446,0,0,,,,
527.4399996,2060,0,391.2719185,0,-799.9601628,-45.74185229,-119.1012615,0,-52.00361378,0,-193.9746986,152.9748451,0,21.64060908,-14.70074915,0,0,,,,
527.4479996,2060,0,235.9569524,0,-917.0607943,90.12846575,68.93747506,0,118.0072811,0,-244.832115,398.6268077,0,67.10231021,24.76776815,0,0,,,,
527.4559996,2060,0,113.1037848,0,-912.5384515,64.52495793,-21.58989289,0,51.33217818,0,-124.1293653,-112.3632027,0,-96.65654871,-42.46629267,0,0,,,,
527.4639996,2060,0,477.5497936,0,-813.2923767,-33.58245123,-73.73728008,0,-19.245087,0,-222.5426401,470.0984658,0,107.5589578,22.52362577,0,0,,,,
527.4719996,2060,0,11.43334252,0,-988.2860595,147.9038015,92.78801198,0,153.674849,0,-159.5366374,38.29619998,0,-74.90339151,-18.70175661,0,0,,,,
527.4799996,2060,0,406.1431777,0,-799.4407742,-35.34800691,-120.1233077,0,-42.2277572,0,-151.3874655,176.2708772,0,14.56271101,-11.14541431,0,0,,,,
527.4879996,2060,0,263.2963819,0,-902.7270531,83.91400146,45.87719429,0,105.5332026,0,-222.8555779,400.0632913,0,54.1740018,19.32410338,0,0,,,,
527.4959996,2060,0,126.2713091,0,-921.1063909,75.91968357,-21.72048057,0,52.63339283,0,-116.6674008,-114.6387618,0,-111.210179,-53.41223168,0,0,,,,
527.5039996,2060,0,484.6681016,0,-835.1860441,-10.17268657,-58.4574508,0,2.247397433,0,-203.2956811,464.9766362,0,95.97120425,8.434020969,0,0,,,,
527.5119996,2060,0,14.21120491,0,-1011.341005,161.0632355,101.3973728,0,168.2385455,0,-126.7141228,24.00979152,0,-83.45519543,-34.20250385,0,0,,,,
527.5199996,2060,0,394.9107767,0,-834.1901783,-37.22728153,-109.7334186,0,-43.74180133,0,-124.2878276,160.0668549,0,10.44257005,-18.23435075,0,0,,,,
527.5279996,2060,0,240.6128956,0,-949.4477786,75.34606602,68.7058838,0,106.0248216,0,-193.1311836,373.8138493,0,49.63816521,16.26745852,0,0,,,,
527.5359996,2060,0,114.1180669,0,-951.8431282,59.39574516,-7.645363641,0,46.3385086,0,-73.14920436,-137.4612013,0,-111.4696928,-47.91312936,0,0,,,,
527.5439996,2060,0,480.2950601,0,-856.2590692,-27.11175528,-59.08923332,0,-15.91214207,0,-165.8847468,458.9729346,0,102.4286286,23.2562602,0,0,,,,
527.5519996,2060,0,0.25982507,0,-1043.580303,145.1324321,84.80999522,0,150.1347568,0,-100.1344925,8.819497908,0,-85.44831115,-29.87813527,0,0,,,,
527.5599996,2060,0,385.5216944,0,-861.4733177,-54.39558483,-147.9551869,0,-61.15684262,0,-97.58521106,140.6986706,0,3.301697459,-16.90322833,0,0,,,,
527.5679996,2060,0,235.6945206,0,-968.9570612,67.51152363,30.89338017,0,91.8731333,0,-172.8999685,370.4103815,0,45.32590119,18.46624654,0,0,,,,
527.5759996,2060,0,84.02618608,0,-985.9911169,61.83568195,-31.79722921,0,44.74081062,0,-58.05408676,-143.1992501,0,-121.7130914,-60.91502967,0,0,,,,
527.5839996,2060,0,443.3430533,0,-885.8329809,-36.3117705,-88.33048525,0,-25.80510379,0,-140.8797912,441.4370734,0,89.69814107,9.042485873,0,0,,,,
527.5919996,2060,0,-32.924755,0,-1070.167646,138.6061637,74.80457383,0,135.3870449,0,-71.33981135,-5.542599777,0,-94.29633765,-40.25293138,0,0,,,,
527.5999996,2060,0,325.0421782,0,-922.407352,-32.43199782,-115.415803,0,-47.49882738,0,-63.36737256,126.3519128,0,-9.231644091,-38.8759597,0,0,,,,
527.6079996,2060,0,176.448358,0,-1033.19594,77.73116765,42.66959587,0,96.83491961,0,-124.0649557,346.3795555,0,30.95332413,-2.75947427,0,0,,,,
527.6159996,2061,0,53.19825283,0,-1025.79844,45.33401304,-53.21217036,0,23.88302783,0,-21.70197125,-165.6146491,0,-128.731569,-67.52362103,0,0,,,,
527.6239996,2061,0,407.0836447,0,-926.9364376,-42.51334701,-89.11011836,0,-23.87430598,0,-123.6226587,430.5265969,0,87.61712651,11.40902851,0,0,,,,
527.6319996,2061,0,-70.3795161,0,-1108.839185,146.7200503,86.91417069,0,156.4847566,0,-40.69559644,-13.58181747,0,-97.37775294,-36.34255958,0,0,,,,
527.6399996,2061,0,335.4019081,0,-909.0365033,-47.88454447,-135.490619,0,-57.9538838,0,-26.1505736,123.7993199,0,-5.537175943,-26.8630109,0,0,,,,
527.6479996,2061,0,219.4880037,0,-974.7563433,46.35677424,11.66484219,0,72.93195321,0,-110.6292476,362.7714366,0,48.4514948,26.66737001,0,0,,,,
527.6559996,2061,0,80.52875204,0,-987.6380836,44.42963965,-47.16038314,0,32.39500981,0,-7.65140651,-145.7010473,0,-116.0073634,-42.27594785,0,0,,,,
527.6639996,2061,0,427.1276599,0,-911.4751528,-30.15457197,-73.12110608,0,-10.62395119,0,-85.62085658,442.3142757,0,90.21496029,17.9592004,0,0,,,,
527.6719996,2061,0,-45.04318982,0,-1086.333592,131.1604876,71.83623216,0,143.2319737,0,-6.368844302,-0.009697086,0,-91.56944381,-31.39488991,0,0,,,,
527.6799996,2061,0,329.5760876,0,-917.4543055,-59.61281837,-142.5211176,0,-60.29610487,0,-3.082474314,128.1328521,0,-10.26244124,-28.25296084,0,0,,,,
527.6879996,2061,0,164.1689578,0,-1044.377977,79.76291386,52.55211209,0,115.2468202,0,-64.89426691,344.4459914,0,30.32796858,3.65478822,0,0,,,,
527.6959996,2061,0,35.34043367,0,-1037.675052,53.35502378,-31.78951386,0,51.27774519,0,68.59175354,-168.7534122,0,-121.0713018,-62.03997283,0,0,,,,
527.7039996,2061,0,409.8370817,0,-914.5982247,-66.65350174,-102.8132517,0,-38.27599199,0,-28.38738709,428.6721566,0,97.8372019,21.98303566,0,0,,,,
527.7119996,2061,0,-82.16081616,0,-1112.920939,133.6323416,79.2584416,0,151.0876762,0,32.5458557,-18.89690333,0,-88.86810905,-24.03464466,0,0,,,,
527.7199996,2061,0,290.9851029,0,-949.1017493,-45.65623173,-122.6390465,0,-37.24235714,0,52.62661533,105.4097285,0,-7.100317584,-20.45810562,0,0,,,,
527.7279996,2061,0,141.2902164,0,-1059.46856,67.23413778,50.21879135,0,112.9803113,0,-17.18811733,326.805591,0,34.01078495,19.54868862,0,0,,,,
527.7359996,2061,0,7.58585215,0,-1063.365797,50.13920652,-32.9987387,0,55.73221281,0,98.83792827,-189.6200335,0,-128.7616129,-52.0630698,0,0,,,,
527.7439996,2061,0,398.1453795,0,-922.5177304,-83.05319008,-125.8706113,0,-40.40181543,0,-22.49233832,419.2822087,0,86.03347204,30.61959969,0,0,,,,
527.7519996,2061,0,-64.63344835,0,-1095.241068,96.73559753,36.48676282,0,132.883663,0,11.04041344,-6.492631434,0,-97.33607644,-11.56604208,0,0,,,,
527.7599996,2061,0,320.2672559,0,-931.7599432,-71.26381159,-165.9533795,0,-58.27872196,0,39.22007102,125.0134034,0,-14.53243875,-15.23065442,0,0,,,,
527.7679996,2061,0,175.8793367,0,-1038.679829,51.2711857,3.965473082,0,88.2859726,0,-25.60896939,354.964824,0,30.82077678,21.23012269,0,0,,,,
527.7759996,2061,0,41.42283889,0,-1043.96085,60.42525992,-43.61136046,0,58.06985702,0,98.98738307,-151.2941585,0,-124.6040624,-52.59227317,0,0,,,,
527.7839996,2061,0,421.0978876,0,-917.5551022,-37.32951089,-89.66235494,0,-5.661539016,0,22.61738726,459.7887867,0,97.35888978,26.68717019,0,0,,,,
527.7919996,2061,0,-62.82270603,0,-1106.992844,145.9559146,76.20184089,0,160.1088413,0,90.43181605,28.41164834,0,-82.29592649,-14.72662088,0,0,,,,
527.7999996,2061,0,307.731835,0,-948.9687185,-29.82581528,-129.0008934,0,-39.26869638,0,119.4311162,152.413493,0,2.093556364,-15.89581099,0,0,,,,
527.8079996,2061,0,168.905358,0,-1043.123286,75.44244621,36.2109457,0,102.3184305,0,42.34971572,385.949816,0,48.67123292,30.38824261,0,0,,,,
527.8159996,2061,0,11.15142619,0,-1071.694929,77.46447928,-15.34097844,0,67.89921865,0,151.8956823,-133.9209463,0,-117.7851648,-45.26207211,0,0,,,,
527.8239996,2061,0,366.8214953,0,-974.527375,-21.62073959,-66.48501519,0,1.090950256,0,70.97757682,439.6902618,0,86.95347809,16.71821259,0,0,,,,
527.8319996,2061,0,-74.4719727,0,-1119.959699,115.1581483,61.32863903,0,133.9868009,0,116.9300504,11.08438769,0,-90.02263407,-13.15418068,0,0,,,,
527.8399996,2061,0,315.9580505,0,-947.3258098,-69.5812121,-146.1930211,0,-61.52595795,0,118.184267,150.2846888,0,3.824629569,0.588218479,0,0,,,,
527.8479996,2061,0,165.692588,0,-1059.637936,64.08295018,31.05368303,0,104.1940874,0,58.4221397,363.8417663,0,50.93520878,31.35251048,0,0,,,,
527.8559996,2061,0,41.81329549,0,-1042.956179,32.0099748,-62.86129849,0,30.33352352,0,163.1317905,-143.482123,0,-103.3719244,-37.00867414,0,0,,,,
527.8639996,2061,0,384.6994482,0,-952.8179695,-60.05242311,-103.9920454,0,-33.56838999,0,63.92837923,443.9822392,0,109.8817013,29.35232298,0,0,,,,
527.8719996,2062,0,-118.3611508,0,-1159.239545,135.2863498,73.09856084,0,149.4978899,0,144.802354,-20.34293494,0,-79.05889755,-36.67753878,0,0,,,,
527.8799996,2062,0,261.344277,0,-986.2233864,-61.93171106,-143.3009467,0,-61.16559411,0,164.1403191,105.2291772,0,7.568699574,-39.5608789,0,0,,,,
527.8879996,2062,0,104.3068167,0,-1105.805845,69.56880298,45.1089419,0,99.00288892,0,93.63888587,326.7733353,0,54.57304523,-2.373574599,0,0,,,,
527.8959996,2062,0,-41.35674885,0,-1122.475363,71.03049805,-16.65346912,0,55.83664847,0,218.1425734,-192.0463203,0,-104.1581836,-73.19054802,0,0,,,,
527.9039996,2062,0,318.0264323,0,-1017.565895,-45.40914862,-80.72708572,0,-25.08793129,0,129.7298406,395.8843787,0,107.8276506,0.978555126,0,0,,,,
527.9119996,2062,0,-159.8753774,0,-1203.728915,130.7097494,84.81458106,0,144.2217081,0,187.7674032,-47.89241188,0,-76.12453798,-44.00327178,0,0,,,,
527.9199996,2062,0,226.9926932,0,-1035.42895,-49.89329251,-120.3736941,0,-49.9186663,0,202.6335745,82.50010553,0,12.33307248,-41.10652427,0,0,,,,
527.9279996,2062,0,71.90245016,0,-1153.151724,76.57077362,54.99156314,0,107.806489,0,136.0437481,300.2319857,0,56.72201474,-10.45614571,0,0,,,,
527.9359996,2062,0,-79.79371424,0,-1175.249653,78.25105877,-1.393299371,0,66.84657174,0,264.2773534,-214.832114,0,-103.7309565,-84.17174784,0,0,,,,
527.9439996,2062,0,301.6745612,0,-1050.876468,-49.53819712,-71.81850607,0,-28.49714862,0,181.1232393,388.7320544,0,111.5505058,-2.897277399,0,0,,,,
527.9519996,2062,0,-154.55264,0,-1205.793713,119.6323548,79.8543448,0,124.6120025,0,216.5106466,-28.14761631,0,-65.47272099,-34.99167227,0,0,,,,
527.9599996,2062,0,214.0501145,0,-1036.195154,-37.40196726,-105.8700624,0,-51.50090027,0,227.0986902,111.1093569,0,20.21339118,-31.42846122,0,0,,,,
527.9679996,2062,0,83.29663316,0,-1116.89408,53.47965145,38.59321045,0,78.58651703,0,172.7479978,331.2832948,0,57.64383006,-0.038800151,0,0,,,,
527.9759996,2062,0,-18.71920897,0,-1094.958597,27.9202908,-50.52925272,0,12.62528878,0,254.730435,-151.0426774,0,-95.49859299,-57.5742292,0,0,,,,
527.9839996,2062,0,360.7386196,0,-980.6337669,-59.04642803,-87.44873226,0,-44.08526189,0,140.7718778,472.2117822,0,123.4638129,23.61450949,0,0,,,,
527.9919996,2062,0,-100.4189869,0,-1143.002387,100.6594895,61.0902251,0,109.456644,0,214.748501,34.24636444,0,-67.5147388,-30.58139612,0,0,,,,
527.9999996,2062,0,290.8399873,0,-961.0226157,-83.00295547,-149.533721,0,-91.4871956,0,225.6917031,184.2863629,0,16.82801979,-20.89943991,0,0,,,,
528.0079996,2062,0,158.8827704,0,-1052.214303,41.43395802,27.32394091,0,64.06383391,0,154.368496,432.6655248,0,62.93961555,26.32069836,0,0,,,,
528.0159996,2062,0,39.6939306,0,-1041.897507,32.62475058,-35.76770662,0,21.7196971,0,272.4677862,-73.74292917,0,-99.70930484,-47.58037694,0,0,,,,
528.0239996,2062,0,431.2585529,0,-906.6937865,-71.31948477,-90.53267024,0,-50.05033316,0,172.4470599,531.0974792,0,117.3799613,35.47685439,0,0,,,,
528.0319996,2062,0,-15.16490387,0,-1060.714009,91.97143727,43.82206321,0,93.69224778,0,222.3440638,104.2283013,0,-59.77992316,3.594026232,0,0,,,,
528.0399996,2062,0,405.0321014,0,-869.0510827,-96.45884592,-182.9922142,0,-109.3563846,0,230.5671102,247.0949521,0,25.68300701,7.673865219,0,0,,,,
528.0479996,2062,0,354.7256825,0,-892.9321782,-4.795488371,-39.85752915,0,15.38584456,0,140.3164977,549.3891976,0,84.04532037,82.55154823,0,0,,,,
528.0559996,2062,0,284.3882214,0,-833.2583016,-9.756628011,-104.0062621,0,-37.03113412,0,223.9339843,155.9536687,0,-52.27159562,68.33714936,0,0,,,,
528.0639996,2062,0,642.2124493,0,-721.0454682,-72.07887892,-118.5211173,0,-66.05790489,0,153.7231389,758.9361266,0,162.0759986,133.9353339,0,0,,,,
528.0719996,2062,0,145.920573,0,-916.5180432,112.5138781,51.73757393,0,110.7123762,0,242.0353568,259.5263866,0,-29.64984957,57.403513,0,0,,,,
528.0799996,2062,0,490.9940271,0,-788.7098134,-50.5196612,-132.5237663,0,-63.30253089,0,255.5666748,347.3909676,0,46.32181079,42.74258737,0,0,,,,
528.0879996,2062,0,326.8417928,0,-904.0549823,66.13924143,41.16531277,0,92.62453723,0,203.8174124,519.4578971,0,78.69828681,54.16979566,0,0,,,,
528.0959996,2062,0,190.2740109,0,-893.7507882,22.72412175,-61.37275715,0,10.90867028,0,312.4916768,-19.15763235,0,-83.29802622,-27.22286951,0,0,,,,
528.1039996,2062,0,541.0527213,0,-788.2410492,-85.56986143,-120.4006984,0,-62.68857105,0,195.5769002,553.6571197,0,126.4352782,38.04269819,0,0,,,,
528.1119996,2062,0,54.22369247,0,-972.5576336,104.9450591,52.00158716,0,111.6019126,0,246.2451326,84.32970231,0,-58.7611763,-18.98097117,0,0,,,,
528.1199996,2062,0,417.3125714,0,-814.9095774,-55.34464957,-135.5647891,0,-64.5942079,0,268.3611886,193.4171817,0,24.35783139,-27.94969788,0,0,,,,
528.1279996,2063,0,256.2104878,0,-923.6832278,56.57135423,32.83252174,0,89.68195717,0,208.5154255,392.6093027,0,61.70397905,-4.569816263,0,0,,,,
528.1359996,2063,0,110.1285837,0,-930.185669,38.70332321,-42.48132418,0,26.163537,0,303.5755951,-126.3116235,0,-96.36366708,-75.80906071,0,0,,,,
528.1439996,2063,0,459.8093023,0,-830.513062,-53.76484954,-83.92153789,0,-33.41520811,0,211.7587207,453.2540809,0,115.9649824,-9.608861667,0,0,,,,
528.1519996,2063,0,-16.80021543,0,-1001.998024,107.9252795,62.73023522,0,119.5084973,0,267.2731383,4.969159862,0,-66.55485553,-56.75262289,0,0,,,,
528.1599996,2063,0,336.5431699,0,-856.3004434,-55.77910862,-122.2015742,0,-68.87931307,0,260.1584504,140.0835689,0,17.88583116,-53.34083032,0,0,,,,
528.1679996,2063,0,144.0313754,0,-1008.455123,94.52103685,89.26224524,0,115.5222469,0,218.8743275,346.8840738,0,47.78330495,-29.74552279,0,0,,,,
528.1759996,2063,0,-1.018651493,0,-1022.423045,74.60641595,0.436004853,0,47.0749902,0,356.1004953,-179.089628,0,-116.5245668,-102.6777131,0,0,,,,
528.1839996,2063,0,363.5166517,0,-911.2388425,-42.2613288,-81.96963728,0,-45.12404691,0,247.9723265,410.6892328,0,101.7532238,-25.38794899,0,0,,,,
528.1919996,2063,0,-119.263786,0,-1092.307599,123.0750167,72.03793157,0,116.2941147,0,271.7476653,-24.84763375,0,-77.85378622,-65.81392847,0,0,,,,
528.1999996,2063,0,256.2092437,0,-926.4601841,-63.07221275,-131.3765283,0,-81.20263937,0,270.2401516,104.8959754,0,8.313376883,-65.75807688,0,0,,,,
528.2079996,2063,0,107.694101,0,-1030.459506,43.02684821,30.74540028,0,62.90753016,0,208.9616786,322.4368728,0,52.20808234,-31.16177599,0,0,,,,
528.2159996,2063,0,-52.72842847,0,-1057.910719,41.18963079,-32.47914655,0,18.09889595,0,308.4013222,-197.8219451,0,-111.7961348,-104.0267097,0,0,,,,
528.2239996,2063,0,291.8501023,0,-971.2768538,-52.96665461,-86.0430391,0,-47.7936379,0,216.4457617,374.0982207,0,92.36328798,-46.94195651,0,0,,,,
528.2319996,2063,0,-179.6752465,0,-1144.281926,111.0369306,61.03505844,0,104.5800267,0,266.1165209,-68.85067594,0,-86.66073218,-91.52290662,0,0,,,,
528.2399996,2063,0,173.0907696,0,-1000.343897,-44.46946772,-118.9949386,0,-75.27583443,0,266.1782173,60.02923547,0,-0.143180115,-86.62952176,0,0,,,,
528.2479996,2063,0,18.15471442,0,-1105.384798,65.72002843,35.44974471,0,60.90731949,0,208.3446542,273.2397629,0,37.01807413,-53.18331634,0,0,,,,
528.2559996,2063,0,-120.9664319,0,-1108.509035,41.86802578,-56.78313769,0,-7.156907675,0,298.1154399,-243.1564129,0,-122.9317701,-121.1534423,0,0,,,,
528.2639996,2063,0,223.406992,0,-1019.825437,-49.32768465,-103.2068091,0,-66.33046878,0,186.1005579,342.9537112,0,89.85837207,-47.42108645,0,0,,,,
528.2719996,2063,0,-250.4709716,0,-1194.811453,124.4670426,55.26834997,0,99.56476425,0,248.7227673,-96.254352,0,-93.44103698,-88.96351144,0,0,,,,
528.2799996,2063,0,117.8721986,0,-1043.833563,-41.62658244,-134.2094708,0,-83.97953,0,269.8600584,36.34543166,0,-14.60024854,-88.1089663,0,0,,,,
528.2879996,2063,0,-6.639497086,0,-1123.50793,45.98947293,6.855635601,0,34.17541089,0,193.9355509,280.049147,0,30.11693174,-35.42554369,0,0,,,,
528.2959996,2063,0,-116.2400563,0,-1105.186063,19.25903954,-78.13991358,0,-34.53814651,0,269.8949882,-209.7107352,0,-122.1738975,-92.86951267,0,0,,,,
528.3039996,2063,0,243.6093104,0,-1016.530588,-67.33517672,-109.5702691,0,-84.73312218,0,171.2623811,381.9131662,0,85.2583489,-28.45622485,0,0,,,,
528.3119996,2063,0,-220.2047226,0,-1179.089828,90.53192934,40.41193443,0,67.09050889,0,240.7902302,-53.98456509,0,-100.3012257,-70.99342267,0,0,,,,
528.3199996,2063,0,161.7498054,0,-1007.640136,-89.10718468,-160.2256368,0,-129.8460703,0,253.0534678,84.75138282,0,-11.30278777,-67.45077814,0,0,,,,
528.3279996,2063,0,21.7159473,0,-1110.742821,28.55420994,14.69343041,0,24.56013295,0,181.2223374,322.7299346,0,36.58962368,-23.73751896,0,0,,,,
528.3359996,2063,0,-125.5614721,0,-1129.606888,32.15485508,-44.38892778,0,-12.25095332,0,289.113777,-185.197578,0,-124.8144172,-92.86338721,0,0,,,,
528.3439996,2063,0,225.8010135,0,-1039.768845,-60.89055509,-92.45665833,0,-71.82393748,0,207.788072,401.2677096,0,82.36883728,-28.30441985,0,0,,,,
528.3519996,2063,0,-222.6134249,0,-1189.053163,89.37331097,46.76323925,0,80.64518219,0,264.7833042,-21.85083271,0,-96.86799764,-63.44867888,0,0,,,,
528.3599996,2063,0,168.6639825,0,-1017.403177,-90.77996391,-158.6913019,0,-107.1848359,0,268.063207,122.0195326,0,-12.47562875,-55.35483081,0,0,,,,
528.3679996,2063,0,37.63965913,0,-1110.707197,11.29452809,-4.956492442,0,30.50559679,0,191.529903,350.9279017,0,29.68174235,-13.70929037,0,0,,,,
528.3759996,2063,0,-98.79292823,0,-1121.054964,3.353789911,-69.39057687,0,-18.57171758,0,283.1197929,-155.3781962,0,-127.7026005,-82.5555857,0,0,,,,
528.3839996,2064,0,239.4349066,0,-1063.548922,-58.38842431,-82.24854734,0,-44.71406443,0,207.8810015,423.8277991,0,75.17605161,-21.89200126,0,0,,,,
528.3919996,2064,0,-231.9010159,0,-1243.13129,121.4352646,71.83687222,0,125.5658347,0,287.6260321,-23.15779343,0,-108.2097321,-66.32546487,0,0,,,,
528.3999996,2064,0,142.8987588,0,-1080.269805,-59.69093395,-147.9055323,0,-80.81897311,0,287.0494635,114.4559748,0,-15.30130619,-59.18125988,0,0,,,,
528.4079996,2064,0,-8.896150859,0,-1197.275155,52.93116526,14.61172555,0,61.56952153,0,206.9675517,341.4988028,0,27.87549178,-20.13700824,0,0,,,,
528.4159996,2064,0,-144.6938635,0,-1206.384068,40.0836563,-58.48935773,0,4.622844456,0,306.5927621,-169.8999456,0,-131.5255334,-91.54177675,0,0,,,,
528.4239996,2064,0,218.5138921,0,-1111.042311,-67.0942142,-118.1344335,0,-71.62042184,0,208.2881061,419.1695237,0,79.99493898,-24.06831222,0,0,,,,
528.4319996,2064,0,-250.7503164,0,-1290.093067,94.32107857,30.36728789,0,84.77545924,0,256.703577,-17.11715006,0,-98.3013146,-68.341533,0,0,,,,
528.4399996,2064,0,114.5701057,0,-1149.231437,-77.08334101,-165.7323345,0,-101.6676659,0,266.3841146,115.1956484,0,-10.45620265,-73.48192644,0,0,,,,
528.4479996,2064,0,-29.30932083,0,-1262.346794,29.92809437,-4.350637036,0,36.43247191,0,197.9855948,333.8632814,0,31.60561556,-40.23909998,0,0,,,,
528.4559996,2064,0,-171.7140536,0,-1280.429557,31.82787638,-64.01990563,0,-8.741595641,0,296.3533454,-182.3250547,0,-125.5247228,-110.1665795,0,0,,,,
528.4639996,2064,0,180.2169368,0,-1197.556321,-52.73574557,-112.1485787,0,-66.90038464,0,210.1679686,404.0498154,0,85.4178322,-44.39021469,0,0,,,,
528.4719996,2064,0,-273.3158819,0,-1357.46805,97.96804496,19.10306297,0,71.06428386,0,257.6844768,-28.67123904,0,-91.26118481,-85.98453901,0,0,,,,
528.4799996,2064,0,104.511233,0,-1198.626351,-76.64348793,-177.171898,0,-120.8773159,0,257.3503864,106.7149789,0,-1.827405105,-82.9626091,0,0,,,,
528.4879996,2064,0,-33.48577321,0,-1297.65762,29.46136833,-23.52090237,0,22.05483202,0,182.3470943,330.0383346,0,39.98902098,-43.34392429,0,0,,,,
528.4959996,2064,0,-159.4919021,0,-1294.266478,19.34484373,-90.62850013,0,-23.90369722,0,271.2181729,-179.6780581,0,-114.6701293,-111.3579276,0,0,,,,
528.5039996,2064,0,192.0237396,0,-1214.718914,-48.02424168,-98.81573251,0,-58.51799051,0,204.9298737,393.6766337,0,94.45785003,-51.15305972,0,0,,,,
528.5119996,2064,0,-263.0890447,0,-1380.428076,106.353323,40.02878931,0,85.17133369,0,275.5291998,-47.74622026,0,-85.73081834,-89.7084231,0,0,,,,
528.5199996,2064,0,129.3138294,0,-1206.779885,-85.6438576,-179.8022167,0,-119.809295,0,265.2865771,104.6602035,0,7.608818188,-73.65516408,0,0,,,,
528.5279996,2064,0,-17.34049805,0,-1314.824668,39.72043572,-1.908620656,0,40.83100904,0,198.0012806,332.5677547,0,46.46877886,-34.70988935,0,0,,,,
528.5359996,2064,0,-149.4754864,0,-1318.29019,34.32239758,-66.68536856,0,-4.693736698,0,304.6686258,-171.2973413,0,-115.0573344,-100.8147483,0,0,,,,
528.5439996,2064,0,224.2943597,0,-1209.238741,-74.92069176,-130.8302873,0,-85.74742155,0,212.5230094,430.7684982,0,96.02611668,-24.22300776,0,0,,,,
528.5519996,2064,0,-226.338608,0,-1364.894587,74.41818454,4.098735111,0,46.78364546,0,249.0302078,1.386191255,0,-87.26653803,-60.56340251,0,0,,,,
528.5599996,2064,0,161.987564,0,-1204.590948,-90.2427593,-175.7890164,0,-133.2137933,0,247.141652,147.7193904,0,-0.183349593,-55.33067769,0,0,,,,
528.5679996,2064,0,37.34523949,0,-1293.713707,13.88517272,-21.12601702,0,2.746826717,0,181.6178379,378.7676539,0,41.61022275,-16.65484324,0,0,,,,
528.5759996,2064,0,-79.6604603,0,-1279.877314,-6.777525761,-97.64224912,0,-56.69597757,0,256.1743627,-114.9821974,0,-114.3365939,-79.09736631,0,0,,,,
528.5839996,2064,0,268.0479975,0,-1214.430921,-63.68929952,-95.31525872,0,-79.81742482,0,179.6090781,480.4886386,0,95.76244737,-13.49430524,0,0,,,,
528.5919996,2064,0,-209.0629498,0,-1396.721048,108.2043678,58.36950954,0,75.80322182,0,266.7165426,25.97165757,0,-92.64820741,-62.07177387,0,0,,,,
528.5999996,2064,0,186.0190759,0,-1198.880635,-89.16234515,-163.8374356,0,-132.5533391,0,258.3778109,167.0546755,0,-1.615237071,-47.7606891,0,0,,,,
528.6079996,2064,0,47.21175761,0,-1292.573585,26.09808793,-1.040711799,0,15.65629027,0,179.2412363,399.3825782,0,42.59464007,-6.294097676,0,0,,,,
528.6159996,2064,0,-96.6501087,0,-1306.303075,12.15095761,-77.86614304,0,-46.15563194,0,268.8200008,-117.2724038,0,-119.9597974,-84.95831975,0,0,,,,
528.6239996,2064,0,260.4100614,0,-1214.266676,-84.87760833,-123.0131324,0,-111.7796108,0,166.5959663,466.510613,0,91.47138901,-24.70308737,0,0,,,,
528.6319996,2064,0,-211.3401023,0,-1396.462708,91.86248682,36.09183122,0,52.19184323,0,224.4112744,21.22615032,0,-94.47278058,-75.52181652,0,0,,,,
528.6399996,2065,0,175.0862654,0,-1235.677591,-75.51821611,-152.1136536,0,-130.5486437,0,234.9697293,158.4273711,0,-8.913307447,-72.27091617,0,0,,,,
528.6479996,2065,0,36.68099714,0,-1336.088461,39.57183881,13.42385256,0,16.52053592,0,169.5310342,376.9271361,0,31.2434647,-33.23085939,0,0,,,,
528.6559996,2065,0,-92.74466295,0,-1330.016581,11.78845298,-73.1915978,0,-51.91745634,0,254.7601998,-130.8797492,0,-129.7944799,-99.56685949,0,0,,,,
528.6639996,2065,0,288.9242288,0,-1207.555216,-100.8457984,-129.9419468,0,-128.9725005,0,148.9687088,473.3678186,0,83.73456562,-23.66413994,0,0,,,,
528.6719996,2065,0,-178.8727573,0,-1371.568071,75.11435125,27.38868609,0,32.04978546,0,200.1224146,25.01681607,0,-101.9511236,-71.35848473,0,0,,,,
528.6799996,2065,0,185.4183304,0,-1220.726329,-85.28060537,-158.1795766,0,-148.7964851,0,209.5486105,148.8301342,0,-20.99460614,-78.19312299,0,0,,,,
528.6879996,2065,0,34.5789449,0,-1330.256304,33.11068448,9.896145882,0,0.356084605,0,152.3385746,364.6716478,0,14.81092629,-45.79528992,0,0,,,,
528.6959996,2065,0,-86.67708582,0,-1315.081337,11.56985551,-73.84866928,0,-65.22858334,0,246.5692309,-143.1291766,0,-138.2950888,-108.6628558,0,0,,,,
528.7039996,2065,0,297.4139892,0,-1188.119365,-104.2707273,-137.7111083,0,-147.2921769,0,133.9359839,460.4533428,0,81.78915792,-28.03343998,0,0,,,,
528.7119996,2065,0,-180.3985872,0,-1364.923572,78.01150847,32.43004247,0,27.22554405,0,175.8772857,13.7574333,0,-106.2259006,-74.97580766,0,0,,,,
528.7199996,2065,0,185.0391166,0,-1215.00242,-75.42411654,-143.295197,0,-145.0763933,0,187.7803129,143.4577859,0,-20.26175997,-77.54028657,0,0,,,,
528.7279996,2065,0,51.95615586,0,-1300.358431,19.12226795,-5.159208915,0,-20.77229797,0,113.4204846,371.2470859,0,25.06643074,-38.84291914,0,0,,,,
528.7359996,2065,0,-77.98047019,0,-1300.207529,11.85162684,-76.15919075,0,-66.50313831,0,192.314985,-134.4891152,0,-133.329596,-111.6452834,0,0,,,,
528.7439996,2065,0,282.7719482,0,-1212.511205,-66.58245981,-102.3154068,0,-112.3448202,0,107.7384938,458.7559608,0,77.32894801,-48.20309477,0,0,,,,
528.7519996,2065,0,-181.8924384,0,-1370.056322,92.91060122,40.47635865,0,38.6395516,0,163.3381187,19.70404953,0,-100.5792174,-90.33009282,0,0,,,,
528.7599996,2065,0,183.4873832,0,-1215.39348,-66.69534466,-142.7052563,0,-131.5640682,0,161.2155856,157.1242693,0,-7.968857806,-85.97526507,0,0,,,,
528.7679996,2065,0,26.50700876,0,-1336.688811,56.05191077,29.82963397,0,21.60310298,0,105.9432737,368.5257251,0,27.18474584,-57.46546436,0,0,,,,
528.7759996,2065,0,-86.80281491,0,-1312.09443,32.64869621,-48.28353889,0,-37.82704777,0,200.440312,-141.0514558,0,-127.03032,-125.022055,0,0,,,,
528.7839996,2065,0,291.6281345,0,-1191.448054,-62.45288791,-76.86156154,0,-89.56471124,0,105.6667833,459.7561655,0,98.52157004,-42.37873369,0,0,,,,
528.7919996,2065,0,-179.3669504,0,-1360.292587,88.4540834,71.58575397,0,50.087628,0,168.8924415,16.15288976,0,-81.67511438,-82.04696371,0,0,,,,
528.7999996,2065,0,205.2029381,0,-1186.187852,-103.8514061,-139.4630913,0,-161.3448293,0,169.323409,157.5366831,0,3.586861154,-77.98551382,0,0,,,,
528.8079996,2065,0,57.46842034,0,-1285.463319,14.57431025,23.1220687,0,-14.93911981,0,100.893632,381.3509006,0,44.11273274,-40.58014804,0,0,,,,
528.8159996,2065,0,-76.50609859,0,-1279.20213,3.033986007,-61.15742839,0,-73.02684843,0,189.13521,-127.581347,0,-108.91624,-111.3910454,0,0,,,,
528.8239996,2065,0,296.4632442,0,-1165.568679,-99.30337133,-117.0257446,0,-141.6562626,0,75.62704547,469.3279741,0,107.1511753,-39.1091027,0,0,,,,
528.8319996,2065,0,-155.7625085,0,-1315.083786,55.65570216,22.97432351,0,4.357896929,0,122.2503207,27.45102992,0,-74.16302783,-80.23845005,0,0,,,,
528.8399996,2065,0,243.658608,0,-1135.020013,-114.1187953,-168.4587011,0,-178.4124964,0,118.3171501,175.7815399,0,16.687794,-72.84567409,0,0,,,,
528.8479996,2065,0,77.54909202,0,-1263.260913,31.52216927,30.72539985,0,2.069800275,0,53.45146815,392.1400778,0,49.23489341,-38.97563953,0,0,,,,
528.8559996,2065,0,-68.54461461,0,-1269.56747,22.11976927,-40.22237112,0,-54.1440863,0,172.2919782,-132.8942652,0,-116.5693551,-117.275799,0,0,,,,
528.8639996,2065,0,312.9975164,0,-1138.901719,-98.5748871,-104.8206877,0,-142.3363055,0,64.53568956,472.5529458,0,98.38549675,-36.34796066,0,0,,,,
528.8719996,2065,0,-158.2982973,0,-1297.399156,60.12983864,54.41908713,0,21.72966861,0,98.15141585,32.96898527,0,-86.61725416,-73.37614898,0,0,,,,
528.8799996,2065,0,228.9787066,0,-1117.162854,-122.0289501,-138.7060089,0,-162.6969705,0,115.8993712,177.388607,0,3.833554969,-71.44140758,0,0,,,,
528.8879996,2065,0,81.56381065,0,-1219.257931,-0.876054838,30.05039429,0,-10.80367238,0,47.23706614,411.8809347,0,46.64700067,-30.69085209,0,0,,,,
528.8959996,2066,0,-60.17415452,0,-1235.56845,7.557673865,-33.67151274,0,-47.27668707,0,150.2896333,-114.7772727,0,-115.4418891,-111.5245752,0,0,,,,
528.9039996,2066,0,328.8955661,0,-1119.522139,-102.5319436,-98.63001782,0,-127.802226,0,65.56908603,481.0848648,0,105.3520122,-36.1551818,0,0,,,,
528.9119996,2066,0,-140.6874098,0,-1284.570091,66.45299563,53.74655293,0,25.22890666,0,102.8499348,46.17757087,0,-72.95681987,-69.71793018,0,0,,,,
528.9199996,2066,0,231.4133647,0,-1112.232156,-93.91099074,-128.5390452,0,-152.3258997,0,115.8038885,175.3164347,0,13.44201877,-71.30131006,0,0,,,,
528.9279996,2066,0,98.32574791,0,-1186.386594,3.912925978,16.95062964,0,-23.23354095,0,43.99405471,402.0674738,0,58.01962022,-23.85079651,0,0,,,,
528.9359996,2066,0,-44.7776156,0,-1193.056981,5.865158475,-49.87827692,0,-66.99968037,0,117.5804169,-110.7999142,0,-104.5496626,-94.12500926,0,0,,,,
528.9439996,2066,0,318.7408062,0,-1090.171044,-79.65913116,-87.16983669,0,-127.3249381,0,39.15331717,473.8123525,0,101.969983,-28.57929621,0,0,,,,
528.9519996,2066,0,-137.3173476,0,-1238.239983,73.60585715,47.26905327,0,12.04718732,0,88.7376384,33.33212086,0,-76.41118618,-63.85076698,0,0,,,,
528.9599996,2066,0,256.8656562,0,-1061.25682,-98.66028572,-149.414018,0,-167.9120857,0,81.55329373,175.4201563,0,12.74761937,-61.86763182,0,0,,,,
528.9679996,2066,0,121.132227,0,-1151.254769,11.45072213,15.16968332,0,-21.08985632,0,26.92826058,391.5381232,0,48.21586524,-26.94437112,0,0,,,,
528.9759996,2066,0,-23.82283647,0,-1153.864384,2.781504319,-50.62680746,0,-70.92011413,0,123.593309,-128.0577656,0,-110.5311858,-101.983629,0,0,,,,
528.9839996,2066,0,340.1384294,0,-1046.647297,-93.13747472,-88.94646228,0,-123.5108507,0,37.1601845,461.5981332,0,102.061561,-33.19042514,0,0,,,,
528.9919996,2066,0,-113.5228816,0,-1194.647504,58.85801923,49.55310819,0,26.50991381,0,89.27629611,15.8391966,0,-80.31085598,-71.87956822,0,0,,,,
528.9999996,2066,0,281.1260684,0,-1012.532445,-114.6416468,-147.5273147,0,-160.2631499,0,79.57556102,163.99632,0,8.193875855,-70.47860239,0,0,,,,
529.0079996,2066,0,132.8104808,0,-1109.780565,16.57593557,31.70825942,0,5.860989713,0,21.76027908,393.9206413,0,46.14537227,-30.03257696,0,0,,,,
529.0159996,2066,0,2.785240025,0,-1093.47321,4.817780485,-47.45628995,0,-46.95277341,0,130.2120751,-122.0431642,0,-111.0285046,-95.72948097,0,0,,,,
529.0239996,2066,0,379.2114343,0,-968.7839756,-103.7927662,-103.922193,0,-124.3898656,0,28.5519363,477.9147172,0,102.6244823,-17.59085458,0,0,,,,
529.0319996,2066,0,-98.02430723,0,-1137.183035,66.37783953,50.50097054,0,32.63455957,0,77.46698415,35.61845439,0,-81.97167484,-61.22681625,0,0,,,,
529.0399996,2066,0,285.5663008,0,-959.5476839,-109.4152775,-149.5247507,0,-158.2456033,0,86.03912537,168.0027523,0,5.590680323,-68.28106822,0,0,,,,
529.0479996,2066,0,131.9903592,0,-1060.878653,17.44706195,25.09593377,0,-5.050354055,0,15.68166342,384.3217247,0,42.04302869,-33.77213306,0,0,,,,
529.0559996,2066,0,3.825119018,0,-1046.969438,14.30224527,-45.70365585,0,-57.58382426,0,107.5872355,-131.1369391,0,-116.6212235,-106.7669864,0,0,,,,
529.0639996,2066,0,388.9252572,0,-911.861625,-90.36071861,-96.605243,0,-129.1595515,0,13.61695039,466.370407,0,96.68223086,-36.73886102,0,0,,,,
529.0719996,2066,0,-84.54468006,0,-1076.46342,72.77948205,50.48863003,0,20.80173828,0,72.18219945,19.28511525,0,-88.95469745,-81.50797483,0,0,,,,
529.0799996,2066,0,303.8034674,0,-895.2784011,-108.2536418,-154.0538442,0,-174.098368,0,67.02024425,166.7450843,0,6.539362113,-72.51779351,0,0,,,,
529.0879996,2066,0,141.7217298,0,-1005.093748,28.33724577,37.1491059,0,0.457563048,0,4.198085395,387.373059,0,46.65149603,-36.56402837,0,0,,,,
529.0959996,2066,0,-1.534432109,0,-1011.069261,16.97644624,-38.43581209,0,-49.37041272,0,122.5170308,-133.7748627,0,-117.0587921,-116.1888278,0,0,,,,
529.1039996,2066,0,371.4339385,0,-890.0473114,-90.98967534,-96.35265132,0,-122.222123,0,16.48376097,470.3301437,0,97.84802626,-35.97076316,0,0,,,,
529.1119996,2066,0,-107.6750909,0,-1063.328438,89.56144199,73.30905541,0,49.82177718,0,67.54748198,22.72019451,0,-87.32463353,-79.46097911,0,0,,,,
529.1199996,2066,0,283.7940415,0,-893.5299403,-86.92474003,-121.4337008,0,-138.4458327,0,83.7822396,160.6280362,0,4.086550001,-80.21271784,0,0,,,,
529.1279996,2066,0,145.8597252,0,-987.1656556,28.04853545,41.49694213,0,9.344933221,0,12.89159851,386.7308658,0,50.08526665,-35.91926872,0,0,,,,
529.1359996,2066,0,49.12967144,0,-944.5855041,-12.10200017,-65.24857724,0,-71.3048077,0,96.54875133,-105.6326193,0,-99.89986094,-93.30075992,0,0,,,,
529.1439996,2066,0,447.6293961,0,-797.5753756,-126.0653884,-133.6923625,0,-158.4766432,0,-22.97195594,518.624104,0,121.1469978,-5.874581919,0,0,,,,
529.1519996,2067,0,-42.80766592,0,-975.20653,66.29705491,35.89225809,0,12.69668626,0,29.09551027,64.88795701,0,-67.92419905,-58.17789784,0,0,,,,
529.1599996,2067,0,333.7232491,0,-809.4527097,-98.15421449,-148.7938803,0,-169.4692941,0,46.73530349,190.6234422,0,14.80275329,-64.82312893,0,0,,,,
529.1679996,2067,0,182.7842163,0,-910.968638,29.82544688,30.41237849,0,-18.19356703,0,-13.68881652,406.5509832,0,50.41321231,-21.01657965,0,0,,,,
529.1759996,2067,0,35.1708812,0,-918.7963093,32.32460844,-33.15178666,0,-64.27233337,0,101.0778896,-121.7140186,0,-117.8657643,-97.33041531,0,0,,,,
529.1839996,2067,0,384.0113121,0,-824.3683226,-49.98795054,-64.71497894,0,-112.347681,0,21.78416948,457.8124417,0,85.28091322,-31.49772941,0,0,,,,
529.1919996,2067,0,-82.72789935,0,-982.2538208,103.6962581,67.86175454,0,24.88127312,0,82.21282406,10.84083926,0,-97.70926463,-70.22382973,0,0,,,,
529.1999996,2067,0,321.367537,0,-789.8486332,-96.43177755,-157.5427654,0,-191.713837,0,71.80409579,169.449293,0,1.595795712,-59.29751494,0,0,,,,
529.2079996,2067,0,167.1896616,0,-897.7628236,23.32518648,15.20759111,0,-35.07017824,0,-22.05477077,395.6734648,0,44.78776066,-18.39088342,0,0,,,,
529.2159996,2067,0,34.88062978,0,-896.1488789,10.65522789,-59.87926004,0,-89.48500122,0,72.87492314,-122.4792466,0,-113.7501192,-96.35375115,0,0,,,,
529.2239996,2067,0,388.7507743,0,-797.245679,-73.71012768,-89.74907629,0,-137.8868538,0,-14.28441663,468.4158371,0,95.47143634,-32.24955559,0,0,,,,
529.2319996,2067,0,-94.04499633,0,-973.7381083,91.73090795,62.42074614,0,21.64860521,0,41.15354104,13.71836427,0,-97.11777152,-79.18422459,0,0,,,,
529.2399996,2067,0,297.8380811,0,-791.0424546,-100.1943128,-151.0039562,0,-180.8356564,0,39.79849454,159.9499332,0,-8.585125889,-75.93702433,0,0,,,,
529.2479996,2067,0,137.1289713,0,-893.3013068,15.99249618,17.91589848,0,-30.86227049,0,-38.5846632,376.1958639,0,30.67619076,-42.10993651,0,0,,,,
529.2559996,2067,0,19.31687599,0,-877.0138985,-8.677611712,-71.43088326,0,-102.354171,0,53.71094354,-144.4363053,0,-127.4826813,-119.6694322,0,0,,,,
529.2639996,2067,0,398.9876739,0,-756.7105031,-102.4438649,-111.7534104,0,-160.0526241,0,-46.57866415,454.9962016,0,92.07420323,-44.09621212,0,0,,,,
529.2719996,2067,0,-90.46496786,0,-934.2038244,80.63253213,61.35230827,0,16.88962787,0,5.59178247,3.666434617,0,-89.13073172,-88.59095254,0,0,,,,
529.2799996,2067,0,285.5664802,0,-766.4311536,-89.1899429,-129.1563805,0,-170.535274,0,26.30922138,150.0435391,0,-2.130184642,-93.92935428,0,0,,,,
529.2879996,2067,0,125.3091639,0,-874.5711683,31.90234123,44.2565465,0,-17.89390324,0,-28.88998822,378.6585652,0,34.01433386,-55.93862595,0,0,,,,
529.2959996,2067,0,-15.69494226,0,-880.388027,17.72414809,-33.7127941,0,-77.58976766,0,67.9778313,-135.6892858,0,-125.1089754,-127.3997949,0,0,,,,
529.3039996,2067,0,339.3883804,0,-780.013814,-80.66643455,-80.63144719,0,-148.4954823,0,-30.06310119,459.4314235,0,91.23720639,-55.45087514,0,0,,,,
529.3119996,2067,0,-121.4363551,0,-928.8848548,66.68816861,53.70955207,0,-12.22083226,0,12.33249499,19.60449832,0,-86.9946365,-93.05674003,0,0,,,,
529.3199996,2067,0,284.6811006,0,-724.487503,-124.3583353,-159.0392577,0,-211.9235692,0,4.905455833,171.6123516,0,4.103586874,-87.94075,0,0,,,,
529.3279996,2067,0,116.6367058,0,-828.1339924,12.80796796,28.64282928,0,-40.53467876,0,-62.11582403,386.1625309,0,41.95985367,-51.95635631,0,0,,,,
529.3359996,2067,0,-21.90678611,0,-822.8383991,9.504477984,-43.65623506,0,-90.25870674,0,50.1035655,-130.8067291,0,-113.9457581,-126.7741282,0,0,,,,
529.3439996,2067,0,338.1690741,0,-707.3541561,-87.07611284,-97.58775499,0,-157.5456501,0,-39.57271492,464.2619687,0,98.81016558,-56.28228263,0,0,,,,
529.3519996,2067,0,-127.6661594,0,-860.9216419,75.13502807,40.6857021,0,-16.20599944,0,-3.558379929,18.3831066,0,-82.86309938,-93.89188309,0,0,,,,
529.3599996,2067,0,273.2981788,0,-677.7927746,-100.6438468,-159.7333894,0,-211.3130536,0,-11.02473716,168.6686122,0,10.45917452,-87.88047598,0,0,,,,
529.3679996,2067,0,107.6389411,0,-790.0189416,27.36346468,23.82380275,0,-51.59402623,0,-68.59092199,376.4339232,0,45.20657926,-57.65773776,0,0,,,,
529.3759996,2067,0,-20.15592563,0,-770.420329,2.529223499,-57.65777594,0,-118.9147187,0,33.83471396,-135.9701305,0,-110.5672887,-131.958408,0,0,,,,
529.3839996,2067,0,331.1479223,0,-659.064954,-88.21635754,-90.9963522,0,-171.7027202,0,-63.75895751,462.672341,0,104.5208069,-62.27266098,0,0,,,,
529.3919996,2067,0,-141.6460404,0,-813.552951,75.66057957,51.19292167,0,-26.60533854,0,-4.071982884,5.185564321,0,-82.46189795,-109.4395902,0,0,,,,
529.3999996,2067,0,263.702993,0,-606.6255548,-120.1354238,-166.6237211,0,-238.301584,0,-8.462593604,160.859387,0,11.66645061,-98.43262286,0,0,,,,
529.4079996,2068,0,99.05417021,0,-707.2325743,10.6298071,24.43046588,0,-68.78890251,0,-85.419042,381.2853367,0,52.20024685,-58.94285788,0,0,,,,
529.4159996,2068,0,-21.7312893,0,-695.6504095,8.20019018,-41.27669878,0,-118.6911068,0,25.90675898,-129.3343663,0,-107.0767984,-134.6940358,0,0,,,,
529.4239996,2068,0,344.3480246,0,-582.0566976,-75.73570078,-69.39410035,0,-169.5158666,0,-50.22506178,475.4749461,0,108.4067013,-56.17861147,0,0,,,,
529.4319996,2068,0,-123.4510103,0,-730.7367244,78.13710142,77.00490142,0,-23.61544133,0,14.24910998,25.95617932,0,-71.43649479,-90.18009492,0,0,,,,
529.4399996,2068,0,269.1612236,0,-538.0804854,-116.8670313,-138.6936991,0,-231.8441296,0,20.64666338,169.3208893,0,13.92005162,-88.04511381,0,0,,,,
529.4479996,2068,0,98.88316575,0,-645.0324945,16.83596126,41.57478108,0,-66.82569772,0,-58.64364404,379.5947224,0,43.57300267,-50.20527713,0,0,,,,
529.4559996,2068,0,-30.71678768,0,-636.822464,9.336743054,-34.6845428,0,-121.2601282,0,19.62400682,-135.5358467,0,-117.1874054,-122.0922614,0,0,,,,
529.4639996,2068,0,314.8760648,0,-538.8344713,-67.3297495,-65.55530976,0,-172.1270683,0,-68.57219565,450.2990009,0,90.43740802,-60.65458701,0,0,,,,
529.4719996,2068,0,-149.8143856,0,-684.5457052,97.08945302,76.97478927,0,-25.86245191,0,-2.158252169,-1.743277828,0,-93.457519,-97.59105046,0,0,,,,
529.4799996,2068,0,270.1725475,0,-461.9522686,-101.9371355,-148.0285681,0,-238.7335023,0,-14.59348032,154.9463095,0,1.398636154,-81.39273907,0,0,,,,
529.4879996,2068,0,107.8505219,0,-557.2456492,28.24208109,36.46429654,0,-71.97870449,0,-97.17944981,369.592606,0,41.68731364,-43.50227907,0,0,,,,
529.4959996,2068,0,-31.27125475,0,-561.2735621,15.69004875,-31.45314182,0,-119.1375278,0,10.19485197,-145.1344779,0,-118.68378,-123.1504329,0,0,,,,
529.5039996,2068,0,320.335184,0,-457.4010846,-79.40916493,-72.89971382,0,-176.976433,0,-72.2088797,442.5518477,0,86.25340038,-60.8243669,0,0,,,,
529.5119996,2068,0,-150.7001563,0,-614.8666167,82.52676826,81.39807945,0,-23.39235073,0,-14.68109857,-12.19869986,0,-93.00803163,-99.88073016,0,0,,,,
529.5199996,2068,0,254.9127302,0,-412.0615051,-131.5450624,-144.5165964,0,-241.8667642,0,-22.09939924,143.7057317,0,5.715379697,-88.91922723,0,0,,,,
529.5279996,2068,0,106.3120821,0,-491.309993,-34.76719701,11.68073716,0,-102.4095716,0,-115.1367952,368.8079209,0,43.06184405,-45.824789,0,0,,,,
529.5359996,2068,0,-9.475652671,0,-481.1709099,-47.32766998,-50.2731212,0,-151.0201425,0,-13.14426716,-132.4416158,0,-116.5517458,-116.1653613,0,0,,,,
529.5439996,2068,0,359.5189794,0,-369.0762862,-139.0251844,-94.21474248,0,-217.9847095,0,-91.70417557,466.5661981,0,89.90539489,-48.44562045,0,0,,,,
529.5519996,2068,0,-124.2264922,0,-540.573306,51.49470494,69.90450666,0,-51.69159008,0,-44.86973903,15.47386886,0,-99.26987402,-91.19769522,0,0,,,,
529.5599996,2068,0,251.5639919,0,-377.4311837,-103.5614978,-112.9840396,0,-229.9600443,0,-34.49681797,156.9867003,0,-12.36615248,-91.24085484,0,0,,,,
529.5679996,2068,0,105.7130886,0,-459.8238614,-0.233209212,34.29073176,0,-102.7677692,0,-99.85537893,363.4654695,0,23.03292397,-53.47301183,0,0,,,,
529.5759996,2068,0,-16.8612348,0,-443.9754144,-23.34278736,-48.91704853,0,-165.2659575,0,-18.46900884,-141.1476893,0,-131.0111363,-116.0070815,0,0,,,,
529.5839996,2068,0,328.6603925,0,-344.7477903,-108.1167599,-89.79380086,0,-218.6497949,0,-109.6110051,452.7153088,0,78.00983433,-42.62836227,0,0,,,,
529.5919996,2068,0,-134.6658473,0,-497.1390876,66.3685187,55.84824905,0,-61.40205527,0,-54.5228708,1.717929218,0,-108.0051123,-80.39934941,0,0,,,,
529.5999996,2068,0,263.1352859,0,-316.8133408,-96.44117959,-130.7165452,0,-232.3392793,0,-50.48140774,157.4974361,0,-14.32905472,-70.53480988,0,0,,,,
529.6079996,2068,0,105.8706113,0,-421.7231564,17.75480068,31.97448196,0,-86.04049602,0,-111.9724893,364.6044739,0,19.44227075,-35.1408226,0,0,,,,
529.6159996,2068,0,-23.05119472,0,-421.3754809,7.405050291,-39.80577365,0,-143.9442195,0,-26.11381537,-140.7410083,0,-135.1212709,-105.5174028,0,0,,,,
529.6239996,2068,0,305.2391179,0,-341.6519106,-45.97958746,-41.91092015,0,-163.5926277,0,-108.2483251,458.2777924,0,78.92083028,-37.84689721,0,0,,,,
529.6319996,2068,0,-175.3164131,0,-508.2072637,112.4623461,99.15736636,0,-12.29760595,0,-36.2539845,3.938036674,0,-109.1846855,-81.37569738,0,0,,,,
529.6399996,2068,0,223.0797718,0,-310.8170214,-92.50708379,-127.4969285,0,-227.9915896,0,-54.98563803,158.155197,0,-19.31230629,-74.36716919,0,0,,,,
529.6479996,2068,0,49.2212313,0,-418.0445015,44.5965019,59.90799726,0,-61.85387896,0,-139.1163247,366.1235741,0,16.00248667,-39.1858132,0,0,,,,
529.6559996,2068,0,-76.89424109,0,-410.8079373,29.68765854,-18.62758728,0,-121.747078,0,-37.69350646,-142.2227951,0,-139.004094,-103.8895123,0,0,,,,
529.6639996,2069,0,281.6600469,0,-298.3479656,-72.10527996,-74.30490862,0,-187.7818016,0,-130.343745,450.2376863,0,70.30576639,-32.18668486,0,0,,,,
529.6719996,2069,0,-191.6114398,0,-466.3471385,102.3474421,84.34406026,0,-23.4823547,0,-80.07342908,-3.184353077,0,-114.6637092,-73.55881929,0,0,,,,
529.6799996,2069,0,204.1961138,0,-288.4889796,-68.28097922,-108.1864407,0,-211.8106613,0,-72.93592944,153.9043885,0,-19.57802294,-63.06621579,0,0,,,,
529.6879996,2069,0,37.76395001,0,-397.7977959,57.80153353,67.97707542,0,-53.04981148,0,-128.7993313,353.4397158,0,9.711996955,-30.97722073,0,0,,,,
529.6959996,2069,0,-85.98209328,0,-389.9812645,31.80749558,-14.9991788,0,-118.8245472,0,-35.19756958,-153.8142618,0,-150.2664224,-97.47500867,0,0,,,,
529.7039996,2069,0,268.4979585,0,-283.8080579,-59.51154481,-57.81555052,0,-179.3871705,0,-140.1620661,448.1941818,0,61.62558878,-21.42718731,0,0,,,,
529.7119996,2069,0,-212.7242619,0,-463.0398765,127.416346,108.2348697,0,0.617337582,0,-81.94000563,-10.23050875,0,-121.9331353,-62.5836695,0,0,,,,
529.7199996,2069,0,184.2736893,0,-279.6153351,-68.75215653,-111.0092583,0,-201.0525405,0,-69.20416875,142.5997589,0,-22.79490597,-49.10240979,0,0,,,,
529.7279996,2069,0,34.82988276,0,-363.9870515,30.14174042,33.17515889,0,-69.41741271,0,-156.6164402,356.399285,0,16.85365269,-6.039539543,0,0,,,,
529.7359996,2069,0,-94.11584448,0,-352.5748841,33.23614802,-27.5643712,0,-110.1334397,0,-73.9362665,-148.3193497,0,-140.2320035,-74.70479745,0,0,,,,
529.7439996,2069,0,250.125215,0,-245.3589125,-51.17588801,-59.6723521,0,-161.1281868,0,-146.3131794,442.2205005,0,70.02792053,-4.518776415,0,0,,,,
529.7519996,2069,0,-224.2660813,0,-420.9473132,116.5267179,86.91852091,0,-6.261859945,0,-90.91667939,-12.58582404,0,-113.4186778,-45.61877303,0,0,,,,
529.7599996,2069,0,154.3865015,0,-260.727925,-57.49509747,-110.2533075,0,-190.5912611,0,-91.07986901,140.0544456,0,-25.67824913,-47.56934576,0,0,,,,
529.7679996,2069,0,-6.768440682,0,-355.9347559,52.27255504,58.31910233,0,-40.18097514,0,-151.7173505,345.9759745,0,5.721789764,-17.37527546,0,0,,,,
529.7759996,2069,0,-102.5481441,0,-329.732606,27.12327213,-24.10695944,0,-104.8593211,0,-61.0402546,-145.5159653,0,-140.6327087,-73.61196057,0,0,,,,
529.7839996,2069,0,258.1642461,0,-222.8355357,-68.28009343,-72.85429368,0,-167.6986844,0,-159.1824845,458.0694031,0,71.41012113,3.098792451,0,0,,,,
529.7919996,2069,0,-222.5810609,0,-400.5199603,106.3997218,80.42018496,0,-6.60904464,0,-104.6519107,-3.576384952,0,-120.5300867,-47.72938805,0,0,,,,
529.7999996,2069,0,170.0408637,0,-225.3891565,-70.79618172,-120.1835958,0,-199.009501,0,-93.45518976,150.1623562,0,-28.14932153,-41.00098313,0,0,,,,
529.8079996,2069,0,7.708842286,0,-326.7172995,45.89161825,46.09348921,0,-49.19385907,0,-153.8472343,356.1014038,0,3.459182367,-2.737949429,0,0,,,,
529.8159996,2069,0,-120.6844007,0,-338.8597971,52.94187996,-7.651256883,0,-86.3131972,0,-49.00550578,-149.7668172,0,-153.4665116,-75.96141032,0,0,,,,
529.8239996,2069,0,231.7616065,0,-250.2309926,-27.277296,-35.68488446,0,-131.5535603,0,-126.8868448,450.7278863,0,59.14327414,-3.244752747,0,0,,,,
529.8319996,2069,0,-236.3428452,0,-411.6847236,128.5001831,100.00159,0,16.39514393,0,-67.46524572,-6.362729734,0,-125.4184676,-41.71522249,0,0,,,,
529.8399996,2069,0,151.0109812,0,-233.5207478,-54.63632431,-106.3342121,0,-178.5519923,0,-69.05412088,144.9525402,0,-29.51285485,-33.97914401,0,0,,,,
529.8479996,2069,0,-2.586886823,0,-322.9741189,46.61397856,50.08126911,0,-38.26111336,0,-147.6813527,356.148008,0,9.685212497,3.883665477,0,0,,,,
529.8559996,2069,0,-123.2910593,0,-307.893335,24.42339762,-27.36063562,0,-95.10627229,0,-58.86329853,-146.2300012,0,-142.5179005,-67.88613956,0,0,,,,
529.8639996,2069,0,213.2576211,0,-212.3137631,-54.9394255,-50.41868064,0,-135.4310649,0,-144.2954671,444.3797413,0,67.428829,0.169934523,0,0,,,,
529.8719996,2069,0,-247.7149364,0,-365.7783224,103.1947973,89.81145362,0,9.123738739,0,-83.98810567,-13.16851326,0,-116.8613703,-42.43368926,0,0,,,,
529.8799996,2069,0,147.8109344,0,-192.9589536,-71.34074309,-106.7255721,0,-184.7103121,0,-88.45488373,142.394767,0,-24.71842794,-38.20356063,0,0,,,,
529.8879996,2069,0,-16.20501605,0,-302.486553,51.51922222,72.2296261,0,-25.40833739,0,-159.2961737,351.744228,0,8.052136958,-0.937961739,0,0,,,,
529.8959996,2069,0,-132.3634027,0,-277.1102355,35.13708975,-8.449636862,0,-81.93628852,0,-54.85587432,-147.0146935,0,-141.7659945,-66.72860599,0,0,,,,
529.9039996,2069,0,216.0189784,0,-159.0489412,-47.21567354,-45.756494,0,-131.7413933,0,-146.3217679,450.5659821,0,73.00305913,7.768675149,0,0,,,,
529.9119996,2069,0,-248.1554392,0,-319.0399684,106.7337631,89.47673205,0,11.94611736,0,-101.0597546,0.125479454,0,-111.3180628,-31.75363589,0,0,,,,
529.9199996,2070,0,140.673418,0,-147.1078752,-74.46539612,-116.0010105,0,-185.3226271,0,-101.0870439,155.3179786,0,-21.00297892,-30.86132169,0,0,,,,
529.9279996,2070,0,-25.78301225,0,-246.5443954,45.32104483,56.86717793,0,-26.78998139,0,-165.770283,354.2610206,0,11.32951764,2.792665819,0,0,,,,
529.9359996,2070,0,-144.4924582,0,-246.6951107,33.36567905,-14.24997159,0,-72.84319189,0,-68.27376431,-150.8623003,0,-141.1883106,-61.21725869,0,0,,,,
529.9439996,2070,0,197.8242729,0,-164.9563293,-36.95586791,-38.38878664,0,-115.0397854,0,-148.5042364,431.7864954,0,61.08295589,0.758473476,0,0,,,,
529.9519996,2070,0,-274.3591443,0,-331.7595325,126.8516136,105.0407315,0,34.60158166,0,-83.5351556,-32.23024654,0,-132.3965109,-51.6034791,0,0,,,,
529.9599996,2070,0,116.9975693,0,-156.5226916,-50.18509665,-88.20806472,0,-150.8872857,0,-85.35541403,143.6163228,0,-32.41615724,-36.01772162,0,0,,,,
529.9679996,2070,0,-49.1457467,0,-265.1248617,74.35380834,94.26585241,0,8.455854744,0,-155.2207321,362.4555207,0,6.657549186,5.313407154,0,0,,,,
529.9759996,2070,0,-168.098754,0,-256.1588475,46.75687309,-1.753120197,0,-67.73848631,0,-61.59357612,-149.9122242,0,-150.4330848,-66.74761307,0,0,,,,
529.9839996,2070,0,193.2736084,0,-144.6798811,-51.54844798,-59.04349717,0,-143.487204,0,-165.4312984,443.6483081,0,59.85696928,8.243214172,0,0,,,,
529.9919996,2070,0,-267.9326611,0,-300.9963721,106.7433592,82.09770413,0,-1.471366393,0,-130.2372942,-1.175862629,0,-123.1971248,-29.13384548,0,0,,,,
529.9999996,2070,0,108.9940204,0,-134.3698889,-64.93173019,-116.1141301,0,-192.869835,0,-128.2431276,145.3359909,0,-37.79095953,-29.11420395,0,0,,,,
530.0079996,2070,0,-52.91294907,0,-235.4371096,57.49485955,52.03648345,0,-46.37609401,0,-181.5768076,337.8072768,0,-11.34836415,2.045852206,0,0,,,,
530.0159996,2070,0,-152.8918826,0,-211.6605817,30.58082698,-34.46185922,0,-113.0158903,0,-91.21058984,-153.7454764,0,-156.0658776,-56.50741739,0,0,,,,
530.0239996,2070,0,204.9718849,0,-103.5070394,-62.73695817,-75.29364046,0,-173.5523903,0,-188.531311,443.4347115,0,57.2588339,16.12669479,0,0,,,,
530.0319996,2070,0,-270.3213313,0,-270.1253582,110.1023884,89.32181161,0,-19.24540048,0,-129.4690779,-18.03588178,0,-133.1186774,-33.94823705,0,0,,,,
530.0399996,2070,0,98.44116002,0,-116.7542884,-41.59535238,-74.63281812,0,-182.6695138,0,-104.3601692,129.4869765,0,-40.6544058,-30.47099286,0,0,,,,
530.0479996,2070,0,-66.21528892,0,-227.0317833,80.8753946,102.1446242,0,-24.27475933,0,-144.8544313,326.8910611,0,-9.07064059,8.102615313,0,0,,,,
530.0559996,2070,0,-177.971253,0,-204.589471,47.45926924,7.416313363,0,-102.8892075,0,-54.0510511,-165.5012866,0,-159.4161942,-48.58477703,0,0,,,,
530.0639996,2070,0,176.788474,0,-92.05955812,-45.85490124,-46.67020591,0,-168.5940335,0,-155.2855219,431.73868,0,54.83922535,26.45343739,0,0,,,,
530.0719996,2070,0,-277.3112438,0,-247.6394862,118.446837,98.43596605,0,-12.75431279,0,-116.3005853,-19.14229211,0,-128.3726676,-19.05195655,0,0,,,,
530.0799996,2070,0,110.301628,0,-80.5468423,-46.80327102,-84.71955627,0,-186.7000108,0,-121.7747566,140.3966251,0,-33.16794422,-14.4603884,0,0,,,,
530.0879996,2070,0,-47.5023169,0,-182.9028247,75.84311889,77.81695048,0,-35.0035408,0,-177.9358172,337.6436568,0,0.956933775,19.1343371,0,0,,,,
530.0959996,2070,0,-159.2011669,0,-152.5878211,48.10247205,-14.83483882,0,-106.5467713,0,-100.1709759,-158.4024028,0,-147.207225,-44.27987564,0,0,,,,
530.1039996,2070,0,178.0390587,0,-47.00222118,-26.12940315,-40.870736,0,-154.8129081,0,-197.3342386,430.4202397,0,62.76491599,24.27461103,0,0,,,,
530.1119996,2070,0,-290.5001309,0,-219.0281589,141.6818914,104.5523451,0,-3.734994958,0,-126.8047043,-29.6004093,0,-122.3930583,-22.94472613,0,0,,,,
530.1199996,2070,0,106.0086456,0,-36.75805119,-62.37381617,-121.1861689,0,-214.9839412,0,-145.3454492,134.8621384,0,-22.65031772,-11.38130218,0,0,,,,
530.1279996,2070,0,-51.96367975,0,-137.8321774,61.27164727,49.59687461,0,-58.65955323,0,-228.4574136,339.0527754,0,11.71101076,20.80981545,0,0,,,,
530.1359996,2070,0,-162.6290588,0,-133.8756995,58.43791381,-8.2453127,0,-97.3600325,0,-114.165025,-153.3777863,0,-137.8700227,-48.81176936,0,0,,,,
530.1439996,2070,0,191.6491676,0,-35.04961398,-27.88485715,-37.86360376,0,-138.5587071,0,-187.94701,445.259268,0,72.88082109,25.83116077,0,0,,,,
530.1519996,2070,0,-279.7203579,0,-210.1967619,142.3749101,111.1777274,0,18.31143966,0,-129.911873,-13.04655338,0,-115.7635941,-20.20107259,0,0,,,,
530.1599996,2070,0,107.300931,0,-34.34327064,-38.99686209,-90.05032582,0,-179.8463911,0,-131.0571215,140.2119901,0,-19.09541416,-13.03341207,0,0,,,,
530.1679996,2070,0,-33.59809244,0,-120.3111563,67.54517332,69.44909149,0,-40.10622879,0,-196.9174625,341.1069498,0,16.4765123,25.48538561,0,0,,,,
530.1759996,2071,0,-148.5914785,0,-112.4520891,46.82036706,-9.984451855,0,-99.23637724,0,-109.909859,-155.0569435,0,-136.3390654,-39.05782851,0,0,,,,
530.1839996,2071,0,173.672121,0,-34.16951421,-23.141263,-27.76676048,0,-128.5286464,0,-200.0798031,422.9558306,0,64.95326149,27.61579388,0,0,,,,
530.1919996,2071,0,-280.9982125,0,-190.8579481,126.5478147,106.177107,0,18.47985851,0,-124.9225191,-43.93489168,0,-125.6803388,-22.73890147,0,0,,,,
530.1999996,2071,0,143.7670255,0,19.34385735,-84.81031321,-123.3068656,0,-198.9544036,0,-143.6600543,131.0899935,0,-16.07691768,-0.212371944,0,0,,,,
530.2079996,2071,0,-3.198776684,0,-71.2092847,42.53254609,43.99799043,0,-42.55668752,0,-232.8244281,344.95394,0,28.41510928,46.31065384,0,0,,,,
530.2159996,2071,0,-117.4288012,0,-54.45657945,19.92185597,-46.79544589,0,-112.5371458,0,-135.4372784,-157.5602498,0,-127.9386874,-29.73735771,0,0,,,,
530.2239996,2071,0,238.0606479,0,59.78461462,-83.10375403,-90.96787387,0,-179.7057061,0,-241.3747952,435.5076951,0,79.01503624,43.85042916,0,0,,,,
530.2319996,2071,0,-224.5925134,0,-98.73794847,90.82313437,68.27693952,0,-10.50758253,0,-178.9512623,-21.36248724,0,-110.4109132,-1.260533945,0,0,,,,
530.2399996,2071,0,160.7249506,0,92.58180191,-89.77675382,-135.1096129,0,-198.2581693,0,-167.6171627,129.5585039,0,-20.98609583,-1.575106756,0,0,,,,
530.2479996,2071,0,-9.575615324,0,-15.21798366,39.21591974,42.9730938,0,-35.59114766,0,-244.7088462,326.3017191,0,8.279335612,32.94411326,0,0,,,,
530.2559996,2071,0,-144.4315144,0,-42.64637995,53.701414,-2.003244693,0,-60.37720269,0,-128.9358555,-186.6745298,0,-153.9520556,-49.31299548,0,0,,,,
530.2639996,2071,0,210.9262184,0,51.18457568,-32.0215388,-32.3206152,0,-109.8008367,0,-196.6746952,405.4872872,0,56.05681926,19.88893295,0,0,,,,
530.2719996,2071,0,-241.7071614,0,-107.1324867,117.6241775,95.91941374,0,24.61198792,0,-150.2564834,-37.8117321,0,-121.7036702,-11.01768771,0,0,,,,
530.2799996,2071,0,148.9133518,0,64.14914379,-59.25483925,-109.9948128,0,-171.9443962,0,-160.9855102,107.1134121,0,-29.33006128,-7.425103833,0,0,,,,
530.2879996,2071,0,-8.525073821,0,-49.30401579,74.21967881,69.88681291,0,-10.61608564,0,-230.8746368,304.7200478,0,6.49067483,24.02796746,0,0,,,,
530.2959996,2071,0,-133.4272686,0,-48.62260847,49.70089443,-20.30594603,0,-77.1522322,0,-135.3675266,-192.6385537,0,-143.773002,-46.34764032,0,0,,,,
530.3039996,2071,0,226.2834524,0,68.52738572,-58.47026594,-78.76256981,0,-150.4256789,0,-239.7113868,396.6988709,0,65.92545294,29.93550114,0,0,,,,
530.3119996,2071,0,-244.435381,0,-112.0193374,123.2265287,89.70575535,0,21.78036259,0,-194.1789889,-55.59831634,0,-117.9039848,-12.24592474,0,0,,,,
530.3199996,2071,0,127.7932401,0,46.10465096,-52.62873126,-104.9389917,0,-157.3464592,0,-174.3243457,84.05899582,0,-31.08363914,-17.8639264,0,0,,,,
530.3279996,2071,0,-21.8795936,0,-43.71548608,51.97323041,55.95364526,0,-10.8528581,0,-243.3911171,288.8492654,0,5.248419645,26.14359151,0,0,,,,
530.3359996,2071,0,-152.2478729,0,-48.8916691,46.94012576,-5.571625622,0,-57.06892056,0,-152.4162543,-202.9322261,0,-142.735975,-35.87622499,0,0,,,,
530.3439996,2071,0,199.1081751,0,58.85677951,-51.07986112,-57.53015739,0,-119.2612704,0,-231.1870596,375.8683651,0,62.84749948,34.38527338,0,0,,,,
530.3519996,2071,0,-265.5986009,0,-109.3742232,121.4496351,92.09132653,0,41.28494994,0,-181.8939283,-72.6806164,0,-119.8627776,-3.399837643,0,0,,,,
530.3599996,2071,0,109.1828374,0,50.45547332,-44.74722392,-98.98915238,0,-137.8667868,0,-172.1338312,74.73644661,0,-30.56807247,-5.332194812,0,0,,,,
530.3679996,2071,0,-26.95487231,0,-27.5758364,47.19977458,45.98000219,0,-2.058475443,0,-243.4087057,278.0605326,0,4.758408765,35.76523121,0,0,,,,
530.3759996,2071,0,-151.0477417,0,-27.86608489,36.70457124,-23.79887439,0,-48.09181972,0,-159.2703279,-210.9355926,0,-141.2759463,-32.00790721,0,0,,,,
530.3839996,2071,0,202.1275499,0,80.34399633,-57.76776958,-72.15945476,0,-113.3879294,0,-251.2456352,373.4933068,0,67.17458291,32.78042766,0,0,,,,
530.3919996,2071,0,-246.200617,0,-69.26400575,107.8213687,81.21146722,0,35.15164079,0,-217.6248745,-71.3813096,0,-114.3825091,-5.202865093,0,0,,,,
530.3999996,2071,0,131.5915749,0,94.47443578,-33.73630132,-74.82722608,0,-118.9754171,0,-190.3929553,79.21638948,0,-22.30822043,-11.25966502,0,0,,,,
530.4079996,2071,0,-5.383369342,0,13.24294246,72.97873312,83.99513184,0,26.41481815,0,-233.7075801,298.9499528,0,21.85321122,33.56366096,0,0,,,,
530.4159996,2071,0,-140.5099325,0,-3.921109941,54.85740209,7.775121444,0,-30.19830783,0,-149.8627155,-190.7407207,0,-126.8758355,-36.39385042,0,0,,,,
530.4239996,2071,0,192.8615528,0,78.12995547,-31.45353628,-31.29161161,0,-82.55127622,0,-218.5063223,373.0306747,0,71.27525301,13.1840653,0,0,,,,
530.4319996,2072,0,-246.2488145,0,-66.16901216,117.271823,96.03569868,0,51.64317317,0,-170.1688031,-58.84293808,0,-103.0201179,-19.52518786,0,0,,,,
530.4399996,2072,0,137.457088,0,97.04821907,-50.43882693,-92.31596183,0,-131.8326535,0,-182.8422568,98.20035593,0,-8.558841233,-21.75880818,0,0,,,,
530.4479996,2072,0,-8.526512505,0,2.091376878,65.01391397,77.87475645,0,18.85086157,0,-243.3115951,291.9463008,0,23.97973333,14.21864554,0,0,,,,
530.4559996,2072,0,-142.7684463,0,-11.99153024,60.37754711,14.40541856,0,-29.7755086,0,-153.3705552,-200.2459143,0,-125.674401,-46.18044937,0,0,,,,
530.4639996,2072,0,192.212455,0,69.13801553,-21.53601177,-18.86592836,0,-79.67491725,0,-228.640521,365.8643722,0,73.49589106,12.702202,0,0,,,,
530.4719996,2072,0,-234.6676506,0,-60.22545879,111.5566332,101.7080445,0,48.68353234,0,-176.5119287,-77.17955293,0,-102.7736338,-17.38377706,0,0,,,,
530.4799996,2072,0,154.1231568,0,120.3769404,-75.60177202,-99.77286196,0,-147.0930643,0,-196.8188894,89.39002243,0,-3.122172931,-3.041762722,0,0,,,,
530.4879996,2072,0,-1.977592266,0,12.00937433,51.40957791,83.64949438,0,17.61608267,0,-266.6339207,289.3072034,0,29.83240496,35.94539698,0,0,,,,
530.4959996,2072,0,-124.0391562,0,1.739233825,49.04312505,17.79718467,0,-24.80018596,0,-158.3910039,-212.6981861,0,-120.071639,-37.16592289,0,0,,,,
530.5039996,2072,0,214.3677426,0,87.36165938,-38.58706403,-22.96988682,0,-82.88970782,0,-236.3646085,357.333782,0,83.23210272,21.12029235,0,0,,,,
530.5119996,2072,0,-245.7885271,0,-75.33531352,126.5559202,133.6640819,0,74.51832763,0,-186.5469446,-84.95961178,0,-97.20061736,-19.84338137,0,0,,,,
530.5199996,2072,0,125.3481879,0,89.7165099,-44.16671309,-56.60105048,0,-101.9135606,0,-171.1685837,63.19611656,0,-2.308686212,-28.0851475,0,0,,,,
530.5279996,2072,0,-8.931375274,0,10.14525336,46.95047923,84.8154797,0,28.80425423,0,-237.818321,260.5507549,0,32.38132379,13.15787589,0,0,,,,
530.5359996,2072,0,-107.641498,0,32.47609841,17.87672008,-8.743466969,0,-40.86140096,0,-165.7331952,-206.3118395,0,-108.9954896,-38.51621897,0,0,,,,
530.5439996,2072,0,231.8591593,0,126.8697691,-63.85570826,-51.30428972,0,-97.35592997,0,-257.047361,393.4918068,0,100.7729464,27.56636647,0,0,,,,
530.5519996,2072,0,-234.3820031,0,-48.87869703,104.0754587,104.9902054,0,60.24150258,0,-203.1542562,-57.84629279,0,-90.23687192,-20.513873,0,0,,,,
530.5599996,2072,0,144.1777291,0,109.1498144,-74.64515849,-88.3824437,0,-124.8568916,0,-193.0416169,82.06481954,0,-3.34306165,-26.19707134,0,0,,,,
530.5679996,2072,0,7.605804534,0,23.99944267,29.71972175,61.09990344,0,9.174822758,0,-258.4760231,281.8156362,0,34.71537242,20.50453015,0,0,,,,
530.5759996,2072,0,-112.9546213,0,24.46587209,22.57971503,-10.31202528,0,-41.594477,0,-169.9396096,-208.9549157,0,-115.4919134,-40.47125571,0,0,,,,
530.5839996,2072,0,225.5331107,0,111.8550186,-64.38733499,-47.35525517,0,-92.35170071,0,-252.5450584,362.306028,0,84.4031933,20.7119475,0,0,,,,
530.5919996,2072,0,-229.5705422,0,-58.45174569,100.6726622,102.817916,0,65.9432454,0,-203.9401093,-86.3203668,0,-100.8367746,-18.55070703,0,0,,,,
530.5999996,2072,0,149.9845189,0,95.41685754,-63.03240275,-83.70895792,0,-107.483275,0,-189.0292283,63.14664369,0,-11.28363218,-21.09626898,0,0,,,,
530.6079996,2072,0,5.501647794,0,-4.136465624,51.4838613,82.33273392,0,40.64242403,0,-240.3168551,262.140011,0,25.0101587,17.88339281,0,0,,,,
530.6159996,2072,0,-126.7855136,0,-15.06370914,35.69268741,14.04298677,0,-12.73500732,0,-146.3503824,-223.6851037,0,-121.3078745,-49.49611539,0,0,,,,
530.6239996,2072,0,210.2370411,0,74.79520308,-60.12790113,-35.94820192,0,-80.23467901,0,-229.5931372,349.5831782,0,80.94968987,10.43814313,0,0,,,,
530.6319996,2072,0,-235.7245739,0,-80.92174741,102.1656009,98.1025259,0,60.83129382,0,-195.5722279,-96.46690215,0,-96.67667697,-23.70596601,0,0,,,,
530.6399996,2072,0,145.8951321,0,90.38854152,-82.8694677,-106.0315267,0,-133.0257719,0,-206.9442127,63.3813954,0,3.567887329,-18.76989458,0,0,,,,
530.6479996,2072,0,-4.120453169,0,-6.076421868,21.37929877,62.27805433,0,10.59169408,0,-270.0936487,258.0493146,0,35.09021829,18.5013883,0,0,,,,
530.6559996,2072,0,-116.6279883,0,-0.890108682,18.42104839,10.24723262,0,-34.64627964,0,-171.3807317,-231.0472235,0,-116.4122598,-47.87813502,0,0,,,,
530.6639996,2072,0,248.4772222,0,117.9384033,-79.75232998,-29.50921686,0,-100.9579292,0,-239.6592286,356.6379087,0,93.20027527,24.78498411,0,0,,,,
530.6719996,2072,0,-203.5568452,0,-46.59890138,80.95627851,117.7400488,0,45.30669041,0,-182.3117946,-80.90531122,0,-82.20948668,-3.104533457,0,0,,,,
530.6799996,2072,0,154.7746907,0,95.13643692,-79.51680952,-76.13888434,0,-135.0074687,0,-174.7379098,64.39468251,0,8.410959369,-9.676228101,0,0,,,,
530.6879996,2073,0,1.059407402,0,-1.754130948,30.17318466,76.5922166,0,5.30184712,0,-232.6788414,244.4042877,0,37.55798845,16.1427154,0,0,,,,
530.6959996,2073,0,-111.9651513,0,7.332937744,8.306563769,-0.474311766,0,-51.86400725,0,-148.473431,-239.3704627,0,-104.6607827,-47.97609289,0,0,,,,
530.7039996,2073,0,231.5187901,0,109.050904,-90.81958561,-47.14473006,0,-111.384715,0,-235.6091244,340.2601669,0,102.778548,17.70380029,0,0,,,,
530.7119996,2073,0,-226.494688,0,-62.50975336,79.6415086,110.8469303,0,47.83389486,0,-184.439264,-111.1755699,0,-77.43911125,-23.51790435,0,0,,,,
530.7199996,2073,0,154.9417235,0,90.6114435,-86.84030499,-77.22073974,0,-136.0679599,0,-178.2601257,41.73147536,0,19.43469202,-24.08773184,0,0,,,,
530.7279996,2073,0,14.26638052,0,3.277034774,12.72317333,67.42225083,0,-8.758718826,0,-236.3768082,229.8294671,0,51.30427301,13.32217077,0,0,,,,
530.7359996,2073,0,-110.6889329,0,-2.014417224,10.15102729,3.501237626,0,-54.69520842,0,-146.7899534,-249.8185484,0,-91.524632,-47.69077816,0,0,,,,
530.7439996,2073,0,219.9772435,0,79.94583004,-70.7841905,-30.3464069,0,-98.90616554,0,-223.658459,326.2274726,0,115.2114353,17.1979912,0,0,,,,
530.7519996,2073,0,-236.799791,0,-81.77078894,88.95589227,108.5565651,0,48.54017167,0,-171.5149989,-132.5301368,0,-68.19028626,-23.16338658,0,0,,,,
530.7599996,2073,0,139.4551096,0,77.79172113,-79.03734843,-84.84088465,0,-137.2660732,0,-172.7372615,27.64499198,0,24.94141985,-18.55461216,0,0,,,,
530.7679996,2073,0,-12.84652788,0,-22.40842045,28.52433569,67.71020138,0,1.851244628,0,-236.6159472,222.1628259,0,51.04361979,20.00867001,0,0,,,,
530.7759996,2073,0,-131.0186754,0,-28.65459282,23.17626197,-0.248116182,0,-46.73390427,0,-148.7923056,-262.460408,0,-99.61609416,-49.63569767,0,0,,,,
530.7839996,2073,0,220.4010683,0,67.37061207,-71.87212932,-41.58423863,0,-105.5473407,0,-228.8421025,322.88483,0,106.9613647,13.00007006,0,0,,,,
530.7919996,2073,0,-223.3182055,0,-72.83560644,80.51218313,93.463162,0,33.12379159,0,-190.6405945,-115.712813,0,-72.08090325,-18.74557926,0,0,,,,
530.7999996,2073,0,144.7240914,0,93.80320586,-64.45241565,-77.79156747,0,-129.6992125,0,-186.3782506,48.27219684,0,19.53471952,-13.58609268,0,0,,,,
530.8079996,2073,0,-19.52062061,0,-17.30164836,48.40581682,91.03516485,0,21.85624758,0,-223.8283774,240.4877982,0,45.93706018,22.1011635,0,0,,,,
530.8159996,2073,0,-136.1123923,0,-27.46188616,28.00875276,11.31156441,0,-46.52689902,0,-135.9567866,-251.9316551,0,-105.9379583,-46.95968081,0,0,,,,
530.8239996,2073,0,211.6149321,0,63.40711552,-51.46547936,-25.13216922,0,-98.76233266,0,-218.5654776,318.3218689,0,96.34481908,12.9708953,0,0,,,,
530.8319996,2073,0,-239.3065753,0,-91.31083468,96.33198262,109.7128448,0,44.44765609,0,-162.9486413,-124.0533247,0,-75.81624657,-24.0210331,0,0,,,,
530.8399996,2073,0,140.6926548,0,74.35128775,-82.57858425,-83.73528369,0,-143.6984439,0,-170.9472179,43.49990512,0,26.60614996,-21.05905322,0,0,,,,
530.8479996,2073,0,-8.701327005,0,-21.7092537,25.91872344,76.68234691,0,4.834086649,0,-229.4679785,234.5455687,0,54.89660261,14.81503003,0,0,,,,
530.8559996,2073,0,-134.8754405,0,-27.71105292,12.79178288,5.342961118,0,-43.79666172,0,-132.6532201,-252.5373166,0,-95.08167893,-54.46502455,0,0,,,,
530.8639996,2073,0,193.9959087,0,51.67043046,-60.81341195,-16.5881886,0,-80.51688743,0,-209.4141411,326.4933732,0,108.153539,9.786274882,0,0,,,,
530.8719996,2073,0,-252.3457231,0,-106.1738918,97.93828351,124.0531083,0,67.84992005,0,-151.0605077,-121.3033428,0,-73.51947774,-27.00995393,0,0,,,,
530.8799996,2073,0,145.7798896,0,65.05092847,-75.47395622,-75.40244488,0,-120.8638716,0,-147.9542313,44.0173392,0,24.38813229,-27.2997599,0,0,,,,
530.8879996,2073,0,3.137370815,0,-30.40456265,41.60376558,78.60731675,0,26.17643125,0,-210.1419717,246.4690744,0,62.22691951,15.97084033,0,0,,,,
530.8959996,2073,0,-123.7986755,0,-36.37290523,31.18421866,-0.14548007,0,-30.86423111,0,-132.8622047,-234.1276084,0,-81.16532435,-47.22478592,0,0,,,,
530.9039996,2073,0,211.9875345,0,49.28584277,-61.12880787,-40.42946594,0,-86.81889931,0,-213.7560748,334.9706294,0,114.814245,10.75126165,0,0,,,,
530.9119996,2073,0,-235.2962622,0,-110.4416846,86.69828894,93.50725266,0,57.01847263,0,-163.3587288,-115.3001569,0,-73.272708,-25.88996159,0,0,,,,
530.9199996,2073,0,130.6599542,0,38.00914019,-74.18685148,-83.73595068,0,-111.410041,0,-180.8647745,49.30494121,0,20.11898539,-22.418033,0,0,,,,
530.9279996,2073,0,-31.09798197,0,-72.74719934,50.18207059,87.21917424,0,41.95022877,0,-225.2567444,226.8114723,0,42.73818959,8.011388938,0,0,,,,
530.9359996,2073,0,-143.4771928,0,-78.58401843,46.53684814,18.83436561,0,-11.00640025,0,-127.9048854,-260.5921025,0,-104.1051466,-55.68895105,0,0,,,,
530.9439996,2074,0,207.6260782,0,16.15745934,-47.70942359,-28.26719794,0,-68.24161932,0,-218.8121989,322.9621937,0,103.1433251,17.98187941,0,0,,,,
530.9519996,2074,0,-236.2525442,0,-128.1822066,91.53312867,93.99571483,0,64.85315248,0,-166.186968,-124.8953535,0,-80.38489941,-20.99895499,0,0,,,,
530.9599996,2074,0,122.6673046,0,25.27568782,-51.37170704,-63.48313771,0,-88.44174354,0,-167.4032777,44.90002428,0,17.93050067,-20.60008523,0,0,,,,
530.9679996,2074,0,-39.24134566,0,-79.57634351,71.26223706,104.6007572,0,64.17880691,0,-207.2693434,238.9064248,0,49.42328743,22.41707239,0,0,,,,
530.9759996,2074,0,-146.158388,0,-69.88829782,30.54140731,0.933415315,0,-19.67927865,0,-117.2544265,-242.2098534,0,-97.2107597,-37.69267433,0,0,,,,
530.9839996,2074,0,196.0711433,0,26.71120389,-61.80274441,-38.60483702,0,-76.90073896,0,-220.6711597,334.8905589,0,103.6872729,27.47121525,0,0,,,,
530.9919996,2074,0,-250.5295321,0,-132.896988,101.970597,110.3148141,0,75.78159311,0,-175.601993,-111.8341502,0,-79.06898858,-11.0502233,0,0,,,,
530.9999996,2074,0,136.5987602,0,22.97776753,-71.33812716,-79.41492656,0,-100.0386364,0,-171.9877112,50.26862202,0,18.90549525,-8.943726051,0,0,,,,
531.0079996,2074,0,-2.013903139,0,-66.07719154,26.21055327,62.76016052,0,31.80720263,0,-228.9131604,231.9632754,0,45.28659189,25.92451206,0,0,,,,
531.0159996,2074,0,-117.1758517,0,-60.24915485,18.96819293,-8.502493443,0,-27.97709014,0,-149.9997815,-244.3043605,0,-100.5870282,-40.35924532,0,0,,,,
531.0239996,2074,0,220.5290873,0,32.15424665,-64.33012905,-39.42303016,0,-79.67185301,0,-233.2971634,332.1608906,0,99.12240516,28.25656209,0,0,,,,
531.0319996,2074,0,-224.3372441,0,-120.8892492,83.02148591,91.24246401,0,52.69754437,0,-186.91754,-121.0093283,0,-87.45757113,-6.901655113,0,0,,,,
531.0399996,2074,0,132.11756,0,17.25823394,-70.52601505,-78.81850191,0,-112.8933167,0,-182.9445853,35.23155529,0,5.673535516,-12.51958595,0,0,,,,
531.0479996,2074,0,-32.84839549,0,-96.26945507,39.41153238,86.92471749,0,39.44935477,0,-227.8939628,207.7357695,0,21.60335811,19.58047483,0,0,,,,
531.0559996,2074,0,-133.2278865,0,-86.86139366,17.23539738,6.146321428,0,-24.31906521,0,-145.1815085,-266.1541307,0,-124.9380238,-39.32740476,0,0,,,,
531.0639996,2074,0,217.9702734,0,15.49134753,-70.02026982,-35.24834733,0,-79.72559148,0,-225.8931002,323.3097687,0,89.04334469,36.26606261,0,0,,,,
531.0719996,2074,0,-220.052881,0,-125.5953482,69.752096,86.55869546,0,49.59081693,0,-182.4670837,-119.307839,0,-91.08165607,6.858910242,0,0,,,,
531.0799996,2074,0,154.8389413,0,35.53144577,-93.80645443,-95.82926124,0,-125.3548123,0,-188.291625,45.75224942,0,2.916370285,4.861339386,0,0,,,,
531.0879996,2074,0,-4.549523348,0,-66.27077793,22.30021725,69.83534409,0,30.74899458,0,-238.9485899,229.7628228,0,31.23589625,40.70581036,0,0,,,,
531.0959996,2074,0,-129.5870424,0,-73.68189368,5.099959794,-1.806347887,0,-19.97567802,0,-150.2116377,-250.2141535,0,-115.1688994,-28.49375419,0,0,,,,
531.1039996,2074,0,187.0569402,0,-3.743667189,-71.81618067,-29.58557802,0,-61.76329926,0,-218.6555378,311.919848,0,83.83024559,27.04498768,0,0,,,,
531.1119996,2074,0,-254.6169037,0,-152.5253915,83.53177773,102.2169482,0,76.05637562,0,-158.5300456,-140.9094177,0,-95.67643824,-5.670189485,0,0,,,,
531.1199996,2074,0,136.1505219,0,23.81689031,-70.27858293,-68.41750592,0,-93.02875537,0,-148.8131492,38.86055474,0,7.99011198,-0.11305893,0,0,,,,
531.1279996,2074,0,-29.06869192,0,-86.00153469,57.83591364,108.7560895,0,70.32971436,0,-191.2787789,229.1929043,0,38.46832064,38.33395518,0,0,,,,
531.1359996,2074,0,-141.7040304,0,-83.70572686,26.65498636,11.72895149,0,-3.274846016,0,-107.9570093,-250.5806397,0,-107.0598606,-24.98075414,0,0,,,,
531.1439996,2074,0,208.5393061,0,25.58108311,-74.55271524,-40.15037358,0,-70.53358891,0,-204.4654749,330.3307629,0,98.38056841,42.42644832,0,0,,,,
531.1519996,2074,0,-246.4169488,0,-137.7814115,88.86151226,103.9834641,0,82.0919305,0,-164.2704728,-116.1223987,0,-80.38919028,4.032730561,0,0,,,,
531.1599996,2074,0,116.965715,0,6.302076722,-69.7274502,-75.55032696,0,-88.40001659,0,-156.333111,41.19036865,0,12.60210079,-6.157488434,0,0,,,,
531.1679996,2074,0,-34.77401309,0,-88.3177481,36.03024873,80.46261855,0,50.77969967,0,-207.7786748,222.2510432,0,39.76239807,31.20161289,0,0,,,,
531.1759996,2074,0,-148.3593247,0,-89.0420646,23.50796071,6.396993716,0,-3.034496756,0,-125.0284637,-250.49512,0,-97.50547595,-32.51723633,0,0,,,,
531.1839996,2074,0,172.8162044,0,-10.51842271,-52.96331895,-19.35349268,0,-40.55878442,0,-197.1130654,321.3248328,0,107.8579598,25.72404255,0,0,,,,
531.1919996,2074,0,-281.1242698,0,-172.2121304,97.06631164,117.2970745,0,100.0070223,0,-138.6034992,-133.9247465,0,-76.99157205,-13.98997513,0,0,,,,
531.1999996,2075,0,95.70101202,0,-14.87821777,-82.57857479,-73.76009268,0,-88.80291909,0,-136.9287315,31.07255918,0,17.07868961,-16.94817181,0,0,,,,
531.2079996,2075,0,-51.53741069,0,-104.603334,13.72603358,73.7342665,0,42.30527033,0,-203.2663805,219.0797853,0,45.88662772,27.34127271,0,0,,,,
531.2159996,2075,0,-165.1780139,0,-107.5425442,4.414572982,2.715064193,0,-14.96875833,0,-125.219055,-252.1555458,0,-94.93461608,-36.06639163,0,0,,,,
531.2239996,2075,0,146.5091457,0,-42.89397965,-64.62887228,-12.19608721,0,-49.82887681,0,-192.1944114,312.9705619,0,104.4701301,12.99934302,0,0,,,,
531.2319996,2075,0,-297.5433673,0,-203.2173609,90.37152773,121.0214991,0,95.12615403,0,-139.9457379,-136.0121711,0,-79.79248853,-28.13845471,0,0,,,,
531.2399996,2075,0,103.0715537,0,-30.64848818,-82.23391179,-70.48316422,0,-83.58766653,0,-137.94562,46.74871504,0,17.93368796,-28.76410467,0,0,,,,
531.2479996,2075,0,-52.79898244,0,-129.4107058,28.21592673,96.14037097,0,69.05221514,0,-183.2656481,232.6054597,0,46.29734474,10.3768724,0,0,,,,
531.2559996,2075,0,-175.3124989,0,-134.0710217,15.26284846,21.03952062,0,14.33119275,0,-103.2444254,-243.2858951,0,-92.24497791,-46.25996651,0,0,,,,
531.2639996,2075,0,163.0722335,0,-29.53302874,-87.17155882,-28.00354801,0,-53.23365147,0,-184.3572971,324.1126494,0,109.2974336,15.88443752,0,0,,,,
531.2719996,2075,0,-268.6487023,0,-163.4631177,52.85161501,103.8702741,0,72.53952686,0,-139.2240167,-123.8726349,0,-70.10638789,-18.95483603,0,0,,,,
531.2799996,2075,0,115.6627265,0,5.922240578,-104.7054655,-64.02724987,0,-98.84861039,0,-144.2298525,51.50336317,0,31.90251219,-15.38442788,0,0,,,,
531.2879996,2075,0,-37.5163941,0,-84.40257032,3.924675499,98.30292054,0,45.60717211,0,-182.1011955,225.2171476,0,53.65786916,21.88421712,0,0,,,,
531.2959996,2075,0,-143.9054283,0,-79.07089382,-19.03433861,11.58214207,0,-21.47410246,0,-93.09325442,-237.996833,0,-84.99148292,-33.67930939,0,0,,,,
531.3039996,2075,0,182.6145895,0,7.228944758,-93.60003783,-23.28505804,0,-67.54000751,0,-178.0847905,338.2489608,0,118.7378971,28.89242259,0,0,,,,
531.3119996,2075,0,-260.2193294,0,-146.0472027,62.38835462,106.3883194,0,73.70434332,0,-133.0395438,-119.9998737,0,-66.80606109,-11.22635378,0,0,,,,
531.3199996,2075,0,117.2653767,0,0.456110271,-98.94970764,-72.69123086,0,-94.74754946,0,-138.9654126,49.93215952,0,32.00721308,-10.86870952,0,0,,,,
531.3279996,2075,0,-56.22421834,0,-119.7667111,27.58185157,107.2235352,0,71.09701963,0,-175.5582406,212.068443,0,50.94489219,15.33243322,0,0,,,,
531.3359996,2075,0,-165.0726169,0,-110.1769535,2.151024026,24.37925926,0,6.128731066,0,-82.86892201,-252.6270009,0,-85.48740075,-44.26398841,0,0,,,,
531.3439996,2075,0,159.124841,0,-20.85668772,-82.33033738,-15.30933998,0,-46.1690393,0,-162.9903756,326.696028,0,123.4128897,23.74327972,0,0,,,,
531.3519996,2075,0,-301.1449815,0,-193.6237052,83.31684253,131.3209368,0,107.9305499,0,-108.9344548,-138.4744293,0,-64.244013,-23.55028295,0,0,,,,
531.3599996,2075,0,76.05912704,0,-37.66348934,-88.53645868,-53.84170372,0,-74.8463908,0,-113.0212452,35.22613163,0,34.90503107,-23.83146992,0,0,,,,
531.3679996,2075,0,-63.46521796,0,-111.9520636,0.613484709,80.0487071,0,49.44492752,0,-166.947536,212.8848087,0,62.72652547,18.61541245,0,0,,,,
531.3759996,2075,0,-148.0511244,0,-84.87734129,-27.01978249,-8.686998125,0,-15.8669565,0,-100.9767082,-239.7095189,0,-71.66545091,-37.08304804,0,0,,,,
531.3839996,2075,0,154.5214282,0,-29.18558249,-69.13055627,-1.685304414,0,-32.41646952,0,-176.8507852,332.7122418,0,125.7251157,20.00707358,0,0,,,,
531.3919996,2075,0,-311.0961484,0,-203.1626944,90.84839551,138.1486813,0,112.3123301,0,-97.11338393,-139.3821288,0,-64.68654751,-26.55489904,0,0,,,,
531.3999996,2075,0,88.01276859,0,-15.40435408,-114.7364637,-82.39166456,0,-101.7730594,0,-114.4031985,41.80425232,0,42.04330754,-15.76929079,0,0,,,,
531.4079996,2075,0,-78.77935711,0,-119.5167093,7.702755316,89.24102715,0,50.7321782,0,-182.8192759,216.16521,0,67.89279279,25.52184388,0,0,,,,
531.4159996,2075,0,-201.1368002,0,-121.9869248,0.73925651,26.05103814,0,6.04831247,0,-79.9800571,-256.9332034,0,-74.93261282,-43.07641594,0,0,,,,
531.4239996,2075,0,136.5677322,0,-6.915798642,-96.74412543,-19.62280124,0,-59.78382009,0,-154.2386627,312.3017915,0,126.9796247,18.75480221,0,0,,,,
531.4319996,2075,0,-293.9309501,0,-151.0834517,57.25663251,114.4169265,0,77.83412318,0,-113.0760573,-141.4667575,0,-51.25606142,-11.38421461,0,0,,,,
531.4399996,2075,0,82.25455278,0,-8.285029862,-91.39917878,-49.43256844,0,-76.78045366,0,-107.5728647,34.37583765,0,52.78257736,-5.492328512,0,0,,,,
531.4479996,2075,0,-88.53870804,0,-119.1050197,39.20225489,126.861906,0,83.90694116,0,-133.55702,194.7893412,0,75.97996853,28.28342368,0,0,,,,
531.4559996,2076,0,-195.0533175,0,-110.6944494,11.70836716,35.23487417,0,15.55760992,0,-40.71326779,-269.0630056,0,-60.14740999,-32.19837376,0,0,,,,
531.4639996,2076,0,139.1077012,0,-5.627152683,-99.36188082,-21.20880166,0,-49.35870287,0,-143.9559375,312.6272396,0,140.3624396,37.6950319,0,0,,,,
531.4719996,2076,0,-294.1128315,0,-142.5434296,38.41866864,106.5622366,0,81.28514965,0,-115.0627639,-132.0762008,0,-44.35283069,9.345628052,0,0,,,,
531.4799996,2076,0,72.57955615,0,2.919131333,-108.1125131,-58.98153196,0,-80.87803577,0,-107.4742569,41.07871989,0,50.28757622,7.36405498,0,0,,,,
531.4879996,2076,0,-88.03562481,0,-94.44983749,5.007661056,91.74850785,0,63.0409646,0,-144.3544247,199.4806196,0,68.29944953,38.79733431,0,0,,,,
531.4959996,2076,0,-182.0249264,0,-74.40066282,-34.48337327,-4.89364543,0,-8.100628201,0,-78.63216157,-252.2044401,0,-65.26534491,-12.20022752,0,0,,,,
531.5039996,2076,0,122.5033674,0,-6.2152604,-97.07221885,-16.40381328,0,-32.90728776,0,-160.3178389,317.3427373,0,129.8370646,49.43944408,0,0,,,,
531.5119996,2076,0,-316.1787915,0,-160.2371069,60.0401965,110.2613128,0,109.1716227,0,-96.23981577,-140.5441064,0,-55.53557976,5.836902514,0,0,,,,
531.5199996,2076,0,56.85836458,0,-11.09937944,-103.3213377,-72.17085415,0,-61.90070968,0,-110.5353628,49.36948442,0,47.76552676,4.18018743,0,0,,,,
531.5279996,2076,0,-109.5635526,0,-113.3152356,9.545115463,84.54417296,0,75.1998794,0,-160.2539091,219.5579653,0,68.10778035,37.87899882,0,0,,,,
531.5359996,2076,0,-194.7197691,0,-88.12157132,-7.521564371,-0.491766517,0,6.382360741,0,-82.63834772,-238.6716216,0,-65.05407836,-21.40762255,0,0,,,,
531.5439996,2076,0,106.7032439,0,-25.05993137,-40.74021652,13.39978229,0,5.712483537,0,-152.2055112,310.8021502,0,130.8594859,26.59870551,0,0,,,,
531.5519996,2076,0,-321.6481661,0,-163.7108638,83.10237992,119.2017053,0,118.5990894,0,-86.23178001,-146.3655663,0,-46.69441239,-6.109864074,0,0,,,,
531.5599996,2076,0,70.02117366,0,11.53545755,-110.9677146,-88.02223522,0,-85.17494743,0,-119.7290883,55.77580565,0,64.0193479,10.91905961,0,0,,,,
531.5679996,2076,0,-113.486799,0,-110.5795823,33.98218173,99.81014523,0,85.988544,0,-165.8771319,206.2214698,0,77.06865375,33.29797637,0,0,,,,
531.5759996,2076,0,-208.4861074,0,-98.99581473,-1.849423359,4.611099725,0,10.23602826,0,-77.5891427,-258.6321806,0,-60.16712066,-31.33824954,0,0,,,,
531.5839996,2076,0,113.3775106,0,-9.421100559,-90.95311279,-32.89931789,0,-41.93747209,0,-170.3954046,309.7408824,0,136.8412229,33.47788708,0,0,,,,
531.5919996,2076,0,-317.5251935,0,-153.152416,55.50056532,92.00848352,0,88.34007592,0,-123.6484608,-149.4498758,0,-45.56227986,3.264618665,0,0,,,,
531.5999996,2076,0,65.69353473,0,7.618457593,-112.5724291,-94.07132177,0,-93.35143291,0,-138.437854,34.18051996,0,61.60831738,12.09205686,0,0,,,,
531.6079996,2076,0,-88.56542482,0,-81.42560232,3.664295167,58.69944894,0,48.1109714,0,-174.7106605,186.7420635,0,77.61696188,44.671649,0,0,,,,
531.6159996,2076,0,-174.5758613,0,-60.5783804,-27.51033809,-27.77196887,0,-19.7271125,0,-102.5422365,-262.3706071,0,-55.44048654,-7.459630046,0,0,,,,
531.6239996,2076,0,132.7982207,0,14.02204879,-106.2257518,-45.39404414,0,-58.44317051,0,-186.824649,301.8005481,0,138.591973,51.48937806,0,0,,,,
531.6319996,2076,0,-299.2289445,0,-132.4881371,43.10322199,81.91357784,0,69.05135654,0,-117.1962495,-162.9414918,0,-52.9259288,10.64800719,0,0,,,,
531.6399996,2076,0,63.31590054,0,-4.25339259,-87.96926446,-71.43341932,0,-80.71625117,0,-120.8158346,18.15946823,0,44.23059994,6.738794523,0,0,,,,
531.6479996,2076,0,-114.2606315,0,-123.633528,36.2363285,93.63677146,0,73.3218461,0,-143.2189758,156.8383771,0,53.70408271,26.37228819,0,0,,,,
531.6559996,2076,0,-181.0426073,0,-86.52149493,-18.02387577,-13.27774615,0,-15.89869821,0,-63.56914928,-282.5246367,0,-73.17525727,-22.26756841,0,0,,,,
531.6639996,2076,0,138.0525096,0,-12.19375731,-74.37517238,-20.38304908,0,-40.42693623,0,-157.3395628,306.7916763,0,132.1597203,44.78729501,0,0,,,,
531.6719996,2076,0,-316.4234497,0,-176.298123,100.6411043,120.5869095,0,108.1188277,0,-85.79020351,-160.0456494,0,-57.06873606,-1.019861343,0,0,,,,
531.6799996,2076,0,52.62168914,0,-11.74794071,-65.23258207,-63.74609156,0,-66.65670901,0,-93.45195537,19.69152858,0,43.92328092,1.633100909,0,0,,,,
531.6879996,2076,0,-112.9695617,0,-106.4452908,44.65263063,89.82219265,0,79.56955155,0,-132.1983353,168.8225532,0,58.00193111,32.01324905,0,0,,,,
531.6959996,2076,0,-205.9524537,0,-93.51307715,7.068938158,-5.83965471,0,2.981164195,0,-46.19027452,-278.987608,0,-72.29784864,-20.76229055,0,0,,,,
531.7039996,2076,0,99.40842438,0,-19.11623945,-71.51526042,-23.01740095,0,-32.78246946,0,-141.0528136,292.5749956,0,130.5874966,49.52919208,0,0,,,,
531.7119996,2077,0,-319.8537499,0,-157.5508634,64.78013953,93.97779617,0,93.64205544,0,-78.81623992,-175.4182559,0,-55.17305303,8.861746548,0,0,,,,
531.7199996,2077,0,79.61181917,0,9.295450864,-105.745922,-97.99151666,0,-85.58389479,0,-99.07070994,18.19415487,0,53.43663304,15.69877103,0,0,,,,
531.7279996,2077,0,-99.51518655,0,-109.5545981,29.64893733,85.85491708,0,86.28610391,0,-149.481561,168.6709363,0,72.32491008,45.28845866,0,0,,,,
531.7359996,2077,0,-196.6359893,0,-100.9839051,-5.074261875,-3.044143583,0,11.73745279,0,-47.51511854,-283.6649127,0,-59.17730398,-23.4078618,0,0,,,,
531.7439996,2077,0,112.7245267,0,-20.81071841,-84.27131699,-31.84501908,0,-31.5459194,0,-143.0141667,295.3578205,0,139.4110642,37.88797543,0,0,,,,
531.7519996,2077,0,-317.4006025,0,-169.364081,67.85083379,101.0295178,0,113.2831394,0,-85.28402497,-168.1657047,0,-48.61544724,-5.936019379,0,0,,,,
531.7599996,2077,0,76.51765621,0,-7.678478649,-108.0941283,-90.03493108,0,-69.58375462,0,-86.24366706,23.67508149,0,60.46383754,-3.017986244,0,0,,,,
531.7679996,2077,0,-97.07373381,0,-113.9654144,9.382757519,73.58051005,0,80.52839538,0,-143.2087626,177.1977367,0,74.83998557,31.6645771,0,0,,,,
531.7759996,2077,0,-190.9663366,0,-99.50078808,-15.86822373,-4.251715405,0,17.25351464,0,-56.25863049,-266.8532274,0,-60.77123095,-30.71329813,0,0,,,,
531.7839996,2077,0,105.715246,0,-37.45292018,-71.55484881,-5.681460082,0,-5.994382435,0,-134.3397816,313.8084819,0,142.6325214,33.24158232,0,0,,,,
531.7919996,2077,0,-333.1389845,0,-193.6963454,75.80854836,120.1371702,0,121.8915388,0,-58.87583478,-154.0076746,0,-42.3506481,-5.745684016,0,0,,,,
531.7999996,2077,0,49.39081694,0,-34.94516047,-98.99334212,-71.77477813,0,-68.78483645,0,-59.52951813,30.94595809,0,61.52730334,-1.245841844,0,0,,,,
531.8079996,2077,0,-134.3447097,0,-151.9809507,28.75347879,101.7971672,0,88.1883589,0,-115.1060148,181.0679492,0,77.34266736,35.46616802,0,0,,,,
531.8159996,2077,0,-218.0989307,0,-132.0897427,-8.832348412,7.008477166,0,12.73274264,0,-25.38268691,-270.0484073,0,-56.90675783,-24.1683514,0,0,,,,
531.8239996,2077,0,91.68718323,0,-50.58485387,-79.06686603,-16.52049814,0,-24.64080036,0,-114.2914729,297.0334593,0,141.2058199,34.41068989,0,0,,,,
531.8319996,2077,0,-342.8294027,0,-196.9441069,72.4957858,111.1875638,0,109.5979741,0,-66.10600928,-162.2032162,0,-40.56632563,-5.067933707,0,0,,,,
531.8399996,2077,0,42.09078358,0,-31.14217603,-91.5705513,-68.63970432,0,-64.42557894,0,-64.4178071,21.99838713,0,60.47132243,-3.903681801,0,0,,,,
531.8479996,2077,0,-131.6621918,0,-131.9611319,34.75313981,102.5881702,0,91.46317048,0,-100.7870066,160.8413613,0,73.77879438,26.99924569,0,0,,,,
531.8559996,2077,0,-219.5101516,0,-117.4882809,0.91164518,13.32502653,0,15.46566484,0,-15.35657809,-276.4133099,0,-50.11875117,-24.58928926,0,0,,,,
531.8639996,2077,0,83.74098762,0,-44.03980779,-69.53923354,-6.319588661,0,-18.48655406,0,-96.2752336,291.5712647,0,144.6071996,38.38457048,0,0,,,,
531.8719996,2077,0,-340.7665847,0,-182.9721116,68.03689365,109.5120042,0,110.5284519,0,-40.21112377,-169.2133955,0,-43.64556697,-2.394857736,0,0,,,,
531.8799996,2077,0,54.44615523,0,-7.286295895,-117.6126114,-90.97449614,0,-86.29714466,0,-55.89186264,33.44460888,0,60.49084624,4.117182922,0,0,,,,
531.8879996,2077,0,-125.1031061,0,-114.4012294,11.41289884,82.18953849,0,67.51080125,0,-110.6647295,172.8929207,0,64.27893049,31.4752048,0,0,,,,
531.8959996,2077,0,-237.69375,0,-133.1545301,8.90399448,24.69705446,0,27.79032871,0,-21.67745706,-279.8305857,0,-70.94502628,-35.82233239,0,0,,,,
531.9039996,2077,0,62.48846853,0,-65.33571951,-72.01336149,4.484457567,0,-17.65328305,0,-84.78107126,283.4853805,0,126.6873416,25.36194443,0,0,,,,
531.9119996,2077,0,-355.0294704,0,-203.8771524,59.75627397,127.3249823,0,96.2619999,0,-20.01173585,-174.3236597,0,-57.65216952,-7.085481269,0,0,,,,
531.9199996,2077,0,38.52058393,0,-47.3095781,-100.9904345,-56.1688992,0,-78.15827867,0,-27.87808556,33.5835304,0,50.58221789,4.284233416,0,0,,,,
531.9279996,2077,0,-119.3778607,0,-137.3100512,7.74913584,78.92471222,0,56.27710611,0,-86.83394529,185.5067527,0,64.02063684,38.15269035,0,0,,,,
531.9359996,2077,0,-211.0157549,0,-122.6959863,-22.7667394,-7.350955976,0,-8.029077871,0,-31.1557393,-263.4333084,0,-69.22512808,-27.69208971,0,0,,,,
531.9439996,2077,0,88.51043208,0,-44.38921907,-95.26392828,-24.16677668,0,-39.59943756,0,-113.8286302,289.2667689,0,120.6028957,27.40696682,0,0,,,,
531.9519996,2077,0,-336.7047233,0,-181.5960559,50.14801299,99.80770945,0,90.24731703,0,-50.8555764,-172.7442491,0,-65.11680089,-12.01785037,0,0,,,,
531.9599996,2077,0,31.66674479,0,-37.45196528,-91.54383585,-55.35157781,0,-61.5673507,0,-54.11299762,19.23398337,0,42.90477037,-9.366928462,0,0,,,,
531.9679996,2078,0,-143.8684097,0,-143.6012977,26.58361612,107.8927362,0,90.61238589,0,-80.14745123,153.2888797,0,54.98117663,23.24969094,0,0,,,,
531.9759996,2078,0,-230.6139696,0,-132.0590834,-13.93387412,17.42319658,0,17.16605572,0,-2.478050077,-286.1830756,0,-75.61879411,-34.79060806,0,0,,,,
531.9839996,2078,0,62.64140058,0,-65.94181323,-78.55014503,0.314665206,0,-17.14611635,0,-83.52455912,267.3642698,0,114.3776999,25.57867087,0,0,,,,
531.9919996,2078,0,-357.4787497,0,-203.4158723,59.89143167,111.7654353,0,103.6754424,0,-20.84376267,-194.2531652,0,-67.61951728,-2.208193735,0,0,,,,
531.9999996,2078,0,24.89947849,0,-42.10855033,-114.0532959,-69.0772847,0,-75.45763786,0,-42.40058749,7.43358468,0,38.68107589,5.894853266,0,0,,,,
532.0079996,2078,0,-152.3010754,0,-142.8874132,-0.493618973,86.49997052,0,65.53678126,0,-86.93867961,137.8611723,0,42.69488543,32.70946455,0,0,,,,
532.0159996,2078,0,-243.4780209,0,-132.0588113,-17.86200433,10.57265121,0,7.725285823,0,-6.388218276,-298.5017726,0,-83.47140412,-21.07008074,0,0,,,,
532.0239996,2078,0,47.9229604,0,-57.98709353,-75.16889731,6.751540244,0,-15.48640638,0,-76.06512945,255.242542,0,108.7300917,33.96680154,0,0,,,,
532.0319996,2078,0,-360.644944,0,-186.3357847,50.40864056,108.3895649,0,90.63123057,0,-17.5954236,-206.7551757,0,-73.48540495,-4.878935637,0,0,,,,
532.0399996,2078,0,30.192149,0,-34.82080288,-111.6885491,-66.03392446,0,-86.49233514,0,-45.48348304,4.045640007,0,39.53517024,8.112722312,0,0,,,,
532.0479996,2078,0,-146.5982259,0,-141.9515414,15.77311236,105.0906923,0,67.53759145,0,-84.89486134,131.1454182,0,43.80838061,36.40373752,0,0,,,,
532.0559996,2078,0,-216.8337211,0,-121.714681,-20.59587233,16.16197209,0,-1.028512157,0,-5.656776006,-296.4297165,0,-76.76063051,-15.9414971,0,0,,,,
532.0639996,2078,0,91.58824777,0,-52.71542032,-88.79581755,2.906859925,0,-30.12920716,0,-83.96967182,275.0847475,0,121.1558661,47.64811632,0,0,,,,
532.0719996,2078,0,-330.5537012,0,-190.0314842,42.53213464,107.4376362,0,85.44380988,0,-20.75784275,-192.906809,0,-72.29255497,4.313852739,0,0,,,,
532.0799996,2078,0,45.56440691,0,-37.2541355,-120.2745778,-66.57036553,0,-76.7406112,0,-35.14030687,12.07903378,0,37.4955879,7.284092521,0,0,,,,
532.0879996,2078,0,-132.1160528,0,-148.7499088,8.407064323,106.639409,0,83.4977423,0,-72.59414648,147.1805053,0,49.61237403,35.36726915,0,0,,,,
532.0959996,2078,0,-194.4251733,0,-111.74567,-35.51200092,0.855517296,0,-7.55635805,0,3.499879872,-282.9230355,0,-73.63418319,-18.26259337,0,0,,,,
532.1039996,2078,0,106.6896669,0,-32.11758589,-95.24892648,-9.284990972,0,-28.3402503,0,-80.71324932,274.0229291,0,121.5854424,40.42389123,0,0,,,,
532.1119996,2078,0,-319.1716275,0,-179.4039707,46.88273245,105.8021993,0,107.7290093,0,-15.90374731,-194.784435,0,-62.61970289,-0.389881486,0,0,,,,
532.1199996,2078,0,79.95477549,0,-4.594182884,-145.4793994,-104.4193941,0,-90.25235385,0,-41.8074927,19.58744656,0,50.9074669,12.05826645,0,0,,,,
532.1279996,2078,0,-105.3456079,0,-116.0941451,-12.18950212,71.55133455,0,68.42704145,0,-106.8328943,147.0319895,0,49.23599851,36.04523226,0,0,,,,
532.1359996,2078,0,-189.2059394,0,-108.1280432,-34.77891644,-10.02503176,0,4.920941541,0,-26.75873926,-289.7346625,0,-83.39220979,-26.22026158,0,0,,,,
532.1439996,2078,0,122.6881638,0,-17.57717906,-118.2039733,-47.08527632,0,-42.84242253,0,-109.3271559,275.3274961,0,113.8591607,40.6229347,0,0,,,,
532.1519996,2078,0,-291.2993916,0,-151.8310715,29.63797597,73.4615385,0,89.18926654,0,-54.16057792,-188.576853,0,-70.05802468,1.79536358,0,0,,,,
532.1599996,2078,0,100.8617982,0,4.272702193,-130.0614203,-96.69345411,0,-70.49463546,0,-51.0620962,27.42534568,0,48.29172,7.486333389,0,0,,,,
532.1679996,2078,0,-80.25051271,0,-106.0061949,-8.955223084,67.26695201,0,84.31640232,0,-84.3435454,156.4612196,0,55.9900835,34.18640991,0,0,,,,
532.1759996,2078,0,-166.5213717,0,-100.0003387,-27.43440783,-12.35931118,0,21.28128328,0,-4.898285369,-276.9743406,0,-67.14402034,-21.7826387,0,0,,,,
532.1839996,2078,0,113.3045588,0,-50.83541974,-77.36183588,-11.01325646,0,4.242841795,0,-71.05013145,274.0072674,0,127.187613,36.83390824,0,0,,,,
532.1919996,2078,0,-295.4705864,0,-187.2499908,53.62668514,91.92576954,0,116.5091033,0,-5.062499202,-202.5370174,0,-67.42639086,-5.00247064,0,0,,,,
532.1999996,2078,0,114.5581647,0,-12.42931098,-120.5631359,-99.28004495,0,-72.09307906,0,-35.76218545,19.39858834,0,49.47211109,18.42184338,0,0,,,,
532.2079996,2078,0,-80.71780505,0,-139.7820597,15.70719267,75.03314076,0,90.76706242,0,-82.45281478,135.4536658,0,50.87228759,43.51965472,0,0,,,,
532.2159996,2078,0,-157.1810623,0,-126.9950889,-13.07287449,-17.97561632,0,25.10158247,0,0.127591973,-299.0245755,0,-76.90068481,-19.67159031,0,0,,,,
532.2239996,2079,0,134.903365,0,-57.78699171,-68.43219844,-23.71312649,0,2.216979571,0,-80.08883993,271.2000465,0,124.8318107,49.30659287,0,0,,,,
532.2319996,2079,0,-305.60152,0,-219.956323,84.25204755,101.7420294,0,133.5696567,0,-11.0037506,-210.4633864,0,-69.14847509,-2.022345913,0,0,,,,
532.2399996,2079,0,75.92383966,0,-69.2881811,-82.71443785,-73.89661559,0,-34.76459097,0,-19.85639609,1.624106817,0,43.52346706,4.672370497,0,0,,,,
532.2479996,2079,0,-106.7377065,0,-176.9392842,29.37947179,92.47698388,0,114.1502648,0,-59.54512809,129.2970039,0,52.52396952,41.05239775,0,0,,,,
532.2559996,2079,0,-173.415191,0,-151.7828332,-17.75667846,-13.00491039,0,26.82150327,0,14.13033454,-300.090231,0,-74.45080698,-15.42112954,0,0,,,,
532.2639996,2079,0,117.6809709,0,-76.05071149,-79.6364126,-28.99623733,0,-4.276967376,0,-77.90337641,268.3154857,0,123.0570767,53.86821211,0,0,,,,
532.2719996,2079,0,-305.8716052,0,-210.1068002,60.57070138,94.9643874,0,118.4890017,0,-15.68295186,-201.6602649,0,-63.32840018,14.9394478,0,0,,,,
532.2799996,2079,0,85.88234931,0,-35.4900382,-102.3516941,-73.64578439,0,-49.86665158,0,-21.86409717,5.344035562,0,44.78920319,21.15540106,0,0,,,,
532.2879996,2079,0,-93.42024747,0,-130.2235849,21.33265979,86.1839858,0,98.83005933,0,-62.27692101,125.9609675,0,48.1622368,55.51543482,0,0,,,,
532.2959996,2079,0,-147.0085097,0,-99.4368916,-31.70207966,-25.08892235,0,6.794188181,0,9.801296726,-291.5520192,0,-75.21803526,0.55091084,0,0,,,,
532.3039996,2079,0,148.8690385,0,-23.80079796,-98.5636683,-31.80679692,0,-18.88277611,0,-80.60037653,279.9710786,0,118.0347767,67.48919413,0,0,,,,
532.3119996,2079,0,-280.0601433,0,-171.0133084,43.78981384,90.60709555,0,108.2845405,0,-11.65496953,-193.2757067,0,-69.12494292,29.42255704,0,0,,,,
532.3199996,2079,0,101.042615,0,-24.02276023,-121.2579454,-89.47839727,0,-68.54240623,0,-14.52048498,6.709879454,0,39.1840561,29.72510617,0,0,,,,
532.3279996,2079,0,-92.0961857,0,-137.1572397,6.043511233,77.42110065,0,79.25032934,0,-58.52838823,118.2485253,0,39.54397928,58.53511437,0,0,,,,
532.3359996,2079,0,-165.9833855,0,-124.9654101,-25.18072383,-8.017315951,0,6.329968715,0,23.55210518,-308.1084296,0,-81.66040162,0.023023556,0,0,,,,
532.3439996,2079,0,104.0307295,0,-75.85127535,-69.14386887,5.032794109,0,-1.659348008,0,-46.34262436,244.3932251,0,109.7628787,55.5142444,0,0,,,,
532.3519996,2079,0,-311.7454196,0,-210.9350816,64.40614999,112.3171996,0,117.8428527,0,26.9917014,-228.8370692,0,-76.80073084,18.25368553,0,0,,,,
532.3599996,2079,0,103.7484241,0,-33.16135721,-117.0282463,-85.41825402,0,-69.5758976,0,5.403799969,-8.037724794,0,40.34354526,31.34804716,0,0,,,,
532.3679996,2079,0,-92.13626235,0,-152.5592726,21.03509927,100.0955764,0,95.63187791,0,-43.89247439,106.1141314,0,42.54633828,57.37125629,0,0,,,,
532.3759996,2079,0,-161.9761607,0,-140.3243423,-14.98962572,10.75762003,0,23.8837978,0,46.86920425,-319.4064345,0,-77.56659161,-4.420207321,0,0,,,,
532.3839996,2079,0,147.5723108,0,-55.94638176,-95.41527366,-17.17784573,0,-21.58406205,0,-38.74021613,240.6218716,0,118.72662,59.59151335,0,0,,,,
532.3919996,2079,0,-259.4558523,0,-172.7225606,37.37007638,94.41247003,0,91.21275898,0,7.556233853,-219.2498173,0,-64.55325982,28.24761483,0,0,,,,
532.3999996,2079,0,132.2436156,0,2.678533768,-120.4477843,-80.25010095,0,-78.15804421,0,-1.91675076,23.03415976,0,56.58269469,43.73574223,0,0,,,,
532.4079996,2079,0,-74.56678607,0,-120.7560916,19.89467825,100.4740857,0,87.26822102,0,-29.73275823,145.6828995,0,59.6479707,71.24613069,0,0,,,,
532.4159996,2079,0,-161.0232673,0,-123.9557667,-5.761683037,22.76203626,0,26.72345306,0,57.14037923,-286.4493587,0,-67.2430242,6.207629486,0,0,,,,
532.4239996,2079,0,127.2804214,0,-50.66752273,-76.7701252,-0.838120588,0,-9.868083494,0,-21.49935157,260.5380867,0,121.9025763,64.20891384,0,0,,,,
532.4319996,2079,0,-283.4746921,0,-184.9503917,55.02315934,103.5563247,0,102.4947936,0,24.81292792,-209.7010811,0,-63.01407139,28.40518987,0,0,,,,
532.4399996,2079,0,103.8278369,0,-42.44930707,-97.45312298,-62.80567708,0,-52.83563049,0,12.44821127,5.429807878,0,47.8977423,29.86864122,0,0,,,,
532.4479996,2079,0,-85.3448655,0,-149.4482661,17.67766902,90.93277079,0,95.15130748,0,-13.21071528,109.1923428,0,43.44722339,55.49400004,0,0,,,,
532.4559996,2079,0,-133.6054054,0,-104.0317335,-48.36489437,-23.27694349,0,-4.20213585,0,44.80592585,-295.3511754,0,-73.42937587,9.192099788,0,0,,,,
532.4639996,2079,0,147.0951848,0,-38.44567904,-105.1841865,-25.65237694,0,-25.99371294,0,-47.09575241,260.717328,0,116.0749704,64.50152593,0,0,,,,
532.4719996,2079,0,-278.1964719,0,-189.2245543,49.17107467,99.0440342,0,106.1314505,0,24.105469,-223.2458128,0,-76.85007306,18.30663996,0,0,,,,
532.4799996,2080,0,116.4387798,0,-34.78869527,-115.5254053,-72.90989405,0,-64.11352822,0,10.81811641,-0.66796613,0,39.11475488,28.16422993,0,0,,,,
532.4879996,2080,0,-84.84388547,0,-155.1634212,14.79142127,99.40191394,0,92.21114127,0,-22.11785932,98.01092025,0,39.39597004,51.7330053,0,0,,,,
532.4959996,2080,0,-155.1419377,0,-145.2725244,-13.81559661,9.024949405,0,21.52097699,0,60.727765,-320.9346038,0,-80.07852444,-4.939616144,0,0,,,,
532.5039996,2080,0,118.2138721,0,-90.25642293,-76.58389329,-1.084343349,0,-4.324006645,0,-26.11742868,233.2714147,0,109.8266871,57.24456733,0,0,,,,
532.5119996,2080,0,-292.2990815,0,-219.1656362,50.50680476,104.7771016,0,104.0711301,0,38.6225358,-249.5876328,0,-77.83559679,20.07807647,0,0,,,,
532.5199996,2080,0,104.6432589,0,-54.64639385,-116.5795423,-65.87313518,0,-65.23776889,0,24.97033868,-14.5680326,0,46.34663766,38.83578542,0,0,,,,
532.5279996,2080,0,-113.7482808,0,-186.9236258,16.12796012,120.6820619,0,96.93596675,0,-14.78192058,88.30597604,0,44.33577149,64.8806124,0,0,,,,
532.5359996,2080,0,-176.1079995,0,-170.0639761,-28.72820746,20.59274745,0,6.209990632,0,84.59605039,-337.9562786,0,-82.57002588,0.485351288,0,0,,,,
532.5439996,2080,0,118.6403571,0,-85.77714818,-105.843387,-19.39862911,0,-35.2593529,0,-7.363186991,223.2675125,0,111.4131342,68.56339508,0,0,,,,
532.5519996,2080,0,-291.5091482,0,-212.6047847,36.71556585,87.98851336,0,87.26210103,0,24.80629091,-257.852527,0,-78.10583292,31.09242256,0,0,,,,
532.5599996,2080,0,96.15938481,0,-68.18428326,-104.8398874,-61.64446024,0,-66.32103582,0,21.679899,-31.52594316,0,35.78570953,34.12083901,0,0,,,,
532.5679996,2080,0,-109.3005157,0,-183.1717015,26.34785316,110.8922488,0,89.08556913,0,-4.745014632,73.33298031,0,34.98685363,56.95895993,0,0,,,,
532.5759996,2080,0,-156.1416988,0,-132.2387538,-26.64469271,0.278269895,0,-7.482599951,0,71.05598316,-344.5988213,0,-84.56055018,1.554899526,0,0,,,,
532.5839996,2080,0,112.8423041,0,-60.94203249,-81.43740731,1.054883076,0,-25.52921589,0,-13.09616913,214.0848481,0,107.8710494,66.18188447,0,0,,,,
532.5919996,2080,0,-314.9399927,0,-205.8910455,62.90522415,116.6014643,0,98.24065652,0,51.18034097,-263.1075544,0,-80.54117135,22.8565967,0,0,,,,
532.5999996,2080,0,82.06014013,0,-46.36361479,-109.4992246,-66.75540006,0,-82.30302658,0,35.88296408,-28.65085997,0,38.8550728,33.82756629,0,0,,,,
532.6079996,2080,0,-129.6663617,0,-168.9928132,20.75245343,108.3981333,0,80.67671412,0,-4.859484965,66.14630441,0,37.55192313,54.91530474,0,0,,,,
532.6159996,2080,0,-167.0933329,0,-136.1499866,-27.87498275,2.18298252,0,-9.879998841,0,75.36707617,-345.927181,0,-78.0551068,-4.298951781,0,0,,,,
532.6239996,2080,0,134.6988178,0,-45.96760593,-108.1550426,-21.1888911,0,-57.32706812,0,-13.59833324,225.4481143,0,120.8461482,68.35194994,0,0,,,,
532.6319996,2080,0,-284.2606989,0,-176.1213647,26.48562694,89.80597845,0,56.90813766,0,40.28447666,-254.131273,0,-63.11892438,25.62020058,0,0,,,,
532.6399996,2080,0,102.2035281,0,-24.24764091,-128.7018493,-82.04259784,0,-109.5439078,0,17.6763404,-22.50517115,0,55.97348356,25.55827819,0,0,,,,
532.6479996,2080,0,-113.7599341,0,-146.583362,0.197033276,87.00749292,0,53.71220689,0,-16.00151253,66.08752046,0,48.63457399,39.60958151,0,0,,,,
532.6559996,2080,0,-176.4119195,0,-131.3359957,-38.19520673,-0.621504436,0,-14.59409006,0,76.41222016,-351.2514344,0,-72.91688836,-23.94408882,0,0,,,,
532.6639996,2080,0,92.66577435,0,-70.54105532,-94.14746173,-3.574170545,0,-36.27844591,0,-4.091220428,209.9235469,0,118.548383,39.07227701,0,0,,,,
532.6719996,2080,0,-321.5335895,0,-199.2718315,25.54819807,85.88725605,0,66.18164549,0,50.53600111,-274.4993302,0,-65.55804551,-5.010920122,0,0,,,,
532.6799996,2080,0,72.43752041,0,-40.17038203,-139.2490937,-88.90718879,0,-101.3230308,0,21.67242812,-36.51209255,0,59.89318416,4.112400088,0,0,,,,
532.6879996,2080,0,-129.9034957,0,-145.388075,-2.96951411,81.90651888,0,61.31525139,0,-10.86271644,57.02138217,0,55.78519076,26.41391791,0,0,,,,
532.6959996,2080,0,-158.2156464,0,-94.35539499,-45.21308259,-18.63437609,0,-14.04520006,0,83.68359282,-340.0773045,0,-58.76902758,-26.42378341,0,0,,,,
532.7039996,2080,0,107.8131401,0,-34.92735507,-79.99438764,4.835760561,0,-7.147114196,0,0.999731627,235.1703784,0,134.0247731,42.96840651,0,0,,,,
532.7119996,2080,0,-326.8092103,0,-190.9913084,62.46910242,119.1976195,0,119.6346986,0,71.67967543,-264.2913686,0,-62.58803421,-11.58698974,0,0,,,,
532.7199996,2080,0,64.71095547,0,-42.10779665,-110.8790044,-59.17033969,0,-49.14959091,0,56.32503382,-37.97072487,0,56.13124557,-5.752849596,0,0,,,,
532.7279996,2080,0,-146.7201513,0,-161.1697609,17.75497335,113.8759297,0,106.87032,0,7.951667174,52.40467404,0,50.66260114,25.74772762,0,0,,,,
532.7359996,2081,0,-187.9890755,0,-133.6974519,-30.28209272,0.201129997,0,11.63107091,0,87.19003185,-356.1554895,0,-67.57045763,-30.13162593,0,0,,,,
532.7439996,2081,0,84.90159756,0,-67.48004941,-87.72913795,-9.842114705,0,-11.9430211,0,-4.333788797,211.2775867,0,128.2497547,36.23127018,0,0,,,,
532.7519996,2081,0,-323.8304125,0,-196.5013453,44.64380818,94.97502521,0,98.15674896,0,51.70166347,-273.2171965,0,-62.37411497,-10.43757988,0,0,,,,
532.7599996,2081,0,72.45012905,0,-51.09959538,-106.2609016,-63.21502961,0,-59.52234384,0,38.66426996,-36.12523951,0,53.34062943,-8.077527522,0,0,,,,
532.7679996,2081,0,-143.4131888,0,-173.7950169,20.79057637,104.2384634,0,95.87001627,0,5.469944973,51.49909101,0,45.55958488,13.56374703,0,0,,,,
532.7759996,2081,0,-182.9765252,0,-138.5537717,-42.73331869,-16.40210475,0,-4.694056923,0,79.0673628,-349.8932385,0,-68.7749986,-42.70457524,0,0,,,,
532.7839996,2081,0,79.02653208,0,-83.34431362,-85.59750012,-8.560974746,0,-16.88225507,0,-17.51344336,210.8931921,0,124.2506188,19.89849032,0,0,,,,
532.7919996,2081,0,-329.2708891,0,-212.8215399,45.83158799,84.57162013,0,81.12308125,0,40.68683883,-275.8921817,0,-63.47133058,-24.10902241,0,0,,,,
532.7999996,2081,0,66.7623908,0,-58.43668861,-121.2096858,-90.97988973,0,-89.48242555,0,15.70793687,-27.73990444,0,57.18267308,-10.01427713,0,0,,,,
532.8079996,2081,0,-148.9429059,0,-177.135402,14.75924408,88.82289664,0,80.12804011,0,-20.21004928,56.98374777,0,44.71650964,17.3030743,0,0,,,,
532.8159996,2081,0,-166.0446542,0,-135.5310818,-39.43528112,-23.3112124,0,-19.36544643,0,64.83990879,-335.5233356,0,-66.67428032,-29.93838172,0,0,,,,
532.8239996,2081,0,102.793256,0,-85.26450414,-86.91281855,-13.7877944,0,-33.23222026,0,-26.21880895,233.3922681,0,128.800095,37.81553094,0,0,,,,
532.8319996,2081,0,-316.3439377,0,-222.1713922,49.49928042,90.29942957,0,83.80975416,0,33.47140127,-262.4023406,0,-62.51947991,-11.67676969,0,0,,,,
532.8399996,2081,0,83.16582698,0,-58.10713615,-120.4258186,-96.93876832,0,-96.71858602,0,11.49183089,-25.86844784,0,58.66311342,-5.752540083,0,0,,,,
532.8479996,2081,0,-129.7270867,0,-169.2274911,3.595174293,65.53382412,0,52.12859259,0,-30.74212421,54.60009307,0,48.99993302,15.1206257,0,0,,,,
532.8559996,2081,0,-162.6933991,0,-136.4425412,-44.09427617,-35.9145761,0,-32.23204263,0,51.05714611,-343.0180575,0,-67.10648176,-41.69513679,0,0,,,,
532.8639996,2081,0,95.31829488,0,-90.44631104,-82.78509374,-18.15690423,0,-37.15101342,0,-30.22438396,201.8458622,0,115.8088141,11.26880734,0,0,,,,
532.8719996,2081,0,-319.6329609,0,-217.8218645,56.07987705,91.22548508,0,77.76927053,0,33.90449815,-296.1556089,0,-74.8565318,-37.54291629,0,0,,,,
532.8799996,2081,0,74.0776594,0,-48.38290613,-102.547889,-81.11340962,0,-82.88892953,0,19.99153296,-43.52432477,0,53.12401503,-23.3953719,0,0,,,,
532.8879996,2081,0,-146.6425539,0,-161.9571642,23.91125427,83.64074213,0,74.39883135,0,-17.29332694,38.76435054,0,44.29608413,0.224132809,0,0,,,,
532.8959996,2081,0,-176.4421557,0,-123.3299302,-40.14111517,-34.21031314,0,-28.32704811,0,57.66987947,-351.3054962,0,-66.99591529,-51.72624706,0,0,,,,
532.9039996,2081,0,71.98469783,0,-80.4599081,-78.2425145,-14.60670075,0,-28.42943503,0,-18.16905177,198.7883658,0,118.7227433,5.360183758,0,0,,,,
532.9119996,2081,0,-345.2743347,0,-222.2169916,60.76708782,99.90347736,0,88.82124369,0,55.20691579,-290.6173486,0,-72.55579255,-38.34993521,0,0,,,,
532.9199996,2081,0,61.77287951,0,-52.62730213,-121.568053,-91.64830348,0,-98.87666758,0,40.04145804,-27.91471239,0,52.12883614,-22.23368803,0,0,,,,
532.9279996,2081,0,-156.7148441,0,-166.7229751,4.223004854,75.53614989,0,63.90120084,0,0.280172573,47.6668498,0,38.30776714,-1.52758226,0,0,,,,
532.9359996,2081,0,-181.0146795,0,-135.7690153,-42.77477479,-27.04988315,0,-16.80628115,0,71.2462714,-340.0462955,0,-71.33582833,-50.51378571,0,0,,,,
532.9439996,2081,0,81.18471516,0,-85.63409519,-84.90588839,-20.37079249,0,-27.62700583,0,-7.189578498,209.9582143,0,113.2590517,8.109173327,0,0,,,,
532.9519996,2081,0,-332.0409571,0,-219.9157866,54.17236835,88.45472082,0,88.14550775,0,65.68869139,-287.4328926,0,-81.52276602,-37.99752364,0,0,,,,
532.9599996,2081,0,60.2269976,0,-66.41190956,-109.0245956,-81.27161761,0,-75.81304058,0,52.64924762,-25.54486061,0,43.29403615,-21.56708989,0,0,,,,
532.9679996,2081,0,-171.4431686,0,-195.2332068,26.43103031,96.21795822,0,90.84916021,0,24.15545428,39.96613047,0,26.37946573,-5.066793125,0,0,,,,
532.9759996,2081,0,-188.5621982,0,-156.8107084,-28.92966141,-16.3639334,0,-3.740356723,0,92.95918048,-349.7598956,0,-82.93227793,-51.81584769,0,0,,,,
532.9839996,2081,0,80.52361986,0,-96.68151721,-82.86636767,-14.03025578,0,-17.36606314,0,2.540799278,208.4678599,0,107.0143854,17.44820866,0,0,,,,
532.9919996,2082,0,-330.3293628,0,-228.0035849,50.72333403,94.26178595,0,94.73771576,0,75.17532752,-287.9308694,0,-82.89284574,-24.40875903,0,0,,,,
532.9999996,2082,0,77.88561819,0,-60.37605908,-117.3656121,-92.16193054,0,-88.75717472,0,57.34723318,-25.53900316,0,46.28069789,-2.580018854,0,0,,,,
533.0079996,2082,0,-152.8152199,0,-186.6870183,28.49411012,87.67897234,0,82.07767975,0,21.42569768,43.12369751,0,34.33107376,18.28789457,0,0,,,,
533.0159996,2082,0,-196.2777396,0,-159.0493978,-6.725828007,1.972860722,0,8.260243485,0,102.1352323,-341.2137202,0,-71.019734,-35.32227839,0,0,,,,
533.0239996,2082,0,56.26640718,0,-92.16675826,-57.69946044,-2.134043469,0,-14.9202379,0,29.6815079,213.0039026,0,113.7071966,24.10408796,0,0,,,,
533.0319996,2082,0,-348.958827,0,-221.0614729,66.79391321,83.5978305,0,84.53750722,0,95.06248394,-287.3701365,0,-83.33861746,-23.50029931,0,0,,,,
533.0399996,2082,0,66.62704279,0,-48.1326082,-120.1723727,-107.9648776,0,-105.9989548,0,53.57995668,-17.1584389,0,47.91048216,-1.328180357,0,0,,,,
533.0479996,2082,0,-165.3035697,0,-166.7927705,17.82285279,74.71985066,0,57.7125874,0,8.363370977,51.48273608,0,38.56783634,22.68239278,0,0,,,,
533.0559996,2082,0,-199.1472931,0,-154.5975682,-12.92238514,-7.440040421,0,-9.28446484,0,96.28685984,-340.9171731,0,-69.92543876,-31.69190964,0,0,,,,
533.0639996,2082,0,60.54829547,0,-105.4822655,-68.08064491,-7.048524414,0,-26.61681382,0,20.18125741,204.7247356,0,111.4751977,25.24191125,0,0,,,,
533.0719996,2082,0,-344.7935179,0,-231.6792491,55.17609955,85.00016663,0,70.56798205,0,85.0652152,-298.4448105,0,-83.9032925,-24.54191085,0,0,,,,
533.0799996,2082,0,65.17524128,0,-64.35614657,-113.4150446,-91.74070887,0,-107.9930916,0,63.33551313,-25.48090236,0,48.45901008,-1.423823884,0,0,,,,
533.0879996,2082,0,-175.4793891,0,-191.3266535,28.34091623,88.72047592,0,60.5121973,0,26.44744,38.29074383,0,31.54417627,23.76732116,0,0,,,,
533.0959996,2082,0,-205.303683,0,-155.8285087,-25.51651212,-23.91261205,0,-30.3326137,0,107.9766214,-348.7268906,0,-79.30654909,-29.99271286,0,0,,,,
533.1039996,2082,0,42.10306598,0,-99.40054906,-70.57369738,-20.66670145,0,-44.08324354,0,18.24376046,209.1930315,0,109.1962787,31.05508959,0,0,,,,
533.1119996,2082,0,-359.4407238,0,-223.9338159,67.12155681,85.62309171,0,70.77064386,0,81.66698397,-286.6507311,0,-82.16244418,-14.12883101,0,0,,,,
533.1199996,2082,0,69.08701163,0,-49.09066864,-105.1081704,-94.37192674,0,-107.1277101,0,70.09237494,3.579621183,0,50.45300474,8.773546817,0,0,,,,
533.1279996,2082,0,-182.5447367,0,-197.0640162,50.04906155,102.377855,0,72.84128637,0,37.68440884,69.16141787,0,29.10413256,19.83346367,0,0,,,,
533.1359996,2082,0,-194.8872871,0,-149.5260069,-27.23723914,-17.42626955,0,-34.73950695,0,127.7459068,-328.2327626,0,-79.49220151,-37.10905923,0,0,,,,
533.1439996,2082,0,83.89108162,0,-56.58952495,-117.1191558,-42.89261256,0,-87.97927857,0,30.43033698,240.2310871,0,118.3801753,45.96503612,0,0,,,,
533.1519996,2082,0,-337.4894213,0,-202.1161207,39.11214036,80.1512519,0,40.74690009,0,77.26312473,-260.5878972,0,-77.58207414,0.587771557,0,0,,,,
533.1599996,2082,0,78.79835966,0,-36.113173,-118.7702775,-100.0213048,0,-127.0853185,0,66.30028358,-4.164987087,0,47.91666298,6.946289917,0,0,,,,
533.1679996,2082,0,-150.4815444,0,-142.8251544,16.64908838,58.96167952,0,25.63209909,0,25.69212452,51.18797051,0,32.19930662,23.90365409,0,0,,,,
533.1759996,2082,0,-183.3953468,0,-106.3693799,-12.6276957,-29.00787924,0,-43.42418141,0,104.9698076,-337.3857416,0,-76.43571022,-33.61626904,0,0,,,,
533.1839996,2082,0,65.53959651,0,-37.96090158,-54.43706154,-15.55235554,0,-49.02984031,0,33.54525006,216.1153913,0,111.9500687,30.45462202,0,0,,,,
533.1919996,2082,0,-343.8166973,0,-166.2800648,70.98174663,82.42969417,0,54.94373644,0,94.09214496,-293.5213972,0,-86.55741512,-20.07661805,0,0,,,,
533.1999996,2082,0,67.1390961,0,1.803409371,-105.6713566,-95.76881817,0,-125.7110499,0,60.98330774,-22.01378525,0,38.31524542,-3.383342677,0,0,,,,
533.2079996,2082,0,-172.575137,0,-113.2613913,29.73862135,78.26006546,0,28.6577846,0,19.98860875,38.01100161,0,19.06010797,21.70837641,0,0,,,,
533.2159996,2082,0,-198.0520898,0,-86.55932226,-16.36506413,-27.13472932,0,-56.76142135,0,107.5174081,-348.5012222,0,-90.38798689,-36.21162869,0,0,,,,
533.2239996,2082,0,53.53567147,0,-22.18234969,-72.12827996,-32.4937414,0,-71.64561704,0,26.95094613,212.0923775,0,99.06206176,26.46429389,0,0,,,,
533.2319996,2082,0,-339.562794,0,-134.7492387,46.50494714,57.04108604,0,22.72182654,0,80.38428993,-284.2546673,0,-92.3690016,-17.2683965,0,0,,,,
533.2399996,2082,0,76.30050914,0,18.96092162,-114.6277745,-102.4545124,0,-146.827277,0,57.6472624,-3.216473061,0,34.31621139,-6.274352403,0,0,,,,
533.2479996,2083,0,-174.9119649,0,-123.2570095,40.25336398,92.12897853,0,35.56470333,0,39.76054346,52.2384054,0,12.98532841,2.36060003,0,0,,,,
533.2559996,2083,0,-196.4269372,0,-95.06570652,1.542785767,-15.33785472,0,-50.23068452,0,133.1696178,-336.0871757,0,-89.31241272,-57.93184398,0,0,,,,
533.2639996,2083,0,52.00017058,0,-39.99001254,-40.76549527,-12.97828718,0,-67.59840342,0,44.52218953,215.8605949,0,96.59278038,3.819240842,0,0,,,,
533.2719996,2083,0,-352.2164964,0,-159.4889739,73.7547049,77.85818368,0,35.90832511,0,93.81245471,-284.6842423,0,-97.6111715,-37.20542474,0,0,,,,
533.2799996,2083,0,61.3723934,0,15.4567947,-116.6161181,-114.011278,0,-155.275648,0,47.84304853,-6.665071069,0,36.95321716,-17.86008619,0,0,,,,
533.2879996,2083,0,-177.2470608,0,-97.4043119,17.18171077,54.07473243,0,-2.571808111,0,-6.957951782,41.00642834,0,13.61819324,-5.231305391,0,0,,,,
533.2959996,2083,0,-196.5332852,0,-62.01567044,-22.18801397,-37.77352308,0,-71.20779623,0,73.57306745,-337.3624404,0,-90.69899906,-57.36631674,0,0,,,,
533.3039996,2083,0,32.62025962,0,-25.19129928,-65.57295905,-25.2612522,0,-70.39865953,0,-2.302902069,208.2274369,0,90.63707664,3.13411245,0,0,,,,
533.3119996,2083,0,-378.5870547,0,-158.324124,61.28478281,65.55596654,0,35.53836417,0,61.64997738,-305.6052498,0,-114.003269,-49.27812722,0,0,,,,
533.3199996,2083,0,27.24173544,0,4.665562892,-102.0912079,-104.2004991,0,-129.6446111,0,34.52193891,-22.53753478,0,17.61715887,-29.57592692,0,0,,,,
533.3279996,2083,0,-213.4808747,0,-109.7501924,19.94529203,56.35055738,0,19.69658958,0,-9.041090876,24.89473679,0,-7.073793547,-6.899969746,0,0,,,,
533.3359996,2083,0,-201.9746579,0,-43.16221561,-38.16487027,-59.43379843,0,-76.19585793,0,55.66458503,-347.4983594,0,-111.078951,-49.2446479,0,0,,,,
533.3439996,2083,0,56.55620362,0,30.81379588,-74.2608777,-47.82881904,0,-76.16484104,0,-32.99680559,204.6299635,0,77.25972687,17.68065017,0,0,,,,
533.3519996,2083,0,-349.963716,0,-95.35331634,44.07581243,39.93304415,0,27.48315332,0,23.83120083,-309.1355733,0,-123.73798,-28.7769208,0,0,,,,
533.3599996,2083,0,46.9935982,0,55.55891442,-116.5480206,-118.1654373,0,-123.4895282,0,0.565594161,-30.14095366,0,0.909084173,-10.96054737,0,0,,,,
533.3679996,2083,0,-209.3449179,0,-76.10801523,28.43264998,61.83987096,0,54.18114854,0,-12.60816038,0.610583502,0,-28.71564007,-2.275588841,0,0,,,,
533.3759996,2083,0,-225.8946874,0,-47.4904483,-28.06386642,-52.14016575,0,-39.54606895,0,64.99763652,-375.9894142,0,-131.8656276,-54.08923676,0,0,,,,
533.3839996,2083,0,9.904059952,0,-2.680508542,-64.72306249,-32.92927645,0,-35.35246955,0,-20.1052335,181.3394374,0,54.94362011,8.954147494,0,0,,,,
533.3919996,2083,0,-386.9872399,0,-124.2178582,58.70201849,58.01092933,0,74.42207563,0,64.96384219,-333.1652727,0,-137.9194746,-40.42024302,0,0,,,,
533.3999996,2083,0,22.26614334,0,28.69698916,-99.38154256,-107.7916287,0,-89.89903245,0,45.24347564,-46.7689642,0,5.113084915,-15.88439122,0,0,,,,
533.4079996,2083,0,-226.9725226,0,-99.58886032,49.34291786,72.05444526,0,75.82555667,0,15.15622733,-6.058223608,0,-14.48923708,0.597653858,0,0,,,,
533.4159996,2083,0,-231.9278335,0,-57.31630938,-10.55416505,-42.96931938,0,-20.41075136,0,100.6511656,-383.2217995,0,-116.7219291,-52.15852705,0,0,,,,
533.4239996,2083,0,-0.383217687,0,-15.74640285,-48.95709467,-22.70055594,0,-19.28286455,0,12.60109272,169.2953396,0,71.21826906,12.33342343,0,0,,,,
533.4319996,2083,0,-389.5342801,0,-134.7090467,72.16234787,65.42848025,0,77.76204321,0,79.56936235,-340.6488452,0,-121.0553209,-32.15329118,0,0,,,,
533.4399996,2083,0,40.51576159,0,32.17872067,-100.2904702,-110.6468309,0,-104.4423562,0,52.96095955,-53.0860111,0,15.86726469,-7.528588065,0,0,,,,
533.4479996,2083,0,-208.6424949,0,-100.5565864,45.00337498,74.96644507,0,60.75247452,0,17.33451369,-16.67174152,0,-6.459602706,10.36471881,0,0,,,,
533.4559996,2083,0,-208.1732609,0,-56.41093404,-16.02136632,-41.57497859,0,-37.41945131,0,105.0524525,-382.4838924,0,-101.4903723,-35.3348202,0,0,,,,
533.4639996,2083,0,32.88372647,0,-4.450078455,-60.44443369,-33.52512685,0,-47.87317989,0,22.3722857,176.9637118,0,86.0663902,29.78633921,0,0,,,,
533.4719996,2083,0,-382.2722349,0,-141.8929138,92.83587339,82.51231648,0,78.13355488,0,91.72372226,-338.2988464,0,-111.3489859,-25.91761335,0,0,,,,
533.4799996,2083,0,15.76291866,0,12.69821407,-57.09588993,-69.54643193,0,-76.73461699,0,92.62125682,-55.42490261,0,25.10688197,-13.21883536,0,0,,,,
533.4879996,2083,0,-227.1413083,0,-98.03156002,62.36289806,96.33656641,0,71.20543455,0,79.29320291,-14.01432949,0,2.480687876,3.07744823,0,0,,,,
533.4959996,2083,0,-221.4970925,0,-48.34248186,-0.683992781,-22.58933221,0,-24.8851886,0,152.6648401,-359.632757,0,-89.68387692,-35.57499382,0,0,,,,
533.5039996,2084,0,7.819509548,0,-3.990690914,-40.58362863,-10.90626687,0,-32.3463078,0,67.26712837,198.9566455,0,96.27906742,30.2509119,0,0,,,,
533.5119996,2084,0,-380.5924037,0,-122.294609,82.35441057,81.96322664,0,65.92685274,0,134.0644698,-314.2578568,0,-101.4414879,-22.10606638,0,0,,,,
533.5199996,2084,0,50.41965702,0,40.19959568,-67.61970198,-74.219628,0,-85.81050715,0,114.4232569,0.622681529,0,42.18042384,5.930985136,0,0,,,,
533.5279996,2084,0,-205.0744547,0,-91.9094202,85.40930858,105.5442127,0,85.53609636,0,101.0225896,40.68831184,0,17.2162684,21.76840255,0,0,,,,
533.5359996,2084,0,-200.3940909,0,-38.67333342,16.70464704,-28.08636641,0,-23.37253629,0,164.587263,-324.6821642,0,-77.70049489,-25.48896684,0,0,,,,
533.5439996,2084,0,36.30597357,0,12.83728195,-33.14545934,-22.5963547,0,-33.39892984,0,53.63122229,233.6381255,0,108.3367661,42.6531768,0,0,,,,
533.5519996,2084,0,-364.1069327,0,-118.1425264,97.02250441,83.40696607,0,74.77421463,0,124.7079554,-288.1389539,0,-94.14964559,-10.76774063,0,0,,,,
533.5599996,2084,0,70.47104442,0,51.82396959,-80.71295003,-89.16940759,0,-102.4975462,0,105.5019387,10.16226899,0,48.74428143,15.88831442,0,0,,,,
533.5679996,2084,0,-188.5166946,0,-86.06673106,61.994157,91.31110345,0,67.09243377,0,81.31294133,39.46162094,0,21.68441789,29.87924815,0,0,,,,
533.5759996,2084,0,-199.1045723,0,-60.46003195,20.68927468,-5.282719108,0,-11.69107817,0,174.3226943,-328.6670393,0,-75.46968474,-19.64336208,0,0,,,,
533.5839996,2084,0,39.43892192,0,-11.29789104,-30.38844023,9.220177274,0,-18.86958642,0,101.1223705,228.0981699,0,118.0713313,58.07252461,0,0,,,,
533.5919996,2084,0,-347.1390825,0,-126.878163,80.01158695,89.93948709,0,73.72563792,0,167.1337401,-286.2423521,0,-75.05445758,13.79014834,0,0,,,,
533.5999996,2084,0,83.7820133,0,36.6823966,-78.00039977,-79.10632394,0,-89.56619279,0,130.8607476,23.95509353,0,68.41197143,39.58675471,0,0,,,,
