Time:125Hz,Epoch,FP1,FP2,C3,C4,P7,P8,O1,O2,F7,F8,F3,F4,T7,T8,P3,P4,Event Id,,,
607.5999996,2373,0,-262.033603,0,315.9192308,44.72209263,62.75478551,0,60.28531848,0,129.8295879,-291.5750091,0,-71.92475365,0.327746916,0,0,1111,,,
607.6079996,2373,0,-46.41278134,0,364.236269,-18.15744123,40.30104268,0,29.28288575,0,66.63282753,115.2420497,0,88.70039632,18.09310619,0,0,,,,
607.6159996,2373,0,-316.6988208,0,253.4849896,93.64836205,132.0200692,0,120.550115,0,105.6564136,-230.6248048,0,-67.44983098,18.76547425,0,0,,,,
607.6239996,2373,0,-93.24370038,0,330.3763356,-4.475030804,20.64725702,0,12.97346999,0,79.53014275,-78.31626953,0,25.53922795,-7.930217899,0,0,,,,
607.6319996,2373,0,-154.55578,0,274.3914039,60.31769349,121.8723177,0,104.8375662,0,77.4002467,-1.924545263,0,28.31656068,17.91398458,0,0,,,,
607.6399996,2373,0,-234.3430446,0,293.5207677,19.28387618,44.20357427,0,32.40056635,0,95.60725261,-285.8969987,0,-60.70256206,6.782100707,0,0,,,,
607.6479996,2373,0,-26.22310284,0,338.8934961,-20.49110577,46.78380143,0,22.11302948,0,43.13221053,121.8373862,0,90.10329711,24.81513897,0,0,,,,
607.6559996,2373,0,-288.6882399,0,250.6679063,71.4950388,115.2501338,0,88.60093229,0,89.58272599,-227.1489541,0,-69.82352702,22.79677786,0,0,,,,
607.6639996,2373,0,-69.50262174,0,353.0819497,-51.44330416,-15.5302211,0,-43.1586015,0,45.13013991,-56.87123854,0,28.72817545,4.556184353,0,0,,,,
607.6719996,2373,0,-156.2694618,0,274.56829,48.54389803,115.3423549,0,84.74116549,0,53.75321867,7.794965038,0,24.64274504,23.99385703,0,0,,,,
607.6799996,2373,0,-239.6725033,0,273.4992229,27.74510004,51.85103386,0,31.09228371,0,104.7870903,-290.3213368,0,-66.82108732,-3.03368516,0,0,,,,
607.6879996,2373,0,-21.59154623,0,336.8579519,-42.73817507,29.02862542,0,-9.267077992,0,49.33932832,127.9828822,0,90.33810727,23.40089026,0,0,,,,
607.6959996,2373,0,-290.2384068,0,243.6608645,54.41109792,105.0667436,0,73.42868137,0,82.66866302,-219.0717149,0,-68.65032982,30.71777136,0,0,,,,
607.7039996,2373,0,-70.01807258,0,338.7860629,-58.47394457,-15.12181887,0,-38.75123244,0,49.34956802,-52.87693279,0,28.37902708,10.864389,0,0,,,,
607.7119996,2373,0,-141.7294454,0,285.7339458,18.55551943,89.54969336,0,56.46608959,0,42.33740086,17.54485461,0,22.82111292,36.34676427,0,0,,,,
607.7199996,2373,0,-220.8436002,0,285.689905,6.039309092,30.58431259,0,3.838510054,0,66.14469548,-278.335441,0,-70.08697346,7.726059187,0,0,,,,
607.7279996,2373,0,1.120217937,0,346.2016806,-49.57291039,24.79746143,0,-16.74100786,0,13.80573893,126.4523392,0,89.00045387,22.99180144,0,0,,,,
607.7359996,2373,0,-270.1581333,0,260.976634,60.81376741,111.7757832,0,73.93307607,0,48.81428514,-226.1723903,0,-62.38896205,24.88405639,0,0,,,,
607.7439996,2374,0,-63.28803901,0,356.1816993,-32.85533835,5.881669675,0,-29.23053358,0,28.89182562,-54.21671282,0,39.97045455,4.15454119,0,0,,,,
607.7519996,2374,0,-134.6388379,0,314.3372485,31.07279152,102.3403741,0,55.18746472,0,29.86783131,22.65852561,0,35.3836122,36.00690189,0,0,,,,
607.7599996,2374,0,-212.9812335,0,312.5854952,12.32977157,40.29262695,0,1.73852368,0,37.43360332,-270.2958371,0,-55.48815311,14.21445428,0,0,,,,
607.7679996,2374,0,5.397385463,0,362.2219781,-33.24861066,37.92656926,0,-6.949333353,0,-3.579382309,129.6892539,0,100.9885462,29.79899121,0,0,,,,
607.7759996,2374,0,-261.1822017,0,273.2544807,60.07564412,108.1152737,0,66.9130858,0,42.93400008,-215.1566781,0,-51.42721518,35.64962802,0,0,,,,
607.7839996,2374,0,-60.20046859,0,337.7575573,-36.89380369,5.887204647,0,-36.42214157,0,13.1502984,-51.4484706,0,46.32957651,11.8737996,0,0,,,,
607.7919996,2374,0,-129.8549025,0,283.9397044,36.20396504,108.6916301,0,60.84336576,0,27.3963389,4.393383695,0,35.28887411,36.16907994,0,0,,,,
607.7999996,2374,0,-202.1368665,0,306.6208059,1.699267303,27.48403837,0,-10.38067305,0,39.52903377,-270.4707649,0,-48.82862509,20.58571789,0,0,,,,
607.8079996,2374,0,-9.923018538,0,340.8235465,-37.30967457,38.13645957,0,-12.52394609,0,-17.5948078,131.6128248,0,102.5143921,33.48038141,0,0,,,,
607.8159996,2374,0,-274.5433951,0,245.6859375,65.4200803,117.0879042,0,66.09729128,0,35.83394201,-222.8848602,0,-58.73026281,34.66242357,0,0,,,,
607.8239996,2374,0,-54.34763474,0,332.5381712,-43.09348046,-5.093698256,0,-56.42505735,0,4.901838354,-38.80431553,0,45.31581655,17.68748501,0,0,,,,
607.8319996,2374,0,-143.3871792,0,259.7791236,35.95158606,103.0961632,0,48.39394,0,1.372180339,15.34638299,0,33.32737065,32.17915154,0,0,,,,
607.8399996,2374,0,-229.5878715,0,255.2652218,15.04852209,38.47875822,0,-9.954812569,0,21.93954999,-270.6220109,0,-51.81134692,3.367159461,0,0,,,,
607.8479996,2374,0,-36.92292512,0,290.9620364,-21.83478272,45.1111791,0,-16.89143797,0,-17.14932488,130.7365478,0,103.7820943,13.78818452,0,0,,,,
607.8559996,2374,0,-293.4559425,0,213.6881297,63.28281707,104.8554855,0,47.29391721,0,27.22983872,-224.7587943,0,-56.74596661,10.63664645,0,0,,,,
607.8639996,2374,0,-60.609059,0,320.4398841,-64.72082703,-20.08645914,0,-83.87226181,0,-14.50698284,-32.50234852,0,52.43286466,-0.224373393,0,0,,,,
607.8719996,2374,0,-136.1100057,0,270.5347471,5.830187598,95.94802012,0,15.4580128,0,-10.58734974,32.77320424,0,42.56975739,27.45086709,0,0,,,,
607.8799996,2374,0,-203.1725019,0,280.3163736,-14.73130597,39.72633816,0,-40.69903041,0,13.98943819,-238.2431623,0,-47.23048438,2.901098499,0,0,,,,
607.8879996,2374,0,-8.235750389,0,303.260975,-33.46670811,63.3050284,0,-26.43228729,0,-12.22511892,171.0322607,0,106.9839397,15.75019077,0,0,,,,
607.8959996,2374,0,-269.2925115,0,223.7005475,58.89546799,114.9935525,0,42.07500034,0,47.46691495,-184.7205253,0,-53.84237949,14.63298595,0,0,,,,
607.9039996,2374,0,-41.40858746,0,338.4775657,-70.02922048,-24.73175404,0,-95.67730504,0,-6.217411413,2.671800196,0,52.15635607,0.992100008,0,0,,,,
607.9119996,2374,0,-134.8422152,0,274.1841178,18.11204058,98.15299852,0,21.82013433,0,-15.97869143,47.89708565,0,36.84661845,20.10986406,0,0,,,,
607.9199996,2374,0,-205.1661103,0,293.9512197,2.126339993,33.58848842,0,-24.1833464,0,10.77488015,-238.7242823,0,-53.85804021,-9.039343859,0,0,,,,
607.9279996,2374,0,-6.342993381,0,339.0652012,-26.53603873,50.76563172,0,-21.91513696,0,-21.20827103,160.67003,0,104.3167603,5.646235623,0,0,,,,
607.9359996,2374,0,-274.9589417,0,242.90879,61.49435153,114.3758304,0,45.0009888,0,33.04079767,-202.8888486,0,-55.48484593,-1.907882219,0,0,,,,
607.9439996,2374,0,-47.92672848,0,349.7467308,-64.94446252,-18.07674889,0,-79.76323842,0,-13.13798069,-9.777200707,0,50.71573765,-15.92446517,0,0,,,,
607.9519996,2374,0,-156.8262233,0,265.9485532,47.33912874,126.7963123,0,57.59109849,0,-7.963799626,34.1650046,0,36.63886437,8.000851815,0,0,,,,
607.9599996,2374,0,-259.4703938,0,230.4238059,46.12530585,76.80842886,0,18.15610018,0,44.11930664,-266.7001559,0,-59.80800513,-33.08390958,0,0,,,,
607.9679996,2374,0,-55.54162966,0,284.9429363,-18.10971804,55.5926556,0,-15.64893685,0,12.23449583,132.9227977,0,96.48366732,-15.13593258,0,0,,,,
607.9759996,2374,0,-296.7605964,0,225.9270668,53.19042805,105.2599373,0,32.20787641,0,36.36799895,-210.3996082,0,-48.13251222,-1.238309202,0,0,,,,
607.9839996,2374,0,-70.50337842,0,305.5043408,-44.79237054,8.754307118,0,-64.49310665,0,-6.824864587,-23.65920489,0,59.45477779,-23.63583732,0,0,,,,
607.9919996,2374,0,-161.9710539,0,230.4971464,46.23768196,131.147544,0,50.28951644,0,15.49635876,8.442396214,0,43.03445254,-5.400790237,0,0,,,,
607.9999996,2375,0,-230.9213731,0,242.0983561,10.73937217,46.16237585,0,-26.68944328,0,42.8431116,-261.3150469,0,-34.44732431,-22.51726826,0,0,,,,
608.0079996,2375,0,-41.89973521,0,277.1855042,-27.61967996,55.282232,0,-31.27348507,0,-4.994547054,141.863651,0,119.3654312,-7.393515148,0,0,,,,
608.0159996,2375,0,-303.3950097,0,193.0944875,61.51816144,123.0193258,0,34.2731515,0,40.02062079,-222.089389,0,-40.74785315,-10.1256165,0,0,,,,
608.0239996,2375,0,-71.30245296,0,291.1094437,-55.65658103,0.87261532,0,-88.82675672,0,1.328969351,-23.06079945,0,69.98294035,-21.83178878,0,0,,,,
608.0319996,2375,0,-158.2945261,0,231.5940212,21.61192979,103.8472573,0,9.818254337,0,7.253928795,20.21237764,0,53.24687017,3.362226604,0,0,,,,
608.0399996,2375,0,-223.4104657,0,253.118604,-24.55199889,12.34110484,0,-73.47334168,0,19.00207568,-251.1631246,0,-32.53269618,-19.5906199,0,0,,,,
608.0479996,2375,0,-30.98075017,0,293.2903037,-62.94857603,21.37123601,0,-71.38811153,0,-35.60975644,147.6211641,0,118.0966318,-2.420371827,0,0,,,,
608.0559996,2375,0,-275.8272146,0,218.3236596,47.97614306,104.0995052,0,23.26529736,0,25.29531142,-213.6401578,0,-37.70379769,1.991801977,0,0,,,,
608.0639996,2375,0,-33.08356669,0,327.2220047,-45.89538406,10.66455903,0,-71.72516554,0,7.100958597,4.528938218,0,79.45059109,-3.080007669,0,0,,,,
608.0719996,2375,0,-153.548549,0,222.2429675,70.42833318,161.8391091,0,72.90565346,0,35.07524607,53.78767129,0,63.39041274,13.8893929,0,0,,,,
608.0799996,2375,0,-231.0535134,0,213.1309554,34.21221458,76.59000266,0,7.802919041,0,73.59847432,-226.8580857,0,-21.04897327,-19.49758211,0,0,,,,
608.0879996,2375,0,-29.6679554,0,268.0113466,-23.42983778,59.64772191,0,-15.31813628,0,16.18165113,174.7565481,0,136.0884839,5.894446444,0,0,,,,
608.0959996,2375,0,-297.044293,0,168.420094,80.47794602,133.5081299,0,64.37733376,0,63.83899753,-189.3149017,0,-20.72912695,3.138503487,0,0,,,,
608.1039996,2375,0,-57.85872183,0,274.5720524,-51.05441549,-3.494545316,0,-67.56003051,0,23.0319982,8.764078833,0,87.29952348,-14.65354278,0,0,,,,
608.1119996,2375,0,-153.323103,0,211.6822777,38.97450109,112.81273,0,41.41353498,0,7.56645627,50.49277569,0,66.22570556,11.0363187,0,0,,,,
608.1199996,2375,0,-216.2226313,0,219.9707476,14.79220867,37.44555983,0,-25.95700251,0,38.38344999,-216.7508345,0,-15.08198686,-16.10164302,0,0,,,,
608.1279996,2375,0,-17.06711224,0,271.1388292,-37.4592593,27.14013552,0,-48.56803661,0,-8.576561711,185.6820806,0,140.4112654,6.127358738,0,0,,,,
608.1359996,2375,0,-284.3322118,0,168.6710344,73.24927398,109.3089753,0,37.70275325,0,30.98557303,-183.3967682,0,-21.80084396,2.335347796,0,0,,,,
608.1439996,2375,0,-37.39551173,0,268.82592,-47.17517881,-12.8028343,0,-82.15549833,0,2.94837666,16.51371031,0,86.60503577,-12.29855506,0,0,,,,
608.1519996,2375,0,-133.3735962,0,199.8269058,40.44943136,104.5029772,0,30.76279322,0,4.525954601,49.51325528,0,64.82904024,13.5472259,0,0,,,,
608.1599996,2375,0,-202.8215287,0,207.6357422,9.441971033,26.3567914,0,-32.63049197,0,23.3002001,-219.165718,0,-18.79930352,-14.76635048,0,0,,,,
608.1679996,2375,0,-3.776511232,0,263.5931212,-45.63017038,20.83238418,0,-50.79785155,0,-26.5045205,184.5856931,0,131.6670663,10.79169891,0,0,,,,
608.1759996,2375,0,-275.9451466,0,158.148554,68.72495018,114.120535,0,42.07416789,0,28.67963622,-183.3021087,0,-33.18831463,8.703715673,0,0,,,,
608.1839996,2375,0,-42.20452425,0,256.8405577,-58.53186077,-14.31988771,0,-83.37959337,0,1.592951013,20.73186142,0,74.53837831,-10.26002545,0,0,,,,
608.1919996,2375,0,-136.5263115,0,198.1918901,22.64238574,92.7834459,0,19.04942659,0,-8.817407455,57.11906624,0,54.57543811,17.28656732,0,0,,,,
608.1999996,2375,0,-199.693632,0,192.8390261,20.54628103,38.41599575,0,-26.34582277,0,18.74363566,-207.4659609,0,-21.86569554,-10.04870287,0,0,,,,
608.2079996,2375,0,7.789063532,0,245.6132041,-32.0423378,26.49752483,0,-46.19110713,0,-18.77863359,184.930219,0,131.2467316,8.459358634,0,0,,,,
608.2159996,2375,0,-261.5087666,0,156.8132772,72.28853393,104.618907,0,35.65030897,0,19.11893484,-187.3985176,0,-28.00632082,8.514968748,0,0,,,,
608.2239996,2375,0,-43.6292063,0,251.4584913,-29.44928803,3.300475289,0,-66.32335707,0,-7.852848932,11.45246378,0,83.36504287,-10.18018367,0,0,,,,
608.2319996,2375,0,-130.6143426,0,213.0236901,27.79624347,90.76504141,0,21.80753264,0,-0.614368862,34.7443908,0,59.99995302,13.71405123,0,0,,,,
608.2399996,2375,0,-198.30098,0,212.9749362,12.44484943,24.12512031,0,-35.54406736,0,14.7451501,-215.2666761,0,-15.49826121,-11.05359926,0,0,,,,
608.2479996,2375,0,-24.96589289,0,229.8249636,-0.397607229,49.26179569,0,-23.55504862,0,-20.18410463,187.8940038,0,132.3707651,-0.304121146,0,0,,,,
608.2559996,2376,0,-278.9516893,0,150.4736168,74.12431013,96.93001175,0,27.32194114,0,32.11559669,-185.3925504,0,-32.8468905,-6.074842597,0,0,,,,
608.2639996,2376,0,-51.76970293,0,239.050464,-42.29421225,-22.9079329,0,-100.0464812,0,-10.83348121,14.81902833,0,77.21334579,-22.13378082,0,0,,,,
608.2719996,2376,0,-162.4073546,0,159.885807,50.82162359,104.1793593,0,19.74913006,0,1.361084489,24.56755263,0,46.47716354,-4.650773855,0,0,,,,
608.2799996,2376,0,-209.2082962,0,182.9978712,-4.245554374,18.37139369,0,-56.79815489,0,31.17814501,-233.0745523,0,-28.32018435,-21.91502822,0,0,,,,
608.2879996,2376,0,-15.44718653,0,231.3649876,-53.62150046,18.35171339,0,-68.4491129,0,-24.91113111,167.5463751,0,122.3505643,6.278670426,0,0,,,,
608.2959996,2376,0,-271.7313028,0,141.8767651,51.96496037,101.0965958,0,22.45118656,0,16.37841799,-204.1985335,0,-46.47124661,0.089896815,0,0,,,,
608.3039996,2376,0,-32.42081624,0,226.2344557,-47.84322995,3.737634599,0,-78.0556011,0,-5.383768266,3.033775828,0,66.02467984,-18.82185055,0,0,,,,
608.3119996,2376,0,-134.7337977,0,158.9571935,40.16327172,114.0460871,0,21.66285447,0,13.9607793,18.37571161,0,40.24178017,3.888084763,0,0,,,,
608.3199996,2376,0,-185.9884874,0,190.2040138,-8.104806286,23.62404759,0,-59.93912818,0,29.9534335,-224.181846,0,-34.88712478,-12.96267316,0,0,,,,
608.3279996,2376,0,-2.596678338,0,226.4897034,-47.78575715,35.84621101,0,-64.29467969,0,-22.46877718,174.0798393,0,111.1968681,6.076449297,0,0,,,,
608.3359996,2376,0,-261.3566014,0,125.1848765,57.56381498,110.9832575,0,12.10175538,0,27.50595558,-206.7277457,0,-59.2221679,-6.259034115,0,0,,,,
608.3439996,2376,0,-18.16189872,0,216.4352552,-51.59622348,-7.111164586,0,-97.05468146,0,-4.859539166,8.264974587,0,51.88347671,-24.87523525,0,0,,,,
608.3519996,2376,0,-128.6382147,0,144.131963,35.50191571,99.60415174,0,11.02946458,0,-4.513897793,25.5080767,0,24.44648906,-7.420685265,0,0,,,,
608.3599996,2376,0,-194.8653016,0,147.082036,7.962605812,27.13868612,0,-53.55161044,0,10.59819104,-229.7218569,0,-51.73320575,-38.64316037,0,0,,,,
608.3679996,2376,0,-24.09846459,0,165.8854478,-16.49152314,50.69479877,0,-41.00842148,0,-21.08898767,158.6059134,0,97.08792726,-22.63980733,0,0,,,,
608.3759996,2376,0,-287.0080127,0,74.95944293,75.45978471,112.2270582,0,28.16245793,0,36.4862229,-208.714293,0,-60.95018651,-23.5470232,0,0,,,,
608.3839996,2376,0,-44.89520275,0,182.6091501,-51.60074365,-17.46990474,0,-101.8749521,0,-6.381609359,18.15612961,0,56.12572106,-34.24417089,0,0,,,,
608.3919996,2376,0,-152.4653042,0,123.0886872,30.44022305,90.6635314,0,-5.975702208,0,-14.46800788,38.08407756,0,29.6205542,-6.434864407,0,0,,,,
608.3999996,2376,0,-210.6748822,0,145.08527,7.620143312,26.16143684,0,-65.34454926,0,-0.391539806,-199.7568977,0,-39.6371472,-25.1133922,0,0,,,,
608.4079996,2376,0,-45.71854297,0,168.2393841,-6.504651432,64.50531507,0,-37.74373124,0,-24.53893331,195.329676,0,105.5118304,-10.02368939,0,0,,,,
608.4159996,2376,0,-311.1941005,0,61.83191417,87.22422379,127.9257434,0,26.7429486,0,47.49675082,-184.0948491,0,-59.54922713,-17.6495403,0,0,,,,
608.4239996,2376,0,-63.68650201,0,161.1420614,-38.31661472,-3.438320338,0,-107.961071,0,17.96792497,35.22309907,0,63.19396271,-24.22408955,0,0,,,,
608.4319996,2376,0,-176.0410245,0,81.8929511,53.37246236,115.6792718,0,7.347479554,0,20.94054031,43.7198604,0,34.585166,-1.890391477,0,0,,,,
608.4399996,2376,0,-216.6607788,0,88.66324581,20.73015906,40.57302083,0,-56.77248208,0,44.70021588,-207.3751523,0,-41.35193789,-31.17769337,0,0,,,,
608.4479996,2376,0,-12.57368274,0,145.3669909,-28.18880441,39.28686489,0,-72.07515675,0,6.408314975,192.8222084,0,111.4313557,0.268426876,0,0,,,,
608.4559996,2376,0,-275.3225052,0,60.12833228,54.07709102,92.03690124,0,-15.04574446,0,43.45791687,-179.7455086,0,-54.57486918,-2.088696091,0,0,,,,
608.4639996,2376,0,-43.18005019,0,145.9615577,-62.07549116,-23.38712222,0,-127.5198849,0,-0.725057052,27.25251416,0,52.50298534,-26.68674913,0,0,,,,
608.4719996,2376,0,-144.3943161,0,84.62664697,12.4444652,86.14836936,0,-26.42142376,0,-1.456215973,36.38252729,0,25.72151584,3.6314935,0,0,,,,
608.4799996,2376,0,-196.7631681,0,100.8783668,-25.31455438,15.66420246,0,-93.05513185,0,10.12351395,-203.9490016,0,-45.4593954,-18.8335809,0,0,,,,
608.4879996,2376,0,-34.35930783,0,115.9127726,-37.62668139,58.44747612,0,-67.32131195,0,-14.59139069,177.2238975,0,93.80082739,-8.126143621,0,0,,,,
608.4959996,2376,0,-302.7651038,0,14.83135908,61.57130882,121.9152575,0,4.427694015,0,52.93090144,-203.8291289,0,-74.31359836,-14.13906176,0,0,,,,
608.5039996,2376,0,-64.73183517,0,114.7169571,-61.06376617,-11.60858136,0,-118.538769,0,8.733484301,14.53970056,0,37.43599572,-33.8120029,0,0,,,,
608.5119996,2377,0,-179.6049516,0,41.07115412,32.06559592,107.7559423,0,-7.605350769,0,-1.890173629,21.38574424,0,6.74033987,-13.77908444,0,0,,,,
608.5199996,2377,0,-227.1551842,0,45.06283787,4.188850786,35.31301794,0,-74.13431927,0,8.773609026,-216.3256761,0,-60.67020337,-39.4626032,0,0,,,,
608.5279996,2377,0,-46.04766157,0,69.48168537,-25.84387713,53.71556421,0,-64.19690197,0,-28.38946827,163.2609914,0,84.62204918,-30.34756395,0,0,,,,
608.5359996,2377,0,-305.7423663,0,-20.56485151,63.06563938,114.6809779,0,1.966846943,0,28.59914407,-219.2163434,0,-74.52225098,-39.45191295,0,0,,,,
608.5439996,2377,0,-67.01520725,0,80.03546073,-64.56618684,-11.76295508,0,-121.2838628,0,-11.7215287,10.43787046,0,49.26371016,-49.43128829,0,0,,,,
608.5519996,2377,0,-181.931911,0,7.726771834,24.26276474,106.2116394,0,-5.445969659,0,-10.43660376,17.6707091,0,16.37296406,-25.91702084,0,0,,,,
608.5599996,2377,0,-223.6064197,0,30.58027389,-9.440894818,23.74122359,0,-77.40995077,0,16.48901765,-217.5332658,0,-53.5849413,-50.75243304,0,0,,,,
608.5679996,2377,0,-33.7238504,0,77.52056799,-55.37501987,23.49668572,0,-90.04551255,0,-22.34283996,175.7359175,0,94.61467318,-26.38450215,0,0,,,,
608.5759996,2377,0,-284.7534162,0,-9.309655995,46.46760811,99.26746928,0,-11.90834495,0,16.33670003,-194.8968911,0,-69.30534375,-29.67212215,0,0,,,,
608.5839996,2377,0,-52.85039285,0,68.43213312,-20.39840552,29.2361137,0,-84.65222354,0,-4.225575683,35.92640924,0,50.05758357,-47.68244854,0,0,,,,
608.5919996,2377,0,-181.5984771,0,-28.82668539,86.79377685,159.9798218,0,35.76549332,0,40.419036,40.01204938,0,23.1795166,-23.80663117,0,0,,,,
608.5999996,2377,0,-224.7661442,0,-10.05986578,26.04579827,54.58773887,0,-67.42682652,0,57.27288546,-191.4069183,0,-39.19704701,-44.35525651,0,0,,,,
608.6079996,2377,0,-44.16474994,0,32.0995248,-9.70022156,64.9287435,0,-73.81945752,0,-2.880818499,197.742863,0,106.7297392,-22.12819347,0,0,,,,
608.6159996,2377,0,-301.9979777,0,-58.15513899,80.86885404,127.3596688,0,-2.460225817,0,47.85934849,-183.1113491,0,-58.91521746,-26.89560763,0,0,,,,
608.6239996,2377,0,-57.16389888,0,47.12402245,-43.6093438,2.909318785,0,-125.6326219,0,1.887391378,41.81280209,0,62.90358968,-38.94297892,0,0,,,,
608.6319996,2377,0,-170.4620069,0,-19.13076441,44.73048829,120.8034708,0,-17.1972518,0,3.66347058,41.75966448,0,33.9364955,-11.2227961,0,0,,,,
608.6399996,2377,0,-212.4940497,0,-1.072775634,-0.856469148,35.87031349,0,-87.90411225,0,27.09605327,-193.8048902,0,-34.2473378,-38.35588417,0,0,,,,
608.6479996,2377,0,-34.79620717,0,38.00972227,-36.48752336,45.50235272,0,-86.17860734,0,-18.20084017,185.4535234,0,107.3775365,-21.07189646,0,0,,,,
608.6559996,2377,0,-286.1770549,0,-48.62943981,58.2614791,110.5597672,0,-16.15438957,0,33.34036304,-193.3797484,0,-55.13741859,-24.81350455,0,0,,,,
608.6639996,2377,0,-41.71767303,0,49.36629491,-61.64341625,-6.842041628,0,-128.3995773,0,2.937393552,36.49577129,0,66.33033113,-38.20407425,0,0,,,,
608.6719996,2377,0,-149.2663326,0,-15.5224729,20.48676601,100.3852656,0,-20.39969597,0,7.937218805,28.19988807,0,32.39838709,-12.18606595,0,0,,,,
608.6799996,2377,0,-178.2952183,0,-1.329407045,-3.591993633,32.43630841,0,-74.7318063,0,20.6594083,-200.7471796,0,-29.89191232,-33.10508271,0,0,,,,
608.6879996,2377,0,-10.17704875,0,6.896918885,-8.882937122,74.2178076,0,-39.77204655,0,-8.479815099,178.0455438,0,113.7579745,-15.01475329,0,0,,,,
608.6959996,2377,0,-284.6465473,0,-114.7776394,99.55793061,148.6393668,0,47.04621778,0,57.54082067,-213.7956465,0,-56.85434671,-30.51675806,0,0,,,,
608.7039996,2377,0,-57.69125854,0,-41.9758282,-8.334703294,37.02664139,0,-56.70701209,0,27.09781581,14.74313374,0,62.6613878,-48.90167156,0,0,,,,
608.7119996,2377,0,-175.3482507,0,-120.467451,78.52529193,143.7932892,0,49.47623394,0,35.40156797,8.638158415,0,32.66215973,-23.58777237,0,0,,,,
608.7199996,2377,0,-209.5071446,0,-100.6827757,35.51438899,49.09895757,0,-34.84448268,0,42.28042385,-207.9079017,0,-26.43889552,-47.96829206,0,0,,,,
608.7279996,2377,0,-26.50015798,0,-53.35193866,-8.905385488,46.64654292,0,-49.07114336,0,-15.76042948,188.8616412,0,121.8986359,-22.56054475,0,0,,,,
608.7359996,2377,0,-265.6448477,0,-122.1749702,79.11384177,108.6553363,0,16.70397136,0,22.25088001,-183.2871509,0,-37.42713485,-26.14996365,0,0,,,,
608.7439996,2377,0,-25.27118578,0,-27.55635805,-14.61800113,21.44173862,0,-72.68179518,0,0.744594192,57.79684517,0,86.03549731,-46.16752106,0,0,,,,
608.7519996,2377,0,-149.8374009,0,-105.9453812,81.33473301,137.9950039,0,39.10117543,0,25.34741104,47.24108208,0,47.4083566,-25.37850015,0,0,,,,
608.7599996,2377,0,-180.6850395,0,-78.6798968,32.37460242,43.25493066,0,-48.54034081,0,30.91914604,-179.9439433,0,-15.20870399,-46.23199461,0,0,,,,
608.7679996,2378,0,-7.6917503,0,-42.10896002,-1.276538721,56.55211643,0,-50.82153331,0,-20.53341862,203.2572544,0,132.2767624,-18.63032632,0,0,,,,
608.7759996,2378,0,-269.6587025,0,-142.383803,91.39352208,114.6679112,0,18.87386681,0,27.12561471,-186.056351,0,-36.12263182,-26.72710799,0,0,,,,
608.7839996,2378,0,-19.37435968,0,-30.90247868,-39.33136736,-19.64379174,0,-108.4197138,0,-10.55317263,44.28535815,0,83.60560955,-40.11974836,0,0,,,,
608.7919996,2378,0,-122.3461949,0,-76.26878975,35.09202102,75.63835105,0,-15.65870221,0,-14.34062387,47.8847821,0,55.43123636,-0.672848526,0,0,,,,
608.7999996,2378,0,-162.8034619,0,-78.80804814,17.79205457,17.11538772,0,-61.67463421,0,-4.230338576,-177.3239605,0,-10.42560601,-31.07817197,0,0,,,,
608.8079996,2378,0,19.63241914,0,-43.19626057,-13.27258603,33.27938813,0,-60.13377228,0,-29.80068429,191.4734449,0,125.0136068,-18.72632327,0,0,,,,
608.8159996,2378,0,-214.0295277,0,-99.13805357,52.79005934,67.05612635,0,-21.8215105,0,7.962489944,-173.9632674,0,-34.03947743,-12.64130229,0,0,,,,
608.8239996,2378,0,17.50042809,0,-8.589567708,-56.06935488,-39.92810581,0,-127.5697042,0,-43.09019836,65.76474954,0,86.93329168,-27.93093903,0,0,,,,
608.8319996,2378,0,-103.3031526,0,-78.71588743,37.46465642,77.0395843,0,-13.21250758,0,-19.83115584,47.95704039,0,47.27961729,-4.338616297,0,0,,,,
608.8399996,2378,0,-135.0906143,0,-53.18622054,-5.350401517,-8.125570147,0,-80.3776841,0,1.894714622,-170.002945,0,-17.17770528,-28.65388325,0,0,,,,
608.8479996,2378,0,36.15061594,0,-12.66419645,-40.65214897,0.826074448,0,-84.97208706,0,-44.06907804,205.9294111,0,117.7732731,-6.792372598,0,0,,,,
608.8559996,2378,0,-212.9905336,0,-90.48903703,51.45250948,57.84859667,0,-21.93513213,0,-6.910265669,-169.6439797,0,-46.73479739,-6.542492128,0,0,,,,
608.8639996,2378,0,10.29547873,0,-13.83731449,-45.52438424,-39.50996348,0,-109.5525226,0,-42.08286726,57.87679762,0,67.81461544,-36.98979117,0,0,,,,
608.8719996,2378,0,-114.799023,0,-91.40538242,48.56521391,77.72285887,0,-1.735152978,0,-16.41934842,32.88426004,0,24.79171031,-18.11245399,0,0,,,,
608.8799996,2378,0,-148.7215415,0,-72.94694651,22.66487932,14.03745908,0,-59.49454425,0,4.77279296,-177.4891861,0,-32.44395654,-37.39559816,0,0,,,,
608.8879996,2378,0,7.476140171,0,-54.29706423,14.71886297,56.52299499,0,-22.65740495,0,-21.78159057,197.8380148,0,107.314623,-23.02817447,0,0,,,,
608.8959996,2378,0,-242.1361952,0,-140.9609767,92.22022695,104.8919162,0,32.39744925,0,40.59180404,-181.4649799,0,-54.24021171,-23.18326189,0,0,,,,
608.9039996,2378,0,-10.37298387,0,-54.44260676,-30.32195394,-9.181866817,0,-84.56015717,0,-0.935852784,49.68278791,0,67.57846432,-34.99189539,0,0,,,,
608.9119996,2378,0,-141.8800648,0,-135.0047937,65.73022735,113.1578732,0,30.54917668,0,14.82176146,22.25346117,0,27.93477011,-14.00445908,0,0,,,,
608.9199996,2378,0,-176.90233,0,-113.0426409,16.22206799,26.48155971,0,-48.81822831,0,34.0302442,-187.3726442,0,-29.75844625,-36.57373157,0,0,,,,
608.9279996,2378,0,-15.36339392,0,-84.42620644,-14.53802631,46.64532302,0,-42.07548381,0,-11.24905863,181.9525675,0,104.6874479,-16.60755111,0,0,,,,
608.9359996,2378,0,-245.4448286,0,-153.1122655,72.31251907,92.27707471,0,8.360663437,0,38.56455985,-192.5864323,0,-56.83678216,-13.46760881,0,0,,,,
608.9439996,2378,0,9.940744797,0,-44.65599365,-47.59472174,-30.58771343,0,-114.1126515,0,-10.16399485,55.30994207,0,69.82339718,-17.48470426,0,0,,,,
608.9519996,2378,0,-120.8792603,0,-129.7828969,45.58184126,82.00911245,0,-1.496550424,0,-8.78428407,22.01182076,0,24.54649399,-1.584793124,0,0,,,,
608.9599996,2378,0,-160.6809746,0,-112.2767721,8.225471246,-2.222531774,0,-77.85878912,0,3.213929852,-187.5541665,0,-34.35301941,-36.96599173,0,0,,,,
608.9679996,2378,0,0.898166804,0,-82.14996257,-10.12992572,33.62173834,0,-57.7912825,0,-35.90258734,186.3055616,0,103.1078992,-19.44941378,0,0,,,,
608.9759996,2378,0,-246.5633731,0,-173.3796493,74.71451044,91.47037636,0,6.631613317,0,22.58613015,-195.6564739,0,-61.63392466,-27.6379988,0,0,,,,
608.9839996,2378,0,-17.92943308,0,-86.4349055,-43.60323064,-25.96270852,0,-113.9560678,0,-20.33063185,46.84823373,0,64.144816,-44.69357029,0,0,,,,
608.9919996,2378,0,-144.7424425,0,-166.2413241,53.79168958,86.42387443,0,-1.207140934,0,-11.22394395,14.86527559,0,22.22234372,-24.5178123,0,0,,,,
608.9999996,2378,0,-161.6711131,0,-136.7173073,3.221334212,-13.89179019,0,-81.4938061,0,9.242247165,-190.440144,0,-33.1721414,-54.51273248,0,0,,,,
609.0079996,2378,0,9.034016534,0,-97.9243756,-30.36326125,3.864414388,0,-71.84080709,0,-35.7676355,182.5117571,0,104.8757978,-35.21330653,0,0,,,,
609.0159996,2378,0,-232.8947115,0,-172.0547816,49.91774602,53.69327687,0,-14.27445869,0,10.69836063,-191.9951953,0,-61.50641156,-38.51778421,0,0,,,,
609.0239996,2379,0,5.250763189,0,-59.02459885,-78.23245151,-72.90126966,0,-141.5505095,0,-31.64705539,58.91365701,0,60.70396058,-52.011135,0,0,,,,
609.0319996,2379,0,-131.2707887,0,-141.6875126,32.61235554,63.0755109,0,-14.8186633,0,-24.09114722,25.65002478,0,15.83765163,-30.41934259,0,0,,,,
609.0399996,2379,0,-175.8478744,0,-141.7044296,14.51504455,-2.030920623,0,-72.92113106,0,9.93371426,-187.3688807,0,-47.0452668,-64.88423091,0,0,,,,
609.0479996,2379,0,-7.418290353,0,-96.95500619,-22.40877606,6.066348073,0,-75.20614821,0,-16.418647,181.298521,0,86.631337,-40.81260066,0,0,,,,
609.0559996,2379,0,-245.630266,0,-174.3190196,66.36012993,70.20756849,0,-3.819117788,0,22.57520981,-182.2376432,0,-71.34888575,-33.78066985,0,0,,,,
609.0639996,2379,0,-14.24139284,0,-82.71840191,-48.88502743,-43.02908224,0,-113.4158666,0,-10.14207783,64.72634723,0,47.31224155,-53.80948622,0,0,,,,
609.0719996,2379,0,-123.2827624,0,-129.4483779,25.77500866,51.89976148,0,-20.16108261,0,1.046926475,36.30059259,0,2.535569224,-24.19738272,0,0,,,,
609.0799996,2379,0,-165.8812863,0,-120.9526469,15.76927379,7.760887521,0,-56.97997271,0,16.62420681,-150.7941055,0,-46.98437661,-46.32473109,0,0,,,,
609.0879996,2379,0,-23.89865311,0,-102.1152784,3.915831919,51.29505837,0,-30.04989349,0,15.31034257,212.534529,0,82.91599917,-41.03992065,0,0,,,,
609.0959996,2379,0,-231.0350139,0,-154.4507503,54.83378464,77.32963959,0,-8.278948323,0,71.52595265,-155.1844792,0,-70.19182021,-35.89483737,0,0,,,,
609.1039996,2379,0,4.503736373,0,-78.40316566,-48.53726463,-25.6028408,0,-109.7443798,0,21.19748024,91.10014201,0,61.36619706,-47.95578552,0,0,,,,
609.1119996,2379,0,-129.6814069,0,-158.814649,51.66264852,81.32459483,0,10.05295281,0,39.98272218,45.36807401,0,13.53608427,-35.28247956,0,0,,,,
609.1199996,2379,0,-145.9759677,0,-123.997524,-4.881435131,-22.45997134,0,-82.12738335,0,37.90313822,-139.0278878,0,-32.81972043,-53.45146672,0,0,,,,
609.1279996,2379,0,4.024532691,0,-104.9777717,-30.11339503,3.748292901,0,-72.87131574,0,-10.27306159,218.2139923,0,95.50100529,-37.42186004,0,0,,,,
609.1359996,2379,0,-209.3218117,0,-164.5206873,38.89474055,38.12716629,0,-29.73694447,0,36.64853335,-156.3457719,0,-66.64123429,-41.77554019,0,0,,,,
609.1439996,2379,0,28.26408233,0,-86.87444682,-51.40365617,-52.00777429,0,-118.6759344,0,-8.544938564,103.0957823,0,64.51347712,-52.82966267,0,0,,,,
609.1519996,2379,0,-122.7479077,0,-196.106999,69.49774506,89.76625376,0,20.53670677,0,29.06143258,54.2192578,0,13.61906749,-38.31852051,0,0,,,,
609.1599996,2379,0,-134.4319506,0,-153.2994515,1.000950515,-20.84876346,0,-82.4092753,0,45.82629962,-127.2854006,0,-31.58906421,-61.05288411,0,0,,,,
609.1679996,2379,0,17.34619915,0,-126.1670198,-20.6939083,6.271363446,0,-73.13730123,0,-12.99510638,234.5434138,0,100.4484538,-44.91907062,0,0,,,,
609.1759996,2379,0,-228.228068,0,-222.9864624,83.39869141,78.28630192,0,0.517251098,0,48.5936342,-152.0937357,0,-63.73045863,-52.85401152,0,0,,,,
609.1839996,2379,0,-4.814139138,0,-145.6374169,-21.15615123,-22.25159942,0,-102.4763523,0,21.74703381,97.99945045,0,62.39296066,-70.70479875,0,0,,,,
609.1919996,2379,0,-138.7742629,0,-228.1884375,69.16705419,87.52098388,0,4.71943906,0,42.21630232,44.58983047,0,3.930775673,-55.00708828,0,0,,,,
609.1999996,2379,0,-137.4417295,0,-181.0611349,1.641876495,-23.60486805,0,-92.98079484,0,57.84008289,-130.8340857,0,-41.1621186,-66.38451682,0,0,,,,
609.2079996,2379,0,22.79062787,0,-135.2664717,-45.90306948,-17.96067249,0,-100.3321863,0,-2.804479215,243.229259,0,94.60523273,-38.50938963,0,0,,,,
609.2159996,2379,0,-211.6416218,0,-206.5275851,28.78667041,32.14840321,0,-52.9291358,0,28.82434999,-133.4243793,0,-73.85479108,-42.28725158,0,0,,,,
609.2239996,2379,0,7.422180025,0,-130.6650663,-58.48547667,-48.18114717,0,-141.1958914,0,-4.88055003,112.8941998,0,42.71056074,-62.71349103,0,0,,,,
609.2319996,2379,0,-131.0411512,0,-208.5985936,31.29253491,64.43547623,0,-36.19957341,0,20.98630271,53.19140641,0,-16.39354927,-48.26918392,0,0,,,,
609.2399996,2379,0,-142.671262,0,-172.0017734,-25.23946075,-31.88312373,0,-122.1972425,0,28.35344195,-117.1314778,0,-58.76589645,-63.75410952,0,0,,,,
609.2479996,2379,0,-8.082033624,0,-165.5260228,-24.21205958,13.738037,0,-85.73000519,0,-12.10660123,248.422166,0,71.171839,-49.91728037,0,0,,,,
609.2559996,2379,0,-229.6735181,0,-232.5287279,35.75465973,40.3293222,0,-55.74069813,0,40.67030304,-134.4561285,0,-92.29587129,-59.56194696,0,0,,,,
609.2639996,2379,0,14.30432798,0,-122.1688133,-93.58034509,-79.58757695,0,-179.1068789,0,-16.55307486,124.5002289,0,39.59412069,-65.60150043,0,0,,,,
609.2719996,2379,0,-129.4286446,0,-202.6660001,11.50871024,48.39004913,0,-50.16998079,0,-12.86340469,66.90596139,0,-14.4409585,-44.29492176,0,0,,,,
609.2799996,2380,0,-139.3211543,0,-170.63977,-24.00965908,-32.00180162,0,-111.8993438,0,8.249376971,-120.9943334,0,-60.11810123,-70.14253227,0,0,,,,
609.2879996,2380,0,6.719887151,0,-146.6356029,-18.83774585,19.8685513,0,-70.89755731,0,-16.56242672,227.2618091,0,69.46492398,-52.28601897,0,0,,,,
609.2959996,2380,0,-220.4406923,0,-222.9896491,55.14427188,63.62526503,0,-19.98331412,0,38.75953608,-152.5624614,0,-88.12949215,-48.79445169,0,0,,,,
609.3039996,2380,0,18.29963053,0,-128.1431225,-63.3845391,-53.84796691,0,-126.5958242,0,-3.313022164,113.057725,0,45.65552995,-55.63070081,0,0,,,,
609.3119996,2380,0,-116.4133779,0,-197.8318309,35.53239637,65.44363929,0,-10.49260439,0,11.9918201,59.86478674,0,-8.840184222,-31.28528633,0,0,,,,
609.3199996,2380,0,-125.225567,0,-162.3142408,-24.54407338,-27.70861599,0,-97.12138396,0,16.60396425,-115.7462248,0,-50.86888178,-47.50919093,0,0,,,,
609.3279996,2380,0,10.22038167,0,-144.6631789,-39.40807361,0.950644677,0,-70.53180764,0,-33.38203755,229.558569,0,75.0974082,-34.7372764,0,0,,,,
609.3359996,2380,0,-211.7965519,0,-221.2124324,43.84359041,45.53101881,0,-20.35678446,0,8.465574037,-155.5273548,0,-88.543934,-38.85687988,0,0,,,,
609.3439996,2380,0,30.24730068,0,-141.3815527,-54.91946074,-42.50827214,0,-114.0310612,0,-24.03506265,104.9586264,0,43.39893936,-49.58821099,0,0,,,,
609.3519996,2380,0,-112.972138,0,-227.6388662,44.05115359,74.35463845,0,6.217663271,0,8.425555734,35.41137613,0,-14.88531209,-35.56709652,0,0,,,,
609.3599996,2380,0,-107.126464,0,-175.1480467,-33.69236796,-47.63034005,0,-102.8345626,0,7.171440527,-128.3411927,0,-53.12891117,-47.5652462,0,0,,,,
609.3679996,2380,0,41.88445392,0,-139.9039487,-53.59766769,-19.32447457,0,-86.34174212,0,-50.72257036,233.9286937,0,82.30208267,-19.69201804,0,0,,,,
609.3759996,2380,0,-204.3180194,0,-236.3778555,45.6141669,44.84316602,0,-10.94256903,0,2.444434275,-164.9164753,0,-85.31301065,-32.13681806,0,0,,,,
609.3839996,2380,0,10.91075538,0,-173.3806683,-55.87320685,-49.19271445,0,-101.8645594,0,-32.96945629,87.58174244,0,38.24451614,-54.11757443,0,0,,,,
609.3919996,2380,0,-133.131789,0,-258.1562783,38.83600627,61.79283986,0,8.483118518,0,-13.39481002,23.23704749,0,-17.7422079,-39.89715521,0,0,,,,
609.3999996,2380,0,-126.4483742,0,-214.6799164,-24.9595265,-45.90155074,0,-84.6675802,0,-2.061683728,-140.4749195,0,-55.78697858,-60.60874627,0,0,,,,
609.4079996,2380,0,21.33156854,0,-176.5551381,-57.32997492,-31.64992241,0,-79.65599192,0,-52.30548062,220.0278099,0,73.89164971,-38.74627576,0,0,,,,
609.4159996,2380,0,-203.9954946,0,-243.6360629,37.42428862,26.85265921,0,-18.95511889,0,-12.27582542,-160.9377182,0,-89.13228043,-43.06122007,0,0,,,,
609.4239996,2380,0,31.9611789,0,-155.4646574,-32.17726697,-32.8623612,0,-85.69197764,0,-36.10205335,110.189718,0,37.85690603,-55.92300301,0,0,,,,
609.4319996,2380,0,-115.8580889,0,-242.4246499,77.76735904,95.2827901,0,39.80051355,0,14.16695004,35.72635428,0,-24.94315198,-38.06171769,0,0,,,,
609.4399996,2380,0,-111.7978635,0,-204.2123732,2.236374553,-20.38034313,0,-63.25632176,0,30.26059039,-135.3034563,0,-62.77509837,-50.95244034,0,0,,,,
609.4479996,2380,0,42.23628036,0,-158.7350983,-40.38301925,-11.05156138,0,-65.61130839,0,-34.26031487,224.6893375,0,67.54525855,-22.90179247,0,0,,,,
609.4559996,2380,0,-189.2640764,0,-239.4198253,47.72590133,42.24825352,0,-4.633951488,0,-1.475515084,-164.1105665,0,-95.26234752,-31.83351297,0,0,,,,
609.4639996,2380,0,33.86424027,0,-172.7797198,-40.37316261,-38.79217851,0,-84.87196986,0,-31.01595677,98.84596605,0,38.25427796,-46.4992594,0,0,,,,
609.4719996,2380,0,-114.1527569,0,-258.193213,52.71635654,68.98800223,0,19.29460078,0,-2.841945297,26.70240164,0,-19.472799,-25.92288495,0,0,,,,
609.4799996,2380,0,-115.4328372,0,-228.6874476,-4.198732978,-33.98760398,0,-72.58279563,0,3.453213334,-138.9813181,0,-57.18678435,-45.5427177,0,0,,,,
609.4879996,2380,0,29.88362605,0,-193.4590617,-28.55580091,-16.64453549,0,-60.51305808,0,-37.64776303,220.8659857,0,75.40435101,-14.61217844,0,0,,,,
609.4959996,2380,0,-184.1893904,0,-256.90318,40.37458792,13.56294679,0,-19.45784807,0,6.480391159,-159.0348042,0,-84.3214305,-13.61745604,0,0,,,,
609.5039996,2380,0,53.58830971,0,-186.4364334,-57.44266838,-68.36812493,0,-99.83131359,0,-30.53178746,104.2810446,0,40.01310317,-35.18213653,0,0,,,,
609.5119996,2380,0,-97.36726364,0,-276.3072882,42.59456279,59.18406152,0,27.62747939,0,-1.075038032,25.70506224,0,-25.47133897,-16.50687093,0,0,,,,
609.5199996,2380,0,-95.01357075,0,-238.8962785,-17.87850003,-40.81534874,0,-60.04031995,0,12.02810049,-135.4677309,0,-62.23817581,-34.41227395,0,0,,,,
609.5279996,2380,0,53.27300482,0,-204.0664827,-40.82122343,-21.16128051,0,-49.71234005,0,-28.55305264,223.4744907,0,68.87978244,-8.330945917,0,0,,,,
609.5359996,2381,0,-161.9030373,0,-265.4338756,37.69808722,18.89749194,0,-7.786155174,0,9.663146007,-156.3795283,0,-86.94079155,-7.83958652,0,0,,,,
609.5439996,2381,0,76.49179397,0,-183.7355226,-59.83903903,-65.31670738,0,-99.0913218,0,-32.72886138,108.9093681,0,45.22154324,-30.57478492,0,0,,,,
609.5519996,2381,0,-70.15114648,0,-263.3371458,37.15927536,50.64026438,0,14.62806088,0,-4.651921371,27.83707737,0,-16.36964,-14.08709234,0,0,,,,
609.5599996,2381,0,-74.52547549,0,-231.2698797,-10.84733194,-42.18356271,0,-67.34068722,0,2.094594657,-134.0822776,0,-49.90830204,-32.61199672,0,0,,,,
609.5679996,2381,0,45.94264052,0,-226.0586789,-17.46966219,-0.85515809,0,-36.24426909,0,-37.23700513,200.052318,0,73.87651317,-18.27627764,0,0,,,,
609.5759996,2381,0,-188.1279557,0,-316.9101185,69.61572418,51.89911413,0,28.51276931,0,30.76501734,-208.5211666,0,-94.55206469,-29.23823837,0,0,,,,
609.5839996,2381,0,54.23589328,0,-231.1611161,-28.02273467,-40.30650898,0,-65.19528109,0,9.707340054,64.18229679,0,41.19277271,-38.36974246,0,0,,,,
609.5919996,2381,0,-77.91506026,0,-283.1873311,44.79170154,46.8359075,0,17.25388721,0,19.29499273,-0.188275936,0,-8.962545612,-6.149871598,0,0,,,,
609.5999996,2381,0,-71.49342978,0,-231.1911289,-14.42343713,-51.93704732,0,-69.02234769,0,10.2194655,-151.7915089,0,-43.57252471,-28.219726,0,0,,,,
609.6079996,2381,0,61.86431811,0,-199.6233481,-13.3839478,-6.794481701,0,-36.80773576,0,-21.24750297,201.9803476,0,76.45430789,-16.02715378,0,0,,,,
609.6159996,2381,0,-161.9984958,0,-273.3527304,56.92138493,26.3282541,0,0.398334453,0,27.25040051,-184.2982353,0,-85.4559268,-21.54576274,0,0,,,,
609.6239996,2381,0,56.89154015,0,-214.5705582,-33.43653056,-52.51143733,0,-83.42983133,0,-12.45277415,74.20650175,0,42.49349665,-42.22230154,0,0,,,,
609.6319996,2381,0,-99.51461691,0,-298.6784073,69.41325522,64.26152006,0,29.63461848,0,21.61751324,-19.04275315,0,-25.93422864,-28.52021864,0,0,,,,
609.6399996,2381,0,-93.04045707,0,-263.1425764,3.895417615,-42.86425006,0,-66.5147533,0,21.57576493,-175.6648357,0,-60.65188214,-44.74150303,0,0,,,,
609.6479996,2381,0,35.73041193,0,-246.4061117,-2.340882005,-4.570583011,0,-37.43422429,0,-17.89595627,166.0195151,0,63.27221081,-23.44942984,0,0,,,,
609.6559996,2381,0,-174.8001892,0,-304.8206488,64.05280709,22.57852993,0,3.236341685,0,31.95873986,-219.3508086,0,-93.44536246,-28.24785615,0,0,,,,
609.6639996,2381,0,76.43451873,0,-212.7937601,-45.73885795,-77.47130859,0,-98.70363265,0,-18.3224571,64.75174537,0,44.94098037,-39.529535,0,0,,,,
609.6719996,2381,0,-68.15035821,0,-284.0128391,53.09481675,39.88278188,0,13.79788828,0,5.888836075,-12.23859398,0,-18.67718797,-18.17512493,0,0,,,,
609.6799996,2381,0,-68.65285129,0,-252.5209691,-1.202681509,-50.93480417,0,-62.24893928,0,15.004685,-166.3079958,0,-53.46436214,-38.42533272,0,0,,,,
609.6879996,2381,0,53.29674239,0,-252.0096607,4.578652466,3.55336942,0,-15.23039789,0,-13.33760284,165.317729,0,63.6966082,-21.86864675,0,0,,,,
609.6959996,2381,0,-145.3932548,0,-304.7065639,67.0434284,35.54057527,0,17.46820359,0,52.53994126,-213.3656505,0,-91.43027337,-18.45766511,0,0,,,,
609.7039996,2381,0,111.5940191,0,-200.0265956,-60.32101925,-76.72318633,0,-103.0610387,0,17.97680514,77.32042017,0,53.11415584,-22.47929915,0,0,,,,
609.7119996,2381,0,-46.8104553,0,-285.2821849,39.85642052,38.17068755,0,11.7079081,0,32.65668523,-10.88885431,0,-13.91909019,-5.394789001,0,0,,,,
609.7199996,2381,0,-51.56024894,0,-258.7707895,1.148887231,-43.97156239,0,-61.92838008,0,28.63344027,-159.4965106,0,-46.27820699,-28.21081501,0,0,,,,
609.7279996,2381,0,64.9811255,0,-256.7831749,5.353189112,3.222651745,0,-25.08288384,0,-2.811190247,173.803717,0,72.51018689,-15.2429679,0,0,,,,
609.7359996,2381,0,-155.7497244,0,-323.0342264,67.22052065,23.3003683,0,9.411214818,0,42.85632386,-218.0371005,0,-93.37316403,-23.20215996,0,0,,,,
609.7439996,2381,0,78.2339618,0,-232.8708813,-32.84881495,-73.15063441,0,-89.60918607,0,-16.60514116,66.98275577,0,41.65721501,-33.03595594,0,0,,,,
609.7519996,2381,0,-68.50961019,0,-303.3755932,66.8657275,43.93434711,0,19.73235415,0,10.8605688,-15.37873805,0,-21.36706291,-12.32586497,0,0,,,,
609.7599996,2381,0,-43.19931906,0,-247.4247146,11.96961234,-43.21122754,0,-60.982976,0,28.71926171,-150.3448241,0,-46.61287067,-32.43476381,0,0,,,,
609.7679996,2381,0,84.22362416,0,-230.6779148,32.66189027,26.34757581,0,-3.392997584,0,0.159198771,201.5092974,0,78.33777037,-8.351838467,0,0,,,,
609.7759996,2381,0,-134.8781829,0,-293.3430931,89.31142438,44.17938587,0,24.90040517,0,55.2308644,-183.9804363,0,-80.36089787,-7.966965027,0,0,,,,
609.7839996,2381,0,93.63534402,0,-213.8119733,-18.71810376,-54.21948052,0,-76.22907993,0,6.02845405,84.32649292,0,50.1956918,-26.08769116,0,0,,,,
609.7919996,2382,0,-61.67272296,0,-300.5717331,94.28825268,77.83839804,0,48.17304682,0,37.37558986,-3.996278957,0,-19.76306649,-5.67972609,0,0,,,,
609.7999996,2382,0,-53.88910572,0,-265.5631716,20.53726573,-29.19274804,0,-49.40314658,0,47.94412532,-145.6521115,0,-52.81283606,-25.56074874,0,0,,,,
609.8079996,2382,0,62.77169369,0,-256.9555893,16.68025667,17.41235185,0,-11.54178403,0,6.467961239,178.8891801,0,58.64194563,-14.0951076,0,0,,,,
609.8159996,2382,0,-142.92744,0,-305.5551389,80.25413213,45.03492374,0,23.48878976,0,63.92400436,-197.7180467,0,-95.96339334,-10.94338012,0,0,,,,
609.8239996,2382,0,86.62046122,0,-218.9308456,-35.33704999,-55.50278108,0,-82.03372437,0,14.5294515,90.97363508,0,39.89611333,-23.58365522,0,0,,,,
609.8319996,2382,0,-78.74691322,0,-306.5281612,67.3425968,68.80110447,0,36.59494683,0,31.40610462,-7.598575669,0,-38.1661877,-17.17412671,0,0,,,,
609.8399996,2382,0,-64.25926415,0,-263.9179343,6.675933448,-28.48139764,0,-53.87152443,0,45.18533559,-152.7202596,0,-67.91425479,-41.12262392,0,0,,,,
609.8479996,2382,0,61.92187552,0,-244.4974501,-0.937178236,6.425666108,0,-32.54648611,0,11.29023641,170.1567216,0,46.78113776,-24.93128299,0,0,,,,
609.8559996,2382,0,-146.9854511,0,-304.9524802,78.03286327,37.04470832,0,8.263636099,0,50.30344033,-212.7561609,0,-114.8906328,-28.38984349,0,0,,,,
609.8639996,2382,0,87.39164065,0,-234.1291934,-7.601983172,-45.22697301,0,-71.36811763,0,7.563621007,64.39190156,0,19.24436043,-45.22650857,0,0,,,,
609.8719996,2382,0,-71.13813084,0,-324.4604465,94.68002793,75.24574393,0,46.41014342,0,44.94761805,-38.27148205,0,-50.49163686,-31.09991951,0,0,,,,
609.8799996,2382,0,-73.3859908,0,-304.3916452,46.86379459,-8.043444785,0,-30.14850011,0,52.22569937,-173.6825045,0,-78.26669954,-50.41774666,0,0,,,,
609.8879996,2382,0,44.97749494,0,-298.8751454,44.38103269,29.51527715,0,0.844544969,0,28.75362904,147.8816372,0,33.18003195,-33.54059361,0,0,,,,
609.8959996,2382,0,-154.5771683,0,-335.8512897,82.856339,32.44798618,0,14.13404864,0,73.97610123,-225.8587865,0,-119.3913198,-29.32660368,0,0,,,,
609.9039996,2382,0,70.58508598,0,-253.07206,-25.73731991,-56.99413954,0,-78.55502351,0,8.812616341,61.63311436,0,15.61935226,-41.62309841,0,0,,,,
609.9119996,2382,0,-79.92730969,0,-329.4615881,79.05011824,54.74344658,0,38.84190114,0,40.03974056,-39.82292283,0,-58.6524602,-27.59562686,0,0,,,,
609.9199996,2382,0,-51.2267804,0,-271.1677753,12.22788363,-50.48244869,0,-57.40382337,0,40.15064289,-158.9288968,0,-74.64556235,-41.06630553,0,0,,,,
609.9279996,2382,0,56.76814339,0,-270.1711925,12.85042072,3.729619666,0,-18.74746063,0,-4.778560321,164.3250685,0,37.63537346,-28.35289328,0,0,,,,
609.9359996,2382,0,-146.5293448,0,-325.6135297,77.23574176,25.26613717,0,14.66501603,0,47.55532066,-222.860425,0,-124.3287117,-41.43845025,0,0,,,,
609.9439996,2382,0,105.2475606,0,-225.816236,-33.91855394,-77.41309289,0,-92.34750444,0,-9.832592274,69.68500072,0,15.62527733,-52.59951307,0,0,,,,
609.9519996,2382,0,-61.69303819,0,-315.3670823,68.75185766,44.09087124,0,23.0980752,0,9.432692664,-32.08703394,0,-63.1395341,-38.82532438,0,0,,,,
609.9599996,2382,0,-52.20219928,0,-274.575004,0.106118459,-59.20468525,0,-69.40708833,0,18.78443146,-166.3032831,0,-93.65866294,-69.12640895,0,0,,,,
609.9679996,2382,0,61.37859242,0,-265.4860605,-2.020736816,-18.4177571,0,-38.1494558,0,-21.29928136,152.4654595,0,17.23888815,-56.71082887,0,0,,,,
609.9759996,2382,0,-162.7367845,0,-340.7683983,80.32707617,26.7942825,0,15.98206876,0,33.80758363,-230.407581,0,-140.6099347,-65.49086248,0,0,,,,
609.9839996,2382,0,71.18104469,0,-248.9628234,-38.63129538,-73.72960893,0,-82.79292488,0,-3.188588215,62.57306085,0,3.487213897,-77.38669329,0,0,,,,
609.9919996,2382,0,-91.62514288,0,-330.2552697,55.55734216,37.69914508,0,24.24513484,0,8.318226011,-38.68475268,0,-70.08955923,-57.90223529,0,0,,,,
609.9999996,2382,0,-90.429839,0,-305.4000071,24.10194382,-25.1703732,0,-37.55959552,0,21.04795329,-167.8658274,0,-97.18426005,-85.70582497,0,0,,,,
610.0079996,2382,0,29.46981757,0,-280.8317852,16.81760205,15.05712054,0,-11.86539332,0,8.001460086,166.4009118,0,20.64277601,-63.89799337,0,0,,,,
610.0159996,2382,0,-179.0573303,0,-340.8378011,69.80283932,24.39244233,0,1.187746799,0,47.69163573,-204.8079404,0,-132.9955678,-61.49786442,0,0,,,,
610.0239996,2382,0,42.63124781,0,-275.8961788,-21.57280484,-50.18089684,0,-82.09348456,0,1.078604658,69.94155249,0,0.81792957,-79.70068153,0,0,,,,
610.0319996,2382,0,-110.9693336,0,-351.3951071,66.4408323,60.44141983,0,19.44797965,0,28.0580444,-38.41266034,0,-76.50765247,-60.84734188,0,0,,,,
610.0399996,2382,0,-87.81048192,0,-314.5526121,-3.373041913,-44.98060642,0,-75.55225223,0,23.90339321,-163.9239918,0,-101.2181711,-82.92253084,0,0,,,,
610.0479996,2383,0,37.04646737,0,-296.1829232,-8.49657204,-4.24546909,0,-38.70344509,0,-11.2647148,152.0848685,0,11.15630572,-61.54611833,0,0,,,,
610.0559996,2383,0,-154.9567782,0,-346.1228536,50.53561982,18.64673845,0,-7.162681417,0,28.84004144,-218.837009,0,-140.5298057,-57.18292354,0,0,,,,
610.0639996,2383,0,77.82028904,0,-278.5776591,-37.04757747,-53.26702705,0,-81.88122655,0,-10.31140184,63.14908677,0,-3.873308007,-76.04041648,0,0,,,,
610.0719996,2383,0,-83.01937076,0,-360.9895527,61.03160395,61.90995391,0,29.2331009,0,26.75601467,-47.00463053,0,-79.15329685,-59.16398139,0,0,,,,
610.0799996,2383,0,-74.22125909,0,-336.8168963,5.289697789,-32.90935099,0,-58.61780294,0,32.23145612,-163.6803152,0,-96.91851068,-80.07442839,0,0,,,,
610.0879996,2383,0,36.84166543,0,-330.0198285,8.978979006,11.80801247,0,-26.6362995,0,7.313602512,148.2235545,0,14.09918768,-62.48568204,0,0,,,,
610.0959996,2383,0,-168.5823667,0,-382.9912812,62.86397644,34.67986227,0,-4.511366939,0,46.60123417,-225.9717004,0,-139.5554156,-61.44982473,0,0,,,,
610.1039996,2383,0,51.93660207,0,-319.5399833,-25.61496757,-36.93678614,0,-82.52778698,0,1.080525957,59.492718,0,-2.358311844,-77.1821778,0,0,,,,
610.1119996,2383,0,-86.58718701,0,-376.6403843,60.90246667,50.63121394,0,10.12873464,0,38.31194617,-50.71238327,0,-75.26162016,-53.52311421,0,0,,,,
610.1199996,2383,0,-45.09525079,0,-323.1667961,-9.927790919,-60.35204724,0,-93.86979911,0,16.94534268,-149.3672695,0,-84.30508226,-62.66735861,0,0,,,,
610.1279996,2383,0,53.71971816,0,-343.2789112,16.3077659,13.12829105,0,-33.46137406,0,-19.12098197,157.85171,0,20.17954197,-52.93103241,0,0,,,,
610.1359996,2383,0,-149.4082643,0,-395.8240247,70.50234354,23.20339681,0,-4.298744529,0,53.49116144,-224.7771556,0,-136.8295906,-61.34831603,0,0,,,,
610.1439996,2383,0,96.62605718,0,-289.6649323,-55.62169816,-92.12591219,0,-121.1343478,0,-4.172221088,85.71784058,0,14.82434387,-58.58844816,0,0,,,,
610.1519996,2383,0,-61.75033268,0,-362.9904553,38.55748954,13.23437454,0,-22.44418409,0,6.279850498,-30.7441923,0,-63.67589545,-38.98902371,0,0,,,,
610.1599996,2383,0,-39.67275199,0,-323.7707631,-20.58988749,-81.39128904,0,-105.8256136,0,8.498518775,-149.8413866,0,-84.68193036,-64.27067596,0,0,,,,
610.1679996,2383,0,70.88536198,0,-308.3294131,-15.16930996,-31.57739405,0,-67.60857575,0,-21.00339249,161.3498297,0,24.45752808,-44.41604404,0,0,,,,
610.1759996,2383,0,-130.2484151,0,-344.272662,47.10376298,-7.41959027,0,-39.70989638,0,34.7796349,-211.8804961,0,-127.2011082,-49.23633643,0,0,,,,
610.1839996,2383,0,95.02453132,0,-255.3626385,-40.41929772,-74.36451994,0,-109.106716,0,-5.998600712,106.7097962,0,21.30680818,-56.19592751,0,0,,,,
610.1919996,2383,0,-78.57453701,0,-348.4951666,69.97862382,40.19446113,0,10.23980036,0,32.05306581,-5.513891647,0,-61.33553122,-42.02570886,0,0,,,,
610.1999996,2383,0,-39.34635015,0,-298.4339029,-12.29681797,-91.76001164,0,-104.2735315,0,35.8175985,-119.1693569,0,-78.25043817,-64.95464501,0,0,,,,
610.2079996,2383,0,76.13444503,0,-284.090887,-18.60631891,-51.92059902,0,-73.11434601,0,-15.39286413,194.620678,0,34.17355639,-38.13079498,0,0,,,,
610.2159996,2383,0,-134.1004614,0,-362.1171432,56.70986193,-8.939562115,0,-22.67030853,0,24.12423074,-192.7438304,0,-125.9976876,-49.62833169,0,0,,,,
610.2239996,2383,0,107.8139472,0,-285.2736187,-39.46355447,-89.6349704,0,-104.1176684,0,-11.52406641,97.75329951,0,6.97848027,-67.38455421,0,0,,,,
610.2319996,2383,0,-56.65773698,0,-360.5607129,53.37347309,16.88636038,0,-5.925473217,0,19.11965916,-19.53390577,0,-77.51049449,-40.81075909,0,0,,,,
610.2399996,2383,0,-33.36730597,0,-322.4574704,-15.8072568,-80.22280104,0,-96.94905276,0,17.05446378,-123.7661742,0,-90.81212631,-54.38492507,0,0,,,,
610.2479996,2383,0,67.51051125,0,-325.4054185,-5.520145663,-23.80748069,0,-47.99139613,0,-10.44629239,174.8477799,0,11.07774581,-36.80619631,0,0,,,,
610.2559996,2383,0,-134.4549763,0,-375.5013165,50.52670148,-11.87800565,0,-29.12281788,0,38.17682791,-207.7188003,0,-146.934136,-42.56000283,0,0,,,,
610.2639996,2383,0,110.9138344,0,-276.5595185,-59.38895878,-106.0100027,0,-123.6915811,0,-16.30419359,105.1560143,0,4.343524438,-44.68012834,0,0,,,,
610.2719996,2383,0,-60.10170112,0,-357.6469899,40.09445604,5.845777795,0,-14.34722011,0,3.203479873,-21.65623571,0,-72.4887085,-23.14420882,0,0,,,,
610.2799996,2383,0,-20.55260944,0,-299.7005938,-42.30693955,-111.9975164,0,-123.8828087,0,-0.715818425,-131.2900775,0,-83.65363733,-47.52901505,0,0,,,,
610.2879996,2383,0,91.58536099,0,-281.0179663,-39.35402775,-61.42042527,0,-83.0697147,0,-36.5218029,178.476925,0,26.22145831,-25.38404501,0,0,,,,
610.2959996,2383,0,-110.972738,0,-343.5923153,38.55197012,-22.62478352,0,-37.83066506,0,16.45939,-202.7968055,0,-126.8771442,-30.32900351,0,0,,,,
610.3039996,2384,0,134.3347686,0,-267.5823468,-54.54379241,-98.20152807,0,-119.8419928,0,-9.29747188,101.5373786,0,15.03820804,-43.04570291,0,0,,,,
610.3119996,2384,0,-39.94213666,0,-350.999684,43.33532139,9.67345463,0,-20.40346684,0,28.88239926,-25.49006882,0,-70.40862727,-24.85791345,0,0,,,,
610.3199996,2384,0,-2.906523573,0,-283.7754881,-24.71225939,-102.1270649,0,-116.1691191,0,20.00487227,-118.3438547,0,-80.65836619,-48.83437818,0,0,,,,
610.3279996,2384,0,97.37049506,0,-268.997464,-0.449957571,-34.09866654,0,-52.43594188,0,-20.35071623,201.4641958,0,27.53831493,-29.9631045,0,0,,,,
610.3359996,2384,0,-130.1509318,0,-356.1441006,75.41217037,7.811107458,0,-11.40211648,0,33.72581718,-188.9716884,0,-129.9596444,-43.37707914,0,0,,,,
610.3439996,2384,0,87.43956957,0,-305.140111,-17.23679343,-65.8392867,0,-90.45930016,0,3.813360212,97.59417292,0,5.923515778,-68.34608956,0,0,,,,
610.3519996,2384,0,-86.75772086,0,-387.8212582,77.08779839,42.86398461,0,12.02519363,0,27.93251149,-30.21895593,0,-76.25377689,-43.69942635,0,0,,,,
610.3599996,2384,0,-35.58436833,0,-327.600765,-3.289743952,-69.37081132,0,-95.30952612,0,15.83020177,-117.5043862,0,-74.57395523,-48.01053598,0,0,,,,
610.3679996,2384,0,65.76914099,0,-323.6607169,13.48376508,-6.144622703,0,-35.78147499,0,-6.643025514,191.3078464,0,35.58854955,-20.49535995,0,0,,,,
610.3759996,2384,0,-135.894942,0,-372.5499949,59.61097091,9.609234497,0,-15.24919449,0,41.94450154,-184.1469791,0,-119.0148513,-23.87388186,0,0,,,,
610.3839996,2384,0,108.3773011,0,-284.0532553,-53.98109348,-76.1589627,0,-112.0681952,0,-15.74542417,131.297996,0,25.09152779,-33.47442949,0,0,,,,
610.3919996,2384,0,-73.28349114,0,-379.0078595,63.18271784,49.78249623,0,11.93520998,0,15.8642957,-0.492182531,0,-58.02077518,-13.29135169,0,0,,,,
610.3999996,2384,0,-23.66828186,0,-339.135938,2.502563418,-54.13713902,0,-82.30676309,0,30.24618913,-104.5442212,0,-65.21206016,-40.34044174,0,0,,,,
610.4079996,2384,0,85.01754357,0,-338.9073234,12.77380208,-7.62363301,0,-43.57219713,0,5.122655915,190.6813815,0,39.46432501,-28.01921468,0,0,,,,
610.4159996,2384,0,-120.9744755,0,-388.7272367,61.38418465,-7.660644907,0,-27.93677553,0,42.56685063,-182.3368349,0,-107.8782186,-32.94624048,0,0,,,,
610.4239996,2384,0,110.1662598,0,-314.783175,-32.34899069,-82.58954348,0,-102.4031719,0,-5.916933391,130.1243868,0,36.43456292,-47.70842138,0,0,,,,
610.4319996,2384,0,-76.93911187,0,-411.5178273,81.46676874,48.97034308,0,23.07786489,0,34.4262869,-11.89110782,0,-56.09034738,-33.50931167,0,0,,,,
610.4399996,2384,0,-17.86222557,0,-339.3529798,-11.68223533,-75.82366983,0,-94.7975407,0,38.08697974,-92.33751426,0,-57.56713906,-46.57431014,0,0,,,,
610.4479996,2384,0,94.04545656,0,-320.343874,-14.09001161,-27.84747988,0,-61.52325794,0,-8.588918758,217.4251651,0,48.66381808,-21.43320296,0,0,,,,
610.4559996,2384,0,-106.9881476,0,-376.6060916,51.1874265,-0.670729789,0,-30.4541315,0,25.07220539,-163.0988152,0,-105.9534288,-30.0784079,0,0,,,,
610.4639996,2384,0,146.1367912,0,-294.9713081,-49.2798401,-83.27092613,0,-110.4309018,0,-9.109158461,149.9402918,0,39.99143302,-43.8030101,0,0,,,,
610.4719996,2384,0,-33.01273548,0,-387.7247937,49.53174541,37.13702001,0,9.575769403,0,21.1218199,5.450296569,0,-49.98339217,-24.69591134,0,0,,,,
610.4799996,2384,0,8.867764743,0,-348.9148966,-7.099542168,-46.75971435,0,-65.24778707,0,17.80188622,-81.12633623,0,-53.54316944,-35.2882052,0,0,,,,
610.4879996,2384,0,98.50521299,0,-375.6795764,37.12634407,39.14867125,0,17.27271306,0,15.79295969,210.1391545,0,42.18454123,-12.4143002,0,0,,,,
610.4959996,2384,0,-111.8272945,0,-438.8112229,90.62586124,49.32763892,0,42.70040625,0,81.37391922,-181.1197897,0,-120.1859879,-22.87440277,0,0,,,,
610.5039996,2384,0,141.9955041,0,-328.0955106,-41.41842193,-68.62401929,0,-71.51460682,0,15.62653676,148.8918335,0,28.38595136,-24.15182534,0,0,,,,
610.5119996,2384,0,-44.38587269,0,-416.5798667,68.0112536,46.09548703,0,41.81114535,0,20.11071353,14.15702659,0,-64.35216884,-5.028099424,0,0,,,,
610.5199996,2384,0,-5.8895498,0,-381.1626775,11.49986904,-50.33272035,0,-42.99247607,0,20.85978654,-71.85829027,0,-73.34489652,-36.48710477,0,0,,,,
610.5279996,2384,0,102.0301903,0,-367.8964191,10.82992727,-15.01882431,0,-6.653728743,0,-8.406792051,229.7111193,0,25.25063401,-16.90815901,0,0,,,,
610.5359996,2384,0,-88.65446729,0,-401.1134898,49.54831056,-20.43114595,0,2.565978662,0,19.4578179,-146.3018041,0,-129.8532244,-17.64946998,0,0,,,,
610.5439996,2384,0,152.041368,0,-318.1545795,-51.06699478,-99.31758112,0,-74.64839448,0,-32.82237719,171.6608296,0,16.42289229,-31.4749612,0,0,,,,
610.5519996,2384,0,-44.609799,0,-432.4470597,79.41274045,42.2611087,0,66.14473104,0,4.590175412,9.23635757,0,-79.6932852,-27.96163029,0,0,,,,
610.5599996,2385,0,18.80965209,0,-375.742748,25.211761,-46.01533934,0,-17.56541442,0,17.24223161,-65.76740464,0,-76.74174082,-45.3372616,0,0,,,,
610.5679996,2385,0,125.5213366,0,-364.1136568,42.57796513,12.4003661,0,33.55611756,0,0.229778243,246.3966006,0,26.74370935,-19.25902264,0,0,,,,
610.5759996,2385,0,-87.59526969,0,-435.7443684,93.67429112,26.09006159,0,58.1332365,0,45.23124586,-146.6885413,0,-133.3822911,-34.2953232,0,0,,,,
610.5839996,2385,0,163.5545303,0,-339.0717015,-30.46136664,-69.40605111,0,-43.19042317,0,-6.899037084,175.9800359,0,20.99805885,-36.12710373,0,0,,,,
610.5919996,2385,0,-17.02866474,0,-413.0187759,68.11624009,35.30130915,0,58.74561737,0,19.78599051,31.60460803,0,-65.4240583,-10.47824269,0,0,,,,
610.5999996,2385,0,41.37493703,0,-350.8486078,-16.71213287,-83.92510446,0,-51.96102521,0,10.28618172,-51.0178201,0,-66.53397779,-29.04834365,0,0,,,,
610.6079996,2385,0,140.4603263,0,-337.9012538,-4.154560766,-29.93958575,0,-8.618354172,0,-41.75782717,242.3199064,0,33.23074255,-6.095286277,0,0,,,,
610.6159996,2385,0,-63.91293838,0,-405.1169895,78.78441794,-0.454161522,0,35.29026705,0,4.6504037,-153.972358,0,-125.9840665,-22.47315418,0,0,,,,
610.6239996,2385,0,185.1071643,0,-327.1118624,-16.65916593,-75.97039957,0,-34.67918425,0,-20.97644731,161.6658372,0,23.33204113,-32.02105691,0,0,,,,
610.6319996,2385,0,-16.20946897,0,-423.8972136,94.97570685,44.00197693,0,81.817911,0,14.32377523,-0.144618604,0,-66.55423891,-16.25549234,0,0,,,,
610.6399996,2385,0,32.48307509,0,-377.3270438,21.18824829,-67.88338566,0,-21.40218249,0,24.30089345,-90.3671475,0,-67.65405773,-44.29599721,0,0,,,,
610.6479996,2385,0,136.0058637,0,-362.0971177,21.389271,-21.26225489,0,21.62250952,0,-5.117448516,200.3083044,0,32.70581221,-18.8937089,0,0,,,,
610.6559996,2385,0,-57.37687399,0,-400.3903074,61.8687119,-17.33587344,0,33.18505301,0,29.51452475,-183.2360714,0,-117.8435863,-22.53368962,0,0,,,,
610.6639996,2385,0,186.2044639,0,-318.9630216,-43.05742651,-96.11158208,0,-51.92733647,0,-16.62941422,145.7694728,0,34.40841058,-28.8756412,0,0,,,,
610.6719996,2385,0,-17.98282274,0,-424.4176352,82.90477176,34.50681355,0,76.38888226,0,19.62146629,-16.74518144,0,-60.16926773,-18.00293571,0,0,,,,
610.6799996,2385,0,34.74974448,0,-377.5151433,9.499282876,-73.70178843,0,-27.95450856,0,33.7788072,-95.27347897,0,-58.89369858,-40.76326106,0,0,,,,
610.6879996,2385,0,120.2474131,0,-383.506129,16.58265204,-17.62806707,0,13.64170061,0,5.227216964,199.5826063,0,40.41888274,-11.95177551,0,0,,,,
610.6959996,2385,0,-75.49579501,0,-431.725891,66.85964629,-15.70841186,0,26.77999143,0,42.30032364,-183.4256599,0,-108.3632559,-24.58269076,0,0,,,,
610.7039996,2385,0,183.7223476,0,-330.9741432,-45.32366699,-113.4768225,0,-71.75859713,0,-10.61617045,158.2209696,0,51.96425862,-30.59391942,0,0,,,,
610.7119996,2385,0,-19.87963365,0,-429.3720562,71.33740483,11.67191779,0,54.42028231,0,12.46568903,-1.351215105,0,-43.54312669,-13.25950305,0,0,,,,
610.7199996,2385,0,27.62834886,0,-392.8765191,8.589465473,-79.94170282,0,-25.15072119,0,20.60503499,-83.31450092,0,-46.77609037,-42.19153102,0,0,,,,
610.7279996,2385,0,112.5183212,0,-395.1559262,19.02958587,-18.58649219,0,25.48575945,0,-3.715878584,206.4147187,0,47.64442389,-19.65436078,0,0,,,,
610.7359996,2385,0,-79.65983838,0,-443.7163535,70.69707406,-5.186252552,0,46.79680416,0,43.74906315,-181.5051892,0,-106.4614966,-30.86880632,0,0,,,,
610.7439996,2385,0,180.3241682,0,-353.176753,-27.22458551,-78.42390342,0,-32.15280466,0,5.600003601,150.9870013,0,47.77590272,-37.91422191,0,0,,,,
610.7519996,2385,0,-7.277694022,0,-414.8580932,70.29644957,23.79079603,0,69.46110786,0,28.75784818,-6.131641193,0,-44.74505028,-12.1151291,0,0,,,,
610.7599996,2385,0,64.53287213,0,-320.0933587,-8.082595119,-94.16341273,0,-36.33300349,0,17.65908537,-58.02890277,0,-32.06957373,-22.39317735,0,0,,,,
610.7679996,2385,0,136.2066866,0,-320.7753334,31.92929511,-6.455414875,0,34.08699073,0,-8.085018137,241.7734144,0,67.12689166,-0.819629173,0,0,,,,
610.7759996,2385,0,-73.27881853,0,-383.0733545,85.5332482,9.431524115,0,55.88638393,0,47.05847752,-159.1095908,0,-89.3415637,-22.35927559,0,0,,,,
610.7839996,2385,0,185.3081094,0,-282.0150385,-30.0548605,-85.77310462,0,-39.19369983,0,-0.322004947,169.2456732,0,68.05052989,-25.04621333,0,0,,,,
610.7919996,2385,0,-9.284026361,0,-359.6698275,72.57146422,23.33969095,0,60.30048021,0,16.11744051,7.947151018,0,-26.21192263,0.580127624,0,0,,,,
610.7999996,2385,0,65.14815629,0,-308.239045,-3.541797608,-85.54833599,0,-41.91608302,0,8.51722412,-60.57047621,0,-24.00769828,-23.78816034,0,0,,,,
610.8079996,2385,0,149.1942563,0,-321.4962549,23.51465661,-14.036281,0,26.11337985,0,-9.725425564,216.4808728,0,64.53315433,-7.489149878,0,0,,,,
610.8159996,2386,0,-58.64340643,0,-375.8375386,66.54830961,-11.2477123,0,33.67198003,0,41.83088003,-178.5446777,0,-96.50421019,-20.21871535,0,0,,,,
610.8239996,2386,0,185.923141,0,-290.2490599,-37.31852571,-91.98008991,0,-52.54379339,0,-13.21378511,158.9072903,0,51.05879803,-25.40830872,0,0,,,,
610.8319996,2386,0,-14.3974858,0,-375.0514864,79.82349271,29.09777267,0,72.82545864,0,14.05673841,-8.807374033,0,-47.1414684,-8.457059375,0,0,,,,
610.8399996,2386,0,55.24942822,0,-310.5254531,-2.305075249,-81.8482105,0,-29.57626712,0,16.45244937,-64.92401154,0,-33.36139669,-25.67912551,0,0,,,,
610.8479996,2386,0,138.5075432,0,-302.6454821,0.60114377,-25.8821951,0,12.2171614,0,-21.94459175,217.8203125,0,59.31369542,-2.515966339,0,0,,,,
610.8559996,2386,0,-62.89375742,0,-347.4055395,51.02721095,-14.82527627,0,26.02729406,0,7.170001449,-175.9209996,0,-97.88784239,-14.65630018,0,0,,,,
610.8639996,2386,0,167.2688962,0,-278.5488232,-27.46113345,-71.71211233,0,-38.33376029,0,-25.03627903,159.2749945,0,51.34045101,-22.35422867,0,0,,,,
610.8719996,2386,0,-29.97841259,0,-355.7522846,69.61587185,27.74287444,0,62.05746854,0,17.88788747,-17.16895529,0,-49.41170787,-8.241440942,0,0,,,,
610.8799996,2386,0,45.75672847,0,-287.9148048,-19.2508251,-86.3903091,0,-50.33710193,0,-1.00900813,-66.93242238,0,-32.68374766,-23.0371023,0,0,,,,
610.8879996,2386,0,108.2005517,0,-310.3173408,13.06142513,-1.778609235,0,15.10986377,0,-27.14266974,202.2063366,0,49.62032086,-12.6130034,0,0,,,,
610.8959996,2386,0,-71.94040521,0,-334.133839,47.14382794,-11.81747682,0,11.05778794,0,19.9153708,-190.2718058,0,-104.7703706,-31.35179822,0,0,,,,
610.9039996,2386,0,181.5949162,0,-232.6653989,-60.64692101,-86.9371372,0,-74.78812734,0,-37.00650903,172.9022527,0,62.94105179,-22.62628445,0,0,,,,
610.9119996,2386,0,-38.36594185,0,-337.2877734,55.86315835,42.93329176,0,45.15263394,0,1.683808679,-11.70397494,0,-46.62281718,-12.91418468,0,0,,,,
610.9199996,2386,0,39.2513429,0,-274.0454111,-34.44707378,-72.17756979,0,-73.57134002,0,4.259418848,-68.40654776,0,-40.16073523,-33.9864267,0,0,,,,
610.9279996,2386,0,114.2550539,0,-275.3966921,-23.4123265,-14.21990076,0,-27.74296481,0,-20.98970518,218.3373637,0,50.35778048,-3.787955791,0,0,,,,
610.9359996,2386,0,-73.42941665,0,-318.649934,32.816725,-20.79166703,0,-12.30167574,0,24.45387228,-178.5772197,0,-107.7401275,-22.03336858,0,0,,,,
610.9439996,2386,0,186.6926643,0,-225.2390815,-59.77406191,-97.4315419,0,-89.95920917,0,-30.0526614,170.2381514,0,51.30495736,-25.0113899,0,0,,,,
610.9519996,2386,0,-21.5055998,0,-303.1965306,45.06358048,22.91334441,0,19.74807824,0,-0.956559673,0.884599367,0,-49.37824798,-10.52967117,0,0,,,,
610.9599996,2386,0,44.03690249,0,-239.7408479,-13.66204235,-61.25293113,0,-62.25506332,0,4.740907208,-45.34373165,0,-38.76253525,-41.04153108,0,0,,,,
610.9679996,2386,0,106.0966244,0,-252.2240456,27.70615501,21.32026955,0,12.57594241,0,-1.652088708,234.6754687,0,49.1224308,-23.23199256,0,0,,,,
610.9759996,2386,0,-72.49094646,0,-284.8792357,49.9857592,0.141857655,0,-3.299694343,0,46.01549898,-149.6350173,0,-101.6275752,-30.98474404,0,0,,,,
610.9839996,2386,0,187.550453,0,-191.9778131,-58.75345858,-76.33174819,0,-92.24061835,0,-12.32198206,201.7772879,0,59.14897033,-23.26642921,0,0,,,,
610.9919996,2386,0,-28.52401345,0,-288.6568672,60.2419585,46.07736251,0,28.75347116,0,22.92780458,13.83835852,0,-44.6773044,-7.90363536,0,0,,,,
610.9999996,2386,0,50.34590572,0,-227.9783245,-24.69732803,-68.08650438,0,-79.92116227,0,22.99690467,-40.22245902,0,-30.43663933,-33.15129428,0,0,,,,
611.0079996,2386,0,110.9923016,0,-247.9426686,4.416227038,11.30236431,0,-14.97017637,0,-10.06208003,229.8606544,0,58.24760148,-10.06519017,0,0,,,,
611.0159996,2386,0,-98.26785832,0,-318.32294,65.64961115,30.91239306,0,7.349867169,0,42.50829439,-173.8810339,0,-97.63375044,-33.59878551,0,0,,,,
611.0239996,2386,0,154.4795902,0,-227.9266094,-42.96316382,-47.23897609,0,-84.02265683,0,16.94309953,172.0188131,0,63.03238038,-35.90897784,0,0,,,,
611.0319996,2386,0,-45.63206737,0,-296.1465441,49.8789227,50.04426544,0,12.35689364,0,36.31637086,1.081700039,0,-32.48515977,-5.977729875,0,0,,,,
611.0399996,2386,0,29.36212341,0,-242.9800642,-25.32825527,-58.96256602,0,-80.83559131,0,19.41978138,-48.26318218,0,-17.45093877,-32.96947385,0,0,,,,
611.0479996,2386,0,87.23332796,0,-267.9263158,3.122220615,13.45352925,0,-13.86125951,0,4.217246728,211.4026591,0,63.44668982,-17.59867464,0,0,,,,
611.0559996,2386,0,-107.0943268,0,-320.8109982,48.73787169,19.34223476,0,-2.038854471,0,48.76125915,-180.8629711,0,-92.97753296,-32.39347306,0,0,,,,
611.0639996,2386,0,139.7418252,0,-239.9380827,-49.9997341,-51.89220462,0,-77.44138493,0,7.249947411,162.0477156,0,64.65530448,-39.71116972,0,0,,,,
611.0719996,2387,0,-55.50473452,0,-309.1435501,40.81337129,40.20951944,0,17.41994065,0,28.13462701,-19.53463362,0,-35.37792837,-15.68063661,0,0,,,,
611.0799996,2387,0,48.44366044,0,-231.3843405,-45.81718171,-74.78493582,0,-88.04345573,0,4.722663051,-52.58079342,0,-15.06875547,-29.29023447,0,0,,,,
611.0879996,2387,0,113.771178,0,-249.0877808,-11.3717469,8.790631034,0,-12.30568399,0,-15.42867139,208.3665057,0,68.84154175,-7.520567033,0,0,,,,
611.0959996,2387,0,-69.44774379,0,-279.6589639,17.19818054,1.993789931,0,-10.27803324,0,24.54809364,-179.1362045,0,-85.43831974,-20.07413782,0,0,,,,
611.1039996,2387,0,179.6825317,0,-191.9872409,-77.91711341,-61.00471476,0,-75.47083214,0,-24.40927983,171.51104,0,71.38561977,-26.52331531,0,0,,,,
611.1119996,2387,0,-41.9016229,0,-300.7242607,52.52483893,71.87329,0,57.6245753,0,22.86680949,-28.60643094,0,-40.51028312,-17.7367618,0,0,,,,
611.1199996,2387,0,51.22257309,0,-226.4051562,-43.87754844,-53.10750653,0,-61.81947607,0,18.64885578,-61.45830082,0,-26.79262953,-34.59115645,0,0,,,,
611.1279996,2387,0,119.3797395,0,-227.2320278,-29.18404537,5.789618423,0,-7.731338363,0,-19.10184648,207.9197352,0,57.20528924,-7.918628095,0,0,,,,
611.1359996,2387,0,-66.58057233,0,-269.732438,30.62339429,14.01369824,0,14.73811417,0,19.76670515,-184.3211249,0,-97.6154566,-28.10549606,0,0,,,,
611.1439996,2387,0,188.0077695,0,-166.1099827,-49.2976236,-42.69883049,0,-44.85846792,0,-18.763177,177.0568481,0,63.28062758,-28.79049784,0,0,,,,
611.1519996,2387,0,-17.93061008,0,-240.5485239,60.08692915,67.39835803,0,67.46059447,0,28.92820005,-7.710686016,0,-37.60839487,-10.08088668,0,0,,,,
611.1599996,2387,0,74.12664605,0,-171.2261362,-39.73050346,-66.89253908,0,-60.02890069,0,17.0438373,-44.88433092,0,-15.12979338,-29.1689368,0,0,,,,
611.1679996,2387,0,133.0069835,0,-180.9497669,-16.33099767,2.221464677,0,-4.641691834,0,-27.41315365,213.251101,0,65.38220134,-6.747389775,0,0,,,,
611.1759996,2387,0,-51.97131513,0,-224.6721274,37.52132558,9.295027044,0,8.754987606,0,19.82161066,-172.6003558,0,-89.94040519,-25.60773622,0,0,,,,
611.1839996,2387,0,184.7810464,0,-153.4217631,-41.77919997,-44.42863307,0,-50.72445811,0,-14.22679023,185.7091296,0,71.70993372,-20.20736976,0,0,,,,
611.1919996,2387,0,-47.43117443,0,-277.1038287,93.72825329,93.61176873,0,88.1392458,0,36.60956798,-20.40067697,0,-39.58270958,-7.709844728,0,0,,,,
611.1999996,2387,0,47.01799551,0,-221.0605047,2.466218624,-33.76220774,0,-33.172998,0,48.55617223,-59.29473336,0,-26.283401,-33.98241868,0,0,,,,
611.2079996,2387,0,124.2979767,0,-202.8635158,-0.698256689,7.024657917,0,-0.195196949,0,9.075873879,211.4038074,0,59.13939308,-0.473511539,0,0,,,,
611.2159996,2387,0,-53.03002964,0,-232.9920347,40.349085,3.322565381,0,10.11443554,0,30.5611589,-163.9975837,0,-83.95974868,-11.99293056,0,0,,,,
611.2239996,2387,0,180.5046638,0,-160.2244142,-45.88482865,-59.56643843,0,-62.46161706,0,-16.14139668,190.1532054,0,72.48342156,-17.80022837,0,0,,,,
611.2319996,2387,0,-33.46008928,0,-243.5036855,52.21840514,40.42501443,0,37.41765422,0,11.9493636,-10.5935991,0,-42.98410667,-9.519914098,0,0,,,,
611.2399996,2387,0,67.29335168,0,-169.7571187,-43.77806648,-83.92031916,0,-73.7215018,0,-7.415039105,-31.33250377,0,-21.18606596,-33.26344522,0,0,,,,
611.2479996,2387,0,103.9644586,0,-203.094631,3.004528583,8.007692579,0,7.547233569,0,-30.7903808,220.0925457,0,54.44413511,-14.62655644,0,0,,,,
611.2559996,2387,0,-81.9013038,0,-262.9058561,58.91239694,21.34179806,0,27.60278753,0,27.32841278,-172.7016891,0,-100.1441266,-39.97559051,0,0,,,,
611.2639996,2387,0,164.9642155,0,-197.8481814,-31.98187191,-40.63205784,0,-40.49755959,0,-6.720093197,181.92722,0,56.99129676,-45.71191554,0,0,,,,
611.2719996,2387,0,-57.72854683,0,-298.0217227,80.46239716,70.38964783,0,70.79122739,0,28.573798,-30.35492882,0,-57.87745733,-32.68357143,0,0,,,,
611.2799996,2387,0,54.7358103,0,-211.8805034,-24.19786753,-63.53313386,0,-59.95774178,0,14.50334999,-49.06807652,0,-29.15754605,-43.84758013,0,0,,,,
611.2879996,2387,0,106.5383779,0,-227.808667,0.563629865,9.157655098,0,-0.364248473,0,-20.91686777,206.9512308,0,51.96485352,-14.74764401,0,0,,,,
611.2959996,2387,0,-75.9283868,0,-267.3351353,34.05219298,-2.995540165,0,0.824209963,0,24.04030248,-181.2605653,0,-99.06394576,-36.46915014,0,0,,,,
611.3039996,2387,0,178.7060633,0,-168.7355907,-75.37242667,-87.44057552,0,-86.50935825,0,-23.85617698,191.3364955,0,67.734052,-33.72573244,0,0,,,,
611.3119996,2387,0,-39.94730222,0,-258.9770472,43.77748883,29.59523538,0,31.27031985,0,-1.567222763,-8.656702425,0,-43.14489902,-17.90989953,0,0,,,,
611.3199996,2387,0,77.52365226,0,-169.4774518,-34.04525995,-82.36375352,0,-71.77912453,0,-8.248715464,-20.31195856,0,-18.18292444,-39.00389349,0,0,,,,
611.3279996,2388,0,133.2260046,0,-176.7806852,19.00001846,13.77401897,0,12.8385007,0,-27.31154463,244.287033,0,64.46551103,-13.0035681,0,0,,,,
611.3359996,2388,0,-58.29826214,0,-231.8006307,64.08924435,20.75250891,0,24.83666319,0,24.42398106,-147.276661,0,-85.90236899,-32.80811515,0,0,,,,
611.3439996,2388,0,192.8529572,0,-136.7496602,-54.85512977,-63.21683582,0,-65.48100276,0,-18.3244301,206.1470897,0,71.07937561,-34.50763128,0,0,,,,
611.3519996,2388,0,-28.18284535,0,-225.8665314,62.19049367,52.175955,0,50.45225111,0,10.26089643,5.000156729,0,-37.74618581,-14.69051761,0,0,,,,
611.3599996,2388,0,56.223484,0,-185.4238328,-3.610076627,-48.56092539,0,-41.43873101,0,10.89783314,-19.40929168,0,-14.96247207,-39.90645363,0,0,,,,
611.3679996,2388,0,108.9935296,0,-199.4187422,14.57386637,15.5216112,0,16.64621602,0,-5.237264197,211.893558,0,51.14883507,-23.77855257,0,0,,,,
611.3759996,2388,0,-47.24960718,0,-208.3357424,25.43636921,-15.00714848,0,-5.640858394,0,17.40016498,-154.4864353,0,-86.30140675,-22.63479841,0,0,,,,
611.3839996,2388,0,191.0671479,0,-130.1905581,-56.29661694,-68.44451126,0,-65.9340433,0,-42.81970007,218.1289925,0,81.05366025,-17.95765717,0,0,,,,
611.3919996,2388,0,-29.46528181,0,-219.0673322,61.57002866,47.69805473,0,50.15251126,0,5.263217643,-2.365064669,0,-40.02902631,-15.20409125,0,0,,,,
611.3999996,2388,0,88.1343075,0,-128.128369,-45.67365064,-85.95831143,0,-78.68133109,0,-7.027198303,-7.264124543,0,-8.619931386,-26.80039593,0,0,,,,
611.4079996,2388,0,128.4885693,0,-147.2366761,-14.7686103,-1.222300072,0,-7.386776095,0,-43.41213671,232.4205454,0,64.0436755,-1.980779495,0,0,,,,
611.4159996,2388,0,-39.4139986,0,-187.0000373,25.35277759,-6.586200725,0,-4.855678909,0,5.268594364,-157.7439388,0,-87.49546985,-22.42458176,0,0,,,,
611.4239996,2388,0,211.8843021,0,-111.7003208,-59.17607346,-69.24532234,0,-68.33143566,0,-34.2581255,205.323074,0,73.11642351,-22.58322877,0,0,,,,
611.4319996,2388,0,-13.18768705,0,-202.6536038,57.60966556,39.97409941,0,42.72612169,0,8.9350541,-13.92179419,0,-46.15234249,-10.91084584,0,0,,,,
611.4399996,2388,0,84.69709149,0,-140.8424406,-16.77785391,-74.18205543,0,-63.65848194,0,5.086550917,-22.75620999,0,-19.81137816,-31.64793543,0,0,,,,
611.4479996,2388,0,124.2570044,0,-167.4126646,28.4754072,12.94150864,0,15.73314005,0,-11.71649713,211.359142,0,50.38124985,-15.03828062,0,0,,,,
611.4559996,2388,0,-19.29835983,0,-155.4941884,41.73517645,-16.74805987,0,-8.86753817,0,31.66647235,-160.1854456,0,-87.63097687,-18.52788528,0,0,,,,
611.4639996,2388,0,241.6660216,0,-43.77177507,-52.1605904,-77.57834309,0,-80.14652072,0,-30.1584416,217.1720029,0,80.08985961,-2.109130657,0,0,,,,
611.4719996,2388,0,12.99455778,0,-144.3792923,61.92487508,43.49772632,0,40.82950227,0,8.026483428,-11.43694309,0,-41.98131427,0.79028637,0,0,,,,
611.4799996,2388,0,121.7797884,0,-73.24203753,-33.15251537,-71.29539669,0,-71.3369712,0,2.263363751,-12.02452755,0,-7.082303945,-16.78774456,0,0,,,,
611.4879996,2388,0,149.4628879,0,-107.9287267,14.10475518,25.76921712,0,11.7409101,0,-18.74392517,218.2836035,0,62.02602777,5.723206792,0,0,,,,
611.4959996,2388,0,-22.48417711,0,-146.5673971,36.51842572,-1.112553775,0,2.234115164,0,32.90956987,-176.2571505,0,-90.46002257,-22.50390248,0,0,,,,
611.5039996,2388,0,239.2727031,0,-37.99655782,-71.12178321,-81.21728013,0,-81.99622501,0,-27.43836412,209.3090084,0,81.42556531,-4.987095199,0,0,,,,
611.5119996,2388,0,1.576141341,0,-143.3763752,60.331744,53.31632599,0,45.5291394,0,7.701842715,-15.14008064,0,-35.75380422,9.287049447,0,0,,,,
611.5199996,2388,0,102.3835595,0,-94.72550847,-15.3118051,-45.36005383,0,-48.61650178,0,12.65232378,-17.72030919,0,-7.903244169,-22.81015458,0,0,,,,
611.5279996,2388,0,152.5780295,0,-105.776874,14.89087738,36.05273248,0,20.48728695,0,-6.275863539,240.5151495,0,69.44841233,9.311699841,0,0,,,,
611.5359996,2388,0,-9.736920156,0,-145.9489993,52.29350781,32.23803872,0,21.97231601,0,51.11501161,-149.130544,0,-74.66843127,-9.303583797,0,0,,,,
611.5439996,2388,0,247.7896988,0,-63.90072415,-40.56566141,-28.19073,0,-59.19238048,0,15.21568779,220.3747033,0,92.63175804,-0.053037816,0,0,,,,
611.5519996,2388,0,14.93074843,0,-158.0142263,59.53397987,71.35534049,0,34.74761155,0,43.37224664,4.110761354,0,-25.17968949,19.971312,0,0,,,,
611.5599996,2388,0,112.7138603,0,-104.6228914,-26.36799192,-46.09171051,0,-59.64754754,0,20.6193503,-13.4660588,0,-6.98750521,-16.6853125,0,0,,,,
611.5679996,2388,0,156.431013,0,-115.8367308,8.833737948,34.52637156,0,14.45770895,0,-13.16830979,222.8127888,0,62.03367123,7.031374733,0,0,,,,
611.5759996,2388,0,-8.231957467,0,-135.4926,33.34415,15.14456644,0,-0.191450091,0,26.25554913,-146.6174982,0,-72.9593455,-6.655953175,0,0,,,,
611.5839996,2389,0,227.0250227,0,-61.70700641,-48.03034301,-41.77407271,0,-64.93351203,0,-19.52524011,218.7520916,0,86.87029493,-8.429435185,0,0,,,,
611.5919996,2389,0,6.11774838,0,-142.6139186,50.07098454,51.92339334,0,27.62804453,0,10.60891909,-4.449856131,0,-36.16545211,5.656499776,0,0,,,,
611.5999996,2389,0,137.0386268,0,-60.80728192,-48.66071444,-69.7533496,0,-81.12591781,0,-10.5056298,0.136777394,0,-2.430129717,-18.98174796,0,0,,,,
611.6079996,2389,0,169.5655522,0,-93.89216889,6.409952754,37.39804444,0,12.80203508,0,-30.98954782,224.948489,0,62.17806263,5.914891954,0,0,,,,
611.6159996,2389,0,-0.052527049,0,-116.6221859,22.35045142,11.7727714,0,-14.45261427,0,14.46494214,-149.2489401,0,-85.29021379,-8.073009477,0,0,,,,
611.6239996,2389,0,234.1433954,0,-38.75922059,-70.09628089,-48.40455682,0,-84.98460839,0,-37.62947345,218.3879229,0,68.39526024,-18.10551115,0,0,,,,
611.6319996,2389,0,-0.32489525,0,-135.105902,53.92101856,76.89286189,0,38.16334287,0,3.37093778,-11.74266874,0,-54.05804584,-11.08058953,0,0,,,,
611.6399996,2389,0,119.1522606,0,-48.00750694,-35.60742552,-40.58020661,0,-73.54729088,0,4.361637536,4.041668813,0,-11.86272072,-24.71079169,0,0,,,,
611.6479996,2389,0,145.0395993,0,-68.59372248,4.833762189,43.31195645,0,4.197721233,0,-6.298900015,223.4382743,0,51.9155662,0.815575146,0,0,,,,
611.6559996,2389,0,-10.36677689,0,-96.01512468,24.98558727,21.65365182,0,-6.946183807,0,29.97495772,-148.7917388,0,-87.17320219,-10.42782114,0,0,,,,
611.6639996,2389,0,237.7168263,0,-22.57462596,-57.46015081,-28.93006338,0,-65.95106156,0,-21.64832688,231.9405364,0,80.83294013,-4.900795411,0,0,,,,
611.6719996,2389,0,2.951640324,0,-116.1920113,55.83416894,80.4680663,0,47.81995014,0,21.695987,-0.344954565,0,-40.32688012,6.181948721,0,0,,,,
611.6799996,2389,0,122.9119847,0,-43.20379536,-39.04945288,-42.92368327,0,-65.68879667,0,8.817164668,12.97706943,0,-0.487387152,-12.7116594,0,0,,,,
611.6879996,2389,0,141.6126794,0,-88.10842988,14.46356565,49.48195057,0,16.82914676,0,-5.607297177,224.7155494,0,57.4394917,6.047256409,0,0,,,,
611.6959996,2389,0,-22.82389591,0,-117.6658133,39.12537943,28.81854266,0,7.224650135,0,39.30081983,-149.095912,0,-84.81235034,-7.635939461,0,0,,,,
611.7039996,2389,0,224.5387697,0,-30.77243892,-54.23976352,-29.16579244,0,-55.27185769,0,-8.361899575,236.4401043,0,84.38897025,6.243004717,0,0,,,,
611.7119996,2389,0,-18.37704852,0,-134.6659531,68.46717083,88.65993751,0,65.97264487,0,30.5285064,0.59143447,0,-40.06646023,17.483143,0,0,,,,
611.7199996,2389,0,114.3505496,0,-43.09224326,-37.59327758,-42.90137237,0,-56.97662504,0,13.41551614,12.32501494,0,-2.595649729,-3.482585782,0,0,,,,
611.7279996,2389,0,154.4006061,0,-45.54589459,-17.69970838,27.99421415,0,8.087038561,0,-15.06000328,230.2061151,0,58.95819178,27.4878212,0,0,,,,
611.7359996,2389,0,-21.79268224,0,-81.58567155,15.89898679,20.24702267,0,16.58876225,0,19.35521139,-140.115947,0,-80.96005196,13.01899992,0,0,,,,
611.7439996,2389,0,210.462703,0,-7.836675642,-61.0813931,-29.43486169,0,-32.32851735,0,-23.20314367,243.0984286,0,84.87019554,17.71644152,0,0,,,,
611.7519996,2389,0,-42.24036781,0,-134.6323498,72.06055281,96.12407082,0,98.05359385,0,17.86730917,2.563438925,0,-43.96591192,22.49355404,0,0,,,,
611.7599996,2389,0,88.66696938,0,-75.56691726,-18.4079675,-19.20344111,0,-14.52380302,0,13.57802741,0.852067968,0,-8.108481316,-9.72529496,0,0,,,,
611.7679996,2389,0,147.4128199,0,-68.3227102,2.158475273,43.1979436,0,32.14913316,0,-6.127754157,222.454202,0,62.57750259,29.59525556,0,0,,,,
611.7759996,2389,0,-21.14343696,0,-98.04006447,28.56294986,28.1813035,0,23.14852439,0,17.06880839,-137.209242,0,-71.39309188,23.77367561,0,0,,,,
611.7839996,2389,0,216.0368884,0,-23.16858112,-60.54176018,-20.33218272,0,-34.4203797,0,-27.2470609,221.7384602,0,84.33172284,16.79210147,0,0,,,,
611.7919996,2389,0,-2.294896322,0,-96.72756708,44.35520544,80.69772191,0,62.26208787,0,8.756935079,-7.794448397,0,-36.13698117,36.04011639,0,0,,,,
611.7999996,2389,0,128.7848435,0,-14.85913828,-50.35009576,-40.58698726,0,-56.05467614,0,-15.29870775,24.06299702,0,8.546076577,19.31653614,0,0,,,,
611.8079996,2389,0,156.3069043,0,-39.07639416,-8.566098375,46.98675473,0,22.77480436,0,-28.04675638,223.7591662,0,62.04936259,36.68471305,0,0,,,,
611.8159996,2389,0,-0.69587062,0,-61.73593083,24.39895012,32.42063986,0,20.35076428,0,15.0044171,-142.1909075,0,-74.47648278,21.70964733,0,0,,,,
611.8239996,2389,0,247.8709898,0,27.27849438,-52.76240601,-20.42555228,0,-33.29947417,0,-26.03413203,225.0855152,0,84.529765,17.35285955,0,0,,,,
611.8319996,2389,0,16.26483384,0,-64.61406133,59.44620112,89.17278786,0,75.81503185,0,18.05105242,-20.12196812,0,-39.14794271,29.14723829,0,0,,,,
611.8399996,2390,0,136.6784018,0,-2.555182606,-36.49254841,-28.91359471,0,-39.92916918,0,3.816739231,8.503018252,0,8.316444551,12.12018639,0,0,,,,
611.8479996,2390,0,161.5201544,0,-26.84460033,4.241778111,43.10454806,0,26.55771734,0,-12.28376743,203.2802354,0,60.60098362,28.59661414,0,0,,,,
611.8559996,2390,0,0.894448597,0,-52.56741602,29.42005889,19.18911093,0,9.755283366,0,15.07854764,-161.1962482,0,-69.80270813,12.78180971,0,0,,,,
611.8639996,2390,0,225.0318981,0,8.656487301,-52.83815533,-25.75554275,0,-46.48444084,0,-40.66754573,212.088222,0,94.58669891,11.98823972,0,0,,,,
611.8719996,2390,0,-13.32962947,0,-91.04677358,55.52916401,76.33980518,0,60.39269429,0,0.008315646,-43.05951903,0,-37.9078985,16.16607879,0,0,,,,
611.8799996,2390,0,127.6672217,0,-15.15844423,-32.71110105,-34.13705543,0,-42.22277241,0,-13.33645478,-5.911245127,0,12.30520463,-1.143432415,0,0,,,,
611.8879996,2390,0,150.5230819,0,-43.80607953,13.235393,58.68942086,0,40.52735907,0,-24.40772797,207.4915723,0,73.85792791,30.49973283,0,0,,,,
611.8959996,2390,0,-16.42846623,0,-73.54590692,29.93721624,31.80963764,0,21.34168448,0,10.99740271,-155.0980746,0,-63.22582028,15.07742928,0,0,,,,
611.9039996,2390,0,211.9000246,0,-11.06052003,-41.97505488,-6.012691911,0,-27.94858788,0,-38.98176475,216.5369617,0,96.26038622,15.80495557,0,0,,,,
611.9119996,2390,0,-35.02141093,0,-123.6614105,75.57622737,103.5538087,0,83.98282041,0,10.36398752,-34.57691063,0,-32.04344742,28.05593746,0,0,,,,
611.9199996,2390,0,95.13509342,0,-54.34467131,-26.66939162,-29.80470681,0,-36.27509714,0,2.210441412,9.1404642,0,16.23484195,5.636710336,0,0,,,,
611.9279996,2390,0,116.4597784,0,-84.63196722,20.79663321,52.36749269,0,40.82897866,0,-15.90079012,225.7506685,0,76.17360549,33.70203579,0,0,,,,
611.9359996,2390,0,-41.04951726,0,-117.6842002,37.94406837,21.30737996,0,17.66529015,0,18.59390153,-136.6721022,0,-55.8735488,18.49791225,0,0,,,,
611.9439996,2390,0,203.2549808,0,-34.47111736,-57.39630392,-41.31023859,0,-54.65140945,0,-35.48189129,240.4088045,0,105.0021784,20.28578171,0,0,,,,
611.9519996,2390,0,-25.37409995,0,-121.7106774,52.14064595,63.4275225,0,52.98036326,0,-3.099118878,-0.833661213,0,-25.09893386,38.07856819,0,0,,,,
611.9599996,2390,0,123.2650393,0,-44.50813858,-46.51581838,-55.92447725,0,-58.38894484,0,-11.62748915,32.42724369,0,21.99816249,22.08104853,0,0,,,,
611.9679996,2390,0,148.4806956,0,-68.4453042,-2.445951987,34.98895877,0,20.06268622,0,-26.6379072,227.5305252,0,78.26642538,50.92914798,0,0,,,,
611.9759996,2390,0,-17.55540877,0,-97.43177619,16.40866687,13.26560944,0,3.826685038,0,5.895936724,-133.9393615,0,-59.04585607,29.19485287,0,0,,,,
611.9839996,2390,0,210.4701229,0,-25.95014955,-64.76136705,-33.45117657,0,-53.10231434,0,-37.20695082,240.5858118,0,95.09693492,28.05196,0,0,,,,
611.9919996,2390,0,-34.36237775,0,-127.9473144,59.26242329,86.53087697,0,63.26934004,0,10.33336105,-9.898374504,0,-37.68831611,42.41091709,0,0,,,,
611.9999996,2390,0,108.6233518,0,-40.13998111,-51.40446264,-49.1026473,0,-69.0443934,0,-0.103281824,29.88866545,0,9.831480526,19.84631355,0,0,,,,
612.0079996,2390,0,132.3607603,0,-49.08820167,-16.57030384,25.1432629,0,-4.245962448,0,-35.02508443,229.919185,0,67.35553755,50.20001544,0,0,,,,
612.0159996,2390,0,-30.64030545,0,-93.84946954,30.86558906,26.80502589,0,9.951708487,0,-5.822801355,-131.6187602,0,-63.5111785,26.45111456,0,0,,,,
612.0239996,2390,0,211.0337502,0,-22.52366364,-47.48625399,-29.41271837,0,-47.77022675,0,-39.58566139,234.3109178,0,94.55431802,16.03167703,0,0,,,,
612.0319996,2390,0,-18.56797741,0,-89.74443644,42.57434271,51.39984242,0,30.89088876,0,-13.3267006,-12.19223368,0,-28.88460193,33.77871082,0,0,,,,
612.0399996,2390,0,114.922285,0,3.162314047,-62.34891543,-65.14842363,0,-86.60871973,0,-41.65631321,34.16597753,0,22.74002509,12.49005224,0,0,,,,
612.0479996,2390,0,124.8285091,0,-19.90384439,-14.79468103,24.08057733,0,-5.648731574,0,-47.94863101,210.3761712,0,62.51398649,25.25557707,0,0,,,,
612.0559996,2390,0,-41.1415243,0,-66.8068777,12.96778696,-0.220853426,0,-20.64558588,0,-6.676073216,-146.9535422,0,-74.69106032,-3.090780447,0,0,,,,
612.0639996,2390,0,185.2294976,0,-1.534107117,-69.56839742,-53.81113063,0,-84.66901682,0,-51.57738316,235.7707484,0,85.17686308,-5.388751357,0,0,,,,
612.0719996,2390,0,-53.21734764,0,-85.05592387,36.83328595,47.01332391,0,16.12364578,0,-15.5902623,-16.87460293,0,-42.73050769,9.182266861,0,0,,,,
612.0799996,2390,0,76.30341371,0,-20.13394065,-59.64838822,-69.41105518,0,-93.18659197,0,-31.76665484,30.98062545,0,10.96303425,-15.56313987,0,0,,,,
612.0879996,2390,0,87.26382208,0,-44.42814774,-19.9337233,7.322051036,0,-24.66676397,0,-41.80135316,210.6114131,0,53.62853905,1.925948408,0,0,,,,
612.0959996,2391,0,-57.37565155,0,-59.84576338,-4.587151384,-22.52143368,0,-47.00539978,0,-20.04223138,-136.6592576,0,-78.85942486,-15.99786507,0,0,,,,
612.1039996,2391,0,178.1230605,0,16.6868981,-94.62256247,-77.30093051,0,-110.5525671,0,-73.60546813,246.0145681,0,81.38528571,-12.05130047,0,0,,,,
612.1119996,2391,0,-51.23392122,0,-65.60664782,11.97267815,26.24789973,0,-12.48238101,0,-35.83026539,-10.28003524,0,-49.53059879,3.252452701,0,0,,,,
612.1199996,2391,0,98.1634148,0,1.684877188,-65.35744744,-64.65273762,0,-102.4371094,0,-48.17316478,53.81269725,0,5.52262111,-18.31845582,0,0,,,,
612.1279996,2391,0,99.4131996,0,-50.29699805,-0.448923908,41.17121895,0,-1.851018896,0,-40.04939707,239.18842,0,48.62458091,1.759239915,0,0,,,,
612.1359996,2391,0,-61.77742149,0,-87.99820453,16.65857217,14.19189486,0,-22.55350429,0,1.354712085,-121.1985932,0,-81.63790487,-17.40720122,0,0,,,,
612.1439996,2391,0,168.2322116,0,-19.60876155,-70.21398196,-32.72882729,0,-83.8755099,0,-44.96758263,248.3726284,0,80.56198934,-15.84415821,0,0,,,,
612.1519996,2391,0,-77.59443908,0,-133.9507653,56.77568551,86.22045181,0,34.92817897,0,-0.956819014,-14.9323609,0,-48.61960791,-6.133687506,0,0,,,,
612.1599996,2391,0,63.50279622,0,-81.0532073,-27.90589795,-29.4798748,0,-72.12295739,0,-6.757616589,28.75055066,0,8.993255864,-32.5061592,0,0,,,,
612.1679996,2391,0,83.11871387,0,-99.85059133,-0.08633215,34.85532133,0,-19.53422959,0,-21.48076841,205.4184044,0,57.24937673,-1.206153108,0,0,,,,
612.1759996,2391,0,-65.01445017,0,-116.6551514,9.60366617,7.554472906,0,-46.46616599,0,-3.548574633,-131.6000538,0,-67.95526502,-5.7934665,0,0,,,,
612.1839996,2391,0,159.2448359,0,-57.02769461,-63.91812884,-24.5397471,0,-90.01451013,0,-35.54395632,239.826591,0,91.41599379,0.199843232,0,0,,,,
612.1919996,2391,0,-75.54378695,0,-145.4668739,30.12348735,61.08144548,0,-5.136597454,0,15.08246226,-25.87971602,0,-37.69858926,13.93219171,0,0,,,,
612.1999996,2391,0,66.99084562,0,-62.73890879,-77.05274352,-76.41548246,0,-130.1460442,0,-23.38490383,34.74831217,0,19.76833165,-11.01922978,0,0,,,,
612.2079996,2391,0,64.9408287,0,-101.0369192,-18.62213229,20.60176518,0,-33.64720852,0,-52.9624987,199.4722888,0,57.03212469,5.022544194,0,0,,,,
612.2159996,2391,0,-85.12800929,0,-129.6862624,14.29711291,13.18403241,0,-36.3111143,0,-8.450738,-157.3271393,0,-73.51812237,-22.79650685,0,0,,,,
612.2239996,2391,0,154.6610183,0,-32.19435225,-66.75599046,-38.11127087,0,-96.81857832,0,-41.7044877,222.5120056,0,93.28895851,-16.40063645,0,0,,,,
612.2319996,2391,0,-69.41052521,0,-95.83338945,12.36788454,34.91845443,0,-22.35877119,0,-22.97326581,-32.7695604,0,-30.12288171,6.480443819,0,0,,,,
612.2399996,2391,0,63.82040573,0,-36.19579358,-77.32162281,-69.09777803,0,-124.8549265,0,-57.32964764,16.90818111,0,24.71934917,-24.32572821,0,0,,,,
612.2479996,2391,0,59.73612375,0,-74.42111178,-12.6971265,36.2404145,0,-26.77329887,0,-55.60106364,173.0406258,0,62.54836698,-5.755924428,0,0,,,,
612.2559996,2391,0,-69.01574187,0,-85.73652079,-10.36585919,-6.475937942,0,-56.08980399,0,-12.87396995,-168.3231376,0,-62.72673665,-24.10106296,0,0,,,,
612.2639996,2391,0,176.2653965,0,-4.333883218,-95.82298343,-57.45558815,0,-117.4370514,0,-60.85609217,208.5055796,0,97.75712322,-18.98449925,0,0,,,,
612.2719996,2391,0,-64.20033252,0,-89.78820631,4.470032052,40.08975738,0,-22.66757537,0,-22.7294369,-59.84241528,0,-32.92199375,1.78614244,0,0,,,,
612.2799996,2391,0,71.35544796,0,-17.86050652,-94.85044282,-77.56930973,0,-131.0467205,0,-38.17576936,-0.176237702,0,23.57169488,-28.3088903,0,0,,,,
612.2879996,2391,0,82.84760163,0,-35.23426044,-52.26987353,2.508009383,0,-57.13422006,0,-50.73394436,160.5570527,0,60.86319583,-6.725063483,0,0,,,,
612.2959996,2391,0,-52.03984074,0,-58.04018713,-31.68795507,-19.7208418,0,-69.96682679,0,-23.04417981,-171.9424693,0,-61.83411494,-19.15003516,0,0,,,,
612.3039996,2391,0,179.7280841,0,-1.071522112,-89.86390521,-45.56009028,0,-99.69380751,0,-60.18754368,219.6282204,0,100.2184178,-18.98748582,0,0,,,,
612.3119996,2391,0,-63.92405643,0,-101.0716138,16.40711896,51.65213573,0,-3.642330986,0,-6.582943357,-49.08397645,0,-36.63773837,-7.479630901,0,0,,,,
612.3199996,2391,0,68.43368626,0,-42.64447511,-81.97674325,-58.57450799,0,-116.4020971,0,-19.06669454,3.995381209,0,13.14146507,-35.36681323,0,0,,,,
612.3279996,2391,0,76.62055401,0,-70.46042272,-39.00339784,27.05562167,0,-40.75868231,0,-29.08877931,162.6076112,0,51.55582774,-10.40442065,0,0,,,,
612.3359996,2391,0,-63.50232454,0,-89.01611082,-30.00938558,-14.11727445,0,-65.08214004,0,4.526473606,-172.0831616,0,-67.65078599,-24.63912024,0,0,,,,
612.3439996,2391,0,157.6517347,0,-26.22000532,-106.7934631,-55.81567637,0,-105.2713799,0,-37.43167085,198.0684672,0,85.92406519,-27.17373043,0,0,,,,
612.3519996,2392,0,-77.36664491,0,-117.1681014,-11.4630794,38.66198632,0,-6.111356676,0,-1.952470813,-79.14285654,0,-49.76429153,-14.79625548,0,0,,,,
612.3599996,2392,0,69.82528753,0,-38.22918275,-116.6532906,-86.00253413,0,-122.6409713,0,-28.68674325,-14.73661509,0,7.35076927,-41.16528091,0,0,,,,
612.3679996,2392,0,76.07080799,0,-56.53752567,-66.56287605,-2.709290775,0,-45.66611803,0,-45.29294188,142.9194922,0,38.60864645,-20.63570063,0,0,,,,
612.3759996,2392,0,-65.82919228,0,-78.40624822,-30.06768406,-12.89120794,0,-44.57002142,0,-16.61987829,-191.050394,0,-81.16607067,-41.53823842,0,0,,,,
612.3839996,2392,0,161.0029508,0,-4.561905398,-90.05541447,-43.30152741,0,-73.88884629,0,-52.1677936,175.9106918,0,75.85246632,-47.98797811,0,0,,,,
612.3919996,2392,0,-75.04429073,0,-94.90563336,12.54910895,43.84260303,0,17.89732015,0,-14.97606133,-93.70573103,0,-57.28565089,-32.85961931,0,0,,,,
612.3999996,2392,0,47.10714286,0,-57.48328348,-67.2548141,-51.93767607,0,-76.40877631,0,-44.13439965,-20.38271274,0,4.105145639,-61.86549395,0,0,,,,
612.4079996,2392,0,45.49781896,0,-97.28913239,-19.95889488,34.7406054,0,-1.071252547,0,-38.97413106,124.5508728,0,38.02963483,-45.07573266,0,0,,,,
612.4159996,2392,0,-85.72699791,0,-112.7623603,-20.57629264,-15.76195492,0,-49.32921887,0,-6.881996166,-197.2736808,0,-74.00354811,-51.44139123,0,0,,,,
612.4239996,2392,0,122.4010857,0,-62.84567671,-83.25932774,-46.29637529,0,-94.94888906,0,-62.93993485,181.7471086,0,82.27418099,-49.4711362,0,0,,,,
612.4319996,2392,0,-98.39653111,0,-143.6415205,3.481758088,22.78634663,0,-23.68488058,0,-23.95988795,-91.35261379,0,-54.14996549,-33.08095705,0,0,,,,
612.4399996,2392,0,62.32849834,0,-69.87811262,-104.1591881,-109.6038079,0,-144.3550377,0,-65.04227566,-4.100713059,0,15.17159488,-46.03810376,0,0,,,,
612.4479996,2392,0,46.65331717,0,-140.3478629,-22.9549341,7.520951446,0,-29.82251168,0,-70.72460194,135.1526087,0,45.55596066,-29.50057108,0,0,,,,
612.4559996,2392,0,-91.00364596,0,-188.8167866,-12.08973334,-25.99640404,0,-52.31855534,0,-11.42343932,-205.8998661,0,-78.10023098,-50.97791141,0,0,,,,
612.4639996,2392,0,132.8423893,0,-142.901875,-98.14554458,-67.45946249,0,-104.7299208,0,-61.68833286,174.059148,0,77.7015687,-43.60234031,0,0,,,,
612.4719996,2392,0,-89.17531838,0,-244.124538,7.702933268,27.34910239,0,-5.358798094,0,-22.40435513,-100.9088427,0,-59.6774417,-24.1410916,0,0,,,,
612.4799996,2392,0,73.45376905,0,-178.6039756,-88.62015244,-94.89550912,0,-111.8779648,0,-39.50783772,-21.55391411,0,2.554219167,-43.72180257,0,0,,,,
612.4879996,2392,0,68.47229519,0,-232.9393296,-27.30980534,-1.925671301,0,-20.02106452,0,-53.57024418,121.7660126,0,29.2439121,-22.78313691,0,0,,,,
612.4959996,2392,0,-67.82987436,0,-270.4914621,-9.625662081,-39.53152569,0,-39.79796291,0,-20.24758365,-205.798864,0,-92.13995933,-39.03749838,0,0,,,,
612.5039996,2392,0,140.0526032,0,-236.648195,-66.10248257,-64.73358115,0,-64.68866755,0,-66.68973991,180.311224,0,65.07049421,-36.90197593,0,0,,,,
612.5119996,2392,0,-91.01983969,0,-341.6638935,35.16684995,26.23759385,0,29.54194285,0,-18.26470533,-96.46972429,0,-70.62088885,-26.36116417,0,0,,,,
612.5199996,2392,0,84.15331738,0,-249.2600635,-89.96952708,-117.6406166,0,-108.2012916,0,-46.99321317,-19.20690246,0,-3.412350358,-46.03945024,0,0,,,,
612.5279996,2392,0,80.98341705,0,-298.355357,-27.2138786,-19.06229649,0,-16.24353417,0,-77.33716922,122.1804415,0,25.33594046,-22.70144218,0,0,,,,
612.5359996,2392,0,-66.34746289,0,-344.7291269,-3.178229278,-43.00423742,0,-28.62792715,0,-41.44038764,-208.0699334,0,-94.52822199,-40.55783461,0,0,,,,
612.5439996,2392,0,150.9257842,0,-284.9028286,-80.8837584,-86.16598069,0,-76.58401218,0,-79.92035161,171.9515695,0,62.94063376,-35.42939186,0,0,,,,
612.5519996,2392,0,-82.62873599,0,-389.8256245,26.02845651,10.54186216,0,21.17449135,0,-38.41235104,-97.84513064,0,-77.55744561,-22.61984806,0,0,,,,
612.5599996,2392,0,61.99817209,0,-329.1815758,-74.38698375,-109.2352439,0,-96.46353168,0,-50.62868919,-10.4290542,0,-14.46282185,-47.08210569,0,0,,,,
612.5679996,2392,0,54.59926486,0,-377.3022459,-20.02479949,-17.4824915,0,-15.02321511,0,-51.1032538,137.8517641,0,21.99020727,-21.80595018,0,0,,,,
612.5759996,2392,0,-90.4444212,0,-426.6371566,4.360920469,-31.53216206,0,-20.53339108,0,-12.81136658,-188.2680418,0,-91.20649654,-41.3076744,0,0,,,,
612.5839996,2392,0,121.2840406,0,-367.6584679,-65.0755899,-58.09375393,0,-59.4615945,0,-44.30435041,178.8823252,0,63.99768083,-43.4050827,0,0,,,,
612.5919996,2392,0,-93.53020628,0,-452.3719872,30.36430668,31.1192934,0,22.59620063,0,-0.798516605,-80.59898486,0,-61.94746687,-16.51005902,0,0,,,,
612.5999996,2392,0,49.4119843,0,-411.359704,-60.37709392,-72.04150122,0,-81.3594647,0,-26.85936915,14.65781609,0,8.302591424,-37.32946341,0,0,,,,
612.6079996,2393,0,32.31103062,0,-476.2020056,-2.349763035,27.16801069,0,7.01286697,0,-22.41457584,143.8568521,0,30.66033774,-26.05731002,0,0,,,,
612.6159996,2393,0,-91.91780673,0,-511.17695,-5.45182615,-18.2951354,0,-29.70572861,0,9.25032929,-170.4350194,0,-82.86906773,-40.49019776,0,0,,,,
612.6239996,2393,0,119.9021927,0,-473.9464804,-80.64432548,-55.80833489,0,-75.28027273,0,-46.57503104,199.5605085,0,72.52715949,-41.97158269,0,0,,,,
612.6319996,2393,0,-105.3030794,0,-579.3678735,13.4339838,24.73467427,0,7.861685925,0,-6.234081969,-83.84504056,0,-60.95587342,-28.76977665,0,0,,,,
612.6399996,2393,0,38.60256181,0,-533.9175736,-86.32424462,-96.38234745,0,-111.5652153,0,-44.29390779,9.95315825,0,10.42510632,-50.68337766,0,0,,,,
612.6479996,2393,0,25.90317889,0,-595.5655586,-23.80739548,1.196023673,0,-29.9029023,0,-57.62556759,139.0390079,0,34.76317283,-33.38698221,0,0,,,,
612.6559996,2393,0,-92.3205153,0,-623.7641243,-16.48154166,-34.57635148,0,-54.5282896,0,-18.04444436,-180.632655,0,-78.56911791,-44.48348143,0,0,,,,
612.6639996,2393,0,102.9821703,0,-606.2896301,-69.29328894,-52.15935758,0,-75.02661815,0,-65.24752138,188.182969,0,74.52954226,-45.25238403,0,0,,,,
612.6719996,2393,0,-125.2699409,0,-734.1132948,39.47134748,37.36916337,0,20.16161023,0,-13.15032186,-99.665592,0,-65.5603535,-38.26144105,0,0,,,,
612.6799996,2393,0,37.14922064,0,-696.9087655,-53.95802482,-74.08128078,0,-82.73278459,0,-33.47866084,-8.411946977,0,1.793356516,-60.8644923,0,0,,,,
612.6879996,2393,0,23.51918417,0,-783.1836932,13.27016596,29.85414579,0,11.96607223,0,-36.38702314,118.270959,0,23.8753988,-43.72504949,0,0,,,,
612.6959996,2393,0,-88.69507961,0,-814.0009112,0.284986401,-34.18586086,0,-36.06062535,0,1.30243748,-189.1542128,0,-85.26505102,-54.31789933,0,0,,,,
612.7039996,2393,0,120.7917094,0,-782.2410259,-76.13056141,-71.59749636,0,-71.66383775,0,-67.55085217,196.2456566,0,73.52906811,-43.64272834,0,0,,,,
612.7119996,2393,0,-110.7926644,0,-909.1284117,32.34070076,29.09265418,0,35.75273174,0,-27.3567487,-90.558353,0,-68.98023816,-38.53179387,0,0,,,,
612.7199996,2393,0,60.49397501,0,-841.286984,-69.04512692,-91.65376618,0,-72.86096733,0,-42.09918913,13.0071418,0,1.538881484,-61.00622572,0,0,,,,
612.7279996,2393,0,54.4246958,0,-902.2100282,-3.349107722,3.397890709,0,19.03269422,0,-55.84743148,152.9761086,0,30.77572349,-32.48242586,0,0,,,,
612.7359996,2393,0,-79.49299314,0,-951.6584635,16.0400729,-31.40618291,0,-2.114394358,0,-21.65713999,-173.1733958,0,-80.46616293,-51.5439042,0,0,,,,
612.7439996,2393,0,127.2678436,0,-907.6953012,-49.62454573,-64.44659242,0,-42.94575063,0,-67.05428712,191.2629169,0,76.18888086,-45.92981533,0,0,,,,
612.7519996,2393,0,-88.06626374,0,-997.343468,53.84936382,20.40157731,0,37.41793449,0,-26.01226587,-86.03349334,0,-56.33550711,-24.40054796,0,0,,,,
612.7599996,2393,0,70.23301429,0,-930.1560913,-22.64317623,-73.70722393,0,-50.14164588,0,-43.25803121,17.76328108,0,22.757804,-41.16434116,0,0,,,,
612.7679996,2393,0,47.29497545,0,-1002.965747,51.46883547,46.44528031,0,68.42720643,0,-31.07498908,143.936788,0,50.83960401,-16.78496966,0,0,,,,
612.7759996,2393,0,-75.84061309,0,-1037.872201,35.16658791,-8.902096091,0,27.19095875,0,7.957821002,-168.7030685,0,-62.86284235,-32.26646109,0,0,,,,
612.7839996,2393,0,128.839444,0,-991.4510976,-39.4895454,-44.43543113,0,-13.09371468,0,-49.05388233,202.3190044,0,89.17667948,-30.92788175,0,0,,,,
612.7919996,2393,0,-105.5038776,0,-1101.937128,70.54225966,53.93854824,0,83.07858611,0,-9.056839791,-81.61801986,0,-45.84415961,-19.16247638,0,0,,,,
612.7999996,2393,0,45.80159559,0,-1040.935965,-34.85417501,-69.71307054,0,-38.7835495,0,-32.793743,23.80636591,0,24.56197215,-41.19202333,0,0,,,,
612.8079996,2393,0,18.96029234,0,-1116.285174,37.24568324,36.12008478,0,61.87484207,0,-31.29290244,144.5875258,0,40.05721267,-23.53840256,0,0,,,,
612.8159996,2393,0,-99.64593982,0,-1148.838404,44.17673394,0.182050198,0,29.53751153,0,11.94027965,-163.7966724,0,-70.2067901,-39.09682464,0,0,,,,
612.8239996,2393,0,113.6282303,0,-1088.435787,-32.127683,-38.12908437,0,-29.56715167,0,-30.77073768,218.0629329,0,88.93901464,-25.00934731,0,0,,,,
612.8319996,2393,0,-122.4594589,0,-1198.002616,71.5074494,55.22909842,0,56.24790445,0,15.80848245,-62.71501742,0,-43.33243812,-3.739866634,0,0,,,,
612.8399996,2393,0,27.12582154,0,-1136.555184,-30.10180514,-63.58393034,0,-56.69286314,0,-6.203069165,30.24830876,0,26.60594373,-35.45006662,0,0,,,,
612.8479996,2393,0,25.33020825,0,-1169.545306,18.9256051,13.9371199,0,21.13646641,0,-21.49537144,146.9290467,0,49.97537177,-15.4914232,0,0,,,,
612.8559996,2393,0,-73.38412424,0,-1168.835072,-2.241040409,-41.97872161,0,-27.28717199,0,-15.91895449,-137.9389404,0,-43.88867507,-13.38497261,0,0,,,,
612.8639996,2394,0,123.6086817,0,-1129.604112,-59.06563871,-59.53192062,0,-50.88438598,0,-72.0937502,230.5393546,0,103.365555,-17.17041924,0,0,,,,
612.8719996,2394,0,-103.8214279,0,-1240.485348,54.48947338,29.2869468,0,47.75936742,0,-18.34379426,-71.62902708,0,-47.22417013,-20.19331818,0,0,,,,
612.8799996,2394,0,57.9530487,0,-1181.620979,-51.89653815,-87.55511631,0,-68.43023078,0,-44.98941849,34.8996526,0,25.03101427,-44.67725266,0,0,,,,
612.8879996,2394,0,36.98466673,0,-1250.703978,12.71759991,12.3616008,0,23.03853434,0,-48.63702214,142.5657326,0,41.23462245,-23.71639105,0,0,,,,
612.8959996,2394,0,-82.14752295,0,-1282.584772,10.8411626,-36.79398168,0,-15.09321297,0,-17.52297564,-159.6422448,0,-64.55757396,-34.45311954,0,0,,,,
612.9039996,2394,0,104.4677102,0,-1269.063364,-46.97986001,-45.33617387,0,-34.37845039,0,-63.89349991,211.5409771,0,87.67847341,-36.8427123,0,0,,,,
612.9119996,2394,0,-111.3998681,0,-1382.14535,42.80061362,35.98335104,0,48.25805134,0,-10.48008509,-83.86348803,0,-47.41267852,-22.90247859,0,0,,,,
612.9199996,2394,0,48.38590043,0,-1327.231887,-64.88962506,-86.54322692,0,-70.94419144,0,-47.0623513,21.58321179,0,30.22169148,-38.90677152,0,0,,,,
612.9279996,2394,0,18.15585162,0,-1404.597503,1.182558502,14.09385241,0,23.71304238,0,-56.46259728,122.2792881,0,39.76564925,-24.49096235,0,0,,,,
612.9359996,2394,0,-79.55010324,0,-1427.209807,-7.261075481,-42.79332569,0,-27.74243623,0,-28.11505202,-177.2515054,0,-67.60228022,-37.79434774,0,0,,,,
612.9439996,2394,0,123.6241378,0,-1406.211557,-54.50994723,-51.26591141,0,-53.86638701,0,-81.11486859,189.476888,0,82.36636285,-38.04511274,0,0,,,,
612.9519996,2394,0,-105.1798302,0,-1521.222371,47.94019042,36.87736732,0,33.52439748,0,-20.97383296,-114.7251911,0,-59.47052912,-30.42698451,0,0,,,,
612.9599996,2394,0,49.49950012,0,-1457.696188,-64.99164242,-86.80334319,0,-90.82304053,0,-46.5637512,-1.409694777,0,17.82735681,-49.52864964,0,0,,,,
612.9679996,2394,0,28.06778479,0,-1515.063823,-10.20774317,9.349881637,0,-8.087204028,0,-61.97692103,100.253874,0,32.62075289,-31.04853048,0,0,,,,
612.9759996,2394,0,-90.66730899,0,-1532.654879,4.04724509,-23.0163689,0,-28.27933225,0,-32.51043235,-217.2996342,0,-71.65787092,-48.90666209,0,0,,,,
612.9839996,2394,0,100.4197623,0,-1477.596015,-43.79630372,-35.21384766,0,-41.3793726,0,-67.20303038,139.4553845,0,81.99255369,-43.51973123,0,0,,,,
612.9919996,2394,0,-111.4262791,0,-1546.835918,30.55232499,22.36079788,0,24.86388616,0,-19.6423227,-152.762485,0,-48.94433765,-20.17538218,0,0,,,,
612.9999996,2394,0,33.97419558,0,-1483.146299,-59.62128036,-81.74122612,0,-72.28124102,0,-63.3865595,-43.97639839,0,28.88995093,-44.0903093,0,0,,,,
613.0079996,2394,0,3.155025042,0,-1539.744625,11.72610869,27.76555269,0,32.69289949,0,-62.57102125,40.94231764,0,35.42214169,-31.18997392,0,0,,,,
613.0159996,2394,0,-94.20608463,0,-1544.788594,-4.534872222,-37.03944456,0,-14.75865756,0,-33.63237817,-256.4850005,0,-63.34902071,-38.89137578,0,0,,,,
613.0239996,2394,0,94.16917783,0,-1506.835796,-52.65022634,-53.03095153,0,-29.37847267,0,-96.29274153,114.6683437,0,87.62031644,-37.06327196,0,0,,,,
613.0319996,2394,0,-126.5289086,0,-1594.606408,38.23237122,22.13056095,0,54.37758871,0,-48.59348733,-190.9765093,0,-57.21489152,-30.68092313,0,0,,,,
613.0399996,2394,0,43.7302562,0,-1509.911869,-79.59175882,-109.6142245,0,-74.15993689,0,-83.09844756,-69.77177873,0,26.99948736,-45.70854831,0,0,,,,
613.0479996,2394,0,8.757484193,0,-1574.13762,-2.801691586,-1.330069243,0,26.0537055,0,-103.9056583,28.53961777,0,36.79934664,-22.13553673,0,0,,,,
613.0559996,2394,0,-98.51634015,0,-1614.013575,14.19339508,-34.46171765,0,12.67040664,0,-67.40679519,-279.6401793,0,-75.91307181,-47.6379205,0,0,,,,
613.0639996,2394,0,110.629218,0,-1572.906953,-46.97666531,-62.0004436,0,-13.47405676,0,-96.8024903,100.5121568,0,75.02424739,-45.81762901,0,0,,,,
613.0719996,2394,0,-114.0428172,0,-1662.338882,43.64798939,14.80119976,0,70.09303409,0,-50.16060528,-185.4267481,0,-66.15957976,-31.45302113,0,0,,,,
613.0799996,2394,0,39.56406835,0,-1594.051162,-48.4631976,-90.27151686,0,-25.6366611,0,-78.06810685,-66.1830449,0,9.397920036,-64.67448587,0,0,,,,
613.0879996,2394,0,11.24629839,0,-1640.29203,17.97236225,5.437785859,0,64.27710125,0,-72.91102829,35.54726471,0,21.49731936,-48.90343829,0,0,,,,
613.0959996,2394,0,-82.54396238,0,-1631.928497,-0.373594309,-55.21732917,0,13.67968334,0,-44.74040016,-244.4614077,0,-72.60654155,-56.377468,0,0,,,,
613.1039996,2394,0,114.0884727,0,-1574.498563,-58.29350465,-70.62197957,0,-14.38004654,0,-90.04569369,139.093895,0,83.11129658,-46.81702298,0,0,,,,
613.1119996,2394,0,-120.0902614,0,-1674.86382,54.10302125,27.41167819,0,78.15388111,0,-30.39048374,-163.4648956,0,-60.94905505,-36.26570654,0,0,,,,
613.1199996,2395,0,51.60305112,0,-1594.541392,-50.15267038,-88.47858727,0,-32.9551997,0,-51.91733862,-31.94383178,0,25.4518195,-55.01679698,0,0,,,,
613.1279996,2395,0,12.68328707,0,-1659.636271,20.54121056,12.17348542,0,58.36204493,0,-51.52181833,66.89756969,0,35.03750558,-35.7151393,0,0,,,,
613.1359996,2395,0,-97.13369543,0,-1699.932796,30.77969173,-28.14187688,0,24.54202789,0,-12.61306281,-239.9535979,0,-75.74019672,-62.39452028,0,0,,,,
613.1439996,2395,0,120.0688292,0,-1641.338733,-34.49059349,-63.23207306,0,-13.40143334,0,-57.32238491,140.2514705,0,78.41603686,-51.73850606,0,0,,,,
613.1519996,2395,0,-113.0756605,0,-1735.133633,74.67368801,25.40009078,0,75.99560485,0,-21.6359045,-156.8436068,0,-61.69616109,-33.77858805,0,0,,,,
613.1599996,2395,0,35.27810255,0,-1678.336331,-5.836689436,-65.05540639,0,-12.32696644,0,-44.54147839,-37.0442143,0,14.32737972,-60.53360319,0,0,,,,
613.1679996,2395,0,-0.441073431,0,-1737.618173,58.04055795,34.34999786,0,83.05377022,0,-27.38113147,60.66543104,0,19.82487092,-34.45202031,0,0,,,,
613.1759996,2395,0,-98.95165581,0,-1755.74681,43.02901137,-22.41647376,0,32.30625887,0,9.812700284,-222.6524337,0,-79.72062902,-44.53138242,0,0,,,,
613.1839996,2395,0,104.4776065,0,-1701.401502,-22.55706445,-50.6345444,0,-5.084203742,0,-36.64215247,154.772274,0,72.72312816,-35.46677581,0,0,,,,
613.1919996,2395,0,-119.0835423,0,-1780.964715,72.74749763,26.92859554,0,70.73666957,0,2.589846576,-150.9790472,0,-68.38139312,-16.2038569,0,0,,,,
613.1999996,2395,0,60.14362326,0,-1685.700679,-39.85339173,-87.96099431,0,-52.69601571,0,-35.57395204,-13.41827587,0,17.12348767,-32.23073697,0,0,,,,
613.2079996,2395,0,26.25925464,0,-1724.850673,24.94602404,17.03165996,0,43.16985206,0,-36.97174261,82.77563743,0,21.55272225,-7.611661504,0,0,,,,
613.2159996,2395,0,-68.993209,0,-1722.3349,13.65037864,-33.51300127,0,5.004183984,0,-3.75452512,-204.5470394,0,-76.64402846,-19.53244074,0,0,,,,
613.2239996,2395,0,136.226069,0,-1650.562296,-56.41219195,-54.16674139,0,-28.78520744,0,-55.96835537,175.8138336,0,80.39140713,-11.7776213,0,0,,,,
613.2319996,2395,0,-88.55606229,0,-1724.815283,48.2477415,34.19986235,0,56.95619555,0,-13.11810408,-135.175882,0,-62.09425123,-1.84814804,0,0,,,,
613.2399996,2395,0,98.52384152,0,-1635.144251,-49.09938938,-73.58997139,0,-57.03132931,0,-38.13175661,0.791207797,0,24.79401683,-24.383696,0,0,,,,
613.2479996,2395,0,51.85882148,0,-1691.047338,29.74896366,44.37427483,0,39.69341268,0,-35.61250365,85.7587949,0,28.37961072,-10.54682533,0,0,,,,
613.2559996,2395,0,-54.39266266,0,-1685.221708,22.07136026,-7.369297499,0,-4.274447651,0,2.059878653,-205.8311449,0,-75.39458659,-34.75816991,0,0,,,,
613.2639996,2395,0,148.9588094,0,-1605.903333,-43.07557402,-33.26310273,0,-36.69839597,0,-45.61086427,180.3641545,0,76.39595307,-27.30945359,0,0,,,,
613.2719996,2395,0,-81.69333242,0,-1677.271355,63.86138882,53.44301545,0,48.61307182,0,-5.528558765,-125.5924021,0,-67.85839881,-12.26541744,0,0,,,,
613.2799996,2395,0,99.59923497,0,-1574.90097,-46.80171992,-66.30151443,0,-70.0559038,0,-37.8075149,21.32292875,0,14.09518741,-33.22227785,0,0,,,,
613.2879996,2395,0,44.84623069,0,-1629.611621,30.47477792,49.30583359,0,36.39836362,0,-41.20624027,109.6681037,0,12.94836347,-16.34688665,0,0,,,,
613.2959996,2395,0,-59.98720477,0,-1631.442641,37.07604851,8.249834209,0,3.486502433,0,3.433945481,-188.4843919,0,-84.17393067,-31.4101774,0,0,,,,
613.3039996,2395,0,144.5473871,0,-1553.224714,-32.19523353,-25.86755281,0,-33.19420229,0,-36.92293088,182.983533,0,68.07530424,-25.27857526,0,0,,,,
613.3119996,2395,0,-85.37730161,0,-1630.341759,67.90423816,48.80047192,0,55.03110031,0,-7.196757884,-129.8665364,0,-76.57736817,-15.70459198,0,0,,,,
613.3199996,2395,0,112.0133954,0,-1525.051875,-40.28507201,-75.70844902,0,-61.47282057,0,-42.35519302,13.82655466,0,14.84727809,-30.53902522,0,0,,,,
613.3279996,2395,0,72.38954968,0,-1552.479124,27.43111722,23.12229551,0,27.73795966,0,-44.0691567,92.15354998,0,16.53073824,-9.643585032,0,0,,,,
613.3359996,2395,0,-35.51527103,0,-1543.853517,45.45662875,-7.242283871,0,4.863232207,0,-11.65048152,-196.2969455,0,-79.42543219,-25.55851673,0,0,,,,
613.3439996,2395,0,153.5324916,0,-1479.701214,-0.094214007,-10.72714787,0,-5.153479916,0,-45.84797752,178.8277616,0,71.16349352,-20.09336009,0,0,,,,
613.3519996,2395,0,-86.44487699,0,-1560.589295,88.76585994,61.55862863,0,71.10140984,0,4.426557217,-147.6414417,0,-80.89921625,-16.3672764,0,0,,,,
613.3599996,2395,0,102.9362416,0,-1448.018094,-34.0380096,-71.91714562,0,-63.21009369,0,-33.35799735,4.063122442,0,10.7924609,-33.33760571,0,0,,,,
613.3679996,2395,0,59.26855681,0,-1465.157249,25.38079388,23.83960464,0,20.73128675,0,-47.0321046,87.68335013,0,12.19673492,-8.640974556,0,0,,,,
613.3759996,2396,0,-39.74548195,0,-1455.523482,24.92837023,-13.99163303,0,-13.65788146,0,-15.75022264,-214.0770364,0,-91.59610281,-30.28708548,0,0,,,,
613.3839996,2396,0,152.9433179,0,-1394.082369,-28.17275835,-18.1909951,0,-27.31314207,0,-52.75893803,157.1693977,0,55.66127638,-28.01888762,0,0,,,,
613.3919996,2396,0,-89.41382239,0,-1471.530746,73.46268072,63.32290858,0,63.63288343,0,-4.588224098,-166.1180591,0,-91.48975651,-18.00383219,0,0,,,,
613.3999996,2396,0,95.14874065,0,-1370.043707,-27.88414104,-50.96708663,0,-48.66944745,0,-29.52973905,-19.95302377,0,3.112625773,-32.45594121,0,0,,,,
613.4079996,2396,0,52.53883151,0,-1390.876848,25.19940922,37.86475953,0,29.73325114,0,-34.1884192,58.96285131,0,3.542593084,-8.100095433,0,0,,,,
613.4159996,2396,0,-39.802511,0,-1375.79427,10.41657938,-19.12046788,0,-22.01688634,0,-16.32485268,-226.4946123,0,-96.86077993,-24.50422116,0,0,,,,
613.4239996,2396,0,157.6662385,0,-1309.254418,-39.24679723,-27.32357489,0,-45.556851,0,-57.23910628,155.502502,0,50.92933525,-14.2332252,0,0,,,,
613.4319996,2396,0,-61.18305227,0,-1353.654817,52.9655587,40.32603338,0,29.07412598,0,-9.3737053,-163.2680412,0,-95.34062557,-0.825259909,0,0,,,,
613.4399996,2396,0,127.3128253,0,-1260.154519,-16.89315639,-41.38937609,0,-48.42042509,0,-39.75107247,-1.667764928,0,3.279220288,-13.89606374,0,0,,,,
613.4479996,2396,0,65.43846375,0,-1317.23611,75.95752071,89.77342415,0,70.38010534,0,-9.666267858,74.91451987,0,4.422758026,9.892482715,0,0,,,,
613.4559996,2396,0,-19.28687732,0,-1283.59095,34.33835476,13.99075981,0,0.835804973,0,32.11723103,-210.5450264,0,-83.60387972,-3.392353261,0,0,,,,
613.4639996,2396,0,167.5172157,0,-1226.005875,-15.14186721,18.94163265,0,-14.15034927,0,-17.37728791,174.1758856,0,74.85240535,4.510111759,0,0,,,,
613.4719996,2396,0,-77.62331308,0,-1301.405788,82.77874875,99.20772588,0,61.91099174,0,42.98715123,-155.4070947,0,-75.44730275,9.356257362,0,0,,,,
613.4799996,2396,0,110.2102414,0,-1187.284522,-31.90138892,-34.82547296,0,-58.78909258,0,6.887354489,-3.723581914,0,15.85787485,-6.909148307,0,0,,,,
613.4879996,2396,0,42.77024654,0,-1240.879591,58.40802101,79.54246446,0,58.9756243,0,4.920415817,58.13977375,0,6.43262531,4.452187932,0,0,,,,
613.4959996,2396,0,-37.74307721,0,-1215.455523,29.26697371,10.16428345,0,-4.523413128,0,37.08788744,-224.814852,0,-85.939828,-13.52184607,0,0,,,,
613.5039996,2396,0,161.5127881,0,-1140.723079,-36.74506035,-10.10535826,0,-39.71390848,0,-23.96401763,168.2032971,0,72.67858047,7.953589235,0,0,,,,
613.5119996,2396,0,-84.61377241,0,-1223.028745,75.5035955,78.2035353,0,50.84848786,0,11.0623987,-170.1350485,0,-80.60225503,13.19962507,0,0,,,,
613.5199996,2396,0,120.4231895,0,-1113.177191,-31.72749495,-31.01746907,0,-57.12138281,0,-21.65787336,-20.65412863,0,12.71653194,-6.895129217,0,0,,,,
613.5279996,2396,0,62.02167217,0,-1160.02449,46.87206964,85.86481271,0,50.12816343,0,-19.56113707,47.00776672,0,13.48098495,14.94816741,0,0,,,,
613.5359996,2396,0,-31.76664063,0,-1148.333961,31.62951745,18.40899626,0,-9.605059462,0,11.25455681,-235.369103,0,-74.37099705,-6.998238417,0,0,,,,
613.5439996,2396,0,175.8338686,0,-1058.205638,-43.5025618,-18.38427038,0,-57.15795984,0,-36.44354958,155.8814234,0,80.92550852,4.805213599,0,0,,,,
613.5519996,2396,0,-67.27681985,0,-1121.292491,59.97720287,67.6588416,0,31.83386314,0,-2.810749337,-180.3017208,0,-72.2620416,11.99537759,0,0,,,,
613.5599996,2396,0,113.185139,0,-1022.245438,-22.10171106,-21.18289277,0,-48.70170605,0,-21.60702527,-34.39469648,0,19.23048397,-13.29007371,0,0,,,,
613.5679996,2396,0,57.43145697,0,-1041.992607,37.61446743,71.56747462,0,41.41911634,0,-3.325783097,37.43736385,0,20.73336179,14.52528965,0,0,,,,
613.5759996,2396,0,-25.52370513,0,-1016.257617,13.02874227,3.631827278,0,-18.9170819,0,5.979297023,-231.4797201,0,-64.14452457,1.123462653,0,0,,,,
613.5839996,2396,0,158.70407,0,-968.5266837,-20.50431369,13.42496641,0,-18.06733677,0,-37.22851816,151.9629468,0,86.40142537,5.304434722,0,0,,,,
613.5919996,2396,0,-81.39698826,0,-1039.983014,66.47583568,81.44725433,0,54.9757372,0,26.97943498,-183.2064782,0,-66.1182335,16.42461299,0,0,,,,
613.5999996,2396,0,123.2150811,0,-926.2557249,-57.48983227,-45.87828305,0,-71.27786198,0,-8.400943498,-14.08535572,0,31.66524572,2.642021435,0,0,,,,
613.6079996,2396,0,60.18607434,0,-962.5211089,15.61518682,61.64364524,0,25.58700869,0,-12.9023978,53.10576342,0,30.06511588,24.05137175,0,0,,,,
613.6159996,2396,0,-28.5095712,0,-949.1929778,6.254022787,8.741845068,0,-17.64684101,0,14.95242592,-233.2190446,0,-58.41641704,4.073908101,0,0,,,,
613.6239996,2396,0,160.6925717,0,-886.6285741,-36.58195234,9.794042,0,-15.72546514,0,-21.19055019,148.9834057,0,92.82438568,13.27523304,0,0,,,,
613.6319996,2397,0,-81.9809885,0,-949.1099748,53.75873899,77.0421817,0,65.82671714,0,17.29855386,-183.7413469,0,-61.27043487,21.34829485,0,0,,,,
613.6399996,2397,0,119.524315,0,-851.189932,-49.29589274,-33.20342371,0,-36.31463866,0,-25.81852517,-23.31583757,0,30.83311752,-0.501829355,0,0,,,,
613.6479996,2397,0,50.96564924,0,-903.4604397,38.94427327,82.18192739,0,82.45361403,0,-9.319137004,29.75951834,0,21.29439684,16.19965242,0,0,,,,
613.6559996,2397,0,-40.46045798,0,-888.4454718,24.26298569,20.68097917,0,35.73435908,0,19.80162861,-237.83313,0,-66.96981937,1.610365022,0,0,,,,
613.6639996,2397,0,152.0610405,0,-821.3025123,-32.6244682,10.7303444,0,17.78142005,0,-22.97831156,163.7664162,0,83.53353896,17.46639665,0,0,,,,
613.6719996,2397,0,-82.62886711,0,-876.9253056,52.54561604,66.18559741,0,86.86195253,0,27.38791553,-170.241268,0,-68.7738327,25.37812016,0,0,,,,
613.6799996,2397,0,121.0808403,0,-769.418658,-47.44488725,-47.5378894,0,-20.79365275,0,-10.8872426,2.390593103,0,35.01374114,11.13104819,0,0,,,,
613.6879996,2397,0,46.5555263,0,-818.2806588,37.60887885,64.31495601,0,88.47193727,0,-5.604312821,58.19243499,0,22.00719902,27.27374776,0,0,,,,
613.6959996,2397,0,-35.04059228,0,-791.5291504,12.84057356,-13.47775678,0,24.32109537,0,11.45845898,-220.9513516,0,-74.16424554,0.381439372,0,0,,,,
613.7039996,2397,0,152.9657932,0,-734.1741223,-29.89382972,-11.65232631,0,8.683429103,0,-39.95505727,162.2926652,0,74.50564723,6.911470614,0,0,,,,
613.7119996,2397,0,-100.1863047,0,-820.9536757,76.58229354,76.00864915,0,97.96897914,0,15.4671555,-192.2342593,0,-89.32841833,4.385190604,0,0,,,,
613.7199996,2397,0,111.8219748,0,-705.6674357,-36.9784929,-45.2776844,0,-16.28362685,0,-8.248344795,-20.13160611,0,6.63961677,-8.395445544,0,0,,,,
613.7279996,2397,0,44.29727617,0,-739.2928939,38.39731322,65.18703207,0,91.23341375,0,-4.965528616,42.72655364,0,-2.432011322,21.29439693,0,0,,,,
613.7359996,2397,0,-29.86067444,0,-711.8854826,31.88517078,17.7723265,0,55.45745267,0,25.85858105,-233.1028077,0,-94.88569918,-0.938553599,0,0,,,,
613.7439996,2397,0,182.2378855,0,-625.4788444,-14.4150158,8.995678096,0,39.83597329,0,-1.378261544,160.9270136,0,61.77238388,13.70540798,0,0,,,,
613.7519996,2397,0,-69.46296242,0,-698.9625552,80.64551493,78.54855103,0,116.5890675,0,37.77670589,-173.9669721,0,-87.05697894,23.64353733,0,0,,,,
613.7599996,2397,0,119.1419772,0,-609.4450415,-16.18595791,-26.04954675,0,11.3738226,0,5.2911305,-1.024394558,0,10.29575308,0.675863857,0,0,,,,
613.7679996,2397,0,52.96466443,0,-630.8688984,44.29951249,59.33261228,0,89.28597248,0,15.58337779,53.12572129,0,-2.277151865,19.06500547,0,0,,,,
613.7759996,2397,0,-11.18598208,0,-580.5077284,-1.480777602,-32.24547009,0,12.75718619,0,11.31595806,-208.7838715,0,-88.5626362,3.830069686,0,0,,,,
613.7839996,2397,0,176.1380324,0,-524.9447219,-35.40637487,-21.70859754,0,15.61396478,0,-43.78855331,182.6000763,0,62.12408344,11.85885726,0,0,,,,
613.7919996,2397,0,-88.67857905,0,-618.4582689,73.39574423,65.27590241,0,104.1809448,0,13.28224295,-175.8863917,0,-95.90822861,0.443712291,0,0,,,,
613.7999996,2397,0,119.998135,0,-504.0934189,-48.26422464,-61.71691919,0,-22.95008455,0,-19.90381819,-4.506783391,0,6.00420866,-27.58574213,0,0,,,,
613.8079996,2397,0,59.18738033,0,-523.1496279,23.9197251,41.36693628,0,68.65064153,0,-19.51169652,55.42790118,0,1.283165498,-4.351615725,0,0,,,,
613.8159996,2397,0,-15.47342772,0,-509.0878143,18.90544437,-6.063756752,0,26.15660744,0,4.678840842,-209.7793744,0,-75.31438673,-22.22306741,0,0,,,,
613.8239996,2397,0,177.5190833,0,-461.9103398,-18.41065544,-2.705625203,0,23.40491002,0,-25.56788947,176.4215144,0,78.83368374,-14.54035929,0,0,,,,
613.8319996,2397,0,-63.65855921,0,-523.4493241,67.25328969,51.40208876,0,87.10176217,0,26.49083862,-169.9730483,0,-78.17036517,-14.82953645,0,0,,,,
613.8399996,2397,0,141.4821243,0,-416.0618512,-41.91696285,-63.20698193,0,-25.37171745,0,-16.19489798,19.91155975,0,28.87369396,-30.79275466,0,0,,,,
613.8479996,2397,0,62.53629684,0,-457.5983472,35.48199447,47.23813561,0,76.72218125,0,-11.17659521,70.86590255,0,17.83334272,-9.599639635,0,0,,,,
613.8559996,2397,0,-8.113139173,0,-421.2130109,7.22716869,-32.5158943,0,7.290199556,0,9.03277581,-189.9689674,0,-64.40400154,-27.73801972,0,0,,,,
613.8639996,2397,0,170.2250017,0,-372.2657958,-23.53053025,-18.13007854,0,17.40581728,0,-36.65979753,212.40362,0,87.26176486,-15.73312111,0,0,,,,
613.8719996,2397,0,-67.13284372,0,-433.4295648,66.07440024,56.81755156,0,98.43253938,0,29.98011966,-141.3806148,0,-72.94313866,-16.30774236,0,0,,,,
613.8799996,2397,0,164.1992334,0,-312.8570445,-44.95489557,-58.17547225,0,-21.13311371,0,3.770129868,45.83031218,0,39.58649009,-22.0635549,0,0,,,,
613.8879996,2398,0,71.95375629,0,-382.4577646,56.78594678,72.48301472,0,103.2961357,0,17.20093431,82.72493533,0,21.41309876,-0.945628316,0,0,,,,
613.8959996,2398,0,12.28766982,0,-336.914404,9.349653944,-19.51780687,0,26.59435785,0,50.31495435,-190.30273,0,-66.81602291,-18.5275237,0,0,,,,
613.9039996,2398,0,213.7695678,0,-254.9255052,-47.06291205,-34.44094705,0,5.05943198,0,-15.21776344,216.1987421,0,92.54997175,12.02325245,0,0,,,,
613.9119996,2398,0,-48.76763181,0,-340.2920228,68.07360411,49.39924691,0,100.173751,0,25.83847527,-150.3233674,0,-75.08109263,8.026066798,0,0,,,,
613.9199996,2398,0,168.3661959,0,-221.2669604,-53.30446113,-76.40475098,0,-17.70068508,0,-6.333177768,33.30951405,0,28.06116261,-8.190406611,0,0,,,,
613.9279996,2398,0,88.6299305,0,-252.2597512,17.6185997,26.09995677,0,81.89935533,0,-11.56723385,80.80178123,0,14.72406047,15.23338624,0,0,,,,
613.9359996,2398,0,19.65190948,0,-211.8532402,1.154441307,-43.41198749,0,22.14902736,0,6.655025048,-189.3122101,0,-69.41193611,-8.951164578,0,0,,,,
613.9439996,2398,0,201.3647669,0,-151.0403533,-32.56047719,-34.23688213,0,21.48388599,0,-37.77859547,208.014846,0,86.82973818,7.214725449,0,0,,,,
613.9519996,2398,0,-47.80117886,0,-213.9021851,59.30653886,38.38967423,0,98.67577697,0,19.91039742,-158.1020545,0,-76.72278605,-1.345514855,0,0,,,,
613.9599996,2398,0,182.2435399,0,-81.17823465,-47.58505425,-70.42713836,0,-13.10909738,0,-13.84371631,30.76912185,0,33.3518932,-15.50954653,0,0,,,,
613.9679996,2398,0,84.86166272,0,-143.5308819,52.27470462,56.01346401,0,113.6113758,0,-2.067937594,63.58982311,0,13.82439643,4.914834156,0,0,,,,
613.9759996,2398,0,14.21963564,0,-120.5131783,18.71306489,-29.25015948,0,45.00842436,0,31.81429761,-205.9232468,0,-74.6204985,-19.5622826,0,0,,,,
613.9839996,2398,0,210.2359521,0,-46.85086041,-29.62032628,-35.64707263,0,24.09566574,0,-19.69169267,202.1577785,0,87.49208382,2.690672604,0,0,,,,
613.9919996,2398,0,-51.52600604,0,-124.0825517,70.7791579,42.8811702,0,108.2246163,0,25.50570558,-166.0413501,0,-73.20178732,-5.327771388,0,0,,,,
613.9999996,2398,0,158.7743393,0,-14.54050571,-42.23152038,-69.64938922,0,-1.288230459,0,-10.80216765,20.43131549,0,31.13662162,-26.18641523,0,0,,,,
614.0079996,2398,0,64.9411975,0,-65.5066754,48.05666958,50.08000392,0,109.1844047,0,1.749278346,56.34726729,0,10.77058278,-4.355176222,0,0,,,,
614.0159996,2398,0,-11.20803098,0,-49.38432283,31.38386612,-12.2056272,0,57.35156294,0,41.80341401,-214.2861967,0,-77.13103601,-28.41925749,0,0,,,,
614.0239996,2398,0,172.2802813,0,13.28579129,-12.6288425,-14.7749453,0,50.20155636,0,-3.413358622,183.9668142,0,76.11307723,-9.760567841,0,0,,,,
614.0319996,2398,0,-66.22557634,0,-28.46472292,62.60624459,29.23778133,0,99.61629628,0,36.79026487,-174.4345061,0,-81.91164716,-5.862166517,0,0,,,,
614.0399996,2398,0,172.4881838,0,116.844422,-69.81929292,-103.1146049,0,-35.61073408,0,-6.145629359,36.41927408,0,39.14651417,-7.725343396,0,0,,,,
614.0479996,2398,0,84.72237011,0,84.00075445,10.94447808,7.84938781,0,69.58043315,0,-23.18549137,81.75431932,0,28.95105407,19.66278768,0,0,,,,
614.0559996,2398,0,29.61170508,0,129.0559738,-8.087212363,-65.93707265,0,5.944940259,0,-9.171387715,-182.2742298,0,-56.06726522,-8.920820326,0,0,,,,
614.0639996,2398,0,227.9981683,0,201.188915,-33.31336189,-54.72293197,0,8.960487762,0,-45.0530498,227.0252767,0,95.7024019,10.93310307,0,0,,,,
614.0719996,2398,0,-31.88982827,0,126.6590841,71.36277726,21.51087194,0,91.42554376,0,7.925152898,-140.5867216,0,-69.46287973,9.118960414,0,0,,,,
614.0799996,2398,0,187.2956362,0,236.5518288,-45.24395962,-91.74143828,0,-24.23508417,0,-15.6079945,43.96691483,0,40.61768511,-4.432065042,0,0,,,,
614.0879996,2398,0,84.59826169,0,171.9474138,47.53744668,36.27052778,0,100.1888197,0,-2.752959078,68.39240168,0,14.81329656,19.05352565,0,0,,,,
614.0959996,2398,0,15.83260872,0,195.2993097,21.34416979,-30.53981398,0,41.45443399,0,28.69622478,-207.0701635,0,-78.20572738,-9.676136744,0,0,,,,
614.1039996,2398,0,212.5054309,0,263.4921334,-26.9912783,-22.81042752,0,28.00161631,0,-3.898341808,198.2472896,0,80.61961692,20.93561979,0,0,,,,
614.1119996,2398,0,-48.38187923,0,182.1216727,77.63511523,56.32827969,0,108.4763783,0,51.42257256,-164.9772181,0,-78.54756689,27.94851268,0,0,,,,
