Time:125Hz,Epoch,FP1,FP2,C3,C4,P7,P8,O1,O2,F7,F8,F3,F4,T7,T8,P3,P4,Event Id,,,
304.4639998,1189,118.4660252,-105.9284363,-2.982305324,-27.01753262,58.90179807,-599.2372373,-0.644655248,86.11517985,-25.55550306,18.87002694,-280.944389,-117.4185861,-319.9235125,21.64079811,0,-46.60272148,1111,,,
304.4719998,1189,133.8442477,136.692651,-19.4262686,-50.73287242,20.72073093,-673.9488018,-24.57857292,50.33998405,-49.00267822,-36.31659987,-1.933307493,-14.44945169,-357.4462229,-36.99951092,0,-68.59596277,,,,
304.4799998,1189,70.63355663,-162.712906,13.10734659,-40.28946427,-16.36228571,-574.6453624,-8.239881912,84.80674177,-35.82226401,8.303759327,-327.1323837,-55.68923639,-299.7823506,8.054000539,0,-87.72568309,,,,
304.4879998,1189,165.7738379,69.18510972,-19.01048946,-56.83338655,83.42940354,-644.968702,-10.98933247,75.3898468,-27.62548065,-25.00905945,-63.96243337,-84.52970015,-279.1904059,-24.61656068,0,-33.49346257,,,,
304.4959998,1189,92.17109891,-11.97837014,21.56236497,-45.07200327,-26.83869773,-630.9750493,-11.97871809,58.50357181,-37.00657947,-2.810789589,-169.7929584,1.43899933,-244.5233502,-4.334249871,0,-105.4087422,,,,
304.5039998,1189,153.3307184,-113.8704533,28.80816547,-41.09634345,84.11788029,-608.5527398,15.38636428,83.73669288,-4.447764919,27.08081425,-278.4394631,-107.9329418,-190.620411,24.46839497,0,-59.33176043,,,,
304.5119998,1189,146.2696683,134.6231478,3.183516134,-51.09975023,43.96693595,-676.0288685,-10.88084837,60.72740075,-49.86723813,-26.99743947,-1.124448396,4.307571029,-224.9123632,-31.3007665,0,-78.51364735,,,,
304.5199998,1189,88.58211279,-158.3965682,35.92530448,-36.30045546,9.463812506,-589.4990541,13.99278245,88.80044545,-25.20279112,31.22007634,-346.0472263,-35.09435888,-167.4210873,28.69309741,0,-95.48223355,,,,
304.5279998,1189,183.5172668,83.44330997,-2.14096376,-54.66384719,107.4868334,-663.6362263,19.00062251,78.9147821,-2.897821347,-4.788325643,-90.02478793,-66.05604994,-169.9107772,-8.7045304,0,-50.72946327,,,,
304.5359998,1189,82.15044849,11.42630751,20.97110181,-41.26642152,-23.41464133,-631.512359,4.501432051,75.8193491,-38.07377213,3.780812471,-192.6499418,24.46785439,-168.0697811,-2.709461919,0,-114.5833577,,,,
304.5439998,1189,132.346346,-92.83717458,21.59144733,-44.1421235,74.22837032,-609.5743163,27.78868385,96.73331936,-5.225231851,26.40349574,-312.4019247,-90.55593427,-124.428351,24.52591933,0,-59.38825367,,,,
304.5519998,1189,122.0504017,150.0943768,2.06245337,-56.15316037,40.23231933,-688.9267983,9.414465186,61.8902793,-33.05183086,-28.54750652,-31.1236254,5.741431032,-158.375325,-25.33638961,0,-87.52222573,,,,
304.5599998,1189,59.76142731,-135.3027755,40.33776825,-26.89415205,12.10038369,-600.5970901,22.81501122,88.24734928,-25.56835465,38.75411887,-337.9466458,-32.88364971,-102.390716,41.0908144,0,-104.1803876,,,,
304.5679998,1189,185.6586328,109.9335425,12.80123662,-37.99205483,115.9581267,-678.1086713,19.47732255,71.95718303,-2.795354947,9.851538139,-72.88034619,-55.51383654,-98.81207809,8.7766592,0,-53.66925874,,,,
304.5759998,1189,96.2093219,38.09897675,32.14187083,-17.93393204,-8.163581657,-653.5587271,5.887021764,66.41664635,-13.06529837,24.02530394,-178.5019389,32.00543807,-94.24854305,24.84615301,0,-130.6521478,,,,
304.5839998,1189,110.7192355,-55.74155027,3.620695511,-16.98630286,77.91912203,-613.0271756,4.395211734,103.7871007,-8.722145541,28.78006552,-289.6383598,-82.97329523,-82.29489133,31.22665275,0,-68.84151676,,,,
304.5919998,1189,105.2131383,183.1656312,-17.50462701,-46.34980281,37.49306954,-675.5072175,-27.81382395,75.33309882,-50.37627098,-46.23324344,-30.7835646,12.85683634,-133.4770284,-44.67008878,0,-76.72139258,,,,
304.5999998,1189,54.8648461,-115.0468946,32.00098213,-27.27284419,19.45800382,-584.3209956,0.381047122,101.4658066,-11.76605513,26.29425675,-356.3124922,-31.9995459,-66.07532654,26.98218322,0,-98.87474202,,,,
304.6079998,1189,136.3561216,113.9550607,-18.94464052,-42.39746645,112.9059571,-647.7953726,-6.642504367,94.67743286,-11.75133632,-16.09911221,-92.90213555,-57.65789701,-78.38516976,-15.58214419,0,-41.17511832,,,,
304.6159998,1189,41.98809315,11.66703267,5.228981595,-39.94928224,-17.46061129,-627.4861607,-20.48217441,80.34731319,-44.91585366,-14.50905952,-212.8337428,22.28318582,-76.18658488,-5.273615978,0,-103.6484208,,,,
304.6239998,1189,107.6363791,-98.66975608,32.0225174,-31.66791624,95.104657,-619.0410645,10.95828428,94.23385401,5.350793684,24.11702998,-315.8518204,-99.8508413,-15.61204583,41.32425051,0,-72.90292953,,,,
304.6319998,1189,124.8991381,152.6412903,20.41900398,-29.65305172,60.44493687,-696.7121022,-9.580187718,60.53189332,-14.01837951,-20.91835783,-21.79569008,6.962550651,-45.52648298,-5.69771263,0,-106.2644385,,,,
304.6399998,1190,79.19396284,-122.5314735,34.75130999,-2.548147078,17.13130725,-604.0061372,-3.832730831,93.44351082,10.92700182,45.69809633,-335.1866816,-23.04728231,-2.633246549,53.96095353,0,-120.1000411,,,,
304.6479998,1190,160.6836724,126.6285014,-30.66415565,-21.85199763,104.4884982,-662.9840558,-14.1809675,97.27100839,2.900461595,-3.923037504,-82.02681688,-47.28823733,-10.48355743,0.277710046,0,-65.76625925,,,,
304.6559998,1190,60.98730769,40.60220407,1.889806561,-19.66877232,-21.74887481,-634.2387368,-26.93199122,92.60920933,-51.38923551,3.262468771,-188.3003215,34.37201267,-6.66561231,7.798454614,0,-120.5010921,,,,
304.6639998,1190,125.1103912,-61.68741482,19.73960677,-21.22531988,79.07733403,-619.175732,-6.947038568,107.8636574,5.02969155,45.01864843,-260.8191413,-83.91103508,41.69409633,44.61396839,0,-73.12907868,,,,
304.6719998,1190,114.2842442,175.7002322,-34.57710273,-36.82977734,33.96512973,-681.2630708,-23.06644276,84.13528535,-16.47224655,-26.86328105,20.7367939,12.50180176,34.28710788,-24.43501426,0,-104.2640372,,,,
304.6799998,1190,55.71557069,-129.8936548,-7.021290907,-23.79959822,-3.973961052,-591.0937603,-6.928636098,112.909016,-23.26664491,28.25488775,-318.144378,-35.46177761,105.9649752,32.90702562,0,-114.3167411,,,,
304.6879998,1190,168.0443702,100.3866865,-24.30044697,-43.19309194,97.00674675,-678.8877845,-8.152591299,90.0587386,19.69899708,5.647595285,-40.88123981,-64.27078984,126.3941597,6.133709279,0,-75.78993983,,,,
304.6959998,1190,55.11635528,20.61466553,-39.85235459,-37.98751429,-40.31052907,-634.6385464,-23.06093021,99.30790427,0.552071686,-23.72960949,-156.0246262,19.69989301,154.4588386,-14.77128142,0,-147.2599049,,,,
304.7039998,1190,84.96409104,-71.6495636,-74.90326999,-52.10046203,24.29241337,-576.3520038,-25.45842516,150.8129911,-20.08255602,-27.01334161,-295.7829999,-102.1597569,195.5257983,-29.31046379,0,-69.18350215,,,,
304.7119998,1190,99.67002501,164.8358141,-86.87082981,-78.60698385,-27.73135845,-633.4971189,-56.06316788,128.5326412,-59.54481354,-55.62758892,-32.61476196,-7.841950318,160.8016703,-69.11858027,0,-70.79197132,,,,
304.7199998,1190,66.8908726,-138.2311393,-28.07717066,-59.26879116,-52.71948784,-539.7759293,-43.58569655,160.2399202,-23.28048078,11.71089056,-355.544897,-54.71330075,220.0547458,10.78043403,0,-85.62786095,,,,
304.7279998,1190,174.6366468,95.44946891,-48.30721219,-77.22066734,45.32936422,-611.8982921,-46.46224191,147.5677215,-3.218173672,-23.51538266,-73.80028801,-82.71381293,236.1440664,-25.57277946,0,-41.07684711,,,,
304.7359998,1190,93.03818808,17.70828568,-27.99896503,-81.03117031,-74.75843396,-583.0354862,-51.38051998,136.4102635,-25.61943666,-0.446057809,-172.9069238,2.269680105,252.6729574,-8.427669792,0,-108.260639,,,,
304.7439998,1190,161.9764407,-69.74411778,-18.4349909,-88.71612405,23.16672262,-557.8339945,-42.37896077,155.5757428,15.07161842,27.81685271,-277.2670539,-113.5959463,283.6723879,5.908855795,0,-58.48543373,,,,
304.7519998,1190,175.9565055,172.1248776,-15.7884581,-95.9212317,-22.17252943,-638.767591,-63.33982077,110.6312767,-19.79039298,-23.91820304,14.97015693,-7.956844583,226.6857464,-39.61356334,0,-90.24093388,,,,
304.7599998,1190,121.9617161,-107.3299994,28.81521145,-57.91187311,-56.38302156,-551.2170928,-39.5703013,135.9118124,-15.87589948,47.50210762,-302.8650095,-36.74932888,227.3605664,52.80913686,0,-117.0624049,,,,
304.7679998,1190,184.8199965,153.0125143,-21.49490544,-53.15447398,28.55484235,-609.5124296,-52.17404416,135.1666156,-0.910068967,8.978567612,-40.34377697,-48.68970308,168.098463,-7.034944666,0,-72.36986883,,,,
304.7759998,1190,69.72083508,76.11988726,-5.35955209,-37.33374398,-100.6195681,-564.9830855,-70.33685572,135.5840691,-45.93743798,-11.13835635,-169.3977871,38.35793921,123.0843691,-39.04651796,0,-124.3847592,,,,
304.7839998,1190,126.1955451,-17.03283077,-2.528703225,-31.29745296,3.252490247,-529.1649932,-52.82640918,162.3145557,-14.80350819,20.46338265,-272.9281066,-78.27171072,114.2744771,6.899832415,0,-62.73633078,,,,
304.7919998,1190,127.6137266,222.1789025,-22.93065413,-32.19852176,-32.09518113,-594.0912199,-70.20125784,129.2510335,-29.9603657,-27.30833419,5.980892689,18.10760848,51.25770282,-29.0364389,0,-92.82353771,,,,
304.7999998,1190,93.93555951,-72.80639496,28.62185448,-7.120449476,-61.30863662,-501.3298598,-57.70389688,155.3327932,-19.97393032,27.3590397,-334.8205855,-27.91355915,40.39492084,24.32636099,0,-109.6015102,,,,
304.8079998,1190,199.4846767,162.6812829,-15.99913763,-25.38659886,26.79020868,-580.8016918,-77.0194324,133.6344163,-9.687158037,2.342497838,-59.67324994,-53.82894388,-45.67662032,-5.787369752,0,-67.49875102,,,,
304.8159998,1190,109.8670863,81.07094426,5.016996217,-13.53580355,-92.28977388,-552.823506,-89.01317623,118.3989421,-41.03374337,-12.70729989,-183.1461769,22.05079186,-127.9229913,-25.73130549,0,-140.7767231,,,,
304.8239998,1190,148.8946477,-5.264817346,6.904975407,0.073240209,10.09469582,-507.334047,-68.41082339,154.8684464,4.635300639,33.20581241,-273.6959764,-85.65616559,-195.4461599,-0.895908215,0,-83.77129475,,,,
304.8319998,1190,104.8048343,221.4456925,-50.8502358,-20.17829664,-51.15939035,-554.5204628,-96.71616458,137.4058958,-52.31763265,-21.08309607,1.430145219,27.94972275,-279.3898155,-28.28760227,0,-93.61885287,,,,
304.8399998,1190,53.07257177,-84.89994884,11.00340896,-17.15729034,-83.06665363,-452.5583778,-83.07791333,168.3026464,-76.29749368,-13.95206007,-358.7011116,-27.8085487,-262.3186428,8.797070533,0,-98.10226728,,,,
304.8479998,1190,171.3048454,147.6298275,-5.053449677,-27.73990442,23.68085332,-533.8151575,-89.78662081,146.1502229,-34.0886006,-14.1867591,-50.48916488,-66.52505086,-290.6366411,-7.541699749,0,-62.92914002,,,,
304.8559998,1190,82.92791526,65.48604243,-5.275066558,-13.73350215,-95.40364779,-514.9850917,-103.6909398,127.9022167,-54.68579229,13.93741876,-148.1509021,14.25245776,-300.082616,28.59058246,0,-144.6982073,,,,
304.8639998,1190,106.5823537,-12.11710189,-6.567001671,-13.64923172,9.809318167,-479.8850939,-82.21866793,154.4906208,-58.39974071,26.71664227,-263.9560356,-99.06332606,-348.3810155,37.06965318,0,-96.54385239,,,,
304.8719998,1190,54.17523893,219.010117,-77.9565277,-34.6032704,-46.07378577,-533.696069,-106.2010482,123.7821496,-123.6596625,-40.48303712,-7.657525402,1.430000574,-444.9034881,-32.41740297,0,-116.4969753,,,,
304.8799998,1190,14.05743895,-90.88985834,-18.37397826,-28.4122246,-80.43494188,-440.7374973,-89.78374481,145.6915019,-116.6765824,-24.44513265,-384.6728124,-59.83062653,-420.2363748,-4.659548005,0,-128.0167389,,,,
304.8879998,1190,129.5690704,140.3143469,9.549819362,-41.91446033,36.03569531,-530.6808701,-84.71734684,125.4285751,-91.62185245,-48.85965406,-73.23272807,-96.75155543,-480.2529011,-63.75600982,0,-100.3460663,,,,
304.8959998,1191,0.162084021,61.51718333,-38.83038272,-26.41064731,-87.99623407,-494.8194196,-103.7260721,125.0583008,-142.4430741,-22.28781626,-152.696801,-8.011281132,-524.4586445,-28.68428571,0,-175.440553,,,,
304.9039998,1191,15.72284621,-45.30889271,-120.5559651,-49.4664902,-14.22737761,-444.197572,-105.5672252,158.5298926,-155.039202,-14.20081664,-353.1343561,-138.4698645,-518.7375579,48.9878778,0,-100.7478929,,,,
304.9119998,1191,-27.82296658,139.3993578,-188.9257894,-110.2919827,-73.60633517,-519.1895246,-142.9089479,110.4420603,-218.1209822,-149.0298825,-178.5091691,-94.18926977,-536.3874724,-71.55101264,0,-133.3634491,,,,
304.9199998,1191,-90.24119418,-158.4192822,-129.450789,-113.170562,-94.6297198,-418.9907202,-126.6683365,134.424621,-228.8415137,-158.9687763,-508.9619081,-193.6221379,-531.9068632,-115.7952769,0,-163.3503871,,,,
304.9279998,1191,18.64583897,74.48834594,-129.6054993,-151.2273757,5.93009911,-475.9101174,-125.2659874,120.363379,-250.2602719,-201.0707437,-227.4653898,-257.2592454,-659.4894122,-176.6445528,0,-108.0815348,,,,
304.9359998,1191,-86.62102682,-33.84563186,-174.2437881,-159.0544939,-128.1634259,-449.6164203,-149.4310058,97.75803422,-368.2704391,-221.0797439,-338.3730296,-211.7566318,-711.6639849,-209.8743643,0,-185.9453751,,,,
304.9439998,1191,12.42501446,-98.12145527,-135.4879851,-117.5193351,-27.36663631,-413.587263,-121.9498893,122.1582502,-467.9504197,-130.541178,-294.3901521,-320.4818531,-736.39028,-43.23094446,0,-132.3357374,,,,
304.9519998,1191,85.85161885,142.3387201,-80.42928338,-109.2623861,-59.97127188,-480.5094991,-116.0653187,86.28261692,-635.3890527,-193.1963242,42.20973857,-201.1895692,-837.6084726,24.15249225,0,-154.7095922,,,,
304.9599998,1191,18.15584034,-158.5501287,-170.1640876,-114.484173,-106.4411937,-389.2932553,-115.3430839,108.1326408,-862.602329,-142.3387582,-320.4263952,-236.4378854,-871.0623093,-89.89298926,0,-181.5598704,,,,
304.9679998,1191,98.33930549,83.01627021,-214.3601909,-120.1225692,-25.06375928,-463.5083543,-120.8041687,91.26123643,-1135.673191,10.12460864,43.29202726,-225.295569,-995.8723696,-34.71819866,0,-142.8199408,,,,
304.9759998,1191,92.70266787,20.58276659,-9.471680049,-61.68309292,-114.3637219,-417.2895364,-87.02786405,95.38165358,-1222.086943,5.689336952,-34.49683547,-116.7361211,-1202.627027,223.2677716,0,-220.6369107,,,,
304.9839998,1191,150.1589703,-53.41841954,-70.00240505,-58.08766929,-9.891219587,-363.7219872,-71.04067505,136.3824223,-1048.830707,-50.07936314,-46.48191226,-215.7715449,-1424.459677,154.8375061,0,-158.2067577,,,,
304.9919998,1191,73.55901283,140.9280989,-170.2225755,-109.8038299,-86.3729551,-438.3919069,-124.6804758,95.25421957,-867.8609711,-30.22665601,207.0450364,-110.82463,-1501.283969,22.83161415,0,-182.3173783,,,,
304.9999998,1191,36.13877849,-140.8859814,-95.54753686,-100.1698449,-124.2781182,-328.390369,-118.5557579,130.7809436,-682.8660552,12.45907531,-204.4589759,-167.7197071,-1586.524919,80.34546179,0,-200.111221,,,,
305.0079998,1191,186.671298,127.9919955,-138.2111006,-110.3057152,-24.47172517,-363.5928588,-125.5736616,135.0502907,-519.2225519,-59.54748555,168.3437886,-191.8951649,-1787.615751,-8.900640619,0,-138.2368229,,,,
305.0159998,1191,122.3438828,63.92322824,-16.84563458,-74.45090506,-145.9083394,-306.1102932,-130.1538032,132.8296697,-248.264508,2.763361284,29.41485981,-85.72086023,-1793.777553,120.4420985,0,-191.6181131,,,,
305.0239998,1191,112.0940962,10.76896844,-78.16418055,-74.3743886,-59.88973644,-266.0932206,-119.3217396,146.4030806,-63.62191856,26.8283115,-13.9650021,-182.6104462,-1897.728588,236.5785683,0,-123.5225059,,,,
305.0319998,1191,109.8697655,252.982265,-160.7015093,-107.2589601,-96.44647949,-327.9387279,-133.8465292,107.0273642,11.6375243,-71.33898793,229.017396,-107.0980111,-1970.796525,138.9593054,0,-150.8701583,,,,
305.0399998,1191,131.3220363,4.499906636,-1.827318454,-55.53006711,-107.6627939,-204.4329391,-94.86084204,167.303319,206.5744763,29.46054125,-143.5294945,-149.9737961,-1915.14425,195.1712347,0,-163.8510677,,,,
305.0479998,1191,175.6206224,248.0774789,-130.5556592,-81.12967453,-35.28100006,-259.7297281,-114.3073725,185.2255909,240.6886618,20.32027524,323.510724,-147.1530239,-2027.863171,106.2957064,0,-100.7105946,,,,
305.0559998,1191,83.84388554,136.1610619,-148.2163571,-92.89969303,-159.8761628,-210.3270894,-131.1159943,221.9727923,366.3280804,5.228645275,75.69328476,-80.69022657,-1973.078086,109.0674716,0,-160.4238014,,,,
305.0639998,1191,176.7772192,59.27814783,-71.08648318,-82.15439449,-35.0578846,-165.3918688,-99.52024558,299.3846745,519.1922489,8.407133719,-63.11864027,-209.2992845,-1961.295901,183.9920744,0,-99.23039687,,,,
305.0719998,1191,116.7558697,271.9328203,-158.3052676,-109.8835166,-80.78641728,-229.3292135,-126.7183845,301.2430843,573.0038124,-94.6938522,291.1233292,-113.9004579,-1999.102613,93.88148578,0,-124.2299123,,,,
305.0799998,1191,80.68365736,-6.456504801,-86.69522569,-77.06993526,-108.9288356,-106.1827298,-110.9640106,377.1660908,746.1945181,-4.391736385,-130.9565862,-153.7865911,-1920.182623,206.93496,0,-128.9165777,,,,
305.0879998,1191,208.6094539,259.2142544,-54.81160602,-82.82436236,-10.76359898,-155.4790407,-116.2250597,396.6094418,752.9488734,-10.38861611,318.8812857,-158.5713059,-2027.922849,198.2529206,0,-61.08337536,,,,
305.0959998,1191,72.31018991,177.1213549,-108.3162802,-89.91041188,-140.0088987,-107.1160101,-140.5026976,405.1110033,899.3962985,-44.08914492,182.2795106,-82.7155309,-1971.642183,109.1992026,0,-117.5723372,,,,
305.1039998,1191,136.0813794,101.6386213,-107.6912131,-86.1439187,-25.18767128,-72.15526767,-117.0879572,422.5359889,1023.555896,38.04826068,-18.67817328,-202.1519864,-1889.129865,169.6750025,0,-55.1479864,,,,
305.1119998,1191,149.1330657,314.4703472,-77.82384327,-87.73828785,-57.14018368,-142.1535526,-131.2691828,358.7958739,920.0150037,-11.51025466,394.6247861,-100.842417,-1948.447853,178.0165667,0,-87.25110369,,,,
305.1199998,1191,74.41411183,11.58333579,-50.52014003,-57.4283714,-88.68036126,-33.66232621,-122.2623839,360.7675628,1066.520459,27.39840096,21.33668362,-144.2956971,-1880.380518,200.6040716,0,-106.1472604,,,,
305.1279998,1191,182.300119,248.386013,-72.39903966,-66.31217883,10.14234887,-88.14655236,-116.0174163,306.1015082,1097.112088,34.84774898,329.094945,-148.0364961,-1910.708354,180.5560212,0,-47.50467464,,,,
305.1359998,1191,101.8569933,147.671718,-40.23559037,-50.82152199,-104.4235116,-34.36560517,-114.9648726,261.2550243,1076.186949,-9.580879618,219.6201731,-58.69259368,-1898.496214,217.8552793,0,-98.06475231,,,,
305.1439998,1191,154.7202038,53.06710073,-32.18101018,-42.11640168,12.91852095,-2.817742515,-103.0466197,248.3473508,1146.999911,38.48452321,52.53123269,-171.5439633,-1861.607812,234.4921926,0,-37.51147867,,,,
305.1519998,1192,148.3025992,260.8750915,-46.60784733,-53.43309103,-25.65262054,-71.61734771,-131.2625292,167.9739397,1098.032161,7.08290384,377.4025371,-62.24517304,-1898.176948,183.7240376,0,-69.88130628,,,,
305.1599998,1192,80.6238902,-46.14947572,-17.29176929,-39.58659713,-52.15046602,29.67817921,-119.3449919,153.5692277,1120.561212,17.96448648,-3.050025972,-103.0505022,-1859.348752,220.0954153,0,-78.12743151,,,,
305.1679998,1192,164.7957211,184.3340093,-53.0982941,-61.33798743,50.44566795,-40.67173806,-125.6265443,91.60204544,1081.628284,-4.552401681,284.8285106,-121.2321093,-1913.187652,177.6010463,0,-28.30247149,,,,
305.1759998,1192,68.21614329,74.63659735,-40.26972791,-58.64910006,-75.02738753,8.895526526,-140.0168881,43.19992415,1077.284385,-40.67750697,138.2414468,-39.64801941,-1918.159592,188.3370355,0,-89.35782792,,,,
305.1839998,1192,124.8019767,-25.37242593,-14.14484382,-62.58801711,38.23893585,44.94576854,-117.8040012,21.46964722,1133.989209,-17.07659151,7.237479327,-151.5931346,-1925.29568,198.551084,0,-21.81407518,,,,
305.1919998,1192,108.9535035,182.3521637,-13.24263959,-67.63711117,3.824793006,-24.61475193,-130.2614161,-64.14589629,1107.329722,-20.42790669,352.490101,-36.25557519,-2000.354989,169.4247214,0,-37.16815116,,,,
305.1999998,1192,55.4081933,-132.6099225,16.90775941,-46.87215932,-22.30839421,70.44998147,-121.9365994,-79.54938595,1141.738816,16.64556457,-33.9965245,-72.97104541,-1942.226168,223.9954275,0,-42.11886085,,,,
305.2079998,1192,159.5296285,88.78376051,2.872682902,-70.85404997,88.19036722,-14.54488502,-119.5100459,-149.5377691,1117.684234,-24.30756595,266.1747356,-96.92802484,-1953.985081,176.0483872,0,-6.526726462,,,,
305.2159998,1192,51.95955725,-15.72789206,25.38596409,-57.09805065,-19.59122721,4.616131631,-107.551426,-207.4272566,1118.829821,-5.364743441,130.1692651,-15.70401418,-1911.832613,221.2706436,0,-85.7448136,,,,
305.2239998,1192,95.30481653,-100.0130319,2.735082293,-58.09593256,83.72771596,30.34905122,-103.3760621,-214.3305764,1148.85117,4.103506844,-44.16502253,-127.8955588,-1819.353166,235.8842766,0,-33.56000677,,,,
305.2319998,1192,95.49570325,122.969383,-6.832220929,-74.52280448,28.05390163,-20.62098269,-143.5710506,-271.4778733,1081.89901,-62.45394731,241.5808954,-21.20986934,-1830.380163,144.7041737,0,-44.60280139,,,,
305.2399998,1192,56.81809126,-168.9871278,29.90217982,-52.41044329,-4.2211544,93.14399792,-133.7620418,-259.1443767,1095.013915,-4.620651699,-163.8370393,-60.50498314,-1716.753748,202.7806535,0,-39.91047375,,,,
305.2479998,1192,147.4184387,65.24532768,-13.25124737,-76.15422192,88.49733632,23.98638349,-143.9084847,-297.2252193,1062.031893,-36.01845919,102.464127,-81.83870193,-1627.278949,164.8596869,0,8.292780771,,,,
305.2559998,1192,65.07200313,-51.18828765,37.12674922,-63.10713742,-20.92133758,40.02499222,-130.5201957,-339.5426485,1036.675554,-8.593087894,-49.45597735,-6.434656835,-1509.919975,184.1460125,0,-63.2598809,,,,
305.2639998,1192,146.7299718,-144.64206,46.9416435,-53.38610223,97.36779631,46.14000624,-107.2865103,-348.5336063,1053.327331,35.61327358,-145.9310383,-119.9724374,-1364.645145,225.4106479,0,-25.4090667,,,,
305.2719998,1192,138.5312228,69.54792976,26.07441036,-62.41051712,47.38758039,-30.68461404,-134.7255167,-409.4393092,965.7466646,-13.50778564,216.5923917,-12.34670827,-1301.482353,166.3280162,0,-63.31679331,,,,
305.2799998,1192,71.46405336,-235.8354398,63.34738473,-31.91457867,30.15291058,56.58391853,-105.1039287,-393.6097462,922.1641927,45.91985442,-202.6967827,-56.92369775,-1131.229846,220.6026458,0,-80.16296378,,,,
305.2879998,1192,132.7130309,3.58812505,3.045191323,-47.49426981,124.4879541,0.217453989,-123.7549023,-408.0405135,803.1062669,-16.29851078,22.19318328,-72.83013922,-1047.316814,156.8023853,0,-22.80269923,,,,
305.2959998,1192,16.32439636,-91.63008799,4.952869305,-45.93557391,-10.17362476,61.28402977,-138.9404746,-417.8600733,711.916066,-29.2317395,-145.012499,10.59430072,-959.7121334,132.0408271,0,-65.3645812,,,,
305.3039998,1192,90.84161977,-181.4100557,18.24067747,-50.81148335,97.1567964,83.37606532,-110.4477689,-414.0232096,671.3005841,0.752717905,-308.2799143,-110.3866818,-848.000983,145.6704432,0,-3.720659987,,,,
305.3119998,1192,106.2538067,28.12692379,22.63564084,-57.58579682,53.83335951,0.005172517,-128.2716194,-475.1923244,520.281561,-32.35695618,-10.69560559,-9.499104748,-805.8213098,102.7946242,0,-41.21797673,,,,
305.3199998,1192,46.9018127,-259.6933138,53.86535263,-29.06558702,29.64900256,94.16047844,-98.59817615,-452.3828921,467.5017495,44.5691832,-391.4736475,-47.45364431,-666.1840624,159.4679807,0,-62.35436627,,,,
305.3279998,1192,135.7832084,-11.1549659,20.13430756,-52.08369592,122.2834453,26.98989557,-100.8175916,-468.7957786,358.2900268,-13.66313466,-103.8270734,-64.31492775,-613.2964558,81.52971658,0,-8.779189833,,,,
305.3359998,1192,53.32835376,-115.0645365,46.11956772,-46.16743269,1.432778006,62.2467613,-113.7990649,-489.0001049,224.5641387,-7.420670622,-214.2606723,14.82568492,-514.8218478,75.21100079,0,-74.6017615,,,,
305.3439998,1192,113.9233954,-200.6569115,40.7835171,-50.56080839,109.6028003,83.29685641,-97.44615189,-476.8632961,168.7559671,26.62037012,-367.9265255,-101.9038354,-400.8132028,89.25247315,0,-20.24321785,,,,
305.3519998,1192,122.9599863,19.65082693,35.4273256,-66.19746736,62.50937448,4.670053587,-129.8195573,-520.9055451,94.1905204,-27.90596573,-88.41976296,-5.80073775,-367.5886248,23.38482013,0,-49.75309247,,,,
305.3599998,1192,72.16736902,-265.8845321,72.2617119,-41.71727763,41.19823154,91.16847687,-119.7091777,-494.449522,90.51881962,35.57278331,-432.6548836,-53.70768443,-233.8488046,80.5003731,0,-75.40013401,,,,
305.3679998,1192,131.9455719,-14.73725161,21.05709502,-60.14132451,125.539091,34.21546258,-129.1163176,-497.7083456,-22.57859234,-26.00847114,-165.5157971,-77.187691,-219.5097663,10.53588789,0,-24.12597673,,,,
305.3759998,1192,38.42025766,-116.4815084,43.29754844,-50.58849543,-6.887493685,85.25589255,-145.5807495,-498.3669633,-115.2578816,-21.53647893,-317.6007642,2.404577158,-181.5634707,0.688626567,0,-73.12886604,,,,
305.3839998,1192,113.5977392,-202.9604383,64.66464994,-46.40606462,107.5111436,103.3477749,-117.6668825,-480.4609796,-106.9208515,29.07132266,-407.5454924,-101.6289028,-98.08138335,35.99103953,0,-11.22577699,,,,
305.3919998,1192,98.54521019,15.08558325,41.57095773,-52.34107647,61.311622,36.38871478,-130.9964629,-510.8230052,-181.7661221,-21.72470369,-99.5675541,-1.584320342,-93.50476765,-14.50266325,0,-44.2447074,,,,
305.3999998,1192,39.94868256,-274.480803,57.15820187,-35.05244722,26.78205607,141.1622422,-119.0607098,-473.6215837,-187.6273395,15.9239584,-476.3490567,-54.33820886,-15.37686464,18.03751185,0,-48.85232768,,,,
305.4079998,1193,134.8383288,-25.45870977,38.17620323,-56.76573964,119.3924472,63.41703779,-120.0364256,-498.8706357,-220.6267991,-27.38438612,-192.8727391,-76.41986019,-10.1792338,-33.47264142,0,7.403455583,,,,
305.4159998,1193,38.55391902,-122.278277,62.62167596,-42.25688354,0.332014677,88.91794361,-132.1458739,-522.2601606,-259.2269536,-1.554398651,-314.5570628,-0.066608699,34.39841956,-6.964712432,0,-71.78543295,,,,
305.4239998,1193,79.30059747,-195.9542853,41.83586501,-49.44338805,93.32694899,125.8074193,-129.0321112,-498.0508716,-262.4027314,8.263000703,-422.1423128,-110.9787666,77.93477108,-1.822048457,0,-14.270993,,,,
305.4319998,1193,82.68870251,20.14437541,37.54675182,-69.71003214,36.66776952,59.28594554,-158.2851571,-546.3700799,-322.2219438,-51.8852678,-142.2320686,-14.27113042,57.00534378,-64.00853035,0,-31.16851408,,,,
305.4399998,1193,44.64198364,-279.9052102,76.23311944,-49.68483701,22.09588464,134.4562847,-148.8293901,-545.3022431,-301.6126079,24.72802987,-484.8271912,-67.72666735,146.2656972,9.338753092,0,-54.12645332,,,,
305.4479998,1193,123.9065802,-39.00108767,30.63121156,-69.76431583,115.6161995,58.74460926,-161.32968,-574.1626761,-330.5171972,-19.86467442,-178.5322987,-87.20992732,151.7158765,-47.57789275,0,-11.99849957,,,,
305.4559998,1193,35.28677338,-138.8243472,65.90676173,-49.65538989,-3.082673359,99.54416589,-157.8598185,-587.8939186,-343.815083,-3.734499885,-312.5978033,-10.44504352,174.2905928,-36.62911473,0,-77.55667139,,,,
305.4639998,1193,86.22084616,-210.0467644,59.50439604,-44.85934377,108.8551289,137.1429629,-120.4183282,-554.2279962,-324.5591104,13.1164121,-410.3998528,-117.8397684,204.2370615,-16.12737306,0,-17.57773621,,,,
305.4719998,1193,84.58408815,-0.8165835,44.49512524,-62.55011009,50.68960269,71.60052047,-143.0761079,-585.0333329,-393.1453593,-50.17057913,-130.9561194,-9.263786858,183.2340599,-80.74986203,0,-33.71536576,,,,
305.4799998,1193,50.93255961,-296.1218254,84.0694678,-35.89864993,18.76463186,157.6565084,-138.2442213,-558.6637776,-360.5075231,29.00195387,-475.9473074,-53.82660053,257.436489,-8.983643903,0,-49.04702161,,,,
305.4879998,1193,136.8789999,-44.38972648,46.04588766,-53.67927383,112.8232985,80.39871766,-139.0318471,-568.9716408,-375.116172,-10.86841249,-162.2645488,-67.69202611,247.9602904,-53.60195181,0,-1.783725104,,,,
305.4959998,1193,46.02837461,-144.5053231,90.50788277,-36.61318076,1.445660679,99.47685246,-135.9798897,-575.9988381,-396.4425195,14.3296525,-284.7943219,14.19710282,295.1722937,-29.39518096,0,-73.92560931,,,,
305.5039998,1193,87.23597795,-209.5635401,79.05435051,-26.1116277,111.0865533,123.1472897,-120.8256946,-530.8439621,-359.6628087,42.14570263,-368.7872392,-90.73059295,344.5381835,0.808025036,0,-29.75883731,,,,
305.5119998,1193,60.47323912,15.78927865,34.5209542,-48.86251638,46.60962828,75.08626555,-149.5603158,-528.3675664,-421.7167233,-41.31440677,-93.02281638,17.66170426,289.4917051,-81.94603826,0,-43.91953465,,,,
305.5199998,1193,18.27997222,-277.6226945,69.46991711,-36.46115796,14.97559539,175.8389727,-138.1710989,-475.9435684,-410.295065,15.42175679,-450.2047805,-31.24333554,336.4744959,-31.31161719,0,-40.38609095,,,,
305.5279998,1193,113.5360448,-37.78529544,46.39925576,-52.14499075,111.9595411,99.35489873,-142.908213,-476.4220015,-394.7245279,-16.40062958,-133.2153151,-48.00900213,327.167396,-66.70428155,0,12.46357504,,,,
305.5359998,1193,13.24166585,-140.9922845,70.85010747,-39.25173032,-7.956572246,138.1888619,-140.9959848,-464.2154529,-399.69796,-6.389333329,-253.2150425,29.65022549,350.1174119,-54.35155454,0,-53.00785033,,,,
305.5439998,1193,70.91541347,-213.7028676,62.21736711,-40.91022248,96.87537152,166.3059994,-119.0571582,-419.4247335,-374.2304024,19.13438698,-354.6606429,-83.96769888,388.3833013,-30.66078907,0,7.754447009,,,,
305.5519998,1193,59.0493282,4.06768881,53.10612195,-54.48597674,41.72114685,100.7437289,-147.2333112,-434.2891915,-396.5029446,-32.17370004,-80.53334508,22.48806839,355.1235805,-81.562666,0,-10.14282173,,,,
305.5599998,1193,-16.01512126,-279.8259318,87.48732564,-34.41221831,20.4704058,192.4908073,-128.9185693,-386.8402816,-358.7490591,21.5889165,-429.1282234,-23.86457837,411.6167241,-22.49144316,0,-25.31663714,,,,
305.5679998,1193,75.73257033,-29.58563599,50.97025306,-53.14958898,115.2682383,117.8463722,-134.3654966,-384.3200517,-361.6865092,-16.53659429,-130.4759928,-37.99087977,388.4999296,-67.71890997,0,23.50971677,,,,
305.5759998,1193,0.904997712,-129.2353603,86.61688693,-41.97568866,-7.035345988,158.3832893,-149.3551365,-373.7256761,-378.875459,4.015027381,-260.3992505,45.23842076,399.6308285,-55.9817447,0,-33.88072851,,,,
305.5839998,1193,54.59116635,-193.7171404,92.55165331,-42.37745228,112.4265843,180.81851,-122.5974236,-336.962611,-338.452091,29.83046834,-343.9951374,-66.15129367,450.8365757,-30.08618291,0,14.89537127,,,,
305.5919998,1193,46.4819307,34.87046593,73.64162656,-54.1923841,54.79218026,126.8023166,-152.986914,-347.7920576,-368.6064267,-29.38483556,-69.92554752,36.80671573,412.067287,-89.604833,0,-13.69542021,,,,
305.5999998,1193,7.695711451,-248.4171312,109.5801892,-40.30378784,17.96850351,222.282471,-149.0599718,-306.5269804,-344.3214025,31.84004338,-431.755379,-15.91919212,459.1586234,-29.1839936,0,-22.99703098,,,,
305.6079998,1193,104.661187,0.483596425,97.70361234,-61.62663483,121.8409842,131.8245026,-135.5321937,-323.2721411,-329.6412105,-3.519900318,-132.6647923,-36.79096904,451.8934795,-66.19710899,0,16.98242412,,,,
305.6159998,1193,-3.611730539,-88.06821754,114.3080725,-41.21799074,-5.039338425,187.4417768,-147.4567507,-301.4348225,-348.2117349,-2.265908612,-254.9750745,44.89563217,459.3812581,-61.87273145,0,-48.97346853,,,,
305.6239998,1193,54.24843974,-144.5428242,100.6520553,-39.74025085,94.99339262,219.4389683,-136.0502834,-260.890504,-318.9157148,22.19410129,-342.3563803,-65.3874926,495.0393612,-32.54900857,0,10.77963696,,,,
305.6319998,1193,56.53550713,78.98955664,101.7938562,-53.84967914,48.67129807,145.7433556,-147.0533605,-291.5811041,-344.965186,-29.50796145,-80.35355275,36.80171594,461.3855023,-86.36446243,0,-10.18958584,,,,
305.6399998,1193,-16.37309895,-211.3628556,123.9918364,-34.74062781,14.95266371,247.8230192,-144.584168,-243.7115466,-320.2391117,29.27087081,-434.9256232,-12.60118634,510.473005,-31.9763973,0,-21.30400789,,,,
305.6479998,1193,70.08025558,18.32594287,87.22018004,-62.09216558,107.6760539,166.6080022,-161.8746236,-256.4021258,-315.1261416,-8.269194157,-133.5230753,-38.49906147,493.6855001,-71.95967734,0,17.63414051,,,,
305.6559998,1193,-26.53582855,-88.56425219,104.4654274,-55.44801516,-12.80543465,212.9442642,-182.1185783,-248.1899416,-337.5542475,-17.85512069,-275.3158142,24.869368,499.1002721,-84.43186767,0,-49.39510266,,,,
305.6639998,1194,12.94470356,-148.9500103,95.71038665,-60.96750098,82.14090724,246.1570432,-170.3767709,-213.59833,-307.6431138,2.57786476,-371.6943735,-90.8821405,524.116984,-68.17388692,0,12.72660794,,,,
305.6719998,1194,-3.233316711,73.82407529,96.45097342,-75.17697631,38.2578201,168.4425249,-173.5155484,-255.4798461,-322.3482779,-30.62863962,-92.07411872,8.324185539,496.9843173,-100.6628909,0,-22.55582748,,,,
305.6799998,1194,-57.70591882,-192.4319111,118.1331953,-47.43548598,20.30252205,273.319628,-154.6188275,-209.7781911,-280.785322,19.39009913,-429.2636439,-42.25870893,559.7408436,-50.7073453,0,-39.01694813,,,,
305.6879998,1194,58.96229889,59.99958712,114.1034766,-61.37988438,116.9667358,191.5091481,-154.2823588,-227.2574423,-256.5215272,-9.567988723,-117.9322531,-50.47677528,541.9751852,-82.71479976,0,14.47030661,,,,
305.6959998,1194,-38.22129426,-50.58955821,149.1942578,-40.72265186,7.533026632,215.3395332,-157.9325192,-236.5129982,-273.1655171,23.43617619,-227.782716,25.63334995,561.1623695,-49.13791324,0,-69.95713888,,,,
305.7039998,1194,15.64571873,-110.2041828,126.0782497,-39.58530352,105.8407201,245.8993949,-153.2022145,-194.8130569,-252.0881379,30.16006047,-296.4385053,-82.03467738,588.0407049,-43.93225218,0,-16.144962,,,,
305.7119998,1194,44.80302111,102.6144171,149.731747,-53.04162447,53.12517745,160.3086636,-171.0622742,-233.6902738,-241.7800401,-1.897329607,-6.100799354,30.67150505,561.22477,-81.15415713,0,-39.77350763,,,,
305.7199998,1194,-30.29611518,-178.7294269,163.6618171,-26.62763055,26.65694311,247.3220358,-148.705601,-190.2093163,-223.6028476,74.07862441,-340.0697613,-13.10275344,629.2603959,-9.093561148,0,-68.58559365,,,,
305.7279998,1194,41.13453772,78.23883318,112.6530261,-51.09912935,104.3305772,182.167723,-143.4352017,-176.9952101,-256.4297169,8.898451114,-62.60635459,-22.73385927,594.4645103,-71.41185876,0,-13.86647701,,,,
305.7359998,1194,-37.01901625,-28.60314186,156.4939297,-44.94255219,-23.36627977,225.6092592,-156.1610074,-163.8283995,-256.6743869,10.80713223,-209.0371004,50.8524343,589.5586847,-65.21410246,0,-68.60680787,,,,
305.7439998,1194,8.440558173,-93.29586869,122.7940854,-52.54642902,68.34739604,264.8955194,-163.65855,-119.236955,-240.6089943,22.60490642,-288.4483638,-65.12713277,604.2706048,-56.11607677,0,-3.183781785,,,,
305.7519998,1194,-0.488775357,118.4615185,103.8191013,-69.38113402,9.340198534,210.4033623,-184.3063215,-135.9966729,-270.7179826,-27.81053661,-25.27345434,33.22006223,565.3757482,-104.5114058,0,-19.00287284,,,,
305.7599998,1194,-43.76658845,-168.8833253,142.706627,-47.60550812,-9.455375236,315.4000249,-163.9136732,-88.23678897,-244.656039,30.42756124,-373.7705422,-22.09422747,612.0707328,-44.22544639,0,-22.72150463,,,,
305.7679998,1194,83.8891305,70.49187435,130.2819349,-67.2005467,96.63508942,219.2567785,-163.7314571,-117.2783495,-250.1048517,-0.269377446,-63.56354494,-44.12285579,598.9896615,-74.40826032,0,20.97415852,,,,
305.7759998,1194,14.63397341,-30.19196943,167.4621098,-39.45024081,-5.330917256,233.0543037,-164.4176656,-133.0937539,-220.1948562,48.05029946,-181.3748116,29.89039325,648.4996104,-18.93138048,0,-76.4318361,,,,
305.7839998,1194,37.4672604,-71.46430838,127.5664141,-35.64349445,99.12449848,272.4471297,-153.912761,-87.54437539,-200.4538716,52.66255127,-266.3957131,-72.45829105,660.6054259,-18.81830473,0,-23.69001688,,,,
305.7919998,1194,27.54855351,142.7272731,110.9524792,-62.6217162,39.50948098,212.0963771,-183.0789826,-115.8255023,-263.4112539,-28.8626702,-22.07007808,23.74990939,589.1792782,-96.86412369,0,-34.22577389,,,,
305.7999998,1194,-9.666766283,-140.2951837,144.1435138,-42.49480989,18.82860129,301.8335905,-171.3989143,-76.52249691,-210.4077894,42.05637233,-371.0051901,-38.53320255,656.3140785,-11.73183755,0,-57.10179298,,,,
305.8079998,1194,86.75467663,106.3424143,130.72735,-54.04456933,114.1217356,217.5069292,-161.6004838,-82.26559729,-192.9088712,17.51338417,-56.22588966,-48.74301359,637.2091587,-41.92425091,0,-11.3863007,,,,
305.8159998,1194,-5.037979473,-5.877973209,153.5168314,-39.8843968,-16.72507762,254.0828547,-168.4576886,-79.81597571,-219.0936655,30.53603893,-188.5682752,30.08178931,631.9754407,-33.84579759,0,-73.39310179,,,,
305.8239998,1194,51.99141737,-60.11152046,116.1291235,-44.09789721,76.928409,285.7175,-168.2570848,-43.43752396,-186.6307235,44.20606298,-269.2727579,-84.00328213,665.2071167,-18.33214476,0,-20.72068399,,,,
305.8319998,1194,69.63195847,146.7925677,127.1288695,-54.09638875,30.26510504,210.7573021,-180.0248598,-76.45189308,-195.199242,-1.241638685,-3.050611262,17.66604828,624.6654495,-60.59276168,0,-43.6142076,,,,
305.8399998,1194,-11.65465019,-135.8791836,128.0057479,-33.59826167,12.92533342,318.738783,-163.4078542,-22.80801402,-182.8724459,46.436257,-365.4966565,-33.26857392,660.0954069,-6.039439769,0,-53.40359438,,,,
305.8479998,1194,64.26250835,116.6206441,89.16174563,-61.62305198,112.7159205,246.5480738,-182.6593222,-26.74061852,-196.3393509,0.555636563,-79.64368132,-50.9004993,639.426127,-53.73228302,0,2.070741219,,,,
305.8559998,1194,-0.737021453,8.621057815,140.9145827,-52.4646137,-5.790961858,269.1440939,-206.1600589,-35.96303938,-189.00869,32.77776764,-211.5130753,22.86111664,650.493239,-23.32509856,0,-63.54812472,,,,
305.8639998,1194,34.06479403,-47.15891988,99.23657625,-60.49884375,88.71557715,301.6682228,-200.480929,0.208385421,-157.0699048,39.61739708,-299.6391884,-88.66090138,672.0907694,-12.73560267,0,-12.78175368,,,,
305.8719998,1194,35.52002093,161.4435286,107.2952509,-73.71947241,52.27676191,224.6061365,-202.3641019,-37.01828135,-179.3954092,-0.893083012,-53.47038609,11.15419436,644.524675,-51.78326465,0,-38.85173597,,,,
305.8799998,1194,-15.82239013,-103.5644074,130.0594679,-48.1736712,33.30824477,322.1390246,-192.3541415,5.495936921,-157.0498652,61.39338734,-400.335701,-32.59492935,683.2997965,10.22239166,0,-52.49575042,,,,
305.8879998,1194,68.41565713,152.0327911,81.22216469,-76.92838884,108.2221723,256.3805745,-224.3016937,-5.18144001,-168.4422829,1.722017474,-107.6407308,-40.34749811,637.4030627,-53.07297122,0,1.941224138,,,,
305.8959998,1194,2.514345695,35.60920433,130.0210607,-67.7304377,7.787787965,278.5779839,-222.0031303,-19.7878831,-158.324712,44.97604188,-253.85812,31.66669618,664.5080803,-8.563530402,0,-75.58188836,,,,
305.9039998,1194,39.71455399,-7.516211888,95.48038638,-72.32935764,114.5052865,321.2741801,-204.7597982,25.99177009,-134.2437321,46.4762633,-320.394894,-70.94112131,675.8581535,-3.456419882,0,-19.7525778,,,,
305.9119998,1194,27.1989389,201.2912953,80.63169076,-96.08682847,43.93612947,272.3274164,-231.9844474,-3.467039515,-173.6416057,-27.50420842,-52.14467662,35.94779408,609.414851,-76.91220478,0,-22.3583058,,,,
305.9199998,1195,-25.32685508,-88.38572763,97.55766505,-92.34757753,23.14361083,376.5911973,-210.0332254,25.33453509,-156.2642083,29.52820453,-399.0059683,-22.37869757,658.9571987,-15.47583593,0,-32.34284614,,,,
305.9279998,1195,54.46210816,153.0536511,56.83378544,-130.6150927,105.4088135,319.788242,-216.5878131,11.7102945,-176.3429679,-28.87804185,-105.54068,-38.27570365,620.127703,-75.64120206,0,26.23820013,,,,
305.9359998,1195,-9.583170462,22.33615394,121.079651,-113.4478335,-0.904428375,334.9550536,-208.2064124,-24.15359953,-157.3862518,22.56496535,-252.1278056,28.70206772,652.2571881,-23.64058164,0,-46.67144087,,,,
305.9439998,1195,39.4874268,-44.02197759,113.8711166,-106.5974692,126.8932037,338.6100083,-175.3421592,-25.83125425,-112.6450399,44.6156518,-311.7937882,-83.98136846,696.1575651,6.024983248,0,-13.94012817,,,,
305.9519998,1195,8.904771974,160.7608814,97.62698846,-121.4772334,64.91839887,276.4793793,-197.3918377,-66.23697842,-145.9282937,-15.72289876,-52.23683177,26.09158965,640.5218288,-54.21678392,0,-43.92443212,,,,
305.9599998,1195,-47.17180119,-116.2704837,116.2921797,-101.2826368,38.46142405,374.0793562,-179.5113098,-35.88768613,-115.3836112,61.51169924,-416.8433735,-18.42928249,682.7849965,15.9666484,0,-64.09826946,,,,
305.9679998,1195,16.2484967,139.5045432,77.36585745,-117.8784376,121.7695037,311.1168424,-183.3913589,-51.12005424,-139.8539471,-7.434568583,-128.5355948,-22.30937278,638.5741137,-55.9341765,0,-3.201184802,,,,
305.9759998,1195,-78.95898906,29.0476579,119.1674274,-99.61471917,-2.431836988,343.7079954,-185.6796344,-69.4076957,-140.562604,8.247362718,-285.7139907,48.83582419,655.8640147,-32.05077019,0,-72.28286805,,,,
305.9839998,1195,-11.92587143,-31.66368327,101.6858485,-97.29536551,112.1309908,352.1757336,-155.4686794,-57.76057095,-91.41104229,44.25663017,-346.4785727,-58.96358927,695.3148437,4.621900287,0,-37.01051897,,,,
305.9919998,1195,-36.29253549,159.0647757,83.87549783,-110.1247584,51.86496869,286.4571214,-173.2479372,-92.80494914,-131.3608616,-20.25202774,-78.50075937,46.77001294,637.2617108,-62.00270332,0,-56.66502934,,,,
305.9999998,1195,-93.79931426,-124.0595904,114.3897329,-92.60380137,31.04866842,377.8967168,-156.5094651,-59.98532952,-99.86994354,37.24050698,-426.6731283,-16.72908483,682.6248382,-1.457845905,0,-78.5533915,,,,
306.0079998,1195,-4.115156338,127.3105045,84.60420723,-109.2568275,123.9947495,300.8732839,-147.9948388,-71.97863195,-107.399772,-5.952424101,-119.5009833,-19.48990967,645.8526444,-48.04004682,0,-26.78984423,,,,
306.0159998,1195,-97.98333752,15.72358873,106.684821,-90.18903806,0.667189723,340.7144425,-159.6318332,-74.22185728,-123.7893167,6.298829041,-283.6777815,68.91943936,640.5255919,-37.17345738,0,-86.14233592,,,,
306.0239998,1195,-30.8698916,-39.2008829,90.71938398,-88.24875816,114.2816695,361.2294253,-156.0296919,-50.71200679,-81.75565419,29.26545397,-357.5960472,-31.81692845,663.3981662,-14.56042271,0,-38.76783509,,,,
306.0319998,1195,-27.78159277,150.0420759,97.02304585,-101.0800275,59.53328563,285.3046469,-172.848511,-88.37893502,-114.4702447,-24.32862229,-97.00037062,79.02470359,611.3022219,-65.51386952,0,-55.31950529,,,,
306.0399998,1195,-58.97303553,-135.4583984,135.5072586,-78.48598867,51.36856422,360.5002483,-145.5340854,-60.45163465,-86.87260893,38.38825785,-446.4649048,26.05078429,668.3704263,1.255773989,0,-84.117248,,,,
306.0479998,1195,34.07438324,113.0951981,95.7299236,-87.37844679,146.8854167,281.1817833,-136.6591656,-65.74233346,-85.60670928,11.70056557,-125.7092471,24.55244582,646.0109391,-25.07160821,0,-48.26744896,,,,
306.0559998,1195,-93.14900708,5.565699124,93.20577594,-76.50362731,5.772072682,336.4474879,-151.0177515,-46.01876937,-111.1042499,14.36902909,-298.5969089,103.3987771,630.788782,-23.69027137,0,-105.452371,,,,
306.0639998,1195,-45.82422474,-39.99525206,65.39482179,-94.76009538,106.4600853,378.6794917,-143.1310919,-0.069322251,-104.6728613,-7.744037706,-410.9811612,-4.26908776,631.9814506,-50.18072787,0,-32.69004404,,,,
306.0719998,1195,-48.41595198,156.8313477,63.13718725,-112.8839349,38.05161854,325.2851891,-158.2944984,-20.67113037,-136.825306,-55.47076608,-153.4487699,101.657184,592.2257586,-96.06754078,0,-35.78289182,,,,
306.0799998,1195,-110.1524759,-110.4130215,75.65963995,-93.01555979,6.729227418,424.2087787,-138.7699107,19.59121732,-103.8636555,13.13453836,-494.7654656,43.50215455,659.1273308,-26.40351374,0,-48.66486359,,,,
306.0879998,1195,4.196309008,150.1941673,57.45289763,-108.9711502,110.7785513,351.3755331,-123.5156549,11.04784629,-97.7699307,-34.99226541,-188.5125057,31.56514202,656.6597276,-77.20990086,0,19.49665439,,,,
306.0959998,1195,-67.16615168,39.99651507,104.5827734,-82.40477771,-1.579985626,390.4800041,-129.2543371,14.73920837,-81.89978247,13.33845177,-318.7915882,102.5849507,716.5506476,-28.9982584,0,-35.3152402,,,,
306.1039998,1195,-19.34946003,-12.94611343,84.70510548,-89.33817073,107.8870448,410.9065706,-128.6655862,45.36540622,-60.34577071,24.93940276,-382.0218368,-5.190564524,744.286047,-15.87674204,0,9.454492748,,,,
306.1119998,1195,-12.11018405,178.4352714,106.2067089,-107.4745795,60.87345723,325.1272367,-140.550587,9.859648124,-82.92284175,-25.37477304,-135.356994,94.74057683,688.7068867,-62.27568351,0,-20.75387824,,,,
306.1199998,1195,-77.70250441,-80.48349088,126.606756,-72.17069391,41.22930647,405.8442558,-136.9320002,50.59480051,-41.41471871,64.00029545,-467.3901979,37.87253391,757.1838091,24.93845101,0,-58.87321162,,,,
306.1279998,1195,-26.61106609,179.2223483,59.02304847,-89.11523237,114.3231003,347.0902006,-160.6156964,59.12624012,-81.06891281,-13.06844227,-171.7494784,31.69356237,694.0072242,-55.24232816,0,-2.225639592,,,,
306.1359998,1195,-91.95314572,51.85726007,114.7083178,-74.1021461,-6.685216744,373.2314554,-160.5475948,56.68315261,-79.81589661,5.531607582,-340.5538356,96.8211278,693.4036989,-38.00686704,0,-59.36573657,,,,
306.1439998,1195,-16.91143776,0.098604807,107.5704413,-62.71341019,106.4642855,371.7338373,-146.820165,74.25244473,-18.85843953,51.63025941,-371.6427718,-6.241171886,746.5671905,7.086686143,0,-33.57564532,,,,
306.1519998,1195,-46.16518182,201.9397378,77.28993004,-72.12868312,36.51672767,310.2001228,-163.8162672,54.61332036,-57.49016499,-11.7695262,-111.3948299,101.7582931,682.2108224,-50.60167906,0,-58.41880498,,,,
306.1599998,1195,-101.6218874,-61.87350539,100.768585,-61.07831632,15.32140734,403.5208875,-138.8055133,100.1251515,-41.02288727,40.26729932,-477.8675207,35.78875859,714.7511654,1.594791983,0,-67.86346734,,,,
306.1679998,1195,-14.24935085,186.4027302,58.81634108,-96.91949704,105.3634785,324.7670735,-151.9820711,86.68870351,-45.11780852,-8.81169826,-170.010492,23.10488717,691.2916669,-48.4719339,0,-22.38338405,,,,
306.1759998,1196,-106.4787679,55.80555859,77.8656706,-94.70650002,-17.30265339,360.3892688,-163.16016,87.77055268,-49.44196096,4.512617834,-334.8256634,85.17800678,700.0851917,-25.80777613,0,-86.39778928,,,,
306.1839998,1196,-50.70990647,2.631730538,59.23200017,-101.3667712,98.95194626,378.0351918,-148.0949551,119.0205519,-24.75198187,12.33771377,-391.4090481,-26.95215717,723.1162953,-12.65129493,0,-33.26217379,,,,
306.1919998,1196,-43.25703705,189.0864431,75.66612952,-113.4788322,55.63835612,286.4887966,-160.622471,70.25175162,-44.54387487,-19.84458536,-110.272816,80.32283485,708.9796338,-44.45145531,0,-67.42274172,,,,
306.1999998,1196,-105.4364995,-79.40128021,104.7253408,-80.87841707,45.07175168,356.286703,-134.3415936,98.63155833,-1.420547778,57.47750275,-431.6344914,33.95027838,792.3852139,31.98684713,0,-105.5956639,,,,
306.2079998,1196,-74.82611712,177.5159945,29.98358683,-100.1781314,113.5285672,296.5174232,-154.0145002,108.3204908,-23.59671269,-17.07462612,-117.5054611,39.95328872,753.3025716,-45.97666377,0,-50.82844464,,,,
306.2159998,1196,-159.7427306,52.07494327,55.07368572,-97.61818911,-17.89480138,342.4481814,-162.6517991,120.0622505,-50.74942183,-12.11401277,-292.0042021,101.9256812,759.7997865,-37.2693221,0,-99.99532797,,,,
306.2239998,1196,-67.01287575,8.602725728,48.15576274,-101.1975229,98.60646369,363.1221005,-132.7826999,156.166309,-10.01291154,5.354272409,-359.3951776,-7.682912776,810.1195128,-14.26904259,0,-41.22800631,,,,
306.2319998,1196,-64.10087678,191.7798961,47.90444721,-115.7107563,42.54150086,289.1607282,-150.1523808,125.6700508,-34.90225401,-35.50102428,-103.7292113,102.9633228,791.3794752,-57.0186109,0,-60.3850348,,,,
306.2399998,1196,-105.3068764,-87.14549713,82.82837693,-91.22210233,37.26886196,368.5077587,-123.2531086,160.6300093,-17.59472336,33.13859115,-424.9432257,46.20837922,862.3725428,12.36136989,0,-87.700345,,,,
306.2479998,1196,-31.0188416,165.1073561,26.75963676,-107.8844714,116.2747121,296.1686605,-134.2276876,157.4303592,-9.487959048,-19.48117627,-100.064261,42.23435371,855.2663428,-37.17659087,0,-41.50786975,,,,
306.2559998,1196,-131.7096787,43.31915416,29.839925,-98.2996545,-32.87177783,345.1006386,-161.8146781,166.0345853,-23.42813387,-5.362401388,-285.0200086,105.0320362,863.6058964,-26.77456342,0,-97.34790457,,,,
306.2639998,1196,-77.28569714,6.380983715,11.6213235,-95.65765436,72.60644295,382.9331224,-146.113096,199.6364463,-19.56936186,-4.989275837,-345.8243216,-4.924899992,879.0910367,-26.90998232,0,-23.99625639,,,,
306.2719998,1196,-90.64171499,177.0212974,21.14186435,-114.6029217,18.14432649,308.3150124,-168.0152106,151.0657038,-44.88615689,-58.07488519,-90.53199707,85.70825171,865.8767429,-73.17802609,0,-32.89617709,,,,
306.2799998,1196,-135.6203747,-105.2025116,46.35864745,-108.2766003,9.374079836,386.2553074,-147.4838728,177.0994774,-3.326422611,8.060152242,-438.273532,0.44997429,944.5704886,-3.301421639,0,-69.8086439,,,,
306.2879998,1196,-51.42189896,155.7902019,9.870257672,-134.0055468,106.4769577,314.3942943,-137.5087282,173.6411768,-5.114379425,-38.6249588,-120.9490447,-13.16954906,906.7149696,-46.39766825,0,-23.95345847,,,,
306.2959998,1196,-138.9529383,29.80086633,52.93301088,-128.4246026,-15.69078069,344.8976256,-151.2427711,173.7420911,-30.90692783,-10.31107961,-295.7604686,51.27014173,905.9197434,-17.82439804,0,-80.54650119,,,,
306.3039998,1196,-67.5702425,2.913939884,33.96156584,-129.8293072,93.33400748,367.1947336,-145.6068142,206.946974,-5.401029455,7.244819671,-346.581463,-53.71718683,932.9764637,-6.525499444,0,-34.37049096,,,,
306.3119998,1196,-62.41481509,197.2323842,33.33195909,-135.7772873,35.22880308,301.902668,-163.0498021,175.2474375,-24.61420454,-47.73500127,-88.89519014,56.17993316,883.9459236,-57.37598106,0,-50.78575132,,,,
306.3199998,1196,-89.19502927,-78.96795392,73.74644652,-113.0158793,28.59558481,380.3678437,-144.6681544,201.7841901,3.872200006,22.25341519,-436.4505945,-5.00650001,930.8886219,10.40153978,0,-70.78038532,,,,
306.3279998,1196,15.30270164,176.0690284,43.65204265,-129.2710732,122.9359284,291.7877016,-147.3597603,178.031746,13.55855015,-4.96442213,-107.5249941,-3.021398233,914.1413919,-30.45184832,0,-34.71029227,,,,
306.3359998,1196,-74.15857054,45.17869137,76.61319306,-120.1181627,-1.857655354,315.8998504,-144.7803004,168.4099215,5.410492478,-2.336749175,-279.6225375,64.62187857,921.2922253,-19.80086789,0,-104.2140579,,,,
306.3439998,1196,-17.45687571,2.632281713,60.97323924,-126.5528811,106.5086842,331.3288075,-123.0181651,198.2904535,33.21666122,-8.208851373,-341.0853017,-46.32661592,942.7958058,-16.33830067,0,-54.52361224,,,,
306.3519998,1196,-1.520374297,186.9123295,61.63405087,-123.4319227,43.81132471,255.01321,-150.7222209,163.097702,18.0250402,-36.06638808,-82.04019797,61.89570334,913.5548132,-42.27114596,0,-80.47357548,,,,
306.3599998,1196,-45.89154511,-70.2099381,68.29050278,-83.25712398,23.32487893,358.0052903,-139.6849689,213.8464327,27.91344097,5.420836555,-432.0997311,8.42483546,949.5339049,8.842889506,0,-94.22436604,,,,
306.3679998,1196,4.544296822,193.1914101,14.06786296,-100.9014534,100.7147325,302.631785,-152.1150426,218.0479565,1.775459648,-60.98101304,-125.7675741,10.8634198,897.5746189,-61.40020303,0,-26.19307946,,,,
306.3759998,1196,-83.25378369,61.24738495,60.58311825,-94.66295485,-23.58681087,325.966119,-168.8286014,204.3096195,-11.12710405,-14.24360733,-301.5306452,70.58595207,906.7866816,-29.87153326,0,-83.74664748,,,,
306.3839998,1196,-22.503233,37.01568097,44.77816341,-99.72274226,90.57527246,347.9646181,-150.2460166,232.5630002,20.78146734,-6.095494594,-357.0215165,-35.72932999,932.9382936,-26.43638794,0,-33.22228521,,,,
306.3919998,1196,-44.19579816,223.3435881,51.58650156,-112.2640617,34.46758167,277.1897995,-155.202627,198.6611833,3.771672227,-57.56920992,-117.8126586,78.23671694,891.7760973,-63.65468156,0,-54.14700977,,,,
306.3999998,1196,-80.50493448,-46.9943769,96.8409024,-87.59581954,29.70305028,352.664197,-120.8723809,229.077562,34.65090039,8.690382893,-473.7731697,20.189694,942.0239591,11.61589515,0,-81.97469722,,,,
306.4079998,1196,-12.68314187,214.5880742,44.17827379,-100.9805987,100.7191849,299.4779718,-128.3595924,231.0365123,24.37215216,-57.95230797,-165.6585157,21.8737201,897.5391982,-65.59165897,0,-29.67869911,,,,
306.4159998,1196,-122.9937349,80.91852253,67.77267619,-88.48797943,-44.28278127,357.1317124,-140.2663665,236.5339048,-7.8026332,-46.56293439,-360.0654463,81.64077662,873.6371109,-59.92964678,0,-76.3822399,,,,
306.4239998,1196,-55.55021418,47.49351013,64.0927299,-92.45652297,71.80119989,385.6067185,-112.5297935,262.4516274,15.86722122,-34.00969171,-412.4411499,-32.51941359,887.5249634,-47.77634607,0,-13.1088458,,,,
306.4319998,1197,-54.37976546,226.0425188,74.48574171,-98.48212975,11.02147809,323.9778537,-125.1707953,222.0107332,6.246215868,-76.63731249,-144.8826237,72.58487954,854.0612935,-89.96374719,0,-32.00103547,,,,
306.4399998,1197,-92.14445577,-51.91802162,108.7233237,-63.33410039,-6.119292097,409.8105802,-109.9938395,247.648881,39.17762265,3.70556171,-473.9253695,15.41708764,907.3702473,-5.912211151,0,-59.15906079,,,,
306.4479998,1197,-22.94158405,194.9390686,64.78496772,-76.89775513,79.11063153,345.7475885,-122.2142614,235.4873459,31.50568374,-55.55399328,-145.2952033,24.42238187,869.2310745,-60.07759164,0,-3.588104706,,,,
306.4559998,1197,-109.25585,53.08627232,97.2626462,-66.32934646,-46.32140678,391.8702519,-132.7896015,226.2510484,10.26506364,-59.72581389,-322.5604728,94.22949883,857.9965764,-60.83245108,0,-55.95802861,,,,
306.4639998,1197,-21.95125297,18.87484085,84.79588424,-62.59481341,73.04792196,402.437355,-111.3878449,237.1168019,54.62842419,-30.39918935,-365.7309638,-2.723085677,892.4687693,-29.340392,0,-14.89277262,,,,
306.4719998,1197,-38.85403329,203.8685345,77.78684222,-70.21520209,14.81831686,330.9048885,-126.3811868,196.6342889,48.38169742,-61.45508972,-107.7321473,113.4076239,859.4960826,-52.86156138,0,-45.51364558,,,,
306.4799998,1197,-76.33451431,-47.99383457,109.9215719,-42.32481044,4.977840369,415.2793063,-111.4827086,225.4077819,63.37661454,4.178372819,-450.8299196,55.471165,902.1957593,14.6154352,0,-71.33164689,,,,
306.4879998,1197,17.70271469,227.0985844,60.77736324,-56.10540126,78.5719268,349.8438696,-131.0398553,213.618755,48.83113582,-47.50184054,-126.3735494,65.48779214,869.3825645,-37.63206239,0,-19.10754134,,,,
306.4959998,1197,-90.3839403,105.8097641,77.59695461,-46.23248855,-61.11044542,411.9508719,-143.636602,224.1372873,31.27966727,-41.41403493,-304.291692,132.8350386,852.492113,-34.51260897,0,-67.42593467,,,,
306.5039998,1197,-23.87909102,87.42484484,74.70698213,-45.17215502,62.18063657,435.574554,-120.6661581,245.162382,48.86267319,-21.62402405,-346.7244138,20.00805215,870.1783629,-18.94312936,0,-10.80031185,,,,
306.5119998,1197,-18.9684631,282.5602912,72.29588803,-57.71810409,0.846008451,371.3913934,-143.1034833,202.7793106,18.65904196,-59.82422121,-85.03036506,118.3219347,838.5914244,-47.80070576,0,-31.9770101,,,,
306.5199998,1197,-52.98506977,31.42021049,88.92542638,-45.88820205,-16.17202093,476.9369919,-124.7982416,246.3375939,43.80432167,-13.34875495,-432.2263014,47.47190372,868.1024774,1.59596502,0,-48.66494545,,,,
306.5279998,1197,38.76459737,282.2506102,57.7547872,-72.02609859,67.06213743,405.445814,-130.1173165,227.3851998,45.92054055,-65.24387194,-113.8780072,36.95845043,831.6885579,-51.44383648,0,-0.451821336,,,,
306.5359998,1197,-54.13166689,138.809868,97.29934186,-48.77394219,-61.52473007,442.5707249,-136.6551234,218.7375139,46.65811744,-29.9319578,-281.7571874,89.41448415,843.1251743,-11.65532318,0,-75.4789957,,,,
306.5439998,1197,4.815622384,107.8659636,84.46609685,-33.89040272,59.02046761,473.1696042,-104.4676037,252.253828,73.08561545,-11.15641305,-307.8027021,-13.79739282,852.7203186,0.727051387,0,-24.07421928,,,,
306.5519998,1197,-7.634115911,269.5298771,82.43881902,-45.31748986,-6.144533548,410.7247355,-125.6062741,210.6971071,47.25763268,-53.40638897,-44.10078675,93.90740314,807.5953576,-45.66214883,0,-36.29096477,,,,
306.5599998,1197,-52.97789931,-1.379061652,107.8189606,-26.29316138,-19.1670925,498.7471603,-119.0574016,239.5402655,68.0316788,2.670302407,-395.6387136,25.60244212,847.7964266,16.79019509,0,-60.56510077,,,,
306.5679998,1197,36.13609417,260.1959092,74.10624327,-45.21097256,75.37288324,424.2219305,-118.1251361,224.0404711,56.91668224,-36.683334,-73.34368148,26.00363942,816.3748645,-26.45295967,0,-18.28692222,,,,
306.5759998,1197,-49.76178933,125.4434797,103.1306622,-30.63268647,-52.70482715,463.6742193,-124.1360154,215.5980562,57.14252549,1.496187003,-246.2524392,85.95076179,840.9276997,5.258700491,0,-92.16813382,,,,
306.5839998,1197,6.00506756,100.880098,79.05145117,-29.59486043,56.55525269,496.0676078,-107.442445,248.8775025,72.21046456,-8.091180583,-294.8915341,-20.11366369,856.877208,3.930494706,0,-39.83407046,,,,
306.5919998,1197,-3.764419166,276.4031739,70.18829981,-45.15680049,-8.750261041,444.2234692,-124.1762613,220.7765426,21.78307193,-67.49512232,-42.97568116,81.39639672,808.3149697,-46.18035747,0,-47.54362872,,,,
306.5999998,1197,-32.77098547,13.51777591,94.86504574,-32.4772381,-24.69359527,539.5865736,-112.0507756,251.7954061,41.95200965,0.721531434,-391.9438559,9.79306933,847.7591732,13.34971021,0,-63.81501504,,,,
306.6079998,1197,57.89268002,271.0318223,66.22117553,-56.46413051,62.60019153,469.6112745,-115.7014581,233.9492121,45.38325637,-33.04800216,-74.98933717,9.159575028,805.9972385,-37.18291603,0,-14.01308771,,,,
306.6159998,1197,-35.47689331,133.4163402,95.96435069,-42.32165914,-59.0186854,512.1548103,-120.3748859,230.7063769,37.75255216,-10.15618036,-244.7258833,66.2104705,816.1384219,-3.996990611,0,-77.49829093,,,,
306.6239998,1197,30.07811466,102.4577297,84.82683553,-44.25410848,58.7825676,529.522468,-98.49282879,252.756811,57.98201861,-6.357567361,-279.7950678,-41.7277327,830.3622434,9.554215099,0,-25.96540491,,,,
306.6319998,1197,31.44140049,270.7032418,89.19500738,-50.31539721,6.742434775,457.7728437,-107.6621008,208.1199337,49.87289153,-24.53089993,-20.42808452,61.67435166,796.5253412,-16.48854173,0,-56.54773115,,,,
306.6399998,1197,-21.9495234,11.65677887,94.4194825,-26.94455918,-4.141195266,558.1019776,-94.96501582,245.4284416,69.31686037,18.05285097,-362.5836787,-1.844285874,832.7326099,33.33107575,0,-81.67652584,,,,
306.6479998,1197,47.02960441,260.3161761,55.3706836,-56.60825674,68.6711516,497.4270583,-94.97626901,235.5832294,42.83163384,-56.73435636,-57.06893955,1.197974536,775.8280932,-40.84772021,0,-20.45173415,,,,
306.6559998,1197,-32.30601761,116.2711132,91.90590956,-48.52341875,-53.60107403,531.7041441,-90.74703086,225.6719983,39.50543766,-13.90762652,-240.8921271,58.02142953,788.7699694,0.590163353,0,-83.13898769,,,,
306.6639998,1197,17.63677865,104.2954732,60.08960849,-48.66041311,64.02972287,555.5350731,-81.78277502,250.0967198,56.67087768,-7.593404207,-273.8459357,-39.98357037,806.6212206,7.485203739,0,-34.82880453,,,,
306.6719998,1197,-3.59094432,275.0503012,72.92260147,-53.40184306,5.336256582,487.4585393,-99.43825277,206.5944576,40.63720792,-33.17553416,-24.78145509,69.77689592,770.7337079,-24.63773129,0,-58.15336586,,,,
306.6799998,1197,-50.85859416,14.36070927,100.9692862,-29.75545103,-3.579486856,581.3433752,-78.47208701,242.5174309,69.45311096,29.74272802,-361.5101727,8.653316765,804.5082122,40.56795774,0,-79.7963557,,,,
306.6879998,1198,21.01222467,271.1287754,47.23712903,-60.70129608,64.82919703,528.0092758,-89.09482101,238.0600363,34.42326568,-47.68633908,-47.94640038,13.70402324,751.8175407,-40.7959018,0,-17.27995919,,,,
306.6959998,1198,-34.76892321,115.8412507,100.1633671,-51.8288915,-52.35603045,546.5847892,-86.74242133,216.4207719,45.17770413,1.738685905,-237.5457099,60.21278024,786.9202577,8.727510928,0,-87.09586764,,,,
306.7039998,1198,25.34707752,100.6098877,70.3099486,-50.72657893,68.57379773,568.5188736,-61.49869524,247.03179,85.25529528,9.331748766,-250.9608659,-40.81310089,804.4581194,22.23492815,0,-50.087441,,,,
306.7119998,1198,-1.617725804,275.6148095,57.81706643,-71.94908741,-6.006144831,524.1738056,-83.73307216,222.1873114,36.17071616,-57.01084327,-13.53067852,70.74497737,742.878401,-43.92945913,0,-55.60607873,,,,
306.7199998,1198,-40.10919156,10.39210722,97.88747519,-56.69300068,-15.58563355,604.0352877,-62.63186519,244.6655724,64.2635234,23.94182843,-369.3113008,-1.566947406,798.2341348,34.99363952,0,-76.30324296,,,,
306.7279998,1198,3.863294174,272.9794698,47.14037835,-75.51396102,56.37790334,548.228594,-62.04210745,240.0936998,40.45258457,-37.01070113,-34.16667139,4.462422089,752.4969596,-30.54556936,0,-26.90629116,,,,
306.7359998,1198,-64.44533397,125.6005205,100.717303,-65.66999803,-63.62684778,581.2462693,-66.9873472,226.7058203,25.87841893,-13.78290843,-223.8576814,63.33685247,752.6530703,-7.673307402,0,-80.0610862,,,,
306.7439998,1198,16.16756927,107.9283585,73.63358434,-60.26460963,60.78959783,596.9763872,-48.71360908,250.1855535,77.77389471,15.89012817,-255.9146245,-34.75465189,775.9925754,14.70734997,0,-40.39222915,,,,
306.7519998,1198,-29.95554401,279.8520361,39.5189342,-66.24482347,-23.24509842,569.4453761,-74.62409873,238.6246855,22.72195779,-60.44530793,-33.72140774,77.65990243,704.343633,-58.28954741,0,-43.14947951,,,,
306.7599998,1198,-54.10180462,6.252107522,92.199812,-49.93701255,-33.65795828,651.8250688,-62.28452724,261.5237023,34.26377099,-5.003263476,-389.5686434,2.770129467,732.7011161,7.621075192,0,-49.26403915,,,,
306.7679998,1198,39.87120792,253.8712383,70.45830428,-67.00972483,61.62292834,566.6779708,-55.2412454,237.2266271,60.87425521,-30.70286472,-31.52871699,-1.320042445,720.5046807,-18.21335149,0,-19.6727536,,,,
306.7759998,1198,-45.6891561,112.0779274,106.2563854,-44.4032292,-53.87332941,603.7623088,-55.69487231,231.0844934,63.60371247,4.303028555,-204.129601,57.31328152,745.3518461,23.90462385,0,-94.50388649,,,,
306.7839998,1198,25.55602025,99.75335928,69.95960967,-45.39384114,58.23042105,617.6189139,-53.39767249,250.0355027,82.83462162,17.74600522,-230.864246,-37.51966516,753.6127623,35.90228536,0,-54.08387263,,,,
306.7919998,1198,5.408328935,271.3906033,41.83209551,-65.55212904,-23.86600944,570.5789152,-82.31350954,225.0870057,45.48913515,-45.86985187,1.555030651,67.9493413,693.7484176,-30.72006356,0,-70.87193113,,,,
306.7999998,1198,-28.70993737,14.88322823,79.24260427,-50.43379217,-25.8924485,664.9692712,-61.10069644,264.4553711,62.4634707,8.532548853,-356.8247616,-3.058249462,726.1059639,25.71585374,0,-82.28315099,,,,
306.8079998,1198,53.78141899,268.5174151,39.62148662,-73.26413756,63.81526412,595.7195061,-66.86187962,248.7371097,54.7177249,-37.07470127,-18.89859326,2.758887495,681.7141586,-23.54038741,0,-38.51798523,,,,
306.8159998,1198,-40.77567426,133.7195479,56.26233822,-60.72129205,-66.54454953,646.4065977,-81.85418652,246.614087,44.53838015,-19.96994019,-201.2668543,59.23043645,677.4036414,-0.836181131,0,-100.0509497,,,,
306.8239998,1198,20.28671631,138.1874201,32.44242337,-62.52227028,46.57863646,670.6455457,-74.40365901,276.3279651,59.1980267,-16.23992229,-234.8483349,-38.40146355,677.5790831,0.72224805,0,-40.02390979,,,,
306.8319998,1198,9.175990343,315.8862475,33.51188565,-73.80763951,-23.86538253,607.7559331,-98.63825571,240.3699651,32.68369825,-47.97039234,1.75188464,66.1806072,636.6845952,-40.87393593,0,-58.25247884,,,,
306.8399998,1198,-31.12176412,68.8815687,58.92496605,-47.4110529,-32.5168226,694.7367849,-78.69907355,268.6878001,64.11540157,14.7742304,-343.3517069,-6.030310544,685.7722559,31.30564801,0,-85.4205221,,,,
306.8479998,1198,39.44964276,325.5393863,10.85613266,-66.98794852,39.50098188,635.6473414,-83.54115522,256.9077058,45.67835618,-56.40170614,-19.03341102,-0.437611884,633.9445603,-34.0453482,0,-34.62349106,,,,
306.8559998,1198,-39.21621294,178.183716,53.51658659,-60.0400529,-88.5799235,672.0901549,-87.43640873,245.2294243,42.68307099,-21.90749975,-211.7042437,52.3211201,637.0083883,-4.697052908,0,-93.34524711,,,,
306.8639998,1198,23.65950063,170.5371895,34.89154117,-60.18198306,33.12364081,679.9487441,-71.35445733,262.4087118,83.91815935,5.330864234,-222.0974328,-43.98579189,667.9899225,23.37252737,0,-55.60486957,,,,
306.8719998,1198,7.408497105,337.1804747,22.08024871,-73.59358005,-36.46589089,625.8027287,-97.28381693,228.2567658,51.44883042,-45.97868346,28.76955566,68.84711678,616.5603441,-30.89459583,0,-78.16488865,,,,
306.8799998,1198,-4.07546778,77.07771019,60.76322711,-62.12411582,-29.00753036,698.4314267,-72.90819794,249.5355777,83.53841634,14.55781032,-322.3614296,-2.591731696,649.7347606,27.85723383,0,-95.88797774,,,,
306.8879998,1198,70.99516604,324.2553372,16.68680028,-83.90172334,54.15478197,612.6806033,-83.08807993,227.4436977,80.53823562,-31.86982822,3.581653418,2.733253759,629.9601105,-17.56261872,0,-59.24065367,,,,
306.8959998,1198,-39.29428434,184.2297613,40.32917433,-69.79370059,-78.81185429,658.8775873,-95.66048597,225.4941392,58.1370987,-11.46100105,-184.3085996,61.26720838,628.074404,1.228502296,0,-123.4999872,,,,
306.9039998,1198,20.54554553,180.7378948,41.20910534,-66.67712534,50.64328313,663.8034755,-66.22293535,241.9437326,92.23325316,9.10837019,-205.0148973,-37.81647804,625.2308564,21.85538201,0,-75.17320686,,,,
306.9119998,1198,8.985000882,343.1039481,38.93264985,-70.04940151,-18.55402495,588.6665901,-88.67624559,194.265808,74.93378713,-21.02302521,37.96442383,75.64486281,594.4361583,-4.581201403,0,-105.214412,,,,
306.9199998,1198,-30.51222457,92.40803809,43.66241488,-50.5157511,-31.83802357,679.1303666,-70.28288254,224.8821099,90.6425797,24.75035505,-308.1472939,25.42488351,633.996445,42.8889331,0,-128.6709892,,,,
306.9279998,1198,28.45087541,335.4942177,3.628590555,-77.20901518,47.35647206,609.975849,-66.18414366,209.8567632,72.65847138,-32.54300319,7.585917929,43.65371255,580.5407964,-22.43475573,0,-78.9613164,,,,
306.9359998,1198,-94.47435708,183.95497,25.26905108,-66.28477098,-85.20588348,659.2256218,-79.58893706,207.6650685,56.16419731,-6.098780867,-187.0848424,100.7389038,585.1520236,7.201488313,0,-135.8071888,,,,
306.9439998,1199,-46.61436384,175.179748,9.427323797,-71.08847921,34.21872692,673.6962628,-56.67784041,226.5125099,71.96720979,-10.00792294,-206.5622787,6.306896592,595.4912726,8.515549472,0,-78.92335976,,,,
306.9519998,1199,-20.15331006,329.0519954,47.46272486,-77.91490562,-18.1403778,579.3829588,-60.81616187,165.0532807,64.6473161,-22.64181611,42.38365029,117.8121449,573.5315111,-10.75537413,0,-105.9544365,,,,
306.9599998,1199,-54.10187384,94.64263284,47.08461444,-44.72221436,-28.06534102,666.3955553,-49.24138489,204.9282345,106.6693827,54.89034647,-279.8736469,61.09127314,623.2703294,67.8380995,0,-135.0664891,,,,
306.9679998,1199,-15.22649996,358.0889033,-24.33258814,-79.53173184,27.503938,616.4631207,-63.34529001,211.5798866,59.30192212,-40.09259597,16.47374216,73.14300442,535.4556256,-30.21214492,0,-65.55768462,,,,
306.9759998,1199,-85.50932499,200.7585192,48.71068465,-83.85393434,-85.47477302,629.8177439,-58.34103453,186.1741423,59.42075301,-10.13117641,-196.592691,112.6991594,537.5480227,2.803618435,0,-121.8692145,,,,
306.9839998,1199,-33.33819436,189.2926437,29.04278495,-76.7699642,50.42781744,624.0886096,-31.35823662,202.8517465,116.8790487,23.51819129,-176.5566536,9.031107711,582.5131171,41.88411978,0,-102.5257666,,,,
306.9919998,1199,-74.33899793,345.930597,-0.715915272,-84.54022022,-30.51595362,573.0265036,-60.9728737,179.298595,61.2342868,-29.04397931,56.55893797,121.3902614,523.7801867,-20.42336016,0,-125.4068138,,,,
306.9999998,1199,-101.784278,94.47219763,25.17959146,-63.60447971,-41.61260425,661.8793356,-52.00442211,213.9880221,78.43519178,21.70192814,-310.4665729,58.17641795,549.2606699,34.79808142,0,-132.2714679,,,,
307.0079998,1199,-46.58021291,339.5006881,-15.15093211,-79.4264075,32.90957337,599.6422817,-66.41557078,212.8368235,60.68426691,-41.58154307,17.50793854,72.58009459,498.8745392,-22.27654561,0,-78.70002332,,,,
307.0159998,1199,-133.5272637,179.6914422,22.41360472,-67.91581621,-89.57655033,648.7162084,-81.31347885,217.1594271,36.58789605,-20.67233863,-181.4610422,124.7511974,481.7418238,-2.38693825,0,-125.8996214,,,,
307.0239998,1199,-53.0120375,158.2211949,2.513919198,-72.88191824,32.99319676,653.9818556,-61.85487813,237.3433539,85.92508066,-3.405117616,-206.7337626,22.22584144,511.3018838,16.88627828,0,-76.87857476,,,,
307.0319998,1199,-72.23384378,307.757403,-9.785384351,-87.83576128,-50.84034375,596.5726677,-84.92612266,207.8778795,62.61643145,-40.52446539,28.09783398,128.2386903,477.8294882,-24.23959373,0,-100.4570888,,,,
307.0399998,1199,-92.91144161,61.64302941,14.90218089,-69.69530279,-60.91892803,693.4504162,-70.15870947,249.8842561,74.97080023,13.1384415,-305.9050595,59.70982149,489.6339519,24.52065666,0,-105.5191145,,,,
307.0479998,1199,-13.09033282,306.797627,-16.50630692,-86.10945849,16.74354951,621.0419409,-78.16932418,238.1134704,59.19873359,-31.62841498,22.22184357,66.56210673,454.5459051,-23.34383538,0,-57.32678153,,,,
307.0559998,1199,-94.36848436,157.9998022,15.33488603,-69.65961553,-110.8211645,666.472725,-88.67878005,238.5669347,54.55663202,5.438544809,-166.4147644,119.7811921,469.3892306,20.73884575,0,-119.7246979,,,,
307.0639998,1199,-3.086482476,146.0058062,-3.32757827,-75.84500056,9.804919687,671.920787,-67.66654695,257.9318801,100.3583072,12.76536239,-173.0044522,25.04264344,476.737739,26.96303439,0,-66.29865781,,,,
307.0719998,1199,-13.32961126,289.9279017,1.150200288,-86.05736299,-63.16637218,594.07636,-84.81941933,206.4591703,75.00486381,-13.96989243,60.80852006,132.1662841,445.6545536,-8.247333426,0,-98.437002,,,,
307.0799998,1199,-50.58055517,52.74042372,9.710489589,-60.79209295,-63.78329467,677.0892627,-66.25627901,232.6796519,99.76696774,42.66152834,-270.9850096,62.62376689,486.8532125,60.08340413,0,-124.0576825,,,,
307.0879998,1199,38.02513859,305.4887043,-28.39933021,-84.24948649,26.10119102,595.7814798,-68.32890372,215.1596395,85.59220833,-21.59743094,47.97717756,67.17601358,435.3881342,-5.028094302,0,-73.8221916,,,,
307.0959998,1199,-38.44290752,161.2337303,8.47030076,-67.3289385,-98.17095101,635.9800245,-76.1771693,214.9578965,62.78203046,21.99286308,-146.5188561,122.3616594,439.2758856,27.0953325,0,-131.3588051,,,,
307.1039998,1199,15.89555684,164.2210419,-25.78827613,-64.98234731,13.95507895,652.9349812,-60.13368726,243.3381347,88.65754873,29.25237363,-150.1837,31.41722881,449.5875268,40.96560943,0,-80.20797384,,,,
307.1119998,1199,-24.66014486,308.6077286,-26.52189753,-87.48243826,-50.98123378,593.3162662,-71.15502845,208.0469625,54.46744386,-23.90660584,60.97011992,131.9416209,393.1234925,-9.541995466,0,-100.6539708,,,,
307.1199998,1199,-57.71708768,66.88316862,-12.51447277,-76.82101181,-46.79107562,684.1807778,-46.76412688,246.1000629,78.47080447,38.26209115,-278.1987091,60.39717595,431.67435,46.48136499,0,-112.4093648,,,,
307.1279998,1199,48.2144741,314.6589057,-41.291341,-94.71183319,35.73656598,593.2797499,-50.60854245,221.9865575,84.10134206,-7.794310743,52.93541104,68.63420797,401.7479135,1.386708311,0,-69.24503605,,,,
307.1359998,1199,-31.57327593,159.8465971,6.220535061,-78.34408164,-87.18949246,621.6698138,-61.96684256,212.2076026,80.46939939,28.12477962,-143.2730906,119.086387,412.5539771,40.02210727,0,-140.6626501,,,,
307.1439998,1199,28.38572799,164.5792496,-30.50121142,-87.022424,23.89839204,634.9552982,-54.24061631,238.4654538,100.2801611,29.45077434,-140.6670337,24.48497826,423.3581448,38.15039237,0,-93.74047531,,,,
307.1519998,1199,27.15403533,308.2388071,-34.26551572,-106.6239089,-45.62827647,574.8989672,-68.61926099,202.8678046,73.34485407,-20.01154271,89.97998999,127.0907326,372.1109739,-12.31157173,0,-115.9444864,,,,
307.1599998,1199,10.77043854,51.61982011,-3.453066461,-90.76212184,-41.31113641,660.2195207,-41.52528498,236.9212852,97.37203734,40.67814478,-242.6278878,58.78760928,409.4497665,47.76108543,0,-124.7535763,,,,
307.1679998,1199,78.72585057,297.6772317,-38.5934389,-111.8643841,40.29147839,574.5852091,-51.53952512,211.8355487,76.25745141,-12.07577911,80.71552314,68.66585353,368.407437,-5.379464635,0,-76.8621672,,,,
307.1759998,1199,-38.76232215,148.004079,-11.95537978,-97.2940369,-78.75149461,613.5782999,-65.6070415,201.0492389,65.06090728,12.3858298,-128.2841383,115.6686536,374.4145707,24.45710299,0,-141.3072657,,,,
307.1839998,1199,7.71576978,143.205466,-31.96631978,-102.2872263,34.69799608,623.5834386,-49.5173305,219.3801863,93.91851669,12.33120181,-142.6189999,18.92992076,386.6709962,25.31303366,0,-87.94087919,,,,
307.1919998,1199,-13.59849139,283.1947894,-21.14107112,-116.9706361,-38.63136228,561.7475651,-68.98307713,178.1523826,65.9937108,-24.97160395,78.19079947,121.2866423,331.429063,-16.05162275,0,-111.7498946,,,,
307.1999998,1200,-51.60838598,34.88434153,0.277927669,-98.37797846,-37.62998703,645.7361605,-55.44633801,208.3812727,97.21674654,39.77669307,-257.0114327,51.76682369,369.5956477,43.15442235,0,-122.8927737,,,,
307.2079998,1200,15.88859693,287.1887696,-37.3568499,-116.2509053,34.18613609,568.446293,-66.68602216,190.5440826,89.6945216,-12.98591574,62.72636751,68.12838728,337.6557322,-12.49594615,0,-76.66628055,,,,
307.2159998,1200,-70.71995815,142.8041821,14.35575794,-105.5300302,-88.0215,616.6339159,-78.04740718,186.8151857,76.03873611,20.26899265,-135.2585758,126.3041621,341.5437746,21.74542037,0,-133.6870192,,,,
307.2239998,1200,-0.074512062,138.6484766,18.88502623,-107.3202903,34.65775793,616.3112515,-54.36229495,202.1811464,116.225992,37.06249939,-128.3359564,36.94611121,361.6483312,33.40616065,0,-82.54645871,,,,
307.2319998,1200,-28.09853531,277.7943203,19.57784851,-107.0101469,-39.6697939,558.1988219,-60.34738848,171.3366819,90.57315007,-0.332500703,98.22417643,149.3348541,319.4138372,-9.124282964,0,-116.9000601,,,,
307.2399998,1200,-69.04940888,30.14617159,29.51085538,-87.55118248,-49.30395765,655.1474282,-50.08675063,213.5286007,99.04442402,45.69522423,-235.9524908,83.04454242,346.3775098,36.35525596,0,-120.4142324,,,,
307.2479998,1200,6.613041734,271.0992845,4.152335257,-102.2697418,23.26517888,574.2515676,-64.94652448,192.8731642,96.08503765,-9.853456544,79.13291194,83.3284655,306.4778511,-22.62487279,0,-71.13164995,,,,
307.2559998,1200,-81.22466776,119.5211587,50.71925816,-71.85622395,-95.9276529,629.3531985,-71.85533488,190.7199026,92.74861212,20.82079632,-134.0251831,130.5061184,306.2337552,5.623489458,0,-128.2131445,,,,
307.2639998,1200,-21.14987507,120.6525995,32.28583846,-65.25177981,16.71449845,640.0609972,-69.55526264,209.2914476,120.6565892,24.76037894,-140.9350801,36.57914142,312.6249211,10.55517847,0,-69.18081366,,,,
307.2719998,1200,-50.02638808,267.1789757,40.63855109,-67.16327711,-50.11945042,576.3946563,-91.17389519,172.7686458,87.81067202,-10.60923506,81.43630554,133.7910573,272.2411751,-23.49055251,0,-103.781857,,,,
307.2799998,1200,-79.9927418,33.26238359,67.59501075,-48.84059852,-37.31014961,672.2702427,-65.11215502,213.2485976,102.2700826,43.46420574,-244.4600465,66.18469942,305.0323166,29.11079955,0,-108.2597956,,,,
307.2879998,1200,-4.926504967,282.6412527,34.37270593,-66.63823015,35.35533108,589.2578757,-79.34378514,193.1452005,103.7627052,-6.385461642,72.31388317,79.99421834,269.9291792,-24.86266402,0,-60.13134634,,,,
307.2959998,1200,-102.1792246,134.8399977,72.81613475,-34.31083566,-84.63494084,628.2334198,-93.39966666,185.7678668,104.6294678,34.47938194,-131.2782629,132.4936719,289.2878025,15.5056871,0,-127.8376392,,,,
307.3039998,1200,-43.3144523,137.7338233,44.07091939,-30.85425616,28.26737359,639.1459372,-77.29835629,206.5965321,130.8056092,36.4445324,-125.0839293,42.84025099,292.1804741,15.42954354,0,-70.99114868,,,,
307.3119998,1200,-75.43838015,279.9081455,25.86223609,-36.11788589,-55.01842318,596.8946523,-94.31854571,182.9477544,92.16665962,-9.714219979,80.3444191,144.1649527,236.1999708,-28.374145,0,-93.55118846,,,,
307.3199998,1200,-112.1526923,39.68258089,42.66256183,-17.34827441,-57.12071569,699.9294612,-81.18731914,225.361749,103.1474017,37.66158268,-261.4975841,74.98149701,274.081153,25.13674468,0,-87.58590655,,,,
307.3279998,1200,-31.56265453,275.7948377,22.29252786,-46.45958634,5.76345891,621.6679597,-89.72118597,203.1233496,89.32489231,-24.19145827,61.00419204,82.44956846,229.828257,-39.86922923,0,-37.76965048,,,,
307.3359998,1200,-110.6839164,115.2627139,78.49268969,-16.79796552,-104.783748,661.1803854,-72.59256211,195.9472393,97.03676305,29.74223197,-126.2067489,127.1165766,247.9016001,14.94813127,0,-115.1089754,,,,
307.3439998,1200,-48.28596462,112.8589813,63.99317353,-7.38452642,33.2167344,649.2362233,-34.90018186,208.3120162,151.4337469,55.29160802,-106.5624864,36.26553427,288.4636399,42.9204742,0,-74.74179869,,,,
307.3519998,1200,-94.92814188,255.3975182,42.91539617,-15.21069427,-50.06353309,602.0082444,-57.98008474,183.4013095,111.2799099,-5.749667243,97.82117133,139.8093522,239.849771,-21.02245513,0,-103.869644,,,,
307.3599998,1200,-124.7421221,14.57609622,52.83178605,5.905073796,-57.11055129,707.2807937,-45.02814958,223.4706301,122.60392,35.93935202,-244.298286,67.02124243,250.4508391,20.49522035,0,-96.40947462,,,,
307.3679998,1200,-28.36292628,249.9005194,28.2071701,-16.09777899,22.16739538,615.1261167,-47.2274883,191.1829119,128.8533326,-4.579567697,71.40790171,64.8122611,211.6926938,-18.35302572,0,-52.68648871,,,,
307.3759998,1200,-113.0110638,103.3570936,72.95096292,5.736811574,-87.66422301,659.2566634,-49.35682249,188.5741791,119.2917473,40.42179444,-134.2033948,104.517464,226.9880628,26.6915141,0,-124.0070948,,,,
307.3839998,1200,-52.63020395,106.8390234,56.25160305,-1.785067143,36.63366548,655.4266219,-30.47561085,203.8286945,147.5531745,49.14909493,-120.6359875,13.27719545,239.4507103,34.63764076,0,-70.61068379,,,,
307.3919998,1200,-92.54263373,243.7733321,44.28378393,-13.35825347,-37.82587075,593.2441192,-51.29187601,165.841292,120.9898306,7.006032092,96.23629106,111.2433137,207.3270876,-1.045745638,0,-111.4724176,,,,
307.3999998,1200,-145.0563011,25.48393708,51.12578455,8.557549047,-40.94701028,698.9319487,-38.46506139,208.6842965,116.6527891,45.84890013,-230.010614,38.44036634,236.2178115,40.63569564,0,-110.5337129,,,,
307.4079998,1200,-71.35563963,273.9619966,23.94925602,-22.21374785,18.82696008,621.4112755,-51.71239883,187.8937288,100.8068629,-23.57093231,79.70014584,41.61856033,178.4521072,-30.50728104,0,-54.6837537,,,,
307.4159998,1200,-134.3442857,114.3797341,67.3412223,-1.096670309,-96.28152652,662.2125138,-58.32871342,179.8209651,120.7097654,23.58410151,-129.4048523,79.57752631,202.3392099,22.56496006,0,-124.392187,,,,
307.4239998,1200,-65.62014792,129.6011455,32.27573536,-0.997100249,25.85201578,669.2350475,-38.64857627,197.1494345,148.5741762,32.81884634,-110.5268918,-11.31733523,220.7263369,27.61828439,0,-66.98912402,,,,
307.4319998,1200,-105.0775916,272.1459021,28.34329658,-16.38472751,-56.57923439,616.6467598,-59.85983534,163.49832,103.2895896,-17.2670169,87.52496234,83.25559433,164.367496,-29.14420272,0,-96.24453189,,,,
307.4399998,1200,-119.9360891,38.60622633,61.97833827,11.10756019,-47.16282195,696.2646916,-40.72416899,193.3476799,127.5938141,52.04588569,-231.8908368,7.590292067,210.9746262,41.29581636,0,-103.8513244,,,,
307.4479998,1200,-26.46440257,289.8064145,29.45352314,-1.475148171,28.22021431,604.5909623,-42.26720208,166.9298398,131.4849725,14.38133693,112.4801227,22.8053266,178.4685504,1.67098352,0,-65.190388,,,,
307.4559998,1201,-112.8565127,137.8491216,51.63483176,17.93626227,-89.65147134,660.3675163,-39.41616207,176.1790016,120.9653778,44.99311549,-94.26992531,62.64869044,171.1725178,35.13304135,0,-132.1849868,,,,
307.4639998,1201,-45.85499819,142.7308245,16.16763353,8.467186175,20.84500629,668.3729321,-18.42318798,205.9629398,124.0608844,30.15396945,-94.78504255,-33.78539381,166.5348984,20.17936473,0,-59.76682216,,,,
307.4719998,1201,-58.5528364,268.3689751,20.94810673,-5.127105522,-59.18044174,605.4129354,-34.13065284,170.4773653,106.307199,-12.54114673,96.24013341,65.7717199,133.6261163,-22.55362346,0,-86.7717757,,,,
307.4799998,1201,-81.03980897,27.45055764,47.74573785,18.58455343,-36.39864555,685.9599614,-3.766673157,203.3904973,139.2454899,56.19659442,-223.5376391,-7.087195,186.0058001,48.54120079,0,-97.78485796,,,,
307.4879998,1201,-17.93800443,270.6894481,8.434396247,-4.369778029,36.14694704,592.2519533,-10.31059362,176.57784,107.5411251,-0.797398304,103.7587872,10.1182679,143.8971221,-12.27291528,0,-56.02053511,,,,
307.4959998,1201,-112.8909558,117.9919565,30.74803091,11.70221975,-86.46752082,647.4281569,-23.55557405,180.2226891,106.366571,33.48606697,-109.3290747,55.00918402,152.1719428,27.75958923,0,-127.8478342,,,,
307.5039998,1201,-39.81482023,136.2525054,2.606165018,2.435591694,31.51219799,659.867576,-5.869197192,207.0136963,133.2579133,31.69819801,-96.24022811,-37.3272921,150.2635716,28.13635833,0,-60.38743775,,,,
307.5119998,1201,-51.96741587,264.7353357,7.024915068,-7.816115828,-54.27253952,602.9654093,-21.33336544,174.8619,99.90271509,-11.26226102,96.91483792,67.09918606,106.9819913,-17.94379995,0,-84.67873071,,,,
307.5199998,1201,-74.56557342,25.12450655,16.65272351,16.38984004,-55.40183098,703.2737276,-3.086661999,218.9532994,125.8935521,49.47341936,-226.7706868,-2.882936051,149.1270565,45.30118262,0,-88.12610414,,,,
307.5279998,1201,-4.730698438,268.1680147,-16.88969213,-13.9645213,6.589962279,619.3652737,-12.38987669,190.6873466,107.5159076,-15.58825705,93.93164254,10.6859459,100.0229543,-19.70713007,0,-33.03114571,,,,
307.5359998,1201,-88.63738011,102.3452659,31.11173235,5.509353975,-102.8629015,657.0853624,-16.87266047,178.4595233,116.5126606,28.24427709,-115.5728242,52.66257863,127.5735977,28.20410225,0,-103.1164151,,,,
307.5439998,1201,-10.91542022,117.6357996,6.016141289,10.00685417,28.64737292,655.2048885,-0.457453736,190.0142921,151.4157624,51.16064986,-69.87648907,-32.31882753,141.8842372,44.75932803,0,-51.85517696,,,,
307.5519998,1201,-40.75793972,247.3468569,-2.360165372,-3.193498106,-51.43266555,593.2225726,-20.47775983,142.6967562,122.9331248,5.226852613,135.5898038,74.01274277,94.2043709,-3.376214647,0,-88.79300236,,,,
307.5599998,1201,-79.68823812,12.51925985,10.00170069,9.497265144,-51.99609504,687.6085411,-7.103392799,181.2694644,135.4291053,38.92951017,-205.599665,-3.029436491,126.1543334,41.25404888,0,-90.67930008,,,,
307.5679998,1201,-3.632187157,270.7277733,-17.58829134,-14.86607461,12.24441921,603.9240828,-23.14021507,156.3122464,113.33573,-12.88394429,117.1916585,12.25810074,72.8363491,-17.75814788,0,-35.74734621,,,,
307.5759998,1201,-74.57844493,108.1488664,34.03744443,9.773441443,-85.31758,633.2995079,-19.79480536,136.1336043,130.4735827,46.66659635,-91.72866263,55.0932245,102.3143954,41.58545054,0,-109.3851237,,,,
307.5839998,1201,20.50818785,131.1930706,21.38944776,12.65514015,51.57083299,617.9717556,0.57948517,143.9338614,162.6722233,53.57069301,-61.6263708,-32.77947292,112.261192,56.45119421,0,-60.15054114,,,,
307.5919998,1201,-16.59255116,278.1039606,-3.533037492,6.154560228,-41.0390547,566.8091211,-34.6613099,113.4266669,128.9711779,9.503363439,139.1255885,77.14247319,51.84465363,9.22685581,0,-95.10820525,,,,
307.5999998,1201,-67.33720097,40.54872216,-0.439914563,24.53667699,-44.93732186,670.0757764,-15.26769984,158.1334669,128.0695792,48.01807079,-199.8066292,1.903762962,75.31322824,46.36560378,0,-87.71848517,,,,
307.6079998,1201,17.35180186,286.7027308,-25.46246466,2.357035619,20.10697922,590.8225572,-22.91302152,138.6058649,106.995082,-10.69549807,115.9811197,14.75465917,30.0431788,-15.58314558,0,-32.1993956,,,,
307.6159998,1201,-74.87642215,118.6033203,-3.739365067,14.36669078,-98.89689449,638.0013782,-34.5948284,137.782981,120.9767269,34.26257219,-108.0633066,50.76254295,56.97042417,31.05679571,0,-100.8377196,,,,
307.6239998,1201,-0.950993698,150.1299033,-20.79569141,-1.113662472,23.81021273,630.4791903,-9.803902852,151.8221362,138.274874,26.83258824,-86.75833278,-47.67179757,64.62811296,25.22285717,0,-41.05830147,,,,
307.6319998,1201,-16.309447,303.9989698,-21.95699361,-10.60609497,-58.32103048,578.586302,-30.48272324,121.1897792,109.4714247,-12.29019252,105.3219051,59.89950022,18.41649942,-16.19534453,0,-74.88868858,,,,
307.6399998,1201,-36.74065177,51.4946301,0.739539787,5.379410008,-44.4012699,655.6857757,-8.216745885,148.4202562,132.9229717,52.25186748,-224.2530625,-11.69892209,64.07725225,52.06100901,0,-80.35100183,,,,
307.6479998,1201,28.60543452,289.3436761,-24.20963074,-14.20038138,25.22153958,553.5144523,-8.521810082,114.2621298,128.1609806,5.980286908,118.6293404,7.735100699,35.31228919,5.036491429,0,-50.62520266,,,,
307.6559998,1201,-91.96025993,116.8027123,-8.775216748,5.832583362,-100.2491557,617.1565552,-20.35136393,128.4839615,110.0653376,23.13129811,-113.706012,53.40505582,26.21517778,17.79444315,0,-110.6640005,,,,
307.6639998,1201,1.600152388,126.7131122,-12.95287876,-4.479280692,29.2463306,605.0182888,-3.096035222,138.9628789,121.4368145,25.97476022,-93.39827419,-42.08224346,26.5857809,15.33688447,0,-38.37003513,,,,
307.6719998,1201,-10.31335314,263.8284526,-13.76822246,-7.933785915,-46.98089147,540.7065052,-24.77807377,100.3904537,118.4714746,12.51648358,122.2307119,67.83357131,12.71765846,2.013281928,0,-85.21420056,,,,
307.6799998,1201,-56.6637751,20.34950033,-21.9813909,4.661102203,-51.33353306,645.0541462,-23.22637938,150.0683067,116.9143858,40.85376178,-219.321122,-1.800663975,28.03579347,33.73781193,0,-75.85881358,,,,
307.6879998,1201,23.86675593,267.7135469,-45.65705792,-25.15921871,14.51099909,558.0855935,-32.1167677,122.6143001,84.25169773,-22.90679473,104.9956928,7.496184,-23.47591182,-32.70506418,0,-22.01103632,,,,
307.6959998,1201,-60.08232302,91.31626312,2.068504234,-2.168126551,-86.30943377,611.7366758,-18.74011206,120.4610715,89.37280086,21.70779706,-109.2676408,45.65425647,1.204824354,12.85745082,0,-86.34084511,,,,
307.7039998,1201,19.40886043,100.6226665,-5.226046669,-4.128033869,46.62946916,602.1337169,0.807513585,125.3770309,123.7094886,32.17295098,-70.16275793,-43.4447791,14.81595692,17.50812064,0,-23.6172712,,,,
307.7119998,1202,0.883021017,230.7656725,20.43575863,-3.192933514,-23.84695885,522.6713221,-18.33316675,76.09014198,117.9712776,22.73522991,149.6351264,68.71789959,-8.076712136,3.594177139,0,-73.12811359,,,,
307.7199998,1202,-27.72622864,-6.823496459,41.27306199,27.00081837,-14.73573237,605.5303462,-4.983105889,118.2291671,140.2741395,73.39884281,-165.1368288,-0.602133206,28.08122297,61.56194786,0,-82.14710204,,,,
307.7279998,1202,44.12000984,255.8809903,-3.176872638,9.092961757,35.53976492,519.0831852,-26.81569071,93.85221151,125.8441314,11.00701985,166.087606,21.29650146,-15.40099903,-3.719774989,0,-39.10569047,,,,
307.7359998,1202,-43.23771741,81.13567734,39.00381798,27.66625823,-73.11901697,564.728772,-25.39719109,93.33410254,117.7585568,47.31850462,-71.27089066,66.40071958,-4.249817788,32.06938898,0,-103.0419509,,,,
307.7439998,1202,23.04063647,101.1913822,6.502492681,22.59796474,49.11477425,571.1776662,-12.11211369,124.9135864,127.43093,35.55727485,-48.80161611,-27.58051226,-0.54303102,26.38018836,0,-38.78364097,,,,
307.7519998,1202,-14.70493052,234.759955,-2.087092273,10.33041633,-42.60119465,523.1762887,-40.15089112,95.74184765,89.0824938,-8.457517452,134.8887408,77.64851746,-47.9277675,-18.8607372,0,-61.46510262,,,,
307.7599998,1202,-30.73494443,-14.1438598,30.88133819,24.53939213,-22.73182107,597.5815955,-23.39250027,125.7354185,117.1069617,49.89029138,-194.3998025,-0.986652431,-11.88508477,41.58401711,0,-57.15638204,,,,
307.7679998,1202,46.19141071,242.094841,-5.690956193,-1.8393593,36.9135185,505.2582949,-43.01760348,100.5828067,122.9059957,-5.17741315,155.023274,13.10662024,-39.12045982,-9.133050832,0,-18.09418475,,,,
307.7759998,1202,-56.69267896,56.05643608,28.47951361,7.120355872,-83.87102087,557.3512697,-54.18228288,100.9906944,109.2512619,23.35971274,-76.41645899,55.62605891,-32.01428451,19.25025712,0,-75.1799098,,,,
307.7839998,1202,3.908506677,61.06663,-3.476954222,-0.065489349,34.12844223,563.3412328,-40.93414289,126.7023772,113.5304603,17.35258156,-48.94176694,-31.35398264,-27.5389802,12.49859461,0,-9.866030393,,,,
307.7919998,1202,-28.07196927,178.1156302,-21.63689439,-13.63496503,-65.39785988,527.507467,-62.24250974,103.653087,76.70517041,-35.78744325,134.8241975,76.99346984,-72.36933955,-36.63916492,0,-30.2907236,,,,
307.7999998,1202,-40.09930625,-84.52002525,5.352711723,-4.317880008,-52.38188273,605.114768,-50.70181024,129.7214796,101.8580492,16.01899786,-200.3568001,-11.90074006,-49.23092262,21.10710612,0,-24.88281959,,,,
307.8079998,1202,41.99832143,170.9869997,-29.74900667,-22.87026467,14.8935589,506.2885848,-63.04467796,97.00186206,103.7616197,-26.56734056,150.2866734,-0.912297633,-79.92605755,-20.6292214,0,3.62397123,,,,
307.8159998,1202,-40.67183443,-6.539162465,1.094294951,-0.882633549,-97.87445068,558.1206857,-55.61310502,103.0761702,105.8483914,14.6352219,-76.62123978,45.66231411,-62.00943076,20.66010146,0,-62.62035766,,,,
307.8239998,1202,34.64033553,12.21268211,-13.18204036,1.332104825,38.78214167,546.0351754,-42.41380412,121.5255704,137.3823495,24.28420043,-38.41460964,-37.32423886,-57.98832499,33.05122732,0,-4.157774662,,,,
307.8319998,1202,-15.61228957,148.4239627,-22.77702281,-1.928842781,-43.73907116,491.178622,-66.49197152,90.37159023,108.6615741,-11.44707978,163.5041185,78.5940771,-94.89625115,0.271098635,0,-39.28154408,,,,
307.8399998,1202,-52.1533627,-88.03627561,-7.844846381,17.12179908,-33.51080679,581.4829301,-39.80507603,134.196806,119.5838183,40.30065779,-159.7732816,0.289172551,-63.41630658,50.98817889,0,-35.64903477,,,,
307.8479998,1202,33.97009329,179.8088117,-21.20928012,4.287821605,39.82572548,484.4912764,-53.93465966,107.472822,122.6733329,-6.306802054,182.0068399,22.85338136,-101.8441526,2.705185865,0,17.69636158,,,,
307.8559998,1202,-44.7595736,7.020186193,20.1799467,27.43615664,-58.75822849,517.1428031,-55.41451973,104.2012262,143.3574624,45.43137907,-40.54524038,69.66429273,-70.87309275,57.84111571,0,-42.68569289,,,,
307.8639998,1202,19.60942713,40.37665289,-23.83121465,20.76717351,67.37212015,516.1595076,-34.93360499,132.1838732,149.5911149,40.2457245,8.228431187,-21.75044192,-67.23636953,54.67982963,0,7.777238181,,,,
307.8719998,1202,-20.63777862,168.2431242,-33.16149858,2.834666339,-26.63272511,471.8245884,-61.60979297,105.7659864,95.73189389,-24.28044616,178.9061072,88.33595092,-128.0958665,-4.673341608,0,-14.89876045,,,,
307.8799998,1202,-48.55617623,-86.96804145,-9.502312171,15.94801025,-9.507786015,546.8100267,-30.13601467,142.2737697,130.0526409,35.89446824,-159.8570957,5.52982136,-85.78833483,57.81572994,0,-18.04043037,,,,
307.8879998,1202,28.24833118,178.2706169,-48.69360303,-1.285850462,48.44594422,453.7939258,-37.45972749,118.3382572,127.8036693,3.51340704,195.4067224,26.97752478,-117.2623834,13.4580196,0,9.771797325,,,,
307.8959998,1202,-52.29194156,0.034473734,-25.67663985,12.99979155,-77.74420055,509.5654523,-62.26015977,125.2242232,120.8933785,39.04158336,-42.47821978,75.90317024,-111.4521584,45.66767053,0,-46.89113735,,,,
307.9039998,1202,12.19621626,19.14780467,-51.13495951,1.343348689,50.38665391,505.7531033,-51.84758069,149.1841417,140.380321,31.27320055,-16.30802231,-15.36935184,-108.4785212,40.22300472,0,18.16081492,,,,
307.9119998,1202,-25.48735266,143.1060343,-45.32803876,-12.12017396,-33.27010468,437.9588156,-67.34606165,106.38274,102.4652054,-5.532442065,154.8594256,86.04092867,-148.6948207,-0.568044415,0,-17.97592151,,,,
307.9199998,1202,-46.32306637,-91.58597322,-40.82384957,2.163802962,-22.92438948,526.4009827,-37.82833122,154.370051,105.4538598,30.18896849,-184.1016908,-3.942873629,-124.1192065,38.63985879,0,-19.44477075,,,,
307.9279998,1202,24.24547745,180.9300387,-78.27941165,-21.62426633,39.98942512,454.2907694,-38.17916787,147.3418808,85.13675486,-36.59609985,162.6800455,16.07400578,-171.5790564,-25.40363179,0,35.92653736,,,,
307.9359998,1202,-47.67228753,-13.51760136,-24.13796239,-5.72136385,-72.3905406,481.5738267,-47.28013757,132.677941,103.5328922,26.55289095,-67.52875473,52.85532028,-139.403121,31.68793067,0,-30.77491568,,,,
307.9439998,1202,50.49304811,7.986354196,-42.1554957,-6.761398561,49.61608186,460.4534524,-28.82017016,146.1870075,134.3119555,32.83272743,-26.3172998,-40.96260499,-125.0233509,30.53205417,0,11.9031088,,,,
307.9519998,1202,13.38744768,132.9832994,-41.78251049,-7.597387855,-38.72702852,413.107756,-49.94210662,125.336334,93.39274541,-4.035596449,159.7826428,76.94756031,-166.3273234,-4.526773593,0,-17.43066636,,,,
307.9599998,1202,-21.40952297,-116.7811506,-30.01123208,10.23614243,-24.58387032,495.5174679,-45.66886745,169.2191064,107.6209396,47.17776949,-163.7956986,-5.259425019,-136.5136211,49.98726896,0,-11.70493156,,,,
307.9679998,1203,46.23661444,150.6708607,-62.87867365,-11.25330258,37.44301235,404.962735,-50.0037119,146.9464253,100.0852325,-16.52684038,178.2075591,13.64613062,-182.9463928,-15.38500986,0,34.00038777,,,,
307.9759998,1203,-53.9672607,-34.94522077,-17.92467682,10.99061354,-70.64759797,440.7885007,-46.06031226,141.090204,100.601946,36.96537671,-59.05280624,52.55254889,-151.6504521,40.95803677,0,-35.63524249,,,,
307.9839998,1203,8.222534183,6.287125488,-46.47362055,4.200495443,58.75169137,425.5254541,-32.60555497,148.1331766,121.4399702,34.85591147,-11.68365062,-37.86279104,-147.930331,38.06880169,0,17.11932782,,,,
307.9919998,1203,-27.88254792,140.4058905,-42.14445337,-6.906253782,-26.11067395,365.6745558,-49.05228578,94.98358904,100.7510172,-9.236611745,167.5494781,75.67322965,-194.7677225,-2.725740647,0,-14.32601221,,,,
307.9999998,1203,-44.10711702,-112.0794399,-21.60733739,3.528650416,-8.72561611,436.3323281,-24.79968941,111.4296369,112.9121689,42.37480761,-166.0985498,-10.64171755,-150.7734772,54.82155312,0,-23.91548006,,,,
308.0079998,1203,34.47917417,150.1518386,-57.09783025,-30.06921833,53.06370769,343.7758298,-18.13055444,73.38652147,95.00901552,-13.15353511,170.8790731,9.511101779,-193.3912132,-3.048372156,0,13.44128242,,,,
308.0159998,1203,-52.37654986,-43.47752745,-14.27467982,-13.76825545,-58.94647802,376.6200331,-12.30381007,54.7076944,105.7508006,37.81151356,-68.3518921,44.80879839,-169.114656,49.22756675,0,-55.54995081,,,,
308.0239998,1203,16.64081136,-7.930517877,-32.48421319,-13.96542516,61.77893762,356.621052,1.709518939,56.3966885,122.1860585,34.64432588,-11.8338628,-42.38606161,-159.843697,41.58463495,0,-3.692858204,,,,
308.0319998,1203,-17.09738732,117.1379799,-20.87486149,-18.42124445,-26.83012738,291.1034817,-16.94593894,5.498033675,101.154337,9.049114237,178.8254916,76.84606417,-195.2797043,11.84799392,0,-41.90637554,,,,
308.0399998,1203,-55.14432549,-123.0579071,-19.1627526,0.49159629,-7.476344454,371.8649367,-3.779059632,35.47077579,135.0694006,55.99146864,-145.5329374,-11.49794049,-156.3316488,66.5515074,0,-55.13894109,,,,
308.0479998,1203,-1.105429717,157.4100726,-58.14448252,-26.94364117,48.50060657,309.2190795,-14.55222724,20.92303221,106.4280392,-28.58356008,185.6840548,10.42450969,-219.2523366,-15.67954757,0,-1.436109248,,,,
308.0559998,1203,-75.99647394,-40.80653718,-1.559031291,-12.47853404,-67.50428992,363.8814743,-27.73961388,20.29922746,101.8838488,31.75630641,-57.60905744,47.64951579,-197.24671,39.42759749,0,-53.98011136,,,,
308.0639998,1203,-1.92897765,-4.958706461,-31.79154148,-19.08882376,50.08568853,369.5204883,-26.3600627,37.55744878,117.8071946,22.41933959,-14.12297782,-44.0919365,-199.9878653,20.65026165,0,10.14100076,,,,
308.0719998,1203,-40.57570619,121.0125573,-6.905411089,-31.57884953,-42.32413251,326.3662025,-43.07028087,-4.351571895,81.39289288,-32.6068131,144.8716811,67.98389903,-251.2857468,-37.43974707,0,-4.479966327,,,,
308.0799998,1203,-69.59167253,-122.3671231,33.35334638,-6.61160542,-18.80572847,398.5203789,-25.39518198,18.07007331,114.800233,43.71571027,-171.6539814,-20.18224465,-182.1840485,43.69102474,0,-15.85186331,,,,
308.0879998,1203,-4.016518513,159.0290255,5.995213394,-21.46157757,42.65353577,310.8121798,-31.86226865,-19.00256889,110.7018506,-14.66986007,182.2062446,8.683926064,-221.1753879,-18.74594785,0,16.9051517,,,,
308.0959998,1203,-104.6429606,-33.02847218,46.61918339,-2.207229168,-75.34333761,357.7553407,-28.13851822,-28.05799052,117.6490195,22.05945259,-51.57874117,51.80255587,-211.3705725,16.2470126,0,-48.1223096,,,,
308.1039998,1203,-53.68383609,12.35581702,10.14167496,-3.050581858,39.47259036,366.439831,-15.54533985,-4.168994328,125.7895314,6.151117211,7.875048085,-30.31817466,-210.3564607,4.472296557,0,12.41461556,,,,
308.1119998,1203,-54.7099815,136.2284965,44.90892379,-6.840743129,-42.17710826,308.5898624,-30.38389893,-54.10680493,100.3895167,-25.6568076,176.7280525,91.80305273,-245.5778456,-26.44752733,0,-9.63819305,,,,
308.1199998,1203,-69.83607728,-114.3768629,58.84805039,24.28194639,-15.03350783,382.2083311,-7.352911162,-23.22245118,142.766387,53.36302324,-136.9756954,6.67879457,-191.6532043,52.9781916,0,-29.14674735,,,,
308.1279998,1203,-35.56255848,158.4150334,5.3676604,7.905503548,36.4982733,318.7063224,-20.60888609,-34.55160603,115.9128573,-20.38784962,200.986949,34.73927796,-250.7528423,-24.999597,0,13.47604267,,,,
308.1359998,1203,-114.5387937,-42.25283853,75.20772086,25.29569369,-62.6851824,353.1472181,-19.99260514,-49.19077352,118.3286923,27.97163508,-57.75391943,70.29193868,-228.7762165,23.00229258,0,-45.56649272,,,,
308.1439998,1203,-39.316616,8.346513008,45.37148858,34.45126993,73.4187428,339.6597579,3.508225789,-32.87734974,152.1290708,43.03131929,9.980449894,-22.30872978,-206.7407113,43.2721114,0,-6.599464297,,,,
308.1519998,1203,-86.81997349,139.1513526,35.56986777,29.7200852,-30.05211341,305.3771138,-19.72704559,-61.27324675,114.6252002,-5.868391107,182.0975933,94.28447381,-255.4253174,-1.5651935,0,-30.03558286,,,,
308.1599998,1203,-96.33737658,-116.4904387,59.02563903,42.09153512,-13.56869736,381.3493651,-3.728831047,-32.76310733,128.7396149,38.95270389,-155.4990403,0.056814216,-217.4282406,48.18134982,0,-27.48540721,,,,
308.1679998,1203,-19.54455924,161.4413667,26.04851191,28.93013178,53.03805993,298.8972534,1.975339747,-54.36861189,119.8126268,-10.01713537,195.3045549,21.3706556,-248.0161726,0.113183584,0,7.436789478,,,,
308.1759998,1203,-100.0417071,-31.52746771,73.70681021,49.24426488,-58.06040224,345.7479901,5.498384685,-57.7004766,130.5086386,45.74773285,-47.36897868,60.37788107,-221.2218699,55.38359361,0,-54.11336007,,,,
308.1839998,1203,-9.720147393,1.080916657,64.67203398,43.23253835,64.03787552,324.7366589,21.25878173,-51.8614636,156.3150537,41.47031148,5.830532144,-30.83250012,-219.4199108,48.92864211,0,-2.851582808,,,,
308.1919998,1203,-61.72254107,129.6995283,66.36918865,46.4089392,-24.89351608,277.9978721,7.200168354,-83.94913628,133.0056074,10.84440106,185.6212423,85.97651332,-251.9046748,17.11571987,0,-40.53908046,,,,
308.1999998,1203,-99.73844429,-106.3642731,67.52487071,64.44931412,-5.809586342,361.9339746,17.87146978,-44.61435206,144.7189258,63.8001332,-141.4354017,-1.952858945,-212.2770737,68.37357222,0,-44.40258685,,,,
308.2079998,1203,-21.5635283,169.3168317,32.629135,38.49588262,45.18974141,282.8667146,5.940788861,-69.80728615,115.8276216,-2.781508934,201.649808,23.13290938,-264.4996693,-2.424661787,0,0.464102757,,,,
308.2159998,1203,-111.2482073,-25.43795782,65.45754872,53.97386736,-68.86134489,342.8103184,-0.017104275,-64.36968302,115.253374,36.01307115,-40.08499556,59.38204507,-243.0183214,41.20015175,0,-52.23296337,,,,
308.2239998,1204,-43.29877352,12.13061849,33.36570124,39.13683522,53.29739323,336.2538526,2.142642737,-43.99504997,129.9705458,24.13771921,11.86443764,-37.79261969,-242.9476018,27.86561262,0,11.6732439,,,,
308.2319998,1204,-75.2010186,132.2738362,41.80678106,26.85402586,-37.32388528,287.1560171,-15.00109295,-80.97422292,99.23072904,-5.363966143,182.3492727,69.86908281,-276.627486,-9.854198613,0,-17.00160705,,,,
308.2399998,1204,-78.45325573,-107.215989,59.58943497,43.41090671,-12.74776915,365.0812208,6.080145828,-48.78342603,126.1342133,49.33555342,-139.3985774,-20.97740763,-230.2238784,46.00938503,0,-17.28516307,,,,
308.2479998,1204,-13.78510417,172.7127975,19.27718931,26.01518995,38.63691729,293.3986713,-1.840169342,-66.36369532,115.2724276,-12.68246461,201.5504247,8.199879592,-271.3389138,-14.39532609,0,24.52716951,,,,
308.2559998,1204,-118.2867374,-23.17202646,54.31922654,41.42365448,-77.99507472,355.2360692,-2.697396663,-63.32312411,104.8122036,25.94018885,-55.09935817,49.64321756,-256.2872214,22.20965857,0,-28.31099601,,,,
308.2639998,1204,-35.65159865,14.6838208,27.33828205,27.0898918,36.4345854,347.7248355,-2.138140658,-51.20023701,111.2870086,11.88305267,-2.288388952,-39.73615937,-275.3398313,1.716857766,0,35.2191294,,,,
308.2719998,1204,-62.00248064,131.5136876,26.95154242,20.5108154,-66.77028768,310.7168483,-28.20130289,-81.96100361,88.05672744,-14.32450685,167.4668028,73.20731997,-305.4785027,-27.98183885,0,2.122293362,,,,
308.2799998,1204,-63.92449415,-128.891232,58.44554872,36.10858679,-38.97647082,375.1943255,-0.195381649,-55.75337372,117.7522914,45.76359361,-154.4169103,-14.85567534,-247.6660788,36.67892452,0,-1.177530851,,,,
308.2879998,1204,7.821549539,131.9711769,37.96891975,19.33246482,23.8658168,272.7014358,4.957384132,-89.69924933,120.1748502,-2.663365815,207.387014,12.65646994,-287.2612997,-14.81949548,0,23.51893663,,,,
308.2959998,1204,-90.17933985,-56.64521803,70.33448978,46.07516953,-87.34552502,324.3730788,10.95586056,-87.9775496,135.3735676,57.45082121,-19.68780195,52.05837843,-257.6908221,38.76262273,0,-50.38528434,,,,
308.3039998,1204,-18.04692177,-4.858200872,28.81875662,38.18818151,26.16748671,320.4460358,16.29313793,-65.48186794,130.6094768,32.01589849,33.29650648,-33.15935922,-275.0536469,16.84091356,0,16.42938255,,,,
308.3119998,1204,-64.89330892,118.8053008,22.86159564,22.89466675,-75.0170058,279.3915406,-12.13942345,-96.50471611,85.57161191,-15.84668804,184.8371623,74.67310822,-318.8348281,-25.93807121,0,-7.31196183,,,,
308.3199998,1204,-79.42769874,-120.4845889,34.52073646,34.41397667,-47.92002364,349.3752252,-0.116096824,-67.66056918,122.0159807,51.09631988,-133.5717648,-21.61405878,-258.0996583,42.37246074,0,-16.47243864,,,,
308.3279998,1204,-8.514443902,161.8542644,-8.05157132,14.44545942,5.635036275,275.1003734,-2.903958307,-84.26571359,103.3885508,-21.68189173,209.384181,7.656626601,-316.1027366,-28.48250151,0,23.33358084,,,,
308.3359998,1204,-105.0851015,-24.56371262,37.12759124,28.6544235,-100.4187524,334.338649,13.01042848,-84.45451471,101.5385875,20.08621978,-39.63024621,43.85380421,-289.9091436,15.89489826,0,-30.3425122,,,,
308.3439998,1204,-43.60074622,19.77557075,-2.316842253,17.51759324,20.15439113,323.9438354,14.17376992,-70.87584346,117.9658826,18.78643647,27.06521753,-46.6860128,-276.4268606,15.69497758,0,26.39757811,,,,
308.3519998,1204,-90.10952918,131.7006103,-9.401580429,6.120962473,-85.58130703,289.2591573,-22.4420513,-100.0347093,79.5836322,-32.81821633,174.9685517,66.23599822,-334.7018054,-33.47536813,0,4.847129629,,,,
308.3599998,1204,-91.77571287,-116.5949542,29.9304548,19.18134856,-51.9998829,347.0682508,0.607631079,-86.43442549,116.2346871,37.14357244,-141.0848445,-26.97199854,-282.7411203,35.59301286,0,-0.142948769,,,,
308.3679998,1204,-4.822484762,156.3711131,-2.626082911,9.856618119,14.8159578,245.6082846,0.375128711,-121.8465442,119.7612656,4.763345241,221.5778431,-1.185618148,-302.7821238,1.414235964,0,12.17109969,,,,
308.3759998,1204,-92.63101049,-36.56142272,22.21017642,31.31452232,-90.90868067,300.224283,3.178865591,-115.4674933,126.8476107,45.69035158,-37.64287074,36.23408225,-277.8528156,46.92795492,0,-55.79290898,,,,
308.3839998,1204,-29.31275,6.559256322,-20.88602808,11.80861864,25.94710246,288.5454818,10.86452773,-98.37493166,138.8137306,24.25736066,15.87171057,-53.76197208,-279.2791173,29.18782634,0,2.815914749,,,,
308.3919998,1204,-77.59707975,113.7063293,-31.50074629,1.659713353,-80.36396232,249.1955539,-12.35296628,-130.2885674,104.3053615,-16.71277281,163.1845057,53.66434662,-319.3087974,-7.357238265,0,-30.2206287,,,,
308.3999998,1204,-92.97555491,-133.8742355,-16.37328086,16.64115056,-55.85122975,325.3115609,-2.609301837,-103.1552802,111.6669292,37.64689465,-156.6504486,-37.06353427,-280.6279357,45.66877142,0,-26.27501255,,,,
308.4079998,1204,-6.526005598,136.5207837,-53.79112944,-8.271352894,-3.400896968,248.8212205,-11.49546484,-125.4869449,83.66173269,-27.04283402,203.3173937,-4.337287932,-335.2253568,-18.76645282,0,15.19999554,,,,
308.4159998,1204,-91.53624425,-64.89167826,-13.78742476,5.150251952,-110.0176822,308.2448276,1.369532807,-118.1786573,94.73009421,21.44342401,-46.3594552,31.09464546,-312.4168215,33.59109699,0,-43.26840526,,,,
308.4239998,1204,-19.82959422,-17.67957538,-34.77128753,-5.551386051,25.90475148,282.3506611,10.0226581,-109.4831465,116.1444982,27.79945677,29.26707621,-53.69896863,-299.4860946,32.23298509,0,10.57863907,,,,
308.4319998,1204,-43.39090733,92.06434385,-20.27148776,-8.828067848,-57.72377096,226.832701,-9.627378804,-148.8858736,99.43665746,-3.782110056,189.2404526,65.9464334,-330.7436943,3.790341476,0,-25.72994224,,,,
308.4399998,1204,-57.5754631,-150.8668289,8.898158114,11.13357161,-18.70986494,286.6823009,20.59033808,-120.9113961,131.7734345,63.59247134,-119.983446,-21.72275419,-274.0209193,76.62732506,0,-35.60023091,,,,
308.4479998,1204,11.72169997,129.7122136,-36.5512202,-7.26962377,27.39456356,199.4465795,4.364477826,-138.9659222,100.9465407,11.76845502,242.8852874,15.14310369,-315.5502841,18.93798608,0,-6.989834431,,,,
308.4559998,1204,-82.02491866,-73.50711184,-19.80206382,5.150281069,-105.8674641,267.4317357,-8.664932584,-123.752789,92.89794043,33.53087769,-24.75204168,53.72208277,-310.1221356,43.78188844,0,-57.18095497,,,,
308.4639998,1204,-7.172822185,-33.03070641,-35.88172261,-8.793870429,17.09564876,248.4398758,6.976159935,-111.4660372,105.9666474,22.63617504,37.23030865,-37.65210647,-304.2290057,36.07179114,0,5.085059608,,,,
308.4719998,1204,-28.84650211,74.34220392,-18.38144267,-12.10292823,-74.60188588,200.3893402,-14.2750983,-147.4786082,75.66218308,1.169547172,198.0620377,75.94403784,-332.5386576,10.62743559,0,-26.12714575,,,,
308.4799998,1205,-52.88443897,-159.2364616,-18.34284173,5.197265984,-54.38489266,279.3777744,-7.690106899,-111.6904021,102.6368729,48.35799938,-118.3404066,-17.92831894,-300.7918398,56.0514122,0,-24.18459191,,,,
308.4879998,1205,24.13777676,124.6883116,-46.57865287,-12.61725408,8.795380888,185.4163572,-20.71884522,-142.0087449,76.39202622,-12.33339571,229.4022162,9.870542733,-347.1388826,-2.004566274,0,6.349525974,,,,
308.4959998,1205,-50.64640371,-82.53399056,1.802133064,13.23765521,-87.43405812,232.468777,-18.3061077,-145.8457497,69.70706329,43.95115872,-24.06006245,49.66112902,-313.5284119,54.48994048,0,-55.28713473,,,,
308.5039998,1205,7.251946088,-33.2978087,-32.01796452,9.631114475,37.20143446,208.9317235,-2.305041347,-136.386038,95.99476693,36.90272609,52.41593544,-36.99123457,-303.2645326,44.61793695,0,-4.846847084,,,,
308.5119998,1205,-28.05279566,75.48597729,-18.67093445,7.711731414,-52.24106301,153.1851257,-15.51952446,-171.0153374,74.02097809,3.379902335,202.3258351,71.92678033,-331.7600307,10.963171,0,-45.4770925,,,,
308.5199998,1205,-41.66722618,-162.3242149,-1.221817119,27.38582682,-20.8859655,225.9968425,8.667464486,-130.3890697,92.6663957,57.43644662,-112.3072401,-18.08098172,-289.9637122,60.7575013,0,-41.50462473,,,,
308.5279998,1205,17.68300183,125.1980649,-29.49584415,10.27431756,34.85051952,133.5392595,3.178043138,-154.6280963,75.73889128,3.917008615,244.7632825,20.12083392,-333.2925995,3.375390104,0,-4.459841178,,,,
308.5359998,1205,-55.9742358,-82.57738725,17.28151875,31.33641137,-66.09287603,174.3711594,7.940315214,-158.6878319,81.54261691,57.68937955,-8.493609005,60.08749208,-301.2660368,60.64721929,0,-67.24167421,,,,
308.5439998,1205,22.42700965,-39.85780278,-10.29911161,22.56502142,56.53203842,146.3378151,26.4361618,-152.4634568,98.19946779,36.53087617,72.55984197,-24.7595675,-292.6867431,43.06064376,0,-19.25914109,,,,
308.5519998,1205,-36.16793871,65.34800045,-2.433285446,23.33980938,-37.00551481,96.18124625,8.319086448,-186.1127609,69.55255697,4.758811288,230.8375288,90.30353832,-321.9684664,13.09977321,0,-62.50929,,,,
308.5599998,1205,-44.29674104,-175.6862515,9.662770273,43.10997762,-7.744913753,167.8609829,17.54745782,-146.9557189,92.37356235,67.24606279,-89.28514365,1.004793928,-290.4330187,72.3466097,0,-56.91231804,,,,
308.5679998,1205,37.37589422,99.41560569,-17.68202844,19.66432611,42.0770008,73.2892624,3.24467478,-175.7398309,92.138021,11.41092052,258.8500026,32.68812152,-327.6864359,14.96796985,0,-24.00111995,,,,
308.5759998,1205,-72.32890211,-113.7225545,11.11803769,34.44716586,-62.55291228,130.2704028,-0.741915039,-165.9168331,88.54266011,47.91441919,2.400830403,64.20105423,-293.9117861,53.28473695,0,-86.68172166,,,,
308.5839998,1205,6.989374848,-66.40684826,-21.34605628,15.48847221,57.64583261,114.2181808,5.670478434,-148.7232837,77.51969834,16.12671835,66.18477514,-24.79817933,-311.5696383,17.90534897,0,-23.58874921,,,,
308.5919998,1205,-10.87136727,46.34827304,1.424340535,6.291665717,-40.01083081,57.92864638,-9.883434654,-194.6051052,78.19863154,5.721715148,225.1616104,90.01539686,-329.1193446,8.249323594,0,-69.60963246,,,,
308.5999998,1205,-46.05543427,-180.2996301,7.135444743,22.95577411,-15.1477078,125.846661,1.084313455,-160.0921444,115.1683181,65.18223877,-75.1277854,2.263836707,-275.7896778,68.61120386,0,-75.29165512,,,,
308.6079998,1205,4.69451655,103.1684033,-37.37407989,2.112157743,23.67626142,50.00547669,-14.22603156,-173.8772066,64.37383022,-28.69750035,256.5236673,33.42847494,-344.4223875,-22.14721198,0,-29.8580947,,,,
308.6159998,1205,-85.09670764,-105.9665504,-9.966995651,21.07901048,-85.34444173,123.6246111,-8.341754272,-154.5282532,62.46941241,12.50441805,-9.045809847,63.633675,-321.3069642,28.06202388,0,-74.69166207,,,,
308.6239998,1205,-12.65107812,-60.41158625,-42.28307774,3.980478435,41.94308843,107.4707483,2.726232331,-133.8119669,73.26859456,0.922322875,70.72292653,-27.20823909,-319.1889719,10.41043685,0,-5.913800903,,,,
308.6319998,1205,-37.27316265,42.74688976,-23.22105251,-6.01275835,-49.37866316,67.28468357,-14.90619508,-163.7690533,31.10577607,-34.45785361,216.2422287,82.10098141,-356.5618448,-28.89146003,0,-38.94265269,,,,
308.6399998,1205,-53.93162062,-192.3357943,-13.80914252,10.04279926,-15.19988351,146.2109383,-1.575365132,-120.740614,71.36139229,29.43359865,-100.147442,-9.497794318,-305.5106571,38.48372238,0,-38.41240768,,,,
308.6479998,1205,-26.57811926,82.6706815,-67.28506636,-14.42347073,18.44896573,73.16880504,-20.63551341,-133.2526268,48.48079191,-45.59166875,223.5285913,22.50984861,-365.5621783,-41.65047466,0,8.123348251,,,,
308.6559998,1205,-130.1835333,-127.8914005,-29.12974873,1.409335451,-99.22656584,150.6734401,-17.77012806,-116.5170317,19.08924812,-11.86524988,-49.55791178,51.55136683,-363.7150291,-7.706122999,0,-24.64783765,,,,
308.6639998,1205,-34.53477809,-82.20451023,-31.33471593,-8.587678391,40.64376196,116.2929227,5.359364735,-115.6372705,49.0296095,2.259136955,45.24613939,-42.88303248,-341.6695298,8.052201781,0,28.69686727,,,,
308.6719998,1205,-56.67552329,18.7612188,-14.12796904,-9.2599347,-49.91489818,63.14288643,-0.559936176,-159.865461,40.81254645,-26.0962366,201.3268345,69.50716417,-361.5391491,-20.11940863,0,-17.51949358,,,,
308.6799998,1205,-66.06523352,-214.4021925,-2.293613447,13.35267502,-21.70357418,132.6794573,16.37005464,-124.5484614,66.19634216,30.7082981,-103.96411,-15.07662298,-318.6799682,38.87762629,0,-13.10774384,,,,
308.6879998,1205,-6.546398483,59.49667845,-32.6238049,-4.077740237,37.74957825,30.61926799,8.89546498,-155.9308613,67.78786688,-8.122792862,245.2768341,18.13117682,-340.9605725,1.105151556,0,4.169415928,,,,
308.6959998,1205,-99.1707627,-140.6930206,-12.68042956,15.70133332,-70.15224194,101.4792552,18.15207807,-140.3534494,69.82854789,21.1127272,-20.95346605,50.41043177,-322.4073452,30.79379978,0,-52.42840769,,,,
308.7039998,1205,-23.87841037,-76.78099284,-60.43991799,0.079350417,29.42201166,96.4222684,17.79970254,-110.7425587,59.3776387,-8.927473373,53.44752439,-33.85306895,-346.548417,-0.765993251,0,22.38758763,,,,
308.7119998,1205,-60.31381123,27.05339484,-48.238922,-12.11001038,-76.54774589,58.93684544,-10.23207857,-142.3683103,22.54363474,-31.12310712,196.6761262,75.3459742,-378.0826937,-20.92153103,0,-2.122480953,,,,
308.7199998,1205,-55.95106266,-205.2185552,-29.80067977,3.794675689,-40.11180471,130.3221304,8.360536367,-110.2087519,53.10492296,34.12925425,-107.0520963,-19.93477328,-329.8386751,41.80963633,0,9.981338289,,,,
308.7279998,1205,40.20978765,65.32904241,-44.95910102,-15.05296268,16.93423748,20.91023475,14.16459533,-147.1250611,50.74185025,-5.669795037,243.1940676,16.11366617,-363.2789689,-5.243663856,0,42.54317904,,,,
308.7359998,1206,-30.15208795,-148.5518473,6.390855504,11.78309889,-69.57546232,51.77062267,36.61866354,-156.9974947,86.74168817,65.08635349,3.667294374,51.85967972,-302.2985189,69.54262647,0,-25.95310873,,,,
308.7439998,1206,28.95800689,-91.70031157,-49.9549051,9.033979998,44.66376583,26.36875567,44.49298416,-133.6447937,96.27443395,36.40522693,72.31576099,-34.53649448,-305.1107735,46.01338339,0,14.16069236,,,,
308.7519998,1206,-34.85601048,16.86862857,-61.63089416,1.602839168,-65.62637351,6.959138267,34.70829057,-142.3897077,30.83286105,-20.46571332,173.9509237,76.68113729,-367.5394196,-8.203023081,0,-14.22759546,,,,
308.7599998,1206,-57.0082782,-212.6387316,-49.74599054,11.60719136,-31.75102364,87.1871988,59.39454548,-97.89985618,50.63951807,32.6927056,-123.7370817,-15.690275,-325.1044372,48.39843551,0,8.980595534,,,,
308.7679998,1206,13.43007524,49.0576135,-71.83643577,-14.82349008,13.14316228,-13.60288543,38.410893,-127.1797408,34.13205251,-28.6855965,222.1059153,12.72914155,-373.736156,-14.07769468,0,40.10207018,,,,
308.7759998,1206,-66.13873483,-161.6526591,-26.15511561,6.424473796,-76.95134191,35.4193326,39.24631404,-131.1098057,49.46235434,38.80491258,-28.53660377,42.50810368,-331.5011765,51.99082531,0,-24.6648785,,,,
308.7839998,1206,-0.803495953,-97.26070804,-82.1080022,-7.472350867,37.17568809,22.24937505,30.16441179,-114.771036,58.75110125,16.09339674,63.6367198,-35.69402596,-337.3152828,24.21790151,0,36.92998619,,,,
308.7919998,1206,-31.59198186,-0.665908412,-70.58100025,-23.37590397,-68.20726068,-8.650831081,2.531564345,-146.6634623,12.04199737,-39.11628054,181.6975942,75.9058022,-392.6940001,-29.52169058,0,16.71553333,,,,
308.7999998,1206,-33.63277026,-231.9423238,-45.32039295,-6.361835743,-19.81836352,53.54090714,29.51750542,-123.6268178,55.31189416,41.07442934,-93.70228525,-19.12599079,-322.1208333,54.17727407,0,18.2835884,,,,
308.8079998,1206,19.94056491,38.29594327,-81.84633628,-27.48035605,18.26329081,-38.28830289,8.022319512,-152.2451323,27.0772938,-21.42888871,253.4488703,15.81360055,-372.3941405,-16.71768109,0,43.32306151,,,,
308.8159998,1206,-31.77287331,-174.9986715,-4.865745508,-6.980691512,-62.67761169,-6.005525997,21.14478535,-169.463226,49.35000621,37.92468601,-18.06530744,43.35720612,-329.0756226,42.6378275,0,-17.98186442,,,,
308.8239998,1206,41.05968509,-110.2144384,-38.5566783,-4.185273937,74.84992478,-53.28680951,49.25008323,-169.2032773,104.4413511,52.18848306,94.68417748,-37.57929481,-288.2938782,63.32622281,0,9.132693686,,,,
308.8319998,1206,-50.32702544,-3.256170941,-71.98819325,-6.37222286,-55.53328849,-58.86942636,25.32770374,-172.1748965,33.66470946,-10.00192378,214.0627147,82.55125923,-359.4046637,1.774950185,0,-23.53023864,,,,
308.8399998,1206,-55.04806035,-231.5958212,-51.74158986,-2.90189855,-27.40009311,26.2604499,44.00267111,-130.5163643,37.65041534,32.70348384,-101.9126332,-3.666736789,-335.6195776,37.36466689,0,15.211854,,,,
308.8479998,1206,10.60253688,35.32871448,-77.51279717,-29.98526239,18.36824377,-72.52685892,32.35952084,-163.5405069,35.33188125,-18.63883848,239.5634991,33.65025407,-367.2576997,-17.34838901,0,46.88381111,,,,
308.8559998,1206,-82.67682739,-161.3282933,-41.17675752,-8.904239765,-85.10933792,-9.336126735,30.58524916,-155.6245115,39.27255423,33.63785948,-28.99518303,62.59489805,-342.2632576,40.07983993,0,-11.0026106,,,,
308.8639998,1206,-6.918302221,-85.5797509,-71.30737777,-21.97729875,40.43825502,-34.3153122,44.07715771,-145.7869825,56.11578032,21.87452942,59.43781892,-21.25248851,-341.9298426,24.91366596,0,51.72341748,,,,
308.8719998,1206,-58.02275264,18.27461869,-49.57839466,-22.65959946,-61.52099237,-67.36432366,30.16502859,-175.1968491,26.88035496,-18.17057154,180.1183024,86.5722217,-375.4683061,-11.24311798,0,15.53563354,,,,
308.8799998,1206,-75.47701714,-194.4784463,-2.308028297,3.093853106,-15.12374651,-5.874770148,59.42269685,-142.5101493,58.7114378,60.11234751,-91.30910285,-2.948455306,-315.5342996,70.95809374,0,18.38425936,,,,
308.8879998,1206,-40.64111072,77.27149433,-37.32630329,-19.99470057,22.70764282,-96.80584781,52.51279931,-163.2487974,36.2597615,0.566822796,268.8976085,36.91478591,-356.6346476,3.090386306,0,41.27000205,,,,
308.8959998,1206,-140.8319268,-136.5392961,-9.28883417,-4.528075862,-95.96657396,-18.9136048,43.05837931,-144.9645421,38.50237729,23.64551629,-26.49785371,62.12646618,-338.8290742,23.86653392,0,-2.339772299,,,,
308.9039998,1206,-75.21126838,-69.0478324,-27.97188451,-13.24370021,19.69094028,-43.23272039,48.46170259,-132.4715733,57.18007035,20.55373159,58.52192891,-21.28399776,-338.0653544,16.5529863,0,60.78462073,,,,
308.9119998,1206,-129.5019981,37.70969269,-16.46694506,-18.01737866,-86.04315705,-64.43418343,34.01169665,-157.4685489,22.86871635,-12.55167257,190.7986244,88.5481603,-388.2811558,-16.71805882,0,22.41146579,,,,
308.9199998,1206,-125.4631271,-180.729261,7.115313232,-0.490195563,-41.72995284,15.35505378,57.71146687,-119.0345199,60.69258798,45.0394489,-104.0303213,-8.529404513,-341.541933,43.72999095,0,43.65074498,,,,
308.9279998,1206,-57.21180917,80.70157539,-21.47498185,-14.97253644,-2.203279602,-76.16645022,42.69551253,-144.2286549,38.54531341,-6.716838043,236.1667237,20.32116974,-376.206702,-9.563486863,0,71.52416139,,,,
308.9359998,1206,-126.4408915,-131.4125502,20.44507092,7.167172333,-101.8324429,-6.610594146,39.29774825,-134.9284715,34.07036818,27.19041692,-37.09971232,45.31084942,-360.0586479,28.94457145,0,20.18899038,,,,
308.9439998,1206,-45.23221722,-76.67136839,4.531005022,-0.336880543,36.97115254,-50.1076475,51.34654146,-131.7407257,75.48820124,33.70743555,71.92943787,-37.41261004,-336.1807098,36.28966136,0,73.61854638,,,,
308.9519998,1206,-115.1763799,15.71049938,1.489750095,0.331845601,-69.96671538,-77.7441331,24.41444303,-157.1274818,44.49311259,10.5445954,200.5065078,72.44703317,-361.1487759,13.66620897,0,23.79417412,,,,
308.9599998,1206,-124.6536507,-194.3736346,3.125998186,9.03070618,-35.61568171,18.18532078,38.74577128,-112.9738994,49.52158057,34.95784461,-104.7017597,-16.42071642,-343.9212213,45.23665188,0,50.26175498,,,,
308.9679998,1206,-50.61582569,69.33523326,-17.43210631,-13.5497638,11.33126134,-78.7747746,27.26417452,-144.7731194,47.04186266,-18.73118701,227.7509354,12.45220257,-378.6611301,-7.673830153,0,73.5975477,,,,
308.9759998,1206,-145.8380412,-133.4694892,27.80873651,13.49043268,-90.674037,-6.015692601,20.97422151,-136.4360834,47.29034976,34.61809871,-37.96423428,38.78746824,-338.5620372,41.52846864,0,17.33231644,,,,
308.9839998,1206,-66.80171093,-73.14203936,6.179637304,5.378358137,33.37326923,-31.2530445,36.87278903,-127.5228168,53.59246041,25.23798211,78.37284166,-36.62461422,-335.0495329,31.45012154,0,82.97085186,,,,
308.9919998,1207,-107.4594867,7.769854656,7.619545757,8.860199027,-70.05700265,-59.88544347,28.36863334,-147.7222485,45.03781672,2.7717755,196.3426256,67.57698958,-369.8845639,13.24923485,0,31.40818493,,,,
308.9999998,1207,-137.906336,-200.2516463,-0.875775407,20.88290933,-40.72792184,41.06239982,41.00179353,-97.66804201,56.77105324,26.13367587,-106.8356286,-26.07148333,-347.1645404,40.11985882,0,58.40287239,,,,
309.0079998,1207,-65.47805666,51.26259729,-1.649901883,-4.988310609,6.355365017,-65.64933424,35.05668911,-146.0745364,39.33176148,-23.2416491,236.5345214,0.705781963,-379.1918404,-9.831813061,0,81.31284527,,,,
309.0159998,1207,-148.2608935,-156.3516783,42.60445675,25.24765005,-86.19613425,-2.809623564,48.81119119,-141.8147889,70.12363399,47.79155715,-16.4053085,22.78576401,-333.5038711,61.12055401,0,5.726542901,,,,
309.0239998,1207,-104.816601,-71.26339693,-28.12280864,7.963128994,12.59679154,0.799441956,47.09038937,-113.698743,49.951913,3.659114922,84.19407534,-48.9304182,-356.1492313,13.94744394,0,82.19701097,,,,
309.0319998,1207,-135.196755,11.65800056,0.712589194,-6.914423305,-88.91489527,-31.56419182,32.98392913,-150.8383216,1.238466353,-33.51520297,171.4222282,52.87826122,-400.0183122,-24.68499212,0,52.1977166,,,,
309.0399998,1207,-132.7295461,-190.6879348,26.07672635,13.34198508,-31.09207971,40.23462609,67.55257397,-115.2273671,65.62994693,41.33452563,-108.9973144,-42.23555658,-340.4275516,52.73421536,0,56.7820822,,,,
