Time:125Hz,Epoch,FP1,FP2,C3,C4,P7,P8,O1,O2,F7,F8,F3,F4,T7,T8,P3,P4,Event Id,,,
574.8319996,2245,25.24923546,-22.28509913,25.86848416,-78.55712038,46.73936404,173.8617833,-60.01606611,-313.0477777,-16.58936062,-3.445839964,-94.5578402,-23.12488116,-251.3867465,14.69129887,0,-69.24633822,1111,,,
574.8399996,2245,65.95669039,143.2163628,17.32926547,-95.39928426,51.90838246,20.37131988,-63.97971557,-370.3924785,0.955279584,-8.018623722,56.48364407,-13.72861754,-248.1557163,4.96846633,0,-141.8246642,,,,
574.8479996,2245,4.238022399,15.07564817,13.46243477,-58.24266946,-2.750784705,172.1803885,-48.51995344,-323.3305102,-5.944761155,8.172411675,-89.58478196,12.17937073,-240.279213,23.48585039,0,-160.5516282,,,,
574.8559996,2245,82.54828196,48.841309,33.40837078,-88.40029586,78.69292508,54.72819002,-50.16532415,-355.0985931,10.93609426,-0.666107772,10.05517718,-24.06221639,-239.50987,14.75963906,0,-81.0782277,,,,
574.8639996,2245,36.506807,125.5982133,25.7603462,-64.75039663,4.916260168,54.59105888,-57.40166152,-368.6604517,7.344799306,10.55738721,11.37589477,37.58405089,-231.0141322,25.7867435,0,-220.0279467,,,,
574.8719996,2245,34.29936432,-21.5312129,17.27552058,-74.36912366,46.87534565,141.6897158,-65.46105732,-326.0688493,-2.912592727,6.131421948,-89.25283822,5.782781988,-235.1379437,20.32430723,0,-110.9219842,,,,
574.8799996,2245,66.22318051,153.107819,10.97313591,-101.0967779,53.63114799,1.518015582,-74.92126123,-372.5540085,-12.1740298,-26.04676701,51.53514885,19.62461005,-250.602175,-14.83347355,0,-153.5104243,,,,
574.8879996,2245,20.41931888,27.72250078,22.09860967,-65.00589889,7.679220048,149.3811632,-45.64098794,-330.5102367,-8.296924742,0.727321853,-85.38876682,50.41703196,-227.2443069,16.35855993,0,-169.091518,,,,
574.8959996,2245,96.16887454,59.47650389,27.94291209,-98.86792012,87.74907988,36.86113868,-47.65318999,-363.2460841,10.76602235,-2.291511312,12.73505399,10.80221878,-220.8883508,9.253040992,0,-82.6658121,,,,
574.9039996,2245,36.5057623,150.4390849,7.81695139,-82.2780445,10.09207166,47.80814237,-58.97173358,-368.1737783,3.782942932,-3.953712045,7.403561977,65.77741765,-218.8301585,8.062395954,0,-203.1616234,,,,
574.9119996,2245,46.97624844,-4.297932359,8.358597428,-85.02407916,43.22070057,144.423042,-55.16322493,-316.638618,0.004551751,-4.85721648,-91.27780994,27.04152767,-227.6768239,9.692995538,0,-85.77509529,,,,
574.9199996,2245,94.42816542,155.3177689,4.549646637,-105.0490079,45.27256996,7.087918587,-61.63585333,-361.0267403,-18.31167429,-29.41284636,48.08663376,26.61657494,-248.6465715,-18.01697374,0,-120.5003567,,,,
574.9279996,2245,18.69331141,44.39044471,-4.799384983,-69.27158197,1.026541274,174.2269899,-49.77080884,-303.3568455,-23.55909596,-7.081729378,-99.52559642,47.47855699,-228.9366035,7.824455899,0,-138.5907574,,,,
574.9359996,2245,74.93534474,61.79779052,-1.498394128,-106.7348137,79.2140602,83.68596017,-58.15834147,-320.7201564,-13.72325509,-28.60837188,-14.69120384,0.757415322,-246.6863195,-17.43937054,0,-41.59793114,,,,
574.9439996,2245,42.84632836,117.6044573,12.53149793,-86.12707981,17.74692153,78.88326653,-55.50300552,-343.9556399,-20.52265682,-23.52028345,-11.83091599,45.03920885,-244.5068605,-14.08008396,0,-160.6486448,,,,
574.9519996,2245,51.96045997,-36.49811617,28.98946716,-75.6899657,61.59318586,163.6046491,-52.75946226,-308.1027425,-5.810414974,2.67289363,-87.13313143,11.0502489,-222.3480741,14.68141811,0,-72.92730514,,,,
574.9599996,2245,90.38318667,119.39032,24.76856583,-94.59740678,47.33835621,16.47992554,-72.33865436,-362.2040412,-13.93162484,-20.43288321,64.02126248,26.63917175,-239.504158,-7.120941271,0,-119.6144386,,,,
574.9679996,2245,31.41945619,-19.72818995,26.38217731,-57.78176826,3.697917012,156.6626288,-57.07688118,-326.6089539,-4.600018353,9.615600149,-76.01219121,56.80312829,-215.3369413,26.36998811,0,-147.1189525,,,,
574.9759996,2246,94.67341478,-8.198772042,21.8937205,-88.05015171,86.16102945,56.79163647,-62.37181172,-353.0757297,24.70340144,3.443685189,25.99104266,17.07044019,-221.1027729,15.1843258,0,-73.90337592,,,,
574.9839996,2246,62.57954907,64.10850578,15.64664121,-72.53842459,9.181807443,51.7577091,-58.15806807,-377.0997176,-0.119702585,-5.719655907,19.77535222,69.6966228,-229.0169198,4.822728421,0,-196.7450477,,,,
574.9919996,2246,59.98687273,-77.52750339,18.51890471,-71.52503032,59.60425718,128.7800975,-42.52499043,-345.4679685,-6.077805601,4.469767759,-83.40393192,34.5262802,-211.624375,17.15621916,0,-107.5474209,,,,
574.9999996,2246,71.26444331,95.05314581,-3.166707731,-95.43652961,57.71621304,-17.70823276,-54.58434253,-394.6739638,-1.211724875,-28.3386163,61.00508409,35.10211877,-228.7968246,-15.2921013,0,-165.586284,,,,
575.0079996,2246,3.672690684,-23.80014785,-8.387823807,-62.28880773,1.905349675,143.9042349,-35.16416079,-339.4204517,-21.53593678,-23.8179373,-96.35176111,43.46789995,-223.4366804,-7.76115684,0,-187.7933535,,,,
575.0159996,2246,82.93410734,3.419063031,-0.948640074,-94.17492413,77.05809174,58.88381046,-37.15731065,-347.5941228,-27.07529977,-35.14044848,-5.905905507,-9.393618401,-245.1188174,-23.204489,0,-92.10479426,,,,
575.0239996,2246,56.88611163,76.52992204,14.81551585,-80.61265543,-1.818696514,38.6179264,-29.39720681,-376.8656122,-15.75536116,-16.88374481,5.545503152,45.16683481,-240.6961029,-6.883126095,0,-208.422228,,,,
575.0319996,2246,65.38684682,-75.97768361,36.71198891,-78.3447098,55.06461794,91.61907125,-0.078378347,-366.6965087,0.350149737,14.03437208,-85.62229171,10.63535558,-195.2705548,25.08839808,0,-132.575853,,,,
575.0399996,2246,87.48113174,108.9697684,7.182511917,-96.59345334,63.3868122,-56.3043082,-20.43217779,-417.4199659,-3.105268061,-18.38514184,63.94681216,16.55891761,-214.6009519,-6.127325239,0,-197.067702,,,,
575.0479996,2246,3.709097386,-6.997387737,-7.746722197,-67.29885905,-3.699689622,118.0279969,-23.46235515,-352.2496036,-11.79034199,-22.29045163,-96.79250533,38.82084683,-227.049678,-4.19449229,0,-207.9746947,,,,
575.0559996,2246,72.52607039,-10.80341022,8.593988044,-101.3426068,73.86222465,25.5905732,-21.02236673,-371.4644695,-9.530188746,-34.20803822,-10.05563066,-12.35481169,-227.4915097,-16.60542067,0,-111.5328474,,,,
575.0639996,2246,30.27039715,51.38539377,-1.53336707,-79.22362435,-4.460467027,21.59386025,-27.86675054,-390.9157372,-24.47954395,-28.46986761,5.518618979,39.39584923,-223.1027811,-13.2328733,0,-233.2536223,,,,
575.0719996,2246,20.72717893,-107.8462217,-3.130846522,-77.24715992,26.15555326,122.46001,-26.55238939,-344.5788877,-30.25896961,-16.24153194,-97.44714173,2.340745505,-220.2410264,-2.464893494,0,-136.1193289,,,,
575.0799996,2246,59.65797756,46.86789182,2.925270939,-99.68959861,35.16532851,-22.73787993,-28.54648317,-394.8883406,-28.73546978,-42.39491092,45.90419231,3.723717507,-243.5831905,-26.23874351,0,-184.2415164,,,,
575.0879996,2246,-0.834629507,-93.88344867,17.54483825,-68.08422255,-11.15042175,112.4788737,-7.499105358,-365.3088263,-39.19169887,-27.9085881,-98.75006632,36.21714816,-230.6891805,-7.482090232,0,-211.4888981,,,,
575.0959996,2246,52.84111285,-94.51154359,20.9787173,-93.80328709,76.92195147,-4.590071298,-10.03170375,-403.8113198,-19.81029078,-15.77529278,1.215943527,-0.486214718,-210.674114,0.368150133,0,-152.0497134,,,,
575.1039996,2246,-26.04465475,-14.79913503,-8.112346685,-71.73823806,-2.616834095,1.836834621,-19.83109849,-409.3265726,-35.02857437,-27.64120584,-4.84130775,49.39092268,-220.3351553,-2.902293466,0,-283.1369326,,,,
575.1119996,2246,-52.30488353,-170.9806725,-4.045456458,-81.7265755,25.0659292,110.6036466,-8.167217893,-356.2814312,-81.70037201,-52.94022172,-142.801333,1.136775663,-238.3494024,-17.84076205,0,-160.7115882,,,,
575.1199996,2246,-19.09628589,-5.542844283,6.006763177,-105.4419658,39.4878499,-50.28850213,-10.60173402,-415.8959397,-79.66998843,-61.76421586,6.494551014,-6.354221832,-236.6864866,-26.55514777,0,-219.1639129,,,,
575.1279996,2246,-88.70254785,-129.7280937,4.958742365,-74.27528172,-17.64580096,89.64393894,-2.425617823,-381.4901114,-80.05310717,-45.48123494,-142.4171632,16.35125567,-219.0877443,-4.703632995,0,-261.4690373,,,,
575.1359996,2246,-33.45994698,-132.6658542,15.35162653,-100.3606079,63.46004456,-17.27687729,0.442314991,-415.7824277,-82.50886277,-50.97193282,-61.0268923,-31.6691276,-216.081446,-15.81404192,0,-191.8424121,,,,
575.1439996,2246,-85.57466563,-51.89363899,10.37288735,-62.71425411,-2.364742253,-24.60020217,-2.619558045,-433.2447049,-89.75971671,-38.94526727,-40.13396556,27.83782286,-218.2156528,-7.083299532,0,-329.8397104,,,,
575.1519996,2246,-76.55081422,-199.8909386,0.846003611,-59.83008364,18.25211212,82.80146277,-6.949473893,-383.6804403,-84.04491606,-44.19452641,-151.4476374,3.594267523,-226.5003763,-8.941252925,0,-216.8570658,,,,
575.1599996,2246,-35.69194451,-24.90664017,-14.16491174,-79.70607022,21.65388924,-64.50365899,-15.97139107,-431.1667884,-76.90670882,-62.26834765,-7.024434062,3.213823363,-228.2094175,-29.26356879,0,-266.1323277,,,,
575.1679996,2246,-102.2916538,-130.4130538,-2.362771533,-42.92740984,-29.92312229,95.43592464,-5.508756779,-378.8921294,-104.4119779,-55.68847821,-151.677298,26.90961986,-224.7308655,-21.35701052,0,-283.2168745,,,,
575.1759996,2246,-0.170107801,-112.6107563,22.79773634,-70.70625059,50.38227504,-2.245468929,-6.610783995,-406.3302469,-71.86121032,-48.72725788,-44.23390052,-14.38689932,-222.6999741,-23.95285383,0,-190.8997655,,,,
575.1839996,2246,-23.37497961,-18.08433217,10.51189527,-38.07595903,-11.86593036,-13.4660586,-0.493738183,-423.8624216,-49.12015181,-16.7363495,-11.19035589,43.45627514,-210.82371,2.275664922,0,-325.1879379,,,,
575.1919996,2246,-31.44603941,-169.3587812,10.29050974,-37.37464632,27.11726689,98.28450225,3.2723934,-372.0861551,-57.79864063,-22.37322397,-126.2697062,11.88887361,-218.8706745,0.404657531,0,-205.7336703,,,,
575.1999996,2246,20.36471528,-7.667886362,22.66249214,-60.53675444,37.68143891,-67.50608794,-9.458654768,-440.2375591,-40.21269046,-37.87833366,27.87046225,15.05426376,-216.7367182,-16.3240539,0,-259.5912869,,,,
575.2079996,2246,-34.12501492,-111.4200575,36.62414463,-12.66555894,-21.39149179,70.00052952,9.57827873,-409.5427975,-39.98584483,-9.521368148,-103.68052,53.92406982,-186.6524377,16.59344656,0,-310.1135088,,,,
575.2159996,2246,36.55368876,-79.26136849,29.24835606,-36.65990012,51.03604538,-5.534488093,6.147244704,-420.6133318,-23.39505167,-20.20773817,-5.76701587,23.35022708,-188.9888679,5.897146546,0,-219.928438,,,,
575.2239996,2246,-6.000814167,21.55662607,7.16368815,-23.3472596,-25.89010507,4.688710608,-10.41074112,-425.5004914,-33.35194559,-26.91994789,-0.804115967,76.21586313,-212.7663543,-5.877288235,0,-332.1231156,,,,
575.2319996,2247,0.529142589,-124.5821797,29.66929779,-24.78176581,6.277815341,108.3312187,-3.425545518,-385.6549482,-36.49185186,-20.83852962,-118.8502471,39.2755263,-222.0968286,-3.669068057,0,-218.0533991,,,,
575.2399996,2247,48.36611482,56.5644439,30.6296132,-38.38249983,24.83572156,-43.34296912,1.254950484,-440.7130928,-15.52432867,-22.94718776,55.89488071,44.29602399,-210.6440357,-7.00953896,0,-266.8192222,,,,
575.2479996,2247,-23.22952286,-41.72991611,28.78409584,3.349192191,-26.3995605,118.6120564,18.7998644,-387.8989688,-39.13301015,-5.07444645,-83.00365664,71.24514191,-196.060366,14.8747968,0,-289.3170226,,,,
575.2559996,2247,51.93886552,-24.06633933,39.54161606,-27.18877405,51.38238765,33.66016754,16.144196,-403.5526538,-27.95906263,-13.59640592,1.591233359,23.27741487,-205.2843969,4.40444094,0,-190.4037741,,,,
575.2639996,2247,1.713866823,67.26687645,17.3357567,-12.74602157,-26.49679166,39.49127831,12.52170891,-406.269312,-21.3631998,-15.44455328,14.34934884,71.07770547,-208.5383399,3.527252833,0,-313.1479605,,,,
575.2719996,2247,-7.330965215,-92.5900487,19.9120299,-22.40049958,2.654536236,156.8025789,17.37659947,-353.1641778,-35.02848216,-22.73998292,-112.7409916,26.83404328,-207.8606751,-2.880341922,0,-193.6525195,,,,
575.2799996,2247,58.09124647,66.25691602,29.71153273,-45.35386581,16.2715519,-6.479348794,9.938890973,-418.5691079,-20.03791699,-31.5487429,44.43469456,28.8507819,-206.2045809,-14.31923015,0,-238.815498,,,,
575.2879996,2247,-9.431848969,-50.82166522,39.05950909,-0.472166434,-39.21793955,139.5649155,31.66586258,-383.8894803,-21.32876482,3.589396874,-87.51798322,71.25815521,-188.7702206,21.94527698,0,-281.4416758,,,,
575.2959996,2247,55.39232679,-38.41437824,44.14887452,-30.38428794,48.73780687,45.98311323,38.52015893,-408.9051744,-16.5080725,2.306629491,12.87311698,36.49264816,-195.9373125,12.21235618,0,-192.0895958,,,,
575.3039996,2247,24.64750878,58.76863948,31.77832764,-8.006902057,-21.15392073,25.99136268,36.9506667,-429.4228402,-3.306689934,10.03607879,33.46747192,93.54328669,-189.0461778,21.4339075,0,-328.8891026,,,,
575.3119996,2247,10.03303576,-85.39191545,36.49041447,-4.549705123,6.332992907,141.6389148,37.0585194,-378.3654997,-11.81363365,8.221527773,-97.97519298,63.29341049,-185.5333182,24.92648129,0,-219.897049,,,,
575.3199996,2247,53.81275901,96.90372022,35.81562616,-31.95610592,28.83326265,-3.671208702,25.90007464,-427.0741506,-27.41962952,-15.68865716,61.18420974,65.90584969,-206.67858,-7.103613154,0,-247.2975223,,,,
575.3279996,2247,-9.058723462,-16.81177826,38.65168829,4.468814669,-27.7115898,147.8047818,42.08945152,-383.6372843,-18.88358552,15.23676751,-70.92340017,93.65217843,-184.9594063,26.9956894,0,-278.3956659,,,,
575.3359996,2247,53.78959378,-14.01776172,33.59472712,-33.29822399,39.76951431,62.99384126,33.55102408,-403.3763228,-2.413413322,1.721748145,4.526169614,43.33762359,-181.5326514,13.13070302,0,-180.1196247,,,,
575.3439996,2247,26.52916799,79.54984533,22.39991073,-17.9477683,-29.43852419,52.5840303,33.81474418,-420.8691401,-5.909553457,-0.83106989,28.14910616,87.51565181,-181.694397,9.708095501,0,-310.4089138,,,,
575.3519996,2247,24.56086196,-86.84624696,40.12311641,-14.17674523,12.85047883,164.3719053,45.36954248,-375.4815005,-11.407128,7.659606306,-81.51165304,46.29131825,-178.8840378,22.38570376,0,-208.7054592,,,,
575.3599996,2247,57.87168121,74.04420553,29.30136572,-41.70757364,28.24869079,-2.436536484,26.90439631,-439.5427218,-15.48360964,-9.886315329,66.80974836,45.15702556,-191.3531091,-0.982222884,0,-259.6568884,,,,
575.3679996,2247,-6.8334603,-35.77753842,25.47563492,-6.083653683,-36.03996913,140.4884834,39.75633859,-401.0627677,-15.87448425,17.89280138,-78.06007987,75.077977,-171.8222673,31.0772709,0,-312.7789872,,,,
575.3759996,2247,76.77593112,-30.619522,44.4021469,-45.19159325,42.54687998,51.97489959,43.16158884,-419.9640188,-0.631853505,1.675713079,5.037440236,25.50052853,-179.8479784,17.04305079,0,-215.2790256,,,,
575.3839996,2247,42.98624398,66.52873644,25.35454459,-34.96825577,-26.17991197,27.54811039,48.9019632,-444.8615985,7.524558119,1.202065653,30.9863897,74.6397969,-171.6468501,11.1592278,0,-347.7737833,,,,
575.3919996,2247,16.52033338,-88.71008592,15.29220814,-40.37841612,-2.09245196,143.7759246,50.62843631,-394.4526733,-17.81853397,1.899204073,-86.01043658,37.69143663,-162.8814591,13.40498937,0,-243.1333862,,,,
575.3999996,2247,42.75641376,79.28688016,7.432856484,-78.41801902,8.223155269,-13.50452871,26.56570813,-444.8364142,-35.04492005,-34.2578968,65.7605914,29.33875226,-190.1593705,-22.0128918,0,-281.2308336,,,,
575.4079996,2247,-30.91767409,-29.17867616,2.282154758,-42.18207024,-44.99677867,144.1735949,43.16293152,-392.6426312,-27.06490279,-13.94131813,-86.36075865,54.48406813,-181.0598833,0.565629001,0,-319.6809609,,,,
575.4159996,2247,52.92602087,-36.15111216,16.279735,-71.44723106,34.59748352,64.01979335,42.1296968,-407.8140242,-26.04707281,-18.25702492,-13.90403656,12.28488044,-187.6493532,-6.279632762,0,-202.3524367,,,,
575.4239996,2247,35.1416796,44.9828569,15.8529496,-50.04058411,-36.65439499,27.18356102,43.56057977,-443.8162923,-22.0123083,-5.393268268,21.7632422,72.11428964,-181.5076262,5.729620744,0,-336.3272565,,,,
575.4319996,2247,19.46440184,-106.7839416,22.88117128,-38.7177631,2.832471459,130.9220582,59.84473157,-403.7952473,-14.77242072,16.51226002,-83.31298764,46.88457478,-163.1200352,31.74193653,0,-255.2987528,,,,
575.4399996,2247,64.08244338,71.32220837,20.79773073,-65.639583,23.79151279,-35.19199055,45.4376048,-460.1907478,-23.84658519,-8.982397057,79.12696671,53.38417721,-176.5375148,5.969109204,0,-298.5312204,,,,
575.4479996,2247,4.111325792,-41.42218901,19.43490965,-31.77519442,-38.63434265,121.2735312,55.28460965,-411.879086,-24.69643505,0.556975415,-68.17815099,86.93298726,-170.8020758,16.9559958,0,-331.3079973,,,,
575.4559996,2247,78.24415627,-44.63203758,34.41288601,-67.47403316,42.96979034,25.45971064,53.37037839,-437.1115572,-3.431643148,9.279499677,17.31466193,40.65847137,-170.4094102,18.57974053,0,-234.0984036,,,,
575.4639996,2247,32.52273078,49.87257463,14.35788407,-54.67634297,-33.67747601,-8.683851339,34.25965839,-463.3118685,-9.270028302,8.572541659,54.683879,94.87350379,-169.4239503,12.58568503,0,-377.1112925,,,,
575.4719996,2247,10.6110385,-114.6888624,5.132706949,-56.00817831,-11.41437457,127.8852589,36.37713192,-402.4591273,-21.84170898,-12.69382098,-90.6899805,59.88379383,-175.3977055,-7.298899277,0,-259.3370489,,,,
575.4799996,2247,64.87166009,52.39569606,16.18144617,-82.21369076,13.48439373,-45.09153585,48.54829931,-467.5805975,-8.842014008,-15.93870792,65.39470017,55.75680136,-172.9765417,-12.96104214,0,-297.5123547,,,,
575.4879996,2248,-12.88487217,-50.88723082,10.14843947,-37.03771625,-55.64614706,107.6397676,55.56570787,-418.7005317,-26.01702925,9.816954534,-63.1688488,90.50100901,-154.6040005,17.04604011,0,-347.0876316,,,,
575.4959996,2248,59.4616531,-46.87196638,18.38935897,-72.6225911,23.57185766,33.6578605,45.21806686,-430.7833085,-35.59182173,-14.22430209,2.135884097,40.87349399,-178.6900848,-10.27152304,0,-222.1895701,,,,
575.5039996,2248,36.5461557,65.24094589,18.42709895,-53.1915263,-27.34465034,-5.294913493,64.05207246,-461.3216776,-21.18585104,2.473414236,36.2985742,94.3683588,-170.1090912,4.339707672,0,-360.3396833,,,,
575.5119996,2248,12.41399125,-90.3558128,14.05886165,-43.15238081,-3.152845425,121.6268579,70.40564054,-402.664148,-23.22731369,8.429446161,-91.57421732,66.6094226,-162.046655,17.99085321,0,-260.7909968,,,,
575.5199996,2248,43.61689997,75.417038,7.051207715,-76.35786492,8.123055249,-46.86169991,46.19246808,-462.6193443,-14.52861055,-16.74112966,61.43241032,53.44624924,-176.7935006,-11.0649788,0,-294.3819854,,,,
575.5279996,2248,-38.5071752,-22.93268343,-8.403864597,-41.60847229,-54.57243906,119.3736666,53.39791354,-406.4297176,-33.92690856,-3.247461724,-77.28310027,80.55780466,-164.4858638,-0.638684145,0,-339.0178894,,,,
575.5359996,2248,47.91666503,-31.75329285,12.48599257,-77.39263169,29.17800778,49.67339455,57.56801577,-416.4334689,-46.85728048,-19.47131328,-10.11551641,35.34533561,-175.7056055,-14.69171748,0,-205.3752114,,,,
575.5439996,2248,36.25879275,61.14158985,34.67951565,-52.93119149,-18.29999431,-20.6472071,79.60020956,-469.0815509,-13.8082189,12.41021532,43.72961824,91.03652778,-150.1599131,18.26510396,0,-339.5894566,,,,
575.5519996,2248,15.80257232,-100.5457562,23.50059762,-37.84678555,15.07023161,92.38146687,86.68089217,-421.1565068,-10.97165098,31.06288464,-70.10393674,70.35999652,-133.5856366,35.3285609,0,-254.7671487,,,,
575.5599996,2248,66.00570736,69.61088837,8.113473486,-67.47134049,23.68404663,-63.47907829,51.9807857,-470.8279989,-24.28005243,-5.920676553,75.11408988,65.45200152,-166.0098062,-5.307174331,0,-287.2530655,,,,
575.5679996,2248,5.703285545,-30.78447384,25.19332575,-23.2200813,-35.67416802,81.02010841,68.72215542,-434.5358493,-23.99325323,17.64497212,-61.90543068,98.62730235,-161.0834437,22.3544846,0,-330.8221195,,,,
575.5759996,2248,55.00814754,-49.07736536,27.97108629,-57.93466357,49.45918116,8.925621098,74.15452163,-450.4319972,-24.17308591,10.42625276,13.22867827,58.22073804,-159.253632,17.02060512,0,-220.856632,,,,
575.5839996,2248,18.49141386,40.23249829,10.12148175,-52.03708124,-20.20047811,-29.49959925,61.42798769,-479.9073789,-41.95333064,5.890182256,48.61377485,104.6714988,-153.3674445,11.15740469,0,-358.8434261,,,,
575.5919996,2248,24.48841615,-123.4767626,25.28538446,-42.88999388,9.217379972,91.33396343,72.76806966,-429.826716,-40.50344174,17.43666847,-77.11491448,76.66392492,-146.9852294,22.98886769,0,-260.770476,,,,
575.5999996,2248,57.44193409,48.45724345,5.671168098,-72.48062212,27.47610379,-59.9874693,59.55856676,-475.3310715,-25.84779802,-9.693335699,76.79544036,77.30634777,-164.0144676,-5.448886105,0,-285.1744247,,,,
575.6079996,2248,-19.91848453,-48.93567103,-5.378568495,-42.51287185,-44.08881544,95.25823868,62.06133813,-426.417545,-50.32296976,-5.93538817,-72.02693014,104.5354961,-166.0613061,-0.806994625,0,-317.0149236,,,,
575.6159996,2248,63.29849397,-53.25902262,21.78998507,-72.5717552,43.58627288,20.28173012,69.28878671,-438.7333711,-39.93855696,-6.10114093,-5.474234406,54.91472396,-168.865977,-3.153081489,0,-202.8711536,,,,
575.6239996,2248,31.89851128,51.95795636,16.13302615,-49.85443865,-14.39216998,-25.4973343,74.16408069,-468.7566084,-21.09401669,11.89117303,48.12265709,109.4777853,-157.7650698,15.78320616,0,-344.8878904,,,,
575.6319996,2248,31.10906199,-119.8545942,33.34875524,-38.15272486,10.82951744,88.3399431,86.553854,-426.6614466,-28.3022491,24.20596115,-71.86361957,90.60634804,-147.7005979,29.75038661,0,-247.9472001,,,,
575.6399996,2248,80.71987887,48.32272613,39.79337068,-61.95578409,33.074969,-84.44014016,74.84327253,-487.3849523,-10.52403007,11.64500969,90.85053805,95.67617969,-153.3445017,15.69238788,0,-287.963181,,,,
575.6479996,2248,-15.95543411,-46.13282327,8.564282769,-25.4100884,-41.26739362,69.25270486,69.17742783,-431.4338201,-26.5021976,18.11929966,-50.51057446,129.7326434,-150.0177671,26.21776586,0,-338.5180711,,,,
575.6559996,2248,52.49925427,-75.2755097,5.072665907,-63.61297392,32.36848562,15.91324224,52.88047495,-428.2093214,-47.10111675,-9.340085709,-9.478421703,78.91023795,-168.2106657,-1.034370984,0,-208.9167878,,,,
575.6639996,2248,29.4228877,6.680390467,8.431337269,-51.77055357,-25.07961152,-26.30053922,47.1230854,-460.9270242,-39.77544695,-3.134982814,28.5810191,121.8033412,-162.9450122,7.331185645,0,-337.6615809,,,,
575.6719996,2248,14.02555948,-165.1321602,20.31299371,-43.35291538,4.690775518,94.84695882,65.63547182,-411.455749,-42.71354465,7.858854948,-93.75980567,91.85972446,-148.0368922,21.15399554,0,-243.3568272,,,,
575.6799996,2248,72.01035691,-5.304345158,26.04415419,-73.42933274,26.46659825,-74.85228856,63.72668527,-469.3752872,-32.14538445,-5.792225956,59.51656406,96.0689306,-161.0618867,6.758794425,0,-273.335929,,,,
575.6879996,2248,-9.243010267,-110.7155252,10.83407717,-43.51133881,-42.00519257,61.43721379,70.34052165,-433.7079919,-28.81524248,16.33277495,-72.43359716,132.0015075,-144.9570454,30.26012159,0,-335.7525196,,,,
575.6959996,2248,49.26440143,-120.8851648,3.119593402,-84.68882247,29.93486041,5.696640797,63.78461971,-438.5608617,-43.34146223,-9.648582516,-8.791431224,81.02082377,-154.1526638,-1.802232574,0,-223.2116189,,,,
575.7039996,2248,31.1453185,-13.65078789,6.555789203,-76.35407293,-38.8308088,-39.74739888,53.80602482,-472.6428126,-42.35684287,-11.83791029,34.57574697,125.7431017,-160.42299,-5.44217581,0,-350.8208051,,,,
575.7119996,2248,24.45794224,-183.1491378,29.01256058,-58.68630102,0.221350589,60.236931,68.07496,-435.9358666,-21.36893454,20.13772753,-88.21302796,92.32121397,-136.6064121,31.16093507,0,-274.7610448,,,,
575.7199996,2248,65.23352578,-1.080389198,12.77455569,-76.40107905,35.66343508,-96.15514487,66.30782737,-480.3342884,-22.76772483,2.124226365,74.15808705,89.68647381,-150.8487915,14.54754179,0,-307.2074726,,,,
575.7279996,2248,-18.192427,-84.5190747,0.225487404,-41.98524927,-30.44318321,53.25092331,70.42225721,-432.7151983,-40.99507938,6.667508001,-63.90617618,119.7079246,-154.0606813,22.96782952,0,-344.8609242,,,,
575.7359996,2248,45.86488909,-108.1453113,15.56480624,-76.19281888,47.89808646,-20.18837958,67.97038661,-449.5064512,-37.55155312,-0.024885918,-14.27689563,66.17359385,-160.5810318,15.70216103,0,-232.8727131,,,,
575.7439996,2249,1.615550752,10.37061852,-16.69703274,-73.29598308,-34.53926802,-38.95952265,56.6538094,-460.1288078,-66.07198965,-19.88488912,15.15932144,110.8276595,-172.428666,-3.635008478,0,-351.1308343,,,,
575.7519996,2249,-4.813822002,-142.7858552,-4.552556842,-70.72246612,-19.10031645,93.84874721,61.76706519,-402.4930853,-74.58686475,-21.83212276,-125.0703504,74.74287875,-164.4876841,-5.028343641,0,-240.0529657,,,,
575.7599996,2249,64.161512,22.10301474,10.63917477,-89.2827047,17.46446779,-81.77812589,62.85988455,-464.56841,-34.03240106,-20.85745394,45.29937761,73.39013052,-160.1412689,-6.254648304,0,-275.4729542,,,,
575.7679996,2249,-16.21576244,-61.46102396,-0.682314281,-48.69858852,-46.1163867,61.73292039,72.37482505,-418.9848126,-40.05195195,-1.701480764,-72.0822424,113.1133001,-150.7681024,16.16438642,0,-328.8931317,,,,
575.7759996,2249,36.42795691,-66.86782575,7.020149783,-81.30981296,32.51772073,11.35374026,57.10333552,-420.0185258,-62.45270853,-16.1550803,-8.274266267,68.1266651,-166.7713881,-3.86155834,0,-204.2772774,,,,
575.7839996,2249,4.468595355,41.31554212,-15.15198479,-75.48031663,-32.62417418,-14.02667533,51.90456579,-435.8852121,-75.14513361,-27.8955474,28.24313984,112.2790033,-170.7389383,-18.60474739,0,-321.2116571,,,,
575.7919996,2249,13.51217045,-140.5685818,1.405055959,-65.4562693,-11.23167895,101.7064018,77.80570586,-390.3864485,-62.50796256,-8.762451548,-113.5802703,77.73878962,-150.8530438,3.575538011,0,-220.597841,,,,
575.7999996,2249,80.70384279,8.033834795,15.66860522,-79.95582911,6.18279593,-78.49541804,56.44543577,-461.3905312,-36.56517369,3.854982573,56.8338773,80.79154154,-150.2465226,9.873881153,0,-253.6270684,,,,
575.8079996,2249,17.43386766,-90.1862399,13.12644299,-35.65622943,-59.15316643,41.28374303,50.99975832,-438.6439977,-28.81316363,32.32332716,-56.53996989,118.2581569,-129.64447,40.47923475,0,-323.3495171,,,,
575.8159996,2249,71.41587421,-110.4760527,9.156821627,-65.61519743,28.3329428,-25.21116208,49.66064253,-447.9765862,-25.45032647,18.83120842,0.049072604,71.21255244,-125.7163949,27.41700652,0,-220.7912543,,,,
575.8239996,2249,11.8568044,-9.04501109,-15.28967186,-64.80192324,-48.52569339,-43.20726656,42.16291136,-456.0314417,-67.00079244,-18.41975359,24.8603333,116.1072274,-154.1854821,-13.23691598,0,-327.5660984,,,,
575.8319996,2249,18.14277673,-198.5522356,18.661853,-55.53988873,-15.65417251,65.44724991,78.94207072,-417.2194678,-69.37130922,-4.850955578,-99.8117383,77.99957275,-150.9060615,6.364235786,0,-227.6640911,,,,
575.8399996,2249,80.3365921,-26.630122,16.67695986,-68.37741623,29.82798278,-114.9442604,81.73744149,-480.440112,-33.17834103,11.28030306,78.91269831,78.04544188,-136.3927681,22.42086107,0,-272.3518744,,,,
575.8479996,2249,-10.52415086,-87.75493514,-0.246290076,-39.23491203,-51.76381344,36.99094506,75.94921778,-428.0524139,-62.38860299,7.609250105,-68.09201381,117.9762584,-142.0343018,16.12632758,0,-314.4901513,,,,
575.8559996,2249,68.19035589,-116.4853168,28.43831782,-79.62998472,26.34822998,-40.60187429,80.4895444,-451.0522853,-63.80118227,-3.284762557,-15.0439791,69.96546481,-146.5587635,4.311928242,0,-198.7439893,,,,
575.8639996,2249,48.10743611,-4.851040277,15.14492947,-57.94793934,-28.77505793,-94.81789152,79.97093484,-486.0061742,-49.26612469,6.503104367,41.87951355,126.4440375,-137.0774837,17.04541661,0,-338.5251496,,,,
575.8719996,2249,29.66826293,-155.2694242,11.28391559,-43.80766301,-8.219729108,30.93492445,88.230403,-426.6310588,-50.90263534,14.41042641,-103.3669714,101.2909937,-134.3616727,27.45456765,0,-239.9092299,,,,
575.8799996,2249,70.31677833,0.947662999,3.911638714,-78.97595156,21.06702851,-144.169251,76.20532885,-482.4277529,-49.2322273,-3.329216618,41.09935295,81.20869571,-134.8907376,8.143006732,0,-266.6872923,,,,
575.8879996,2249,-16.95592952,-85.9137064,-3.720427189,-45.44470434,-49.42840273,1.609699983,79.19464563,-433.1173585,-80.66476078,1.888210096,-88.48796011,106.7218123,-132.6267104,17.39149893,0,-317.5076712,,,,
575.8959996,2249,57.54163827,-98.68099131,9.509194954,-77.8615069,29.68070508,-57.16199417,77.48476403,-436.3086462,-72.58069603,-0.603007496,-31.62833066,63.18727003,-144.3481378,13.56618676,0,-200.196094,,,,
575.9039996,2249,30.19420549,10.9217037,0.843772332,-70.83297823,-31.98895153,-108.1998404,72.62759358,-469.6340989,-62.42004713,-5.666185755,10.24339741,111.8164809,-146.9756023,8.803442526,0,-332.5296129,,,,
575.9119996,2249,18.38444279,-173.1842986,14.11815891,-54.83715572,-10.27108982,15.25975623,84.65774162,-421.2963778,-70.44459581,5.765394537,-115.3247788,85.20642995,-138.2192665,23.03680012,0,-238.4797659,,,,
575.9199996,2249,76.00199771,-35.15663666,5.537208454,-77.98441881,17.40428356,-160.6593751,70.07847193,-483.2810643,-50.2183124,5.582693938,46.4445918,84.49936734,-134.9153403,19.84601481,0,-271.8567136,,,,
575.9279996,2249,-22.56561981,-134.4827854,-15.97638101,-48.82887919,-64.52365716,-8.240225535,66.51874935,-432.7155789,-69.93236811,3.634757536,-102.0396937,124.5572512,-137.5273049,19.01692898,0,-324.9924031,,,,
575.9359996,2249,43.5245054,-168.2302023,3.20267073,-84.28312861,16.43551898,-56.99463053,65.86854506,-428.9749162,-77.54106705,-14.67072196,-56.1911546,77.94226634,-147.671984,-2.692702076,0,-197.8612479,,,,
575.9439996,2249,29.40842849,-57.67084543,7.127489591,-70.12830797,-33.79870593,-109.5759524,63.35456784,-459.4799251,-69.07736828,-7.759383501,-3.880207153,128.8499428,-133.5959767,4.635977071,0,-328.9655506,,,,
575.9519996,2249,4.933254177,-216.9398791,10.90274417,-58.00125611,-20.82089523,27.20917838,66.25737249,-403.7773994,-76.16093,1.760155801,-138.4583223,108.2139749,-128.5492362,15.69581644,0,-229.4788801,,,,
575.9599996,2249,59.46507232,-53.79306561,16.57011594,-85.61392763,2.22435881,-143.2481923,60.18859328,-467.4497033,-58.73975208,-10.22635197,19.2985588,101.0006812,-146.9834682,-4.601872784,0,-247.7446286,,,,
575.9679996,2249,-26.27652298,-134.3726902,13.75568371,-39.28632607,-70.14550805,1.210529903,73.80809221,-427.1973215,-59.87788649,6.087679423,-108.9067131,136.8680771,-138.1540415,13.43376376,0,-311.4626713,,,,
575.9759996,2249,26.15739006,-155.3849978,22.22956642,-61.03256545,7.912344904,-42.38966727,72.31350607,-424.7380378,-68.89640293,-10.86355072,-63.16823365,79.63022687,-146.6691225,-1.916761977,0,-188.7321685,,,,
575.9839996,2249,14.28237913,-50.22913893,34.87028657,-39.72392746,-44.88501497,-101.0405874,77.49640531,-463.8501976,-60.62607881,-4.575648398,-7.194597273,116.8635617,-142.9460434,1.080161008,0,-317.0220484,,,,
575.9919996,2249,0.532055133,-222.7616409,49.02015347,-11.34377542,-21.67016733,30.50198718,84.52280438,-412.5450647,-45.97421009,25.17774018,-119.4096341,100.1476011,-118.5504773,31.66960757,0,-235.6394015,,,,
575.9999996,2250,51.5987703,-51.31897878,39.82414566,-36.49098977,8.242594837,-128.5920142,70.3522752,-463.3977166,-47.50187598,3.393932234,37.80590123,92.41868259,-135.9581409,9.691163846,0,-256.1782607,,,,
576.0079996,2250,-14.88975834,-129.6282531,40.11874939,-1.93451523,-64.13140595,4.595185725,88.12031357,-431.9436842,-48.11193453,15.37884528,-96.10021976,121.8830726,-128.2620459,23.69552185,0,-314.5312671,,,,
576.0159996,2250,47.27398558,-155.704721,56.13511665,-28.06931063,14.88207819,-59.49134991,83.68774173,-448.1300207,-25.28730128,17.70591367,-38.64989759,74.82298025,-116.9159866,24.99542902,0,-205.6386418,,,,
576.0239996,2250,16.89038061,-30.18909322,44.41472578,-13.55534637,-40.85900578,-111.6507506,76.49229797,-480.9573206,-41.43431223,9.289374581,11.06213884,122.8098392,-119.5106909,17.04456085,0,-336.3891967,,,,
576.0319996,2250,-5.029390737,-195.368998,38.42875443,1.515219885,-26.94611477,27.3877881,87.54021585,-423.18682,-48.53052098,19.99711906,-127.0306275,98.71394331,-108.4160929,27.222333,0,-243.1451981,,,,
576.0399996,2250,48.65696367,-35.68156633,38.12391761,-25.26353884,4.415533486,-135.3034635,78.76963767,-475.9088264,-41.37480431,7.523257644,34.49585131,88.60734349,-124.9153289,12.05001054,0,-261.0576561,,,,
576.0479996,2250,-22.44682279,-122.1986527,43.23904259,18.18477156,-64.60661199,1.533325279,90.2497272,-440.4348102,-51.91519472,24.70416246,-88.8529365,128.0648903,-116.5506665,36.4713578,0,-321.792527,,,,
576.0559996,2250,35.44720645,-166.7512232,46.20789255,-7.109802589,8.615400417,-56.33826828,84.80882499,-449.9822192,-32.04198511,21.50856288,-42.29133826,82.66523312,-105.5662118,31.20994685,0,-210.5452816,,,,
576.0639996,2250,9.256458133,-52.10688577,32.45731366,-1.518282866,-44.25970805,-109.2757322,78.99184692,-483.7222742,-38.6591795,10.44366597,16.24821926,131.4185165,-114.3144974,15.84193635,0,-340.4813982,,,,
576.0719996,2250,-15.09090725,-212.927232,34.42337115,8.485500693,-25.64566298,29.44018588,80.06242791,-430.6694493,-48.37125869,20.08155316,-109.4730746,117.1911568,-107.0918687,27.29896439,0,-246.6069465,,,,
576.0799996,2250,33.67151953,-50.06615139,25.13307794,-24.27213473,3.325173329,-133.521865,64.29011351,-479.7466574,-45.01130665,-3.712235007,38.4533817,111.5297824,-122.9727466,0.502390388,0,-256.5333994,,,,
576.0879996,2250,-33.57069432,-130.7280293,29.0110104,8.228075315,-60.39763706,-5.414492015,81.01958068,-445.146022,-51.43232273,12.05180696,-90.19208698,145.5677665,-113.9702939,19.91246973,0,-315.3717765,,,,
576.0959996,2250,21.02496097,-160.3080369,34.44183445,-17.13238502,18.94497305,-65.17098548,74.85977458,-457.8550337,-30.5554866,27.46199337,-23.45236797,96.82668343,-97.70657591,32.09714998,0,-210.1705881,,,,
576.1039996,2250,-15.48677207,-25.35984472,3.132172969,-11.15356588,-45.31081184,-98.60208263,64.11407924,-474.7648623,-49.5775129,1.112987646,26.11707866,135.745303,-121.5659883,4.102809956,0,-329.0505451,,,,
576.1119996,2250,-23.6630371,-173.4784048,12.86641097,-7.151339816,-33.32427286,50.22451648,71.15973889,-409.5825491,-66.16611278,-10.85335444,-126.5690173,101.5979321,-133.1994173,-1.479760674,0,-218.7192792,,,,
576.1199996,2250,42.2133984,1.489586687,20.05740429,-32.15234107,6.068549918,-124.1596144,58.80692092,-467.4600541,-39.84024664,-7.400037747,38.29489012,92.35314834,-126.5951944,-0.191801831,0,-240.033064,,,,
576.1279996,2250,-42.11591785,-73.8768774,15.27929001,7.036913966,-57.73908026,7.365732854,73.61227862,-432.872484,-48.76215424,11.91459769,-85.23911325,133.638326,-109.2316325,22.26577157,0,-306.8550606,,,,
576.1359996,2250,18.1105059,-119.6755788,20.1572344,-23.65155109,12.33412651,-44.04566952,69.52214277,-438.5215041,-53.12969231,4.311759319,-39.93786018,83.87094209,-108.4556012,11.75444964,0,-194.6896859,,,,
576.1439996,2250,8.315894786,-8.449552336,7.194945536,-13.93428192,-43.93186051,-94.46469983,61.98638699,-466.6028856,-42.27419036,-2.837175074,12.95956088,127.4052086,-107.8344267,2.65410054,0,-328.7083702,,,,
576.1519996,2250,-12.54526915,-186.8055223,25.86669911,0.415827013,-21.09953647,38.50207707,77.76763917,-415.7565033,-44.73454293,6.383186405,-121.6895915,103.3240911,-91.25961324,17.91603833,0,-235.6983194,,,,
576.1599996,2250,35.2961549,-31.65683317,17.56355515,-25.42041948,5.676496361,-134.7579618,69.76202132,-472.935572,-51.288813,-1.132891715,47.44335811,96.1925808,-101.5743482,8.093839184,0,-255.3156109,,,,
576.1679996,2250,-37.59061725,-100.9478496,7.014127606,6.249916742,-65.03636501,0.073743861,85.62688919,-435.0675084,-49.97766433,8.220250294,-89.79614022,135.6899972,-103.2177841,22.2090276,0,-319.127939,,,,
576.1759996,2250,22.4240632,-132.3418639,22.30427866,-25.86887703,15.55222618,-54.5000166,84.57746342,-443.4192335,-34.25078072,1.580738784,-44.63048415,83.17250678,-92.83673012,15.70543038,0,-205.0376599,,,,
576.1839996,2250,-3.366784219,-6.581562122,2.703847908,-16.71322203,-41.43542323,-112.4803269,71.93330227,-475.7938907,-46.86569323,-3.142112461,17.1101172,125.616412,-95.72757753,7.034198428,0,-340.1767899,,,,
576.1919996,2250,-25.26175916,-179.4600991,4.889060716,-5.461891974,-20.59688474,29.20680597,86.26998804,-416.105428,-60.31751046,4.264246258,-129.3406222,105.2457434,-92.50548066,17.98218984,0,-250.7144341,,,,
576.1999996,2250,37.65342062,-26.30970031,5.179463873,-31.6749375,18.12628944,-142.7392885,78.47319127,-467.0906836,-50.85465796,-5.045435373,34.96402458,97.88894629,-93.85946873,7.319435208,0,-268.6971414,,,,
576.2079996,2250,-22.91549401,-90.90569295,5.240291166,6.16530078,-44.80874005,-16.37937325,91.47355332,-430.1219615,-49.95389975,9.7524325,-86.91092896,136.8982254,-95.53925821,23.48889521,0,-334.5293657,,,,
576.2159996,2250,32.51382778,-116.9935328,17.22242061,-20.8049211,28.37128806,-64.0399791,94.39283891,-427.8795644,-44.80605357,8.200232979,-38.06720579,89.11098542,-94.12490793,21.99822611,0,-220.0139849,,,,
576.2239996,2250,7.986943345,12.57894861,7.341784424,-13.57020595,-37.21270288,-130.8392642,87.18744045,-462.6554895,-53.23269679,7.799839087,29.75572278,131.4992759,-88.90036463,22.92535137,0,-353.739096,,,,
576.2319996,2250,-3.147269846,-154.7632748,16.67036179,-4.569312334,-19.59984239,6.936071554,98.25941185,-409.8473443,-56.11085043,10.8964124,-113.6873738,110.9053057,-91.65460888,29.11265827,0,-264.1358237,,,,
576.2399996,2250,52.78403175,5.223067556,18.07545187,-31.76771956,10.48641271,-151.9935395,82.31125937,-457.3778889,-48.32879676,-3.821831695,42.56391474,103.0908723,-100.1454012,11.57469253,0,-279.2805077,,,,
576.2479996,2250,-18.91893183,-53.9707791,13.40362394,6.337263567,-59.52340254,-26.08645848,90.81711734,-427.450358,-48.18638109,18.5033718,-68.5659634,134.4073987,-83.09807711,33.86220443,0,-352.4871411,,,,
576.2559996,2251,33.43690408,-81.92140845,7.320154532,-24.08629924,17.8329098,-60.7111112,85.20380838,-421.3228574,-46.74173203,3.992881534,-28.453357,83.65297316,-95.80021652,14.8311164,0,-231.8429985,,,,
576.2639996,2251,5.832433854,43.4344177,-2.419171201,-15.93584126,-42.04712736,-107.2531352,68.06206926,-442.3670238,-63.32626525,-9.535571528,19.74037244,128.4594875,-112.557842,3.891406346,0,-349.00749,,,,
576.2719996,2251,-5.911049395,-135.248273,16.50483759,0.812636225,-14.98973954,24.32334241,83.39497607,-397.9853748,-51.26580373,16.96772561,-106.8807045,107.5325106,-92.60691632,35.53550174,0,-265.5819695,,,,
576.2799996,2251,31.35192968,14.24176658,-3.642159995,-32.29391048,17.25493619,-123.8485109,68.84457171,-435.7681133,-55.05685009,-3.025596507,53.8376621,102.8967582,-110.806841,10.80161101,0,-279.5288341,,,,
576.2879996,2251,-60.26857061,-56.67916571,-16.63182224,-4.088402376,-64.78285759,27.25718161,72.15641828,-381.6475926,-85.94784652,-7.834006942,-85.89368364,139.3099837,-121.3725899,10.29140146,0,-329.4135025,,,,
576.2959996,2251,11.77122325,-109.4057203,7.77307442,-32.29737717,15.84142072,-22.01611016,84.8712565,-389.3363226,-60.73699287,-4.467401601,-48.67977753,94.77317939,-114.256556,14.10890833,0,-203.8331332,,,,
576.3039996,2251,12.62778568,7.529127375,10.96743362,-21.628028,-35.78474612,-91.73258999,90.78508268,-430.2011239,-54.7962424,0.587995613,22.46742912,154.1767413,-111.7694231,17.94379852,0,-337.7122068,,,,
576.3119996,2251,11.08609417,-161.2785981,24.72551849,-5.073141801,-11.53434166,27.18233253,106.5455405,-395.7509726,-44.19479538,26.11063477,-103.8736049,140.7969435,-83.99059571,43.93847598,0,-269.98841,,,,
576.3199996,2251,61.65438337,-1.458005651,10.15570521,-36.45043826,23.29594442,-139.4109953,87.15304042,-449.9690097,-26.7095483,10.84479942,47.75973564,136.4364411,-90.36929833,24.60744373,0,-295.4708983,,,,
576.3279996,2251,-17.72096203,-71.97895237,9.228928554,-3.583528016,-49.93579434,-6.079019191,93.19243136,-410.6111712,-54.0018256,12.47635844,-82.80836874,180.373463,-89.87006146,31.03598609,0,-357.1065966,,,,
576.3359996,2251,37.7759439,-121.212206,26.68561516,-20.68383833,38.05924486,-58.05635379,103.7213892,-416.0849204,-46.0383942,17.92609797,-37.19938531,133.4502643,-82.31155353,35.56353397,0,-238.8310861,,,,
576.3439996,2251,9.299473239,20.89360039,-0.739744408,-10.29634623,-26.49612007,-101.4817164,92.15817899,-430.0744254,-45.36736808,8.164783689,17.31548617,182.502322,-113.140186,20.55203289,0,-355.424427,,,,
576.3519996,2251,-2.332553687,-149.0069955,3.765227126,-6.66730423,-23.53958111,37.28446403,98.80989794,-376.2600595,-52.93254296,19.49312128,-127.5299322,161.6468655,-108.9557945,30.5756,0,-260.9471645,,,,
576.3599996,2251,51.75228268,-12.37012364,5.224870964,-35.7055561,16.51500187,-134.877519,89.18590462,-432.6075886,-52.57693077,5.375305203,34.22137769,143.6743155,-107.0306636,16.67444083,0,-277.563569,,,,
576.3679996,2251,-20.06373844,-80.2384842,8.712887442,2.477914269,-50.5599743,-6.249461496,96.89965882,-397.3774184,-61.23524636,16.50690317,-86.78433846,178.2407345,-108.6412172,32.39242657,0,-342.1458025,,,,
576.3759996,2251,39.96200694,-119.7929345,14.80430875,-27.27875767,26.57007347,-63.60169859,95.34037959,-408.9664562,-40.10505354,25.84835878,-46.49056229,129.5118802,-97.27876589,38.37474661,0,-232.5270157,,,,
576.3839996,2251,-2.560586703,34.57625565,-20.96900659,-26.21593764,-34.64966647,-103.5568442,76.98107349,-421.5467961,-60.73062824,-2.267213367,14.45625645,178.1798193,-114.5344707,8.761128886,0,-352.9278915,,,,
576.3919996,2251,0.858997335,-117.5393435,6.511836993,-15.69267782,-11.56831885,26.24420701,95.43732715,-375.6510031,-58.36735523,12.43823275,-121.0320844,159.9301341,-104.46536,23.85593884,0,-258.1876829,,,,
576.3999996,2251,74.18418021,41.27545106,17.98570431,-37.31713043,34.26140239,-173.6770045,91.63070334,-452.1134773,-22.48958405,26.63328036,51.69094275,148.1642335,-86.38858078,33.01502123,0,-295.1468589,,,,
576.4079996,2251,-38.4255839,1.414067471,-12.26762446,-0.141355219,-52.46075913,-21.05089852,82.14309414,-394.8351383,-55.6450501,16.38608408,-60.94421115,193.1663871,-93.30708639,25.6960854,0,-362.5919364,,,,
576.4159996,2251,34.99345705,-38.74433894,8.575519419,-32.02673313,21.53147483,-65.30142692,86.35346293,-393.323897,-57.77030517,3.987193936,-32.16452698,143.9044477,-96.4825956,14.01071395,0,-228.6917413,,,,
576.4239996,2251,36.65484454,100.4346559,4.996396475,-22.03167929,-28.22730012,-143.4084228,90.34433006,-431.2258366,-39.69469349,8.593996521,29.97931949,186.0985265,-96.26060417,22.1616239,0,-367.5993401,,,,
576.4319996,2251,1.462459988,-51.04836139,3.108359339,-8.520993896,-27.82974352,4.429993764,100.9512928,-368.3404748,-44.01064887,15.73905665,-106.5092959,169.4627251,-95.07662913,33.69037952,0,-280.4892836,,,,
576.4399996,2251,60.38399424,99.45924299,1.792915285,-41.09703272,5.759573759,-172.0176192,92.82992641,-425.3908492,-44.20161399,8.406980952,45.03767966,150.0926436,-93.67741302,19.08881334,0,-291.1458772,,,,
576.4479996,2251,-22.00700955,46.17457261,-14.30266366,-5.911854642,-64.99674109,-38.56176149,92.25743514,-381.8345928,-56.26468452,20.71950717,-78.88455244,184.7485371,-92.23249533,29.40895136,0,-364.0448612,,,,
576.4559996,2251,35.91442052,3.443102168,-6.049006326,-37.71685888,5.462906641,-74.43837327,84.67730052,-377.3594987,-49.05822498,9.849013967,-50.02068747,137.4958968,-99.06994531,16.85220714,0,-229.9570415,,,,
576.4639996,2251,14.02531955,120.1226406,-10.83662023,-35.00558203,-43.70238065,-148.8361073,79.57303557,-419.4770593,-46.7530929,8.870776243,20.08423502,179.2083687,-84.21087705,14.86905419,0,-361.832482,,,,
576.4719996,2251,-23.49534277,-70.51768908,1.083830741,-25.52055183,-29.4693654,-10.16092771,84.63402603,-366.6746634,-54.84923169,17.03926961,-118.1412038,159.7663489,-75.7799877,25.81206318,0,-282.885593,,,,
576.4799996,2251,32.52356485,69.14390482,-11.9660518,-59.3227583,1.778223386,-170.3375803,64.8370842,-408.0900036,-61.34958687,-6.627339088,24.03479576,147.9225361,-101.9559981,0.85942434,0,-282.8702945,,,,
576.4879996,2251,-41.34808473,10.17320421,-36.24558113,-28.75997354,-69.28067937,-27.50036853,70.45734904,-357.9533167,-71.02882568,0.385222244,-101.3275694,187.402183,-97.31977515,7.523197316,0,-342.7594928,,,,
576.4959996,2251,31.52913425,-50.79486151,-9.961317767,-58.85745093,15.96885987,-77.3289628,78.60596334,-365.4711521,-53.18298813,8.283109665,-67.87083479,134.8989425,-87.07083712,14.07965744,0,-218.6167484,,,,
576.5039996,2251,18.6656231,82.00976791,-11.535816,-45.31535697,-34.53277548,-152.1219096,84.50919703,-401.1588085,-52.98798283,11.04502767,0.122265101,178.5094811,-84.46343684,19.03211779,0,-352.826824,,,,
576.5119996,2252,-14.45191225,-81.54175844,-13.10868688,-32.0979052,-28.49496402,-2.432053058,97.58223687,-336.0032924,-54.20457239,9.907166623,-147.5025831,160.2341111,-77.53644916,19.12737837,0,-264.7012148,,,,
576.5199996,2252,48.40252785,51.00620301,-7.461829911,-61.83583088,15.57367175,-184.3785819,83.7941749,-394.5856109,-37.39289325,5.539663205,12.79142656,142.4715398,-81.24067352,12.46773094,0,-276.8968357,,,,
576.5279996,2252,-25.24255438,-15.29748022,-16.15151536,-21.49732398,-57.70841272,-56.70341526,80.73720945,-353.8110388,-59.30768796,21.56864311,-90.93389373,185.5531468,-72.68104372,28.35005344,0,-349.9235583,,,,
576.5359996,2252,39.65254299,-73.08196958,-4.617210064,-55.13988571,10.86950329,-97.28254184,75.94074431,-350.6756781,-61.95726232,6.541807542,-65.3683798,130.0743713,-80.52831325,9.854181571,0,-219.1689793,,,,
576.5439996,2252,38.29653823,57.92717268,-1.711033808,-42.70274484,-30.12372743,-182.3228699,89.77848162,-389.97288,-42.21156223,13.71363605,12.29378322,166.1656756,-73.61767927,19.55431724,0,-359.8662374,,,,
576.5519996,2252,6.354748519,-102.6686841,-3.79297709,-21.65599186,-18.48617194,-26.69194586,108.1839665,-317.1945395,-45.79240077,26.24008992,-122.8744239,153.5018541,-55.9688465,34.99296305,0,-274.4115121,,,,
576.5599996,2252,50.83363478,32.65795087,-2.089950958,-60.98409141,16.05119126,-196.8892293,92.09046948,-368.7351971,-47.59459023,3.133718299,14.98615484,131.1235089,-72.58786832,9.969755048,0,-269.0684306,,,,
576.5679996,2252,-22.73614262,-26.29571111,3.70403748,-26.35880815,-49.81186103,-81.1536297,109.7784769,-339.1748184,-52.01090819,19.57045625,-91.96090338,169.8959323,-59.61008537,29.65518926,0,-350.0220847,,,,
576.5759996,2252,38.91268495,-68.0943732,-3.581879313,-52.59977106,17.69893306,-107.7074932,118.7246118,-324.2375677,-45.79180863,18.92379178,-60.4842475,127.2412438,-55.64732675,26.37712544,0,-227.9469229,,,,
576.5839996,2252,21.95890406,62.35697273,-21.85865608,-46.08983831,-43.07898222,-168.7196728,108.9080892,-351.0840495,-44.65498442,6.081976355,-8.82605837,166.344596,-71.7451586,11.29912531,0,-345.6606531,,,,
576.5919996,2252,-5.975463202,-109.9488517,-7.053626183,-29.92849998,-37.04917481,-17.04825847,110.2432032,-290.6943129,-61.10245241,11.37866823,-145.1456179,151.9667374,-70.45025487,17.0153216,0,-249.9882633,,,,
576.5999996,2252,57.08575701,30.63387563,-5.447181894,-60.54877625,1.325312823,-191.7860067,93.85489641,-346.3607331,-51.85821136,12.42415494,22.19205505,140.1668255,-75.44742397,12.6352547,0,-256.8800299,,,,
576.6079996,2252,-14.88856781,-27.64380724,-9.855926986,-23.85514877,-61.58198931,-66.42701444,96.56731169,-311.8849537,-48.45200943,23.76044318,-88.60888169,178.912085,-72.07981845,23.15971177,0,-333.9776036,,,,
576.6159996,2252,35.67465791,-87.67419084,4.941668425,-56.90125108,15.53821294,-93.9565666,92.70778975,-302.8657922,-55.87244321,8.849975351,-65.40429931,124.664341,-76.73170061,4.806565594,0,-196.8243268,,,,
576.6239996,2252,21.35380783,35.17103935,1.174528923,-49.60913439,-34.1609962,-173.4649644,93.95480773,-339.0354659,-42.53318506,22.65125807,9.08238094,165.7358055,-64.97264485,18.02337362,0,-329.413422,,,,
576.6319996,2252,2.907874391,-142.9124762,13.35564456,-35.82943255,-21.49405123,-41.94732872,105.8775389,-290.6499413,-32.62402734,33.31220961,-140.480911,147.3205618,-52.09789831,33.40639018,0,-251.4622684,,,,
576.6399996,2252,62.06239313,-0.943580601,16.78644407,-72.36295673,22.97813025,-230.1112215,88.20423543,-357.2435306,-30.30298635,11.39484984,-0.711368436,118.8422526,-61.12394044,10.00462776,0,-256.7692423,,,,
576.6479996,2252,-17.12943644,-43.92467771,-2.412222467,-26.58523945,-41.5832603,-103.1317093,92.52551587,-318.3786106,-39.66845051,33.11080823,-96.37478091,179.1303668,-52.75910595,33.9081555,0,-340.9609184,,,,
576.6559996,2252,31.89396394,-109.2466585,-6.609402105,-57.5225826,23.70029648,-125.0254133,83.47234216,-306.9371574,-45.18313544,16.6422455,-84.51375915,198.8154744,-80.07377578,16.00095684,0,-200.6678199,,,,
576.6639996,2252,10.20580663,11.16288954,-12.04707868,-55.17179586,-33.04393624,-197.600945,78.66534536,-342.514729,-47.71874995,5.391144288,-26.50670801,301.6409557,-99.32948195,8.82977108,0,-316.8721375,,,,
576.6719996,2252,-11.04120078,-158.599068,2.976380664,-35.02829369,-17.3550882,-42.95575978,103.3708725,-276.8219576,-51.18778053,19.25582295,-146.0482932,294.1012684,-86.2143845,30.04594345,0,-225.6725499,,,,
576.6799996,2252,71.55934409,-27.0899783,13.08453376,-71.12689707,26.3864061,-222.9914768,93.09675452,-337.170408,-29.49925983,20.2326652,9.156245598,271.3132548,-65.01349752,21.56475028,0,-212.6436308,,,,
576.6879996,2252,14.2780539,-76.98501733,15.96732882,-28.48630026,-41.76434681,-117.8955491,99.00688009,-316.1491926,-24.30330154,58.07757535,-86.98977748,321.0592254,-19.42096966,56.39034044,0,-285.7223003,,,,
576.6959996,2252,50.46110873,-132.7279989,20.64693184,-57.57412077,30.08564106,-154.303465,89.13690074,-311.2057468,-22.69195795,41.72107247,-68.57164598,264.0702662,-42.70183945,40.24202183,0,-161.6496369,,,,
576.7039996,2252,28.2690177,-12.24595472,6.142917138,-55.8745664,-21.20334701,-240.367205,66.74865762,-351.6561953,-23.51111823,30.10114072,-17.79614307,294.2764662,-71.89864664,31.14295743,0,-299.9756768,,,,
576.7119996,2252,9.274605021,-177.5022917,12.49418048,-33.54889868,-5.02031647,-97.1130466,79.47434259,-298.3584801,-32.08091916,49.18132373,-145.412601,278.331741,-58.4817201,55.41584179,0,-223.6901591,,,,
576.7199996,2252,49.96907778,-17.7167223,-5.033606687,-75.46590496,25.49672671,-244.6761882,52.59361335,-337.0534497,-25.80297613,15.92387289,-14.13385244,253.6334638,-89.00251134,15.26315309,0,-216.7806218,,,,
576.7279996,2252,-20.15779017,-61.40936405,-6.902679985,-46.9730476,-53.19024245,-115.963541,47.40739835,-302.1083596,-36.91160028,20.79034709,-139.8561402,285.8366596,-104.7220307,22.61491067,0,-282.166411,,,,
576.7359996,2252,42.23954884,-103.2658565,22.09958102,-70.16947065,38.35056868,-170.3456549,65.49839735,-316.5636547,-19.60357727,32.23830436,-90.38996277,229.0183499,-99.07987517,36.85869299,0,-167.112852,,,,
576.7439996,2252,13.30869268,72.91170841,-5.212329641,-61.8185803,-16.42546337,-237.9532465,48.44967646,-342.7695158,-23.49855387,23.62602172,-22.82237005,269.8204259,-106.6279792,29.49003339,0,-305.3283599,,,,
576.7519996,2252,3.235191091,-72.36464058,-1.255167471,-41.3115697,-17.29946398,-73.98506295,41.68595177,-277.0377365,-37.36412039,32.10958596,-174.9535274,258.7866438,-107.7852977,43.31154452,0,-207.9983743,,,,
576.7599996,2252,77.84002062,88.5996978,16.84106832,-71.4308458,34.20989661,-256.4010033,41.17610299,-345.1921839,-5.710622006,33.45228533,-14.94024234,239.0807923,-111.2645679,37.84833915,0,-207.5796339,,,,
576.7679996,2253,-10.05350304,56.76658554,7.879892627,-36.47693431,-42.9158919,-141.4284811,49.15533726,-320.514185,-11.57036981,51.91139022,-116.5062008,281.220572,-98.70830744,54.84646082,0,-293.3445104,,,,
576.7759996,2253,45.54554581,-11.09084397,18.18136831,-66.52325171,25.21411035,-185.6774521,45.23701028,-332.6788438,-3.295522587,43.06045951,-86.3729736,227.2137817,-79.8530209,48.52730496,0,-178.0051959,,,,
576.7839996,2253,33.99372439,129.5136517,8.280893854,-65.5776427,-20.08357049,-275.0914601,42.38993503,-379.2387444,-4.007680639,26.38272842,-17.80796542,260.493994,-75.25379671,29.98546423,0,-317.1974528,,,,
576.7919996,2253,-11.2314207,-28.62416517,2.050583868,-56.64864361,-15.42076014,-126.6512327,43.47262646,-321.2113249,-17.22145395,28.86676386,-172.1659645,241.3411611,-77.96811608,33.09266993,0,-239.8473577,,,,
576.7999996,2253,28.80082049,133.4042951,-9.664270212,-96.03171165,20.96745197,-294.7666925,25.39485226,-369.2787492,-7.448707912,5.409023654,-30.74539416,210.1513764,-85.74173144,11.95190863,0,-244.8500038,,,,
576.8079996,2253,-48.59971427,116.1951158,-12.43932431,-59.17440146,-44.85866995,-164.0551155,47.87107199,-323.5583789,-29.6807316,8.737504087,-146.5818355,245.0892485,-79.31986693,18.44071354,0,-312.5844461,,,,
576.8159996,2253,25.28510865,57.4933539,15.354216,-84.65320601,38.60684943,-205.5908793,55.93472495,-330.7937122,-18.7390561,10.11658695,-124.5761937,194.8879875,-73.35030503,17.69426028,0,-181.9270754,,,,
576.8239996,2253,6.719033418,185.7392957,4.380715958,-75.00212381,-17.57445588,-301.5010365,41.03248256,-382.4515762,-4.3287271,18.91471306,-35.40907188,235.7309536,-62.07877179,25.7920576,0,-331.9887573,,,,
576.8319996,2253,-54.06393649,9.980986326,-5.059341022,-52.67128259,-24.57220609,-145.637716,47.85271932,-317.1037768,-18.21668337,29.00291901,-173.1474356,225.2804379,-52.82779651,37.23755532,0,-260.0651022,,,,
576.8399996,2253,13.05519393,162.4828215,-6.553567597,-88.92575891,14.92138281,-307.7850566,36.97870395,-361.8581284,-21.62227231,-7.915258444,-34.36831092,202.4416275,-71.18807614,1.533359887,0,-247.8614456,,,,
576.8479996,2253,-37.06488687,131.561248,3.176708385,-51.91768522,-42.79630487,-203.1075111,52.02662298,-338.6833544,-16.13000539,12.75921224,-129.058813,243.2557102,-51.31592655,31.18758398,0,-334.3819217,,,,
576.8559996,2253,5.773014363,69.2343801,9.871452566,-75.0587602,38.6183622,-248.1872279,52.37192762,-340.8585369,0.386831586,25.00002999,-90.54338828,197.6203348,-22.56963023,44.69179753,0,-225.429997,,,,
576.8639996,2253,-22.36091606,212.8229714,-21.71579426,-75.82562686,-30.92787525,-311.4769754,27.31648126,-358.1415355,-19.67777277,-1.936491699,-27.85654331,235.420362,-32.96631361,11.03855824,0,-345.8401031,,,,
576.8719996,2253,-49.54480975,43.23943905,-10.36559094,-59.88206056,-37.00241534,-142.4553758,33.59077416,-283.7041527,-31.95057329,-0.984126907,-180.2836483,218.9692655,-36.6500332,12.22272142,0,-244.735081,,,,
576.8799996,2253,15.05689607,181.3771622,-15.88117908,-94.72328865,6.186680608,-304.8410786,20.44488179,-328.9545776,-26.52613426,-14.08838652,-19.13479506,197.5193293,-31.94900968,-3.34189421,0,-228.3569604,,,,
576.8879996,2253,-49.58285447,133.5269638,-18.34197744,-63.55187341,-63.94878196,-199.6872586,24.44034285,-307.7424402,-28.76891898,9.699866381,-119.912143,232.7838313,-5.875505547,14.54974774,0,-312.9251833,,,,
576.8959996,2253,8.635389524,88.32147657,18.87099181,-82.30591688,22.52970752,-250.1981157,39.28579248,-321.5376189,-4.236206311,23.73790979,-95.13167891,184.0114296,10.07074354,27.75595695,0,-202.4494001,,,,
576.9039996,2253,-5.731085968,264.3530055,4.594696561,-70.08800488,-31.81949433,-332.9565351,39.20725082,-357.9151774,-10.68215879,20.1521448,-1.545926567,233.2640065,17.406408,22.6837983,0,-338.3958887,,,,
576.9119996,2253,-33.89318416,111.8601148,12.8252922,-47.416164,-30.37217901,-181.8900313,59.94634893,-302.0723913,-13.47025723,37.53314502,-146.0012063,222.3447036,37.89467363,34.93321079,0,-261.1961685,,,,
576.9199996,2253,31.77324561,271.4707675,19.5212028,-72.83356926,17.2323352,-345.562807,57.88892892,-350.3992396,-4.086544248,21.76171535,-16.12325516,198.7686538,29.64266297,17.32950996,0,-257.7540512,,,,
576.9279996,2253,-32.67568761,232.6029634,17.71644958,-28.15957164,-63.84100017,-236.18589,58.42309764,-322.5837595,-20.13553758,43.68252796,-119.5115243,236.015317,46.87281699,34.8439215,0,-347.8095819,,,,
576.9359996,2253,6.558943566,165.8801753,31.28220711,-39.20297479,12.39991205,-266.5954228,60.77546756,-317.2029171,2.536156772,49.566217,-91.11516607,186.0106646,63.56381864,35.21036554,0,-230.1012647,,,,
576.9439996,2253,-32.36907606,313.0003073,3.174535791,-28.28784531,-45.60441069,-319.5708596,46.33895236,-327.8909609,-15.2153184,13.4900319,-27.48371284,223.5468696,40.22182889,6.539076534,0,-341.6898866,,,,
576.9519996,2253,-52.86082793,136.3875624,14.82867593,-9.366844973,-52.8497455,-162.9124872,54.71996376,-272.8151545,-32.96416875,16.49246024,-177.9444178,198.2536352,56.71573793,12.85566895,0,-254.114729,,,,
576.9599996,2253,20.47795773,292.6035892,16.71139647,-30.75180834,-5.483572526,-329.2781693,58.88523967,-330.1497869,1.560681915,16.35165958,-19.65833713,170.9580481,81.67225897,7.774276557,0,-261.3783301,,,,
576.9679996,2253,-56.54607634,266.6910651,2.909976017,10.67578393,-86.32361744,-198.4253383,66.54742657,-287.1371824,-25.59495767,18.67046055,-135.3803938,213.095374,78.87065398,11.24471381,0,-334.063266,,,,
576.9759996,2253,7.470521185,206.7894214,32.58756391,-13.42625967,-3.263455556,-241.4158212,70.11983972,-298.4357892,-6.209528403,29.36110101,-114.544077,161.1789529,92.79497055,18.35126865,0,-209.2370371,,,,
576.9839996,2253,-12.2601121,371.009361,14.2523349,-4.893242066,-48.63670914,-325.9925343,58.68708339,-341.6005678,10.52780614,31.06597122,-22.34419248,203.2084014,104.6016623,19.99256573,0,-355.1815807,,,,
576.9919996,2253,-55.26165747,207.294683,9.974598996,13.77946141,-66.28562053,-153.6460946,52.73160278,-272.6278759,-27.39286049,20.65617851,-182.4968649,190.1010318,96.5180105,13.341667,0,-267.8969462,,,,
576.9999996,2253,12.82979075,350.3431907,14.63117901,-14.48434696,-23.85715064,-311.1373079,42.45761336,-319.660087,-11.03790895,15.54222467,-36.36081656,166.7102722,98.48576423,3.888692944,0,-256.8246682,,,,
577.0079996,2253,-49.58294633,303.642994,13.38869504,24.79238323,-98.19228502,-184.3911509,61.7774403,-283.7204856,-25.04942982,28.81893445,-144.2137062,208.5464199,106.4942939,21.09655136,0,-337.7668692,,,,
577.0159996,2253,17.45583672,225.9349184,43.26411885,11.75049116,-22.69572051,-215.7853515,73.67866255,-290.8587558,-1.63495709,38.5996179,-121.641993,154.57528,115.6246752,34.34337222,0,-218.8239846,,,,
577.0239996,2254,-18.73731793,380.6426443,8.95210947,25.10369966,-69.04887281,-285.6637669,56.48407018,-320.7788966,8.608952063,38.43105027,-35.13689195,197.6569453,115.6464938,32.57343373,0,-354.9624092,,,,
577.0319996,2254,-59.25915024,200.7837586,4.081516447,32.00886328,-70.71974579,-106.3757215,65.59697723,-245.5288206,-37.94017074,17.51249332,-212.5786331,182.9605685,95.38371551,14.50223886,0,-253.917939,,,,
577.0399996,2254,31.97974681,325.6467571,30.65652377,3.601061099,-12.87142816,-285.5391376,68.58124369,-313.5791445,-2.42862553,22.94505534,-45.38567069,153.6483414,97.5146739,18.88153011,0,-248.5071026,,,,
577.0479996,2254,-49.98091491,278.9383678,8.408764501,48.7675139,-85.99427575,-163.3366408,66.91737948,-283.8788495,-10.75419087,40.54831854,-125.5719627,198.6207696,111.267599,37.50581774,0,-344.4045831,,,,
577.0559996,2254,-7.683835988,191.2819308,7.456043614,21.61672651,-18.07049158,-161.6159771,71.63855476,-261.790979,-21.58729361,18.06913832,-134.2339464,149.0667858,98.54701828,15.79322864,0,-201.5284897,,,,
577.0639996,2254,-9.32883559,312.7995823,16.7208253,32.34343514,-57.87243467,-245.6268344,77.59040904,-298.679231,-3.253016902,26.8015753,-52.14798825,190.5049138,87.81445705,25.80751553,0,-321.386459,,,,
577.0719996,2254,-33.98049635,115.7185529,36.79641804,59.16233417,-51.23325797,-101.8201924,93.19270607,-254.3399572,-17.3859659,50.14468281,-185.6949377,178.7738525,91.26246656,53.03491349,0,-257.6590546,,,,
577.0799996,2254,23.75778563,249.4211548,27.17702994,30.40293148,-4.706063908,-268.4443913,90.9603332,-310.7487458,7.71852226,36.83128433,-30.90506936,150.882904,99.49932708,38.17535864,0,-265.0201648,,,,
577.0879996,2254,-62.8819536,211.4028288,9.336941325,64.64656444,-79.30911162,-136.967837,93.85448213,-262.5226604,-18.8326979,23.42945746,-145.4118729,188.9317747,88.17669063,25.95393747,0,-337.8284075,,,,
577.0959996,2254,-8.694601446,139.7857112,25.9812421,37.97658367,1.040813095,-153.6422313,95.23403475,-254.5486668,-29.73421044,22.92212402,-128.9137572,134.7748569,73.82150677,21.36425373,0,-199.4970616,,,,
577.1039996,2254,-25.89325305,299.2939606,13.8220524,45.08882303,-40.04025424,-241.837984,93.65044842,-301.6845179,6.0780906,37.03789225,-24.43847874,175.183841,93.93559722,33.23742578,0,-335.2640845,,,,
577.1119996,2254,-62.05252458,139.6840323,16.68527306,65.22696265,-39.14335772,-78.87257939,105.1701984,-240.0336551,-11.54342902,34.29277087,-175.4419558,163.7266006,89.49715216,37.23670966,0,-252.8868709,,,,
577.1199996,2254,12.92422835,281.6404796,18.21409256,34.99752026,6.810741785,-238.2812459,96.32137164,-288.4366823,-21.17107479,20.10578021,-19.3484625,136.2252096,69.54269906,23.95060604,0,-234.382941,,,,
577.1279996,2254,-55.44012175,236.2921527,12.2653544,73.14658011,-70.86195187,-111.3205683,100.0056195,-248.0738873,-31.45696493,30.59868284,-115.3944884,175.4800815,74.3828511,38.17175385,0,-314.3761146,,,,
577.1359996,2254,0.473171459,163.2507439,20.71972025,49.45582143,3.299055416,-117.2943216,98.1854125,-233.5207932,-23.96510536,30.12589927,-107.5728946,127.0326816,66.20552819,32.72916984,0,-174.9255133,,,,
577.1439996,2254,-9.552450054,307.3166166,4.858801127,56.70924925,-41.35480821,-202.0864447,79.4841488,-273.4554446,-17.49400306,33.02839695,-17.33874245,170.8364604,67.64352076,28.35705312,0,-295.8079901,,,,
577.1519996,2254,-34.30067852,120.2008071,21.90053332,78.42813277,-36.52040049,-48.56371171,88.35084867,-217.0843713,-22.54209922,39.69211603,-161.3983559,166.0959047,73.05950676,42.13204948,0,-220.0786172,,,,
577.1599996,2254,34.18369776,248.2730964,28.04094741,47.92058599,20.74128356,-217.3284516,91.03059593,-275.3334968,-0.880470413,38.3559019,7.897592596,150.231624,72.68061793,42.26142539,0,-214.0681518,,,,
577.1679996,2254,-46.43992519,197.8719487,4.73818008,81.16903778,-53.36559631,-107.2231151,91.42151089,-250.9924482,-17.82892571,49.1016347,-91.65590594,184.7792634,86.17690774,54.12834443,0,-304.1841498,,,,
577.1759996,2254,10.83731151,130.5061569,6.571518225,47.64005371,10.70614034,-121.4426799,83.31575185,-248.4722706,-21.94239938,26.56719348,-99.43874433,123.9732718,75.27162412,29.64709729,0,-168.4392326,,,,
577.1839996,2254,-6.245498133,292.7683917,-2.453002759,52.63524499,-37.69453891,-201.0963529,80.22401214,-285.0695262,-13.36817054,26.58969154,-10.02019496,164.090329,64.69438769,24.855594,0,-294.3571181,,,,
577.1919996,2254,-49.64020894,118.4597662,-0.305962538,74.97725432,-34.84693259,-40.71822805,97.61393382,-218.6774427,-25.51095766,40.65861947,-163.5287197,149.8217051,68.45347594,44.11950345,0,-222.0063474,,,,
577.1999996,2254,30.02766469,263.0906658,0.46227457,36.64550466,15.54186713,-206.6899225,94.3517526,-275.9309111,-16.07584199,16.4213365,-21.07552222,123.7105708,68.93116119,20.22536752,0,-205.2711518,,,,
577.2079996,2254,-37.3851273,242.9464753,-5.973830451,76.97898896,-58.52663564,-94.98060542,96.9538179,-246.0687572,-21.36381439,36.68873812,-112.2496009,167.5200465,80.51183027,40.44409264,0,-299.9438045,,,,
577.2159996,2254,19.96399968,199.3500573,1.63435942,56.0851736,14.33020096,-101.9622769,85.25666714,-224.7005694,-17.10034275,34.22369597,-97.2139723,117.4494479,71.6296872,38.00795803,0,-165.1521853,,,,
577.2239996,2254,11.48238241,362.2983199,-2.16784171,56.24458242,-25.17180981,-185.5537823,81.21591921,-263.8815682,-20.56850197,21.27584891,-1.398884276,157.6554036,65.8610222,20.69551045,0,-271.7755394,,,,
577.2319996,2254,-38.98510552,184.1611872,7.853223375,79.43873317,-26.1453022,-35.93504495,106.5790132,-211.6712713,-34.29474481,47.9550084,-131.2080388,147.1188329,81.16359296,47.48491804,0,-205.6939023,,,,
577.2399996,2254,39.79722402,335.266032,12.63711661,47.4329809,20.66151555,-207.9513904,106.0790246,-269.8760303,-9.841320378,39.56285283,26.99548126,125.2896627,83.47184765,39.0774152,0,-200.6804245,,,,
577.2479996,2254,-33.39179254,309.1318525,-6.457442829,82.66573205,-52.27850423,-92.68955858,107.5299075,-239.5338819,-7.298865386,45.02334987,-83.59436972,167.0508587,88.78708801,45.73447313,0,-288.1496219,,,,
577.2559996,2254,-4.475351687,247.6473537,-16.06371626,51.9468304,7.032784237,-77.65852149,87.63253903,-208.09081,-30.90222028,23.37475623,-91.91185372,110.1439836,63.90383529,22.99632965,0,-143.0385986,,,,
577.2639996,2254,7.09965814,382.19108,-2.257836298,44.49567366,-33.46243877,-170.4325187,87.86630475,-253.3496006,-41.81929371,8.700972363,-0.299085544,141.6978911,53.60115849,9.795810015,0,-248.9704522,,,,
577.2719996,2254,-14.01970455,183.3253424,9.886344529,72.14331367,-14.89506572,-45.72663476,122.4317871,-218.9492681,-13.89442249,51.28999519,-125.6721071,128.1951137,99.79403032,56.08101577,0,-208.7500388,,,,
577.2799996,2255,39.8261616,344.5844461,-13.99302407,40.54507286,21.2258806,-191.5243534,103.7019711,-256.0788643,-6.380262706,21.84387291,24.1226547,110.1578369,83.84348277,24.05424706,0,-201.7451353,,,,
577.2879996,2255,-34.2767981,308.3748078,-10.98510915,68.47140883,-62.52659277,-65.82571897,107.9404213,-218.5203651,-32.45325823,12.5565363,-84.03981371,150.3610953,58.41393301,18.33205352,0,-264.3747382,,,,
577.2959996,2255,14.97859927,228.9896122,0.200319626,48.27205707,13.96040952,-79.88381789,110.7519968,-209.8973629,-25.14034747,31.91709355,-63.59695314,92.78113497,71.50191514,35.40263774,0,-137.5733554,,,,
577.3039996,2255,1.309745211,381.0994606,-23.54041939,42.8834305,-45.84098072,-154.6296996,89.29202007,-235.9845125,-41.22932505,11.05056401,33.81957577,134.4270776,63.43238431,10.97577237,0,-248.3980348,,,,
577.3119996,2255,-42.69251544,191.0051272,-16.99891482,50.33157407,-55.93380424,12.57286275,103.7719383,-170.340644,-45.19069744,11.65018168,-124.4439381,120.1890793,68.69614278,16.24804511,0,-168.6389999,,,,
577.3199996,2255,27.35508931,346.6597783,-13.47853685,14.30776827,-2.79477184,-142.3456683,99.31651893,-218.6875064,-34.65462507,3.136539445,16.19530658,94.29350498,66.53982064,4.574627858,0,-151.6866418,,,,
577.3279996,2255,-28.40887021,315.6563516,-6.251371398,51.07322461,-67.85745127,-49.13931609,109.2032192,-205.2313013,-30.88194452,29.07658132,-74.85014455,140.5173523,74.80438186,29.75599099,0,-244.6512103,,,,
577.3359996,2255,11.36243354,244.8633503,9.122059485,32.49499925,18.49486518,-78.13689895,122.8970777,-208.9132587,0.60427601,44.13228181,-56.57167008,90.27886702,91.0284129,45.74303688,0,-134.3225923,,,,
577.3439996,2255,-14.37659833,400.3881441,-3.454382602,32.10034435,-28.97022491,-163.8870115,120.6075499,-242.2820391,-26.65335419,18.08571873,37.39493266,134.2322762,77.0139646,21.77144509,0,-251.4946231,,,,
577.3519996,2255,-35.39254993,197.1457077,14.4052752,53.00001348,-32.00190923,-18.06054694,139.4266776,-191.1133762,-28.45490888,37.34442302,-103.8148026,124.0652339,85.74647223,41.5966446,0,-188.584207,,,,
577.3599996,2255,32.11790016,337.9767412,7.772949809,25.14801,16.6839084,-181.6927468,131.7894085,-240.9352651,1.928814936,30.22050364,47.37725975,100.4197353,86.51680284,29.19180842,0,-180.6720089,,,,
577.3679996,2255,-68.75237221,302.928261,-18.53030368,52.43342967,-74.10246199,-55.12821872,126.0784745,-194.3785209,-35.63620698,10.97062318,-67.04243459,137.7933912,66.00714363,14.53262485,0,-255.345262,,,,
577.3759996,2255,-18.0227777,228.2450926,-1.913748715,26.01869566,5.31390506,-63.10232877,130.6264012,-180.9964644,-32.07899838,18.79738796,-60.4891241,75.4086483,59.79982782,22.37883652,0,-123.926362,,,,
577.3839996,2255,-14.33218937,396.5692655,-9.493826628,28.90466643,-28.59706582,-156.1003432,125.6494221,-217.9287527,-27.26211061,21.12277496,37.70472375,115.5575478,57.43619178,22.47784456,0,-242.7489351,,,,
577.3919996,2255,-64.84128836,222.115028,-24.03089402,41.43283975,-45.51706634,22.83374234,121.3192425,-140.4334784,-45.99160441,15.78073295,-125.8520471,102.77118,51.84327114,18.92172556,0,-164.5208768,,,,
577.3999996,2255,4.083717218,373.3423483,-24.35284075,-1.426082531,1.363412957,-125.1709359,108.6239688,-185.3119196,-41.93726419,-0.013380162,19.39654397,75.44642542,40.55280751,-2.29582098,0,-131.733378,,,,
577.4079996,2255,-44.8103505,323.7894623,0.945389826,29.44628379,-54.72554156,-46.64633302,132.2104147,-180.0652124,-38.68633823,24.05017133,-69.38361023,111.9195074,56.03363217,23.99266277,0,-229.8329739,,,,
577.4159996,2255,6.525635139,236.29069,21.04596664,19.07839309,26.16286981,-64.38695388,144.210431,-174.0187853,-8.105982559,40.16402591,-45.93564447,61.03210761,63.80913734,41.49686545,0,-124.7761176,,,,
577.4239996,2255,-23.18783829,394.4655228,-15.13181283,19.94434617,-37.35223459,-135.0621006,126.6760196,-196.226658,-24.59649658,17.31376851,41.5363943,112.7020139,44.00167434,17.91202419,0,-232.8384372,,,,
577.4319996,2255,-73.20260891,201.547992,-22.06802866,23.09206364,-53.79440378,38.12171687,125.8371252,-122.3803822,-50.35707042,4.971334857,-132.8927744,91.58260666,37.02511304,7.80979421,0,-151.8910728,,,,
577.4399996,2255,18.80612447,339.57765,-2.758708217,-10.82541348,11.04366979,-120.9029227,122.8120692,-171.5924494,-31.95009544,-2.055045742,27.25070548,64.09752226,24.34208712,-2.72704567,0,-123.9976041,,,,
577.4479996,2255,-25.59606676,288.3097085,15.21188826,33.94948143,-43.40506582,-48.86013972,152.9343267,-169.848233,-29.62414347,34.71999727,-50.55266075,118.3689109,42.50701284,37.35969025,0,-224.921704,,,,
577.4559996,2255,9.821009176,215.9662262,8.633708346,17.97147896,27.41288941,-58.94593944,151.3333984,-156.710442,-17.73382861,36.2969905,-32.6586698,69.75426842,54.75614003,38.04384778,0,-118.1748368,,,,
577.4639996,2255,-2.430762079,380.6031117,-14.50046271,9.225900947,-26.36096784,-138.7650582,127.4093662,-186.6398233,-30.83671163,3.957972551,48.86963713,109.7304739,32.44282799,1.344106228,0,-221.8599397,,,,
577.4719996,2255,-25.28655153,173.7511341,10.08175528,25.96688749,-18.67879029,-7.924562692,144.7325917,-145.9256222,-32.31709041,30.03972079,-117.7632649,91.87248608,46.49213855,29.60907552,0,-165.9444972,,,,
577.4799996,2255,39.41691044,324.8867931,-1.61512247,-6.813959369,31.67393099,-172.7421384,125.3438578,-197.0733391,-8.629043655,24.03446817,44.71049295,71.73964682,51.1545969,19.74835452,0,-163.0092409,,,,
577.4879996,2255,-31.04535673,289.3877067,-8.834589048,17.13695656,-54.15714727,-65.89818638,129.9588794,-167.6772226,-26.95909587,19.41773706,-67.1945718,115.1102001,43.93343472,14.37081674,0,-248.8414688,,,,
577.4959996,2255,17.0544503,198.7849611,14.28133712,-3.14487395,28.07028497,-74.47112936,146.7985144,-153.6995123,-35.42625088,22.39451618,-67.49879325,56.36750713,37.52676522,18.03097799,0,-122.0497821,,,,
577.5039996,2255,-9.819036604,363.656736,-14.61715018,-2.671721176,-19.29567823,-155.7195421,132.8042625,-184.5850827,-38.36306287,8.878956119,43.7877824,102.4211191,33.33425515,4.307164588,0,-231.6092934,,,,
577.5119996,2255,-42.98360143,166.1385614,-6.642484223,15.83097521,-34.1919692,12.02319869,140.10094,-118.892633,-45.94072553,13.27436687,-119.7799791,86.1419366,34.24186007,12.14176315,0,-160.8533473,,,,
577.5199996,2255,55.43492509,292.2830322,11.78483939,-11.80939544,27.27969409,-157.0687111,141.4523916,-175.7616561,-40.21103335,1.774936095,35.58642311,57.38074882,18.7508623,2.510427398,0,-138.0055056,,,,
577.5279996,2255,-24.5762384,241.2999042,-3.859117078,26.53283562,-44.85850298,-70.57171504,153.83623,-160.9123708,-29.74284381,27.5290551,-48.3473226,100.9697889,44.38286783,31.25649429,0,-248.3716484,,,,
577.5359996,2256,12.69429178,147.6241427,3.293177979,5.530646412,25.95056266,-68.52530552,149.6585976,-142.4836977,-20.12526746,29.84430178,-50.19587948,44.29751307,46.96771903,29.82186497,0,-131.5051763,,,,
577.5439996,2256,22.3178609,299.9955315,0.279241019,4.035201336,-15.25431156,-162.278427,135.8483339,-185.2400045,-31.89947681,16.55198423,52.14269558,90.5492225,33.50990935,13.72326386,0,-240.9873215,,,,
577.5519996,2256,-22.43812223,106.3916489,-4.224553998,21.18933813,-25.06593604,-9.378280869,139.9901901,-128.3551104,-28.65684453,33.5925473,-97.45114579,82.88211406,55.63113761,31.55220455,0,-186.4685342,,,,
577.5599996,2256,42.52568572,250.3942967,-6.398734868,-20.16989576,22.71451469,-163.8728034,125.9229514,-172.6771641,-21.9798486,8.493649247,51.92361182,58.30935159,36.83599754,3.003671405,0,-157.6600252,,,,
577.5679996,2256,-27.27268595,210.6901068,-9.315246754,17.03999431,-55.20242539,-61.93521078,137.2791318,-144.5903294,-35.85513376,19.90256795,-39.76773583,103.5922688,36.70023155,19.42471999,0,-247.5485175,,,,
577.5759996,2256,19.45978678,110.0617931,9.22510637,0.79344449,23.93826927,-68.83850719,142.071312,-132.2545926,-26.5687851,25.19050147,-36.22164067,51.69224601,49.94633001,25.73763778,0,-122.0170397,,,,
577.5839996,2256,21.81245102,246.9102316,15.26767185,0.497967509,-17.73655054,-182.0087839,138.3469883,-187.8204961,-18.92650006,16.92954278,64.73989317,94.38188319,47.78190423,19.08455165,0,-239.1947119,,,,
577.5919996,2256,-28.39389261,49.32339608,6.707455404,27.68652052,-39.03470872,-27.40039545,144.22485,-125.8093727,-19.24906233,34.05135195,-92.3302592,79.57938239,52.6087157,39.47262593,0,-195.6633184,,,,
577.5999996,2256,29.66982039,201.306158,-8.210738026,-8.451852435,9.612579589,-169.2775117,126.9889758,-159.9220276,-37.15032067,-0.533565949,51.02115979,55.67474231,29.51101729,-1.083772582,0,-158.7151057,,,,
577.6079996,2256,-32.99028031,171.9820555,-4.972999119,22.0458282,-57.24527124,-73.43629422,143.8350118,-139.0933313,-55.14742682,4.267406887,-44.50837013,101.6264296,31.12353667,7.297202029,0,-235.6330306,,,,
577.6159996,2256,20.79712894,95.03728077,6.56140431,6.388907225,21.76936044,-86.08634139,150.3909554,-131.3371258,-19.53871896,28.55187185,-30.78333493,46.40123263,54.57103593,29.6066836,0,-122.8986398,,,,
577.6239996,2256,13.77608563,250.7707484,-8.091763593,0.10356142,-30.17587155,-181.1804274,132.1206518,-172.4069788,-27.23372361,8.981839673,67.63119794,91.89634134,46.80505533,9.540060782,0,-230.9348172,,,,
577.6319996,2256,-23.15555095,38.30427159,-2.999542474,12.10647547,-44.95217636,-22.45489128,133.9891906,-109.0108877,-40.0019409,7.912145983,-100.4993056,78.31445554,37.29823629,12.94994424,0,-162.2964927,,,,
577.6399996,2256,55.51663025,175.3826912,1.197831304,-22.02868468,16.72430232,-187.6694691,130.5573373,-159.371754,-9.190704534,13.40854684,68.45788635,55.24712101,45.70491598,10.01209223,0,-145.741518,,,,
577.6479996,2256,-12.55261715,135.8934177,-1.793306704,6.028882334,-66.29622808,-96.40304199,141.1566363,-142.7051109,-29.22103847,21.13859752,-26.23584536,103.7252345,53.29356245,17.5798302,0,-234.2447309,,,,
577.6559996,2256,37.42992561,60.28238874,11.53307286,-18.6871978,4.988002675,-99.60155599,134.2800403,-132.9760335,-24.56274853,15.29274348,-35.85309452,44.84555289,42.94460429,8.947275231,0,-107.9643277,,,,
577.6639996,2256,31.21492097,245.9243075,1.467085154,-15.89040319,-25.07647939,-202.7809084,129.7544053,-179.5210108,-10.75374997,19.14961025,84.73374437,93.73892745,43.75973496,10.15809603,0,-229.3690057,,,,
577.6719996,2256,-22.02368077,53.99288145,-2.802677741,5.014515542,-36.67750039,-39.9737733,141.5676112,-113.3547362,-26.58940868,25.59715327,-74.09217655,85.52984763,46.01363916,21.19540219,0,-164.9043051,,,,
577.6799996,2256,44.50047223,192.9313871,12.03788695,-29.91489636,19.9764387,-197.4940036,129.8588645,-162.0666806,-20.77197631,4.304630574,77.20372549,56.79090276,32.10628263,-2.440798163,0,-129.5098727,,,,
577.6879996,2256,-11.8712627,149.5810878,23.93448485,10.64862513,-56.74104532,-122.9812199,142.806425,-157.2376917,-21.57566919,29.92517514,-9.685121721,100.1410267,60.16419087,26.18820765,0,-234.3832954,,,,
577.6959996,2256,36.19984149,72.50811834,19.86436694,0.509020291,8.263106209,-117.7008844,132.1980983,-139.9367582,-12.68761058,35.50204027,-20.18498084,44.15793759,71.75214674,29.81092722,0,-117.5990367,,,,
577.7039996,2256,17.0539793,254.1638528,1.660847325,-4.020340823,-29.99451562,-200.4751754,113.1492467,-176.6198976,-23.14400833,14.47715148,79.40109686,90.00443406,46.18573219,7.898335668,0,-211.4362649,,,,
577.7119996,2256,-16.83951964,46.28867683,10.12521649,9.946049992,-38.22528086,-51.50080818,130.4725177,-129.1419839,-28.79170244,24.99543554,-84.40223568,65.41606969,55.0744197,23.25452232,0,-152.5398507,,,,
577.7199996,2256,54.45835951,181.9311092,13.2899646,-21.98852204,22.98414827,-212.9661188,128.1881483,-180.4439334,-7.795234543,14.67832463,78.96909571,29.17616749,59.29968892,8.730626336,0,-133.3274338,,,,
577.7279996,2256,-24.13552049,149.08756,8.393315359,9.842241661,-46.4237998,-120.9812886,147.1025194,-156.2239326,-22.03131176,22.98477286,-3.124420548,80.03133768,62.86535584,20.289621,0,-213.7971596,,,,
577.7359996,2256,34.63310477,68.08525684,10.18410445,-11.28867231,22.98108484,-115.5255264,148.7659702,-136.0005715,-16.7144432,10.54409573,-22.05659654,23.40785482,51.90998277,8.3242822,0,-82.56409877,,,,
577.7439996,2256,32.68088483,240.8391152,2.444383331,-10.03109818,-20.80580245,-212.7824289,139.5476889,-179.1169248,-12.99668268,-0.468923837,84.21229971,64.97404637,43.38970636,-6.92420649,0,-195.6804362,,,,
577.7519996,2256,-8.740047674,57.11833377,12.54363593,12.6263109,-24.41545617,-66.17212397,163.2416689,-129.0274675,-21.93367006,26.8304503,-65.09072583,55.52952308,64.87165179,26.43328187,0,-145.0215527,,,,
577.7599996,2256,61.50196631,224.6960006,5.049141304,-19.44781177,34.66631458,-223.7050202,151.5412263,-176.1134041,-10.51294856,11.99160653,87.64529855,36.8477309,43.38388684,11.45134342,0,-127.1426114,,,,
577.7679996,2256,-17.44669307,183.7676667,-3.093445243,11.63256094,-57.49922381,-138.4819681,151.579823,-154.1088601,-14.7420173,19.16808594,-11.08626189,85.54295109,43.00887247,15.11353978,0,-223.0403571,,,,
577.7759996,2256,32.71741659,95.01189037,10.77587733,-3.924939469,20.47835987,-137.733615,150.1906598,-132.6338676,-5.026491649,23.93725825,-19.52948136,26.97436572,58.80260173,20.05385334,0,-98.89699253,,,,
577.7839996,2256,30.24316526,269.7313611,8.32140977,-6.4113781,-9.07458587,-228.7335327,130.8277342,-166.7378227,-23.86446722,8.964496598,87.67219258,78.141305,36.05530581,5.014953493,0,-201.7748944,,,,
577.7919996,2257,-12.73879992,54.05106967,12.81762832,5.211354796,-32.95889131,-78.48258863,136.1380494,-113.2368824,-39.27005365,18.40974346,-77.13764832,67.86268714,48.25209302,17.74609929,0,-146.5622623,,,,
577.7999996,2257,63.57794683,197.2382113,11.3856599,-20.82261142,25.89375399,-239.6945137,133.8687172,-163.7304074,-6.762237712,11.05225258,93.4876076,38.94747205,59.48874763,12.33099055,0,-130.871904,,,,
577.8079996,2257,-8.785462083,160.4275705,7.668922274,10.33750723,-52.31672118,-145.7667553,141.7888581,-138.3654557,-19.17430848,20.70911303,2.152780114,88.01566761,51.52483984,17.66593321,0,-219.3000215,,,,
577.8159996,2257,26.13150022,60.10736347,-1.887812427,-21.95599692,13.19089428,-128.3107759,128.3997245,-110.9179285,-24.89176958,11.24879411,-31.29159642,27.06403903,46.64611389,3.680467029,0,-85.03759595,,,,
577.8239996,2257,24.62681005,221.2546294,-5.445689267,-24.63023494,-20.57335528,-228.2641637,122.394733,-153.8904195,-19.28599057,1.123959112,80.24128337,64.69957434,37.34260268,-5.068739385,0,-187.0230027,,,,
577.8319996,2257,-5.907401402,22.7823616,19.21087653,0.271837171,-34.31574369,-85.94995049,142.7222812,-104.5921199,-18.5023695,26.77716197,-67.57119232,50.76302047,49.1142336,18.60739596,0,-135.4710917,,,,
577.8399996,2257,48.65429859,197.7201078,0.922193229,-25.62785403,17.26493947,-224.0999959,113.3187081,-135.9303647,-10.4197073,9.679586063,81.42160202,25.44517325,46.04315915,-1.018462284,0,-108.8779209,,,,
577.8479996,2257,-22.35659208,171.0735707,4.522310329,2.884983613,-64.25707229,-131.4645618,109.2190087,-114.8353457,-32.70715244,9.292175924,-25.71554936,72.66720461,35.46371916,5.757342678,0,-186.3318819,,,,
577.8559996,2257,39.45083386,82.76386731,28.06647798,-18.73012,7.299702658,-134.0120175,113.7392851,-109.116383,-16.59299531,16.56758199,-28.27459633,14.90980329,39.76189264,14.02760667,0,-67.95423474,,,,
577.8639996,2257,11.20744164,277.7105234,2.537887401,-12.98330431,-32.71259809,-215.798791,99.7713645,-139.8836404,-7.995909262,5.873611968,89.45316527,55.4562506,36.31199657,1.000041781,0,-180.5223522,,,,
577.8719996,2257,-32.87953407,82.29173346,19.28787693,8.967583697,-44.00249644,-53.19591399,121.6045871,-78.76020644,-16.89225358,15.99956945,-88.1252849,40.3931555,30.9211329,12.03615073,0,-111.234787,,,,
577.8799996,2257,55.57383323,233.3190646,30.80991257,-19.53064323,19.80253146,-210.7606394,128.4163226,-130.3464716,7.899965966,13.7238415,78.16852485,22.42199398,32.83992015,6.354754608,0,-87.12193177,,,,
577.8879996,2257,-23.70853589,195.9564188,26.53023193,19.28927012,-65.89061292,-136.540232,131.1957065,-122.5879263,4.17557706,30.0134465,-3.350233984,70.95351267,52.31687896,24.95640028,0,-195.5837539,,,,
577.8959996,2257,20.40799795,95.94829645,39.30954853,12.75475347,5.972365028,-136.4353007,131.0746144,-109.633927,15.61540629,26.07251777,-29.21555838,8.859636193,55.6793717,22.99289159,0,-78.5413194,,,,
577.9039996,2257,18.67754472,263.8732333,20.58752194,22.12303802,-25.2474346,-230.7288096,131.3322688,-142.5954544,14.21401292,13.08248596,81.55474303,55.00494598,46.80846591,9.617793404,0,-184.1836654,,,,
577.9119996,2257,-31.61374358,47.23039643,16.19806536,40.74035733,-48.04328829,-71.68047083,134.705329,-82.03100513,-2.403052886,19.01390757,-90.1893443,36.9636587,34.4320135,17.83837949,0,-125.9165166,,,,
577.9199996,2257,25.62088589,202.6159876,4.835454187,8.609386676,7.918048594,-205.1955734,121.7800199,-117.8361708,14.04301491,-4.427908431,54.40825524,3.584077299,12.19129575,-6.599935035,0,-91.15901301,,,,
577.9279996,2257,-41.69313367,182.2100189,3.402635135,42.69973126,-68.21433937,-110.7704494,143.0334536,-95.85078254,1.376184483,13.04682651,-37.69841331,48.37768609,20.42705869,11.46841656,0,-180.8562864,,,,
577.9359996,2257,14.78704698,86.91693621,20.48232049,24.2650738,-3.29308615,-99.21268096,135.4382109,-79.69490687,9.602786697,16.12781848,-58.49060153,-5.894547249,19.39244985,12.42994647,0,-50.7081141,,,,
577.9439996,2257,10.17481338,244.7401371,17.4369558,27.60690355,-38.31449348,-207.9866883,115.5256038,-131.1100946,27.50852784,15.08224182,63.72701765,43.24767529,26.36288123,12.65931872,0,-163.2146634,,,,
577.9519996,2257,-34.45924734,27.34903802,28.40694318,54.02009725,-43.49403922,-71.6152564,133.2365143,-88.28581581,25.73506814,42.06120649,-85.29602776,29.13386322,49.69571031,42.62101365,0,-133.2582243,,,,
577.9599996,2257,13.53281331,189.7292491,2.490025104,15.76364874,8.002521408,-195.9179991,109.0387004,-113.3463561,16.52583623,-0.024235288,58.84220511,6.754150138,20.23405791,-6.138389917,0,-90.43226542,,,,
577.9679996,2257,-58.28498654,158.6485058,3.386919883,43.34823366,-72.62052709,-101.772954,108.3959068,-89.29922684,-8.117996261,5.253069028,-43.6548859,51.89041602,15.55454513,-1.47119661,0,-169.5416627,,,,
577.9759996,2257,8.692287657,73.07585412,31.00085581,37.5731357,8.530476953,-107.2380955,123.8734901,-85.09816935,19.94690605,33.97101429,-39.89945812,-4.367160912,32.048034,26.04835741,0,-63.68048639,,,,
577.9839996,2257,-14.034065,277.8752251,0.740967192,38.52614012,-44.0177171,-187.2005464,110.355656,-113.266835,23.55233259,10.42392948,79.751735,52.78214759,7.634427471,-1.354466082,0,-162.7822627,,,,
577.9919996,2257,-55.98146678,76.22225754,12.35678485,48.92360173,-68.39953598,-25.52486808,122.9254618,-53.11234491,3.784973193,10.78450924,-104.3420717,33.86889031,-0.787360328,0.842573939,0,-96.35334552,,,,
577.9999996,2257,26.86477621,230.1932345,29.90091937,20.04584794,10.56645684,-192.7473591,133.5176816,-111.7447351,32.29640642,16.37347398,64.2466495,4.709773395,19.0746451,7.891833528,0,-78.79059093,,,,
578.0079996,2257,-57.54860558,204.0983461,25.64141595,64.01318373,-57.28449025,-124.0329916,141.2969622,-101.4381824,26.24968756,39.98452307,-12.40226166,57.17409534,43.21953426,35.8150716,0,-197.1726988,,,,
578.0159996,2257,-12.55367279,109.3522855,20.40318281,47.34776526,7.551426616,-110.0337893,127.1455259,-78.08402275,17.90428658,34.59618897,-40.79698161,1.35014629,31.80202976,24.59024693,0,-79.65833143,,,,
578.0239996,2257,-33.45814891,295.3360233,-3.78685325,37.57879102,-41.9582659,-192.4024084,113.8255213,-103.6942763,10.95743087,11.06118196,62.05599049,50.59398997,15.99562805,-4.591044802,0,-169.5565597,,,,
578.0319996,2257,-84.31864968,77.30872837,9.85419644,53.98609099,-57.56666482,-34.95064383,122.4936494,-39.65191936,1.471860012,21.59761107,-117.9137788,25.44671408,28.97858547,11.42500766,0,-115.7984467,,,,
578.0399996,2257,-4.927442878,211.727567,5.764975118,15.15079115,7.249875484,-177.9251593,100.1770447,-78.32774867,12.08183839,1.290526645,34.74523725,-4.509678789,9.667139432,-8.363395203,0,-80.98709162,,,,
578.0479996,2258,-80.40236607,173.1095651,-5.554359233,39.99394314,-80.01376679,-94.61669662,107.9149283,-60.87551562,-3.000044745,7.567986765,-56.75937378,46.25590312,18.71464714,1.023769458,0,-174.3191739,,,,
578.0559996,2258,-21.4672037,76.40549116,8.89186523,27.34621103,-8.046862775,-89.07806003,121.3310489,-48.66125086,0.593047408,13.22454504,-73.46207038,-19.49400863,37.92531093,5.871127187,0,-59.86430159,,,,
578.0639996,2258,-33.0631164,265.5665619,-7.449326475,30.13297029,-39.64997327,-172.6910604,113.2074846,-80.02386984,-0.665311043,-4.091930878,56.84713254,32.21910386,11.51233312,-12.40652695,0,-156.2088094,,,,
578.0719996,2258,-78.88887692,46.434493,2.897598376,50.00563669,-55.00276284,-24.33374852,127.5364893,-31.12517366,-3.808978639,19.10218807,-109.2763769,17.78140366,31.72846056,15.00822791,0,-110.3272501,,,,
578.0799996,2258,17.4342653,187.2764601,19.41123874,19.58822883,15.77950217,-192.9528171,126.2721848,-96.27972002,15.42940298,15.12154632,54.15592521,-8.737222832,43.54273849,6.619065239,0,-90.14471021,,,,
578.0879996,2258,-68.61529214,170.4778892,4.057752689,59.43655671,-62.66672268,-102.5363867,127.4796558,-67.79691258,9.203241083,24.75934633,-15.24815638,50.9289286,44.06916163,17.66087531,0,-192.1795662,,,,
578.0959996,2258,-29.55926659,78.40901955,-6.392426947,40.42078756,-1.839048326,-79.18569371,118.5034604,-33.66943128,7.987238108,24.25304621,-38.82018933,-13.55392075,55.82323004,19.81896976,0,-67.13224578,,,,
578.1039996,2258,-29.54411764,258.7551817,-20.16631772,22.52046939,-37.97438429,-173.3976139,114.2864486,-72.41787473,-12.35912441,-8.772787499,66.03516614,26.8095245,29.02275838,-11.97936708,0,-150.7949887,,,,
578.1119996,2258,-87.41546461,51.17193518,-14.59520854,42.4151249,-55.17536701,-9.562539016,125.2874636,-10.17692786,-20.08367129,1.681266725,-106.7121958,9.983180924,32.94805102,2.432161775,0,-102.4567155,,,,
578.1199996,2258,-0.355692135,197.9233083,-8.072413377,10.52875392,0.405029516,-153.4892589,100.370512,-55.96485787,-5.903387726,-4.314312688,47.59136973,-19.28052538,40.04910368,-11.19475388,0,-66.43262593,,,,
578.1279996,2258,-69.35484929,168.4614272,-5.355851855,34.39983068,-78.45393175,-81.93446583,106.9035863,-49.79955677,-24.11675127,8.078734278,-31.13690857,29.88791174,45.80778642,0.51715557,0,-164.8543168,,,,
578.1359996,2258,-27.9648344,86.50988429,1.128907105,21.41724503,-3.22369721,-74.02822755,114.4213942,-35.76509854,-7.567854925,17.20834594,-45.17110684,-34.71343346,57.65314998,14.67292333,0,-62.01044638,,,,
578.1439996,2258,-7.426227031,284.1032432,-13.07772808,17.18878888,-36.50937413,-171.3611055,102.7951231,-79.89328561,1.624636727,0.019102368,67.04489335,15.15083279,44.74519631,-3.754020029,0,-155.3190443,,,,
578.1519996,2258,-57.47191777,82.59635776,-6.519151115,35.78838191,-55.80609459,-11.58098024,112.2765707,-20.83282279,-6.7575293,13.43850385,-100.6037785,6.451587798,54.88667935,12.06218596,0,-103.3170965,,,,
578.1599996,2258,3.925159129,254.2577298,3.076051224,9.438332441,11.38848236,-150.0203584,104.9208397,-61.03629856,-6.881188186,2.707914676,61.9120882,-16.32508306,46.87552889,0.519196312,0,-65.92689461,,,,
578.1679996,2258,-61.0261402,243.403662,0.825998209,37.86748623,-66.63394246,-70.78921458,119.4411349,-50.45831787,-24.98115586,15.31183969,-30.30244229,35.85417766,41.66054949,10.0081953,0,-157.8662827,,,,
578.1759996,2258,-25.16427241,145.4224251,0.559032586,15.73892528,-7.857692865,-54.97407238,115.2935873,-31.05741562,-5.817316668,18.77127416,-58.43549187,-31.10160941,53.78039725,8.483956313,0,-45.54455624,,,,
578.1839996,2258,-24.88714199,310.1388652,-5.396184425,10.55140694,-34.68751829,-162.4351982,101.4564156,-78.75012352,-4.40304115,2.798635188,62.80832031,13.24111259,52.78113224,-7.06778388,0,-147.9318238,,,,
578.1919996,2258,-62.07475552,79.2744084,-2.067342412,34.78674126,-43.17623838,-9.807983462,123.1556377,-22.27904243,-8.75327088,20.48212837,-108.4971223,0.641053061,66.14394399,15.63142541,0,-108.5236569,,,,
578.1999996,2258,-9.818702145,231.0104854,-23.82979566,-0.193574167,-1.792042452,-118.0387321,103.1806533,-39.67658539,-12.70577664,-16.18613465,40.08313029,-27.88427453,38.7850827,-24.60935384,0,-56.55073625,,,,
578.2079996,2258,-83.59671166,188.0162604,-22.26699205,19.51996038,-88.45812099,-25.92775629,103.1898896,-24.42348878,-48.91936645,-21.6282811,-45.40460572,14.37809611,30.04339454,-27.78994722,0,-130.7764654,,,,
578.2159996,2258,-21.01157749,75.38518186,0.463354804,5.775318289,-2.947879516,-26.15670096,114.936662,-25.82542793,-18.73474652,2.68017512,-55.82769655,-50.9805658,59.46386274,-1.371568947,0,-22.44121284,,,,
578.2239996,2258,-29.03624889,261.531274,-25.04251215,8.208824227,-38.7711103,-119.5077812,102.8287516,-67.93304994,-12.77735663,-5.540848288,72.59329803,3.942730111,44.61768917,-13.4838733,0,-127.4917727,,,,
578.2319996,2258,-68.41248168,31.00507221,-14.69191431,29.43353057,-54.60114365,36.28440702,116.2305,-13.30928754,-28.69255568,6.368083646,-107.4317211,-11.11565598,41.28182697,-0.426155596,0,-80.53897557,,,,
578.2399996,2258,24.61329375,178.2809812,4.316545331,2.998708952,22.05140139,-121.6113869,107.559272,-67.22678322,-0.264316268,1.04794415,52.04125363,-40.77794957,49.09929348,-5.673678869,0,-50.79279004,,,,
578.2479996,2258,-54.11817322,153.4829069,-10.6187375,40.39779549,-62.76737244,-48.78606051,108.7254239,-54.4796154,-7.592081863,20.52082005,-18.62759346,14.32954167,62.77563588,16.44814412,0,-161.6975498,,,,
578.2559996,2258,-19.13391955,53.63701015,-9.389683943,21.38447617,0.219193036,-22.98165292,111.250471,-26.14270958,-13.78453456,8.93128437,-60.53538659,-47.77402084,57.37761217,7.080316074,0,-36.00933158,,,,
578.2639996,2258,-23.46394757,253.4075252,-11.25631836,12.34990222,-30.17968217,-124.9909677,100.5292455,-72.29855646,-24.13792702,-11.28197778,64.67251812,4.999622701,39.92162347,-13.4799141,0,-124.4713195,,,,
578.2719996,2258,-72.08301004,34.25845666,-18.06576614,34.75227853,-56.33114028,28.25919888,100.936124,-20.99758183,-26.34265006,19.88597081,-90.6353748,-4.102328383,60.91142787,14.43063839,0,-98.86675212,,,,
578.2799996,2258,9.865070767,175.2829665,-28.00600234,-0.972987128,4.061748527,-93.37273252,82.24182551,-51.42133891,-18.63865731,-10.6690497,40.49927986,-30.00229624,41.22340654,-24.75229177,0,-46.39311735,,,,
578.2879996,2258,-63.53771286,143.9232023,-21.53650995,31.98955834,-63.09496745,-13.64817077,101.2742235,-37.09500269,-26.89235973,4.131775403,-37.49856995,25.45572214,46.77605023,-6.463236419,0,-130.9036874,,,,
578.2959996,2258,-19.45408227,40.99911053,-17.25532031,22.3672373,6.861907615,4.662867916,102.6910432,-14.43927234,-12.53562417,19.37095513,-50.35086831,-38.88323728,62.20974154,11.2780684,0,-19.68072632,,,,
578.3039996,2259,-11.83282172,234.6860851,-30.30950731,10.91049696,-32.04752465,-89.23189684,80.09453701,-49.85705618,-22.46389148,-15.96727133,62.87641202,7.754879595,29.56277757,-25.72998215,0,-99.45010845,,,,
578.3119996,2259,-55.20778758,24.83191383,-10.92935999,36.09899605,-43.65042888,53.30211166,103.8678033,-5.949036358,-26.0245104,11.00002877,-95.94103435,-4.164369059,57.58671095,5.718908788,0,-67.66622355,,,,
578.3199996,2259,24.92549035,187.9931213,-6.77765255,15.6087427,29.14179744,-93.8192812,105.7043645,-54.26349683,-5.656130746,18.19041347,68.91942078,-24.07428464,69.51310897,7.415702319,0,-46.04289211,,,,
578.3279996,2259,-58.75449954,151.1147848,-19.02141678,40.74320034,-54.005951,-14.09813175,112.9719592,-32.05467006,-15.26507487,18.93505441,-19.40135916,37.10011784,56.34518474,6.600301214,0,-135.8925993,,,,
578.3359996,2259,-11.90154888,18.97859551,-5.889570599,17.16909954,15.39224395,0.689762931,117.4950935,-12.8178458,-19.78670434,8.205559653,-51.44712992,-29.26612388,63.94711344,-2.330087001,0,-11.27249668,,,,
578.3439996,2259,10.87477812,198.0304898,-2.359340931,18.09687512,-10.64747276,-118.8838086,107.2642756,-70.27644017,-8.535573911,12.23072749,85.39833013,20.45906104,68.89253372,-1.008925772,0,-114.7897421,,,,
578.3519996,2259,-42.6662144,-24.69908233,-11.86884363,42.27583175,-39.31613861,34.30171053,111.404796,-12.37720275,-0.446325549,35.36929016,-86.15442338,15.4455367,76.2222606,23.69407972,0,-85.54985228,,,,
578.3599996,2259,29.03091874,121.9940269,-20.88039421,3.59604908,19.89293386,-98.3959962,100.2144127,-48.14884453,-16.64335487,-0.692542024,53.00507689,-11.82031915,62.15336911,-11.07708994,0,-36.85048817,,,,
578.3679996,2259,-30.64580525,90.50528868,-1.29970387,38.78615434,-55.34680882,-44.93583232,117.1173855,-47.67385391,-20.8717445,27.05014323,-15.4487471,42.24363716,84.90223408,18.98784882,0,-142.9606603,,,,
578.3759996,2259,14.19881202,-16.75321847,8.887865213,27.45581119,11.17144099,-28.33084164,112.936325,-26.08414185,3.660363709,40.0605893,-31.14815688,-15.30439438,90.63292463,26.61069792,0,-34.12993923,,,,
578.3839996,2259,-1.956467176,181.8522225,-15.34441081,15.53443332,-22.12407143,-115.8796586,93.21164982,-59.36180237,-16.79454321,9.229641411,96.25737548,34.81748779,64.74175145,-4.87188896,0,-113.6974466,,,,
578.3919996,2259,-55.74854101,-37.70287239,-14.79197207,32.44947779,-46.83909443,43.40926569,100.1402746,0.654508755,-29.01357291,19.81060307,-84.62866749,16.60051409,72.25759461,11.22302781,0,-67.79376524,,,,
578.3999996,2259,40.77588883,117.5038314,-10.80188091,0.386645154,15.17401295,-92.85073168,83.64060856,-41.12557881,-12.00305675,-2.981891315,58.52813554,-14.94026894,57.74565906,-16.05961929,0,-19.97913769,,,,
578.4079996,2259,-24.91770458,101.3049262,-2.849786882,38.65685959,-59.96056601,-29.54435584,100.6144834,-37.85142878,-23.94932626,20.07611392,-6.425973285,40.57381598,70.8568844,12.3623405,0,-127.0280233,,,,
578.4159996,2259,19.64588988,-1.034400246,4.520977413,29.39933896,12.632308,-21.04778235,102.6047852,-27.09372183,-5.477656714,38.07808248,-24.01807122,-19.91543645,87.12926878,32.60282515,0,-25.44525291,,,,
578.4239996,2259,18.96050877,197.0471375,-10.01921478,21.72379081,-19.63390902,-134.178808,88.57068376,-80.49561839,1.581332489,18.32310593,97.98799405,31.81397873,81.17628446,9.77584913,0,-123.0599805,,,,
578.4319996,2259,-57.47420469,-21.04575623,-14.02016698,36.82935086,-46.03067722,35.2845696,109.0878758,-9.485464937,-26.61494714,18.32285969,-85.1470995,18.08126164,83.80873411,15.1199449,0,-90.81738802,,,,
578.4399996,2259,15.17253765,134.5653899,-23.04315309,-6.356041934,17.87388187,-81.3923211,93.21848059,-31.75638634,-24.11289764,-14.05537192,57.36796183,-19.43659827,49.61978493,-19.92508933,0,-36.54519861,,,,
578.4479996,2259,-56.07362522,119.5226506,-22.0014035,15.99551284,-66.05941483,-12.71237951,88.40548155,-23.64462663,-35.35520379,-3.058196274,-30.39682812,26.56687598,57.38773005,-6.18720936,0,-122.4184382,,,,
578.4559996,2259,-35.22706842,19.70005607,-24.42848288,-1.954744681,-4.624570098,23.731825,84.9199383,6.865301725,-38.11451959,0.209049428,-60.09216329,-38.28207019,73.32144729,0.198853088,0,-2.947950726,,,,
578.4639996,2259,-26.53051356,211.2095105,-32.5514933,-10.25878149,-37.68970768,-74.93619547,78.12807369,-37.75270724,-38.05426944,-16.77106933,71.40218848,9.675273214,54.31345251,-21.34682756,0,-85.96210861,,,,
578.4719996,2259,-60.29056459,-18.52119856,-6.090303488,15.91684936,-53.79479735,64.06285707,95.48847852,3.517736298,-33.66715195,12.66957392,-103.7598927,-2.546329026,73.33476516,6.846096556,0,-57.77474367,,,,
578.4799996,2259,23.57453562,119.3335103,-8.675598,-7.987062265,18.93966704,-78.96595846,84.88608189,-38.8353501,-0.110916894,8.249762417,63.87041835,-27.04240543,79.89674342,-0.393868326,0,-32.48022201,,,,
578.4879996,2259,-45.75793875,74.28703106,-10.59882168,22.54888492,-64.13014088,-15.67825262,96.43490321,-27.85802518,-14.29308526,9.639416619,-9.765494108,32.70077788,83.61932201,4.801788188,0,-131.3822012,,,,
578.4959996,2259,-1.296799359,-43.14627603,2.76779901,7.042434774,3.243547213,4.139126777,103.3292592,-5.922916877,-16.82355941,8.086485402,-45.53630302,-29.73951588,90.4726623,3.108767055,0,-12.01072175,,,,
578.5039996,2259,11.6097683,151.6289095,-8.195294406,3.947115735,-26.87935227,-105.8227602,96.63295679,-52.80451123,-8.932021103,-0.772164734,95.07775611,17.86443237,84.65392876,-7.09708409,0,-104.4228307,,,,
578.5119996,2259,-45.28516529,-87.83461413,-0.549929122,33.41042795,-54.93175077,48.18137313,105.5576125,3.228921729,-13.30918019,21.53376338,-72.30103917,11.82482002,96.27124163,18.48335106,0,-72.3711675,,,,
578.5199996,2259,32.63763042,33.56647276,-7.613416964,6.21861636,6.279251681,-79.9740343,80.96356448,-35.37270985,2.982564222,10.24380816,82.55422605,-9.140680953,87.83092423,2.52656012,0,-28.71251693,,,,
578.5279996,2259,-24.87002336,-11.53002678,-1.521294687,32.89000919,-66.94629007,-20.28278112,93.66372525,-35.25376158,-6.480108705,18.60866255,-8.907332128,42.23110241,86.01172038,12.79421914,0,-131.5280113,,,,
578.5359996,2259,11.23467142,-132.5072271,5.997603498,17.44594469,12.27017646,-7.981600126,111.3325186,-20.27842817,0.734238327,21.79424972,-47.06877174,-28.23153834,97.86781047,16.53611546,0,-31.70721192,,,,
578.5439996,2259,2.843285484,48.66277413,-19.34250695,7.876254258,-19.69184968,-115.2616492,107.04162,-64.97882662,-11.44829072,0.49418985,94.90765627,17.7444832,90.20891808,-4.041871539,0,-128.8265358,,,,
578.5519996,2259,-48.77065028,-198.0668542,-2.599261327,25.45501937,-40.89493662,34.04079351,122.0615128,-13.68894513,-28.75803478,9.350922119,-86.42839978,1.682279647,91.13870925,8.83535005,0,-100.2908568,,,,
578.5599996,2260,29.23632533,-57.72321087,-9.383823776,-6.645119364,26.39741844,-98.67524166,95.90209741,-50.05409457,-5.00313187,-5.24380355,72.6634279,-24.9606876,90.68346629,-10.97985419,0,-65.73442042,,,,
578.5679996,2260,-49.03661376,-80.68125253,-19.22908215,19.0234272,-60.85504577,-30.61504495,96.69609508,-35.66240947,-18.76809924,5.401101739,-3.587201281,29.07935452,90.18713839,-0.4372293,0,-166.9511759,,,,
578.5759996,2260,-18.23789716,-192.7596759,-11.10697079,0.604400103,5.057049658,1.459177287,101.7580112,-6.617007058,-20.46637433,2.214816485,-55.08861137,-44.25407148,79.13434731,-4.707906846,0,-51.36224229,,,,
578.5839996,2260,-20.03121323,4.744493207,-38.9616469,-11.17318714,-33.38068854,-84.16881452,79.99674872,-37.92531963,-26.51260979,-27.78732879,78.97546241,3.255827426,61.99540139,-32.86459991,0,-130.2863871,,,,
578.5919996,2260,-54.42734543,-239.5075708,-12.25846305,9.05505015,-49.89798253,52.75814451,103.3417536,3.401805522,-37.84922781,-1.835304914,-95.7177139,-11.34635874,74.72099277,-2.6298273,0,-98.44241839,,,,
578.5999996,2260,36.4265916,-99.90249925,5.394728594,-12.60777441,36.15929369,-106.5799911,99.80514049,-53.34056041,-0.349653394,7.758572564,67.11395237,-36.70782059,89.01320564,2.388301489,0,-78.47944923,,,,
578.6079996,2260,-48.26537749,-99.3349579,-12.47094915,19.71867086,-48.94800981,-38.17275407,92.37884343,-39.4429436,-5.397782585,11.22335309,-6.735860317,27.49495557,99.81425505,10.1172704,0,-188.8542607,,,,
578.6159996,2260,-11.00340981,-177.1923723,-10.08328692,-0.420318701,17.58324472,-7.460213961,93.57979605,-13.65376735,-17.32463137,-0.406936574,-61.57310138,-39.34006733,91.86915985,-3.211449985,0,-66.59310967,,,,
578.6239996,2260,7.002768745,55.82157201,-12.19938777,-12.12078303,-9.941644398,-123.6498176,79.37890071,-70.55055954,-4.447357293,-7.708953378,77.09913825,7.727501078,85.78255361,-15.52308069,0,-158.0369805,,,,
578.6319996,2260,-46.61125038,-157.0932916,4.9285512,12.46542902,-34.09839953,10.45897499,88.14938579,-29.88050427,-5.739978943,21.28888412,-86.85707168,-4.053458513,105.2106257,18.55274137,0,-152.5080459,,,,
578.6399996,2260,-0.368846045,5.15269791,-23.7982972,-14.20408484,33.44762925,-100.6093016,74.12218251,-44.58830095,-17.83819948,-13.67805219,61.50689504,-27.77361305,78.36575742,-18.86245271,0,-109.7816967,,,,
578.6479996,2260,-81.65121736,-2.140478014,-46.79270505,1.439754363,-68.86248606,-5.584382576,60.78594354,-11.01057332,-45.29354487,-29.695038,-42.74840237,27.06339803,53.7656287,-33.94945654,0,-179.7729974,,,,
578.6559996,2260,-33.44802567,-116.1473495,-25.08562584,-22.32542066,-5.151024728,21.0860963,57.12781845,10.80877428,-23.67474908,-16.36686691,-94.71981737,-48.16077619,63.87164984,-20.1920261,0,-57.1467486,,,,
578.6639996,2260,-35.86429749,88.31543502,-32.97771429,-29.84121889,-20.97997105,-76.61706596,55.84760031,-27.43743378,-18.46501015,-32.10341894,57.48482484,1.412340682,54.85141538,-39.72345459,0,-133.5181687,,,,
578.6719996,2260,-59.7952737,-142.8136584,-0.039388387,-5.969615212,-44.30975398,61.42314232,75.96357321,12.64589527,-32.14697313,-6.109003543,-108.780836,-11.44346253,72.51934476,-11.46901473,0,-105.7802101,,,,
578.6799996,2260,26.96767465,23.09919835,3.359637191,-22.75340115,25.27330301,-83.68874222,70.0358144,-33.29186012,-4.277844654,1.717095632,57.29222439,-37.08845146,86.60530089,-6.539308561,0,-87.3083649,,,,
578.6879996,2260,-65.15576564,29.4678683,-16.24304879,8.645676897,-65.93890139,-2.891116213,67.60778115,-9.957176544,-17.48588154,-5.851920669,-32.91619316,24.32662368,74.93899349,-15.34586183,0,-177.0094963,,,,
578.6959996,2260,6.795603436,-92.9170177,24.85022317,1.980182104,3.915645137,1.067219438,75.05078081,-6.929029257,-0.289803858,8.036810884,-83.05026357,-46.41519504,87.83885812,-1.102084273,0,-64.26420852,,,,
578.7039996,2260,14.42549863,131.7574564,17.79662476,18.15563675,-12.91347222,-122.0818326,74.00066966,-63.21109026,22.13140108,15.0266517,81.845029,12.30362079,89.10192221,3.266374546,0,-173.5480978,,,,
578.7119996,2260,-72.72407943,-67.1303961,2.60455748,49.10893352,-48.42940891,49.13626772,74.03688446,7.35170866,7.151692463,15.28448123,-105.1557407,7.243487112,81.76249018,4.295851528,0,-144.0575223,,,,
578.7199996,2260,15.70824151,67.32756609,8.752433641,21.34295228,17.75901407,-88.87056784,60.2818141,-33.49888282,16.8076284,-9.284014374,34.03381216,-28.67037972,77.37206594,-18.25159228,0,-93.66288476,,,,
578.7279996,2260,-37.39623872,41.71066545,14.03969036,59.47415999,-59.93300904,-42.74361213,67.62826201,-39.77720306,11.37766409,9.417096653,-31.30773931,28.00491904,91.33966997,3.89999698,0,-199.1506913,,,,
578.7359996,2260,-2.381494299,-63.0872545,22.08738982,58.59926854,9.141195891,-21.24191187,68.06312668,-21.95903586,29.13371992,28.73284716,-71.11049918,-37.12713058,103.4174643,21.92949617,0,-99.11412317,,,,
578.7439996,2260,-3.837980268,166.458655,6.357557556,51.42601983,-15.69966584,-134.4001242,69.12410611,-71.50669591,24.81020928,7.288642954,70.8258963,16.86700203,81.81802976,7.63960738,0,-182.4725156,,,,
578.7519996,2260,-55.600629,-38.3889578,13.23183197,69.87542223,-45.96477862,14.42112447,90.16082062,-20.90683856,14.92283988,19.05362574,-105.6974644,6.39336539,90.86159212,31.88660826,0,-159.9378065,,,,
578.7599996,2260,13.33521549,114.3161501,-3.004556195,42.33243222,18.87190508,-98.90667635,69.3836305,-38.72487664,37.46399612,-0.478825946,48.49762107,-25.91712591,81.330783,10.83381174,0,-117.3568752,,,,
578.7679996,2260,-64.63126402,90.01838717,-12.42633338,62.08771421,-69.35812175,-13.42064529,64.19296252,-12.87132346,-3.433952981,-12.83903715,-34.61988074,33.29640561,65.50342247,-1.847601632,0,-188.575587,,,,
578.7759996,2260,-15.77280393,-38.87047364,8.878720912,47.70810289,-4.024812952,19.38617145,67.31929695,11.12675366,-3.189147461,3.755522563,-80.57009215,-36.62849874,78.2008765,9.897325153,0,-70.30979008,,,,
578.7839996,2260,-21.3310831,167.5135781,-13.96514825,43.31752436,-35.89547153,-77.49021005,56.41492017,-25.62574419,13.20123181,-12.13800054,58.87802669,10.89917723,54.00127095,-8.463447387,0,-152.9390595,,,,
578.7919996,2260,-71.15831309,-66.976373,6.857152899,64.33953714,-60.13776981,82.12489096,79.58613588,28.09044297,-2.841203842,-8.850901824,-134.9300165,-2.015945066,58.14553222,-0.540814942,0,-112.2726126,,,,
578.7999996,2260,27.72763426,81.91651446,27.50121775,48.29161335,33.19900434,-58.28028732,82.1986225,-16.45803158,41.50591037,4.24709693,38.35976322,-29.39588885,83.01709836,10.12754195,0,-70.83944945,,,,
578.8079996,2260,-70.31587787,88.22931015,5.166111412,81.81438502,-49.33504674,12.64753095,74.25999354,-0.509110925,33.10112137,13.21765488,-20.22602067,37.11048135,85.65827053,21.63853298,0,-159.7198343,,,,
578.8159996,2261,-37.75762204,-32.28516017,17.57169772,62.74514595,13.86380409,52.24233143,75.18845232,26.40408489,-4.559052039,-2.55886193,-82.61576,-37.54428637,77.18894676,4.249387471,0,-35.41098105,,,,
578.8239996,2261,-15.41507338,174.3515201,17.0205051,59.70967726,-3.158839538,-66.19216223,74.70021114,-25.89164488,13.76182709,-9.911317453,71.34855014,9.302291075,74.13317853,0.079502899,0,-128.5223163,,,,
578.8319996,2261,-84.89861206,-46.24883189,11.87006853,85.75543212,-39.95104689,88.66117251,79.64390028,34.19151815,19.20359104,5.298922564,-107.1054224,5.682385243,89.56936154,19.2163406,0,-106.6193887,,,,
578.8399996,2261,4.833610583,95.75864362,15.20027633,53.5293457,29.20971784,-36.0126786,73.86177998,7.586951614,20.13607851,-18.7889111,28.20639333,-29.126969,73.52704136,-12.22136094,0,-55.2144215,,,,
578.8479996,2261,-57.43615121,89.93086706,19.4705305,82.81030971,-49.59006512,14.97639477,81.36553543,9.744057472,23.28150903,2.217992867,-29.92944049,28.13231901,81.77960643,14.9792338,0,-158.5902191,,,,
578.8559996,2261,-37.384134,-21.06427041,15.53922487,69.28931325,12.19686641,51.30864646,69.67246188,37.79199788,13.73479022,3.584428816,-71.33038133,-41.55150501,85.15834418,15.38329992,0,-50.82168424,,,,
578.8639996,2261,-20.2112537,192.507677,5.719621536,57.00660933,-8.548594929,-57.44688354,64.49223351,-7.096258624,8.709469388,-17.55219474,68.76868197,3.995321009,65.83955366,-8.946845881,0,-130.9886873,,,,
578.8719996,2261,-73.60251321,-30.34199738,14.03490404,82.49492917,-35.24904607,79.58632358,85.66725574,32.39350024,27.11584509,19.33644969,-103.4698765,-2.797832124,95.7225228,33.15037292,0,-123.7593178,,,,
578.8799996,2261,-27.99632639,114.8113734,-12.22484726,48.46784122,26.31164712,-29.85828521,69.82782283,13.56865527,23.04516546,-13.84963095,39.20273603,-36.37213493,72.45566815,-5.943679127,0,-78.59484357,,,,
578.8879996,2261,-100.5701572,102.9154925,-8.232979892,66.62635119,-61.45399797,42.36519185,79.90605795,32.51378682,-8.529019213,-20.0897426,-31.34420092,18.19762282,59.82910699,-9.701869204,0,-156.8326143,,,,
578.8959996,2261,-45.70960124,-27.94891131,12.435041,53.95831173,3.747613051,64.41723598,84.76010588,48.65316702,-3.919166587,0.533008127,-64.83476453,-48.50752562,80.98703172,10.28432264,0,-48.3159672,,,,
578.9039996,2261,-38.53563653,171.6306423,-3.739350352,45.31271185,-12.59853754,-49.78971906,71.98603748,-1.863858174,7.549809277,-14.75191021,81.27595735,1.405475721,62.72655225,-9.183565078,0,-139.595336,,,,
578.9119996,2261,-80.57765569,-57.64957233,21.33896148,77.19543527,-21.11501548,78.06513552,97.60015974,29.45735452,26.0595048,18.030376,-95.39426033,-5.676895371,96.0817633,29.54794835,0,-133.5030317,,,,
578.9199996,2261,-6.701584407,93.60331581,7.398151361,52.26476323,42.61363108,-48.18564584,78.88139357,-2.264214168,23.45592021,-0.179157096,61.66729846,-31.52733374,97.30185108,6.024097435,0,-97.93304379,,,,
578.9279996,2261,-105.1934602,93.97176749,-19.54766823,67.28410089,-57.8945149,35.72566565,59.22778874,26.13750049,-9.741133763,-13.62257321,-9.621993711,27.57169971,67.60567024,-8.668564535,0,-186.1098775,,,,
578.9359996,2261,-56.14147868,-41.21161415,2.386834198,47.82243519,18.6180971,57.71775145,65.46393642,40.46713395,6.87964401,-6.428216234,-63.15077297,-49.61905051,77.29025658,1.572771093,0,-73.13815017,,,,
578.9439996,2261,-27.68039242,168.2886094,-2.020884648,36.04073664,-2.926919585,-68.50960254,63.35401016,-18.39697017,22.30946563,-16.76851858,89.26048992,-3.716185025,80.43742948,-11.1803112,0,-165.7606138,,,,
578.9519996,2261,-91.75348987,-43.22926769,-0.655928551,55.6832745,-36.47887131,86.34497938,68.62822681,36.77327899,20.71665912,5.12214888,-91.98586113,-8.315667758,94.18531218,11.15254393,0,-150.6147512,,,,
578.9599996,2261,-15.95199345,90.66902239,-6.596457588,20.20291575,36.13156804,-36.61321404,50.61803864,5.257117704,17.31517249,-13.677259,48.20906377,-43.74143008,86.9323235,-15.04578606,0,-99.18703552,,,,
578.9679996,2261,-94.5501925,73.6089557,-15.68647759,42.03877462,-55.15469675,28.96577884,54.90975675,15.22452286,-5.025045688,-14.71340069,-15.94264513,10.94267544,90.08303634,-14.80739712,0,-196.0280011,,,,
578.9759996,2261,-77.92135191,-59.19573251,-13.39287163,31.33448543,5.761071446,82.45635484,55.19882384,53.07857668,-5.271977074,-19.91070254,-74.20058314,-60.86547887,84.02657615,-15.9686473,0,-77.91102492,,,,
578.9839996,2261,-60.88664944,147.4518451,-31.54979982,19.49878275,-19.99738374,-9.023459962,39.30017654,19.16158223,-20.30303777,-46.4896317,59.82104456,-16.54934764,53.58542772,-45.80533917,0,-138.2071013,,,,
578.9919996,2261,-93.85174942,-86.03382772,-12.37427041,33.5684494,-52.13803285,137.4679534,54.31552136,62.82233905,-20.10228097,-20.25572221,-118.0821793,-23.80566548,79.85943678,-15.45903046,0,-110.494997,,,,
578.9999996,2261,-15.51001332,43.8955182,-5.700153776,2.047599545,21.0265847,-3.578856062,44.59290744,15.50055715,13.08355288,-16.01809921,45.26747593,-53.94593317,91.55980291,-16.43302261,0,-82.16812532,,,,
579.0079996,2261,-100.9972523,58.12826604,-24.25886953,26.73057698,-66.45038023,65.39778908,39.20198163,27.52889613,-7.86918307,-17.71469039,-21.07870573,8.765625115,79.3829065,-20.60901898,0,-187.4092668,,,,
579.0159996,2261,-64.19383489,-64.35719621,-13.59943393,6.844361932,-2.50114583,105.6233138,37.14672824,56.58819869,-15.14688401,-24.77430285,-89.12468449,-61.87139468,81.1092021,-25.05474359,0,-66.37920342,,,,
579.0239996,2261,-45.37214869,149.0909657,-25.4952286,0.251550671,-21.41962692,-12.0031861,30.22467453,8.950513429,-0.885358274,-33.80073419,61.32101473,-16.92297057,79.15251699,-34.64639015,0,-149.0984381,,,,
579.0319996,2261,-95.2409803,-61.80609844,-18.6373829,26.55885351,-47.29223909,138.3524228,43.16640823,59.59133068,-5.329368936,-15.49046896,-117.8245851,-24.25275562,85.05565767,-12.9551011,0,-127.8107166,,,,
579.0399996,2261,-13.16147878,69.74035071,-9.755139877,-4.843810849,28.78574777,2.385510644,27.40906323,17.98698526,-4.065198383,-26.84355443,32.1668817,-60.87582917,78.75346945,-29.93905646,0,-81.64358684,,,,
579.0479996,2261,-72.67354114,75.79739973,-0.336858929,28.65920935,-49.23801267,44.44987086,40.21217918,13.59508269,-5.737146373,-9.180009213,-16.15439957,3.583002382,92.42163336,-10.62779859,0,-198.8779073,,,,
579.0559996,2261,-22.16657119,-52.45904126,22.01885382,24.5633356,22.90856949,56.67511364,59.9492971,27.04156601,16.97478868,13.40356676,-53.48928985,-55.41916369,115.2529756,15.14091143,0,-115.580864,,,,
579.0639996,2261,-29.88255276,156.2824326,-18.66204274,15.67833928,-8.53407828,-46.70621968,37.18166827,-7.189067975,11.72028505,-9.947080221,97.65090096,-2.657064627,101.1203337,-13.21672732,0,-206.6838158,,,,
579.0719996,2262,-94.78836531,-61.92180427,-18.55750378,34.01237937,-50.10938884,128.5963528,38.54038128,60.52381812,-7.007157102,-16.6328558,-107.8533845,-5.952967236,88.25650069,-17.23382541,0,-167.3467118,,,,
579.0799996,2262,-1.67724597,60.53246919,-1.504621251,-1.714234824,24.7909898,-8.711909713,33.15954878,17.26360389,4.243884619,-22.85303072,34.11794071,-40.9376417,79.186959,-26.08380754,0,-114.8901645,,,,
579.0879996,2262,-81.08982183,70.81109606,-20.22049847,24.16890109,-55.34827487,46.6708634,34.87046181,19.88323426,-4.273712426,-4.658404185,-7.162514965,18.42897129,92.1225793,-8.550844604,0,-229.3016839,,,,
579.0959996,2262,-53.04831045,-49.07423215,-12.55485132,10.33628247,11.34074802,93.53467131,40.5725005,50.87767801,-4.02492509,-9.511479175,-68.79598839,-52.49011021,94.74694292,-8.271551341,0,-116.9214672,,,,
579.1039996,2262,-33.89268014,164.2661322,-13.70849382,-1.42660773,-7.647163279,-19.57680344,34.86977057,6.421809233,-10.79125605,-30.36613457,79.98498241,-9.222983163,79.29926535,-30.05512861,0,-192.1260267,,,,
579.1119996,2262,-73.96297269,-50.11394008,8.105727382,24.40333171,-33.04761528,124.9770233,51.63868323,55.46221969,-10.11228536,-1.329629474,-91.46572663,-7.641761227,96.14440693,-3.893510784,0,-175.4290268,,,,
579.1199996,2262,13.89844034,68.08009555,16.19170878,-3.888504077,43.85724802,-25.70301378,42.64116522,7.193888634,17.26558205,-3.946121407,48.86220249,-38.12694773,102.0519978,-7.899108652,0,-142.6801857,,,,
579.1279996,2262,-81.52220677,76.28960531,-7.688592226,24.3908486,-44.39816476,30.14632639,40.58331808,17.08202072,4.957212413,-1.024133947,-6.773738073,22.64622168,107.9506656,-2.036268872,0,-257.6448435,,,,
579.1359996,2262,-51.58849555,-57.67679689,-6.840814396,4.249568285,12.56590117,83.87272852,45.99488633,57.68562057,-2.694618585,-11.4833695,-78.62921421,-42.42577497,91.56740399,-15.06011715,0,-131.8821051,,,,
579.1439996,2262,-9.850366892,121.1555026,-1.424375704,-9.650220162,-1.599055666,-54.09651966,46.51760839,-7.946424435,8.634420415,-18.59446341,68.3031416,-2.04970724,83.11978171,-24.85624187,0,-216.5404381,,,,
579.1519996,2262,-75.81872772,-89.12268118,-2.400528722,24.14595242,-30.84499896,90.95512188,57.34310676,40.48730309,6.879447823,15.51927871,-80.2534567,-3.640833456,112.0892583,12.24174511,0,-220.0856968,,,,
579.1599996,2262,-9.467312415,53.5933307,-19.50993148,-13.17899969,32.33292292,-22.5430085,36.63640797,21.67639995,4.698272072,-17.85988332,53.34334825,-38.73044081,85.79912505,-21.87543833,0,-163.4870061,,,,
579.1679996,2262,-67.25089345,43.22520258,-14.01920177,-0.887502195,-48.56530015,23.3487831,39.56798047,19.37617142,-10.70430656,-21.05906285,-26.77578607,9.603753977,82.0235284,-22.75415458,0,-261.8820152,,,,
579.1759996,2262,-43.05467452,-96.10675612,-10.00177212,-12.9196045,21.07108712,65.94425812,46.38208247,51.2940372,-5.988425794,-5.31460844,-78.61557742,-59.05075405,93.91280456,-8.055097611,0,-155.3499407,,,,
579.1839996,2262,-27.69290858,106.5042868,-22.1810505,-21.68382068,6.321968928,-55.76304991,46.14785059,8.030725409,-2.938381105,-21.35948796,81.0457518,-14.61727906,78.55732337,-23.4863581,0,-228.8664738,,,,
579.1919996,2262,-74.31896328,-115.0816596,-3.099326555,0.623626951,-26.00663349,72.88720052,58.72209978,47.64023823,-8.241851076,5.452259002,-87.02926279,-15.96300239,99.79382161,7.286330066,0,-217.9504544,,,,
579.1999996,2262,-8.019350002,16.02340263,-9.83994673,-30.46485818,40.54703269,-57.54685936,37.89214575,14.40095716,2.356005492,-6.374347106,53.0126526,-47.49667753,87.62208181,-10.96941622,0,-176.6557226,,,,
579.2079996,2262,-77.36118586,20.40500686,-12.27406231,0.700090433,-36.58241774,-5.430123765,50.55124361,17.91918525,-7.929844271,-2.993221654,-4.716144066,15.03068803,87.51987595,-8.588139818,0,-273.3587098,,,,
579.2159996,2262,-44.26239769,-107.682184,-9.910533434,-9.99618936,24.29103436,33.77744275,50.95836927,47.48316625,3.327365556,8.077437798,-58.70556451,-47.1993673,101.5363013,0.654416267,0,-165.701912,,,,
579.2239996,2262,-34.02227266,117.8951259,-32.63607346,-26.8133049,-7.105010653,-74.37255482,23.47603633,12.12856386,-7.953292267,-24.43041735,83.03231993,-11.00691617,66.43852311,-35.34525204,0,-244.0523115,,,,
579.2319996,2262,-83.74747289,-91.48202514,-20.00138611,-0.892576267,-39.81930135,78.2019104,33.29933861,65.31957738,-28.8916264,-11.76120412,-97.33826973,-17.59716174,73.65205484,-18.46549753,0,-214.0088829,,,,
579.2399996,2262,-9.280865009,23.02020496,-22.1231374,-27.97819786,34.49801055,-50.4611678,24.40590223,33.9265281,-2.084552413,-20.38819192,41.10808525,-48.31745684,76.57074503,-28.87641783,0,-159.1339,,,,
579.2479996,2262,-73.93815781,27.37234891,-23.63429036,-0.522505678,-49.93741729,5.679490198,36.20667567,42.95605957,-11.47052694,-18.57505686,-14.2887233,15.39179441,73.09044957,-22.29395295,0,-255.584373,,,,
579.2559996,2262,-36.30918801,-100.1686135,-13.13838952,-9.985400739,11.36964268,49.08222814,37.72964644,71.56906482,-10.76996353,-3.800963411,-66.4618357,-43.56206626,83.29828303,-6.801406053,0,-136.8284034,,,,
579.2639996,2262,-38.05718901,112.6951457,-27.69941503,-22.24131111,-8.347136931,-65.78791767,15.06603315,27.48683877,-14.09724997,-19.885424,85.22145294,1.845791913,64.94018354,-30.25966199,0,-209.8306167,,,,
579.2719996,2262,-95.52270268,-97.43755256,-19.99937642,-1.226175594,-45.37683285,89.46490591,24.13255001,81.65051103,-36.40215005,-10.62548354,-93.5489103,0.092512236,72.39827812,-15.74618383,0,-178.5940726,,,,
579.2799996,2262,-9.37530137,21.45652067,-22.05532484,-39.59298503,23.61608939,-39.38496753,11.29194691,46.95660273,-17.23182028,-24.78298517,41.67240132,-38.24588158,68.29337454,-31.52531153,0,-119.8257576,,,,
579.2879996,2262,-83.27522894,26.87948757,-24.24425432,-12.88392366,-56.74970164,6.056309939,24.35706481,45.93334032,-13.38087607,-8.014963557,-0.206512749,19.09280377,78.09178135,-15.80121921,0,-233.1034315,,,,
579.2959996,2262,-52.49602668,-113.3090181,-26.34689564,-19.53806624,6.322499399,55.35175812,29.57955847,81.97084906,-9.303381131,-2.41789367,-58.43663109,-40.01577161,82.89872381,-7.69498146,0,-117.8758703,,,,
579.3039996,2262,-30.89495287,84.94350182,-34.83805641,-36.60701658,-4.853879952,-60.13139527,9.665154724,39.2612807,-15.73637624,-26.13884372,78.06048873,2.526564212,49.94253372,-37.46082894,0,-179.3858944,,,,
579.3119996,2262,-81.47497221,-129.6039038,-5.220990964,-10.59059077,-27.32569364,73.04978527,35.87558984,75.32729756,-22.94932247,8.315840071,-87.5341128,-0.362241246,80.01006102,-1.109191652,0,-169.8461959,,,,
579.3199996,2262,-2.382283011,-10.02427506,-8.314579631,-34.68614598,43.26814701,-58.60069189,33.15794681,43.0887691,-6.673096949,-6.002570912,55.13911527,-29.76426939,83.53654951,-13.42372899,0,-124.354521,,,,
579.3279996,2263,-75.20599587,-7.247451119,-17.75134858,-8.343449767,-43.3421756,-10.05907391,35.35244058,48.69682617,-16.84297659,-7.822972999,5.427262445,34.92641171,73.74612616,-14.8349863,0,-221.4462983,,,,
579.3359996,2263,-45.97326189,-167.4579073,-7.369290122,-19.53474844,15.44918361,22.2198771,41.61793814,70.35927705,-10.01955592,1.665325724,-47.74358274,-29.44781448,95.10990745,-1.833095806,0,-114.60808,,,,
579.3439996,2263,-24.00107777,24.63421653,-14.48001399,-29.27877421,-4.208723788,-99.87297944,29.96491625,25.38088954,-14.24931442,-20.73841139,95.35779858,7.910225578,79.84865722,-24.50456186,0,-197.2789383,,,,
579.3519996,2263,-89.67931791,-170.9034079,-11.58656232,-5.22380889,-36.35001964,53.37223627,47.56466251,77.88500914,-25.70350032,-2.277239818,-79.2747361,6.671988525,79.69897449,-9.537911268,0,-174.8432154,,,,
579.3599996,2263,-23.8849861,-35.70226393,-27.97355137,-43.81463621,29.06597308,-58.60944906,32.07323728,55.52959513,-21.93095511,-31.87672994,46.04535261,-31.70392304,62.73826795,-40.49955033,0,-109.2382784,,,,
579.3679996,2263,-79.52836283,-16.1938427,-16.17047867,-18.49139617,-56.46796197,-6.662618694,37.99924061,59.36182881,-39.95848099,-25.82046615,-10.3890638,25.54813119,58.13179645,-31.40207531,0,-201.0075783,,,,
579.3759996,2263,-45.2997934,-155.7265326,4.118801705,-20.97884821,10.27531163,23.07083654,53.61348633,77.55609135,-18.78185332,7.889105159,-53.00638058,-25.54740723,79.28315992,-4.035467929,0,-86.12861015,,,,
579.3839996,2263,-29.12516847,41.05482712,-15.36889101,-33.73243032,-7.902544958,-99.03340199,39.7864749,32.67165041,-15.23817878,-12.96567494,93.82692973,22.17799851,65.15717843,-26.88471187,0,-166.4739373,,,,
579.3919996,2263,-68.80879497,-182.0956316,3.923537404,-13.71769381,-42.57485833,39.08584598,60.72783924,73.27848615,-33.35105978,5.413607731,-73.8893799,16.75691714,74.21263057,-1.400568254,0,-156.4118913,,,,
579.3999996,2263,19.52679696,-76.12682082,5.019868584,-40.38328136,32.51958016,-104.0965637,56.38195818,32.43795607,-13.36130276,3.682990396,82.85308945,-23.33045274,80.10798482,-7.482738016,0,-118.0010129,,,,
579.4079996,2263,-48.93236779,-45.68674812,-9.033837206,-9.443702162,-57.56596297,-43.32387956,48.54697674,52.53772227,-20.89080019,6.473860768,26.06148287,41.16229784,68.25969052,-5.288923269,0,-217.380008,,,,
