Time:125Hz,Epoch,FP1,FP2,C3,C4,P7,P8,O1,O2,F7,F8,F3,F4,T7,T8,P3,P4,Event Id,,,
541.0799996,2113,-58.91080195,-104.0259932,-103.9846659,-120.8206523,93.52312741,-461.2217775,32.59465689,-151.4041843,-3.064052709,-32.59305972,0,56.4730775,-19.67171569,-409.1202006,11.47847069,38.62029434,1111,,,
541.0879996,2113,-46.44737452,4.072549204,-107.6306445,-91.59461496,-48.69309983,336.6493204,-170.8148477,91.36052321,-83.99819962,-154.0815011,0,34.96788708,-58.99998082,90.73459234,521.9332996,661.4560642,,,,
541.0959996,2113,63.75540456,38.13278108,25.82479194,-13.35626996,-174.3016418,-357.9516955,-23.14429757,-343.8110068,-43.32943183,1.825765372,0,156.7519953,-131.7756075,98.71865634,-88.95621508,854.4600775,,,,
541.1039996,2113,-103.0860827,-88.70911158,-140.2572228,-129.2409686,166.9674298,-18.55438208,-12.40823009,164.3735236,1.258798096,-86.62995589,0,11.19583991,50.41194456,-410.448856,387.2326591,-100.9072001,,,,
541.1119996,2113,44.77764877,75.41633505,-3.740303937,-27.96519688,-251.4075607,116.3991615,-175.5399136,-209.5163991,-92.51796744,-73.43308489,0,138.6398916,-144.6798067,423.6532701,228.2736851,1232.628475,,,,
541.1199996,2113,-64.92599028,-103.5264719,-108.258832,-124.9379023,105.5063485,-461.3900034,23.43642372,-152.715365,-2.318513943,-22.88857012,0,63.48008446,-8.867319462,-394.8494086,11.57586522,44.12423527,,,,
541.1279996,2113,-59.94565997,-4.389731503,-115.5089771,-109.7154644,-22.89167472,330.8157346,-191.7591386,80.11187574,-80.78622485,-155.8603645,0,26.29762519,-38.84297811,81.90070338,533.2075235,666.8314795,,,,
541.1359996,2113,50.37509996,22.50544747,13.62705301,-37.95191581,-164.3767607,-369.1986777,-53.27867615,-373.1744592,-42.74097857,-6.016164061,0,137.8187852,-126.0225643,83.61523656,-76.58939994,878.7339595,,,,
541.1439996,2113,-109.3879995,-99.23469539,-158.1907169,-150.5363168,173.5315129,-41.21373992,-40.28901026,130.3897837,-7.891637513,-105.0832386,0,-13.02714947,36.28504831,-431.8473747,390.4508907,-84.82292288,,,,
541.1519996,2113,53.36299008,86.50987283,-0.12641974,-26.2878651,-245.994058,104.5587113,-180.5489681,-220.8298541,-102.6819205,-84.76648634,0,124.1766055,-157.8201305,391.4120501,231.3376017,1249.411278,,,,
541.1599996,2113,-38.66667255,-82.58387725,-85.49389358,-100.5039411,94.34695997,-456.4026392,42.71411619,-143.0582901,9.948978752,-7.729834894,0,67.97734447,-8.414924516,-412.3341694,-6.514822477,48.44165829,,,,
541.1679996,2113,-27.34601925,18.92726963,-97.30956207,-74.46376632,-46.31289978,350.3943414,-159.8280315,113.2782366,-58.48250104,-137.4484571,0,33.03497843,-27.47340155,94.24774311,499.4721761,640.076437,,,,
541.1759996,2113,67.54038429,40.61543864,20.09085954,-11.06743778,-175.7220685,-343.4536195,-26.56114288,-335.5391932,-30.95726441,13.07412973,0,149.2879374,-113.4517304,111.6117961,-115.6044709,855.927698,,,,
541.1839996,2114,-118.8995812,-110.1065341,-174.0163257,-151.117907,194.6693033,-8.621960131,-31.773747,150.0485088,-3.018136357,-90.97626373,0,-10.85374278,54.76622568,-410.5919316,361.9058994,-99.60077105,,,,
541.1919996,2114,39.55153684,68.4412829,-21.10597151,-34.37901389,-223.2642878,139.3722781,-177.3338052,-215.1833921,-110.642511,-92.97161342,0,100.6885126,-143.4873235,409.1209907,228.6016374,1261.065046,,,,
541.1999996,2114,-56.35233879,-94.58351307,-101.3451358,-111.9640282,112.7557684,-453.6755623,41.46892561,-152.4277646,-11.65905539,-15.88265696,0,47.32303479,-12.2613616,-411.247429,-7.724897805,74.92446193,,,,
541.2079996,2114,-63.08242741,-8.831220166,-124.9163722,-103.4060327,-16.56551071,337.3124556,-185.8910496,84.12370244,-88.33438289,-147.1971087,0,17.86334323,-39.19699304,72.45424163,508.549672,668.3493138,,,,
541.2159996,2114,105.8978401,88.52040892,67.66691619,12.74118041,-317.196902,-300.2345782,-109.1760581,-504.3910763,-89.81554489,-1.05149542,0,179.7881468,-194.5068726,405.9980695,-152.2384984,1407.871562,,,,
541.2239996,2114,-52.80285867,-53.75564241,-89.62342536,-109.2697287,72.39257724,-159.1045124,-46.07591891,-52.05706975,-20.3392583,-57.02406827,0,48.02443407,-6.604711658,-231.3057467,178.7343063,296.7449357,,,,
541.2319996,2114,-31.81467819,-7.544097571,-78.35659995,-88.11821073,-26.76188162,59.2982817,-125.8518027,-49.39196445,-57.48899967,-87.46088362,0,55.26388732,-43.34360186,13.71109838,275.3302792,666.4012597,,,,
541.2399996,2114,-35.59966004,-45.42073792,-72.94246346,-88.45018843,18.80684447,-211.3683105,-38.50230684,-107.3207787,-27.34752824,-43.13932396,0,56.33808157,-29.32467101,-187.8979436,117.1794993,409.6398021,,,,
541.2479996,2114,-11.7784781,18.542557,-48.52616267,-66.17034888,-88.67410645,93.90038783,-137.8034973,-72.09152509,-65.32044786,-87.05504288,0,71.21080053,-68.25942354,133.204457,273.5097337,827.6831142,,,,
541.2559996,2114,-36.59998827,-48.38990945,-64.75422559,-86.2509698,39.80222026,-291.7639047,-10.23610336,-126.7196784,-12.26774944,-18.65697449,0,71.56032229,-27.83560214,-205.9315215,45.45029859,345.5492045,,,,
541.2639996,2114,-43.66724875,-6.853733499,-88.01368726,-85.05429721,-2.22110493,153.0088858,-118.593676,38.02849388,-52.17739241,-88.84028735,0,41.35671628,-38.97708362,1.811180878,351.5914177,586.6066644,,,,
541.2719996,2114,11.92181859,6.994966166,-24.16939598,-48.07851957,-102.883271,-188.5663034,-83.05309915,-248.8292633,-57.15014353,-27.72791428,0,101.1103436,-105.175874,85.09610798,27.30502704,830.6032919,,,,
541.2799996,2114,-100.6927227,-96.29857468,-134.3957016,-130.0638929,157.2866823,-98.25169145,-29.28182234,47.13080544,-21.36460056,-75.31446283,0,3.174860738,20.40344354,-346.6165201,274.8651395,81.38944545,,,,
541.2879996,2114,20.75336162,55.973894,-17.68672373,-42.58155665,-159.4229808,128.0849827,-158.5648361,-166.5743464,-99.59884602,-90.81955927,0,86.4906352,-115.2444048,303.063818,264.5542911,1141.396297,,,,
541.2959996,2114,-54.1356133,-82.34485097,-81.79205702,-107.5578138,109.5050712,-413.1850592,27.82488709,-159.109163,-11.33252823,-10.14951365,0,56.04191677,-18.44851655,-341.8618191,1.884914031,202.1784328,,,,
541.3039996,2114,-68.37733719,-18.107857,-109.802744,-114.3797961,28.69291537,270.5574097,-151.7434763,83.23631796,-77.31391224,-125.4250742,0,15.87309728,-42.52829071,24.67931763,463.1546206,635.0646808,,,,
541.3119996,2114,26.41083557,13.0664401,2.362477921,-50.78214038,-113.1749539,-289.8728031,-71.80937671,-325.7486986,-66.65578093,-20.80738897,0,104.6697646,-136.9359683,79.98002447,-40.37365009,932.8547111,,,,
541.3199996,2114,-107.908552,-96.83995449,-144.793624,-142.3291498,202.5012904,-54.11949768,-38.41090477,109.9483007,-19.62279539,-85.35571562,0,-18.646106,16.93859896,-424.2160643,338.7210695,0.672430413,,,,
541.3279996,2114,49.62579332,81.74702509,-6.633523528,-29.59719054,-201.1552118,149.8694623,-180.9420879,-185.775826,-105.8767624,-76.96323115,0,101.0634755,-164.1231127,368.6227873,246.2309643,1253.886815,,,,
541.3359996,2114,-43.23097635,-81.73257135,-86.01663126,-104.9055117,112.1986111,-446.7817548,31.75885806,-153.3066209,2.611931612,11.00042107,0,62.22223603,-44.12234379,-380.2867376,-31.99139513,145.8165429,,,,
541.3439996,2114,-56.42227081,1.266924463,-102.6852427,-96.68129767,14.7388901,320.6909307,-167.799491,109.5665895,-72.70067869,-121.0721314,0,15.45642814,-46.91047547,46.42307692,483.0845306,644.4075992,,,,
541.3519996,2114,40.77449249,23.7969085,14.45986587,-29.52297893,-132.2213804,-318.3440859,-59.73513425,-346.2362811,-65.54972154,0.11894652,0,114.6238397,-134.4736483,103.739862,-93.19447525,933.4966061,,,,
541.3599996,2114,-121.5675517,-112.723896,-163.2922236,-146.3270752,216.9461153,-29.38718681,-34.1301521,133.5899384,-18.30062838,-82.59518139,0,-25.94264481,17.09539194,-433.2955761,333.6428081,-56.65886009,,,,
541.3679996,2114,48.75535771,83.35596337,3.900800575,-16.42897267,-207.3333861,164.6239046,-174.2816211,-186.9779102,-106.241696,-78.76598556,0,94.64650762,-174.8656929,392.2672425,220.9904424,1266.579847,,,,
541.3759996,2114,-47.51043425,-80.77641084,-72.45491448,-88.55050374,127.4306007,-436.6917203,55.44714905,-139.0103371,1.229658603,15.93453931,0,59.15630492,-31.59951675,-365.9665095,-53.20123043,109.8366082,,,,
541.3839996,2114,-68.82430407,-7.384914505,-119.9990029,-100.6918453,24.01422974,347.7220427,-166.3142831,119.8859176,-80.95457307,-116.9146224,0,12.10616755,-46.30207749,69.30258172,477.5332391,635.6047217,,,,
541.3919996,2114,32.11657794,16.68940394,-6.47004367,-40.97086977,-139.9527483,-322.0561974,-68.16227854,-349.696726,-74.43996924,0.315007965,0,98.96897012,-149.6972507,100.2187983,-110.5999923,934.4615761,,,,
541.3999996,2114,-129.4010843,-111.1563292,-164.1777274,-147.982897,221.5451581,-23.19802379,-36.75679523,148.8746123,-24.78627086,-82.09502595,0,-46.80586579,18.82661364,-434.6500297,337.9310039,-63.69695056,,,,
541.4079996,2114,41.49490352,86.28077853,11.13540456,-21.44184617,-199.9515693,159.4866482,-179.6055599,-185.4728587,-110.8396245,-71.37083113,0,81.726456,-167.1501055,402.79591,221.8803601,1276.840806,,,,
541.4159996,2114,-57.84119182,-87.23161582,-74.45658397,-112.6456698,123.5590268,-450.3500669,33.32844043,-143.5819392,-3.885019986,10.92750836,0,36.03865451,-31.58579248,-385.2634658,-52.07263928,107.8746841,,,,
541.4239996,2114,-55.02738034,3.69977584,-104.3983076,-104.5118648,1.14888828,341.5675459,-179.8285542,115.8761598,-77.15978834,-122.6894869,0,-8.032051136,-56.7056917,50.30481989,476.2195199,640.2387297,,,,
541.4319996,2114,69.01062991,48.0746171,31.6479112,-13.91149235,-166.0841776,-323.691414,-50.81610284,-353.6759417,-46.78785507,18.65527982,0,109.0917483,-153.0728652,106.2421146,-135.1740276,926.1385761,,,,
541.4399996,2115,-114.9186492,-102.3892304,-147.1946542,-135.7694709,208.1455026,-16.50107476,-26.26028123,147.302355,3.89167825,-64.89139088,0,-32.05825488,36.03796509,-416.4034263,308.9086655,-90.70227578,,,,
541.4479996,2115,45.00361526,81.73925379,8.166894481,-20.72587163,-207.836484,162.1879916,-182.7626226,-189.7881243,-100.5352224,-70.47910251,0,79.89373526,-151.1266714,409.6785022,195.8114253,1264.170626,,,,
541.4559996,2115,-51.7110549,-89.01120226,-75.03464181,-103.7471046,124.9614921,-456.1839542,39.29968473,-145.8454524,7.745283894,13.105567,0,34.76990262,-26.34123886,-391.680538,-80.40074512,99.39800158,,,,
541.4639996,2115,-73.14172661,-17.44299175,-113.5707181,-104.0712292,15.9089063,337.7537751,-177.6730228,117.1139419,-75.96270308,-126.8042534,0,-11.25323766,-55.00336618,53.46042942,463.5239503,637.773805,,,,
541.4719996,2115,52.60412065,30.16438439,30.77448659,-11.62645288,-158.8566969,-324.7473736,-44.38696347,-342.8230902,-64.71515503,10.58176745,0,98.84093539,-152.5940219,112.4804333,-141.8778755,937.0756355,,,,
541.4799996,2115,-115.5709641,-108.9267014,-139.7528321,-128.8132122,207.3980101,-17.18462639,-8.649125365,165.4242353,-4.95339442,-59.93115292,0,-35.14091864,44.2073763,-422.2817935,290.6716635,-97.76475803,,,,
541.4879996,2115,23.75412003,54.98589047,-1.886046018,-27.12692857,-199.6502678,174.9798595,-180.8559178,-180.3756409,-111.9980514,-73.35752535,0,75.28815107,-139.0253168,418.1960992,188.8861366,1260.909545,,,,
541.4959996,2115,-65.6856316,-106.9274526,-69.60971704,-97.84733537,131.6230648,-436.9365647,45.0454135,-137.9043868,-13.80349819,4.971699825,0,21.95397423,-19.31203534,-373.4287199,-73.74643283,114.8258716,,,,
541.5039996,2115,-52.96618214,-1.811602154,-80.78749411,-74.83894044,16.04159475,360.9841202,-149.8032256,137.7454123,-77.37760446,-111.601874,0,-7.94460625,-41.74710885,62.61632559,463.9462206,636.1853638,,,,
541.5119996,2115,56.78745163,34.16525491,44.4259297,2.491641979,-150.256134,-304.6434928,-35.40440151,-332.2524363,-56.35196578,29.46230367,0,113.6434976,-137.6927649,134.6134068,-147.8016753,933.5454875,,,,
541.5199996,2115,-138.9399355,-128.0812965,-155.3199286,-139.3356092,223.7202385,-16.37291771,-26.26139297,159.2637536,-16.37367446,-62.46520292,0,-39.64597632,41.94939916,-407.9940152,298.39449,-86.88657105,,,,
541.5279996,2115,21.73668645,55.50660202,-7.207757318,-22.24214426,-194.0158692,175.2740716,-185.7819823,-182.7763322,-127.1378478,-78.36929949,0,62.25422958,-154.9218984,405.1596513,207.9634137,1287.092865,,,,
541.5359996,2115,-41.79287284,-85.07521141,-51.20325768,-69.57444783,129.7211398,-442.4296839,60.57398064,-134.7954557,-8.710237272,16.65486556,0,26.26084137,-28.08461283,-377.6075777,-71.41206103,133.6537988,,,,
541.5439996,2115,-34.9599319,11.96527517,-64.76202624,-53.44387053,17.84165987,353.6237986,-135.7250925,148.5194283,-60.04101811,-91.28970785,0,11.17133164,-29.61371582,91.30386429,457.9285465,633.5121138,,,,
541.5519996,2115,67.90663806,39.1361941,53.27347851,11.95592882,-152.4789683,-307.7887233,-24.38423322,-327.5997366,-35.19166728,48.05326589,0,134.0319444,-124.0906109,164.0392592,-155.9556584,935.0116247,,,,
541.5599996,2115,-127.8991421,-122.6510499,-146.832644,-137.6247532,226.9158443,-33.01462136,-12.51092899,155.4469741,2.128348687,-56.44404275,0,-33.66821934,42.41205484,-418.1571618,285.4618254,-94.93354576,,,,
541.5679996,2115,31.87875455,66.14379206,1.543234514,-21.36191196,-194.5375576,168.431624,-171.3664893,-178.2957671,-119.0324766,-79.45383975,0,59.92370203,-160.4273128,390.2733119,196.9399072,1276.449532,,,,
541.5759996,2115,-44.3349718,-86.87886726,-52.55321949,-78.7142786,119.4180164,-440.4212385,71.48622737,-130.5216591,-1.782350995,20.87792015,0,26.33767296,-33.98324018,-379.8331132,-94.8709192,117.6138036,,,,
541.5839996,2115,-57.82315122,-10.74183225,-84.03808305,-84.96390241,24.35383486,354.0698641,-139.1221983,148.1254421,-62.30272678,-106.5564144,0,-15.17767827,-35.14947932,67.31839415,438.2988743,609.2822382,,,,
541.5919996,2115,67.26426562,43.22371903,57.98465566,5.872147227,-151.8305507,-296.9177406,-16.99332612,-321.487903,-50.50977908,23.33258987,0,91.06609891,-134.0810065,140.6345519,-158.8234414,936.713324,,,,
541.5999996,2115,-98.6190616,-91.78602779,-115.6079892,-109.5956288,208.8230055,-14.23703428,20.86350321,178.0614174,12.39682536,-37.74173222,0,-37.13387579,48.52612573,-403.0609379,270.4820772,-117.1078686,,,,
541.6079996,2115,34.39469258,64.21141731,-0.73357453,-25.05223097,-194.8866417,179.6298261,-164.3514107,-169.8958948,-99.19780081,-53.17006523,0,66.35192295,-133.4340278,426.6873997,176.1141769,1235.770711,,,,
541.6159996,2115,-55.25376616,-98.9571574,-68.74711283,-94.66691962,129.5850596,-451.9763577,60.05140671,-144.7293665,-9.182812514,12.64542584,0,1.779372651,-23.27692254,-376.5936271,-101.8006809,105.4922255,,,,
541.6239996,2115,-63.46082968,-9.068247077,-91.09894261,-79.65305209,23.90407075,350.4961884,-137.4906404,144.2297084,-69.45565323,-105.2522803,0,-29.88966179,-40.43454271,56.71700191,436.7471251,595.1604752,,,,
541.6319996,2115,36.81167228,19.18527615,21.06765162,-10.71645374,-143.0780537,-289.2594796,-35.05712574,-337.7414302,-62.21248247,28.80085857,0,79.73097349,-132.7489183,156.3231007,-157.1795493,932.9086024,,,,
541.6399996,2115,-124.7788116,-115.3012287,-147.1488088,-128.2261818,219.4149679,-20.39577995,4.824942423,159.7211708,-9.588448503,-53.2079131,0,-67.33032988,40.33733426,-415.9992687,281.8463339,-110.1683476,,,,
541.6479996,2115,39.77494546,77.54312272,11.39858476,-11.03525792,-204.0853032,183.8031798,-152.1022572,-162.9564468,-99.57985438,-52.32393062,0,58.27132998,-142.0110299,404.0662396,186.1924554,1236.263773,,,,
541.6559996,2115,-44.52004381,-84.37994698,-49.29397806,-78.43671592,127.4414829,-435.0191544,73.15585633,-140.942089,5.321738357,32.8774016,0,13.77419893,-3.039341615,-362.6687695,-97.81283842,101.1299614,,,,
541.6639996,2115,-68.53128532,-23.35571941,-80.04577948,-80.31479646,31.54015523,353.7123316,-135.3635795,145.7852832,-55.04366886,-105.2267362,0,-31.06727024,-23.15177227,64.91439071,448.1730787,585.5479034,,,,
541.6719996,2115,25.39286694,-1.709643693,29.87364414,-19.63303338,-148.1994143,-312.5239334,-45.0894218,-337.0315477,-53.31386654,9.380560888,0,71.51560741,-132.9286163,142.0831308,-151.4344075,931.1361917,,,,
541.6799996,2115,-121.9035835,-118.8164159,-130.304336,-124.5653281,220.1811037,-40.93147414,0.622987849,160.1226484,-6.147853964,-64.47251738,0,-73.76790801,47.71723058,-435.8332504,280.121817,-119.1950274,,,,
541.6879996,2115,39.5781987,67.40603927,26.62177638,-1.678432071,-198.1641986,188.8876383,-144.4944961,-153.8885492,-87.88327312,-54.13092578,0,56.48711259,-132.184231,401.6640468,187.626388,1225.304348,,,,
541.6959996,2116,-70.28049671,-114.5489021,-66.69730518,-88.5424503,126.2173327,-435.6350315,70.13449108,-140.2730692,2.618321767,16.54489967,0,3.000467116,-5.058401497,-367.1644332,-106.9122918,92.66822403,,,,
541.7039996,2116,-77.26314854,-26.22580205,-94.43669368,-78.23444634,34.67181881,361.721631,-137.6026085,146.511491,-74.54219344,-116.6807591,0,-47.9560169,-30.60760392,49.39510074,436.3773906,568.1025652,,,,
541.7119996,2116,42.61449793,19.63824303,37.23497701,2.726773876,-149.0696836,-289.9071191,-32.91623118,-331.5338686,-50.09740573,30.7234257,0,76.12992294,-130.7101416,152.8850793,-160.0880678,921.9454647,,,,
541.7199996,2116,-130.4425813,-125.9150936,-143.6588026,-119.9022374,218.0030872,-28.86056707,1.396869751,157.9349888,-5.935356868,-55.06468123,0,-74.68237223,47.53639155,-420.5983445,273.4480797,-125.0425816,,,,
541.7279996,2116,36.40053071,68.67883784,26.60162966,17.51844408,-199.0401516,204.6930926,-147.5902151,-151.5900526,-101.1899555,-55.18758837,0,47.83385778,-146.369518,411.3974275,182.8891758,1223.446372,,,,
541.7359996,2116,-37.10168262,-77.17851155,-29.29714682,-37.37189098,109.9294711,-421.9928159,93.12453639,-124.3810567,19.92854037,54.10890268,0,31.75873808,-7.350070274,-335.779582,-120.9517236,82.16059457,,,,
541.7439996,2116,-66.37428763,-12.2322921,-83.21168644,-57.51686362,19.10809381,365.0450056,-122.6643622,157.4882301,-51.52270732,-73.74509867,0,-7.498610368,-18.52518124,88.70454921,421.2661299,541.8829155,,,,
541.7519996,2116,26.29622019,1.328038183,29.6054231,-11.55540142,-145.1220218,-304.3387192,-40.84045488,-343.1098433,-56.34844306,30.79436253,0,80.72101116,-117.7563507,153.8355473,-170.709898,911.8095275,,,,
541.7599996,2116,-123.4494882,-123.791629,-121.5428231,-116.8289788,220.3929741,-50.01314061,7.834623884,152.5298817,-4.77549299,-63.18272239,0,-76.13109721,73.0831109,-455.87256,265.309634,-140.5427149,,,,
541.7679996,2116,45.24641634,78.19541501,42.63154824,20.96486913,-210.9322435,199.8735211,-144.6617384,-146.5907569,-84.07165946,-38.60494969,0,67.18563349,-131.8198196,412.3208056,173.678359,1197.292154,,,,
541.7759996,2116,-59.2868632,-105.0563228,-44.66216415,-68.26193867,120.1859216,-436.4001856,63.2131338,-144.4099439,12.69413993,45.22833749,0,22.109499,-10.28758509,-326.6039958,-125.4815701,71.78655857,,,,
541.7839996,2116,-67.56409325,-24.82305506,-82.34474064,-67.90660434,40.94714719,360.1680472,-147.0603224,141.2272744,-67.72593168,-105.603644,0,-39.5351817,-14.94717867,61.66756833,437.603179,548.5431862,,,,
541.7919996,2116,53.02331516,25.99660701,46.13011131,14.44890011,-159.9938688,-284.3341026,-37.74015833,-329.4212957,-46.50012826,41.10613886,0,87.73372348,-130.0499383,168.3544474,-169.7180644,917.3243357,,,,
541.7999996,2116,-128.7508693,-126.6395011,-133.8106981,-116.5062374,211.6607975,-39.91235803,4.23693715,161.8437532,2.798614556,-48.65170141,0,-66.93765567,65.37115116,-420.5048887,250.3527506,-149.6451374,,,,
541.8079996,2116,41.10392561,75.41385071,33.4123853,22.05696411,-189.8569998,214.8212606,-146.4937244,-152.1096625,-92.76542331,-49.94750513,0,53.14417621,-112.7730429,410.7643655,182.5306458,1213.402282,,,,
541.8159996,2116,-29.40249146,-129.6963548,-14.92538429,-47.34134537,167.2162035,-902.7817209,207.6440306,-319.0717276,64.14069776,144.6763216,0,63.10012958,-1.539304368,-559.6279742,-467.1025875,-183.3198579,,,,
541.8239996,2116,-119.0887437,-120.1286387,-128.1103599,-112.3473521,216.6882574,-26.83764687,20.80056233,166.1831914,10.11697985,-34.66521463,0,-49.75681816,56.59743402,-391.6836562,239.1096911,-142.7881487,,,,
541.8319996,2116,35.85464918,82.61409817,23.96843842,15.21875474,-199.7297725,316.4849704,-150.5699724,-96.89897619,-99.42709569,-64.88017557,0,48.49590452,-128.4593634,458.0806052,242.2581119,1238.956793,,,,
541.8399996,2116,-49.63449243,-72.55145097,-42.4799662,-57.66464477,83.24007488,-281.8949884,53.20477413,-110.7459021,-12.17779672,18.4791996,0,13.63322703,-32.84406912,-199.9244714,-43.30660892,253.141772,,,,
541.8479996,2116,-52.4648192,-46.01088006,-51.89068315,-56.27612367,69.95971111,11.74859128,-13.26526777,15.49385154,-38.65681651,-38.00729944,0,-10.95729271,-29.97423649,-77.55141888,164.1020634,393.0925839,,,,
541.8559996,2116,4.119855192,31.59084226,1.686044017,0.023639464,-42.45433683,169.9864592,-55.0747167,-11.65996398,-56.75439466,-32.32742944,0,29.74626208,-69.42327234,175.8398322,189.5530476,760.1032757,,,,
541.8639996,2116,0.340355793,-14.35720777,2.746157592,-14.45961219,18.47611791,-211.766312,48.88000243,-116.5545528,-8.78812336,36.85529869,0,48.03994006,-39.93184969,-72.40183175,-55.86781654,424.4708273,,,,
541.8719996,2116,-34.28075793,-14.5228366,-41.04698267,-41.47797782,67.34145984,114.3281632,-5.600938498,98.45975376,-16.17828804,-27.67455281,0,0.254924341,6.91703405,-81.9441928,231.137315,328.9335183,,,,
541.8799996,2116,35.26341671,52.46398549,28.34718134,8.569832741,-95.86288459,85.2307729,-44.54675115,-90.18136189,-40.12738902,1.951698103,0,66.46238206,-74.40897703,231.1192719,98.3423472,837.3177676,,,,
541.8879996,2116,-21.94630418,-47.22093701,-31.22668989,-48.89065383,93.03021677,-257.6181362,62.45331605,-85.93158154,11.19800075,39.8589767,0,32.51110397,-8.818455183,-203.5368537,-50.74128322,191.9533538,,,,
541.8959996,2116,-14.46742993,26.71690657,-38.98711488,-35.4645738,13.96506845,312.1115006,-78.31201318,117.853034,-35.10364601,-45.1969959,0,10.72325635,-18.85486175,98.46204968,325.642294,541.3415019,,,,
541.9039996,2116,58.68006901,41.58734554,50.83670303,14.79489048,-93.34572289,-212.2634563,6.683769562,-238.2643021,-15.45428205,62.30797818,0,97.95691788,-75.70082406,129.2408325,-136.5718682,740.0763939,,,,
541.9119996,2116,-81.15457063,-75.68947133,-98.8344319,-85.64773388,188.7541445,26.67272053,6.901310778,136.1969441,5.218732483,-19.19210698,0,-25.03287529,56.36001635,-289.9707845,230.3139431,-12.63354978,,,,
541.9199996,2116,56.04788247,84.5341587,36.74546789,25.11233203,-156.9277967,202.4111725,-97.26164038,-104.8369087,-70.00279823,-17.00698146,0,73.3012526,-105.2402712,364.0885929,163.0944695,1053.308331,,,,
541.9279996,2116,-12.87359105,-49.33636445,-14.91808974,-31.1313995,96.54101727,-352.5584008,106.5274562,-107.1131967,18.60597076,64.33830223,0,49.97902833,-9.110146436,-255.0470527,-117.1698943,128.9381202,,,,
541.9359996,2116,-44.69416986,0.23217993,-60.24730467,-45.20593171,54.32709743,372.4294234,-75.77012768,178.0291347,-43.14917969,-61.53026671,0,-1.119561479,-0.868806747,72.72605041,385.9272136,484.574629,,,,
541.9439996,2116,65.00979449,44.31507793,80.92417689,37.10686752,-130.2532821,-208.9465711,20.4146986,-265.5878388,-30.47055988,54.19135414,0,99.74522558,-89.26158841,180.5984339,-157.3615958,863.0340255,,,,
541.9519996,2117,-110.5386518,-105.1299788,-99.58982682,-90.40922963,219.3538377,3.865264369,53.91023044,186.4785149,15.2552242,-22.43549593,0,-44.72380498,80.08211621,-358.6009238,229.9145758,-144.6995802,,,,
541.9599996,2117,28.64364417,64.16990418,17.04906583,5.473202057,-163.2459455,235.0703825,-112.4624808,-102.0700302,-93.03965074,-40.43279259,0,52.11774827,-101.2680553,426.7894467,181.763824,1127.34641,,,,
541.9679996,2117,-33.43343418,-74.34993477,-26.12787671,-45.26908248,111.545473,-384.1933915,105.5898576,-120.7520822,1.677967818,48.59461814,0,21.73315158,1.935064068,-287.5306581,-126.1590636,102.6696119,,,,
541.9759996,2117,-57.02034222,-6.841827201,-68.36043976,-50.89943785,56.11506093,391.3726452,-81.04085273,186.6674641,-52.56246235,-71.39446214,0,-17.11352919,-2.151988547,75.04715497,411.3333702,476.3840202,,,,
541.9839996,2117,59.76454276,42.04387359,53.54449617,19.90900181,-142.0840666,-231.8848648,3.449288361,-295.6633674,-48.01832809,48.4593075,0,92.45662466,-106.0956094,205.0184427,-156.7961716,905.2383298,,,,
541.9919996,2117,-103.9377916,-98.12474989,-111.4309901,-98.00616147,211.1338824,-16.37999651,44.0455816,172.4017403,4.752792801,-27.23071194,0,-55.28689004,69.02892784,-400.50528,241.8946314,-164.0501935,,,,
541.9999996,2117,58.11650388,95.66366563,46.13844366,30.31589632,-191.9666252,256.8650348,-109.5414537,-113.9565379,-85.26931561,-21.53277539,0,71.12401185,-112.972903,424.4981023,183.7239285,1153.280719,,,,
542.0079996,2117,-16.0335912,-61.01355361,-13.09633275,-30.10876548,108.0303412,-388.0230095,116.4594243,-132.056232,23.9287673,75.65955029,0,41.22375685,21.19038916,-282.7338586,-135.7009196,85.11863499,,,,
542.0159996,2117,-44.05712303,3.013667572,-61.06614086,-41.95781721,37.3251276,390.170979,-81.77037423,181.0830491,-37.55316152,-65.5006866,0,-16.46815142,27.88183283,96.18826659,416.1141759,474.7261006,,,,
542.0239996,2117,72.96426815,54.25525295,69.18822481,34.9161025,-167.3011658,-229.1717456,7.15305643,-295.9474312,-35.52149866,62.64457326,0,101.1830522,-88.21017748,227.1937049,-175.2536005,900.232284,,,,
542.0319996,2117,-103.8941596,-102.2499581,-115.8238927,-96.38777211,217.2626384,-4.079968989,45.67840748,177.410625,13.50436561,-14.03879133,0,-55.3021516,89.22649004,-381.5229158,231.9146727,-189.9266667,,,,
542.0399996,2117,60.79035027,93.50570433,39.85087594,26.94124468,-196.9146175,266.762842,-110.3557584,-104.709679,-84.107171,-27.15473433,0,52.19435811,-101.6694032,443.6727033,186.8060595,1164.035252,,,,
542.0479996,2117,-23.03073882,-63.91461848,-16.98114729,-36.35141205,92.59836877,-394.0531232,116.6001925,-112.1167407,22.55055445,69.62849088,0,22.87326659,21.03221463,-291.5798902,-148.1428155,76.73297471,,,,
542.0559996,2117,-63.65286425,-7.30225741,-77.53463622,-52.13917169,28.49185513,399.2374917,-95.2639296,185.9221726,-50.68997384,-72.13842997,0,-39.22798758,23.47766158,84.95460406,412.1979537,468.7516678,,,,
542.0639996,2117,71.88400252,55.87442388,65.20779714,38.98100741,-185.0796936,-220.851269,3.218786793,-299.7277811,-43.80561171,59.53278641,0,77.27008315,-102.4085134,221.6416688,-176.6919994,913.1053079,,,,
542.0719996,2117,-104.8147695,-100.601608,-110.767546,-91.57214841,190.876363,-15.25040315,52.17087213,180.5811318,22.23783423,-9.532407972,0,-66.67387144,84.84466911,-388.3037646,212.3207773,-207.3268941,,,,
542.0799996,2117,38.4833744,78.15275985,27.90935788,13.89549431,-212.7440908,257.7395748,-121.764726,-122.0004238,-81.62488069,-32.07672053,0,36.43361455,-89.01206556,450.1090042,172.7763107,1148.670359,,,,
542.0879996,2117,-34.70296471,-74.5610675,-25.29806156,-47.96949914,92.31191012,-403.9098818,107.385349,-131.1598253,19.45313402,59.83540835,0,2.126171898,29.04686616,-286.9885474,-147.3066213,81.16658621,,,,
542.0959996,2117,-58.41783468,-7.654472002,-70.05651873,-55.14109361,32.06817759,393.1981356,-89.30666061,196.9095662,-50.77834815,-72.30577083,0,-46.02009228,25.76372374,78.57535844,414.715873,462.6824991,,,,
542.1039996,2117,73.68016085,51.9148564,74.94136371,33.32659674,-176.3702748,-217.2999287,1.741228327,-289.6851411,-47.39772164,57.42947326,0,74.15677344,-102.3602905,217.8807906,-176.1879219,905.8800993,,,,
542.1119996,2117,-99.51968829,-101.1716079,-99.21635657,-94.95376007,205.4396441,-11.96630926,48.67311251,190.2504327,23.48312773,-11.556632,0,-73.17234722,86.2069882,-394.0367746,215.9463329,-214.5905822,,,,
542.1199996,2117,44.89286395,77.57843088,30.5650395,11.77855903,-206.692718,259.5531469,-125.8277867,-104.31349,-83.14027747,-29.36329969,0,28.24795551,-96.91101132,447.6810393,179.7500493,1144.586736,,,,
542.1279996,2117,-30.67850351,-79.27857877,-28.07059075,-44.90841089,91.63016232,-403.286665,101.5787051,-122.3963302,10.77482673,57.27593806,0,-11.42359768,6.532698282,-294.0642374,-150.537009,70.65398075,,,,
542.1359996,2117,-49.48554799,-4.021828433,-63.83806795,-43.292356,26.79805346,398.3659626,-89.82008658,201.1924473,-44.7711592,-68.5515005,0,-53.11695647,8.01036918,77.58411189,404.67975,436.9046671,,,,
542.1439996,2117,68.97080632,49.7080178,66.84340002,31.59203203,-179.2856856,-221.2311346,-11.76242554,-304.0083918,-42.5655442,63.12552613,0,68.99138979,-123.3278411,240.7443954,-183.6040733,897.4629048,,,,
542.1519996,2117,-106.6508954,-103.6705917,-107.9170051,-92.37579511,213.8166231,-14.68307793,41.91670115,180.5608152,15.99106493,-13.14638061,0,-80.99336734,68.79913233,-390.635085,213.3238827,-219.4594838,,,,
542.1599996,2117,57.69490507,96.53501412,51.31721163,38.20643138,-213.1221547,272.0830652,-108.4735653,-88.70858374,-83.66331632,-20.72848255,0,36.98129477,-96.017244,439.1762909,173.118625,1130.332283,,,,
542.1679996,2117,-28.97591914,-66.62148218,-16.29480089,-32.4149428,83.50099918,-407.6056296,111.231895,-119.3715861,11.91825955,77.57706994,0,5.873004325,5.224463636,-277.6010419,-174.0893889,49.22616341,,,,
542.1759996,2117,-66.48789743,-10.95559136,-72.42099725,-49.69607607,46.18590686,389.277811,-90.93175285,200.4050105,-52.54760038,-60.04530738,0,-50.85507675,12.83177809,88.59793238,385.3282962,410.4497921,,,,
542.1839996,2117,61.79468584,47.36864605,74.39196638,33.56354514,-166.7247764,-220.2621491,-4.617536017,-292.0383203,-54.92740558,55.21875521,0,59.31470483,-98.49789448,229.0721534,-193.3876333,885.2587747,,,,
542.1919996,2117,-124.361979,-113.6310314,-108.3126133,-101.0942059,220.2509887,-25.12286118,39.96028483,182.3491557,3.412260175,-16.07739197,0,-88.88002764,83.93996097,-401.7195834,202.9450104,-240.342718,,,,
542.1999996,2117,20.94788276,66.92081891,26.03890022,8.498844629,-189.7281895,257.0385259,-137.0852716,-109.6118581,-105.9914404,-27.43755383,0,22.67139865,-105.35376,443.0351691,177.3830258,1122.618211,,,,
542.2079996,2118,-34.36482068,-76.35260787,-17.36150861,-44.7433992,89.60487022,-424.2178557,96.13989148,-137.9011898,-7.61283879,60.50831549,0,-14.51005266,-11.00667616,-278.8075044,-159.015976,66.13854251,,,,
542.2159996,2118,-56.29740559,-4.666996562,-61.52030761,-51.43164219,35.98092867,367.528534,-88.18146418,196.7165289,-47.9820987,-67.83278927,0,-58.49458453,-4.343119591,70.38404391,397.5341584,408.0305443,,,,
542.2239996,2118,57.7267935,45.28877611,64.64680187,23.57942283,-162.9719014,-245.0530842,-11.56278145,-308.1757388,-47.30180495,59.6798899,0,57.40448604,-114.703636,224.0389397,-185.3439152,879.7397507,,,,
542.2319996,2118,-113.4610548,-106.5811812,-114.936293,-102.732675,223.146045,-49.05236551,40.19110918,167.4775442,5.012978755,-12.54470989,0,-100.7700501,73.5129561,-394.4291363,213.3931195,-252.2840907,,,,
542.2399996,2118,28.33796758,69.17394627,14.51392181,1.409523277,-191.3285086,243.9458378,-134.1690498,-105.2445868,-93.6416441,-31.57099169,0,9.883889726,-108.1281951,437.5089468,188.4663911,1096.749953,,,,
542.2479996,2118,-63.75852806,-103.6749208,-59.64866826,-73.70453454,106.2579608,-436.3893102,69.24062525,-150.5088895,-14.10703663,42.01418125,0,-40.20095847,-12.34568783,-304.5978439,-144.0018567,52.96477638,,,,
542.2559996,2118,-90.25500233,-34.51946738,-100.2830399,-73.01413562,57.16632137,366.1575675,-131.7642554,171.7922435,-85.59025097,-91.94994936,0,-96.5249362,-15.65295437,49.1227325,429.7297682,408.9245305,,,,
542.2639996,2118,48.90527518,38.17074779,62.13438409,31.07119169,-164.1010188,-233.5906877,-25.14028495,-307.1165056,-66.69456448,57.66824834,0,51.13455369,-123.4828565,227.3269784,-164.6227412,879.7611786,,,,
542.2719996,2118,-124.1689506,-115.1689283,-118.3678348,-97.76027088,218.7127722,-48.7235669,30.43100658,173.9030721,-5.07864738,-13.97800559,0,-94.89696803,72.24880312,-406.3730683,216.4240119,-268.264385,,,,
542.2799996,2118,14.42128389,62.52721291,8.787536528,2.524205737,-190.9824231,244.3327363,-160.842822,-109.288142,-116.9098663,-41.40605656,0,4.03961076,-119.9268822,420.2502508,195.6811033,1085.257392,,,,
542.2879996,2118,-69.28551828,-100.0212007,-43.07959263,-64.87302393,105.9856721,-439.8026575,64.21791509,-147.7131708,-27.00738195,45.27395025,0,-38.11594571,-21.29097162,-305.7873389,-142.2844711,44.61676018,,,,
542.2959996,2118,-107.8376898,-51.21945321,-101.6586946,-88.94298789,69.83508349,355.738904,-140.875028,170.4382353,-98.41279377,-96.58064028,0,-104.6968015,-5.077698507,30.33886009,438.1071567,394.8322191,,,,
542.3039996,2118,23.95488603,4.424750821,30.02089131,-6.096596703,-149.7139862,-246.1362693,-61.43143251,-332.3004488,-98.69565146,29.30939945,0,13.98840579,-128.0733778,201.3408402,-138.9111527,897.221095,,,,
542.3119996,2118,-149.0299821,-147.6562284,-146.6083823,-131.9883149,227.5635407,-72.73870356,2.769290241,143.0926777,-41.8687462,-43.97672194,0,-139.8296896,46.52607828,-423.4398597,246.2260229,-236.3844387,,,,
542.3199996,2118,-2.939508371,35.21414021,-8.66818371,-27.06674606,-182.90905,222.1108102,-174.9597428,-131.2734971,-141.0613624,-57.15851214,0,-28.3757982,-127.6149958,408.1762356,226.5849275,1116.003442,,,,
542.3279996,2118,-71.36220993,-119.3989418,-63.16384737,-83.11256771,106.9159073,-459.0425713,57.20500162,-167.9269665,-36.46410479,35.4669694,0,-61.27098088,-20.22964392,-315.075363,-116.0611804,80.47912714,,,,
542.3359996,2118,-98.87391098,-50.09633842,-111.2438232,-86.2624696,58.12366889,339.1388979,-125.6004823,169.7473615,-105.4145091,-97.13539647,0,-116.5015563,-21.15455632,25.21104572,452.8800475,412.1865531,,,,
542.3439996,2118,40.05529504,21.02990231,42.11971257,1.309125013,-165.2634193,-260.8182741,-38.38924971,-320.9553552,-98.42881585,42.55869778,0,16.43834788,-142.9422728,200.1068711,-146.1854385,895.517667,,,,
542.3519996,2118,-146.664925,-145.3898519,-137.1887736,-126.5351683,226.2760477,-76.93695229,20.17831195,158.8744958,-28.04527265,-27.72954309,0,-133.8224706,47.90977481,-425.5260135,224.316019,-259.591824,,,,
542.3599996,2118,-10.00882513,36.34436182,-3.833814475,-9.31078918,-186.4484965,240.2986065,-154.2745902,-104.9637222,-153.5806015,-44.58436643,0,-22.77884577,-137.0593661,419.0474683,202.9884708,1085.884664,,,,
542.3679996,2118,-64.9801916,-101.561221,-58.05197519,-73.6979586,96.65927513,-448.9525565,67.76178119,-153.230247,-67.11345137,54.79190936,0,-51.50298161,-40.57543373,-306.111396,-155.1181527,43.66478507,,,,
542.3759996,2118,-94.46127456,-37.45158825,-114.2957351,-86.0473953,54.94434832,342.8915838,-130.483168,179.860415,-111.356488,-74.03658113,0,-111.1077521,-34.28919379,26.53159922,412.3819399,360.7978099,,,,
542.3839996,2118,37.60986051,28.34079635,48.27037434,19.24302964,-169.2363304,-251.2003027,-37.88476207,-309.6301117,-106.7163223,58.8702119,0,20.11250502,-159.8246472,216.7158828,-181.9685037,853.9280578,,,,
542.3919996,2118,-132.0705885,-124.2473304,-120.8713689,-108.8009303,231.893347,-71.84440862,23.75832697,158.229853,-39.08106856,-8.013157522,0,-120.5035626,43.76921682,-411.7891605,191.989416,-304.3881969,,,,
542.3999996,2118,26.07641477,75.17965285,21.82711742,11.34970782,-186.2466579,249.5980214,-149.6272627,-105.9895075,-133.5113941,-18.98978847,0,-6.048575171,-130.3726853,432.2804141,184.5153676,1045.702862,,,,
542.4079996,2118,-14.86569423,-50.9173254,-2.489519452,-22.24032002,84.04846797,-437.9367644,107.3609984,-130.3899754,-25.72785005,97.84631114,0,-16.19299272,-30.61852216,-270.9224497,-190.7590102,-4.428500416,,,,
542.4159996,2118,-49.06053901,7.612318724,-61.56065931,-39.91064483,55.51367549,368.7197624,-78.09494761,216.2375723,-61.94644331,-20.68147442,0,-59.19283008,9.14030072,71.09018792,370.0114585,283.1836996,,,,
542.4239996,2118,64.27527644,61.30425399,71.68828032,42.94862194,-173.4902902,-207.2669215,-8.148782623,-289.1432885,-61.19196979,98.36343511,0,59.89153,-110.8882798,260.3592637,-202.4120891,797.4559865,,,,
542.4319996,2118,-107.8957134,-93.93765417,-100.347327,-77.21178503,220.215371,-45.73952308,61.64879351,183.3588007,-9.082234007,26.78334157,0,-89.91288956,68.45212911,-376.536238,175.8280642,-351.9619095,,,,
542.4399996,2118,36.3340739,86.59158512,25.53748082,27.91933983,-179.7235831,271.6006873,-120.6905247,-73.98652048,-111.897597,4.703580366,0,15.14751446,-102.7293133,459.1990544,173.2863833,993.041628,,,,
542.4479996,2118,-52.37534324,-85.18985025,-41.1796338,-49.12324378,108.760812,-416.2580069,86.06348895,-134.4662264,-26.76042705,81.55811318,0,-31.11531488,-4.091634602,-259.4788964,-176.6673395,-18.05881375,,,,
542.4559996,2118,-91.07084837,-32.85135584,-96.23167848,-65.24444065,75.61485106,363.4641384,-111.4608991,194.9689899,-92.46924387,-62.23402381,0,-100.7804911,18.62060646,54.35223491,408.5510634,306.9544411,,,,
542.4639996,2119,68.90054366,61.44097433,79.85261664,58.24423223,-171.6289644,-206.2813992,-10.08553425,-283.8110585,-78.8339082,82.79121815,0,43.42264546,-97.42339251,250.697666,-178.9664538,825.6590735,,,,
542.4719996,2119,-96.08073034,-87.71762997,-86.39697515,-58.32198068,223.9557971,-20.10731209,66.90657229,205.2196203,-5.459059961,31.35770372,0,-86.60484644,88.9136588,-367.3309131,182.4452172,-339.4563861,,,,
542.4799996,2119,40.19051543,87.33151542,39.53697481,39.09095658,-174.6684299,295.0788758,-119.4256752,-54.41552567,-107.3736463,7.339447881,0,15.77206319,-86.2784002,467.5961608,188.0305906,1012.388642,,,,
542.4879996,2119,-36.35273182,-74.04158368,-7.268589898,-25.70282315,106.0548549,-403.2250184,107.5636613,-113.2088254,-16.47362181,94.57417664,0,-16.24093648,12.89718191,-243.4751239,-171.8544445,-0.49249473,,,,
542.4959996,2119,-82.09628932,-30.32735802,-74.1268044,-54.67116295,80.52499413,379.2804804,-92.42600695,215.7888181,-87.79792933,-59.47846829,0,-87.60572618,28.92523646,77.6560038,414.7329853,312.9023948,,,,
542.5039996,2119,59.27710745,50.44945413,70.57371489,45.14467116,-166.7712927,-197.5250081,-17.95198048,-280.8283465,-89.71540313,69.5639988,0,42.35804681,-104.6092881,261.8932762,-168.0035169,850.6648609,,,,
542.5119996,2119,-111.1220939,-104.3899132,-105.6988015,-78.01037091,220.8726748,-25.11221782,50.6100034,195.15728,-20.82675655,16.66575838,0,-91.88317244,66.86635691,-380.3931726,180.1406949,-322.5857735,,,,
542.5199996,2119,31.79914788,78.61107219,28.05759972,23.88473791,-180.5663939,294.4882842,-134.9944922,-68.91137234,-120.3209024,-11.80599962,0,8.175362366,-109.0246577,453.6420938,184.0894727,1027.745804,,,,
542.5279996,2119,-23.44061568,-52.40924685,1.424348701,-14.58654698,90.19726554,-399.6315821,111.4308787,-116.8374663,-15.55488473,97.81792531,0,-9.025808826,-2.461297069,-253.1231927,-193.8913439,8.902122878,,,,
542.5359996,2119,-54.44907703,6.320784313,-48.09450065,-19.15191466,61.72417245,396.0024983,-63.30503253,243.1832089,-66.17181364,-23.25219506,0,-58.19501265,16.84325761,76.34515347,378.7590794,285.2883262,,,,
542.5439996,2119,82.74982084,76.68951445,102.3290425,79.54291646,-173.2059776,-185.7843726,13.93382494,-256.4337403,-58.88247992,108.4494002,0,76.09708353,-107.5604618,290.6360544,-198.5595577,822.6439701,,,,
542.5519996,2119,-83.79331244,-73.7728154,-64.01165851,-37.81920714,226.3836536,-26.9536357,92.87484559,216.5054378,11.15885763,49.53435511,0,-62.54015864,89.13674411,-349.6953881,148.4150891,-368.1785948,,,,
542.5599996,2119,50.30739803,101.229142,55.62907688,58.1643487,-176.295297,308.1751458,-102.3651377,-40.78560788,-97.71622611,14.74515989,0,31.64615623,-82.07071838,488.5335634,165.8301649,978.8361571,,,,
542.5679996,2119,-21.02804929,-51.44798381,9.098089926,-1.948771692,99.49463319,-396.1960409,118.3790774,-110.4402805,-8.186948213,108.3410598,0,-0.61727336,0.260550206,-217.3670461,-203.5473962,-23.81040162,,,,
542.5759996,2119,-47.21975213,13.08609773,-39.48200417,-10.58424965,90.12816146,395.6386832,-54.53085362,250.795978,-60.74741194,-19.08197545,0,-56.50729201,21.42810236,92.92622414,376.1871289,244.8117094,,,,
542.5839996,2119,77.5295455,69.06939832,87.58071483,66.78662262,-144.750405,-177.7248688,6.77761205,-255.9096821,-68.16026649,102.0889737,0,68.20138724,-103.0125641,297.2049644,-183.9735723,814.4834135,,,,
542.5919996,2119,-106.7781136,-104.1915169,-93.56821451,-71.61354899,247.1393747,-33.19218807,69.74305021,198.2133225,-13.18625273,20.90632925,0,-93.21336528,71.08941528,-378.5889907,166.337281,-368.6850636,,,,
542.5999996,2119,54.47557345,101.7253031,56.50447287,52.88642185,-167.8762226,306.2664562,-98.57096465,-40.31814364,-101.0649064,3.077125953,0,15.64860401,-92.4823938,461.3165732,180.3712128,967.7349505,,,,
542.6079996,2119,-16.57151975,-53.91144115,-1.902410504,-9.848603173,93.09324864,-407.5797438,123.7043057,-107.1478443,-1.677013586,114.4508951,0,2.447728506,2.584987328,-215.0015427,-201.6334548,-36.50876505,,,,
542.6159996,2119,-80.14673796,-29.38875777,-83.70311467,-53.02348925,84.83090974,377.1003775,-76.86777103,237.8380914,-77.58701164,-44.62716831,0,-80.69503841,15.67459661,70.82143954,378.143946,222.0898173,,,,
542.6239996,2119,71.82440454,58.43372412,84.71097096,58.84125543,-154.1677531,-176.6892602,6.811435673,-262.5549479,-84.31016028,79.75425612,0,44.11989776,-107.2523713,278.9983077,-180.7473107,805.4535135,,,,
542.6319996,2119,-137.0794242,-115.8750316,-131.0148522,-85.40386912,332.1065592,182.1675427,76.87899246,407.6906825,-0.496307134,-8.346720735,0,-128.8666015,118.0091356,-426.3875859,351.8899192,-620.3396423,,,,
542.6399996,2119,16.71750425,146.7058883,-11.4557752,37.68215686,-172.8494064,1091.698593,-248.4707607,345.9703654,-145.0729776,-120.2850461,0,-34.086774,-79.95145859,796.9918192,709.901262,1167.405634,,,,
542.6479996,2119,76.63282382,111.7286282,68.7392552,75.30777434,-178.0223688,269.3912251,-58.74264117,-45.97775472,-89.79588622,29.73443898,0,39.88186405,-105.4223934,506.9512594,94.2276491,955.8895972,,,,
542.6559996,2119,-29.03635255,0.174429813,-30.87473547,-6.819105967,59.86421076,214.6281115,10.92292726,176.4750738,-47.79184542,9.01848327,0,-45.36725664,-0.405743349,47.12112123,208.0100402,170.3329877,,,,
542.6639996,2119,62.74636444,40.6137963,68.35131879,54.57440383,-86.38272204,-274.3522786,97.52170851,-165.4239589,-37.20988159,108.0208675,0,38.48293852,-81.68202646,87.872679,-244.110299,417.3274747,,,,
542.6719996,2119,-27.23774987,-13.46414288,-32.10906103,-12.37757246,111.8826353,82.88038785,72.1750536,196.996694,-4.658382113,39.07052911,0,-47.42699354,17.82473162,-141.7144354,117.6086778,-114.9707944,,,,
542.6799996,2119,63.13295479,95.17107255,57.06161587,51.68023207,-135.4381923,196.0194213,-24.18818843,-19.75213609,-53.40647609,40.19188964,0,28.40955217,-80.84740394,356.8755854,40.95253154,697.7721021,,,,
542.6879996,2119,-7.618934783,-26.43732929,11.54803302,11.64348656,72.0235152,-350.8352312,155.0023752,-72.51878837,-3.930743411,124.0674977,0,14.42576606,-8.604381623,-190.4358064,-258.5052914,-92.11522487,,,,
542.6959996,2119,-41.21699865,25.53486124,-54.08831903,-12.88626406,35.740951,395.6020119,-36.21911178,235.1053594,-79.83755007,-6.907197667,0,-38.82002926,-10.91429626,146.8037198,274.5358339,232.512733,,,,
542.7039996,2119,90.6244409,83.18879686,78.95983672,65.01239979,-151.527011,-223.3747855,64.23808605,-226.3612575,-59.82439556,110.2324454,0,57.75454049,-107.5137661,209.6537113,-272.0131301,597.1265866,,,,
542.7119996,2119,-61.07015239,-42.11720588,-61.73646331,-28.50547626,164.6500576,-2.023445429,111.4945796,210.2427907,3.515652873,64.11227028,0,-53.12145419,50.74074019,-289.6585079,68.98543198,-373.1975829,,,,
542.7199996,2120,48.30996075,99.9591114,38.77914289,45.77083381,-166.9951946,269.3123636,-55.93172716,-14.92980335,-89.63683889,36.44783746,0,33.81580082,-86.02736675,442.7483299,70.82988613,787.5182348,,,,
542.7279996,2120,13.00077675,-15.45095928,21.45374774,9.702771447,72.43060093,-395.190032,159.4053177,-90.30076239,-11.59314494,121.5316649,0,2.482976235,-10.09797349,-213.6042494,-281.6270582,-105.3050107,,,,
542.7359996,2120,-25.98495633,32.65721626,-31.25184273,-2.885605698,62.0290628,390.8661073,-15.76328051,269.0391777,-41.59348209,16.35080735,0,-33.5430733,8.91910269,97.05841746,260.2269455,114.8325183,,,,
542.7439996,2120,90.03433578,82.18109978,89.14332076,65.78958166,-165.947342,-184.9769675,42.60678403,-236.8934743,-48.16925988,126.80666,0,78.68724476,-98.41794909,292.2097316,-292.9513176,649.6996641,,,,
542.7519996,2120,-64.95053485,-59.65672622,-71.86275259,-47.52622404,193.012905,-42.30334587,110.9396019,204.6319256,-2.735031344,51.75368837,0,-77.41650218,75.85491525,-343.8228308,36.41078642,-478.4750517,,,,
542.7599996,2120,74.31272686,120.3005991,59.75131045,62.55370017,-191.0841506,301.4175613,-59.42044695,-6.903303769,-80.29880502,33.71092872,0,28.99943742,-70.11981168,463.0543672,52.99481084,784.7073202,,,,
542.7679996,2120,26.89823283,-5.279867303,35.34693932,25.12514113,48.8387087,-397.8246276,172.8629224,-88.46039074,15.80452562,150.3171688,0,26.73346008,18.45303585,-185.1512465,-337.4160759,-148.3389177,,,,
542.7759996,2120,-31.41825719,26.53712477,-40.07645152,-9.701119921,51.56829871,378.4358302,-5.360151681,276.655273,-39.68327869,20.1241071,0,-40.56319744,35.71541772,91.3667507,223.6373032,37.95997742,,,,
542.7839996,2120,95.32570666,89.14580578,96.4890322,78.14374242,-198.6690376,-172.4064208,48.27780785,-229.9828077,-44.86230834,125.7104589,0,67.5317664,-95.66678245,317.6910353,-325.8531002,648.9799932,,,,
542.7919996,2120,-67.91423905,-62.3755671,-71.14692878,-39.8355338,200.0634016,-50.80967637,128.6419718,222.1735021,22.43410392,73.27458406,0,-71.84308641,84.88965648,-343.3022458,-12.7682953,-558.1214163,,,,
542.7999996,2120,55.70070397,104.1549301,40.18393036,45.73083693,-181.3922572,308.0682996,-70.1917381,-17.15780293,-81.81601855,27.90614625,0,14.1318342,-73.85611146,477.8794312,28.09763159,755.3227889,,,,
542.8079996,2120,2.906171292,-33.59337814,7.356377827,3.433354234,61.65712566,-409.4197341,154.9470986,-110.9412362,7.247314797,123.4051026,0,-9.313876577,7.746500715,-203.8188423,-358.3636235,-176.9716836,,,,
542.8159996,2120,-39.76583663,13.82414841,-52.38763615,-14.17829522,76.05737189,381.4651584,-9.574178108,276.4661468,-41.33719054,4.985309473,0,-59.4463727,37.22106622,82.73063064,215.2483572,2.545416464,,,,
542.8239996,2120,91.0896317,82.62529093,94.36484365,74.53857396,-181.1976734,-162.6269154,47.27189733,-234.4919701,-51.97383447,111.2618269,0,62.18541295,-94.98891294,327.7374268,-329.3626448,644.4806598,,,,
542.8319996,2120,-87.4009567,-81.39835335,-81.73409217,-49.76209327,214.295744,-55.46999861,125.9504798,222.2743925,16.72591879,49.44781676,0,-88.99512684,83.30602806,-363.2676612,-12.08301499,-571.9016628,,,,
542.8399996,2120,58.43244114,111.5602117,53.72674453,66.93078304,-188.3118164,327.9362894,-55.16297183,8.352276739,-81.46275768,35.96645058,0,15.84648252,-76.49973621,486.185648,34.81300906,761.2292563,,,,
542.8479996,2120,10.84527804,-25.65999629,25.56666265,23.81394959,48.43108216,-397.3028112,173.7940375,-94.63592153,11.10549076,143.7741561,0,7.727972902,3.118450264,-178.3748308,-375.3721403,-187.5833369,,,,
542.8559996,2120,-56.33778965,-1.419914545,-60.9532983,-18.56850976,72.63178117,381.0332722,-21.19990927,274.2163496,-41.60436759,-7.625200313,0,-66.50171684,40.72595637,76.94827088,197.5377305,-17.40447759,,,,
542.8639996,2120,91.86334298,83.89235875,99.37631417,88.71076085,-196.6536836,-161.2354015,37.30058993,-236.0755908,-50.35559098,113.1464323,0,61.36881492,-81.31922906,320.12464,-343.8139579,644.8594967,,,,
542.8719996,2120,-79.19783052,-81.60458165,-71.13078233,-33.15267094,195.0114151,-62.93318757,125.6136872,213.707604,19.79062363,59.519162,0,-81.48081235,97.15030323,-357.4762,-37.97425766,-595.4724892,,,,
542.8799996,2120,44.91961647,96.60147095,42.09984298,64.10885575,-196.5689945,325.9873071,-68.9550562,-5.711837767,-86.37160236,18.35043018,0,5.085034575,-72.98364677,487.5097186,10.42882742,730.00617,,,,
542.8879996,2120,11.51988977,-19.34254709,22.56915641,30.61727207,36.77527195,-398.8278902,172.2340218,-102.4025501,6.789852416,135.1666632,0,0.274896104,-1.145754338,-182.9157277,-395.124785,-204.4587224,,,,
542.8959996,2120,-37.55195523,16.63421684,-49.33398045,-8.054967357,50.47597367,377.7655814,-5.464733009,275.296243,-32.44017922,4.340280276,0,-60.03517048,31.21542115,76.65417132,173.4142917,-54.18701444,,,,
542.9039996,2120,89.38085386,82.37800099,95.53768619,79.22684453,-212.3903885,-159.2282357,42.11064931,-234.4334307,-33.77532367,124.5503175,0,65.4170114,-96.05312081,325.8005636,-384.8572188,591.4316605,,,,
542.9119996,2120,-87.94605291,-90.82204064,-83.65640021,-50.76993061,185.1185145,-62.7667667,117.7516902,205.9755626,29.61697816,61.10881895,0,-90.7601306,86.84383168,-363.6615237,-73.74482908,-646.8634713,,,,
542.9199996,2120,38.01654848,76.62180052,27.63404677,35.68166456,-202.1598204,328.299508,-89.41313661,-24.6141102,-87.49448801,2.387122633,0,-13.92859973,-80.46182669,472.6958839,-5.935098484,692.3158293,,,,
542.9279996,2120,-12.23695185,-59.39625343,0.106933934,-9.2686044,48.3598134,-402.8020958,139.4239272,-130.9139952,-3.995655708,107.6813891,0,-27.49394858,-10.46484728,-196.5654256,-403.9669427,-223.4901561,,,,
542.9359996,2120,-53.39370299,-9.82033526,-60.8741162,-28.88522118,55.39050812,368.5077389,-30.75481901,252.0306984,-48.471921,-18.97122399,0,-93.02809729,20.93378685,59.51150242,175.8938257,-71.73857676,,,,
542.9439996,2120,100.9776259,85.61443425,111.6462281,84.25284539,-219.3764805,-161.490301,38.33060699,-241.6361837,-38.4561973,112.0839793,0,50.68138826,-101.7136615,319.7100402,-382.1008381,578.7913121,,,,
542.9519996,2120,-68.48062817,-75.06969716,-54.16850225,-37.35755382,193.638372,-67.91544006,129.2933501,213.1922971,46.75279018,65.70543635,0,-81.62082503,90.94032627,-360.3853134,-75.89536728,-669.9819992,,,,
542.9599996,2120,52.06293655,95.24886061,45.2368567,51.84792744,-196.2870672,318.5779475,-74.96195226,-7.705374975,-65.64336557,22.55365167,0,2.669451334,-76.63509018,481.8307319,-6.783767862,654.2564455,,,,
542.9679996,2120,-12.8011158,-55.2269,-5.897931322,-2.034555721,49.73697215,-415.1447771,143.5189858,-121.4026084,5.666671429,115.3012425,0,-21.04852845,-13.62487079,-195.4390155,-405.6963089,-253.2281962,,,,
542.9759996,2121,-69.65551283,-21.95113533,-82.07742397,-34.34668884,76.34509188,369.8740308,-37.64919524,254.1334337,-48.92143236,-31.38597659,0,-98.26825949,11.66569774,44.19612863,184.8769173,-98.76186398,,,,
542.9839996,2121,92.59879397,83.10936629,93.67873009,83.73439481,-196.6201851,-156.0255737,34.85893885,-240.9516469,-46.76319261,99.35244658,0,45.13756096,-111.4148743,315.6087101,-360.759356,568.7493213,,,,
542.9919996,2121,-67.4743592,-70.06556196,-66.02083128,-30.06345242,206.7322273,-70.63863158,132.7267054,219.6014615,33.05506587,54.57049966,0,-89.02670894,86.11451164,-369.7153688,-54.88295991,-674.0924721,,,,
542.9999996,2121,60.40122848,107.2582575,47.57175265,64.79392624,-187.3723423,332.4357908,-62.43870701,15.85174648,-62.34954883,30.01920984,0,8.857228114,-73.08824044,478.7980899,3.569639496,635.7376664,,,,
543.0079996,2121,1.29848964,-38.15903081,9.832140214,8.481037355,51.98388195,-410.0808988,158.9970177,-97.12520675,25.8963028,133.209937,0,-11.05668432,8.273620074,-175.7059415,-403.0406684,-274.889376,,,,
543.0159996,2121,-46.56222023,-0.004409586,-57.21070245,-16.33883675,67.23753623,371.7085074,-22.82651138,286.3427423,-31.35345022,-25.51299913,0,-105.6526238,47.84011407,55.40572329,189.0961068,-132.984535,,,,
543.0239996,2121,120.8470816,107.0099417,111.9805898,100.3147726,-209.1310982,-142.9148134,45.19963944,-206.0481444,-19.45797929,118.1579795,0,48.00440066,-71.84203307,342.3857024,-363.3326513,526.5716206,,,,
543.0319996,2121,-63.84835413,-69.80977467,-82.21921431,-46.37162344,207.4758616,-83.20495165,116.5091499,220.1012238,59.56749538,63.85240743,0,-95.71094033,116.116313,-345.6939219,-52.48221354,-715.7875677,,,,
543.0399996,2121,59.91589014,105.9102284,33.66514517,57.55161534,-175.7826501,324.5684916,-82.80932201,1.667080041,-62.8151673,8.868218561,0,-20.28778138,-63.26987419,471.1509384,23.20194215,603.4344713,,,,
543.0479996,2121,20.59030545,-24.14975284,16.41615621,25.53801872,78.38131227,-390.0110546,169.0044749,-95.53321684,25.05857071,124.144147,0,-12.82545144,15.74237247,-169.9285865,-380.6259757,-302.8814906,,,,
543.0559996,2121,-37.21595663,2.813080697,-70.16935009,-26.67957766,108.4762502,383.3383047,-19.7484892,280.3988686,-17.18811579,-33.06766394,0,-98.63281374,52.27293866,68.48704018,227.230527,-156.641588,,,,
543.0639996,2121,110.222392,98.34812085,92.18357039,75.68628401,-175.4323137,-149.0174297,28.92539464,-234.5142045,-23.86636645,89.78053182,0,28.05169944,-86.01257749,324.9614257,-304.3119394,533.306845,,,,
543.0719996,2121,-75.20903933,-81.35394492,-88.82694609,-60.10330079,237.3383837,-82.70615298,116.6249105,205.2924341,34.46443354,37.36041119,0,-115.993535,104.5971775,-378.931875,11.22079226,-706.891157,,,,
543.0799996,2121,52.84200337,92.98263161,20.29255352,31.35620201,-146.954688,327.5704267,-93.74671867,-3.174032243,-78.53320458,-16.75139759,0,-37.13807228,-59.66655021,448.4140079,97.56800436,622.9610628,,,,
543.0879996,2121,25.97058461,-18.68877927,16.03583597,5.930907394,89.18476629,-419.7393913,145.0840724,-116.708354,27.27417408,113.6598352,0,-29.1505175,28.81156604,-203.3849374,-310.5136396,-270.4229016,,,,
543.0959996,2121,-38.99415077,3.410255397,-64.25335487,-42.63307607,124.9706071,342.0871027,-34.62000506,254.3647169,-16.85522055,-24.91753018,0,-104.0463597,74.57262419,31.23043356,277.9622723,-156.7372465,,,,
543.1039996,2121,83.78614085,68.54332747,71.66911459,36.59360029,-137.9211316,-177.8042959,-3.807007001,-272.5820947,-39.37053657,74.19846508,0,11.05107713,-63.49288163,304.6781101,-250.9073691,538.0449738,,,,
543.1119996,2121,-83.61425144,-94.37495852,-89.19907262,-77.80764242,274.0245142,-111.2190895,90.1169547,171.9714369,23.89666999,18.20556346,0,-135.0291965,123.2091183,-403.8751807,75.17647483,-693.1950878,,,,
543.1199996,2121,102.0482154,137.1605425,83.65161301,51.64315669,-248.923056,267.1669714,-170.7140413,-211.3720068,-114.7602584,-20.4667084,0,-4.026724604,-114.9921133,681.6786697,70.83590213,1117.400943,,,,
543.1279996,2121,19.94974226,-51.40195625,19.60803177,-29.425784,51.6331474,-676.4745224,63.87947939,-402.3699956,-14.93381732,92.70336721,0,-39.43189458,-24.23381395,-150.5345177,-395.1246721,59.33564725,,,,
543.1359996,2121,-168.5526673,-127.7995913,-189.1680644,-146.9686959,356.2570782,324.1230239,-73.58841614,386.5292407,-28.39276798,-111.9142676,0,-231.6955518,150.5843072,-361.2355623,550.8031003,-661.6568997,,,,
543.1439996,2121,158.1821382,195.6059535,137.7719838,88.17367125,-437.9850391,265.2922157,-259.8358433,-439.486821,-164.7725026,-23.68925014,0,48.44629733,-209.3554373,1036.548929,6.189534677,1795.181214,,,,
543.1519996,2121,-3.240732594,-50.42373042,-3.458214129,-42.71599314,42.11667834,-466.5936653,11.05161559,-319.8459912,-38.52485516,40.91398367,0,-62.96979227,-21.82655698,-61.9953549,-213.7206103,169.6634284,,,,
543.1599996,2121,-186.7350983,-172.3134741,-191.8249797,-170.9176561,374.0250563,100.2695921,-30.90570706,284.5483704,-31.93984229,-102.8548687,0,-241.4571457,136.8016643,-472.2927674,432.535108,-727.5331792,,,,
543.1679996,2121,7.721214374,11.8557678,1.096902055,-40.64940623,-97.63614631,9.129871535,-141.9767405,-243.0929416,-119.1724895,-48.76371962,0,-79.24449525,-95.47698538,357.2803979,71.98318149,789.4626272,,,,
543.1759996,2121,-72.90155072,-99.16519975,-71.61772291,-95.49944477,153.7443826,-260.8525367,-4.251232659,-100.1958417,-53.91482994,-30.85720997,0,-152.3617744,15.49317976,-207.6516476,60.09126194,-47.73701027,,,,
543.1839996,2121,-122.9615528,-112.9254829,-129.572233,-126.5508471,210.4282446,46.78115432,-58.69344687,107.1696279,-69.19029457,-84.48431972,0,-200.2105806,50.69652032,-228.7540316,341.4594858,-176.1283968,,,,
543.1919996,2121,-3.485865157,0.270067072,-19.2428158,-52.24265261,-68.26598597,1.479881286,-138.4855304,-215.2240253,-116.8632585,-50.04871561,0,-99.20329859,-91.95663119,267.9890316,144.9822703,740.3662962,,,,
543.1999996,2121,-94.46226686,-126.2838332,-92.64566015,-114.7983426,231.9415883,-291.5138293,12.47991537,-43.93364647,-31.06017435,-28.36234872,0,-171.4708009,37.60443236,-374.228628,130.0719822,-248.1649175,,,,
543.2079996,2121,-56.17398943,-31.57997525,-62.74326327,-72.89475457,95.94018544,197.1889891,-127.0642906,49.19455212,-78.94964174,-78.21697901,0,-143.2364769,-9.076067728,63.38653179,385.4706406,313.858413,,,,
543.2159996,2121,29.43011118,9.750191369,23.50797541,-8.774607797,-10.50160924,-195.9057654,-43.31757647,-234.6586895,-48.09702949,18.27403618,0,-59.24082198,-54.4843927,118.4941277,54.52939999,564.5196314,,,,
543.2239996,2121,-96.30755023,-102.5023592,-104.9612639,-93.75019901,262.1228917,-102.0380901,20.70264667,109.1715329,0.429904414,-28.26159349,0,-163.6579122,85.24800285,-370.7607712,317.5434807,-315.4801721,,,,
543.2319996,2122,14.29672141,45.6299998,-3.074937146,-13.97041431,-63.26169888,201.1652437,-139.0263682,-85.19370246,-88.86660912,-52.31801158,0,-74.46085109,-60.84465923,353.8230232,324.4756305,836.7637429,,,,
543.2399996,2122,-39.86377523,-80.17715668,-35.24741204,-59.57720044,171.911523,-398.2185841,70.20523062,-139.1452387,4.729757361,32.78551403,0,-100.3661316,44.13075252,-278.3535436,46.66308169,-13.85126934,,,,
543.2479996,2122,-92.36501362,-59.28945905,-104.8063681,-97.37905569,137.0521602,258.5318403,-97.75692519,143.385329,-57.89300447,-88.64459189,0,-159.8307046,54.84080208,-20.31180911,497.0561327,181.6239661,,,,
543.2559996,2122,13.26094144,-5.647109374,9.94691853,-27.98392924,-81.31569028,-196.7280449,-71.31699951,-295.5068803,-77.87734453,-13.24639887,0,-71.66326737,-55.80788568,208.025769,43.20573427,778.056031,,,,
543.2639996,2122,-112.75167,-126.6346662,-106.9119369,-101.438797,258.0584645,-150.2324062,47.23203445,107.0353916,-6.009538512,-45.15237265,0,-189.3505753,112.7298574,-451.2532663,301.4163445,-354.6718332,,,,
543.2719996,2122,20.6290924,53.68189808,8.844960163,-3.608484807,-113.0222554,266.1457417,-129.8767756,-48.86464901,-97.60122795,-67.21529001,0,-80.8347526,-48.79917778,365.5097899,347.3198133,872.7525714,,,,
543.2799996,2122,-17.72365128,-72.74908752,-19.3245748,-47.27845758,108.819849,-446.1707307,74.45137206,-176.7179014,5.408662564,39.60452503,0,-88.86475076,28.78406125,-253.63683,-31.93778182,47.68014999,,,,
543.2879996,2122,-61.38407314,-32.03969613,-84.97760684,-67.54655659,132.5082392,304.4709694,-73.189703,205.9281786,-37.73686956,-77.66262305,0,-147.1206915,40.971033,-28.3470994,497.212594,138.9843249,,,,
543.2959996,2122,80.04770653,54.38383337,60.00041012,19.50965863,-115.4529188,-179.5206133,-42.20224681,-276.1616416,-51.4157388,20.23668011,0,-19.03797625,-83.69525476,272.2667402,4.118293409,863.5046949,,,,
543.3039996,2122,-61.57080101,-87.05621433,-78.05483177,-82.3232334,243.9938275,-159.0221808,59.41330784,130.2112611,42.55172761,-11.23611514,0,-143.7037926,116.1064947,-455.4148935,271.9445709,-371.6096071,,,,
543.3119996,2122,53.65770068,83.87090271,30.81184401,10.15049543,-129.4692655,299.3286843,-127.6377192,-32.88606653,-48.74051749,-43.30531842,0,-46.45198957,-42.84946912,396.1308472,335.0078135,901.5776328,,,,
543.3199996,2122,5.240761089,-49.98823886,0.788146358,-34.44446842,90.20939668,-448.7723043,94.16924963,-174.5548108,28.86483415,55.9077533,0,-65.59474812,31.44336606,-228.1095295,-60.72238217,92.91200611,,,,
543.3279996,2122,-24.0419801,9.135819334,-48.61954645,-34.56459297,87.2451724,334.0766274,-35.77800263,251.3912391,-16.28252798,-56.94233982,0,-122.0336464,52.45968718,-29.15060687,464.2797649,131.5891731,,,,
543.3359996,2122,136.6398724,111.2672159,121.9106561,87.49040976,-189.9322864,-121.9713345,25.39957291,-223.4386667,-1.231841225,77.49858557,0,35.76004043,-74.80080959,329.0041394,-85.26475756,873.6789082,,,,
543.3439996,2122,-11.36259401,-34.94320073,-31.48305836,-12.637382,186.219618,-90.23880351,141.2938221,208.3215543,88.76467339,55.0609118,0,-88.30639397,107.4859836,-373.5845226,160.3255317,-412.6558284,,,,
543.3519996,2122,138.7958007,173.9573547,105.4489196,105.1280523,-205.0332987,375.9587043,-37.74192516,61.81174099,-9.138088105,32.20488627,0,25.9772642,-62.5903868,486.7007822,197.7853823,851.181853,,,,
543.3599996,2122,108.8711732,49.4520768,105.5950938,74.79586215,5.724895609,-384.7488712,194.9892623,-76.9338242,102.1782153,156.9760661,0,37.33911795,31.97618064,-140.1664905,-235.4658293,10.93956558,,,,
543.3679996,2122,44.5220396,73.16499161,27.04774985,43.38422087,35.12899318,402.906082,35.75795297,337.7379825,63.34180896,23.6449939,0,-35.2575578,62.60195146,64.20836863,290.9494041,18.28714204,,,,
543.3759996,2122,200.7921572,176.2108211,198.8572318,165.0551583,-220.8428885,-51.13280855,79.86080236,-163.4922545,55.11235853,137.9563971,0,104.3388743,-66.58028971,422.25738,-242.2315086,786.5617579,,,,
543.3839996,2122,49.93476692,25.03798123,57.07197976,62.03960093,171.7411095,-23.178041,204.4878617,269.5762397,140.8649107,120.4983294,0,-18.65482862,127.9987659,-303.2544842,5.606781542,-529.3610374,,,,
543.3919996,2122,177.633096,209.8775504,167.700868,151.6417319,-196.1456228,442.6600931,6.471193433,113.8969938,50.64344189,85.88429,0,81.68589819,-26.14369793,551.4341008,55.51206122,739.1088957,,,,
543.3999996,2122,144.9746086,83.13281068,146.8530193,117.6749287,18.42404525,-329.0798796,222.5855469,-42.54588865,146.0488247,193.6645406,0,72.38782632,65.08242073,-90.38954368,-352.6916801,-70.49547375,,,,
543.4079996,2122,80.89774646,106.3851842,60.35298997,78.71032749,41.4541584,442.4948852,78.15053602,377.0677601,92.61554796,63.3608521,0,4.18415994,78.20944803,106.4463195,165.3489409,-89.81034182,,,,
543.4159996,2122,236.4630411,210.4830565,225.6374913,188.5829871,-216.1675603,-32.62645065,116.821155,-137.851415,91.58044573,176.1708079,0,139.0882008,-52.56670111,452.9351648,-367.4706007,683.1167169,,,,
543.4239996,2122,87.48061893,63.17125637,78.35914391,91.91640163,170.3463805,-7.948990565,229.3712748,286.7529352,174.0895437,151.5736463,0,6.75898025,137.9939606,-292.5562789,-100.2779329,-621.6527079,,,,
543.4319996,2122,201.0775127,230.6169332,180.1536396,170.8296318,-195.4838881,462.8145845,43.12794358,136.2051188,72.10194012,110.2999829,0,113.9369808,-35.26906296,587.249829,-46.46256113,648.0869345,,,,
543.4399996,2122,174.4353763,109.4457515,174.5500095,142.3007511,20.25628955,-314.8177456,264.1853222,-25.41581383,168.9851619,214.9706452,0,101.045198,57.2758137,-62.59279876,-452.0288043,-160.736901,,,,
543.4479996,2122,123.3165474,149.7400849,106.5312855,121.4480848,47.57771172,476.8075093,129.1019746,415.508368,131.2905655,100.4842536,0,43.46442705,92.22698702,123.2173565,75.52094716,-190.9838498,,,,
543.4559996,2122,251.3043427,224.8654576,254.9824718,206.050191,-192.9215057,0.861725328,176.0973045,-91.48573849,126.6536927,195.9042825,0,171.4431441,-24.42137067,488.2998207,-435.3466159,610.2350586,,,,
543.4639996,2122,93.21612238,67.62367389,97.01434598,101.6606992,193.5902748,12.74898447,281.4904828,322.4837409,192.0898876,147.1810838,0,13.51197677,164.771514,-279.9179897,-150.225768,-682.6110118,,,,
543.4719996,2122,230.114719,261.7124839,214.8567875,207.8086418,-180.7787388,501.2326442,99.74961026,183.0895155,97.78700704,119.8243209,0,131.796819,-6.295992135,600.7473484,-84.96777117,591.4250483,,,,
543.4799996,2122,193.338215,132.6386612,207.8701311,173.3339658,42.47624691,-280.9381886,318.4939353,17.11284319,207.6467969,229.0119499,0,129.71227,88.2910718,-31.551562,-487.3808363,-213.4506007,,,,
543.4879996,2123,117.631329,151.7928311,112.5692415,129.8838218,75.7185324,512.8428449,155.0156936,442.9352613,151.3161317,103.3203528,0,59.48336732,105.7376241,146.417034,42.55086864,-256.1660359,,,,
543.4959996,2123,259.610997,243.0503467,261.0021654,221.9015767,-180.2886297,39.23916305,185.2264859,-70.53823939,133.629622,203.4204461,0,187.8662855,-15.41817967,507.9872258,-456.2837215,566.6993085,,,,
543.5039996,2123,113.9973152,99.39091778,118.6073337,128.2385414,186.4541941,38.57964449,292.7326737,345.9293422,220.4522887,177.443226,0,47.5886115,183.5379207,-257.2628248,-181.9062251,-742.974085,,,,
543.5119996,2123,226.633968,268.7003127,217.7349585,215.5944216,-192.9005959,539.570367,107.3977196,208.9509424,121.5993475,150.0850661,0,160.4957345,-0.181248114,634.725607,-127.8699454,517.2468338,,,,
543.5199996,2123,197.0710488,144.5300424,216.2170152,183.1979398,29.22407018,-248.815072,337.7721821,38.53466856,206.7569332,245.8777773,0,138.3051973,82.51069655,-13.51721442,-530.2150797,-268.7713723,,,,
543.5279996,2123,162.052643,204.5123369,162.3093918,173.0647847,54.82700984,534.6176039,204.7401118,478.362132,169.9752132,140.5810957,0,85.3923669,113.4984733,167.128617,-11.36421184,-328.8126042,,,,
543.5359996,2123,288.2786373,273.0364719,294.6253168,248.2034865,-201.0496926,69.46538116,223.1729583,-40.52304953,177.4033099,250.155829,0,231.9637375,-4.960588873,556.0037739,-524.8486754,485.4857685,,,,
543.5439996,2123,107.8094126,90.88784237,120.898964,122.3057858,197.0817429,71.37105912,299.0291453,351.8069779,239.1959709,181.1391758,0,54.59167545,190.2008434,-247.4992128,-247.5667018,-823.9790419,,,,
543.5519996,2123,228.0789864,276.9151584,227.8247393,218.6837918,-156.997714,566.8993791,106.6906162,210.1415293,122.7878288,137.1830385,0,148.5658155,27.97922553,630.2040163,-161.8424979,463.0652196,,,,
543.5599996,2123,190.8037398,140.4384528,206.7137066,173.8510105,47.54764945,-247.2947305,318.5302653,21.32916565,216.7979365,241.6473685,0,136.5698598,112.0082862,-8.088675494,-546.1625208,-302.0626295,,,,
543.5679996,2123,127.8529584,163.3299071,120.3970159,133.9323579,69.09522275,525.7632996,159.4343889,439.617624,165.0452277,101.3542871,0,55.70842042,125.3535096,140.2043445,-10.14446192,-362.2465905,,,,
543.5759996,2123,268.5988629,248.7200313,268.2872531,222.7372073,-178.0204006,60.18602348,182.3710778,-81.09709842,161.898642,207.0457487,0,194.5788753,11.08697994,523.2449396,-492.1786791,487.3964011,,,,
543.5839996,2123,99.14825508,74.87853208,103.2641372,103.3440872,216.1015604,41.75874809,276.2533753,321.2161302,233.0209537,160.97858,0,34.90798209,211.6541754,-274.7818078,-207.4560137,-827.6870093,,,,
543.5919996,2123,209.102869,248.1526282,211.2919397,196.7969962,-128.8693972,546.4276792,90.68570495,196.1280786,119.5482424,102.5825745,0,122.6693786,49.73219089,596.0757214,-108.452293,455.8430755,,,,
543.5999996,2123,178.4252714,124.1171349,213.58364,176.2421664,99.87398203,-242.2899247,306.7746952,19.86014161,219.9753327,225.7741748,0,126.6212141,158.7227791,-28.18662973,-473.6565779,-289.4006656,,,,
543.6079996,2123,100.4465145,137.0212697,106.9101027,127.0214165,147.0819288,528.8848576,144.3298656,442.3679235,163.9972226,102.3595182,0,53.46549103,201.1633366,142.5890645,79.79448571,-356.2835788,,,,
543.6159996,2123,227.3486193,209.0328992,237.1221452,202.5491001,-98.06252269,49.08803459,160.1026082,-87.41047737,137.4913113,177.2130649,0,164.6843455,66.95756437,522.5905428,-371.1632483,522.0036627,,,,
543.6239996,2123,41.94697583,17.80308399,65.84791147,66.82751803,306.8446254,11.99979567,227.214544,286.2976352,202.045762,123.478527,0,2.726479687,255.9445219,-288.4645228,-58.85954012,-774.3135684,,,,
543.6319996,2123,123.2826258,156.3071209,131.9082192,114.2585441,-26.64096083,489.623018,3.483379904,118.7585653,77.26872755,40.27615485,0,65.60276018,105.8316189,557.837776,73.08525155,526.9516108,,,,
543.6399996,2123,102.5901439,36.14000157,129.5080456,91.74552284,176.5310517,-318.782541,223.2289997,-71.53611818,161.1231567,128.8194846,0,30.11734565,184.1893955,-109.4068333,-274.9629966,-198.5728677,,,,
543.6479996,2123,26.91664188,52.98137511,37.84860152,51.03627925,215.780793,462.8029001,64.11504124,362.0263388,117.80967,23.00850039,0,-25.04364822,207.7763703,60.70479468,278.8232516,-279.5654629,,,,
543.6559996,2123,139.9923559,112.662014,157.8356818,114.222073,-34.26334937,-15.4657816,69.136633,-176.1276384,89.84436781,94.55068738,0,84.06499156,85.12589879,445.9291406,-164.9936478,619.7039688,,,,
543.6639996,2123,-13.35719789,-46.16634844,5.632786301,8.044764256,327.7746734,-53.86712509,162.6356828,215.2917433,146.7242927,41.53799278,0,-87.88269229,255.0595771,-384.6978956,125.211343,-679.457943,,,,
543.6719996,2123,100.8015692,128.8400217,99.51037481,83.61109933,-52.33981387,446.9018482,-39.72157314,80.97801913,39.34444075,7.879905348,0,18.38956535,76.96360588,500.2554425,208.9168344,587.7317769,,,,
543.6799996,2123,60.21369316,-6.976674945,79.61153822,37.81346813,136.1467225,-366.7645863,171.6852615,-116.8362149,128.8948356,102.3861117,0,-5.048906708,146.7420972,-137.5263218,-178.9571834,-142.4461843,,,,
543.6879996,2123,-18.74095337,9.063229392,-14.64153722,-0.789548371,169.8922597,419.7102014,15.80529667,318.5710202,68.60626229,-23.22502166,0,-79.74959001,141.5423105,13.39281601,345.9860439,-224.5875542,,,,
543.6959996,2123,130.686949,105.5159754,143.731585,99.47546331,-109.4703767,-34.55902438,50.11657413,-194.9245874,45.98376162,77.06379852,0,50.82233507,-11.20218943,427.323604,-143.857052,667.0925219,,,,
543.7039996,2123,-17.23046726,-48.28830261,3.784165305,0.082056827,240.1023495,-70.01598516,170.0378755,214.823902,135.8975247,52.94561881,0,-93.90355496,164.1491795,-375.0884244,87.95644615,-667.3414462,,,,
543.7119996,2123,92.90341556,120.3828506,100.46384,79.74759114,-125.1515306,449.3742909,-29.29131449,95.53595954,30.52136005,12.44565418,0,11.37085676,-15.4773112,509.7858853,145.0722267,588.6905371,,,,
543.7199996,2123,82.63928538,8.863780166,114.2212897,65.82627675,61.99217752,-358.4716988,200.901162,-81.6593841,123.8482911,113.801148,0,-4.934378699,61.89409143,-123.8049058,-257.2162357,-128.1128803,,,,
543.7279996,2123,16.59537921,37.36209361,32.92064845,43.55687602,83.58902868,424.5627104,65.28586529,376.1557355,92.39645346,9.168468512,0,-60.23465907,78.52177628,25.38771387,235.8480727,-240.3191592,,,,
543.7359996,2123,145.5168371,115.3722407,171.7601562,128.402523,-182.3189417,-15.76430302,78.31014188,-145.1485841,61.52466767,105.8543766,0,75.75008646,-77.96883401,450.5705656,-278.9762614,639.6183062,,,,
543.7439996,2124,2.177407259,-37.92498279,34.59432402,26.93607817,177.2940937,-58.81631603,185.2868396,246.6685557,137.3823558,68.66435366,0,-73.48634714,103.1663872,-364.7812205,-46.58003586,-684.0147449,,,,
543.7519996,2124,133.4000073,153.7064062,147.3820055,122.6870221,-203.4229282,460.0225592,-0.352167835,132.6937848,47.65648287,33.16293188,0,36.77312327,-69.41299645,505.7213273,-5.226560627,552.40535,,,,
543.7599996,2124,111.8275956,35.42470227,151.0373564,101.4129207,-13.77402119,-336.262499,225.1485931,-54.83742096,149.3186036,150.4578051,0,30.85226089,3.843393932,-99.52286467,-435.3740511,-187.2809805,,,,
543.7679996,2124,30.43347001,48.4823229,54.67889683,63.74634374,7.053345984,437.3204345,76.16057753,385.6780231,117.1709907,44.32620567,0,-26.02615805,38.55376378,55.0859442,62.31457719,-316.2880503,,,,
543.7759996,2124,155.3939064,124.8176237,186.8541605,139.3508373,-255.3150141,-11.59916962,90.87342159,-126.0719108,78.26156206,123.7555836,0,95.78941106,-102.5819346,466.9377076,-447.1392873,557.3992603,,,,
543.7839996,2124,13.92307758,-23.84952622,53.0747861,42.75634032,127.12892,-57.02626344,210.2785982,278.2300581,144.4047688,85.75051184,0,-66.36360641,83.65423775,-356.6440152,-202.6163961,-761.8687034,,,,
543.7919996,2124,141.001309,165.5599594,164.4839615,148.2855099,-250.9200397,472.2814029,29.42681917,167.7714071,67.21784957,69.28454499,0,54.32228883,-74.1638634,525.6417485,-150.0375085,460.1594664,,,,
543.7999996,2124,85.61569987,12.73312269,137.7512803,95.2142232,-35.13833512,-323.0615772,230.849881,-37.85821128,150.0293045,162.897481,0,34.44389129,-1.740336411,-69.93467127,-567.7361156,-270.094019,,,,
543.8079996,2124,19.79239112,38.32302981,59.53748801,62.44516642,5.710243561,432.8502494,82.593488,391.4881955,93.5777671,27.4204898,0,-48.66963317,22.85180102,46.99615393,-37.78635985,-375.7323652,,,,
543.8159996,2124,187.33671,156.683062,229.3480552,180.3416221,-275.0977192,-2.446120284,123.8928606,-103.6233843,98.64761075,147.5164915,0,109.2974426,-99.17112338,467.7216723,-561.8086019,467.1853046,,,,
543.8239996,2124,7.885906518,-33.75483179,51.57604897,40.80750538,124.4123289,-47.41662198,210.1030125,276.8198277,173.2585281,103.6886105,0,-50.60682649,93.32042223,-323.8237365,-318.0099675,-866.3960047,,,,
543.8319996,2124,117.0953105,134.9105148,148.2723819,115.2995207,-232.6497078,458.2212555,4.12893653,143.361343,66.73418204,41.38717722,0,33.35502747,-75.94606926,518.1993868,-223.7285159,383.8875355,,,,
543.8399996,2124,103.63771,25.56731953,157.3438344,102.1337918,-10.8602101,-329.9488967,233.6183115,-34.98757698,169.1798803,155.0088025,0,26.57034695,17.23827741,-102.9386086,-629.8996213,-335.589005,,,,
543.8479996,2124,29.80992763,43.4756037,59.10257231,59.28993382,43.62882836,432.5048772,75.23889547,394.0118598,114.351372,34.11196441,0,-48.9431946,49.66229288,36.06501385,-86.98981567,-439.4702966,,,,
543.8559996,2124,171.4267143,140.6280693,208.2731271,148.5026149,-240.3476117,-14.36373469,94.29224599,-122.5576569,100.1305577,139.074794,0,96.10898304,-79.72199084,464.6055273,-586.8614946,426.6974694,,,,
543.8639996,2124,4.948798684,-36.63409585,53.4146386,37.01468961,151.4590665,-52.75011498,200.6046906,270.3723348,184.0780671,97.23980798,0,-58.72308588,122.2747554,-336.904344,-323.7347571,-883.3910668,,,,
543.8719996,2124,114.4165188,126.2673936,149.8098875,125.2160196,-211.7690181,468.7928258,3.612317944,147.2809905,75.74480005,31.42648066,0,30.13266159,-57.37620516,519.5214173,-224.8750129,362.6506397,,,,
543.8799996,2124,89.79146315,12.45435041,140.3098061,96.24752055,1.665228944,-330.1704888,226.8778781,-42.35405327,172.4687773,139.3320919,0,15.65892923,29.23170122,-85.65364838,-633.7149518,-353.1287466,,,,
543.8879996,2124,27.2466735,44.30250187,55.44339499,68.14707009,57.05854503,438.3356857,87.76133588,397.0513762,127.567628,38.96956261,0,-49.93670166,70.12710383,40.33760303,-83.71665651,-457.6606354,,,,
543.8959996,2124,170.0884299,130.2938859,207.2684925,160.7400587,-220.0503562,7.504111431,112.4343794,-111.0111123,106.7011484,138.8627293,0,99.68634487,-77.94552432,470.6374095,-578.5623812,402.1246557,,,,
543.9039996,2124,4.525551236,-44.30331042,45.48342025,40.41504139,169.2165539,-50.61577385,205.7707048,267.9927711,180.8690672,78.87101746,0,-77.64450508,117.787205,-342.5938095,-309.0579578,-897.0268194,,,,
543.9119996,2124,120.5851546,136.543862,152.3328451,134.3461516,-199.2722977,474.1233756,8.074523857,150.2538425,80.40930278,44.24847882,0,23.07419424,-40.75367089,512.9361278,-218.9459325,333.3000303,,,,
543.9199996,2124,75.7252011,-2.529444382,131.8736626,85.33015462,9.529916745,-320.842711,220.4641391,-38.52869778,173.5321308,150.9927872,0,17.69013438,41.81547297,-62.60856434,-628.5236057,-383.3619189,,,,
543.9279996,2124,-0.291684895,11.03132578,35.06775254,39.84102295,51.88506276,419.9588456,64.05331968,379.6587457,105.9783261,-4.115818022,0,-91.53149106,56.62767071,29.88178897,-60.66087242,-464.8812889,,,,
543.9359996,2124,159.9611616,121.9055762,209.2667938,154.1318086,-227.0357436,-2.976214601,101.8720853,-116.8312403,88.79588274,104.6341442,0,67.01757514,-94.13042104,439.2684055,-573.1098366,385.2687994,,,,
543.9439996,2124,19.77549053,-29.06199861,75.4008592,57.24683235,165.2611565,-45.38813133,220.246148,286.6239139,192.451776,91.30505263,0,-54.21382513,120.2660862,-337.9136806,-318.6754446,-923.9313106,,,,
543.9519996,2124,138.9194259,146.9422089,166.2160217,137.4404883,-210.626143,467.8888162,6.733491261,145.8673007,95.95866289,52.26670747,0,45.6327649,-40.62603896,519.3253481,-226.1959891,303.1061225,,,,
543.9599996,2124,86.54181521,-0.169317901,122.4632588,76.18813961,-1.823717121,-338.4948148,201.8999587,-63.82124507,180.5493402,146.9065743,0,23.58700482,35.52985251,-76.34215479,-647.597873,-417.464831,,,,
543.9679996,2124,18.37450126,22.13772173,38.58859446,45.58679591,43.04099797,402.0618533,53.49513239,368.4738352,119.9366288,4.812203888,0,-75.30503704,60.68482526,17.13472777,-81.80040709,-502.101901,,,,
543.9759996,2124,168.7389468,122.5817672,202.4855088,151.4319958,-238.5054663,-8.540984149,82.78199329,-134.2690683,102.8771379,117.0871753,0,83.84667741,-79.38310374,443.263374,-590.6482495,347.7526595,,,,
543.9839996,2124,-3.389089612,-57.3448062,30.79929213,28.06279467,150.7102625,-62.61806173,195.4896606,254.4678158,185.9096216,82.09154656,0,-66.41012018,132.2750633,-343.3589563,-330.2345625,-950.5563237,,,,
543.9919996,2124,113.0082628,122.8993594,132.1553502,120.2253285,-233.0194499,448.8724497,2.800041611,139.749073,64.10042969,22.45098793,0,9.1415431,-52.17302532,494.4304283,-231.9274406,284.3805524,,,,
543.9999996,2125,78.04460536,-4.053439575,124.790688,83.63120298,-24.24734596,-331.6070756,226.5867359,-42.66641975,157.646768,135.2498764,0,12.41543074,23.60174932,-91.66250902,-661.6260042,-440.0006674,,,,
544.0079996,2125,-4.632670231,5.876861944,27.37012972,37.40707278,30.35281128,402.9425615,77.0125943,381.9761579,114.6920752,5.115177355,0,-69.69664793,66.98184492,7.727330496,-101.7936479,-543.11453,,,,
544.0159996,2125,130.9487536,93.36681219,175.3392367,130.9360366,-243.2572462,-13.90916211,85.16230263,-132.5546558,81.91040973,95.05603577,0,64.33323232,-78.94892567,432.7325262,-599.8433549,315.2299326,,,,
544.0239996,2125,-35.98004431,-86.25659241,8.64195038,8.913996337,165.3617555,-63.46057152,184.6475189,240.2450646,153.3288765,51.98448137,0,-97.92159389,133.8626261,-353.3917265,-311.825458,-958.9686982,,,,
544.0319996,2125,80.84680728,89.02494832,102.8018313,90.53575265,-189.6688595,440.6131316,-23.85850673,103.1071652,33.81517358,-8.722692494,0,-22.96961362,-33.98571027,481.4702915,-189.3777294,278.7946993,,,,
544.0399996,2125,58.14388905,-29.74511196,110.1702521,64.31340128,21.89126668,-347.1087313,203.0969796,-80.62376836,139.3831203,106.1474566,0,-15.85954134,53.56275292,-111.3256073,-611.5956521,-439.6613596,,,,
544.0479996,2125,-10.15707852,-3.392364088,30.02321359,36.43693531,51.77408181,382.7626671,64.46500402,356.7512758,111.5711131,-9.58453312,0,-85.14046028,98.6048669,-17.54228456,-48.95027931,-550.2139384,,,,
544.0559996,2125,129.1200818,90.9965983,173.9577424,131.5878261,-233.13903,-36.86787854,72.95452833,-150.6011301,80.63134037,92.00646763,0,59.71072337,-62.00638671,419.9040829,-556.3159071,292.9108016,,,,
544.0639996,2125,-54.65534844,-106.4381169,-2.597503008,-4.435933226,188.7984142,-85.41214505,165.9869859,220.6062298,153.5377243,44.45039867,0,-101.6316884,140.6771128,-367.864705,-278.5171771,-988.9974232,,,,
544.0719996,2125,91.02564829,107.9093665,117.2258961,93.57627557,-317.8760616,438.5989179,-114.9467017,-75.30243261,-8.691564793,-26.55420403,0,13.4962092,-111.3828305,746.9284258,-234.5035293,743.7071021,,,,
544.0799996,2125,48.88341072,-50.40009788,91.09641825,39.95464169,-70.39348966,-544.8268648,138.1427167,-324.9398977,83.85501075,93.16841901,0,-7.418082303,-23.33691525,15.32727822,-721.9120053,-95.22142996,,,,
544.0879996,2125,-144.863063,-143.6472243,-112.0290396,-78.50747988,258.625849,323.9572849,49.62055849,472.5086816,85.40457305,-92.30543005,0,-227.4408854,176.0261089,-430.7518847,185.2472589,-1088.568185,,,,
544.0959996,2125,112.8164698,98.8734236,141.8830788,104.6674388,-308.0454379,169.3246118,-50.02663023,-186.5114265,-4.600889436,-0.171667085,0,5.516693944,-115.2035975,607.908132,-339.2713725,689.0561939,,,,
544.1039996,2125,-47.58180179,-193.0213509,4.383253672,-29.67198673,286.3388484,-854.6419761,321.3191417,-89.99625377,191.3881772,130.7358716,0,-97.69523897,146.8896188,-746.7459682,-661.0410568,-1267.806438,,,,
544.1119996,2125,-117.4862782,-194.7204989,-74.55476708,-70.16556137,343.9625303,-282.7043794,211.8513616,258.4715067,159.3407977,23.82924834,0,-178.3142065,197.3510916,-712.2588405,-197.787234,-1402.254404,,,,
544.1199996,2125,26.58796008,-68.4111436,69.17214676,30.32175226,28.22281418,-473.1274433,172.4634348,-166.3314626,108.5125269,86.13991571,0,-45.67554531,31.04466724,-171.3319442,-562.3327517,-425.75644,,,,
544.1279996,2125,-95.60273603,-143.8016027,-63.07949005,-56.5533807,221.7957322,-46.74253103,111.1836145,238.6154779,109.3050975,-9.201802272,0,-155.5857701,135.7388903,-409.0654853,-108.5153613,-978.5405316,,,,
544.1359996,2125,19.18928932,32.72650209,34.12066626,25.4968999,-184.7628218,434.6782486,-123.88954,42.18401468,-20.76266049,-69.41645518,0,-61.47622451,-62.89647601,490.9242533,-42.90119054,381.5876363,,,,
544.1439996,2125,7.405203549,-64.73805046,36.99133249,7.993777525,-5.309139902,-315.4466669,84.2889182,-152.773335,64.25811338,37.56506612,0,-63.27828526,1.178976023,-54.35537993,-441.6666189,-238.9906193,,,,
544.1519996,2125,-103.417034,-115.3879334,-79.94748002,-59.8360457,149.1432833,155.1011393,16.90631816,245.1756404,57.83465314,-57.24857927,0,-173.0483724,99.29250728,-233.6415195,39.57551449,-672.9643177,,,,
544.1599996,2125,23.15630203,23.61266844,51.70737349,30.7119634,-207.4543271,203.8638809,-92.31751829,-99.94239077,-29.69549074,-40.23348847,0,-52.46778481,-81.39222697,443.3042595,-163.2101831,473.1099433,,,,
544.1679996,2125,-67.67901484,-132.3609112,-16.73866649,-39.45243979,142.8150824,-308.1482361,119.9969786,0.16199571,70.68073871,9.389612722,0,-126.8938548,76.46592321,-339.6667626,-278.64518,-643.3560197,,,,
544.1759996,2125,-56.45488721,-45.97780646,-24.78726375,-21.45188229,7.310416768,383.6071635,-62.95731501,193.5877595,-0.226534249,-81.62553979,0,-128.673525,23.01958232,123.3619129,112.262602,-132.1730652,,,,
544.1839996,2125,39.97239926,-11.57787794,78.08721086,37.76463853,-114.6690189,-127.106942,25.21530099,-182.0380261,16.0181952,23.53090629,0,-30.92777943,-53.103247,223.4964631,-346.1744792,193.0591429,,,,
544.1919996,2125,-94.28367245,-132.5243181,-52.65284443,-54.16050486,198.1520972,-40.8605618,87.81763091,194.8941492,72.09556224,-26.17318523,0,-161.8201495,121.6228216,-354.5649766,-20.6510342,-776.9478185,,,,
544.1999996,2125,8.203630137,16.10193549,41.21849952,20.13002344,-151.9500818,335.7542832,-95.43749497,5.443753836,-27.3027613,-50.83187889,0,-66.58489001,-46.63610425,415.992477,6.909791981,384.5636145,,,,
544.2079996,2125,-33.02134111,-107.3248998,19.19407238,-19.50289785,96.11454877,-339.5750658,123.0033344,-100.4226792,58.19708737,30.94454394,0,-93.64714207,50.63264073,-204.3802873,-311.0388966,-400.360055,,,,
544.2159996,2125,-86.60412618,-73.36104017,-45.8024719,-41.76018502,101.1747673,359.6344696,-26.46272492,246.9595613,8.300742005,-82.2104735,0,-155.9512876,69.50368676,-11.66279819,207.3309639,-312.09804,,,,
544.2239996,2125,36.92982863,1.887090667,80.58497273,32.69519481,-126.4176806,-73.70397049,-3.189782052,-211.4768286,-5.912197794,23.3625764,0,-23.71979312,-67.92071124,321.6958618,-270.5829984,376.9780152,,,,
544.2319996,2125,-86.34212124,-127.9538459,-47.39536014,-51.10336234,245.7641183,-101.9245128,107.568647,158.5820187,70.88029738,-14.06071852,0,-158.8785046,126.2769374,-399.5980975,4.199391302,-769.3365951,,,,
544.2399996,2125,24.10923339,45.60414465,51.49763959,39.14907345,-112.7777767,389.7145104,-78.67384244,37.26184628,-15.748632,-38.65918214,0,-50.32396365,-30.46050049,414.1217735,102.1500438,396.626073,,,,
544.2479996,2125,-28.44551953,-95.68576178,20.81491669,-16.98425698,98.8056716,-363.6480712,129.5469349,-146.2011853,68.95970935,58.57491035,0,-56.06509803,46.16179315,-150.3410975,-301.5826068,-288.525724,,,,
544.2559996,2126,-98.4768299,-86.74458293,-67.24878107,-50.03683724,143.2350627,356.74626,-15.3520936,255.7662153,5.499478843,-88.20591034,0,-162.8294176,80.10486695,-67.89574159,274.0389279,-336.6836796,,,,
544.2639996,2126,50.24968052,14.4339147,82.60448817,43.94548162,-140.9375041,-51.7122275,-3.368940583,-234.1476797,-16.58580839,17.64161853,0,-15.2400573,-71.68546103,361.7075677,-225.5793801,491.0309133,,,,
544.2719996,2126,-106.3218372,-151.1038634,-68.06643548,-73.57774931,263.3836229,-131.7241246,110.7517381,137.4705414,73.92165505,-13.38198276,0,-154.8349642,140.746399,-420.6039848,32.62775651,-744.703841,,,,
544.2799996,2126,-1.292439065,16.90605253,25.96394757,14.37749805,-98.54293625,404.7052921,-94.84102123,25.93294693,-43.63607677,-67.61705874,0,-74.37597382,-32.97766941,387.3877378,160.4820809,449.9559084,,,,
544.2879996,2126,-34.82354583,-106.2228643,9.999221699,-25.64502068,98.16960922,-381.5571865,118.7464216,-175.1387575,38.40218195,40.42134692,0,-70.50717305,36.09690129,-153.7231595,-284.201252,-219.7846442,,,,
544.2959996,2126,-112.7363441,-93.82927054,-81.27852997,-66.01198295,150.9632519,326.682823,-16.88246965,261.2603021,-0.858497453,-80.13984401,0,-158.9448207,81.70499575,-88.96998626,297.8489128,-332.5793337,,,,
544.3039996,2126,26.18948125,-1.71274832,70.36472957,27.67735446,-159.8499703,-60.73697222,-18.4358225,-243.5105278,-43.5366134,12.71053874,0,-23.99547303,-94.87290292,354.3093711,-208.5204881,542.5946047,,,,
544.3119996,2126,-129.2940264,-171.6868056,-68.84430253,-80.93332522,247.2748982,-146.114881,102.0120403,126.3060636,46.19515653,-28.32710487,0,-180.678851,127.4022118,-440.5946183,44.31552651,-723.6840773,,,,
544.3199996,2126,-5.841231737,19.52426648,43.82570776,19.69907638,-124.2469113,395.8649759,-94.31610983,30.06560067,-47.45528585,-65.67029698,0,-81.34137854,-34.41804173,391.0001527,175.7577707,472.3003352,,,,
544.3279996,2126,-42.21909804,-110.0200931,15.93856408,-29.43499817,72.96182252,-385.9156,112.1772654,-183.4308105,32.00261367,40.11214635,0,-75.28530127,23.3572054,-154.7420493,-290.554425,-199.363737,,,,
544.3359996,2126,-114.5962277,-94.59571654,-76.66039381,-63.52640721,143.8967715,336.2196466,-21.41157298,248.2584079,-7.649897786,-92.23381848,0,-175.7017331,79.9914662,-103.5802528,305.6827584,-320.5315433,,,,
544.3439996,2126,51.96103784,28.44186732,99.5325363,59.56976934,-170.4147356,-48.53275877,-2.899916855,-250.7210344,-27.7430137,28.32075475,0,-8.995477262,-90.57159148,379.5087443,-208.447455,564.4458775,,,,
544.3519996,2126,-115.9234664,-153.7615871,-65.82708438,-63.21603921,247.4204811,-136.9652834,118.4451449,127.2572921,64.32764689,1.026949691,0,-146.1626741,127.8741141,-413.2111429,16.22798982,-743.4888821,,,,
544.3599996,2126,-18.13439639,12.00490688,16.78359801,11.46883467,-125.2182175,404.2303858,-98.10677191,18.81156599,-53.65423087,-58.16921128,0,-70.29639377,-37.62701506,398.8069009,158.960844,461.0229452,,,,
544.3679996,2126,-58.42249302,-125.9764325,4.687566524,-39.58091656,64.07819687,-399.4931677,103.2870695,-205.9953498,17.21223517,37.4139135,0,-82.40380253,14.72209519,-145.8734977,-296.3628147,-190.909708,,,,
544.3759996,2126,-121.8392539,-107.7297807,-78.01770054,-71.09982905,138.4746269,316.1355129,-25.41167023,237.9248637,-19.14549801,-103.5777177,0,-190.6579778,80.57088947,-112.2784741,302.0874295,-325.1768486,,,,
544.3839996,2126,38.97584853,11.23830173,89.0792589,49.83438502,-180.7693305,-52.4783632,-7.334203072,-252.3836419,-39.52060781,17.12974211,0,-22.23713423,-80.00417545,356.2130425,-225.2475899,554.6341136,,,,
544.3919996,2126,-164.1594742,-201.7032717,-86.44197625,-86.45235733,245.940264,-143.7158252,102.3963884,117.6533085,39.10898427,-17.8163053,0,-170.5475182,131.2278589,-434.3867389,7.43559774,-743.7942191,,,,
544.3999996,2126,-59.77379308,-33.05561978,9.371195293,-2.86978539,-124.353927,389.608245,-114.4126128,3.563407678,-90.27890283,-94.33432503,0,-111.2002639,-42.13090304,377.8058682,168.7531921,479.7315553,,,,
544.4079996,2126,-76.13257984,-145.0467308,17.11833474,-27.30245047,59.83585116,-398.1414173,109.8168505,-200.7904509,3.45225661,29.55593104,0,-94.9716398,19.67575027,-156.0107331,-316.9833669,-199.0460356,,,,
544.4159996,2126,-166.4486485,-142.6223954,-84.01857013,-70.44293615,139.8171199,326.3321454,-24.06086885,247.680847,-23.83652365,-87.60107598,0,-180.3213681,86.03600879,-103.5226868,277.2194175,-351.0385143,,,,
544.4239996,2126,-2.685729841,-24.39921482,64.51597548,32.14569369,-187.3201553,-66.23024743,-30.47094803,-276.9875542,-68.79696275,4.474858099,0,-38.78250594,-100.5888256,360.4558954,-231.138698,555.5857975,,,,
544.4319996,2126,-160.5973127,-197.7220879,-96.49702848,-88.80199924,224.7141084,-165.409459,87.98216093,90.16141077,26.32329928,-22.02082101,0,-181.219335,107.1883523,-444.2501823,-6.582240155,-751.5676193,,,,
544.4399996,2126,-37.76249036,-6.704487191,12.67357887,6.596767654,-160.8237076,381.0026298,-111.3058175,-4.231630159,-69.6499847,-60.58155989,0,-86.81315675,-52.8388783,377.5985035,152.5755897,459.6558287,,,,
544.4479996,2126,-54.48305054,-118.9727194,12.04428889,-27.9819061,27.48075152,-407.0882757,109.7654098,-216.4723202,10.0032535,50.80434903,0,-83.33392711,-1.351846931,-159.948086,-332.1208124,-210.8843718,,,,
544.4559996,2126,-141.2260791,-111.5935356,-84.75135165,-67.89893311,120.3366642,332.26827,-25.17936978,236.5158586,-17.93778348,-62.73602426,0,-169.8877733,69.49575512,-108.3492115,261.8268205,-369.488523,,,,
544.4639996,2126,18.23244841,2.522057777,88.13821993,49.58302456,-208.6769663,-55.9779163,-19.99958451,-271.276616,-43.96930976,46.2101762,0,-10.52127039,-92.68065571,382.2557344,-249.9357774,531.7828872,,,,
544.4719996,2126,-160.7940304,-196.3706169,-84.54806927,-86.71425891,228.1313588,-171.1679436,99.59300537,97.96568758,37.9662189,-12.31255557,0,-178.3402018,128.3649211,-420.9106708,-21.94033765,-782.3451949,,,,
544.4799996,2126,-56.37259399,-20.47027095,-5.360414056,-11.63388965,-146.7521488,380.8497096,-118.6016385,1.997676599,-75.07959484,-68.90118192,0,-104.8275164,-35.97624179,389.4558154,145.9774433,426.7036477,,,,
544.4879996,2126,-81.53633181,-143.446438,-12.70265571,-51.40380069,35.35228571,-420.9338013,83.04755779,-222.3096565,-3.213772169,37.34948769,0,-102.8246561,8.345900027,-160.5916756,-342.2449654,-237.4074649,,,,
544.4959996,2126,-170.8119305,-149.1634637,-114.7491747,-104.7201775,153.7020211,298.9182701,-58.61878463,212.0207971,-42.37307656,-109.4719527,0,-208.8254675,80.18778789,-132.7352316,272.150473,-380.0625883,,,,
544.5039996,2126,-6.20974974,-27.02170252,55.96551621,8.613623845,-178.3136464,-79.69357816,-50.73558398,-300.1864054,-67.60698151,2.708618275,0,-52.76770767,-96.2580953,344.7191002,-235.2537637,530.9248974,,,,
544.5119996,2127,-205.541507,-235.0816457,-130.9498318,-137.9236775,250.0797805,-197.3668128,50.02483547,62.791437,5.594377382,-46.37093797,0,-218.5178741,114.0918603,-467.6325466,-10.54241369,-781.9989459,,,,
544.5199996,2127,-126.4390209,-78.92081951,-74.60561826,-75.16860411,-120.4835362,338.7354241,-189.8834442,-52.78978332,-141.5476602,-133.6012842,0,-164.5830499,-62.44399439,331.27741,196.1482826,470.8143647,,,,
544.5279996,2127,-130.6797025,-181.1830412,-66.28171646,-90.79695247,35.75051312,-468.3952326,39.83180532,-265.9481567,-69.28368408,-15.35606693,0,-155.9250699,-44.59231945,-224.4660458,-294.9659376,-183.663421,,,,
544.5359996,2127,-203.1073842,-165.2684043,-145.6040867,-118.6671273,137.6056204,275.2015169,-77.93238616,203.845774,-88.24580766,-130.491561,0,-238.4739555,31.85339706,-175.7157876,307.0157548,-352.978771,,,,
544.5439996,2127,-42.66547103,-45.13498844,29.15840167,-1.860125212,-193.6019078,-87.93326642,-71.64896538,-302.1781735,-117.4460524,-8.294420074,0,-67.3031132,-130.6861821,336.2902433,-192.9017723,571.1593537,,,,
544.5519996,2127,-222.6863214,-284.2130366,-136.921895,-151.2933066,294.6401524,-523.9632237,134.217619,-28.59730741,-2.784127482,7.547221815,0,-216.3190002,98.14531393,-663.7577296,-186.8533579,-1003.298902,,,,
544.5599996,2127,-132.451289,-120.5811204,-73.11458887,-82.08348896,-10.55586071,111.5139295,-70.6425428,-14.46011768,-99.12701463,-71.65073597,0,-174.8396859,-21.31930727,39.73654724,93.69544251,-8.512968116,,,,
544.5679996,2127,-90.0641464,-106.1200796,-18.68395184,-47.94261507,-60.59606314,-88.49763106,-29.74442273,-158.3026171,-73.25183905,-23.37604458,0,-129.301404,-46.59559862,47.36553409,-102.2519408,68.39577753,,,,
544.5759996,2127,-95.12935267,-44.52825933,-23.3156495,-40.25255584,-159.431546,442.9625777,-192.4443554,-29.85278333,-136.0136069,-118.7744971,0,-151.1597034,-67.54698974,413.7164904,227.5737223,533.7845361,,,,
544.5839996,2127,73.05680346,104.1434972,139.2838059,78.49184495,-525.7988677,256.6669555,-231.8768234,-476.7891821,-196.3533056,-45.09698813,0,-5.558930056,-253.772104,1008.016641,-148.4724702,1585.824668,,,,
544.5919996,2127,-76.57267647,-64.70239596,-4.923733479,-32.81859542,-130.7114359,129.1028508,-103.3241612,-137.5237881,-103.7219591,-57.98778284,0,-126.0894051,-67.03009937,254.5267734,10.88177369,343.5579916,,,,
544.5999996,2127,-93.31374103,-85.27139941,-17.25671241,-47.9383589,-113.3958058,56.45976522,-102.0122724,-174.1642396,-109.7684192,-54.87813627,0,-128.7745019,-65.09579823,229.677389,-33.18052753,313.1653762,,,,
544.6079996,2127,-199.3532335,-234.1001515,-114.2330392,-133.8735766,172.6889366,-334.6249693,36.97067823,-90.11436175,-50.23125277,-29.54716868,0,-198.4066196,40.14361525,-383.9251143,-127.9506341,-606.7618964,,,,
544.6159996,2127,-173.7937243,-132.9362974,-102.976833,-100.6179749,33.15191558,263.5491072,-126.7480518,68.56735357,-123.3424249,-131.1963234,0,-210.4239326,-12.78854751,23.66473318,252.7594567,-65.18054527,,,,
544.6239996,2127,-45.40857511,-66.87853206,33.91700064,-7.344223208,-147.4849036,-242.3676317,-29.65426305,-313.5808989,-94.75568687,1.197418492,0,-84.99035751,-103.605736,153.2951333,-246.7603062,289.4168231,,,,
544.6319996,2127,-229.285214,-239.2903338,-151.376419,-144.6357215,233.8092025,-104.9924127,14.90108887,115.1678685,-23.5954765,-58.75504084,0,-226.5217593,95.36667872,-471.8636701,94.03365912,-834.7438693,,,,
544.6399996,2127,-105.896318,-70.50832313,-42.49145732,-52.9416538,-166.2635535,230.5766178,-178.7270583,-141.8650399,-147.6020377,-108.0072692,0,-143.9780861,-96.48177648,343.3417846,109.2379402,487.951913,,,,
544.6479996,2127,-160.5736338,-204.544077,-83.04719857,-99.86560324,73.90601087,-439.0089376,35.59715943,-205.9632941,-68.87781373,-18.5321773,0,-169.0111572,-22.7153107,-302.4495732,-230.4904605,-401.9808904,,,,
544.6559996,2127,-235.2888729,-197.4860981,-172.1146549,-151.5173562,110.9550243,237.6582507,-126.2907787,127.3107032,-122.7972586,-150.4411063,0,-241.9865108,19.03601953,-130.8252797,302.5164893,-310.6512126,,,,
544.6639996,2127,-83.12839554,-96.08040017,-13.47399155,-53.40413546,-176.1235216,-181.5364863,-104.4003055,-354.4798544,-148.5087304,-60.99402702,0,-119.8925191,-129.3225575,216.9049158,-167.2131593,471.5346996,,,,
544.6719996,2127,-219.4732935,-244.3513438,-147.1677708,-145.6239223,211.834301,-228.5803108,22.3261141,44.28483123,-54.13942061,-77.66511576,0,-246.0982131,52.67816659,-537.7965375,57.88445677,-800.1881809,,,,
544.6799996,2127,-97.22433641,-57.02448929,-40.67763106,-46.00290369,-158.5248706,282.2403467,-176.6322178,-84.82161395,-150.822093,-112.1734203,0,-140.1362853,-100.3497877,303.8461582,188.8096806,425.0253776,,,,
544.6879996,2127,-125.4860748,-171.3832516,-51.29143936,-81.19497604,27.09061293,-459.7698681,33.61209998,-258.63013,-63.02608323,8.723554152,0,-126.2182896,-36.45942089,-240.6436742,-261.7809264,-290.1141715,,,,
544.6959996,2127,-215.9080706,-179.0471749,-158.865367,-137.6070029,116.37289,216.4278248,-110.311027,150.6376831,-102.5027627,-130.0402532,0,-226.3008233,26.11610585,-177.1486638,315.7848821,-400.6174261,,,,
544.7039996,2127,-51.99505323,-58.48622681,6.496180101,-25.4064193,-208.2464723,-154.5059435,-107.3498972,-344.600903,-141.4518723,-44.45031715,0,-87.89857923,-141.614375,275.599016,-143.72591,506.5767154,,,,
544.7119996,2127,-196.7220962,-220.8044683,-132.4473663,-125.9685194,197.6790158,-252.1442469,35.77101905,31.92909869,-37.72287871,-47.77875122,0,-211.6724316,59.08705383,-520.7803949,35.33113383,-815.8209205,,,,
544.7199996,2127,-91.67286644,-46.4690876,-39.8001398,-39.36881807,-158.4726161,316.3774872,-176.2964622,-52.09866331,-138.8742182,-105.0654357,0,-132.9113962,-77.06136651,310.2306119,225.4546218,377.2537296,,,,
544.7279996,2127,-113.1490976,-163.3132009,-40.52096759,-70.75711646,0.330809983,-474.8114144,39.88800848,-272.3439991,-63.97036045,8.541188026,0,-119.8479782,-35.38115943,-205.7170801,-276.7994006,-262.172779,,,,
544.7359996,2127,-211.8330926,-174.0668911,-149.8163173,-123.2076492,99.83984925,233.4049843,-80.18780963,188.0614416,-96.36151603,-123.1910295,0,-224.6125308,37.83031226,-194.9689175,306.143241,-468.388214,,,,
544.7439996,2127,-47.82448875,-45.27549151,17.98418917,-7.659672985,-252.3188419,-115.4516529,-81.66348269,-311.898001,-144.2843017,-28.89280258,0,-79.15448514,-140.6208905,308.6082722,-165.5197271,486.7587755,,,,
544.7519996,2127,-219.6708177,-240.1380007,-157.9510392,-144.1419381,175.2775358,-263.8030537,39.29370598,37.79917518,-53.65552173,-48.27258451,0,-218.7010422,47.35138233,-511.3692008,0.595756893,-849.5476809,,,,
544.7599996,2127,-114.3381931,-65.25292566,-67.18572677,-58.71523798,-177.6620114,319.0973718,-184.8140643,-38.68118756,-161.2377466,-124.76632,0,-160.1643179,-94.85790033,285.3669187,212.5120824,350.1096313,,,,
544.7679996,2128,-104.1900559,-149.1903521,-34.65990559,-59.35646461,-27.41549889,-466.7882161,49.49397331,-266.9118963,-75.16034252,14.02540588,0,-129.5236434,-51.62614526,-208.8279351,-304.104212,-265.4528334,,,,
544.7759996,2128,-208.0191991,-171.2431739,-158.9309189,-127.7353412,95.92820118,240.0886872,-80.90703459,187.8577534,-99.36973239,-109.869826,0,-226.2116262,26.2497983,-188.2496481,297.1127541,-497.2593984,,,,
544.7839996,2128,-33.81890438,-40.58421267,23.70379793,-11.02875998,-260.7912743,-110.5034636,-88.26133803,-326.2073877,-146.6272484,-30.37083532,0,-84.61626527,-154.7929657,311.1733276,-172.2335487,492.3805165,,,,
544.7919996,2128,-176.3033343,-203.4449392,-111.6672418,-116.4631763,178.6556594,-255.4906773,67.55537627,44.3746846,-31.16971377,-31.85425649,0,-202.773141,57.22346039,-517.9677307,-23.54334129,-867.766721,,,,
544.7999996,2128,-74.73209929,-25.37086398,-34.63647475,-31.90356459,-178.0822256,340.4027114,-153.1019201,-15.17105051,-122.9120816,-88.05530761,0,-121.6825594,-79.3694128,308.4958286,195.5024148,315.8792918,,,,
544.8079996,2128,-78.00778199,-124.7574603,-26.29552316,-49.08973073,-41.87723865,-456.6971593,64.16814458,-256.4007191,-58.88259239,34.02758616,0,-106.6972925,-59.56907608,-179.1979856,-326.429294,-276.5006985,,,,
544.8159996,2128,-173.3916037,-136.6367829,-142.9585044,-105.3586347,103.1017256,259.646606,-60.98899705,211.3774702,-83.23141319,-94.59226853,0,-212.8892425,30.54340796,-182.6956685,271.605254,-524.1352777,,,,
544.8239996,2128,6.145326398,7.10847531,43.19131553,31.03693717,-270.4710594,-78.16224719,-55.70539241,-286.4909118,-105.6702399,15.15221194,0,-47.58306406,-143.8402225,351.08097,-204.4519581,459.6166433,,,,
544.8319996,2128,-152.6696388,-173.6070225,-105.5623934,-85.28646084,147.9569332,-236.2339143,99.86625056,80.93905675,-10.30130753,1.209602304,0,-181.5572276,50.00133247,-468.0982852,-63.62647598,-912.3081072,,,,
544.8399996,2128,-61.02124425,-9.57615086,-29.09236957,-11.27885776,-181.8126674,370.2435507,-129.7760924,17.86831635,-119.1298002,-71.79330693,0,-117.5148613,-75.95902254,328.9659147,162.1705963,264.0795581,,,,
544.8479996,2128,-57.3205925,-104.8583871,-6.215190904,-22.7689098,-31.65641824,-436.7724509,94.25752403,-230.8260929,-39.59019029,62.78288918,0,-85.57356443,-45.00117467,-157.201273,-353.3846458,-313.7598486,,,,
544.8559996,2128,-150.057785,-119.3271765,-117.0934885,-82.37162961,109.8359993,262.6304051,-27.32922715,231.2200665,-66.49903547,-76.64709582,0,-197.5924921,33.41299076,-170.9649191,252.6222781,-576.0617477,,,,
544.8639996,2128,12.76145967,9.252602552,53.84417954,33.47756893,-238.0694116,-54.32792155,-50.41281228,-277.3790958,-104.7191339,25.24358428,0,-37.24476631,-142.2368985,359.6917676,-218.4008976,407.7180657,,,,
544.8719996,2128,-153.0193376,-177.4680624,-102.8574978,-92.75142893,204.696195,-222.9568387,88.84635725,74.36165284,-14.47536193,9.050946552,0,-173.6978315,59.24493001,-463.2229931,-59.68795096,-936.8303461,,,,
544.8799996,2128,-50.90076104,-4.815938916,-22.17749254,-14.92840977,-148.4157354,365.6827044,-139.9423299,6.422356011,-122.9331996,-76.0972924,0,-123.7286081,-77.96391623,315.3622411,179.0219395,241.5976965,,,,
544.8879996,2128,-54.61375159,-103.6142803,-10.47683716,-35.18578273,-13.70415791,-435.2503405,73.637317,-243.0555742,-40.90382886,63.42058392,0,-82.66083357,-54.29188589,-169.051462,-356.8165873,-346.8739021,,,,
544.8959996,2128,-161.1552325,-128.3247655,-133.2756599,-100.3454468,148.5362768,254.7803001,-55.84472482,222.0091538,-70.83497187,-75.55205481,0,-194.6161106,26.1201532,-187.7442207,249.9043656,-610.0214764,,,,
544.9039996,2128,3.883941259,3.522429252,40.8523879,24.08237706,-203.7685138,-70.12221214,-76.51849482,-289.9357341,-120.5715082,10.42952328,0,-55.45847788,-167.6826328,342.441552,-208.9295345,388.0925708,,,,
544.9119996,2128,-155.9887286,-174.0300394,-112.8938756,-93.38235141,224.5211189,-235.5827224,75.37931363,67.20943858,-22.9143029,8.01230478,0,-179.9505336,29.24412953,-468.8068341,-62.14787768,-965.427379,,,,
544.9199996,2128,-48.47824414,9.54043469,-28.70435497,-4.860560935,-125.0079943,360.1639151,-146.9182638,16.50061555,-129.4395616,-62.42231198,0,-116.0810692,-98.18907155,313.12904,180.5053614,204.4639191,,,,
544.9279996,2128,-50.52716619,-88.59642533,-8.189255654,-19.01002025,1.188709453,-438.3398937,69.65614795,-234.645842,-53.7634885,71.71517145,0,-81.8187111,-72.14932913,-159.3015633,-351.6731904,-371.0575204,,,,
544.9359996,2128,-159.5406061,-120.1090093,-127.5225607,-91.9462669,159.8712434,248.5910459,-53.02868606,224.9626435,-77.09371137,-70.34279375,0,-195.3223918,21.02577245,-179.2232284,251.7216396,-644.6646739,,,,
544.9439996,2128,37.02186041,43.95269739,72.97745619,54.23187652,-201.8213033,-65.41692415,-52.36271625,-271.2030114,-115.8994625,28.75447692,0,-42.03107549,-159.581581,337.407184,-210.6168872,353.1181812,,,,
544.9519996,2128,-100.3874997,-113.5993211,-56.87863542,-42.91348935,204.8492826,-224.3349848,121.1589769,102.2969817,9.458054442,61.80446361,0,-137.5563231,45.40800763,-446.4439268,-90.31411572,-1016.172794,,,,
544.9599996,2128,-8.328697157,52.36119263,22.42956648,32.31860514,-144.328707,378.8025789,-104.6214701,48.25959005,-84.71435367,-6.153618989,0,-69.36020332,-76.60588582,362.9531429,140.4714372,126.4766255,,,,
544.9679996,2128,-2.450811345,-34.63810512,45.65193829,26.97221782,-12.00648243,-409.081689,114.8193005,-201.0763072,-15.54151849,116.8918336,0,-39.72167092,-50.28695827,-123.6053838,-390.2372864,-441.5022672,,,,
544.9759996,2128,-107.6291553,-62.57707038,-84.6602531,-45.19242513,138.5301206,279.0525253,-11.42083996,267.7791086,-32.93057132,-11.1133038,0,-141.5079321,43.37894763,-147.2247058,206.3089622,-724.8415578,,,,
544.9839996,2128,64.23277144,74.44638289,87.97565083,75.04332545,-227.269354,-29.32704205,-28.96128183,-242.4512598,-79.21604425,74.60751586,0,4.164621557,-137.4042911,381.3116171,-254.4518382,275.2520543,,,,
544.9919996,2128,-85.78295632,-99.61538663,-55.34860395,-33.64702172,206.2589763,-194.0090902,142.4576275,109.9797686,21.64612857,68.05999978,0,-120.249228,71.20087117,-435.1503328,-115.1929032,-1062.554456,,,,
544.9999996,2128,2.245184046,56.52726466,14.56162693,36.2982039,-118.3657444,409.4495241,-92.46074415,52.01430167,-80.35347386,-14.47679561,0,-64.73967003,-48.88094529,352.9472178,134.8826053,94.97532099,,,,
545.0079996,2128,-6.577897708,-45.29897672,24.17832354,18.78571735,16.54435386,-378.5811318,115.4060287,-201.257255,-12.31956801,109.2019189,0,-38.46646448,-31.86765074,-100.984675,-390.1385046,-452.6415205,,,,
545.0159996,2128,-115.5125439,-73.62470111,-100.7578476,-56.70924902,175.8480407,284.8396811,-1.752329417,267.3802064,-49.1307934,-33.10755093,0,-159.7505552,58.26175867,-135.1739439,227.0921179,-713.7534887,,,,
545.0239996,2129,54.497009,61.96387268,72.77005557,56.65183456,-189.6447971,-40.73921936,-29.86421851,-242.3631757,-99.64522916,51.48745672,0,-12.60244181,-114.5984967,369.0769308,-223.1242715,290.7256894,,,,
545.0319996,2129,-105.0233668,-118.7592454,-86.71212871,-59.58284053,233.1236521,-206.6481622,127.1779892,103.9766008,9.51409871,56.67734031,0,-127.9615362,97.44759315,-443.5384352,-84.65123276,-1042.197365,,,,
545.0399996,2129,-14.69098156,44.85788209,-18.10542477,10.91061129,-99.72165951,395.5644259,-104.0383253,35.31280036,-114.4959793,-33.30706425,0,-91.04020012,-33.85113903,346.8608135,182.5487072,129.0840629,,,,
545.0479996,2129,-19.7646465,-57.2671123,-8.520470645,-16.55589398,24.20462936,-410.9019804,95.16546797,-239.1418417,-56.97081805,82.66854186,0,-68.91865879,-35.03066875,-116.3978444,-345.9067211,-414.066411,,,,
545.0559996,2129,-114.2293944,-72.78480353,-121.467467,-70.917852,165.7119805,261.4633111,-7.180960371,245.7184258,-64.06686011,-41.50467874,0,-168.1536133,47.72902864,-171.1712119,259.8864639,-689.9126987,,,,
545.0639996,2129,63.22805484,77.85196097,67.69584653,68.08673,-207.9330381,-38.70388918,-14.71511477,-244.4935873,-108.5248907,58.03586346,0,-11.83514804,-135.3451532,360.6441817,-194.6863767,310.402511,,,,
545.0719996,2129,-110.4744732,-118.8215377,-102.2429954,-67.92408104,231.6463058,-218.6608427,128.9802042,85.2421434,-11.04426885,55.99697406,0,-135.8744208,66.39842776,-428.3276124,-64.98029728,-1030.648154,,,,
545.0799996,2129,-3.082468566,59.23789121,-19.90726176,15.18772954,-108.103217,390.0796574,-91.84682251,38.83885011,-109.7135157,-23.42089747,0,-84.90015418,-51.25675237,339.5977818,199.1296276,126.6415102,,,,
545.0879996,2129,19.43954904,-9.520570496,23.28975598,26.8067578,3.375540579,-392.00618,133.5170121,-210.2840429,-30.8539479,118.2244418,0,-34.20454457,-30.87968627,-113.395696,-340.5999447,-415.1453115,,,,
545.0959996,2129,-82.83522661,-33.15680934,-93.73735458,-35.94213219,172.8963984,285.3288257,25.7504302,265.1629532,-35.51545384,7.688114739,0,-123.0737712,74.65269595,-130.5421794,258.7216462,-704.4900722,,,,
545.1039996,2129,84.82006495,105.0505224,81.98107078,87.11035444,-189.1998419,-8.875894035,10.13229516,-224.4130353,-74.12165261,104.4922472,0,29.80847623,-89.04492837,410.5991832,-190.5809799,303.1196342,,,,
545.1119996,2129,-74.62492619,-75.5340238,-69.20308455,-31.51282348,252.8048173,-186.2420186,165.1720605,113.9833508,16.1719567,92.36260265,0,-103.1464425,112.6493276,-403.7325903,-57.02056535,-1018.874721,,,,
545.1199996,2129,42.58950267,108.9476992,25.05168707,57.01415406,-79.7257164,420.7393923,-54.36246936,72.05818654,-82.15124772,22.55707819,0,-46.37347668,-13.21414119,364.2839369,213.2881022,131.8878673,,,,
545.1279996,2129,38.47816775,7.870103234,48.27887347,50.50163203,31.94045362,-362.6674007,160.6699549,-174.6837495,2.469192038,163.471663,0,7.415465125,-0.8373944,-74.31572262,-333.1977722,-417.1409026,,,,
545.1359996,2129,-82.83180551,-31.00938852,-80.94657555,-16.47327698,221.1716462,319.4204908,43.48772294,296.8285994,-28.11632665,15.36168766,0,-110.3717641,94.36382686,-106.764362,278.1965165,-703.8468726,,,,
545.1439996,2129,114.0484118,135.0125669,105.1132038,112.3644462,-151.6224924,19.64093359,21.02222742,-207.0428187,-74.02846045,110.3323521,0,40.67437616,-80.95150073,439.8044739,-151.6241866,320.6355605,,,,
545.1519996,2129,-43.74719466,-54.41006833,-52.17531118,-21.50071027,260.1467924,-174.817786,175.5578843,129.6768003,42.86483054,118.0258628,0,-72.36098347,110.1037171,-374.8717638,-36.37768482,-1021.619588,,,,
545.1599996,2129,34.37201209,94.83834743,13.74760434,42.99599324,-54.86252538,432.229181,-56.7426173,82.64599848,-70.88515173,14.66361008,0,-43.52547964,-10.74125188,366.6717937,237.7006189,121.6834814,,,,
545.1679996,2129,40.55699927,9.537099557,42.51302948,40.09947258,62.82031209,-361.5588125,156.317366,-185.2792363,-7.748137668,138.3386384,0,-11.42963146,17.7770522,-85.32508711,-293.9893763,-399.6256682,,,,
545.1759996,2129,-69.33201145,-23.01461036,-81.62632794,-28.35702747,228.1892116,310.3730797,44.14731458,288.8429862,-16.91064271,14.21526977,0,-112.6143145,111.5477774,-130.2933201,307.0076555,-702.693625,,,,
545.1839996,2129,109.9823457,128.1422093,97.22690882,101.2050485,-140.6676751,19.82658906,11.23824599,-213.8788832,-72.28619709,97.56096709,0,30.65146081,-73.39890555,411.9021637,-119.8750789,337.0469094,,,,
545.1919996,2129,-18.19519894,-27.72194742,-18.99415525,14.86378141,281.0365148,-165.0907684,190.1475341,137.0703866,36.04670894,113.9514186,0,-71.78508919,132.5002079,-389.1732224,-10.73774883,-997.9056727,,,,
545.1999996,2129,72.56764949,134.7007694,57.97569867,95.5075328,-51.07581423,467.930261,-25.7544278,120.341492,-43.46897938,57.98262967,0,8.211390171,31.28738651,391.8113774,247.6389002,120.4074849,,,,
545.2079996,2129,47.90552505,23.79313175,51.5228603,55.88685701,59.80888215,-330.9193991,158.9414341,-169.1935301,5.798590903,168.5837871,0,29.99816843,44.5279796,-44.09801136,-276.1829493,-377.1875172,,,,
545.2159996,2129,-54.77221844,0.036772303,-62.61218022,-9.520370845,242.9787791,325.9642047,58.88824629,305.7576557,-22.56033889,28.22086068,0,-99.24859659,127.7607672,-114.8865327,338.3313346,-678.3170596,,,,
545.2239996,2129,133.6794925,156.5781156,126.3597379,136.3989821,-129.4594516,54.31496338,49.4580641,-172.261611,-59.36266444,135.1989248,0,64.65834771,-43.43295195,438.7439606,-91.0468137,353.2092806,,,,
545.2319996,2129,-26.96166357,-28.69392972,-27.37859631,15.67666162,297.8753541,-146.0448524,197.9098701,150.1468855,36.49455935,133.6543451,0,-44.79087175,158.7066446,-361.577875,23.87693513,-972.52751,,,,
545.2399996,2129,62.90248661,137.484363,50.06558578,92.24392166,-14.57782758,467.2522081,-34.86304298,119.2410442,-53.29682256,47.9314391,0,9.614462215,49.38432409,391.9334516,316.3485149,169.7463718,,,,
545.2479996,2129,77.21991585,54.79957837,83.41483098,92.94377129,74.90778721,-320.6684096,169.6257104,-149.3922264,19.92025835,178.0035046,0,51.77921869,63.97536469,-27.07499515,-216.0202577,-324.7608896,,,,
545.2559996,2129,-27.89268891,20.03569245,-35.18593097,20.15789436,251.0227674,349.3817462,62.65833898,329.059613,6.819751746,48.35309441,0,-58.42891342,155.2851193,-79.65931527,373.9955085,-656.9146722,,,,
545.2639996,2129,133.3072651,154.3008479,127.9049367,134.3286023,-106.870858,75.38910775,25.61055904,-171.7078005,-32.54988353,131.189104,0,84.17018992,-14.16992467,460.377062,-37.82192465,394.2027265,,,,
545.2719996,2129,-43.77244906,-50.60004689,-54.32763456,-15.00813788,317.1076706,-148.4730798,157.024431,128.1638583,44.04786609,105.8508919,0,-59.73554001,163.3433973,-364.0907354,82.58509372,-919.8703182,,,,
545.2799996,2130,55.86927305,120.0428965,23.04710833,53.27655577,-9.561063799,457.4713597,-67.00778888,94.44691932,-66.50652536,9.334387948,0,-25.30804259,34.54132013,362.1359117,370.5095596,221.4855091,,,,
545.2879996,2130,93.14354681,67.75104073,86.31004678,79.27904551,75.57050285,-324.7009938,169.1087334,-159.1307727,22.52646402,164.1416562,0,36.75143732,65.76611519,-70.91261806,-178.3335357,-275.8436489,,,,
545.2959996,2130,-27.6458821,25.36333816,-46.32551264,4.731561275,267.2671661,344.4428957,60.26571509,328.9379077,15.27395535,54.36361318,0,-56.55003032,175.7903303,-99.72403003,409.9840311,-620.2277736,,,,
545.3039996,2130,139.4055595,163.6745978,131.2241579,131.7986947,-100.5905215,66.93912491,28.23366675,-166.2034137,-42.9800088,138.585279,0,83.104218,-9.674807417,464.1249593,4.175883375,452.6013036,,,,
545.3119996,2130,-15.70686203,-19.91898137,-13.76149678,17.3306187,320.2697424,-140.9432744,196.1593876,164.5993687,48.22086166,138.8774175,0,-42.29653475,175.0033215,-353.7014213,96.76449106,-890.1994459,,,,
545.3199996,2130,108.5833795,225.5177539,75.19708775,112.2081496,-171.0569178,876.1487304,-183.396247,126.6869683,-118.8518588,-4.305382239,0,23.65563971,1.283109458,874.3623378,563.639348,916.0163746,,,,
545.3279996,2130,225.7696056,267.8508795,208.7091861,192.285744,-348.8730972,216.0936587,-74.10536902,-349.9771668,-108.1569398,123.0720418,0,132.4884612,-100.2726782,940.1112449,-20.91994855,1264.192663,,,,
545.3359996,2130,10.27217241,24.50885146,2.82458212,35.53707889,236.4188594,30.89944609,137.8396015,161.6187088,21.73774449,112.6051753,0,-36.89721551,143.8235983,-164.1654747,175.070771,-600.7812425,,,,
545.3439996,2130,61.65925777,77.3086683,43.66516941,71.60941872,141.1056052,44.45621623,122.1672594,81.16855533,9.881003363,128.8554161,0,-1.588882227,89.90122064,0.774412272,129.0077965,-315.796223,,,,
545.3519996,2130,64.85486719,94.90012084,32.55043289,66.69044024,99.48365888,173.1312101,69.36626851,97.76889318,-2.387199757,113.496722,0,9.676627807,60.14456934,139.9869906,195.7685227,-144.8788909,,,,
545.3599996,2130,60.26213601,70.84753314,43.12828414,62.83545184,65.41846306,66.58592797,68.81057187,4.597894645,-6.143102811,107.8744401,0,11.0100407,37.83747282,145.0579798,105.1586502,-68.08508738,,,,
545.3679996,2130,19.61947355,9.735172816,29.88728347,49.44315587,193.9464535,-41.04446643,147.1237149,95.19614194,27.2849204,93.00204015,0,-37.02118169,105.8735121,-156.2017733,107.8303694,-503.9088552,,,,
545.3759996,2130,67.73163396,104.5699767,58.80451383,86.43723322,41.8488132,345.9020105,19.81572418,127.9510797,-12.5114281,44.87273509,0,-4.360137857,65.38672865,264.3748638,305.8065934,89.07481031,,,,
545.3839996,2130,79.84163237,54.80165556,74.43289665,79.30005438,98.68401365,-204.8786477,167.9270074,-57.88150534,41.10941931,144.6229115,0,27.24872192,70.74798403,-49.5625451,-65.05589673,-264.8179039,,,,
545.3919996,2130,8.887260848,36.80271178,-2.771387401,30.52380635,202.3982581,275.9353951,88.46959586,270.4477004,22.69769069,53.21312915,0,-46.60023906,126.4502234,-61.49555206,335.5422615,-462.1572023,,,,
545.3999996,2130,126.1650484,129.0109744,114.0568549,107.3942082,-65.59995285,75.58680531,43.81899409,-93.30428966,-12.12162034,105.4396197,0,51.14224054,15.45939331,342.6386836,48.29813212,315.3342123,,,,
545.4079996,2130,-0.634072437,-24.50565172,-6.804207191,11.50848388,237.1635138,-139.4422116,163.2201047,125.4010211,61.74960111,108.5101381,0,-48.59645069,158.7205467,-314.1034325,85.67426874,-730.4204639,,,,
545.4159996,2130,50.65171145,94.94223795,29.97884923,55.36482888,-14.32467693,435.0045648,-44.53694837,128.2063006,-35.28318268,19.13146321,0,-31.12158339,61.48843365,318.9467079,359.5673339,200.2417728,,,,
545.4239996,2130,74.03380178,34.69757718,74.63285593,62.70979643,47.40967516,-284.4985472,148.6391959,-135.7458049,14.29710514,139.1527602,0,2.042776317,50.86478096,-50.00397716,-143.5101813,-188.7576463,,,,
545.4319996,2130,-23.44053031,3.171246842,-31.61594872,-1.741609881,208.2177058,295.0910165,70.34946177,310.0461984,10.45830899,33.135619,0,-88.06398642,131.6387508,-126.9061411,357.8562176,-555.4570157,,,,
545.4399996,2130,126.3699721,128.6479962,123.4357387,106.2678689,-137.1527937,67.60758509,25.06452885,-144.5665036,-27.28480243,101.1023484,0,47.96806574,-26.00869874,400.3409213,-8.33688927,438.1502359,,,,
545.4479996,2130,-27.99594933,-49.75958959,-22.6393267,-8.320569613,244.5052974,-178.5262457,167.3397089,122.0439256,46.12571779,95.06838884,0,-76.65312053,134.0094035,-369.1247908,39.45087903,-811.4821872,,,,
545.4559996,2130,69.25801297,118.847773,49.65269792,68.71080892,-39.63677255,448.8871793,-46.92724683,129.6433901,-53.15822187,13.00055414,0,-33.64657462,27.67311359,344.0026484,336.5795273,231.3965176,,,,
545.4639996,2130,109.8240603,60.88278082,99.49511053,82.99400133,31.91270701,-321.3806986,156.2080721,-153.9718661,30.10406451,161.3863962,0,37.73565171,23.27041069,-46.36631258,-211.7501007,-193.0040237,,,,
545.4719996,2130,-29.30790464,-5.915319627,-57.38563514,-17.90106145,230.7422608,294.575037,36.63739428,307.7310891,12.75332659,23.30887004,0,-83.53153997,117.2207264,-150.0663859,337.0727243,-602.2868051,,,,
545.4799996,2130,147.9054434,149.072461,130.5590788,115.8260571,-156.2782022,63.49178304,0.296287631,-171.2963714,-38.79757062,101.9221024,0,57.39879105,-45.28764354,410.3929268,-52.32975457,468.8699146,,,,
545.4879996,2130,-2.260347053,-30.32129754,-6.411617907,4.872064434,238.7981075,-177.1778608,176.5044422,137.5344092,57.34999432,119.1653811,0,-49.91464311,125.5424355,-392.2082041,-24.36774668,-879.7013807,,,,
545.4959996,2130,58.04118723,106.7864461,39.94971543,51.6997862,-56.19078903,457.2658745,-60.46003676,131.847889,-53.90369079,4.422281368,0,-35.84026018,8.352046528,342.4850227,269.4953213,194.1063038,,,,
545.5039996,2130,89.95313058,48.67390936,97.74481275,73.72075716,-14.54971414,-331.920897,151.1440178,-164.9704526,18.12405582,145.3805445,0,14.79177604,-6.388453265,-61.39116167,-300.9622052,-230.5751156,,,,
545.5119996,2130,-28.87307324,3.640013157,-40.11806004,3.907248679,174.891931,309.2997005,59.69541053,330.9309704,8.820310397,35.36182302,0,-83.05407955,84.27043985,-155.4142003,227.3825887,-676.8300214,,,,
545.5199996,2130,152.9375761,161.2385119,147.9931224,140.5064742,-214.1423931,74.50880453,20.58113057,-151.8096677,-38.59880068,118.9998205,0,72.19768623,-77.86060378,439.1576701,-178.9063095,410.7345996,,,,
545.5279996,2130,29.69358507,-24.52664813,40.62528986,44.73908198,193.1856897,-470.2207971,281.481313,51.95288766,100.946203,199.0301273,0,-0.643274887,102.2590488,-508.3033131,-383.8881841,-1125.92779,,,,
545.5359996,2131,188.0100985,200.0359816,173.5141016,165.8539151,-251.0916588,93.92571321,46.22220813,-114.2076938,-3.825497546,145.1726077,0,105.2651615,-69.7916523,466.669292,-280.1594906,325.9605446,,,,
545.5439996,2131,307.5012135,253.3313258,309.2478077,247.815621,-445.0608456,-481.32978,127.2456783,-579.973306,2.716539613,261.7916637,0,216.2438289,-169.9019226,598.0670283,-798.701972,778.8966211,,,,
545.5519996,2131,10.25012184,3.143750197,3.66503392,31.00281827,188.1186898,-53.31357301,186.0770274,247.0538161,84.59795946,132.5111727,0,-24.83256571,123.995982,-345.2398914,-123.7439999,-1047.47816,,,,
545.5599996,2131,62.81068177,105.8178079,40.57209204,68.76120282,-22.96211437,374.3165534,16.05273218,218.9594619,18.73349042,70.17334444,0,4.639195998,56.93194457,182.1725507,44.23656086,-296.0875805,,,,
545.5679996,2131,119.2874924,116.8504825,108.2527439,101.3481187,-131.5954681,-41.64902692,68.44636977,-94.52138696,11.62197531,131.6981682,0,50.27203722,-13.34324823,194.0757765,-307.1671089,-76.34771163,,,,
545.5759996,2131,23.6457432,24.07024801,9.804233076,28.28580188,84.06529012,2.193673029,114.2849765,147.1880479,34.56147236,99.28135586,0,-29.58826273,65.67790442,-162.7775748,-155.579236,-717.6201084,,,,
545.5839996,2131,50.64874808,77.13945096,33.58509597,56.37982453,-11.90505978,245.547708,26.71545988,148.9721443,2.435905983,71.49956847,0,-8.119300994,32.15384289,120.2183097,-44.23656655,-314.5588115,,,,
545.5919996,2131,106.8745052,103.6153759,104.9274729,108.4570024,-95.85894157,-3.761901175,69.56176851,-53.708686,5.674815605,126.2878336,0,37.42125716,-7.249021483,166.9245935,-271.1518575,-141.2299496,,,,
545.5999996,2131,15.56241351,14.97569741,13.30160593,42.91182754,108.1399265,23.8103146,120.3227005,181.3561961,39.85891771,106.8987034,0,-31.12357439,90.25873654,-176.0074014,-140.9355398,-810.6915277,,,,
545.6079996,2131,65.34460834,102.0161042,54.81518038,74.7851251,-106.1871033,295.1054241,-22.71541174,84.31220335,-34.33851364,56.47087821,0,1.006440771,-0.312182919,297.0105513,-51.90097272,-57.05241731,,,,
545.6159996,2131,78.38685689,55.30287497,84.35254055,79.12636996,-24.33299213,-198.8041262,133.4426746,-40.15314374,23.59791671,131.9195673,0,12.21783262,18.5837424,-65.56881354,-366.3696693,-477.0068528,,,,
545.6239996,2131,22.1543905,51.89153888,10.00938582,47.38338111,67.1530383,272.3483286,69.79107569,302.98888,27.98584913,58.61584135,0,-41.09802543,81.54794915,-71.98303307,13.13744083,-690.8207155,,,,
545.6319996,2131,137.4630775,151.9216204,130.2343453,134.7826483,-215.2198911,58.81257921,37.72788252,-82.43556311,-4.058162845,130.0383086,0,76.25453254,-45.5052182,358.2658094,-316.9863767,91.19563642,,,,
545.6399996,2131,2.583531954,-3.439723578,5.86201951,33.95054571,125.400724,-117.9611076,159.1982384,157.7880498,65.3906341,124.9948442,0,-28.7801911,103.8871131,-290.6798249,-256.9173347,-1005.876861,,,,
545.6479996,2131,69.07489752,121.244623,47.27363804,81.71822623,-127.7896253,412.1357568,-46.38045886,135.6473168,-30.36975345,31.35356833,0,-11.9411425,3.692098527,328.1101927,-1.805061205,-73.90776722,,,,
545.6559996,2131,95.38610861,63.26889142,91.82175702,93.84869529,-68.94483366,-276.4774199,142.009866,-116.9327649,37.99673299,155.9224931,0,39.32443042,-3.072301241,-27.96546967,-491.1602079,-464.9503788,,,,
545.6639996,2131,-20.68274046,9.785323928,-34.09671648,18.41792911,117.8872429,283.0125626,59.539387,323.6145891,29.33810238,41.63203566,0,-62.33710193,95.33867987,-124.0195694,17.31214861,-860.8844347,,,,
