Time:125Hz,Epoch,FP1,FP2,C3,C4,P7,P8,O1,O2,F7,F8,F3,F4,T7,T8,P3,P4,,,,
163.4959999,638,-1.190156845,-14.62922116,183.5606025,0,9.5927599,-2.529303457,-14.92294591,-32.38492932,-72.28711942,-72.44617631,-67.26577888,1439.692337,-61.17691441,-103.4854374,0,-56.28717308,,,,
163.5039999,638,136.1114017,126.2657674,217.4605373,0,-375.6246345,143.0054964,137.389143,114.3096981,136.2668859,150.7983369,129.2117591,1299.733526,148.8889402,118.0958729,0,160.3200289,,,,
163.5119999,638,-88.77277802,-113.1896355,255.9327421,0,238.4755818,-86.6592014,-92.76924674,-120.9634515,1.542713554,12.33555649,15.6335303,1214.731427,13.57551556,-20.79326388,0,31.84468899,,,,
163.5199999,638,104.1170748,96.00409114,136.1763278,0,-386.8000545,117.4646084,113.0205957,89.22548853,-25.89285584,-25.89732843,-31.92591165,1431.131973,-12.24956251,-50.76798379,0,-10.10559314,,,,
163.5279999,638,-21.29660685,-38.73340399,234.0703799,0,14.48400493,-22.55268818,-17.87395904,-50.51087836,109.2678473,129.5177006,114.7097536,1099.272898,128.9967795,96.17037266,0,141.0404205,,,,
163.5359999,638,-14.41331165,-26.41246237,150.6200729,0,-5.596212093,-22.36674064,-23.63417596,-44.78529961,-100.1751441,-69.65007931,-89.9461315,1350.990422,-84.51604233,-118.4558539,0,-75.07100522,,,,
163.5439999,638,138.0099964,129.2532723,191.5707572,0,-376.4814535,146.3194418,133.0113174,107.7542757,133.3392565,141.1060494,114.6758402,1199.873138,147.2234799,101.0506262,0,138.5091333,,,,
163.5519999,638,-43.95095469,-63.4526157,257.0601066,0,254.9875964,-51.45826719,-56.28832228,-88.27017054,22.59311399,32.40918203,35.76301201,1114.179533,35.3536898,-9.700013065,0,42.7674272,,,,
163.5599999,638,140.365119,134.2184909,136.5046215,0,-366.2381994,133.0672928,133.4904984,104.7902824,9.050980073,28.80840276,8.455828652,1320.253563,15.65651597,-14.18687745,0,27.76956165,,,,
163.5679999,638,-23.67929534,-38.01648683,213.9308133,0,35.37710201,-32.84641402,-50.12297986,-82.84548937,113.3552769,127.9233573,111.1951967,993.3894928,126.8184027,86.92302933,0,132.7261242,,,,
163.5759999,638,7.302180843,-1.733679214,153.9604948,0,6.156936536,-7.647211151,-21.81744737,-46.25274268,-92.67883235,-78.39659784,-86.22064082,1258.449767,-77.354195,-125.2988539,0,-79.12924511,,,,
163.5839999,639,144.1774118,134.003736,188.6550868,0,-361.6138569,133.9004839,127.9160805,99.54075851,138.2444014,154.4278993,129.3940466,1107.218598,142.6222168,113.8740654,0,147.5537439,,,,
163.5919999,639,-80.43314593,-101.8507908,216.1209478,0,247.6428127,-99.42022967,-117.3587173,-140.1764514,-16.58423534,-5.942865209,-5.576983576,1037.173968,-7.743979596,-44.70184685,0,-6.10703875,,,,
163.5999999,639,128.5063973,119.8914414,125.2958496,0,-378.5267368,125.1074611,101.2866633,84.83665917,-2.575995389,6.00006686,-12.00667504,1252.080691,6.068085037,-32.0917355,0,-1.49443738,,,,
163.6079999,639,-23.88840699,-41.97488124,211.8262958,0,33.47892124,-26.54028342,-50.88817148,-76.70614131,108.3931938,125.7608632,111.4731109,925.8758877,113.4266671,92.86085307,0,132.8551839,,,,
163.6159999,639,4.668876355,-6.761845643,133.8033947,0,-6.454613818,-6.919869546,-25.0089799,-41.31673873,-116.9093631,-98.91347999,-107.5173815,1190.659773,-101.9630776,-136.1254566,0,-94.31325516,,,,
163.6239999,639,124.2400908,113.4393819,172.7824064,0,-358.1418287,121.7308804,106.1257353,86.00435724,131.0793938,150.2701262,121.1570412,1033.950963,144.345919,115.6629616,0,148.7617098,,,,
163.6319999,639,-126.8232267,-149.3890547,179.0449239,0,235.7013437,-137.1732672,-156.4989177,-178.2096156,-53.7104323,-44.3170184,-41.52926817,969.5995178,-44.8489755,-69.98519202,0,-29.51633753,,,,
163.6399999,639,144.0215823,132.1583072,120.9063631,0,-406.3703679,126.8258023,110.3205559,95.43699781,-22.72812042,-19.84219691,-36.71142269,1176.374335,-19.87189491,-53.5948714,0,-21.9080917,,,,
163.6479999,639,36.21457663,14.28228692,262.0456411,0,34.70978264,8.799431318,-9.607809562,-34.26943114,158.7145369,179.9414404,155.7847441,832.1156076,151.2080414,127.552009,0,166.474262,,,,
163.6559999,639,31.86722024,17.99663498,159.2247924,0,-2.03991266,13.9541236,-5.6266421,-31.44937102,-74.77218226,-64.39396132,-71.30409559,1085.79169,-74.72352855,-114.4992986,0,-74.61062384,,,,
163.6639999,639,185.7331259,172.9579408,201.8208471,0,-340.9380623,168.5011755,150.2893648,123.3546558,179.181096,179.0683673,164.5703107,917.8093338,179.2105605,138.4563274,0,172.5773575,,,,
163.6719999,639,-29.74987755,-50.62096368,241.8403983,0,279.5998677,-60.93164335,-80.18913591,-104.0791718,36.3584486,44.79740746,53.56927814,843.6108704,41.91900307,1.132814552,0,41.85646945,,,,
163.6799999,639,179.473662,174.0153616,147.8231122,0,-347.4357191,171.4275031,156.3301805,128.9645248,29.35784081,37.08019869,26.26277262,1044.983291,48.43107452,-6.104233162,0,23.94042745,,,,
163.6879999,639,46.91753033,30.34997589,257.3548693,0,88.18316735,30.08578871,17.21645941,-12.53231275,182.2332443,191.5458703,184.6197472,710.701666,181.529125,150.7536774,0,189.3287288,,,,
163.6959999,639,42.13533684,35.05660081,164.3979547,0,33.00426903,24.34280226,7.070295129,-7.52233278,-40.04458962,-35.67164725,-36.68651746,964.4213172,-38.64734217,-75.42410311,0,-37.56302111,,,,
163.7039999,639,135.5999372,130.9869554,182.2936158,0,-306.8303155,132.1154071,113.4782241,90.85187136,150.2563181,173.1770949,139.364052,801.602635,161.2109153,122.5471595,0,159.7732146,,,,
163.7119999,639,-92.79268012,-108.774581,197.6205479,0,278.0477911,-110.8102639,-125.9184782,-147.4188857,-31.8837167,-3.182678334,-13.4010862,758.7346771,-38.13189818,-54.85005239,0,-1.725082065,,,,
163.7199999,639,138.2382241,136.8510794,109.2301427,0,-372.8235628,131.629431,118.5173818,104.9628164,-8.644094101,-2.570217428,-18.53415827,965.8477299,-3.9350876,-39.143217,0,0.518522583,,,,
163.7279999,639,-13.68034816,-26.79510299,210.8862203,0,67.66739424,-24.50591683,-36.50795692,-58.34209732,123.6232773,140.6058056,125.9059504,630.2669419,140.9889877,102.8768144,0,145.7407996,,,,
163.7359999,639,-0.62399666,-8.737099754,134.2861764,0,-6.527464734,-6.961274217,-19.89792408,-35.43277625,-105.4927478,-94.49571152,-97.38902076,891.6417571,-96.73953486,-125.996598,0,-84.16232721,,,,
163.7439999,639,145.7491904,137.4877135,181.9421049,0,-328.5287261,146.7487609,127.5963158,111.7382557,144.8674699,154.2549959,135.1206745,720.5456566,150.9335079,120.7520127,0,157.5030649,,,,
163.7519999,639,-76.0367032,-94.03502548,190.2720823,0,276.5396275,-94.27950268,-112.3793461,-127.9293546,-16.13184566,4.078416821,6.791162697,667.9382998,-6.295347869,-33.26254538,0,13.07364948,,,,
163.7599999,639,153.3540972,147.3085195,119.049621,0,-367.6160488,148.9692387,133.2009741,117.4677127,-1.00792743,1.140250122,-6.041555068,867.3071719,2.833006563,-27.50803381,0,8.789285592,,,,
163.7679999,639,13.71147705,-6.697103238,237.8714987,0,91.39245389,4.434513067,-14.44292733,-34.90686752,157.3832858,171.0746637,159.4903593,534.5660393,161.6613892,127.2506853,0,170.6821805,,,,
163.7759999,639,-11.21555212,-22.31114609,114.0847671,0,16.29163253,-19.89528775,-33.06838346,-47.49040516,-92.56951979,-78.10735151,-83.07723397,803.789077,-77.07720148,-110.4906099,0,-72.34903914,,,,
163.7839999,639,127.2352536,118.6221825,156.10865,0,-308.9396958,130.2888482,115.4172048,95.38918094,114.0534875,124.1532945,100.3546205,639.4738009,117.7712755,97.63351181,0,130.5766381,,,,
163.7919999,639,-47.23247196,-67.06549556,206.9766995,0,290.0211439,-62.44961343,-79.05178276,-96.94457525,0.307564351,20.79589019,10.61155012,587.9192682,0.390006172,-25.37705502,0,19.90336968,,,,
163.7999999,639,145.7300003,139.2546548,111.8994825,0,-346.3431095,136.8881086,127.6946089,110.5619425,20.57487303,27.39187603,13.13035743,776.9898367,31.16413862,-6.090626791,0,27.33891429,,,,
163.8079999,639,-16.89450365,-34.2232544,213.6131432,0,105.6251781,-26.23395566,-39.70007659,-62.55284113,119.724543,140.2477214,125.7792426,452.5351296,124.2404451,98.32395425,0,138.7624395,,,,
163.8159999,639,20.72401306,13.65865126,138.5401511,0,9.060217336,12.00303193,1.286620209,-11.88766043,-90.27147522,-69.45682613,-79.65944628,718.2455677,-84.5300023,-112.4626931,0,-72.33100045,,,,
163.8239999,639,154.6791209,151.5647963,191.3782018,0,-296.4318761,153.8260596,145.4992759,125.3615246,155.2499941,167.4582759,149.8710635,534.3702568,166.6220728,140.2527047,0,177.0499135,,,,
163.8319999,639,-80.20559783,-94.51919479,212.259809,0,294.11223,-90.90170475,-103.1632267,-126.5322269,-2.122711595,18.0697787,20.24989116,489.5735369,4.454661674,-16.36462699,0,32.47038908,,,,
163.8399999,640,119.1273267,114.3334926,118.5913705,0,-360.6376514,106.7684865,102.0855728,81.11213163,-8.512451553,-4.03236337,-9.401053835,687.5698177,-3.045218837,-34.89695075,0,4.758081024,,,,
163.8479999,640,14.35536937,-2.764359507,228.6582813,0,99.47862366,-9.107807114,-15.64304933,-41.62289986,116.6821959,130.3237641,125.1987656,367.7631515,120.5298278,89.78001416,0,136.0387443,,,,
163.8559999,640,25.9871289,17.35868358,127.4004975,0,2.406154949,13.66193973,-4.399422797,-17.89766444,-76.45889109,-51.26269505,-57.55578921,628.7489805,-66.5283036,-94.81709606,0,-50.32790356,,,,
163.8639999,640,118.9642843,110.9289504,156.482564,0,-301.2345367,113.7738341,97.48091465,81.02097622,130.2883134,148.3074753,131.4957817,448.1196321,142.4062511,112.0399412,0,151.3276477,,,,
163.8719999,640,-58.04477948,-76.62633805,189.8222808,0,277.4031699,-71.80815863,-81.3187603,-102.1918969,-7.399103191,2.23841976,7.022664019,412.7144917,-15.36754712,-38.16530216,0,7.056016656,,,,
163.8799999,640,138.5515402,131.2817128,97.46522923,0,-370.2777385,139.8990387,127.6761148,112.5169128,11.77347632,25.48284994,15.34849966,586.1672101,19.86725823,-2.451915508,0,31.08349627,,,,
163.8879999,640,-0.793524169,-20.56882847,200.1661553,0,104.3726485,-17.73051586,-21.59514035,-44.2486281,98.81489028,122.6879832,120.1258293,257.3680382,123.2922439,89.55602519,0,134.0186958,,,,
163.8959999,640,40.33788973,27.58503477,118.5153606,0,8.25788561,18.25777919,25.67493376,4.941804422,-51.5526072,-48.59990909,-41.18133997,517.8108847,-54.82617789,-87.41138558,0,-43.87263787,,,,
163.9039999,640,113.5340712,101.8806148,140.1300268,0,-275.8110648,105.814131,102.4697889,78.81275321,147.9655926,155.1111083,148.5217915,329.7227714,147.488662,126.0318519,0,164.1012878,,,,
163.9119999,640,-65.9349332,-86.39338239,170.9306548,0,300.3694206,-80.23762517,-88.04037972,-111.5497948,-47.58426439,-32.4343012,-17.71496616,307.0511277,-33.76330754,-62.4491932,0,-14.31562462,,,,
163.9199999,640,157.7785246,150.527359,115.5454919,0,-334.6830975,147.6590307,147.2957029,127.0553584,35.07687422,42.26798697,34.36644205,471.8072129,51.20681828,11.34235533,0,47.76178044,,,,
163.9279999,640,-19.91813185,-35.31687368,211.5627029,0,154.0352617,-31.33461138,-38.69383244,-63.95860575,113.306573,138.8590458,126.8287944,142.6173996,136.5172292,101.1111092,0,145.493277,,,,
163.9359999,640,31.96803566,23.17807561,134.1381384,0,36.00257402,32.55893775,21.87496127,2.182971645,-100.7024778,-73.53603975,-82.51701333,420.13243,-81.59400477,-102.0663639,0,-58.97255983,,,,
163.9439999,640,129.6877815,117.9133845,182.8544682,0,-239.662492,124.3013396,122.3600882,97.43246276,155.8993756,166.4919416,150.0226283,223.9332813,174.4271734,147.1216089,0,185.7044802,,,,
163.9519999,640,-96.47709147,-117.4975298,166.9460434,0,334.5380045,-119.2434604,-119.772972,-140.5764623,-34.49824199,-29.5347623,-20.37095948,200.4672866,-11.06983057,-60.95383254,0,-12.90828641,,,,
163.9599999,640,117.7723823,108.8832059,79.83168774,0,-306.5708296,112.0694498,110.4088755,94.9748211,-18.37312248,-0.546556111,-21.30050036,375.9521793,11.98179713,-29.15473154,0,6.412013758,,,,
163.9679999,640,-40.35407905,-57.63614386,192.9808955,0,177.260544,-43.81043047,-54.40487633,-76.14039083,81.82146989,102.8508937,90.95180524,56.96743616,117.0749025,77.47440478,0,122.2471974,,,,
163.9759999,640,-7.464691893,-15.8193546,91.68481268,0,40.26450005,-5.230791861,-19.25408954,-30.88944596,-110.6236221,-96.37828551,-105.4406018,339.7021435,-84.98838927,-125.8259411,0,-82.41314062,,,,
163.9839999,640,84.33527788,72.6919948,127.0830374,0,-227.5330573,86.95628744,76.43297276,61.20006646,103.2004305,126.5332572,93.49021146,147.7139713,118.4966606,99.2467475,0,135.0768032,,,,
163.9919999,640,-85.83206582,-104.8124527,158.8618553,0,326.1277741,-88.9805668,-104.368822,-120.303439,-66.61768907,-57.6959555,-51.85463369,132.1264756,-45.17293993,-77.5487725,0,-32.24117706,,,,
163.9999999,640,159.5314601,154.6052209,115.8122356,0,-315.4940046,164.0940816,149.388247,137.3552712,26.20799382,28.7855424,16.82837134,294.1719922,51.39151418,14.25120424,0,47.41207357,,,,
164.0079999,640,-30.00297018,-47.17841276,217.3863822,0,184.7055612,-40.97470505,-55.49559138,-73.73072354,119.2559625,141.1127484,126.8370582,-39.97897266,137.0177476,111.8354874,0,148.8780117,,,,
164.0159999,640,-24.68147283,-33.64773313,78.60165286,0,18.94093046,-29.12952421,-39.15356349,-54.71611461,-130.6852536,-107.2481036,-119.7237566,235.2182202,-105.3310463,-145.4052282,0,-108.9142605,,,,
164.0239999,640,59.38274653,47.87741273,109.9561581,0,-252.1108592,57.43319967,49.02337692,27.27218851,78.62747166,103.4998077,71.61221166,39.66993053,97.9386851,73.90091376,0,103.8065692,,,,
164.0319999,640,-102.1406305,-121.5941677,162.5534893,0,296.4757659,-120.2800055,-125.9873654,-148.1249978,-69.99500352,-51.28159716,-56.87570212,25.78825005,-62.62776293,-84.63531535,0,-48.44379328,,,,
164.0399999,640,129.2776893,124.1854026,106.2707654,0,-345.4377603,131.7999665,124.6207869,103.3383849,1.221406633,16.72790045,-10.48248911,180.8404613,29.08193193,-19.15408867,0,12.07184938,,,,
164.0479999,640,-73.13535914,-92.51257651,181.6154601,0,166.2401361,-72.36564946,-89.49259695,-114.4851277,69.7862388,82.50548197,70.49145299,-140.1277169,95.57988376,57.67445312,0,99.14160941,,,,
164.0559999,640,-20.56475654,-30.21932097,79.70927863,0,-1.064735838,-24.89661698,-28.92796537,-49.34011495,-136.02617,-123.6883625,-130.3760089,148.6584412,-118.0438265,-150.7356132,0,-110.5800225,,,,
164.0639999,640,100.0001497,89.69366019,145.7454504,0,-247.2761132,99.13750775,94.19359966,67.24015091,116.4565773,144.8523392,112.2140712,-55.00258265,139.4535904,110.0291409,0,147.3993556,,,,
164.0719999,640,-84.58015944,-105.2504106,168.3107189,0,307.6959793,-99.67053115,-102.3289444,-129.0597816,-45.59882684,-33.04084367,-30.56393884,-70.95414896,-36.32438322,-57.35699206,0,-12.71575857,,,,
164.0799999,640,137.5667586,132.5880093,101.3025353,0,-334.9808828,133.876394,141.23155,114.9268531,10.89851512,23.42597957,1.9399638,82.20443907,27.83946926,-0.274165172,0,34.0835316,,,,
164.0879999,640,-43.68011669,-63.21783039,187.1360606,0,180.1582047,-51.53235775,-58.88474851,-88.83323592,96.84058097,116.6180645,99.31736306,-238.4290046,115.6586822,84.80829364,0,126.546884,,,,
164.0959999,641,12.19728761,-1.253787959,84.74861832,0,8.227727938,-1.687682609,-3.337403046,-27.19517404,-101.6455651,-97.00619976,-98.60046469,45.13582879,-92.11215802,-124.3442981,0,-83.74447026,,,,
164.1039999,641,126.1197397,115.3878975,167.8783138,0,-221.6515636,113.5491231,115.2793968,87.58876215,142.311019,160.966706,133.4951297,-165.26668,150.2468935,123.8210508,0,164.8410141,,,,
164.1119999,641,-83.44541993,-102.8747079,183.546435,0,320.6669296,-106.0822756,-110.4153207,-133.3687821,-24.11222775,-6.305022475,-12.29804254,-178.1844178,-23.56951552,-47.43203019,0,3.819186162,,,,
164.1199999,641,119.5058488,111.1132455,92.18212611,0,-335.5894187,118.4543644,112.2862873,89.26631846,1.533993215,20.96210225,-0.545866153,-24.09273893,14.82895885,-9.047957136,0,30.76700525,,,,
164.1279999,641,-47.69110609,-68.09015729,187.0897926,0,174.5621292,-52.41335745,-63.51699025,-91.94629112,68.28006164,105.5417921,86.37536494,-336.3747821,81.25950281,70.45779653,0,115.5472562,,,,
164.1359999,641,2.059354094,-10.77049209,84.14954311,0,-17.86294471,-12.62890321,-14.02559137,-35.21011695,-116.8864713,-86.97919865,-98.15947362,-53.27647246,-103.4738222,-118.8515085,0,-75.71370345,,,,
164.1439999,641,106.648195,91.21373483,149.4301623,0,-236.0912434,100.2044337,95.55898715,65.69813519,116.2230443,137.8884199,119.8221062,-261.5645969,129.9958504,108.1855128,0,148.5260801,,,,
164.1519999,641,-95.94557241,-118.9014835,157.1697814,0,307.7468125,-117.3192482,-126.0959301,-150.9429124,-58.20634251,-43.0283504,-36.6296081,-260.706425,-61.73640414,-80.29643913,0,-35.85304952,,,,
164.1599999,641,102.0154787,95.38867483,71.24173192,0,-355.132469,89.36511787,82.984379,63.23219451,-13.73469804,9.487772165,-12.77168035,-114.7692808,2.514872722,-23.70393629,0,7.782589052,,,,
164.1679999,641,-44.45689762,-63.64433673,195.8331312,0,166.6102383,-52.39357849,-67.862942,-95.18011145,66.65513993,101.5789908,78.8004241,-426.7636524,84.66381727,60.39778142,0,99.11403591,,,,
164.1759999,641,-0.045988166,-13.88541299,103.782332,0,-18.29903456,-10.55652484,-17.06539245,-37.60827519,-114.3442512,-88.45666466,-103.1725743,-139.730012,-103.0529287,-124.4904651,0,-89.65826538,,,,
164.1839999,641,71.9744655,57.86405979,149.5665064,0,-230.9179001,66.89658168,65.22347999,36.68171523,97.83338002,131.2260606,100.4909415,-353.1556372,128.8535159,104.7885437,0,136.9602744,,,,
164.1919999,641,-73.67008462,-96.9954218,180.5897966,0,309.6044789,-89.35830036,-94.65433353,-123.94514,-62.00804588,-35.61805241,-45.83553033,-349.3933283,-49.95550849,-71.7554909,0,-29.07450522,,,,
164.1999999,641,144.7583,132.9344118,116.3911512,0,-331.4650954,133.9652032,137.0262917,111.6523211,31.32673564,36.35507608,17.09327287,-217.4752327,34.57112974,9.852126549,0,42.70412547,,,,
164.2079999,641,-47.54539868,-69.99544184,197.9377596,0,202.2478235,-55.98433506,-63.49896009,-86.55975847,86.132914,115.5016579,93.95048509,-540.6678588,103.176405,84.36260896,0,121.5656404,,,,
164.2159999,641,16.41641326,-0.666399528,77.32676812,0,-1.996865196,1.921275608,-6.110060793,-17.54721984,-112.1267391,-82.78836662,-103.6022737,-258.3787158,-99.68418466,-118.0816209,0,-86.82912516,,,,
164.2239999,641,94.92468783,77.48178276,128.1294594,0,-205.547768,75.8213688,75.89278941,57.01443343,117.508085,128.8106931,111.1951514,-474.5059773,128.5217694,101.9984988,0,128.8088497,,,,
164.2319999,641,-81.39752928,-102.6047684,151.5489388,0,330.0037843,-93.24026339,-108.5941332,-122.5637331,-69.81688315,-40.29313023,-44.38061115,-457.4122674,-59.56247217,-77.4018726,0,-40.82776255,,,,
164.2399999,641,150.4580996,138.6943826,92.06701949,0,-324.0651434,148.7386453,138.762617,125.8032664,19.52391364,44.2984849,20.03174285,-320.3827743,39.94201909,15.28359641,0,46.75499655,,,,
164.2479999,641,8.284197051,-14.02353736,225.1227628,0,220.59094,-12.3319944,-14.69480082,-34.23191874,119.7711234,135.4916436,130.5827128,-639.4401114,138.2424118,108.3621444,0,147.5946439,,,,
164.2559999,641,82.08902954,69.89583889,153.6742738,0,33.08201151,66.3313673,56.60735017,48.84746693,-42.21531739,-25.86808255,-28.19005664,-362.5042859,-44.81767909,-60.18945022,0,-24.58671184,,,,
164.2639999,641,107.2255465,87.97169742,173.6822058,0,-161.5336404,97.97633053,85.44075455,70.74889793,168.3536165,178.7571027,166.3564789,-589.5255656,183.1667242,148.0147212,0,183.2124477,,,,
164.2719999,641,-88.84626173,-116.0745575,154.9020968,0,351.8496836,-111.6720228,-121.9082433,-136.6153363,-69.10293591,-56.70239667,-44.77052617,-566.8919325,-39.87059097,-90.1672276,0,-46.12983155,,,,
164.2799999,641,170.7782654,155.6248804,122.426546,0,-294.9412849,154.1773513,155.3640134,142.3549789,30.97654216,40.32351045,32.68026779,-431.238736,39.92112759,8.813400039,0,43.91552463,,,,
164.2879999,641,0.47347861,-25.39311825,239.5219598,0,258.572447,-18.41379072,-23.31190619,-40.17936671,130.0896552,142.99676,142.661053,-744.745138,136.4609709,110.842094,0,153.2732859,,,,
164.2959999,641,60.44436913,47.72839652,130.1672218,0,43.12786606,58.65822375,44.07983889,38.123268,-73.55878877,-58.41121654,-59.24526683,-456.2798109,-59.44310092,-81.59630882,0,-44.00652619,,,,
164.3039999,641,124.3595442,110.8347942,182.8407887,0,-139.3644121,133.0989141,118.7468468,109.0285353,169.6764133,191.0352591,164.9970223,-685.131408,186.0282351,167.3883347,0,198.359363,,,,
164.3119999,641,-103.0006593,-120.7085042,154.0281581,0,383.0899668,-109.9622527,-123.931533,-128.9375711,-60.66884636,-29.51436833,-41.66650134,-661.8937477,-37.23903658,-57.50553652,0,-25.7084559,,,,
164.3199999,641,121.9127016,113.3194308,81.53535475,0,-275.5572989,127.3504501,114.2933408,113.5819915,-11.02075849,10.97414459,-15.63222231,-519.9079604,12.00432164,-2.053953732,0,16.32634988,,,,
164.3279999,641,-22.71814519,-45.77815388,204.4084039,0,262.7647254,-27.83925413,-42.19662291,-45.82093503,98.50872785,115.3938967,102.0954209,-822.3986428,115.0632792,95.48603321,0,124.6025662,,,,
164.3359999,641,36.11038927,27.31419727,99.92591264,0,35.98332019,25.65417498,18.87699382,23.43967665,-80.57054442,-69.86575882,-74.40449455,-532.6604307,-54.32230109,-91.71337408,0,-64.63771271,,,,
164.3439999,641,76.01812121,62.82345235,133.9147447,0,-141.9030776,74.94112237,64.54113704,59.9343329,130.7640291,148.2984677,122.350584,-756.1056635,158.8114828,124.5582644,0,145.5184211,,,,
164.3519999,642,-125.8966681,-149.5467731,105.9401096,0,354.705717,-137.7386391,-150.3234699,-153.7115443,-97.03578894,-79.77791141,-83.20773978,-721.1773976,-86.68280618,-105.5087108,0,-76.33156083,,,,
164.3599999,642,121.0726269,109.3145232,63.19364359,0,-298.3363879,123.7187605,121.8187785,121.6714033,0.402143661,-3.520202044,-8.148340132,-590.9931431,20.12384395,-12.89821954,0,10.99528737,,,,
164.3679999,642,-46.92557851,-69.2590212,178.027044,0,259.9101322,-42.78825947,-43.60136708,-51.91700799,97.28079471,108.9562909,103.921824,-897.8934241,125.4992079,87.92764472,0,121.5764148,,,,
164.3759999,642,21.20238852,6.632085593,65.51967718,0,26.57406745,38.99987162,31.92915379,33.82033993,-102.0209636,-76.50450369,-86.06099779,-612.5997475,-73.07758695,-98.06557876,0,-68.92781631,,,,
164.3839999,642,89.74584687,70.76583333,136.7412285,0,-121.2979249,131.9296963,118.1446694,118.2091587,145.7143741,162.1861747,151.7274435,-852.8535523,187.60416,157.4502605,0,184.8180732,,,,
164.3919999,642,-136.5091881,-153.9403223,109.7719794,0,386.0740494,-93.24483612,-90.19777704,-93.34164803,-61.13571206,-35.99114439,-34.23464543,-827.7627071,-24.99158916,-44.22047577,0,-9.592374902,,,,
164.3999999,642,56.53871909,50.61212937,24.48293653,0,-269.9580782,127.8554364,137.7951594,137.6238748,-32.94811816,8.705396279,-22.89563171,-705.3823137,18.43914589,8.17310423,0,27.44690117,,,,
164.4079999,642,-98.41262688,-120.7649515,146.5499816,0,286.7636559,-24.23630032,-25.39051866,-29.07802639,47.01632711,79.10048357,68.85086439,-1006.479367,105.7313238,91.52800208,0,114.499089,,,,
164.4159999,642,-14.55894377,-19.76515536,61.16071522,0,34.18332496,59.33231457,61.6702391,66.67592704,-97.22399317,-70.56984371,-74.13566134,-726.7164302,-52.30270284,-58.39723674,0,-40.7939306,,,,
164.4239999,642,4.594134606,-2.89025856,108.442977,0,-117.50223,88.93820578,85.99198598,88.38687374,103.9495908,159.9342105,125.0060644,-971.9090809,170.3717815,158.9603262,0,170.5895203,,,,
164.4319999,642,-199.7856476,-216.2844066,78.27297544,0,371.2734335,-127.0643944,-126.605538,-126.6328543,-129.1415398,-78.06109089,-90.48304063,-929.2676248,-63.43505274,-81.23003573,0,-63.17137518,,,,
164.4399999,642,35.02008274,34.83723404,12.13740723,0,-286.7015116,126.0251259,128.0013192,131.6887545,-54.44480831,-13.22002569,-34.72894488,-806.3644621,4.26531315,-0.845283875,0,8.920414587,,,,
164.4479999,642,-160.6172235,-171.9848144,109.2994367,0,276.7379144,-61.03606287,-69.62906673,-71.40941711,-3.526486194,68.57331152,40.52435877,-1102.729507,71.77085544,73.50684508,0,92.21512351,,,,
164.4559999,642,-81.68743627,-83.56733853,11.21943481,0,14.07923529,18.02995138,20.30800365,22.02408867,-181.3321316,-109.966395,-140.7393922,-807.9135963,-113.615647,-103.5345807,0,-84.11519565,,,,
164.4639999,642,-3.494535664,-3.691971108,82.56079926,0,-121.5750933,98.67445331,103.0421862,103.3214984,58.85928366,115.1734847,83.58082478,-1044.616855,116.5140856,137.5543957,0,156.1314861,,,,
164.4719999,642,-181.0991863,-184.7421489,70.74728777,0,371.2354874,-88.79243643,-93.60748516,-88.46380867,-141.7981892,-68.8657714,-92.53729871,-1001.672989,-69.979189,-53.48474855,0,-30.80673872,,,,
164.4799999,642,34.76257026,39.03070409,12.45621353,0,-275.9544321,130.3474907,125.9665335,136.1525833,-54.58366086,27.41548884,-26.99980164,-888.3771661,24.58093846,36.97961061,0,46.84805584,,,,
164.4879999,642,-155.5966867,-164.096788,99.6203705,0,289.5114014,-74.75618163,-75.93481259,-70.18960583,-12.2716036,61.63724699,24.64123201,-1173.43278,48.6617469,67.60136442,0,80.30136312,,,,
164.4959999,642,-61.55170786,-59.03448905,-3.093783552,0,5.602464777,14.84101303,24.02343968,32.79363465,-192.6166967,-118.4572442,-154.516812,-873.9918828,-132.4095866,-112.7582243,0,-108.9578347,,,,
164.5039999,642,-0.846354399,-2.518452981,80.90635322,0,-122.037139,76.77205773,84.00304778,87.00589844,67.32685216,136.908945,87.52933508,-1115.440787,132.9009946,140.0337619,0,139.4172249,,,,
164.5119999,642,-177.3149678,-184.8883551,67.02733315,0,363.1787002,-111.97793,-116.0919033,-105.2637612,-142.9827872,-81.71485428,-105.5970772,-1061.777536,-86.29585709,-81.85030718,0,-72.00788162,,,,
164.5199999,642,47.42752778,48.60996693,9.216274347,0,-286.4323837,111.8790418,118.0616807,129.8611886,-59.40803867,-1.95852521,-40.93452397,-951.5279692,3.552040155,5.19833699,0,8.31464982,,,,
164.5279999,642,-153.028223,-164.2113795,99.37959735,0,285.4606967,-104.2197392,-92.09794573,-90.32684018,7.969886951,54.56815706,29.6911157,-1234.978384,60.0256004,48.82721386,0,63.14163051,,,,
164.5359999,642,-48.58991299,-51.09997931,-9.294429591,0,-1.65881833,3.421633118,4.848722116,17.04253956,-171.6008334,-126.0843969,-152.3502458,-933.4570488,-127.4771505,-135.1233535,0,-121.367716,,,,
164.5439999,642,51.74613761,43.36895495,90.35035119,0,-113.1983845,105.7079862,109.7204493,114.3912306,80.01884282,137.3273252,92.70606854,-1181.343091,132.4210613,131.6923896,0,140.6446824,,,,
164.5519999,642,-103.9749185,-114.6335293,95.7717077,0,376.6540195,-57.51637691,-52.83508497,-47.70332161,-79.71394198,-23.18491573,-49.78077795,-1132.808181,-42.35394244,-35.13248507,0,-20.35789097,,,,
164.5599999,642,106.2423412,105.3682468,42.17294146,0,-253.0744243,156.95817,156.9357565,167.9136607,16.23879545,65.06628816,24.25960008,-1033.316832,50.39906924,65.2395449,0,69.32236378,,,,
164.5679999,642,-84.4379181,-101.5214536,149.958692,0,334.4424778,-55.49426788,-53.27116364,-48.03724115,38.86428118,86.74792807,63.96731851,-1310.06203,73.45899591,82.18949754,0,93.76447838,,,,
164.5759999,642,6.573909479,1.828073631,40.58671262,0,41.97543126,33.86467673,35.90686599,50.48766688,-117.3190715,-78.440699,-94.35189582,-1009.428138,-85.43259607,-84.84187767,0,-78.86084444,,,,
164.5839999,642,46.86220997,40.63867708,93.55370748,0,-66.13832353,67.91731481,74.58014531,82.91797223,105.1201201,146.8656232,114.598723,-1258.095201,143.8808553,134.6398721,0,137.3082101,,,,
164.5919999,642,-109.0797851,-125.7587091,88.02682246,0,398.1859731,-98.82867601,-89.88673388,-84.19075162,-114.0956811,-69.388161,-84.88976141,-1191.36427,-84.32855301,-96.22040701,0,-83.87121224,,,,
164.5999999,642,135.3853159,124.5620963,66.5039577,0,-234.2904855,149.8334974,155.2129256,165.3341985,36.30590536,57.01625471,42.99863257,-1093.69744,61.7637808,48.61014002,0,51.79529608,,,,
164.6079999,643,-42.95724456,-65.83438469,164.8595276,0,359.4328036,-52.52759774,-45.58325862,-39.93102643,81.70234851,98.88128862,103.7565123,-1370.457921,105.2187164,76.22892614,0,94.42606018,,,,
164.6159999,643,43.53228983,30.65030479,45.2800883,0,61.47453318,43.48957481,56.29657427,61.4015064,-93.15418756,-72.26431386,-71.09707957,-1073.953941,-64.38610204,-107.5567127,0,-85.57870887,,,,
164.6239999,643,78.51340714,63.13508208,122.4261283,0,-20.76960596,78.71168473,92.63338937,88.19214986,146.0303156,161.803268,161.7954476,-1329.019418,181.402624,143.2880561,0,166.747872,,,,
164.6319999,643,-69.70500469,-87.51609912,106.5832987,0,437.8722024,-86.68524607,-78.64749036,-78.71647804,-82.42623561,-54.0451854,-49.28845483,-1248.671601,-62.35820274,-96.62010211,0,-63.17396471,,,,
164.6399999,643,148.4200852,141.5781476,55.01956305,0,-198.2722148,157.5006497,154.3222232,156.6663666,46.39729054,84.06620126,55.25765038,-1152.952344,82.85707586,36.60812388,0,57.58149207,,,,
164.6479999,643,-52.28872063,-72.01518385,158.6604965,0,393.7791815,-48.88070263,-57.96518631,-59.71883631,86.95182781,117.8979413,113.6011724,-1427.179977,127.9640444,89.02210337,0,116.4433856,,,,
164.6559999,643,49.70722258,36.9182605,49.02201196,0,70.53946119,40.62101657,41.14342492,46.26023669,-93.98175837,-69.58739504,-76.72323112,-1119.352911,-71.65086422,-103.6767561,0,-83.25008698,,,,
164.6639999,643,77.54032123,58.79012684,114.638457,0,-13.3248141,70.00053283,69.88010652,66.28792193,134.9626299,161.4706362,144.2052089,-1373.237178,171.0185352,132.6691295,0,147.1927788,,,,
164.6719999,643,-79.33366028,-101.1963958,95.68197335,0,435.7339172,-93.96501688,-101.1237551,-99.2026814,-86.08933355,-61.81659999,-56.92256716,-1299.386771,-55.33694274,-87.6504264,0,-63.84286703,,,,
164.6799999,643,141.3207687,128.5087637,47.02971982,0,-193.8377098,133.2602161,130.3891139,135.521951,43.60377113,70.16773866,38.65664083,-1215.420484,81.63138126,29.37072075,0,44.7423067,,,,
164.6879999,643,-61.86106007,-87.49561972,153.9342464,0,401.1305001,-79.07472339,-76.95630961,-82.06054059,76.3349015,97.69759882,85.28039428,-1484.893367,120.8862289,58.21160506,0,82.70959441,,,,
164.6959999,643,39.11803061,25.39963491,59.6486538,0,69.35427771,22.62280948,23.41151211,27.56183414,-96.51619394,-84.44370137,-90.08819743,-1177.279794,-74.40588095,-117.8248748,0,-93.24330752,,,,
164.7039999,643,74.17982026,58.26261203,123.1602588,0,-0.454167529,61.30160494,56.50062069,59.88656951,128.4037925,167.0698179,125.3614981,-1429.031463,163.1656153,110.6189064,0,133.373416,,,,
164.7119999,643,-72.71284602,-88.9972612,102.8927181,0,434.8884101,-93.91853602,-95.63028929,-88.73477278,-86.50363214,-47.67895454,-66.94104059,-1347.084778,-45.6121236,-94.98297802,0,-71.08556022,,,,
164.7199999,643,143.7893125,139.3625783,74.30445146,0,-194.1413669,134.3438792,130.6808648,139.6740548,45.67149272,63.99811624,38.16261084,-1264.073587,74.92570589,39.95803876,0,51.08720682,,,,
164.7279999,643,-40.77602873,-58.62416164,173.764429,0,401.8208102,-56.16033552,-73.43463489,-64.59860937,77.38093137,110.1764677,81.8994301,-1522.363771,101.7705232,62.42712204,0,81.5222063,,,,
164.7359999,643,63.205818,52.40730249,54.53760328,0,61.91620675,50.3159008,33.07623663,49.79780811,-73.65711913,-45.3980146,-71.2546263,-1223.685087,-45.7633148,-85.83922554,0,-70.42437312,,,,
164.7439999,643,64.91555612,47.76964462,116.8714543,0,9.832919083,60.54548011,46.59149235,49.02892518,137.6627522,156.0920415,128.01482,-1481.530741,168.9855271,125.8670544,0,140.2316822,,,,
164.7519999,643,-56.62908867,-76.6264139,120.5926918,0,431.3008474,-70.81591701,-88.84891535,-80.03962118,-76.27741154,-55.46518389,-65.24297853,-1386.629519,-50.18457747,-90.55097034,0,-73.89406561,,,,
164.7599999,643,167.3115648,155.6417169,101.6904127,0,-189.3532102,160.0494735,146.0992581,156.7587324,78.84359127,98.78148114,69.17117501,-1317.743435,119.5400759,77.88244005,0,81.48848514,,,,
164.7679999,643,-43.68026379,-70.05456513,193.8500686,0,418.2673166,-61.79952123,-71.43960584,-73.27825752,78.01297478,101.9036026,85.32366,-1572.883979,107.2589731,71.37870127,0,85.32989453,,,,
164.7759999,643,114.0873622,97.20880849,110.0157864,0,66.01185332,92.1617837,82.08385531,91.90729745,-57.57439938,-50.08319813,-49.61276054,-1265.538972,-48.85194289,-71.665296,0,-59.45045232,,,,
164.7839999,643,111.4286159,89.16689602,183.0125153,0,36.33214633,96.30119852,82.36874459,85.06199617,194.7041571,211.3373369,195.9252757,-1542.082034,226.991453,185.5359615,0,199.4503459,,,,
164.7919999,643,-74.96928654,-99.70177806,135.5187679,0,446.2189985,-98.53738479,-113.7674043,-111.7632533,-78.15330345,-47.41448346,-58.33657338,-1443.742711,-46.28850936,-95.77651078,0,-73.30056807,,,,
164.7999999,643,173.1971429,159.4555703,106.9059427,0,-188.4956789,154.6758482,147.1338553,151.2047194,57.08663194,67.49171135,53.11783674,-1365.480262,83.52369589,32.75616849,0,47.23932658,,,,
164.8079999,643,-43.46393165,-71.68348318,195.9961395,0,422.8184174,-68.62217045,-74.34472088,-75.34547663,95.37785356,117.6041791,110.6128774,-1626.558774,127.2751079,73.52749244,0,97.49199848,,,,
164.8159999,643,61.73266122,41.02233809,70.85092705,0,57.02911518,43.82730291,38.7426697,46.97863969,-80.2890028,-63.74231665,-72.2163,-1317.076198,-61.93981087,-102.0223223,0,-84.76760626,,,,
164.8239999,643,93.25573972,66.3992049,149.691693,0,30.2911185,84.64112914,73.49588703,78.43789421,152.466036,157.8219098,151.2507747,-1578.045455,185.7005894,135.0483112,0,150.6556177,,,,
164.8319999,643,-51.25859601,-81.22891283,137.7448668,0,441.8720966,-67.75054081,-84.18457441,-73.23151737,-67.78630072,-44.09053323,-44.20297822,-1474.596482,-40.72345352,-77.84195087,0,-56.53314293,,,,
164.8399999,643,171.5091848,152.4165818,100.8425673,0,-174.1461845,158.4512547,152.666228,164.2392064,71.04268468,81.68561833,69.49762952,-1403.843619,75.53517315,55.97046811,0,66.7565806,,,,
164.8479999,643,-56.84745195,-84.75111984,170.4747564,0,438.8530986,-79.54924851,-89.58291918,-79.50335849,83.07320619,91.92051326,99.4746652,-1654.97486,103.6871317,61.87649877,0,79.01882143,,,,
164.8559999,643,75.8457439,62.80915692,67.90667758,0,54.75483494,59.78931092,46.5422118,65.46592937,-83.07490176,-60.90156862,-69.10030392,-1342.749239,-58.93640509,-96.8077283,0,-93.12111946,,,,
164.8639999,644,133.3742844,115.682959,172.324343,0,44.01964294,118.8448422,117.8718051,123.4291152,179.6735788,202.0117814,182.6332294,-1610.968224,201.5581329,169.6801181,0,169.0392598,,,,
164.8719999,644,-22.84298,-44.60366319,140.8973542,0,456.2933866,-49.07319256,-47.4841802,-40.1251701,-25.60795255,-3.991570935,-2.206906572,-1517.194885,-6.819629968,-34.93313468,0,-27.55578486,,,,
164.8799999,644,187.8685835,174.7431969,97.80140669,0,-158.4930774,170.1186088,166.7516853,177.993634,92.75125837,108.6277792,95.42868016,-1461.616603,113.8914307,84.61760437,0,81.12745092,,,,
164.8879999,644,-21.93737868,-47.38528078,178.4470781,0,464.6192641,-41.48914926,-50.31459614,-41.90440398,106.7020087,125.8881784,126.8681042,-1708.041039,144.9234952,95.75415862,0,101.8097175,,,,
164.8959999,644,90.57992441,75.90273931,64.01323821,0,87.14186562,80.43468063,72.24716202,86.87705283,-52.37268213,-35.08850788,-37.07681249,-1399.771271,-21.82510063,-57.2324713,0,-54.32598656,,,,
164.9039999,644,122.7016406,102.1878127,168.9914196,0,79.02462184,107.2273107,104.1761714,109.1176808,177.6883777,194.1262664,185.8477875,-1672.325197,188.6419751,168.7250115,0,172.7576993,,,,
164.9119999,644,-14.59551969,-33.58850255,137.9106022,0,470.2519315,-36.0266687,-36.38129514,-29.71531211,-27.87888659,-2.36661602,-1.762519491,-1569.276671,-11.79888143,-45.9146983,0,-33.35281029,,,,
164.9199999,644,186.1349515,179.2576461,76.7728444,0,-135.1398549,181.2233019,179.1867413,185.7590277,101.9168814,121.5739602,102.0279511,-1516.893748,126.5303058,90.49315589,0,97.01222234,,,,
164.9279999,644,-40.62166783,-61.35330811,155.5373406,0,482.2278279,-57.63348028,-60.44067526,-57.93579766,102.7548395,122.0706158,123.9078786,-1760.939824,120.7152635,91.03231426,0,111.3555189,,,,
164.9359999,644,53.38177625,45.25749056,23.79954263,0,75.71307872,41.12971582,44.12010813,53.16949844,-79.32812669,-54.27919609,-59.65023719,-1454.78295,-57.42641271,-89.00215593,0,-74.37597754,,,,
164.9439999,644,52.08862186,37.04221796,82.39103359,0,65.95912261,32.74866263,37.5079167,41.50812572,112.1614052,133.0531685,118.3484331,-1720.627663,129.9150175,100.1017938,0,111.5911307,,,,
164.9519999,644,-61.19618036,-82.52937862,61.91814993,0,434.2773494,-95.04147532,-91.28635727,-80.44665335,-78.98561413,-64.41408023,-58.40625544,-1601.402567,-64.58394124,-102.0440455,0,-85.26670794,,,,
164.9599999,644,176.3578838,165.4113355,52.12677093,0,-169.6986208,162.3090714,162.2820306,174.8713683,76.71736794,94.97844139,76.79962989,-1554.761544,99.35180028,60.59249035,0,64.62456683,,,,
164.9679999,644,-12.46676912,-34.30656223,156.4511482,0,459.7366165,-36.65837565,-40.47919773,-28.39577248,88.13683326,111.9364031,107.723317,-1799.635272,98.64542762,77.51816678,0,86.40180657,,,,
164.9759999,644,106.9906806,97.61302937,46.73102645,0,67.01589265,81.88117913,86.44802505,104.4470699,-31.18106272,-10.18352474,-16.65219821,-1505.70651,-20.03338078,-38.34175007,0,-34.36305124,,,,
164.9839999,644,67.29571215,51.94010174,108.3819228,0,92.88548068,47.71246643,48.24819074,57.46947396,156.8855142,183.777425,162.0031306,-1781.020162,171.0179834,147.5906002,0,155.9663924,,,,
164.9919999,644,-74.40729813,-94.24135005,64.9629456,0,443.099378,-101.2536924,-108.0578304,-89.6835892,-83.76201631,-64.81685695,-62.77085114,-1652.007346,-82.46042545,-100.8282646,0,-87.82248391,,,,
164.9999999,644,121.4856522,113.0051187,10.4976878,0,-173.5772121,109.8156144,107.555263,125.0061067,44.7861341,67.12955316,48.7051883,-1603.381743,57.7508319,36.92617679,0,39.37258921,,,,
165.0079999,644,-102.8338551,-120.6144352,76.10053822,0,444.7716389,-113.1777765,-123.5904737,-111.1768937,8.718892728,44.56104229,38.13650088,-1825.209287,27.8336735,6.566430693,0,21.19119516,,,,
165.0159999,644,54.97623376,50.21761262,-7.627897261,0,25.17190348,47.1905838,35.66200674,59.5314154,-100.120074,-77.1284282,-72.8745787,-1517.836279,-85.51347854,-95.55467595,0,-88.89776855,,,,
165.0239999,644,48.3172008,37.40189384,89.1026665,0,64.80609903,37.61864165,29.47050388,44.77678373,116.6667395,147.6497565,131.6199111,-1797.249196,138.4926489,117.834878,0,126.4758938,,,,
165.0319999,644,-51.93854782,-68.39197464,74.62788362,0,423.4503106,-79.57828148,-87.76195995,-69.17101839,-88.78355675,-62.88632781,-66.55977602,-1667.115108,-78.06008503,-109.9030665,0,-93.50587363,,,,
165.0399999,644,173.634883,167.3275756,39.67479829,0,-172.9814357,154.8748148,147.9861684,167.4529468,102.1557715,123.1319871,107.0953469,-1638.91584,112.1773479,83.57391727,0,85.15570549,,,,
165.0479999,644,-81.63178651,-102.1834319,77.34836385,0,456.5658668,-98.13071222,-110.8089789,-95.00136236,58.43264648,89.51110755,85.81611676,-1872.612177,70.26042794,46.0793078,0,55.20491868,,,,
165.0559999,644,55.91151742,39.53502872,-24.5995017,0,30.1754605,30.53795569,29.69059417,52.75086396,-92.02501594,-80.17455041,-73.90850079,-1566.202435,-97.59860287,-104.4805363,0,-100.896774,,,,
165.0639999,644,42.82406548,21.24496792,60.8037742,0,72.72309235,12.25073467,14.5898997,30.50654256,109.4594863,129.9928647,123.9745571,-1844.841525,116.1550129,99.12156738,0,104.1745459,,,,
165.0719999,644,-81.38816919,-103.574843,22.38294036,0,410.2848909,-111.5012455,-114.6777033,-91.14769186,-115.3033459,-86.92934719,-86.56249402,-1707.023105,-98.66865608,-132.1998556,0,-119.7208497,,,,
165.0799999,644,145.7451094,130.853948,16.04359471,0,-182.7592172,123.7599283,131.4631623,151.8159419,63.22454096,76.02424922,70.00157288,-1675.317482,69.87747045,54.8190334,0,57.3582786,,,,
165.0879999,644,-51.91476336,-77.8728271,110.9685048,0,448.6251039,-79.90721428,-80.21588192,-65.64587769,58.1619807,68.09568987,84.25686806,-1901.355267,68.79936498,49.77792038,0,64.53754955,,,,
165.0959999,644,83.3489484,68.58192255,12.11322405,0,21.46698387,58.10929482,50.11288521,73.92592615,-58.30376718,-47.37554363,-40.23546496,-1606.952332,-41.71122194,-73.32036663,0,-59.51395235,,,,
165.1039999,644,20.80603911,-0.826157599,76.57279645,0,85.92397763,-8.970616904,-14.0436508,-0.218714871,114.2872298,138.379057,133.1763673,-1890.228034,129.2210075,103.4386779,0,116.0649564,,,,
165.1119999,644,-78.83689305,-98.1522256,38.75691611,0,409.510961,-111.9237603,-124.0172189,-101.8101704,-124.039923,-102.0683441,-90.14899667,-1736.869383,-115.740096,-141.4302002,0,-127.5488547,,,,
165.1199999,645,132.8015574,126.9771747,25.53083969,0,-181.8056867,124.0054751,101.5347042,128.5274851,56.11165552,87.81417775,70.06143478,-1710.745031,67.27345184,50.18080976,0,58.79189954,,,,
165.1279999,645,-120.2879788,-138.9832438,84.53649067,0,441.0380849,-135.1393902,-160.2999473,-134.3765202,-3.875967138,45.72117228,32.6244591,-1928.9761,18.79214136,-3.518290667,0,19.13396057,,,,
165.1359999,645,62.70634416,55.27727194,-22.59287639,0,-11.56380005,45.19775259,30.9264425,61.97474921,-115.9497325,-87.69997205,-96.6058601,-1626.670076,-102.1727201,-124.6519198,0,-113.5471646,,,,
165.1439999,645,53.60151198,40.33459619,75.79924352,0,74.45575458,36.66253574,25.65014497,43.56579373,136.947118,174.3488365,155.9250716,-1924.866437,133.3245628,138.7137239,0,145.8273989,,,,
165.1519999,645,-77.52036928,-95.80896734,32.38593587,0,400.1079492,-108.8596259,-115.7617825,-90.6195812,-108.896696,-73.7545839,-71.59128589,-1778.58201,-105.1549918,-110.7952429,0,-99.03407052,,,,
165.1599999,645,131.3851697,119.1062055,2.150668589,0,-193.7192575,106.1584182,114.0254323,135.7011075,45.04521896,59.34131682,53.93805114,-1754.735129,52.93468421,36.64007977,0,38.85368337,,,,
165.1679999,645,-101.975163,-127.1708167,76.44558873,0,438.81614,-131.1718726,-120.1443386,-105.0932996,21.0332738,45.37062141,53.05186988,-1971.568681,18.31880624,10.50892821,0,25.27357041,,,,
165.1759999,645,46.01511821,33.76983133,-21.2227055,0,-7.833160524,23.7500847,34.25953565,61.77848793,-105.173981,-104.6829389,-84.34598736,-1667.524649,-91.82667716,-118.51178,0,-109.0880521,,,,
165.1839999,645,22.64618638,7.693588286,74.96702886,0,86.22078553,0.425759621,6.756350397,27.29208962,102.3161164,117.7356326,123.5144194,-1955.902791,121.6299289,102.864062,0,113.4630631,,,,
165.1919999,645,-74.90330988,-89.9890814,42.16222505,0,398.73649,-101.1744132,-100.3617724,-76.92707719,-121.7638727,-81.16351184,-81.24374764,-1803.948346,-115.2041341,-122.4045811,0,-107.9081502,,,,
165.1999999,645,160.5224248,154.4639466,48.44291054,0,-178.7364584,148.8375844,150.6672498,171.0488327,72.30060811,84.65125973,84.50816647,-1790.686237,85.17319171,68.52933267,0,73.02511376,,,,
165.2079999,645,-81.52781114,-95.99587386,129.4304567,0,465.3484905,-96.32534177,-106.0428742,-86.93371751,41.51636959,70.98305158,81.33317603,-2005.981408,36.51211484,44.44259932,0,63.81657957,,,,
165.2159999,645,55.56272396,54.48077851,9.202612774,0,3.063486046,59.37315028,39.91789486,71.6573743,-102.6894641,-56.70895752,-69.31471252,-1699.996828,-107.2872002,-93.80408206,0,-81.3347591,,,,
165.2239999,645,37.04543511,27.61179186,97.97336956,0,103.4837405,40.79760266,25.07049584,51.14763215,105.1672668,145.6817213,133.3657282,-1986.77567,120.2636608,121.687069,0,135.2764641,,,,
165.2319999,645,-106.4155297,-115.8954413,25.49235408,0,408.239015,-115.2164028,-129.0015635,-96.39106817,-131.5487403,-89.453013,-86.97332706,-1827.473802,-127.8031888,-121.587266,0,-98.79614451,,,,
165.2399999,645,107.336824,107.2097446,-5.739842246,0,-179.3532218,110.5549677,102.1041703,131.1696869,31.82252021,61.79472204,45.7807726,-1802.472193,38.66609604,35.52750234,0,45.31830506,,,,
165.2479999,645,-72.53648756,-87.44174989,105.4100202,0,455.9532454,-83.01321674,-86.05833282,-64.46627139,24.15957637,50.16209293,57.51232346,-2001.742936,18.41266062,21.83814666,0,37.91493019,,,,
165.2559999,645,66.31098193,62.12522953,7.532264658,0,0.178320298,58.07400533,56.33041815,84.79294204,-79.561141,-58.03733751,-47.99789223,-1706.400497,-77.88406223,-81.08652499,0,-72.70604127,,,,
165.2639999,645,38.03610747,25.03357277,99.88117848,0,113.788516,25.92244227,24.3422655,46.37987453,123.7623423,146.1875648,156.2014221,-2000.84082,142.7068638,125.1786969,0,134.2109312,,,,
165.2719999,645,-66.2693534,-84.40792763,50.90148703,0,407.0505079,-87.95035772,-88.45454279,-60.59475606,-97.14600321,-74.09672133,-53.62653444,-1844.328732,-99.10448297,-107.8235596,0,-90.15626198,,,,
165.2799999,645,121.007862,110.8010575,7.245900553,0,-159.2876799,104.9848168,110.3054227,137.1228704,56.16180101,71.59983399,75.4827705,-1833.785494,72.29437567,50.73096456,0,60.7429529,,,,
165.2879999,645,-89.1425553,-111.8562951,83.18295963,0,474.9546014,-120.1563132,-115.5733818,-89.3014096,13.2446726,29.81162529,60.55473825,-2024.09925,27.26218625,7.162719633,0,27.32788463,,,,
165.2959999,645,40.41662477,27.77195763,-39.36080891,0,-9.56636939,11.59143482,16.80137215,49.86717326,-104.9637641,-90.73370934,-65.90645506,-1722.713457,-107.0564231,-114.3666986,0,-100.7439836,,,,
165.3039999,645,1.683868072,-15.02382303,37.91401151,0,105.0937062,-30.90863194,-23.90190456,-2.389976116,72.41784412,94.73388047,106.3981873,-2003.614788,84.83892502,69.02675708,0,83.0758039,,,,
165.3119999,645,-69.38374541,-84.89263384,18.16602931,0,389.2891739,-96.22173508,-98.17217322,-71.88906856,-122.2403218,-102.6144866,-76.05569422,-1829.25689,-117.293252,-136.125784,0,-117.6468568,,,,
165.3199999,645,112.6808708,101.8195032,-7.21739353,0,-165.7458411,93.25427727,95.47854275,119.7156604,57.59728257,70.16561831,80.74732807,-1830.113242,69.72757102,45.62918554,0,54.07152979,,,,
165.3279999,645,-100.3883522,-123.7425359,58.6045237,0,477.0141218,-142.6893646,-137.4672123,-115.9322214,-8.065183405,15.01412532,39.18781387,-2014.463819,11.32254778,-23.49312385,0,-4.392403698,,,,
165.3359999,645,85.68240942,76.54680618,-24.24860502,0,0.332983884,61.82676135,54.50668968,87.02553151,-85.2882643,-70.42280752,-50.4338727,-1709.521102,-76.97973577,-107.2894516,0,-94.30349237,,,,
165.3439999,645,44.45899866,26.57543716,69.46773558,0,153.8758472,21.31273679,17.04187755,40.77791268,129.4369762,148.3077216,166.2635164,-2006.762243,142.1557944,120.5124471,0,133.7543178,,,,
165.3519999,645,-55.3333372,-75.56800418,7.401384025,0,439.2423355,-89.15994956,-88.15697804,-62.80528917,-107.7634238,-85.47032817,-55.34355505,-1835.712321,-85.30352062,-119.6678425,0,-102.2891503,,,,
165.3599999,645,143.5085192,132.8362483,-11.56452108,0,-119.0168903,126.4059815,121.6294545,144.9925246,70.47805437,80.04554251,89.7023022,-1839.055006,89.68280983,50.69949636,0,59.31570729,,,,
165.3679999,645,-162.7837277,-190.2868812,149.5822478,0,832.1219727,-198.6211547,-203.5977857,-186.7117095,90.5252633,111.8835476,141.2992102,-2205.277029,102.448399,75.4131931,0,97.4345077,,,,
165.3759999,646,-25.98396437,-40.37192721,49.1851632,0,446.3951379,-59.02977621,-63.6340025,-36.2035165,-87.00326454,-66.33825205,-41.82443669,-1833.872724,-63.1850719,-103.5906561,0,-86.03040666,,,,
165.3839999,646,183.072226,178.2294079,29.01977122,0,-164.5657737,163.1257319,160.3202547,186.2799733,75.46612428,91.52000042,91.46665306,-1811.102565,107.9013109,59.67255544,0,68.16312254,,,,
165.3919999,646,-29.60476867,-45.30136301,106.7025493,0,452.9769057,-61.5902659,-61.29322633,-37.09181703,29.78563965,66.04922332,71.65713503,-2001.876123,54.76869448,26.18010727,0,41.76884921,,,,
165.3999999,646,25.97104655,12.00634353,63.15807453,0,267.6901426,-6.728790282,-1.825212532,24.91494708,-9.090778513,17.65190125,25.81463889,-1877.26483,9.174869427,-17.69384,0,-4.237961158,,,,
165.4079999,646,94.26308435,80.94883252,47.84453925,0,75.82959205,65.82742434,74.29056358,95.60931753,33.02388807,33.68191673,51.96495392,-1853.061921,56.90659494,11.83970682,0,23.63337866,,,,
165.4159999,646,-11.50632326,-28.30252327,84.22051008,0,374.6238783,-41.37086199,-42.45164518,-21.95390059,39.62762698,51.21071686,69.84972327,-1991.844758,61.87755918,29.95048743,0,45.36088061,,,,
165.4239999,646,19.39930403,5.022592667,16.80805438,0,243.1348209,-18.6581452,-19.79594131,10.13895829,-55.74702718,-32.15408022,-23.37801291,-1845.014768,-38.17112319,-60.28770666,0,-49.68081602,,,,
165.4319999,646,78.08865787,61.938387,36.63306827,0,108.3635574,45.88478299,46.55952123,72.60106788,48.12936303,67.23695963,66.99810836,-1911.840505,80.58918651,32.01290874,0,39.53934031,,,,
165.4399999,646,-51.57967916,-68.97468313,59.82572145,0,444.9490987,-78.20701165,-82.23116794,-63.61869958,7.69727172,22.04157012,38.26765837,-1995.081093,31.11932842,-9.239804068,0,6.364400603,,,,
165.4479999,646,66.93367726,58.96768661,-36.83981955,0,48.1553074,43.82557304,41.94953023,68.42944528,-70.97378639,-50.12866746,-44.23052479,-1795.970784,-50.80848665,-73.13895057,0,-65.94694481,,,,
165.4559999,646,36.18626652,17.74492081,62.21471345,0,252.573192,10.49768648,10.24719958,32.49211236,78.35183854,111.5061537,102.6755584,-2039.534329,104.1807525,78.85645208,0,86.50588344,,,,
165.4639999,646,-2.26562631,-20.99329695,38.38675888,0,380.2238399,-34.90442187,-26.92021215,-3.576278522,-55.76184434,-37.50068111,-28.87110266,-1883.755647,-37.73607212,-68.21054422,0,-56.68922715,,,,
165.4719999,646,147.5764891,131.3461131,37.78808943,0,-13.26088789,128.6331075,127.9726473,157.2043549,91.27784435,104.1417048,101.4033277,-1926.126511,121.2528069,86.20359971,0,89.85366414,,,,
165.4799999,646,-21.50290343,-48.1494744,99.6538493,0,530.5539558,-40.72429789,-49.33938219,-22.77095347,50.89771937,66.07393331,79.43728011,-2081.7398,69.08356128,46.62756898,0,59.59509506,,,,
165.4879999,646,94.25859556,80.70195455,-11.21088877,0,77.34729779,72.38941031,78.38162975,105.2458524,-33.77871835,-22.52433497,-15.15926833,-1824.225356,-19.82607745,-41.10195817,0,-33.26128683,,,,
165.4959999,646,25.0256907,7.566647828,66.00078263,0,257.1576294,2.739454756,3.125170685,23.21046154,105.0660157,133.4731531,125.2481029,-2099.909387,135.031995,105.4786131,0,113.581071,,,,
165.5039999,646,-35.65377525,-50.29854552,14.82803716,0,432.4130754,-58.44215158,-64.39501615,-40.33420869,-105.5349286,-77.8521673,-72.54762627,-1913.188883,-84.40933923,-111.6304441,0,-100.519488,,,,
165.5119999,646,117.6583071,108.4695477,-2.992493039,0,-59.40795655,97.30259628,100.0836993,122.9152657,72.28725505,97.68381995,86.80631243,-1939.981866,94.04497135,67.93063756,0,71.60224048,,,,
165.5199999,646,-117.624977,-135.2182287,39.09571767,0,534.1954622,-141.880673,-138.9643415,-117.5444337,-21.0421078,14.27257966,16.06975444,-2088.614576,8.438989422,-21.49703898,0,-9.848163844,,,,
165.5279999,646,76.23953065,71.09007745,-45.7801217,0,22.48824284,66.90640322,68.93496199,100.173568,-108.3944361,-81.20159097,-82.08235762,-1795.948512,-84.59383686,-104.245081,0,-102.4040395,,,,
165.5359999,646,53.24417473,37.80185813,94.53447086,0,234.7675156,43.09475224,41.61851761,66.52983087,136.6716683,157.9092584,159.5195843,-2107.601706,144.1681998,139.0075043,0,144.1075407,,,,
165.5439999,646,-58.62665106,-72.07357907,12.39896783,0,440.2248837,-71.32037767,-72.24609659,-43.48955804,-91.46925575,-72.36826364,-57.02212042,-1931.362818,-74.20577573,-100.1438272,0,-88.83084062,,,,
165.5519999,646,113.5420725,106.8380501,-13.69633095,0,-64.83472907,108.9306318,110.5471844,137.6229901,63.20221639,84.38854235,79.47154245,-1962.41722,94.32104719,61.60850165,0,64.21057963,,,,
165.5599999,646,-85.66801837,-102.800531,68.1861441,0,558.6111616,-93.59633168,-101.1853236,-75.36188959,9.933957963,40.69545373,51.74713534,-2121.509805,31.14044699,13.73807856,0,25.09985898,,,,
165.5679999,646,85.66056543,79.59582784,-45.1995883,0,30.52819229,86.97093302,85.44032474,120.2590816,-75.22648348,-51.87418396,-44.83678095,-1839.489058,-46.87777142,-67.31577219,0,-64.11581403,,,,
165.5759999,646,13.61670397,-3.556972747,58.59126068,0,250.9925844,5.237159699,5.138675535,32.74603808,121.2818166,139.0289994,147.8753548,-2152.500263,145.5423622,128.7574032,0,135.2302061,,,,
165.5839999,646,-77.33968749,-90.24415675,-3.636667301,0,428.7372341,-88.47039496,-95.38873817,-62.29031009,-122.2164777,-102.6431135,-80.91953105,-1953.212287,-99.68026737,-120.71414,0,-112.1352424,,,,
165.5919999,646,125.0684306,121.5013524,-10.27786163,0,-85.10628066,126.409776,126.5495123,154.5927311,66.72460951,76.00096669,87.07866536,-1984.710618,93.3680462,72.11433069,0,69.35410248,,,,
165.5999999,646,-89.50905896,-104.2021777,57.30597179,0,552.8580387,-98.12167338,-102.312932,-80.1201932,9.929668669,29.22352757,49.808045,-2145.502821,24.78981424,11.8047051,0,22.95307127,,,,
165.6079999,646,62.78863382,60.58023829,-72.22609135,0,9.498710932,54.97640565,53.39512499,81.51516158,-82.82076241,-55.80399406,-56.46161009,-1865.330693,-68.55255402,-86.7264956,0,-83.55302147,,,,
165.6159999,646,-15.30326506,-24.68294449,11.87570747,0,228.3086052,-33.69684175,-29.48606144,-13.16175399,92.61525946,118.2020259,123.3045748,-2170.21307,99.37541016,89.91382621,0,91.58372279,,,,
165.6239999,646,-63.70834384,-71.27844738,-27.41198344,0,387.6043689,-87.0275928,-92.51814214,-68.89903932,-156.9978555,-122.8477254,-106.9737451,-1963.655165,-143.5684108,-159.4303638,0,-152.2303568,,,,
165.6319999,647,154.3134048,151.648332,-0.904211786,0,-108.679037,140.9301685,133.128811,159.5026357,81.28381422,108.4540068,106.3556569,-2019.342911,106.6300787,75.68465426,0,71.02009117,,,,
165.6399999,647,-80.93550105,-94.32560841,46.41992618,0,551.6210129,-109.7376932,-110.9549652,-91.70239892,36.59925365,64.36000184,82.09731692,-2184.012004,57.21048106,25.29217876,0,29.71533642,,,,
165.6479999,647,96.23578705,90.98383754,-68.41727756,0,6.996813587,67.05501499,69.83712827,94.71693237,-65.9859377,-40.14061761,-33.93381612,-1902.820543,-46.67956524,-80.51850394,0,-77.69203647,,,,
165.6559999,647,54.77386474,38.70937638,50.94108829,0,249.592681,27.55850331,26.04422506,46.08251362,137.641306,154.9408412,166.9143353,-2215.955949,141.8195008,119.9789889,0,126.986777,,,,
165.6639999,647,-17.93850719,-26.54866514,1.867496083,0,425.8935251,-36.19249023,-36.47371019,-14.55345912,-70.119047,-49.04137407,-28.29510011,-2018.238902,-69.86966918,-85.06863421,0,-73.02767479,,,,
165.6719999,647,131.6355594,129.8822569,-0.905745265,0,-66.18271923,125.1455191,131.2839701,152.483733,101.3026884,123.4989374,122.9735921,-2074.84168,117.2160819,100.7854377,0,103.9328486,,,,
165.6799999,647,-94.25941545,-107.780596,48.12775357,0,564.5540372,-113.7444095,-110.0260451,-87.19323207,-9.267381844,10.23171742,34.19399546,-2215.26804,10.18031217,-8.723954009,0,1.750157347,,,,
165.6879999,647,91.48156486,89.46050293,-54.97537365,0,10.14954509,76.9061973,85.36352068,113.4846396,-61.1252169,-40.22965624,-34.4618449,-1934.912189,-48.51120251,-66.20775469,0,-60.53251146,,,,
165.6959999,647,-0.43594739,-11.88668576,28.67619835,0,260.6309395,-24.64917418,-10.73442211,13.4425781,117.3411041,143.3692195,143.6807789,-2247.355864,129.2377008,115.3018527,0,124.4367066,,,,
165.7039999,647,-50.72870984,-57.11406637,-34.72194007,0,402.1046462,-77.35143772,-64.79248102,-33.32566237,-123.3812373,-102.9851276,-88.61878453,-2032.753299,-105.3496223,-127.680756,0,-120.5353625,,,,
165.7119999,647,124.9546858,121.7424075,-22.28146407,0,-81.94562303,111.8026014,124.4674944,151.2857812,85.39146404,110.9305846,100.5973179,-2094.648288,98.32292149,87.91090199,0,82.78823135,,,,
165.7199999,647,-90.16941249,-104.7667033,29.85564368,0,559.9554535,-115.4251253,-108.2264805,-80.4322814,-11.74194653,18.67688941,27.1270634,-2235.55431,-4.543524542,-7.737992077,0,-4.257051941,,,,
165.7279999,647,110.2217901,107.1535693,-65.1592419,0,-3.342319512,88.60162589,99.6292098,131.2214898,-51.84730428,-35.40729521,-35.44035244,-1968.274334,-37.9439595,-58.60896567,0,-63.53999478,,,,
165.7359999,647,-19.88429556,-35.19379014,6.84553206,0,256.2136591,-46.62630538,-38.15881648,-15.07183574,112.3633177,120.4327493,131.3432505,-2289.226405,124.1454458,105.1496282,0,102.1368542,,,,
165.7439999,647,-54.39489025,-58.38882082,-54.17558734,0,384.0527301,-77.13295165,-76.27892038,-43.85733815,-145.239424,-125.1279484,-109.4833938,-2061.835195,-131.1115422,-145.6613265,0,-145.2188951,,,,
165.7519999,647,148.5070806,150.8731391,-24.762888,0,-92.75987805,138.2873685,146.1525375,172.2592513,90.23937908,138.8849945,108.7097242,-2129.446469,115.9501611,102.6112894,0,97.4215426,,,,
165.7599999,647,-136.9234655,-151.3186358,-9.716213709,0,541.9744445,-162.3114715,-160.1662171,-132.8540348,-20.70600098,4.150670491,15.40263945,-2264.507426,-16.2155707,-15.52175856,0,-9.401514287,,,,
165.7679999,647,68.08193501,70.69653378,-109.9947793,0,-40.59618358,50.99316553,52.38102721,87.79801809,-102.4962995,-94.59626471,-87.22050864,-1977.222756,-104.0501317,-102.4562504,0,-103.838106,,,,
165.7759999,647,7.974413738,0.899651911,17.04055407,0,241.1989598,-11.33476942,-8.017649928,13.92128736,103.2751412,139.8356138,124.9059014,-2293.844872,121.8147503,108.4582767,0,112.0684186,,,,
165.7839999,647,-75.25852237,-82.90624284,-58.78721453,0,365.4496806,-104.7838031,-99.05313537,-70.29422144,-135.3011345,-122.9668209,-107.9960111,-2069.331193,-127.7762499,-144.7943612,0,-139.6336803,,,,
165.7919999,647,118.1399932,116.4393226,-44.86083505,0,-118.2203394,95.65356533,108.3000446,135.2046934,67.87096955,79.70894908,73.49342676,-2131.992273,71.21840578,59.6683044,0,53.36275419,,,,
165.7999999,647,-76.8872596,-90.17414162,26.48265351,0,525.6352452,-108.8641113,-102.2528458,-78.65331023,5.239815243,35.403517,35.54760103,-2268.967704,15.20666132,-6.020693146,0,-2.188911263,,,,
165.8079999,647,114.7590624,111.1197059,-72.50896362,0,-41.70344551,82.48717473,92.03161365,122.7634426,-51.93905462,-44.84250916,-38.98400669,-2004.439266,-41.91200657,-69.25027008,0,-74.48818302,,,,
165.8159999,647,21.33015293,4.87960553,24.06005745,0,246.3682874,-13.31141623,-9.55802869,13.77977188,127.2702169,140.3534439,146.6457371,-2321.027204,134.9191495,115.1106269,0,112.0871752,,,,
165.8239999,647,-10.12521538,-25.14396614,-40.22695718,0,358.0340284,-49.67402339,-45.8699616,-17.9830941,-81.73589682,-61.98770058,-53.69358999,-2096.634291,-86.49314408,-100.5669747,0,-100.464039,,,,
165.8319999,647,163.4477667,154.0440481,-52.54930426,0,-102.5968377,132.8466045,135.4233118,161.7826052,118.1811558,134.2910702,129.8195211,-2178.005869,113.0545106,104.989253,0,98.12761316,,,,
165.8399999,647,-93.20541972,-109.68113,-28.93790068,0,535.7407239,-116.1853684,-136.4184367,-109.0586792,-3.139436311,15.82461209,32.87430689,-2299.095155,-1.62802963,-17.93667044,0,-13.07775587,,,,
165.8479999,647,106.4264665,105.1863879,-114.5348276,0,-53.1705241,92.63227478,79.35276237,113.8947922,-65.70485481,-51.82569594,-51.1764648,-2022.576193,-55.05870453,-75.41775119,0,-82.03784507,,,,
165.8559999,647,23.62581878,11.59567701,8.399708585,0,240.2309541,5.281015844,-2.313295603,23.94256211,129.4619959,148.0133223,148.1952159,-2346.906852,134.1248733,125.1997435,0,119.7440792,,,,
165.8639999,647,-46.02513743,-55.71501222,-62.50753003,0,339.4601702,-56.40200097,-74.01007504,-39.59339101,-89.40063862,-76.05620919,-63.08569586,-2126.847777,-105.657968,-110.3669397,0,-107.8548957,,,,
165.8719999,647,111.4781478,104.5155183,-68.04670421,0,-117.120568,109.5263747,95.34045563,128.6035884,79.62299205,92.35552162,89.3565425,-2204.098861,86.71384894,74.93128956,0,72.59954392,,,,
165.8799999,647,-97.58345488,-117.6093201,-9.303334187,0,511.6221811,-114.081076,-123.6637854,-97.85194282,-35.48902976,-8.160097897,0.312233413,-2317.184465,-20.13967608,-34.59725816,0,-28.57947637,,,,
165.8879999,648,95.94604047,89.88673082,-96.79611045,0,-77.58044241,88.20035493,75.73787986,107.7561961,-59.49551276,-39.66332084,-43.8576026,-2056.000281,-62.32132879,-72.46804841,0,-72.23460308,,,,
165.8959999,648,0.773504568,-13.95360183,-7.789973604,0,231.3806809,-12.8513636,-24.85677904,2.578080358,107.6958226,128.3544493,132.0488381,-2377.098011,120.9487958,100.6777486,0,106.1273563,,,,
165.9039999,648,-31.48422373,-41.60162694,-71.04314061,0,319.1163492,-46.94952155,-44.26362594,-15.02929111,-102.7411109,-81.20959436,-71.69103969,-2153.669489,-95.78337238,-117.6506703,0,-113.2319401,,,,
165.9119999,648,98.3178013,95.25291409,-66.97221433,0,-119.0054388,110.078871,112.6292765,139.1694104,105.9148215,117.6009809,114.0164646,-2248.430594,110.5070458,94.49193297,0,92.35559529,,,,
165.9199999,648,-142.3733237,-154.8851177,-42.32917255,0,512.1924004,-131.5213713,-131.7738388,-102.3916647,-38.08206417,-21.36500064,1.13845957,-2354.272664,-20.958804,-35.62926794,0,-28.91906706,,,,
165.9279999,648,67.25905954,66.83389023,-130.2023983,0,-83.61259837,86.559039,94.5262737,128.4178619,-77.70074788,-62.1468228,-54.86713272,-2094.77548,-64.93939051,-69.03463238,0,-76.97832862,,,,
165.9359999,648,-24.66110535,-37.12750429,-3.890363371,0,244.4365471,-2.090860599,3.949182493,26.43345942,96.07352566,122.9162866,130.7853252,-2419.112019,121.0114441,118.3403307,0,116.8945823,,,,
165.9439999,648,-74.53495005,-83.76212829,-75.0359094,0,326.4245728,-57.52650989,-50.33518741,-20.2938448,-127.7899165,-104.6479756,-79.87444239,-2185.885547,-99.9390005,-109.2210764,0,-107.1397671,,,,
165.9519999,648,56.7379216,50.84796227,-83.05287505,0,-115.5327213,94.18887878,91.16438069,118.2732514,63.05826288,69.29245972,84.4932607,-2273.034636,87.03259082,73.19802018,0,67.97533797,,,,
165.9599999,648,-144.8688455,-161.4646632,-21.00720623,0,510.2206162,-106.7236862,-111.2009368,-89.86622132,-48.46677953,-24.35769162,6.798039522,-2372.859145,-16.52721026,-30.76637094,0,-19.69744384,,,,
165.9679999,648,70.34085663,68.78544835,-90.68872508,0,-81.09120946,117.8143958,120.9840452,150.5237601,-61.23727882,-30.18516228,-18.63615196,-2127.596364,-20.33001917,-32.21186366,0,-33.48859654,,,,
165.9759999,648,-43.8741389,-57.17967845,16.69505362,0,257.3730713,11.99485462,3.444409321,31.22253866,83.40904634,119.9847608,130.032966,-2455.571561,126.2149878,123.8137777,0,122.3349141,,,,
165.9839999,648,-92.06938389,-100.9079472,-69.22114086,0,327.714597,-40.24166675,-38.53080844,-5.04268144,-141.8942782,-98.13114503,-77.45102833,-2225.490681,-98.70020187,-92.7586577,0,-90.20385585,,,,
165.9919999,648,50.98219855,49.16693477,-85.37258766,0,-104.6828683,117.1773215,124.521309,151.0538313,46.83251551,79.56932683,89.92734007,-2325.750534,99.41504309,101.1051922,0,94.96452046,,,,
165.9999999,648,-140.0447228,-155.2476242,-27.41267604,0,522.866254,-85.81453125,-79.6092666,-56.36549509,-59.04930325,-28.19985054,4.169969929,-2420.970633,-19.85989087,-10.36780781,0,-6.243684153,,,,
166.0079999,648,36.81271771,34.86184692,-128.0889242,0,-63.77245845,89.72084611,104.857419,133.3076647,-50.22842677,-16.75285673,-4.02913541,-2177.648166,-16.06484608,-6.778762826,0,-10.53494297,,,,
166.0159999,648,-97.26091394,-104.5190076,-60.65101989,0,269.1302815,-33.40637159,-30.53279782,-10.3282513,42.25548154,76.21274197,94.3809995,-2484.09091,94.61933836,91.21465895,0,89.85118977,,,,
166.0239999,648,-74.9102987,-78.7036363,-102.5721783,0,307.385723,-19.61763594,-14.20680624,13.67126916,-171.7422868,-137.5125459,-112.0623749,-2233.73189,-122.9849992,-121.7105027,0,-123.0489383,,,,
166.0319999,648,90.8831581,91.21105704,-58.99194947,0,-101.6536768,138.127006,151.0329195,177.1947949,98.18325826,134.2320464,135.2882329,-2352.933292,137.0350631,147.4096054,0,139.7593332,,,,
166.0399999,648,-129.5758339,-137.0381793,-16.62409127,0,529.8892276,-100.7528205,-93.45293461,-66.07619714,-44.35529784,-10.81914958,17.11883794,-2444.47133,-19.40646893,-2.814571555,0,-0.559359638,,,,
166.0479999,648,59.29553147,60.69162455,-113.6119637,0,-72.91663739,82.00577773,93.14162211,131.2486434,-67.22572004,-42.92052625,-27.12222902,-2196.44256,-45.26710398,-37.26520969,0,-42.8274108,,,,
166.0559999,648,-67.05004354,-76.31785128,-26.02310258,0,273.0903614,-53.68774092,-41.78475452,-12.04787632,69.24321327,90.2267597,111.409149,-2507.121166,98.89667659,93.25358157,0,95.01469156,,,,
166.0639999,648,-53.80003658,-52.38705551,-84.36492619,0,305.8489802,-47.20715484,-30.12245913,1.646571139,-149.9898248,-131.0696937,-99.96648089,-2247.389074,-129.3784055,-134.8455418,0,-134.4338033,,,,
166.0719999,648,99.85695341,99.21207006,-72.03364378,0,-92.65728329,99.76012433,120.4744081,148.61316,94.50586443,113.6064083,122.6692239,-2357.989193,110.7082687,105.4592211,0,98.64643597,,,,
166.0799999,648,-122.3449294,-145.9925534,-67.2068197,0,525.6142995,-152.7943215,-135.1887603,-112.0062805,-59.70718862,-38.55414879,-8.017136008,-2436.511043,-48.90496241,-56.70370155,0,-48.87332174,,,,
166.0879999,648,94.26729875,77.76766703,-156.9978528,0,-93.22557738,58.13759302,74.70032095,100.9830582,-90.47953177,-76.22776095,-55.3902642,-2185.861796,-80.18690184,-92.01598373,0,-93.8740196,,,,
166.0959999,648,1.739484761,-25.35629023,-37.36131851,0,276.5993522,-44.50505617,-35.16737963,-14.24234142,90.06566124,101.3736794,127.8929317,-2495.9734,103.5226513,85.73159181,0,84.77280742,,,,
166.1039999,648,22.48042535,1.261319573,-88.0110384,0,309.9229478,-28.18806912,-13.94375904,6.221184943,-96.05112276,-92.21495999,-55.22611863,-2240.954192,-86.44260965,-114.2795111,0,-112.4365269,,,,
166.1119999,648,148.0840861,127.6896462,-59.95865606,0,-81.07823588,112.4525951,127.6177927,142.1520741,117.2570905,122.96424,140.4817055,-2363.255259,134.6154703,106.7928835,0,102.4716178,,,,
166.1199999,648,-79.87413927,-111.1262455,-33.73208344,0,540.0587026,-127.993248,-124.1072885,-101.6808989,-38.31064055,-14.68055481,11.0958098,-2436.764133,-26.88562526,-37.14905306,0,-36.37388486,,,,
166.1279999,648,140.6794823,121.9909918,-105.3283928,0,-70.69435722,98.79318765,103.7109938,130.9495679,-36.86440521,-33.59165195,-8.962936883,-2193.911027,-33.55766592,-38.59048754,0,-46.70111991,,,,
166.1359999,648,4.665789257,-28.33852606,5.062993674,0,311.1012499,-28.97934705,-24.60509514,-7.421344542,111.4446184,101.1976885,141.1913406,-2508.143245,119.0831512,107.2921058,0,106.4285662,,,,
166.1439999,649,-12.40286247,-41.31049792,-98.55180369,0,317.2823658,-57.8222219,-47.08804698,-17.11601948,-131.0239902,-117.4036545,-88.44109141,-2246.014856,-123.8357808,-129.0434326,0,-130.3891116,,,,
166.1519999,649,122.7626861,96.48422664,-81.59922403,0,-80.07086761,73.97000294,94.1583272,121.5004086,84.71149802,85.31486228,104.7796951,-2365.662676,97.13050955,90.80699446,0,79.07548528,,,,
166.1599999,649,-70.5551904,-103.0955868,-12.80607415,0,534.6019753,-124.0440976,-108.8883954,-85.15793379,-46.18980077,-56.13641206,-13.22654006,-2428.472626,-36.08587273,-50.00953792,0,-54.28005723,,,,
166.1679999,649,165.3722002,147.4024357,-68.74191734,0,-70.06600957,116.1173542,123.0394676,156.9937987,-27.04106403,-12.267689,-6.479914227,-2197.261213,-21.39075747,-26.29370358,0,-38.56961736,,,,
166.1759999,649,24.50292822,-8.011432804,35.71477832,0,324.6225327,-34.56922341,-29.69594655,-2.628107817,133.8758791,132.1142383,153.245548,-2513.166902,135.3644731,123.3429519,0,116.6737174,,,,
166.1839999,649,41.91898369,18.72834978,-24.148768,0,315.1021595,-21.4717072,-17.09112349,14.27203606,-84.75546252,-92.50965393,-59.47137715,-2240.361209,-90.89579854,-103.2200372,0,-107.6451216,,,,
166.1919999,649,220.2044141,200.8402744,48.14270509,0,-55.22711091,167.6853544,158.3649642,190.5334081,163.9366188,176.5632337,183.3557185,-2377.2882,162.015794,157.2642943,0,149.9168853,,,,
166.1999999,649,-3.502299682,-34.81688929,86.70381389,0,569.2068408,-61.99154876,-70.98893958,-40.35031619,46.39650745,39.68278087,80.56449994,-2455.452332,42.02195718,26.34525502,0,30.33083962,,,,
166.2079999,649,157.4338021,139.8657474,-34.13987125,0,-54.06259616,102.9315456,107.1414496,135.1450057,15.3911979,12.28280427,33.31440691,-2232.382441,7.853858715,4.719142835,0,-0.436091803,,,,
166.2159999,649,-15.20522813,-45.70318725,43.60184191,0,330.1035266,-78.61045073,-78.6708654,-61.34207719,91.99925983,99.96459705,123.6998055,-2535.374391,90.52898229,82.82543217,0,84.53501319,,,,
166.2239999,649,12.57152443,-9.167871864,-22.46907141,0,297.7706443,-52.77514279,-46.00007277,-24.09920471,-134.0811982,-141.4071398,-98.86248387,-2242.818146,-133.3981454,-157.544962,0,-155.1985693,,,,
166.2319999,649,178.9145927,160.4718864,39.85219574,0,-69.89277384,127.0319726,134.4211063,148.8258773,132.7360464,122.7656792,153.9992958,-2375.371024,130.7377517,121.4467497,0,115.1354815,,,,
166.2399999,649,-66.75278586,-94.06997121,62.60605909,0,541.0846074,-125.356694,-129.3711222,-114.3762447,-8.104842126,-20.64484568,37.90392965,-2439.689803,-17.27088876,-25.15186139,0,-22.07175451,,,,
166.2479999,649,142.4042558,131.5836373,-35.1371157,0,-87.73423355,85.02735514,89.4727312,111.4636254,-21.59968565,-26.55154066,2.122259104,-2205.541584,-22.09055853,-45.31901088,0,-51.15869911,,,,
166.2559999,649,46.53323331,19.16242899,95.03710687,0,322.8712049,-20.73220636,-17.77189763,-4.562153861,130.8860902,126.8464181,160.2785947,-2515.01477,131.5443633,102.4372774,0,103.7053408,,,,
166.2639999,649,42.97493963,25.71587475,18.72680944,0,299.7872109,-23.19977139,-24.90560008,-3.649582136,-64.50218071,-81.62242404,-26.10652915,-2247.742702,-84.10031577,-102.4326155,0,-97.43728911,,,,
166.2719999,649,146.9185493,135.8078485,23.47013501,0,-57.79145318,88.63389634,92.22989792,111.311432,131.2207798,133.5819566,154.8810036,-2382.675351,124.5997759,101.3604301,0,99.1336988,,,,
166.2799999,649,-67.54112578,-94.82669659,38.85542611,0,539.1002622,-140.9329778,-127.450793,-113.921897,-43.50824645,-38.59304335,3.116621458,-2422.489373,-42.12144467,-74.91000365,0,-68.84957338,,,,
166.2879999,649,161.9409994,151.2266682,-32.84309467,0,-83.9086748,103.8752634,116.2877718,134.878805,2.047283337,-16.86167435,24.98831769,-2195.918822,-11.79270636,-34.36507346,0,-37.64452524,,,,
166.2959999,649,30.96571055,7.913348144,80.14210181,0,345.314126,-20.16010326,-22.54418006,-6.781932224,147.3129043,141.2921806,175.1197017,-2508.287961,136.019388,114.0468245,0,116.5668944,,,,
166.3039999,649,26.0190201,6.654301641,-17.70555484,0,303.3346507,-30.98461576,-23.17569535,-1.598643846,-91.21236485,-90.78200151,-53.79047928,-2228.99358,-98.34145274,-119.3225182,0,-115.2081424,,,,
166.3119999,649,155.2076039,144.949376,-1.777985263,0,-42.18676253,101.6036264,110.6022116,130.7297868,133.9933065,123.7244644,153.3861421,-2367.345034,134.4474287,112.1885929,0,104.3406386,,,,
166.3199999,649,-51.9094645,-73.54103891,18.35747282,0,557.4430536,-117.3827989,-113.3470439,-90.64829947,-9.365906395,-7.905009106,32.08870805,-2413.251078,-14.2628454,-35.14635501,0,-38.45894298,,,,
166.3279999,649,143.0222388,132.2871548,-79.31908385,0,-75.86551896,90.38537196,99.7384149,125.0302727,-17.47469135,-5.222292472,5.68427281,-2196.620036,-29.61387329,-35.5073591,0,-48.32770113,,,,
166.3359999,649,2.652836015,-16.10411267,18.19225741,0,350.4238451,-50.08964953,-52.91010357,-35.68419306,95.72962079,95.79078073,124.529544,-2500.046374,92.96797849,78.26559008,0,70.12952741,,,,
166.3439999,649,37.43022387,24.4561469,-42.41891487,0,295.0771721,-30.98405603,-25.16899218,-1.849249161,-76.00772127,-86.28180551,-44.95641253,-2217.239672,-84.10281108,-111.7943351,0,-120.4306407,,,,
166.3519999,649,151.7311631,142.25954,-6.110501568,0,-37.63773807,88.43089106,101.9069666,117.5828795,146.2385301,146.7941527,160.5386643,-2363.872593,127.2064102,112.4990673,0,96.57704266,,,,
166.3599999,649,-64.62167092,-82.15874589,3.713952878,0,557.0576086,-131.1735197,-127.2952272,-113.4441247,-30.12135612,-35.30531551,7.755609142,-2389.117299,-46.50219624,-70.55253224,0,-72.93060459,,,,
166.3679999,649,148.8991177,143.9908245,-84.25922764,0,-73.38256176,88.66274466,100.1752735,115.0288318,6.253881218,-9.496123647,20.00066728,-2166.547785,-3.369236281,-40.54436041,0,-50.69875545,,,,
166.3759999,649,-9.726032554,-23.92999358,9.442559421,0,361.1726031,-75.53853489,-62.05933012,-57.2452822,115.2275477,111.2212086,139.9480836,-2476.857099,108.0722984,73.51221812,0,68.33748998,,,,
166.3839999,649,11.18235549,3.086559282,-76.40786477,0,284.5199871,-56.17914441,-45.08526055,-28.36928546,-103.5828888,-112.9493533,-71.42004772,-2189.068846,-101.2882714,-155.1498514,0,-154.4702214,,,,
166.3919999,649,139.7278145,133.0119001,-39.51082443,0,-38.47176873,83.01944486,90.28492972,106.9683204,122.7692705,116.5796287,138.8620296,-2336.333974,126.166431,83.33359853,0,79.10560937,,,,
166.3999999,650,-51.69984202,-65.1346408,-7.130968064,0,554.0767119,-113.1510939,-104.9061593,-88.70792662,-27.89794409,-20.18547329,15.26399021,-2372.382091,-36.22031255,-55.17565665,0,-53.48384949,,,,
166.4079999,650,158.356078,156.7346046,-74.59500663,0,-73.47843378,116.7092883,126.9588468,147.5839437,14.3455319,7.772868026,30.08160795,-2166.942743,-0.283931261,-14.57262919,0,-25.22761057,,,,
166.4159999,650,-11.79654571,-24.65689207,23.57728335,0,371.9117405,-52.3250229,-52.68133663,-32.99173072,113.4253417,112.347605,136.3311377,-2471.433517,101.7433547,99.25350172,0,89.99923209,,,,
166.4239999,650,19.19573874,17.24381688,-66.96275932,0,280.0594605,-31.94036676,-16.497463,8.178908547,-110.8299546,-101.0749784,-78.74129357,-2183.524884,-108.5385934,-120.9605478,0,-133.7352771,,,,
166.4319999,650,115.0838447,112.4855588,-32.71151966,0,-31.72127305,69.37762376,97.32156204,105.8809537,122.6471692,127.2785768,136.3854808,-2341.488591,118.9681244,103.6022554,0,88.18447747,,,,
166.4399999,650,-121.6969017,-135.0614488,-26.37672655,0,538.3765992,-174.0553852,-160.9297326,-149.3776069,-58.15307203,-55.41758865,-20.76533417,-2354.88463,-72.45617951,-84.86676942,0,-85.6061998,,,,
166.4479999,650,118.0333022,121.4017392,-102.9317415,0,-108.2849814,71.96478225,84.39420606,102.7517302,-48.31830777,-47.16251186,-30.13801111,-2133.44,-43.95609061,-75.33660014,0,-83.58940445,,,,
166.4559999,650,-41.06188203,-50.51542658,2.354796394,0,354.0935597,-91.84172871,-76.70932708,-70.70322938,84.23375982,95.50432272,115.8146707,-2434.124074,94.56040684,53.21091559,0,55.48716034,,,,
166.4639999,650,-26.11301313,-31.57450125,-100.9210452,0,247.7905384,-77.58626605,-61.99919306,-48.06970953,-139.0565677,-139.1825856,-99.89094347,-2133.425638,-145.6507191,-178.132531,0,-175.6151137,,,,
166.4719999,650,128.3576556,124.6223605,-48.83443566,0,-54.11876226,84.30485078,97.26668375,108.5689727,96.40596663,83.40265432,120.6638845,-2288.464767,84.86304889,62.65420523,0,56.33761596,,,,
166.4799999,650,-76.69358336,-88.23805728,-27.35668261,0,532.7051833,-126.4009003,-125.1806497,-106.9319524,-11.84935963,-21.60335898,29.02645937,-2315.505455,-18.58075968,-54.56420743,0,-51.53993067,,,,
166.4879999,650,135.9577021,141.4525382,-115.0654529,0,-104.6602822,96.92831638,96.42913892,123.27724,-11.93503935,-12.89406674,7.435093674,-2111.854824,-15.46794621,-47.7028663,0,-57.86542841,,,,
166.4959999,650,6.863930748,3.036034633,8.528189777,0,368.3257919,-34.81015517,-37.43297167,-17.81184774,102.1020529,108.9383852,138.6226938,-2417.263578,97.10667743,81.37199194,0,74.06154538,,,,
166.5039999,650,19.38530401,20.47174241,-88.79536502,0,264.0473026,-18.42610355,-27.7955653,1.141082799,-59.991379,-71.87775852,-31.39855282,-2136.393392,-65.14975555,-94.5326098,0,-104.8893188,,,,
166.5119999,650,105.6566691,108.634976,-72.80156686,0,-30.78664971,72.19262335,61.39647164,84.98078197,112.0552302,112.5634143,127.8404184,-2297.382268,108.526872,89.33001037,0,68.13116147,,,,
166.5199999,650,-81.15002651,-86.69077709,-43.2581353,0,528.9321687,-131.5594004,-143.6372905,-117.7733101,-59.66783248,-49.23514934,-13.8191251,-2299.751362,-78.65045384,-80.66760394,0,-91.83576234,,,,
166.5279999,650,128.412376,132.8265327,-114.039569,0,-110.7069528,88.2456428,76.89756068,104.4689673,7.7623061,-2.152601518,22.88841883,-2103.907504,-12.90317042,-28.26075978,0,-45.83645822,,,,
166.5359999,650,-61.11571841,-68.55368899,-30.09700282,0,363.8099327,-104.3991076,-110.0104017,-97.3016676,78.37460796,73.73914618,109.1191324,-2400.734029,74.21654971,42.44957838,0,30.40654942,,,,
166.5439999,650,-12.13989788,-10.27245693,-110.6917539,0,233.9364061,-59.41750932,-58.74014416,-38.81788619,-127.3440919,-139.0666873,-98.16525629,-2095.468911,-139.6189668,-179.0315962,0,-188.2754649,,,,
166.5519999,650,110.8395911,114.9869106,-48.67651243,0,-38.01190075,71.48457287,67.76736169,87.86540175,114.777027,104.235616,125.2258534,-2263.877939,104.5784932,63.17614162,0,54.23665,,,,
166.5599999,650,-93.67527919,-100.4707389,-30.29174401,0,526.0540295,-142.9623287,-144.1697705,-120.2315808,-56.32946049,-56.18555189,-9.756106049,-2267.099171,-53.05595148,-96.20147569,0,-96.5020529,,,,
166.5679999,650,145.0129811,147.6869927,-81.93412102,0,-108.5904305,110.3080572,115.594816,142.3849216,9.969574728,-4.368748052,29.11605465,-2077.941088,5.640823932,-28.03816635,0,-38.79615533,,,,
166.5759999,650,-17.50512983,-21.81928051,22.11262215,0,387.1620095,-50.78463165,-50.01545623,-28.69593389,107.7078989,99.23932379,133.3802091,-2383.526919,107.3238203,77.77266887,0,71.98963887,,,,
166.5839999,650,-4.422160993,2.645061913,-81.81973351,0,245.7234009,-40.59659642,-37.43443176,-5.960946772,-108.8453491,-108.2539336,-77.4166015,-2081.359749,-99.17997118,-132.7094305,0,-144.9088426,,,,
166.5919999,650,113.1857342,117.9795983,-11.12966182,0,-22.20479261,88.08118869,84.53230384,112.6569182,131.560807,136.2116439,143.9149174,-2250.206134,123.4273409,111.1736237,0,91.42320484,,,,
166.5999999,650,-96.00750997,-99.95680565,-4.047734442,0,531.053237,-131.0758506,-136.7977616,-106.0746669,-51.17454384,-50.24952507,-13.87690387,-2246.14553,-77.08912406,-71.32996544,0,-83.86580322,,,,
166.6079999,650,91.65624072,99.81395879,-108.385347,0,-122.3189993,59.95255784,64.41054164,93.40860968,-27.88233691,-36.29853353,-13.28527327,-2055.642497,-40.91284031,-46.43577542,0,-68.85054798,,,,
166.6159999,650,-32.22062834,-36.79422178,4.815621799,0,362.0718843,-66.40550845,-70.95317363,-51.72744098,77.66163462,87.6246304,102.5905907,-2346.021901,75.52484213,58.23423588,0,45.98172241,,,,
166.6239999,650,18.69469763,20.5517673,-88.74954203,0,216.2229289,-15.60258555,-22.71582698,5.717553204,-92.42984335,-96.18582025,-63.28150468,-2046.350228,-95.08253927,-120.9759316,0,-136.7980154,,,,
166.6319999,650,90.9114268,90.91661384,-69.23316418,0,-34.4335533,56.18509253,58.21164102,79.96139561,115.7909782,100.6316602,131.062551,-2227.548084,109.1269582,88.68614541,0,62.19280749,,,,
166.6399999,650,-67.92538999,-75.5389692,-49.84577767,0,505.5768831,-112.4629813,-113.6633008,-89.65142485,-64.06474664,-60.40943269,-21.53697533,-2216.521243,-76.37147475,-86.53910918,0,-105.4064929,,,,
166.6479999,650,158.1117188,159.7192027,-106.7788673,0,-127.423249,127.4167882,122.1638151,148.0793944,32.40194688,22.40048031,52.3750267,-2044.395549,28.5222801,6.672750067,0,-18.20126336,,,,
166.6559999,651,-49.12781389,-60.5223977,-24.72913514,0,377.5172837,-88.0787964,-88.70869796,-73.42757727,99.35246356,89.13476952,130.2983806,-2341.106095,93.71592541,71.85825762,0,56.28452027,,,,
166.6639999,651,-9.864942552,-9.768302721,-139.4361934,0,194.5248765,-47.50886806,-47.6652497,-23.57250587,-127.6396987,-132.1620526,-95.20324894,-2032.99676,-137.9737196,-153.3649888,0,-173.1877954,,,,
166.6719999,651,93.57998181,92.18878196,-101.5627175,0,-46.31327874,67.02555781,57.65098665,76.42520423,111.3552203,102.3595307,126.0367877,-2216.576738,102.7663557,84.25084588,0,58.93586334,,,,
166.6799999,651,-103.7504386,-113.0468477,-93.65918983,0,498.2273305,-134.7356917,-147.3694973,-127.2827512,-72.86176389,-75.84869063,-33.41284476,-2191.36664,-88.5454357,-99.84442138,0,-115.2751184,,,,
166.6879999,651,114.8178066,119.6539494,-149.3682966,0,-146.1121492,96.01084358,86.12710349,111.8467673,-11.82786251,-14.62956432,8.067328299,-2012.089846,-25.95108455,-30.2173573,0,-55.32021871,,,,
166.6959999,651,-42.02017933,-48.63022974,-47.62399712,0,363.8381378,-71.65134975,-80.10211724,-60.49130746,82.81184181,74.14349774,111.2422508,-2307.674491,71.10071632,58.10880381,0,40.73339829,,,,
166.7039999,651,-5.846838935,-4.613382749,-164.8521389,0,179.815558,-32.22329884,-33.0248124,-10.4615922,-115.0129347,-133.0821432,-88.73774844,-2003.794535,-126.1001184,-145.9310829,0,-164.9522614,,,,
166.7119999,651,67.25163856,63.05871829,-121.0038866,0,-45.9728932,44.83083286,47.63157301,62.08073919,102.1061875,94.57609962,118.2637378,-2189.149866,89.25392827,80.09931361,0,58.00240807,,,,
166.7199999,651,-111.8163683,-123.9158924,-111.0578492,0,482.6993368,-150.6468097,-150.8271553,-129.4833689,-79.92325107,-84.19835088,-40.66589591,-2157.849688,-100.6205636,-107.4199705,0,-121.7749891,,,,
166.7279999,651,87.55261272,92.21430763,-178.9623604,0,-168.3363112,63.01863233,61.98801988,86.45159802,-16.7386596,-30.1667615,-6.521628866,-1991.260911,-35.84045917,-45.25219777,0,-71.51041691,,,,
166.7359999,651,-79.06464491,-86.53062992,-54.41765791,0,348.4340439,-111.6364722,-116.1415224,-99.15641866,44.39932787,41.77314534,70.25508228,-2271.609595,30.42868166,22.3101955,0,5.687651205,,,,
166.7439999,651,11.56399877,11.81595216,-127.4894131,0,158.9194318,-22.0338424,-25.56509698,1.913013425,-124.7561392,-133.3898871,-97.3309155,-1950.290199,-138.819933,-152.2643341,0,-168.9473836,,,,
166.7519999,651,87.57277546,87.98174038,-70.69389245,0,-29.83520448,61.65112892,58.65381283,77.35667015,135.0744771,120.4091939,143.0843037,-2151.649224,115.13132,106.3971736,0,85.57408475,,,,
166.7599999,651,-109.1975138,-114.5066963,-70.31785935,0,533.8726111,-146.2627649,-145.3318825,-129.0044995,-68.48487186,-73.09972944,-33.04194587,-2122.450584,-87.71061735,-94.53755076,0,-107.6164747,,,,
166.7679999,651,99.29958375,105.1628495,-137.8265964,0,-76.32936418,77.02817569,86.84980265,101.8271524,-17.14821178,-23.1382949,-3.027659645,-1955.278549,-34.11318907,-41.55679125,0,-62.21657914,,,,
166.7759999,651,-51.97960276,-58.93959335,-15.711762,0,459.8380327,-86.36346867,-78.21983624,-68.91096485,70.47791238,63.51008628,95.79084719,-2236.062357,48.28474063,45.38922348,0,34.68714866,,,,
166.7839999,651,52.80507785,58.32733231,-95.93032689,0,247.2574437,10.75312699,20.05417604,42.47972778,-79.54676177,-87.54948684,-53.5338251,-1928.621375,-100.7543843,-110.7799256,0,-124.885527,,,,
166.7919999,651,106.7700838,110.4672116,-53.73143715,0,50.73793293,82.02141969,81.12588749,96.07871149,152.3237948,149.2530618,166.153309,-2143.34269,136.2243054,122.2229652,0,105.9601364,,,,
166.7999999,651,-98.29602157,-105.3084679,-58.99860613,0,563.5795427,-130.9284561,-140.4885611,-124.0470674,-58.03634216,-67.16585428,-20.50963893,-2101.364201,-76.78575981,-87.80292463,0,-95.38343152,,,,
166.8079999,651,139.0195952,142.9962525,-101.0700963,0,-95.03105118,105.1049624,106.4189914,128.9769425,20.96031841,3.097345899,29.89630787,-1937.953905,0.025995097,-15.15938357,0,-32.838745,,,,
166.8159999,651,-31.51931479,-40.66208527,22.81087683,0,429.5702116,-72.20687458,-73.29126756,-56.0745967,95.53030224,86.14533298,120.0827675,-2226.771658,86.45241153,57.73595274,0,50.99027434,,,,
166.8239999,651,45.5088887,47.93555566,-56.40647542,0,205.6319586,7.718774427,8.460534645,34.30513185,-77.68756723,-97.8662352,-48.84621765,-1919.793179,-90.50030309,-111.1848177,0,-119.5074525,,,,
166.8319999,651,100.7009188,104.1913793,13.00632042,0,27.26603169,63.96700401,72.17153124,90.03456759,150.1809165,144.9118278,164.5526778,-2131.343994,128.1258718,117.1920439,0,108.0504974,,,,
166.8399999,651,-124.6547553,-131.8296136,-3.79103019,0,528.811549,-177.900138,-167.2792833,-150.5977261,-79.02976946,-70.19840006,-42.78344976,-2071.966359,-95.91991469,-123.3656076,0,-121.2426986,,,,
166.8479999,651,110.1314542,112.0453501,-77.9052285,0,-140.5665632,69.51885299,76.79648642,99.27394861,-14.62763887,-31.56582845,-2.673076214,-1903.354025,-36.35705481,-54.49380812,0,-65.20579829,,,,
166.8559999,651,-42.02436708,-49.82742615,23.44847651,0,395.0686984,-79.50603874,-83.8377313,-66.63145183,79.84226817,67.00248854,105.6818142,-2188.855315,65.56827407,44.26203814,0,42.04897006,,,,
166.8639999,651,34.21388976,38.94655167,-77.9383773,0,161.3837045,3.889350048,3.25833223,25.93048981,-89.99889032,-97.11025015,-66.83798833,-1874.658913,-98.00130864,-132.2947844,0,-134.8585819,,,,
166.8719999,651,113.8993862,119.6788477,-13.05837477,0,-2.222537492,92.32442005,94.45849952,117.0469322,145.1482068,139.2321113,156.963775,-2087.018884,131.9921597,120.393632,0,110.7996933,,,,
166.8799999,651,-84.29159884,-84.10454153,-25.94523415,0,508.7686723,-111.4010383,-109.5995613,-84.36578322,-40.42945008,-38.82933674,-5.279932683,-2046.419557,-40.84113293,-52.22417625,0,-57.13208686,,,,
166.8879999,651,116.4136833,124.3877948,-89.84017379,0,-142.5988664,100.9138627,103.798678,127.3451594,16.13934503,10.89410347,22.21549382,-1901.298362,10.87801381,2.637927488,0,-10.57870027,,,,
166.8959999,651,-48.49491019,-54.14508441,25.94019116,0,411.8601887,-76.96526269,-77.31906239,-55.18628201,69.07186874,69.88897445,89.48589263,-2169.424375,51.47086146,54.22528187,0,53.43038182,,,,
166.9039999,651,38.74441905,44.90935891,-76.81858221,0,171.6615256,9.497636296,17.95909216,47.86410655,-87.57153338,-86.32042186,-66.44923011,-1854.52512,-91.06947417,-100.6844588,0,-105.0460727,,,,
166.9119999,652,93.49255612,94.46767012,-12.98699233,0,19.045527,70.67571735,81.71050508,103.5851663,140.5916913,137.8270292,148.4527422,-2080.357237,140.1961776,130.3131174,0,121.3261076,,,,
166.9199999,652,-89.46437817,-95.01758804,-16.83286233,0,519.6626619,-126.304947,-110.7984418,-86.16136044,-67.02573351,-66.32996081,-37.10645457,-2017.647151,-72.27017539,-84.78697782,0,-83.96446599,,,,
166.9279999,652,141.2611251,150.5534458,-80.66595832,0,-124.3302018,117.2809034,137.0982164,163.9161149,31.84063454,36.15003843,40.20892131,-1877.595333,31.58762594,20.24112516,0,9.439029059,,,,
166.9359999,652,-16.39900676,-20.23225866,29.80038713,0,443.006083,-39.94310257,-31.71040897,-6.203207647,99.22005794,107.9168666,125.0801154,-2158.826288,99.33130223,93.72791351,0,89.31861197,,,,
166.9439999,652,74.93247949,82.55204063,-60.70308125,0,188.9910191,52.21712805,67.19522299,99.92831956,-65.60130403,-64.45737171,-42.70037183,-1846.511643,-61.68565317,-72.98964648,0,-81.33779312,,,,
166.9519999,652,93.07615212,101.0953673,0.972984745,0,46.95420771,76.5966624,97.82516404,119.5561853,168.2574818,179.4505618,179.0273881,-2074.692609,166.9965295,169.9498204,0,158.7511591,,,,
166.9599999,652,-108.3961606,-108.3439096,-20.77879643,0,533.1314537,-130.505016,-114.5086721,-90.22233483,-71.52290655,-61.77115692,-41.76057298,-1994.510964,-79.70620528,-73.64388191,0,-73.60974817,,,,
166.9679999,652,116.6263564,126.832569,-83.73348535,0,-121.673291,105.1372914,122.3330145,149.7200163,7.075299898,5.360512245,8.170025285,-1848.844917,12.08134912,4.959521253,0,-6.640071309,,,,
166.9759999,652,-81.00158465,-79.1104405,2.378934258,0,430.3810555,-95.55870077,-82.58396978,-59.1828018,69.49488708,82.5534381,84.09010051,-2119.481447,81.31995701,72.50096761,0,61.67698557,,,,
166.9839999,652,10.3375458,24.45995023,-126.6930841,0,144.0426478,1.289383036,7.686688156,44.81880417,-118.061333,-115.0783965,-107.6533738,-1791.82557,-113.8914354,-116.944184,0,-131.741638,,,,
166.9919999,652,76.49065608,85.9657853,-52.66872447,0,14.83768122,69.31077242,76.97009816,105.9119482,132.9959342,125.8007235,132.7289474,-2021.196098,124.0074391,135.7137542,0,122.14166,,,,
166.9999999,652,-76.23200865,-71.61027873,-30.58562169,0,499.0506614,-94.33489294,-77.0337926,-55.18078823,-49.69276468,-52.58369288,-26.7206226,-1950.84256,-59.68092737,-58.04821139,0,-62.86594873,,,,
167.0079999,652,172.0835527,189.1373598,-58.83943922,0,-143.9359639,166.6593788,180.00959,208.3349891,60.31048121,58.36282606,59.3386326,-1829.030952,53.10568853,49.75266677,0,35.98423682,,,,
167.0159999,652,-28.89365968,-26.22497232,45.0195952,0,436.9299695,-43.67035373,-35.15595305,-8.018617645,126.1094205,124.103596,138.5638887,-2113.23655,115.6570545,123.9222687,0,114.9809315,,,,
167.0239999,652,52.90898691,65.24857218,-85.80472004,0,147.8350892,38.75883844,56.60807246,85.19646245,-70.10503713,-76.97209231,-62.83869181,-1794.407832,-77.06936771,-70.31799677,0,-86.92386447,,,,
167.0319999,652,109.6129799,118.368728,-36.45728528,0,28.65507345,102.9539055,116.3420419,139.8188656,168.2651371,169.532856,161.4695727,-2028.221465,156.1824997,171.6113977,0,153.9625861,,,,
167.0399999,652,-82.57436238,-82.56027623,-66.0126961,0,506.3610973,-98.39842435,-86.82407367,-60.40632066,-30.47628666,-34.50736685,-18.80099992,-1957.273098,-41.88404591,-28.90485155,0,-39.43089671,,,,
167.0479999,652,112.4580479,121.3261609,-155.5765206,0,-149.7293807,105.1527528,120.6416553,146.247141,23.71563919,10.93968908,11.32686838,-1836.778945,20.86441853,23.61759131,0,3.550380511,,,,
167.0559999,652,-77.09853134,-78.83362965,-64.5487795,0,426.0287486,-96.91731623,-86.31129583,-62.54280311,65.84910906,65.22384451,73.23291383,-2095.901029,57.22422886,67.25472591,0,55.43265303,,,,
167.0639999,652,10.89735647,18.35783422,-175.5252164,0,132.4621282,-11.52979913,0.017104204,33.65398491,-100.7035189,-104.0385755,-94.04274958,-1763.43691,-115.8767765,-101.1116385,0,-117.7434686,,,,
167.0719999,652,38.52521926,37.12126066,-130.0112763,0,12.07597447,17.31471069,31.47117448,57.8307136,102.660067,85.46615717,93.68639783,-1991.455948,93.57694043,89.81009848,0,78.14188423,,,,
167.0799999,652,-117.1479431,-121.7091909,-129.8262345,0,466.9072677,-152.395977,-129.812954,-102.3245992,-98.93231638,-110.2638599,-84.58148391,-1901.278164,-107.9862924,-117.3393146,0,-121.240767,,,,
167.0879999,652,110.4111121,118.398846,-167.330696,0,-175.2911416,90.22160002,110.1227482,143.6736153,10.87710316,5.117575645,4.561915305,-1783.556129,-2.189017736,4.488014131,0,-16.31404726,,,,
167.0959999,652,-87.45389336,-93.79844709,-70.70549712,0,410.5918201,-107.1133983,-96.65776932,-65.23028452,54.81854909,42.26714452,63.28333916,-2045.015641,45.87048069,45.82142798,0,36.81734393,,,,
167.1039999,652,0.22291067,8.272103655,-178.3271398,0,100.8817338,-16.63868378,5.959247707,39.49875063,-109.6721257,-118.3404171,-102.7103887,-1716.343927,-120.7145441,-122.6969091,0,-135.191815,,,,
167.1119999,652,25.52271933,30.24524609,-116.024588,0,-3.052914851,16.72017523,34.53381098,65.11303119,99.71860881,92.98087526,93.234408,-1945.994169,92.76892514,93.70159998,0,74.64644043,,,,
167.1199999,652,-112.2435804,-114.7056442,-112.1873291,0,448.1372267,-127.6033589,-116.4161251,-78.58085951,-93.40542847,-109.4832165,-82.74774183,-1852.068885,-100.7061991,-101.0332926,0,-113.0951668,,,,
167.1279999,652,124.0308895,133.208298,-154.194516,0,-182.7189304,116.4742927,131.3413823,170.8134449,25.16971647,4.920268309,11.56493712,-1742.894993,11.83644242,18.90575727,0,-3.410818718,,,,
167.1359999,652,-87.78278609,-91.18581358,-65.22435399,0,419.1508678,-97.80443387,-92.78156355,-58.94343985,66.64401591,52.09677837,71.07165789,-1998.113263,53.84062371,61.38663595,0,45.79234828,,,,
167.1439999,652,0.530796056,8.193791751,-185.7897443,0,100.8694151,-4.159439553,6.129398381,41.61276725,-98.18663864,-110.2998015,-96.48080092,-1671.147883,-113.2371375,-101.4523075,0,-123.2782619,,,,
167.1519999,652,28.5243384,32.66746158,-133.7482594,0,14.49952907,22.54735234,33.56773383,65.70320424,88.62750047,76.46364592,80.09444142,-1904.044565,80.61496247,88.13886856,0,67.22674485,,,,
167.1599999,652,-110.3107004,-111.645938,-126.0651512,0,460.6952495,-129.0238996,-119.162445,-80.67108347,-97.81934236,-107.4324378,-84.29435995,-1802.081235,-104.7565094,-102.455367,0,-117.5807262,,,,
167.1679999,653,104.3142519,114.1786782,-173.7221888,0,-173.4416972,94.61812363,110.2326362,146.3816701,24.51458355,13.53625337,13.49704309,-1702.99564,13.10522153,26.83214619,0,-1.591886111,,,,
167.1759999,653,-118.5786007,-119.0554209,-103.0277113,0,419.5596776,-127.1985631,-125.6930395,-95.35566378,25.8387381,16.63671823,30.75348039,-1948.793628,17.36569381,22.67672702,0,8.766788613,,,,
167.1839999,653,15.74097623,29.38331514,-190.5113024,0,79.13418142,12.22182175,16.60311016,51.18038627,-114.3596646,-123.5181077,-112.1173033,-1614.572424,-118.8753884,-127.1070538,0,-145.3167235,,,,
167.1919999,653,66.9120386,77.43086054,-92.41754555,0,17.36525132,57.60201538,66.09485795,92.26420671,129.8188752,125.1029021,124.5083518,-1864.662358,116.3005545,123.4253776,0,99.68964459,,,,
167.1999999,653,-110.6464122,-108.6518735,-120.0686849,0,461.801996,-125.6719467,-126.8489206,-93.16944879,-75.7389555,-80.4943261,-64.24652787,-1761.272963,-95.54164038,-89.9734839,0,-104.7958614,,,,
167.2079999,653,93.54928739,105.8448319,-187.1940188,0,-185.1291895,94.55977366,100.4891565,136.1062966,20.07990062,3.536832953,4.320784551,-1658.57787,19.27606393,9.51013393,0,-13.78739846,,,,
167.2159999,653,-102.4657744,-97.6917227,-76.36302286,0,409.6408602,-107.6829934,-102.3660387,-75.70660114,32.41252651,22.01784163,36.99973838,-1905.843924,22.5823315,33.81731179,0,19.01057663,,,,
167.2239999,653,9.263107198,22.85204177,-166.6407679,0,67.95480243,3.569621739,7.877013502,41.67899347,-109.081813,-105.3943777,-107.4919886,-1577.194026,-128.7911986,-108.8750495,0,-127.7645565,,,,
167.2319999,653,30.11011473,34.19932224,-86.78412482,0,11.69631127,24.13411544,28.24457775,52.7448637,108.1736586,107.9629427,102.2518145,-1823.129953,100.1175891,104.9764517,0,88.79654449,,,,
167.2399999,653,-127.6576468,-126.0490293,-101.2409865,0,437.3747267,-135.7834553,-141.5649201,-115.5039619,-108.857866,-122.7506011,-96.22512671,-1705.54135,-123.4487459,-124.2938953,0,-130.6646586,,,,
167.2479999,653,87.03528364,101.6810379,-154.655582,0,-194.2539499,88.70712063,88.3024708,114.2306753,12.7168923,7.198467934,1.798877018,-1606.543316,1.258727649,0.562412608,0,-17.35158937,,,,
167.2559999,653,-104.4083939,-103.3623979,-52.17577747,0,413.2410405,-114.3412161,-108.4689488,-92.79850974,31.0114369,34.00663676,42.54945835,-1847.323439,14.41570677,20.61654326,0,11.30019138,,,,
167.2639999,653,26.63732691,37.12793143,-146.8876525,0,67.90995513,20.50527789,24.45698194,49.98728483,-104.4912381,-111.047803,-102.2177621,-1521.422238,-114.308823,-123.1274383,0,-138.9933731,,,,
167.2719999,653,40.53601543,48.09886492,-55.70327989,0,41.15744668,34.29767957,39.03203892,55.15457399,125.6957774,123.5800162,115.769426,-1781.136714,115.4296322,111.298304,0,91.87062413,,,,
167.2799999,653,-101.0303301,-98.19283423,-38.46375806,0,459.7081699,-113.9256773,-109.866711,-95.00530254,-91.38839214,-89.82910535,-82.36206449,-1662.591295,-128.9783292,-109.3952365,0,-120.9004571,,,,
167.2879999,653,137.704442,146.3086238,-47.82169022,0,-155.8784939,137.5622683,140.565847,157.490532,56.32224133,51.79642725,37.86533467,-1579.245655,42.57899145,45.54421904,0,22.16905237,,,,
167.2959999,653,-95.06576827,-96.44845092,33.15898162,0,469.9582289,-108.986027,-108.7965776,-101.0537649,74.99648169,68.47925482,73.52149416,-1831.781475,65.61646959,65.26313653,0,49.54668938,,,,
167.3039999,653,24.03387598,35.46271672,-108.7324149,0,99.5440243,14.31485718,10.18429807,21.31447552,-102.6969469,-102.4961691,-110.4298716,-1510.724629,-116.6899851,-121.2907896,0,-139.8122799,,,,
167.3119999,653,50.44578571,57.22626847,-40.06130223,0,97.41567027,45.20912984,38.98764625,38.37144594,119.8601424,118.4246623,105.8307529,-1780.560411,110.7829227,107.0673625,0,90.34066764,,,,
167.3199999,653,-127.8754937,-120.9328014,-62.10174449,0,553.1241884,-146.3515661,-152.9694261,-151.2757888,-92.44271004,-99.09327593,-83.40300154,-1670.119154,-131.1506408,-114.725325,0,-121.652166,,,,
167.3279999,653,91.65372264,104.1154355,-98.66903206,0,-38.74146408,88.89306653,78.57665032,81.5387656,16.07424088,19.51783033,4.250530301,-1592.361048,-2.302947477,-7.373591246,0,-23.12617445,,,,
167.3359999,653,-106.2076643,-106.7745512,5.826588398,0,579.3013504,-114.5684493,-123.985986,-126.6273363,34.51670406,28.84359421,46.57345932,-1833.285841,22.06775939,15.11006107,0,9.353264099,,,,
167.3439999,653,15.16839536,29.48309929,-91.8151337,0,188.6776575,3.031577139,3.562705462,13.68363705,-93.46596938,-100.9814081,-84.76088891,-1513.732086,-114.8832526,-113.4281441,0,-125.364926,,,,
167.3519999,653,11.2970501,16.10733092,-20.40962211,0,160.9898647,0.372338021,0.708728481,6.270402847,108.0936354,113.6107261,104.0880715,-1780.001558,96.80972317,89.54031545,0,74.50952961,,,,
167.3599999,653,-162.3939106,-158.8560041,-83.10700224,0,521.6438427,-175.5823592,-184.1849905,-169.9769061,-139.9582084,-136.7080007,-128.0422549,-1655.99284,-172.9854119,-162.0157675,0,-170.7569337,,,,
167.3679999,653,42.43717775,57.43465432,-156.3968054,0,-125.0633194,44.51971193,37.88730296,55.42368768,-23.20010675,-14.59105558,-34.02073381,-1589.722844,-44.53746793,-32.22236641,0,-50.26752384,,,,
167.3759999,653,-140.2975261,-139.6508784,-56.12237778,0,483.5016938,-152.0170331,-140.5991781,-137.0349425,-2.741167349,-12.01956814,-4.11284812,-1823.84589,-34.71535083,-21.25798506,0,-34.18698206,,,,
167.3839999,653,32.06353644,46.55636027,-140.0015751,0,90.95423185,23.96941137,40.89089439,51.42458634,-100.2062826,-117.6860858,-113.725858,-1506.676224,-138.6656946,-125.4479502,0,-145.2703163,,,,
167.3919999,653,30.48394309,38.42438878,-61.19216309,0,104.8072667,28.91810902,34.35145096,41.47329929,133.1030266,136.4775012,120.0896963,-1791.421286,130.2081868,125.3918173,0,111.3451098,,,,
167.3999999,653,-130.3656074,-125.3595933,-103.9782011,0,484.7308598,-141.8460908,-137.6353924,-125.9362505,-101.7622789,-120.567193,-104.8374521,-1668.769336,-119.9595759,-119.2609559,0,-131.1947174,,,,
167.4079999,653,104.5198217,121.8520911,-143.0182734,0,-141.0303835,105.7506014,114.3958798,126.3856713,32.87062033,17.32016523,-1.568620726,-1614.539575,19.43938769,19.7321413,0,-7.948412441,,,,
167.4159999,653,-99.07008868,-93.7768477,-43.9089245,0,482.4411793,-111.1694966,-94.54701684,-94.22652162,46.07108556,58.82376334,38.78538913,-1859.332324,45.42860424,43.37923493,0,28.28257306,,,,
167.4239999,654,-3.730375699,10.91448233,-175.1754596,0,84.27543255,-13.72988267,6.525069206,10.99821138,-88.46084637,-105.0135982,-111.8332353,-1544.683132,-109.1824593,-101.8296426,0,-124.0600385,,,,
167.4319999,654,-21.92887134,-14.06028199,-122.3835597,0,84.62706007,-23.80877284,-8.790378017,-13.7812876,92.81314717,73.5480593,58.28123298,-1816.322354,71.51143948,81.36029516,0,56.47778363,,,,
167.4399999,654,-163.8316014,-156.7951375,-166.4197903,0,428.8703263,-181.2894529,-167.2413207,-166.5122821,-146.9414151,-145.807514,-158.4030382,-1678.659232,-162.5586197,-160.6368266,0,-177.2922787,,,,
167.4479999,654,53.97731871,65.52259981,-209.9834422,0,-189.4684898,39.23457791,60.30379372,66.35547996,-1.748633821,-15.74492481,-45.51150973,-1615.95184,-13.11747087,-19.27010587,0,-46.22465565,,,,
167.4559999,654,-107.3550018,-110.8129334,-92.85729857,0,431.267158,-125.3798227,-102.241781,-102.2943552,11.48155382,-4.93326037,-12.42113531,-1840.041317,5.395599387,-2.725987889,0,-20.76175329,,,,
167.4639999,654,30.76958442,43.81502932,-189.2227323,0,29.01349427,22.57115311,36.22515435,45.36641104,-74.39369969,-85.584105,-102.3973904,-1530.93128,-78.89952206,-90.37888664,0,-113.205497,,,,
167.4719999,654,8.777451612,12.68133051,-115.5042101,0,70.9136708,-7.173716198,12.58031047,12.37753154,130.9263686,114.8381404,94.40037698,-1811.244283,121.0283012,118.0932742,0,91.49920375,,,,
167.4799999,654,-134.2624639,-134.0549188,-154.4112724,0,426.0827794,-168.4330964,-133.6701803,-134.8160455,-126.9164074,-143.934977,-144.6627797,-1668.656264,-131.1988509,-141.4998927,0,-162.2947628,,,,
167.4879999,654,71.94273805,87.10341741,-190.8242266,0,-176.1056264,54.13019315,85.77735455,84.47623322,21.72213784,16.54969688,-20.07897651,-1617.403882,19.61203137,10.16592163,0,-17.32679455,,,,
167.4959999,654,-113.2794118,-109.9924527,-90.66229334,0,447.1296317,-134.4613165,-113.98129,-119.5867143,19.94752229,16.35839138,0.086919231,-1842.860014,4.732832642,13.68351126,0,-2.616426189,,,,
167.5039999,654,16.03138715,29.45937791,-202.8702383,0,30.76022575,-5.472302645,17.40004183,19.91855546,-100.6905928,-118.0988246,-130.2483997,-1530.556794,-101.0916363,-115.3653103,0,-135.1055085,,,,
167.5119999,654,23.32932792,28.53439423,-99.83362145,0,73.31796759,-0.235608056,30.11638272,24.73966731,127.7001131,109.9710668,86.0228305,-1807.921424,136.4015982,108.2720086,0,86.61734474,,,,
167.5199999,654,-100.6121468,-98.81329053,-128.225646,0,405.5311938,-128.0652097,-98.2892878,-97.21444178,-91.34959119,-117.9514714,-115.1634218,-1667.443233,-91.22570371,-107.310214,0,-124.7577491,,,,
167.5279999,654,74.29517109,87.15602182,-197.649109,0,-185.2477773,64.88427191,91.05717285,96.6879899,33.70166322,9.657411752,-12.5760709,-1626.382615,35.17983242,31.67060494,0,1.455356434,,,,
167.5359999,654,-101.7918073,-100.4470519,-100.09931,0,433.8038083,-117.3767464,-95.77296718,-93.50708163,26.19473229,24.04064883,-1.956109166,-1837.1072,27.03847855,25.40258472,0,0.373187089,,,,
167.5439999,654,75.00468807,89.22440105,-182.9502851,0,-7.490882206,56.77177734,88.40574481,95.72676476,-53.54048551,-63.25367168,-94.08510198,-1522.924071,-45.08093191,-64.93758517,0,-96.61458284,,,,
167.5519999,654,39.48207303,51.24312113,-108.4614849,0,55.56738742,31.04668413,55.76260935,58.67974999,163.1415199,153.6432809,117.4102068,-1813.65433,162.5863205,156.8094727,0,125.0211801,,,,
167.5599999,654,-126.6285497,-115.4583684,-180.6908104,0,369.7587045,-125.2167031,-125.4695129,-109.4216917,-101.9846232,-103.1095795,-128.2876604,-1659.660464,-104.45118,-101.3571926,0,-125.6353547,,,,
167.5679999,654,78.88129177,93.32317964,-229.2582611,0,-234.1030385,80.87490711,89.19208855,105.4940632,29.51384252,12.70855287,-27.19371997,-1605.553145,43.06265008,34.56246911,0,0.23177283,,,,
167.5759999,654,-111.8020006,-111.3794464,-126.8809129,0,390.9363212,-127.0831475,-110.534511,-102.4944,27.92392929,1.941729662,-10.69390322,-1811.024933,27.82537314,28.57974437,0,5.178661417,,,,
167.5839999,654,12.75846123,30.34635438,-249.838574,0,-59.24104975,4.691957352,24.12996585,37.31025558,-98.26048284,-116.490502,-142.9341608,-1491.556397,-98.29808975,-100.967072,0,-129.4346466,,,,
167.5919999,654,1.734264187,12.74009903,-158.5150268,0,20.73353169,-9.920783584,20.39308801,22.35555505,107.6441316,106.5538838,56.84496042,-1768.709985,110.2336015,106.2853697,0,76.10416512,,,,
167.5999999,654,-97.81740768,-90.27720657,-167.4220176,0,345.2062136,-117.5373625,-89.83462358,-83.43749719,-99.43416511,-103.9568418,-133.3585234,-1613.39804,-101.666978,-112.9267347,0,-132.2373457,,,,
167.6079999,654,85.16130653,99.46063189,-215.1727559,0,-238.08779,66.9241217,100.7115025,108.0549194,50.33586687,29.88541713,-6.829274493,-1579.178244,60.00876241,33.24724347,0,6.380289649,,,,
167.6159999,654,-141.6634927,-142.1894568,-135.7474352,0,395.8839503,-168.7570438,-138.4459379,-132.1361052,11.71879175,-10.66172021,-20.26277923,-1779.131654,14.85481053,-6.494920834,0,-23.47539826,,,,
167.6239999,654,16.11382153,28.39360315,-233.9570741,0,-60.14818578,13.96184706,25.34533064,43.63884736,-113.6314483,-130.3408025,-148.2947514,-1454.916476,-120.8462637,-134.2885633,0,-151.2079074,,,,
167.6319999,654,15.64632582,19.13046023,-142.1747683,0,26.48117423,17.16319394,30.2692662,38.4590605,114.7795806,107.9507348,77.01509915,-1739.034916,101.1710008,94.11945753,0,81.25787379,,,,
167.6399999,654,-86.14142807,-82.34382508,-163.8185937,0,333.9801208,-93.44138844,-82.38911051,-66.85029715,-84.88808248,-96.00025511,-103.6923029,-1588.708789,-97.63407623,-104.180145,0,-113.2663084,,,,
167.6479999,654,121.1902427,140.9816953,-178.0953979,0,-237.2480031,130.5124019,130.8432574,150.8838999,62.89079497,54.457292,24.05700333,-1567.40075,65.41707139,55.52036765,0,34.55092686,,,,
167.6559999,654,-89.82316071,-85.0743775,-81.24114867,0,412.1186548,-91.19763993,-90.80199621,-76.68142541,50.85995031,44.0345969,32.17304656,-1769.863377,41.80782276,36.08324822,0,26.43199624,,,,
167.6639999,654,67.856565,79.82059446,-188.9266623,0,-39.92137432,65.56281033,61.38779001,89.92322479,-45.67444609,-66.91490565,-73.76033927,-1455.288427,-66.70147956,-62.05225156,0,-80.54423151,,,,
167.6719999,654,61.51950314,71.65160162,-98.68559288,0,67.33246879,61.26772713,55.25377713,76.28810638,144.2390413,139.4704034,116.0707597,-1740.317632,137.5019159,139.8336863,0,119.0732837,,,,
167.6799999,655,-51.51315816,-43.48033434,-122.0479565,0,369.4944965,-54.01916429,-45.30783314,-30.30536011,-60.42276084,-58.17628369,-65.66083771,-1581.128063,-75.37987533,-66.54994952,0,-77.07140675,,,,
167.6879999,655,127.3552154,140.6061271,-157.1708248,0,-195.156087,124.263155,138.2267163,154.4258953,103.0039043,91.4792873,75.91972331,-1566.392159,80.35524594,100.6931133,0,80.16068791,,,,
167.6959999,655,-101.1696434,-96.48569748,-99.99492399,0,438.6394324,-122.7297507,-111.0183572,-100.1432559,35.31464181,34.72957347,25.57642054,-1758.891376,22.63959588,23.81176113,0,9.96650607,,,,
167.7039999,655,42.93565614,56.82388435,-224.53575,0,-41.1065094,31.7458519,45.80542729,60.07994798,-73.13637619,-84.11405821,-95.34076293,-1439.03321,-90.39824085,-98.71877393,0,-116.58379,,,,
167.7119999,655,20.55350077,28.57311277,-131.9377704,0,72.78584594,12.64499923,17.90967998,30.36689128,132.8348171,109.9211833,107.4173379,-1721.112131,119.1636809,112.3680218,0,94.87545492,,,,
167.7199999,655,-59.46441077,-45.44331394,-142.5503264,0,360.2120762,-69.65430471,-67.69480012,-48.57821925,-85.50115656,-92.00309869,-93.15454681,-1551.467783,-96.11057508,-103.4193756,0,-115.3832452,,,,
167.7279999,655,139.7173946,160.5299824,-148.0460775,0,-192.8320154,144.5469497,143.7980292,166.0186592,106.2964023,104.6371506,74.19181624,-1545.579489,97.04000031,91.19998999,0,71.77865688,,,,
167.7359999,655,-109.8148546,-102.2254593,-80.87959695,0,454.6836916,-116.4566538,-119.5022636,-101.0394389,49.89450664,49.32152616,38.75909946,-1735.692073,46.80025804,33.71953046,0,21.39652801,,,,
167.7439999,655,28.42338488,43.6122514,-200.411743,0,-39.51390426,23.05618703,34.456891,52.00827885,-80.82345441,-92.25116519,-107.1664874,-1410.626432,-95.4869747,-106.7192267,0,-126.4340928,,,,
167.7519999,655,11.31005476,15.12116733,-107.7516872,0,73.07566063,3.388038049,12.32410713,24.29921053,115.0494063,103.2793204,88.91188183,-1692.506877,95.65755623,97.19331824,0,77.24307595,,,,
167.7599999,655,-56.07426483,-48.84275599,-136.5819634,0,350.6506,-78.16435342,-68.72943116,-50.04970546,-92.416339,-97.80066847,-97.94962649,-1520.799013,-112.8767147,-109.3477224,0,-128.2615979,,,,
167.7679999,655,135.7311173,149.3688996,-162.1631393,0,-198.0031108,119.5451958,136.0789466,154.9990671,114.6933563,91.7052795,77.18324663,-1520.589466,96.57700132,87.81770271,0,58.89673621,,,,
167.7759999,655,-112.9347518,-110.0116198,-114.8644993,0,436.6776274,-131.9893446,-126.5445496,-106.9933407,37.02590332,20.22307921,29.98645778,-1707.645134,27.39041333,22.572999,0,3.023244559,,,,
167.7839999,655,50.83715109,68.45902618,-230.9781011,0,-61.62015059,35.36318055,46.95740678,70.59072704,-84.54738691,-97.54012285,-99.17627707,-1398.017566,-95.85997903,-99.00011243,0,-124.1166979,,,,
167.7919999,655,23.89357602,30.51329748,-135.5793705,0,79.70797908,9.923337054,22.82092653,40.70309579,146.9206136,125.3391034,117.3781762,-1695.059622,135.6180822,118.4385961,0,95.82995776,,,,
167.7999999,655,-68.23270783,-58.95976509,-183.7082353,0,340.0077244,-79.51466828,-72.61982147,-46.09467885,-85.18214211,-94.45893582,-90.34237816,-1519.662506,-96.51417545,-100.3935645,0,-119.5052252,,,,
167.8079999,655,138.3890871,156.2104137,-198.0233331,0,-209.9028991,135.8376345,149.3053012,171.3280887,96.87186878,97.05045614,71.06577296,-1525.934452,82.07753592,93.33997173,0,66.3602035,,,,
167.8159999,655,-69.32333236,-65.45731802,-100.4794212,0,440.2237464,-81.19745611,-72.49196945,-53.04624392,68.31498042,61.98153261,57.04890531,-1710.233895,45.29802854,51.6993342,0,35.02394654,,,,
167.8239999,655,80.02055433,95.85077922,-196.7010741,0,-51.26738449,73.14122184,83.98424436,114.0386136,-39.56719341,-54.33077026,-58.53332851,-1404.103414,-54.15125038,-53.53194236,0,-79.2609309,,,,
167.8319999,655,23.42791915,29.63229171,-110.8950087,0,109.4674238,14.58836313,25.85670127,50.19654566,148.1934062,139.5858113,124.2099524,-1701.74977,141.8444512,141.3188592,0,117.0157785,,,,
167.8399999,655,-48.72222331,-38.85697774,-138.7428601,0,362.0945067,-57.87948852,-51.69963931,-17.20794403,-72.54343547,-85.04582086,-81.86702677,-1515.994724,-80.69685271,-80.43188167,0,-99.74064939,,,,
167.8479999,655,168.076535,189.5711231,-132.7187482,0,-182.0659367,167.1836696,186.8598967,220.5993753,121.3142049,111.6349062,90.43598851,-1527.10263,123.6895768,125.6548242,0,94.04830149,,,,
167.8559999,655,-61.88067196,-50.08720041,-67.32474155,0,468.0503273,-78.38968526,-55.68569538,-27.00639256,73.00777319,89.68110788,64.66251196,-1707.708934,63.65519616,82.9461419,0,57.94635921,,,,
167.8639999,655,49.71015421,75.47884482,-210.468639,0,-44.54688312,44.07258515,55.82550081,95.13240716,-54.84780798,-42.78114929,-72.07557699,-1389.681682,-63.01962982,-45.22147249,0,-74.90563057,,,,
167.8719999,655,-11.455582,2.989221748,-135.521281,0,99.87652627,-13.02021565,-1.454303141,27.32199124,103.4561031,96.64032274,77.12232941,-1666.434723,110.3284995,107.3763499,0,83.22567824,,,,
167.8799999,655,-60.27844291,-47.23705222,-160.903641,0,330.8681594,-72.80387248,-55.08161091,-23.85892677,-108.4537948,-112.3081329,-118.5189425,-1468.890551,-120.537804,-106.6059618,0,-124.8378684,,,,
167.8879999,655,139.4326521,158.3036826,-161.2665876,0,-199.4198656,135.3274483,152.6571584,182.2385662,107.5918562,107.4372072,78.46220056,-1483.990515,88.08640952,115.7205724,0,88.0792027,,,,
167.8959999,655,-102.9446794,-96.33176667,-107.8660156,0,444.3057843,-113.9129567,-100.7426517,-77.53280988,33.01075057,37.36179368,28.00974212,-1652.459791,34.21127997,42.59472131,0,20.8740152,,,,
167.9039999,655,30.75878556,54.52736768,-246.8888135,0,-79.4754007,29.08085344,38.44008765,71.77279703,-96.57466011,-92.4488247,-108.8457646,-1338.165626,-88.04012825,-78.65545195,0,-108.7923969,,,,
167.9119999,655,-31.17147167,-16.15454117,-151.6749091,0,84.71034223,-20.83424312,-24.54529949,1.462527889,93.78923269,97.31905465,75.03534792,-1621.076399,81.90821391,109.9867272,0,85.90451297,,,,
167.9199999,655,-85.2258646,-71.91036282,-181.1715628,0,299.3884767,-82.83853139,-85.09047102,-57.60574717,-123.3467895,-115.7032267,-124.1915598,-1411.290613,-138.8140474,-109.839502,0,-128.5140377,,,,
167.9279999,655,112.4668415,136.7070546,-206.0643664,0,-230.658189,110.2113426,114.5577963,142.104521,68.42402267,69.31436393,45.61617614,-1420.107003,65.18507485,82.94905942,0,51.6870285,,,,
167.9359999,656,-114.7077691,-99.76907389,-141.4429479,0,413.5145897,-133.6832662,-130.783714,-105.8741594,10.41401468,12.89238673,4.16777657,-1577.659938,2.245148188,11.34671902,0,-13.28902005,,,,
167.9439999,656,79.76723474,105.7695439,-228.5606064,0,-107.2217724,59.88083668,69.60291384,98.65068794,-56.94813564,-59.52082705,-79.25128736,-1270.073534,-59.36403321,-59.80748158,0,-92.34910917,,,,
167.9519999,656,6.10041535,22.43162594,-141.2533795,0,85.80834238,-4.6391055,-6.964456565,13.46980035,127.105012,125.9030976,107.5467676,-1568.584033,122.570853,129.7309738,0,101.3982209,,,,
167.9599999,656,-90.44809393,-75.0962816,-193.3771091,0,287.8606112,-105.8665384,-107.4923422,-79.16979942,-129.1683935,-119.6772608,-122.221193,-1358.589713,-160.1889088,-125.4743193,0,-149.3657067,,,,
167.9679999,656,130.2229859,150.6255568,-183.3107557,0,-237.523968,119.2900293,127.3655575,155.8249187,87.38166676,81.08141886,63.16645143,-1372.034511,65.02896529,86.98278475,0,52.63021691,,,,
167.9759999,656,-103.1120475,-96.28137119,-115.8877446,0,419.616403,-118.4731305,-110.4060158,-85.70211334,27.06211172,18.42989339,25.84185333,-1528.889148,24.00368097,25.47354409,0,7.806568933,,,,
167.9839999,656,81.81563899,99.55973064,-199.1972153,0,-100.2542844,69.72501012,90.82038011,122.1463862,-62.65500691,-66.19199315,-65.4721061,-1218.954954,-69.32506383,-55.10992512,0,-73.6354578,,,,
167.9919999,656,34.06693994,44.35113677,-77.30530785,0,110.6407152,34.04469612,45.42076636,67.39332993,150.9834704,149.6616121,142.5520722,-1514.018633,147.7729904,157.3392381,0,141.149788,,,,
167.9999999,656,-91.25007578,-78.21246334,-140.2799296,0,308.8498431,-88.57539824,-79.49736019,-52.15930568,-94.53091534,-95.52322831,-86.82442095,-1302.392074,-97.09322739,-91.06110249,0,-104.3947683,,,,
168.0079999,656,53.56010486,75.08706078,-175.2337103,0,-218.555969,68.51284654,81.23423836,110.5154982,45.44590118,46.42380223,38.07692678,-1311.921912,52.54406864,66.23804705,0,39.51981142,,,,
168.0159999,656,-189.2080796,-178.4881997,-128.4329606,0,411.6467127,-171.5317765,-166.7304765,-139.6107218,-55.87425489,-39.661908,-35.99050473,-1440.983907,-40.95760333,-29.53633645,0,-46.97853515,,,,
168.0239999,656,-14.45948835,10.48559567,-230.2601726,0,-140.6601334,19.87197712,33.49198532,65.02676451,-127.7850294,-118.0201181,-123.9137615,-1119.534726,-118.7385176,-102.9817662,0,-128.4037713,,,,
168.0319999,656,-79.23021229,-61.38454562,-135.2983814,0,65.3693392,-27.65250017,-19.11847333,4.085055974,49.23316319,67.38181901,56.54060396,-1411.143975,62.63806206,96.16884691,0,68.76070309,,,,
168.0399999,656,-116.1746386,-98.09656506,-162.79536,0,252.0030139,-67.97844544,-54.56611187,-25.44330458,-164.9381723,-135.9887015,-134.4925214,-1202.932651,-148.9596233,-108.268578,0,-128.1743777,,,,
168.0479999,656,84.29705329,109.7703682,-137.5142321,0,-241.307548,145.0321502,163.1915782,191.9132357,83.28186014,97.31058763,89.03293183,-1246.557786,101.6471839,136.7407847,0,112.7573371,,,,
168.0559999,656,-181.3029046,-168.0400936,-91.47125074,0,415.0457893,-117.371222,-112.3266672,-83.73792713,-21.18208112,0.338869584,10.78571849,-1394.585262,0.993105793,36.43570767,0,21.7323652,,,,
168.0639999,656,-1.133474002,23.11507549,-193.5278041,0,-134.421452,61.4877925,84.70235997,113.9515681,-128.5187359,-93.14562134,-107.6720906,-1089.000317,-98.65809802,-67.11749051,0,-87.77843079,,,,
168.0719999,656,-41.86776703,-25.44070562,-64.04951936,0,96.24292597,17.88791865,42.83090496,61.56001724,85.38808489,119.0888816,101.2656259,-1391.848354,117.5724125,146.9860961,0,127.2505035,,,,
168.0799999,656,-84.5911205,-64.36480969,-109.127491,0,282.0209674,-30.9215069,-20.74324678,12.06980727,-119.5688541,-98.16151547,-91.71916643,-1177.586041,-95.54758293,-69.86886597,0,-87.61099304,,,,
168.0879999,656,104.9713733,133.3197182,-123.8717266,0,-205.1522465,158.5217185,179.3740297,209.9192337,99.67711091,124.7286773,103.0729167,-1219.644343,120.6149539,148.1265873,0,122.445394,,,,
168.0959999,656,-145.9274926,-132.0084886,-88.03072058,0,448.9364032,-102.9668572,-84.62491688,-59.03982908,1.820802102,30.47953048,26.67693937,-1362.315449,22.30899234,54.07340718,0,33.8087344,,,,
168.1039999,656,24.79558575,49.53313744,-218.4598167,0,-109.5462681,64.8211325,82.95978435,113.9150302,-96.34460524,-77.00553698,-87.02295529,-1057.864099,-72.62834251,-51.53276336,0,-79.42934181,,,,
168.1119999,656,-30.10861401,-12.08891506,-112.8485568,0,127.5218065,1.159022712,26.14727081,47.17917184,90.2549867,118.1422792,95.78268455,-1349.926094,106.6683269,132.5030655,0,108.7443932,,,,
168.1199999,656,-84.60931407,-64.32535202,-152.0013767,0,296.2050572,-55.43663666,-37.20699981,-4.844204492,-134.0714353,-112.7320483,-117.0419314,-1124.669358,-113.3099963,-90.01788375,0,-113.9010366,,,,
168.1279999,656,92.24457593,117.863965,-148.8843925,0,-192.7977839,122.2479933,144.805567,172.973394,85.85571197,110.4703768,80.0702417,-1167.965365,114.9454105,133.7961184,0,100.9561867,,,,
168.1359999,656,-126.6194962,-112.7426294,-87.28850152,0,451.5810507,-110.5795542,-84.44005976,-65.08223061,-7.015739271,22.46648096,5.379699448,-1295.297488,-1.045494923,33.23007764,0,9.166218633,,,,
168.1439999,656,52.7166542,78.45277195,-200.7774855,0,-112.5642189,77.9957706,99.24275371,127.9547287,-95.58518806,-85.58258242,-100.2289941,-996.1100963,-82.99010359,-56.83637136,0,-89.53838892,,,,
168.1519999,656,-40.36205026,-24.61989456,-109.931519,0,139.2673937,-24.17751314,1.707520723,23.34639761,97.89688632,120.5877562,96.19797259,-1296.304589,121.9466414,144.8158794,0,116.123245,,,,
168.1599999,656,-118.6355119,-101.8028847,-183.9945001,0,282.0976669,-113.7489437,-84.61086252,-55.50585471,-150.1372629,-133.8223433,-142.1776123,-1056.647021,-142.229302,-111.5851196,0,-141.3415419,,,,
168.1679999,656,67.03249497,89.39964423,-193.2728226,0,-220.316487,79.40973844,104.696191,138.4488558,33.16350925,35.84659941,13.77211942,-1094.823052,47.75789093,70.55800045,0,30.69344266,,,,
168.1759999,656,-120.3209538,-108.8507451,-123.7355016,0,425.607204,-122.2011671,-95.79664053,-61.28330671,-33.15705297,-16.55137792,-28.94492678,-1217.076712,-20.07367364,4.813971243,0,-21.12289527,,,,
168.1839999,656,97.19736847,121.2711569,-199.7985529,0,-126.220361,92.77071525,127.637199,167.4458143,-65.75243262,-53.0564884,-77.89600575,-921.8710728,-58.85194757,-34.88138843,0,-67.31122645,,,,
168.1919999,657,39.62810268,57.51052029,-54.08682963,0,154.4241199,33.83072371,66.93548115,98.50666901,162.2306521,178.6339336,145.9327538,-1238.873022,164.8534344,188.3028922,0,159.5800209,,,,
168.1999999,657,-52.47117807,-31.10365066,-131.9596797,0,304.9452969,-52.59321278,-27.69968127,12.35367767,-81.34815799,-66.96339829,-79.09044209,-1013.070602,-84.63076123,-48.20426736,0,-74.11205608,,,,
168.2079999,657,90.59015352,114.6172064,-170.01717,0,-184.083633,94.11079776,127.6283621,160.256529,64.97997034,77.35707251,49.26407188,-1050.441786,81.54878568,109.289487,0,73.08746065,,,,
168.2159999,657,-111.1945495,-99.15415762,-104.6180825,0,441.9948618,-122.6836058,-86.75779072,-62.14738599,-16.5193474,-2.265216967,-18.24060912,-1164.329152,-3.415971347,11.3098895,0,-16.01718785,,,,
168.2239999,657,53.43301789,75.88845592,-223.239175,0,-139.2019985,53.8977936,80.8572364,115.3822011,-71.45213672,-71.51148442,-88.46443645,-877.0810019,-75.65131115,-43.94962467,0,-78.41833649,,,,
168.2319999,657,-51.90808772,-38.78658537,-137.8983243,0,122.0301919,-57.87650051,-27.94589213,-4.151527328,80.23711121,93.31332721,66.90034368,-1177.226903,82.34340135,120.6194332,0,90.74014756,,,,
168.2399999,657,-77.01227759,-59.00431794,-198.4782292,0,229.9450349,-98.65561712,-71.45636636,-40.30955148,-170.7279181,-147.2505565,-169.9164747,-926.2571579,-160.8017443,-139.4485454,0,-166.8663602,,,,
168.2479999,657,125.9947678,145.3170467,-184.8256303,0,-243.9771779,104.3060883,125.8855029,158.4367273,68.51915031,81.55927944,47.66394503,-980.5244766,75.10482325,90.7825608,0,57.50461505,,,,
168.2559999,657,-102.6362512,-95.10017536,-114.4067968,0,409.5846519,-128.5544453,-107.8425844,-81.54425183,26.86720232,34.11799054,22.7342562,-1105.146985,16.725952,34.57181286,0,12.9877313,,,,
168.2639999,657,59.76839718,83.97626042,-232.7683006,0,-169.6231582,47.46018026,60.83024869,96.66133687,-81.48335348,-79.34436168,-96.93801213,-810.1399957,-85.98573292,-69.97033134,0,-101.6705077,,,,
168.2719999,657,-10.39385822,-0.035285314,-118.5878322,0,111.4417845,-32.73361037,-17.94080053,10.13001805,86.71319254,93.10709536,73.36268054,-1108.459306,88.07118228,102.9416734,0,77.06851535,,,,
168.2799999,657,-67.0257071,-57.89658964,-176.8431739,0,226.1946798,-98.42293866,-74.92027721,-45.13056666,-111.9980575,-106.3734821,-114.7788839,-866.3175792,-118.2451965,-106.1660327,0,-127.18405,,,,
168.2879999,657,91.02913759,106.7240038,-191.4227579,0,-248.7574966,70.08280231,92.98105436,119.1920719,57.74217566,58.69022651,37.56949353,-916.4637654,62.18399249,69.22740635,0,42.20664369,,,,
168.2959999,657,-93.80606036,-87.97544582,-117.9450322,0,391.2672889,-122.0595792,-101.5247152,-78.50701313,-5.794067644,-7.477406906,-7.873138081,-1026.141293,-10.5933954,1.690042339,0,-11.78289355,,,,
168.3039999,657,105.9470274,125.7238376,-208.2210673,0,-177.5589292,85.98232523,106.456237,136.0945303,-34.46988302,-34.24657016,-53.48778615,-746.5830149,-49.49089555,-30.56983788,0,-50.24053315,,,,
168.3119999,657,2.492185952,8.249157365,-106.3075126,0,125.4476978,-19.44062425,-1.548179056,17.68829352,118.4862429,119.7731295,103.6304913,-1051.143778,106.538751,123.3200326,0,113.1639299,,,,
168.3199999,657,-73.74287976,-66.18444748,-182.4322151,0,224.5997709,-103.5531813,-81.33890557,-55.48768489,-116.9042313,-129.841048,-120.3842856,-802.4190272,-129.2876606,-116.8199743,0,-123.5334597,,,,
168.3279999,657,101.8665869,117.455974,-172.7431606,0,-240.5431067,76.55080005,103.6300363,127.3986711,69.75784746,66.0326221,48.20454694,-861.9176034,63.54495497,76.14404542,0,59.47494377,,,,
168.3359999,657,-89.52643735,-88.82458966,-95.68725561,0,400.7281196,-123.0733624,-96.09377766,-80.11049313,-5.996842579,3.310057702,-4.092440412,-969.0204803,-17.45453613,-3.885735912,0,-6.077928316,,,,
168.3439999,657,79.64253368,91.53979935,-196.8536377,0,-179.1834999,44.69431877,81.13289666,99.81697449,-48.65497452,-50.69403939,-64.75670607,-687.0425399,-59.87824429,-55.42202612,0,-64.19957527,,,,
