Time:125Hz,Epoch,FP1,FP2,C3,C4,P7,P8,O1,O2,F7,F8,F3,F4,T7,T8,P3,P4,,,,
21.88799998,85,0,-189.8684196,0,-23.71407326,0,38.68658518,111.9609735,-46.29956085,399.5142698,-843.3703616,-56.48321744,0,0,-375.6836391,53.95849576,-86.35182175,,,,
21.89599998,85,0,389.6343868,0,125.2447222,0,-105.0850823,-171.6624731,62.20777016,-287.9004561,-509.0783178,26.51389994,0,0,97.94226691,-32.67947255,32.5266985,,,,
21.90399998,85,0,-309.3494577,0,-105.0127569,0,-5.354213009,95.58267385,-76.3036142,-8.672219228,-641.0172398,4.578708523,0,0,6.014203235,-46.76751832,-20.82668094,,,,
21.91199998,85,0,195.3394373,0,57.35043681,0,-74.62115005,-87.67649732,33.95912165,3.961956513,-818.1593465,-67.87407844,0,0,-296.2015728,60.5564865,-87.12273778,,,,
21.91999998,85,0,60.72875508,0,-26.83884216,0,-105.8795124,-97.13005821,-10.26946875,-401.8163007,-434.8000712,52.19948852,0,0,303.1012558,-103.3673651,39.55903149,,,,
21.92799998,85,0,-207.5586939,0,-80.39250216,0,5.574756828,73.40413226,-57.63555418,350.9778695,-845.9458017,-71.8934023,0,0,-355.1756714,50.56713406,-115.2228311,,,,
21.93599998,85,0,389.5687174,0,85.95890555,0,-107.181125,-207.1200377,48.49233042,-325.9105755,-518.2108882,9.507435428,0,0,106.4172313,-32.61661826,5.937268589,,,,
21.94399998,85,0,-338.6477084,0,-165.2465722,0,-74.44947352,42.09229819,-94.6332826,-35.09292813,-645.2795389,-8.749488564,0,0,27.79657319,-50.57989512,-43.36609596,,,,
21.95199998,85,0,155.9261889,0,-9.426017621,0,-160.1670551,-139.1194377,12.4271495,-66.20587207,-831.5502696,-81.96106541,0,0,-288.1612333,59.34086766,-111.834575,,,,
21.95999998,85,0,45.89893875,0,-75.40223681,0,-150.7145217,-146.4752951,-29.73024879,-484.9974755,-454.0649995,38.26818329,0,0,313.5093722,-107.0470983,17.87612387,,,,
21.96799998,85,0,-261.332133,0,-156.1137013,0,-83.86881932,9.447332006,-82.93278334,235.8340688,-900.1723357,-100.4248476,0,0,-345.8387209,38.00560596,-147.6866024,,,,
21.97599998,85,0,365.9426046,0,22.10213491,0,-176.3517254,-269.4079909,30.76514759,-414.6876178,-566.4679231,-21.56791344,0,0,104.841938,-49.54244862,-30.9790197,,,,
21.98399998,85,0,-319.2768234,0,-181.2138978,0,-38.88420389,12.19978244,-105.6511263,60.89880868,-612.6833735,-14.9284383,0,0,31.75600579,-67.1019815,-58.84220863,,,,
21.99199998,85,0,184.7888353,0,3.467307943,0,-70.88399471,-144.4478397,2.243653417,112.1526409,-777.637737,-85.2489955,0,0,-297.6591079,47.58158449,-120.2953844,,,,
21.99999998,85,0,106.8247938,0,-28.63615751,0,-30.58625385,-134.7729917,-31.55387374,-320.5565002,-376.9005047,43.04453819,0,0,307.8791225,-116.2127435,19.78186189,,,,
22.00799998,85,0,-229.7458952,0,-99.30401886,0,37.57466902,50.31824079,-79.11262992,432.5496978,-792.8335195,-78.66447536,0,0,-358.7089545,37.73253649,-130.739369,,,,
22.01599998,86,0,409.8720621,0,90.57410935,0,-46.74583143,-206.0092839,49.75963931,-286.8480671,-496.3314466,0.898496505,0,0,90.609494,-37.4364195,-9.622565019,,,,
22.02399998,86,0,-235.7244254,0,-94.52364194,0,123.2020179,95.58425548,-75.95818619,114.8598769,-543.3463957,20.63007464,0,0,43.86779886,-43.74272012,-24.64570059,,,,
22.03199998,86,0,267.0204243,0,105.0302622,0,119.1387499,-41.87736601,37.81919056,251.0601964,-655.2787847,-29.51204238,0,0,-296.9547716,85.8182442,-70.44192232,,,,
22.03999998,86,0,201.5389413,0,87.16686242,0,154.1359247,-27.45237574,14.30107829,-158.7997246,-251.4547354,107.6518844,0,0,316.8043624,-71.57727033,83.61912846,,,,
22.04799998,86,0,-355.8557589,0,-48.86758551,0,212.1823933,259.6829202,-73.65054576,960.8087901,-952.3544849,-87.05103214,0,0,-731.580918,175.5502123,-159.0122575,,,,
22.05599998,86,0,316.9740813,0,157.6210281,0,102.4598293,-12.50188824,62.55213148,553.7851952,-865.0328339,-87.48482073,0,0,-677.6217017,195.0714262,-131.4810342,,,,
22.06399998,86,0,101.6106045,0,63.25928419,0,123.9706119,20.05200474,2.924638543,6.711192497,-342.4431105,79.04561578,0,0,133.1976257,-29.57958725,51.21700267,,,,
22.07199998,86,0,131.5369714,0,67.92223873,0,54.91698707,1.237040034,12.55477795,-12.43392307,-414.4682874,48.84050596,0,0,17.7529391,3.059278114,25.83104092,,,,
22.07999998,86,0,41.31470756,0,42.62872216,0,85.38292858,49.41912438,-8.617060454,94.83375119,-510.7154222,21.45706567,0,0,-90.70409824,22.35966138,-7.493602129,,,,
22.08799998,86,0,134.5839324,0,74.47038905,0,63.99336061,4.751481562,10.33985911,134.699659,-492.3362915,27.07869753,0,0,-91.5553085,28.63409036,1.397870416,,,,
22.09599998,86,0,114.1188222,0,42.53977331,0,-19.82484871,-39.6363506,7.071866174,-176.2778567,-367.4729432,61.44054192,0,0,132.5105472,-29.30933938,48.10949202,,,,
22.10399998,86,0,-104.7849382,0,-22.07293085,0,18.4906839,66.93940229,-32.50761761,177.8191467,-636.4351281,-19.57237349,0,0,-228.6437025,47.81236195,-52.28341056,,,,
22.11199998,86,0,348.9372612,0,122.3133852,0,-1.415569344,-115.9512494,47.58848433,-158.9760312,-386.1330067,42.7082874,0,0,72.32217831,-10.59317294,30.49225379,,,,
22.11999998,86,0,-147.2879675,0,-25.94075771,0,84.08631657,82.56085525,-50.94074465,130.4447459,-439.9220384,42.97609827,0,0,8.732099563,-21.79132055,6.460740633,,,,
22.12799998,86,0,170.5198998,0,77.53203362,0,0.920884435,-34.81708354,21.24431778,144.2510935,-581.9412076,-13.49770343,0,0,-246.2707667,66.20459652,-44.87226457,,,,
22.13599998,86,0,139.6474738,0,44.49200527,0,-18.94038376,-68.37990084,3.953260894,-328.7331301,-279.2673487,78.07031555,0,0,257.3321901,-67.47589783,66.36555934,,,,
22.14399998,86,0,-177.6187162,0,-35.34963959,0,76.23557032,105.0201873,-48.43720166,324.9345618,-674.0605138,-33.74622308,0,0,-304.841191,52.66783491,-73.75083527,,,,
22.15199998,86,0,441.5205367,0,159.2228658,0,42.84166614,-129.4814697,65.99655344,-150.9591251,-352.2738741,40.72386016,0,0,52.64317379,-9.803229771,33.36567486,,,,
22.15999998,86,0,-191.4168473,0,-24.93263459,0,142.9453075,124.1683093,-62.15450672,139.2479786,-342.5968238,55.04180165,0,0,27.46597365,-31.4109796,27.96161123,,,,
22.16799998,86,0,151.5734447,0,77.53736498,0,-24.99705522,-35.54847843,24.02708373,177.5476523,-580.7745584,-26.63430824,0,0,-313.0709081,85.0685509,-42.82238983,,,,
22.17599998,86,0,90.3698064,0,-1.522041068,0,-119.9009333,-105.2565819,-2.637407309,-496.1936268,-289.3225705,66.37810942,0,0,291.41716,-80.4481123,69.07584738,,,,
22.18399998,86,0,-257.4657716,0,-103.5937552,0,-35.53537646,69.86097934,-63.83414579,159.8174025,-724.4736594,-61.74514929,0,0,-325.5218848,47.07213422,-98.92966914,,,,
22.19199998,86,0,415.1052187,0,105.2256425,0,-74.62771045,-187.0774147,62.74677146,-206.1377506,-383.7203151,25.88119314,0,0,57.45686968,-18.37885689,14.09597939,,,,
22.19999998,86,0,-259.2249809,0,-102.4753465,0,34.49152083,73.88722751,-79.24980166,85.96224354,-393.2645574,42.37908605,0,0,46.62916946,-50.70769058,-0.365766926,,,,
22.20799998,86,0,136.441331,0,25.86896744,0,-70.62656097,-84.5149013,10.62220171,62.15348793,-633.4591689,-50.08733369,0,0,-332.8000152,70.35975022,-87.00249576,,,,
22.21599998,86,0,142.38854,0,11.31369243,0,-35.26467115,-108.5877539,-9.823387148,-389.2074315,-233.8880849,73.97992263,0,0,294.9123233,-94.27686197,54.13636411,,,,
22.22399998,86,0,-233.9494089,0,-73.49825153,0,51.08218791,91.59104834,-71.53454033,368.4024933,-639.5415669,-43.40620016,0,0,-347.2937822,49.52342323,-97.69765719,,,,
22.23199998,86,0,390.4774472,0,105.7027985,0,-89.72446996,-200.5910164,56.86479822,-290.8169633,-350.7328885,21.74115727,0,0,43.26728014,-16.04981592,10.15704651,,,,
22.23999998,86,0,-283.7788292,0,-106.6882634,0,26.19017944,61.98555184,-84.82391412,-9.114433477,-406.6339884,27.91332655,0,0,47.23620074,-58.8711646,-7.817322045,,,,
22.24799998,86,0,117.8898672,0,22.8060731,0,-86.43945749,-92.2796907,12.53267854,108.1852398,-650.0224766,-64.78300993,0,0,-343.1569143,62.38124093,-95.64194457,,,,
22.25599998,86,0,89.18677914,0,-27.58160254,0,-136.9802097,-148.5183469,-7.390179335,-444.5561406,-253.7855946,53.30958197,0,0,305.009673,-108.1065046,39.02981971,,,,
22.26399998,86,0,-282.0445878,0,-119.930658,0,-35.7945636,47.38488038,-75.22773588,289.9418173,-683.7177985,-69.85145336,0,0,-343.2332094,27.85231692,-124.7919286,,,,
22.27199998,87,0,376.1932009,0,74.44361426,0,-142.3536903,-241.6334007,52.03696935,-305.7957301,-378.0095007,-2.535611092,0,0,36.70789899,-39.47826147,-19.61859259,,,,
22.27999998,87,0,-301.6207716,0,-140.1602544,0,-26.8756627,16.25261098,-94.44743266,-15.28342985,-413.0441884,8.029268053,0,0,46.44790563,-81.85025778,-37.93172881,,,,
22.28799998,87,0,160.5417604,0,44.04944369,0,4.743664448,-92.47665651,14.11064639,174.3814378,-626.3627052,-63.49967863,0,0,-360.0615409,50.36822398,-112.1773585,,,,
22.29599998,87,0,204.2390821,0,66.49624769,0,102.9335421,-89.93967124,15.64782146,-253.3939146,-139.1959648,93.39120614,0,0,295.2952492,-103.0572082,65.13639054,,,,
22.30399998,87,0,-202.6304985,0,-26.19987424,0,174.9772932,126.69537,-43.08229966,496.6934353,-543.2879771,-16.43240042,0,0,-343.823824,49.37073098,-73.7086721,,,,
22.31199998,87,0,478.2189964,0,187.1015828,0,75.21876331,-142.4300633,102.4974294,-130.6056401,-261.066488,58.78111128,0,0,44.22702185,-2.506274,41.62221458,,,,
22.31999998,87,0,-122.4484954,0,37.1638968,0,307.1226521,164.4106664,-27.29277205,295.5361019,-212.4423093,101.8298736,0,0,75.12776623,-32.39039111,53.28952909,,,,
22.32799998,87,0,286.2148283,0,201.6219726,0,246.5045159,50.56681187,71.14443377,484.3940766,-397.3856376,31.84119361,0,0,-343.2295073,113.3301301,-7.732449558,,,,
22.33599998,87,0,263.7348089,0,167.2837012,0,170.688332,-3.576856706,49.93452664,-160.4650485,-6.274175389,155.6956262,0,0,310.4622131,-49.41846143,145.9658621,,,,
22.34399998,87,0,-133.2343293,0,81.54508397,0,267.0467037,209.4378308,-20.76896624,575.6657368,-433.3464274,32.37624855,0,0,-340.4413638,83.78921924,-13.96263083,,,,
22.35199998,87,0,497.7027987,0,255.3377371,0,73.04985136,-90.56539837,116.337047,-80.40737868,-150.7302694,95.96636421,0,0,28.38461258,27.73700002,94.68788782,,,,
22.35999998,87,0,-176.2577813,0,24.80536286,0,153.039868,155.9154395,-32.95519689,177.330163,-192.5224559,104.5638646,0,0,74.75344828,-21.7145224,77.59886275,,,,
22.36799998,87,0,232.2202551,0,168.3973174,0,110.4959478,31.40242842,61.44781709,292.9108023,-449.0398326,11.71604644,0,0,-352.013018,105.4076082,-16.21136166,,,,
22.37599998,87,0,219.9601706,0,120.1219197,0,35.72186897,-37.89662712,46.21316026,-348.8117981,-49.5611213,139.8364166,0,0,305.0805386,-60.26019316,134.7614305,,,,
22.38399998,87,0,-149.9364578,0,46.02553645,0,205.5322252,190.8253077,-27.41276004,556.1060514,-433.1952359,29.19627578,0,0,-341.9218057,72.60583033,-22.79593574,,,,
22.39199998,87,0,530.9548031,0,265.9890151,0,124.9382795,-73.11317464,112.8244875,20.29624957,-102.0549188,105.5700232,0,0,7.268788852,24.95897345,93.25600291,,,,
22.39999998,87,0,-185.378151,0,16.1719484,0,139.098409,158.8763623,-37.89667576,155.0452661,-159.5870401,112.2689031,0,0,60.93633337,-23.83989701,82.79207216,,,,
22.40799998,87,0,185.0344677,0,130.8219059,0,34.61890836,19.71296904,56.59341124,209.8375387,-458.3538044,5.111436337,0,0,-366.7891339,103.2513406,-21.87192817,,,,
22.41599998,87,0,210.359221,0,95.88332172,0,-3.836415777,-49.41798145,45.93072497,-418.7690445,-48.09866601,135.0667334,0,0,298.3017373,-59.77607861,127.466316,,,,
22.42399998,87,0,-188.8473212,0,1.586197766,0,138.8061626,164.7534157,-32.23043621,450.457239,-470.8206256,21.85866914,0,0,-338.2512421,64.78318924,-33.05123858,,,,
22.43199998,87,0,466.3555849,0,197.8489409,0,18.24833732,-123.1253668,107.909533,-111.3278594,-188.0469838,84.57760585,0,0,6.782603246,10.85571717,70.23362174,,,,
22.43999998,87,0,-230.8929941,0,-46.69599845,0,55.09082928,100.6183968,-45.13573322,46.17942731,-210.8415554,91.65566393,0,0,68.23450297,-44.74077731,55.94403518,,,,
22.44799998,87,0,168.8348567,0,90.44863361,0,4.822998773,-24.90934112,51.59910139,198.1888706,-494.6326972,-8.05594936,0,0,-368.5450483,81.39382312,-49.89608769,,,,
22.45599998,87,0,230.9539109,0,91.38581851,0,27.34443584,-78.71478648,44.16108012,-309.2546941,-33.8246531,139.771689,0,0,296.4998072,-74.26448537,113.8207889,,,,
22.46399998,87,0,-214.5718319,0,-19.52200904,0,117.5434503,135.3928768,-44.06427906,515.1004654,-418.8172905,24.76431543,0,0,-344.5256434,52.56361888,-40.78950725,,,,
22.47199998,87,0,440.2234003,0,163.6913483,0,-39.35093402,-156.869918,100.5700014,-208.3974416,-202.5334166,68.16751246,0,0,-4.310908275,0.387375265,43.25446393,,,,
22.47999998,87,0,-209.3249008,0,-41.28495114,0,91.36645922,93.24957095,-48.04773683,64.38672347,-200.268011,95.7113764,0,0,68.74492673,-51.79204923,39.1717597,,,,
22.48799998,87,0,135.1266851,0,81.30284336,0,-3.002163899,-28.14988736,41.55606025,295.5882776,-455.0735458,1.434136687,0,0,-383.9265318,78.34692493,-54.65409845,,,,
22.49599998,87,0,155.9857424,0,30.34425275,0,-101.2517491,-126.9439691,29.20529303,-490.3197658,-91.22148273,112.8625642,0,0,293.9934368,-83.90595524,82.05506231,,,,
22.50399998,87,0,-258.904606,0,-67.00553438,0,45.37093546,88.11226627,-58.62516247,326.6385046,-496.3869154,-5.645488543,0,0,-334.6305975,36.33471341,-85.16835446,,,,
22.51199998,87,0,438.2202461,0,161.6188224,0,-29.32853525,-176.6661142,98.15004883,-186.2309843,-196.5897422,62.79411117,0,0,-7.430971553,-6.762934939,20.69310311,,,,
22.51999998,87,0,-223.2301784,0,-49.38837011,0,76.83506375,68.70865799,-57.00630492,65.05284984,-174.5594431,91.76390713,0,0,70.74562176,-58.24370944,27.54656035,,,,
22.52799998,88,0,103.7404332,0,72.56982819,0,-13.73762055,-47.26764671,25.57247091,297.5523376,-458.1780215,-9.217981465,0,0,-395.4528154,70.84642853,-70.58494202,,,,
22.53599998,88,0,144.194809,0,34.20508676,0,-106.2163884,-137.8545032,20.94801598,-471.8065941,-89.65932916,111.189937,0,0,289.8750013,-85.75174961,75.20256657,,,,
22.54399998,88,0,-289.3046823,0,-89.43486851,0,-7.73006341,68.29093177,-75.1129344,284.3043121,-505.0633055,-13.64469799,0,0,-335.0233836,29.76265012,-95.75746285,,,,
22.55199998,88,0,410.7056584,0,132.3253656,0,-91.6976454,-206.8068567,84.22864287,-233.7125654,-220.8100464,45.54581389,0,0,-15.94147977,-15.667238,-0.247211917,,,,
22.55999998,88,0,-241.5934913,0,-81.04149099,0,28.0670146,34.89800309,-69.66840189,-18.00159923,-192.7730925,72.47612126,0,0,81.30147714,-71.26975762,3.366865528,,,,
22.56799998,88,0,89.01590256,0,43.54593994,0,-36.29602391,-70.95275422,15.82783315,247.1324416,-466.6419757,-36.37563767,0,0,-400.3063416,51.14916157,-104.244773,,,,
22.57599998,88,0,150.1441347,0,25.54719237,0,-97.77008993,-155.5152731,24.56389784,-453.2756989,-64.13761897,97.80485604,0,0,290.9853031,-99.44072126,54.29675394,,,,
22.58399998,88,0,-331.4042135,0,-117.7829853,0,-27.1183137,45.41051026,-83.12075905,246.3202429,-482.4097241,-27.57344905,0,0,-326.8466244,17.38421051,-113.8806773,,,,
22.59199998,88,0,354.3899386,0,93.8297626,0,-145.9149647,-236.9172382,80.31309059,-284.6351601,-245.6129258,14.64772941,0,0,-23.52871449,-30.32145761,-29.70336817,,,,
22.59999998,88,0,-264.4475933,0,-105.698903,0,4.339699038,9.068109071,-68.11244958,-41.53540458,-211.6869908,52.38395766,0,0,91.33452485,-81.11573018,-15.73450296,,,,
22.60799998,88,0,54.63818521,0,10.74830838,0,-49.96161666,-91.40918102,12.79749289,170.6693982,-466.0499434,-53.89139857,0,0,-399.5578524,47.60693106,-120.2365192,,,,
22.61599998,88,0,175.4718159,0,31.47313331,0,-33.40248295,-152.4249879,43.48819256,-477.0103833,-55.7515254,88.71986762,0,0,303.3116673,-95.45584854,48.61422517,,,,
22.62399998,88,0,-224.6284308,0,-26.7104147,0,219.4195665,116.0806519,-53.50418924,475.210359,-407.6622256,5.56915721,0,0,-311.8059363,37.45544196,-86.21366096,,,,
22.63199998,88,0,468.2178714,0,216.8293862,0,110.976946,-133.2443219,120.1009681,-25.40032615,-103.6614299,73.30303968,0,0,-27.77125292,7.939294028,28.92848436,,,,
22.63999998,88,0,-127.9966865,0,42.6190508,0,256.8836837,133.2682058,-20.95932215,218.755384,-38.89336825,126.6432941,0,0,111.5055055,-37.1987381,61.73912171,,,,
22.64799998,88,0,196.7881549,0,193.2725929,0,232.7942154,62.6923814,42.9792789,607.6897036,-250.1241199,39.42892559,0,0,-405.3670991,93.56911389,-31.6157181,,,,
22.65599998,88,0,250.8737652,0,163.4238208,0,71.28525375,-36.13572044,61.92696298,-274.4517305,134.5324053,158.9351655,0,0,283.9954631,-58.1465181,133.0456012,,,,
22.66399998,88,0,-208.0989659,0,39.57991794,0,198.2766707,191.4587669,-47.95795199,462.3626038,-301.0373708,40.08593119,0,0,-318.5214581,57.88212042,-29.70423882,,,,
22.67199998,88,0,459.1880262,0,248.5085257,0,50.36327229,-90.46269998,114.5047593,-29.78444998,-35.0696991,90.18144555,0,0,-46.17718495,19.12116081,61.10004767,,,,
22.67999998,88,0,-188.9512421,0,6.208076396,0,82.48017971,121.5598424,-31.27945907,-21.82943806,-60.51875981,111.539788,0,0,113.4536246,-37.32785674,70.71603612,,,,
22.68799998,88,0,141.1006089,0,141.1850277,0,93.21268963,38.44087981,33.46145115,370.061648,-336.4170687,9.463360368,0,0,-405.189917,88.39306031,-46.64510183,,,,
22.69599998,88,0,531.1349865,0,224.2069642,0,-54.20538718,-195.0854949,131.531504,-739.3322744,360.616902,214.388445,0,0,632.5816991,-129.9565821,213.6597637,,,,
22.70399998,88,0,-202.9294124,0,-7.353668848,0,55.22606571,103.8263363,-34.69040968,-26.29299825,-73.52492503,105.3196536,0,0,100.2840304,-38.04486129,55.44628104,,,,
22.71199998,88,0,38.23208133,0,92.82335738,0,51.66221621,45.7567934,15.83521451,380.5911221,-392.20758,-17.99436959,0,0,-477.3076568,92.53367293,-79.50804938,,,,
22.71999998,88,0,146.8239928,0,94.7581179,0,-21.60574667,-51.54866604,40.89134213,-280.2894722,-10.21274224,93.81399993,0,0,151.2615583,-44.82581892,68.23290887,,,,
22.72799998,88,0,-54.85917291,0,32.41245525,0,-2.049258846,24.84541594,-5.636945585,-30.59415051,-170.8509349,52.34336877,0,0,-50.77016027,-5.157350494,9.629578206,,,,
22.73599998,88,0,-38.81944969,0,32.36106426,0,-19.59606832,14.45265951,0.120655698,138.0874853,-287.4228873,10.64802182,0,0,-237.0015206,33.99089568,-42.12250442,,,,
22.74399998,88,0,158.6289214,0,69.06553895,0,-90.64469208,-94.67563244,49.02487988,-191.9854873,-91.32597619,59.41971127,0,0,66.42589974,-35.09366604,21.93642678,,,,
22.75199998,88,0,-154.6948404,0,-32.13746604,0,-26.30067824,33.88286587,-25.58326552,76.64493153,-198.2493712,26.69592671,0,0,-95.07191337,-20.04597661,-31.77228625,,,,
22.75999998,88,0,59.54222265,0,40.05252879,0,-30.23495486,-36.24800258,13.50651485,111.7293344,-264.1937031,-8.349497782,0,0,-223.9395211,12.06576281,-59.2938554,,,,
22.76799998,88,0,102.88826,0,36.44874528,0,-61.77557921,-89.33915281,17.64818866,-218.2583112,-22.19907688,71.78518524,0,0,155.5219581,-68.68735249,35.92328074,,,,
22.77599998,88,0,-255.0071935,0,-68.24014401,0,-10.3785146,55.14390956,-65.69690189,233.7445928,-298.3696274,-13.78208157,0,0,-272.9220044,11.2234086,-78.79244399,,,,
22.78399998,89,0,266.1392678,0,88.66038001,0,-113.3647837,-162.5707044,56.17892766,-235.0423966,-127.6341883,12.23465468,0,0,-44.32745525,-31.44553464,-23.81528756,,,,
22.79199998,89,0,-208.567967,0,-68.85552485,0,-22.09437099,19.81342087,-52.22706699,-38.0824318,-104.6534433,40.7439487,0,0,45.02256659,-65.86547445,-17.18682895,,,,
22.79999998,89,0,30.58083607,0,35.25482054,0,2.368162075,-33.72047897,-6.088311408,299.9274845,-285.1921534,-30.94142156,0,0,-354.1830613,38.43697242,-96.94232437,,,,
22.80799998,89,0,133.4398017,0,39.99132182,0,-84.42959729,-130.4036285,17.97898596,-359.1083341,53.71524086,78.23210622,0,0,219.9779864,-84.97280865,41.09986692,,,,
22.81599998,89,0,-369.2013383,0,-132.3663436,0,-81.76585267,48.73309786,-91.0686972,126.7288165,-360.181881,-45.31511223,0,0,-280.273155,5.62852657,-111.3989678,,,,
22.82399998,89,0,284.9170484,0,65.964079,0,-169.0849921,-212.3906002,52.72566525,-299.8550017,-154.1089411,-19.26033165,0,0,-65.54350166,-30.48109342,-57.61300285,,,,
22.83199998,89,0,-246.8087476,0,-101.0161547,0,-29.63590742,0.270690924,-70.81359224,-88.95354461,-56.93010017,31.42252373,0,0,97.94527685,-87.44962149,-23.50188376,,,,
22.83999998,89,0,-3.453205017,0,5.267623135,0,-30.40677985,-58.04252152,-26.13578215,299.6790828,-315.1211376,-69.94423577,0,0,-398.7312085,36.06823642,-124.9683419,,,,
22.84799998,89,0,148.4683181,0,34.59135486,0,-70.42574134,-156.8063943,-3.814443455,-382.3789387,93.78267911,61.25986004,0,0,236.583594,-104.2797458,27.58320852,,,,
22.85599998,89,0,-367.4797483,0,-119.295817,0,-10.80464581,62.65656173,-111.3372873,268.3549468,-307.887507,-44.07384881,0,0,-298.0885012,-1.641008512,-112.6331565,,,,
22.86399998,89,0,313.7299669,0,88.68977891,0,-113.8285419,-200.9647808,38.71043325,-187.0119743,-107.2977246,-12.28845417,0,0,-91.94312884,-29.29308057,-49.92474374,,,,
22.87199998,89,0,-215.4778423,0,-65.14080396,0,73.89391204,36.756203,-80.49875247,-9.55968846,19.64055963,46.82405856,0,0,90.21550607,-91.26154348,-12.30780659,,,,
22.87999998,89,0,43.25909403,0,56.84819557,0,91.98073853,4.244770224,-13.43534146,400.3563512,-250.6613756,-47.48334298,0,0,-416.7496549,53.66872631,-102.5209099,,,,
22.88799998,89,0,233.7589489,0,110.7682034,0,91.06529331,-72.53309772,25.16855625,-270.502603,194.0974032,103.2307234,0,0,248.1644075,-72.77657857,70.79031249,,,,
22.89599998,89,0,-225.2741591,0,26.42851453,0,292.6404844,201.9121102,-63.01680109,567.4925853,-108.5613222,23.87019589,0,0,-293.1972248,43.3177983,-42.78192398,,,,
22.90399998,89,0,450.0951258,0,247.3536128,0,167.9828806,-46.70795362,88.62240998,118.4162215,104.0695392,66.93971864,0,0,-93.65314948,27.63406422,44.55954354,,,,
22.91199998,89,0,-142.8637587,0,47.86423222,0,205.5264832,163.0354932,-44.79397665,131.9766737,174.9238319,111.2956322,0,0,90.95604946,-42.17214404,76.34893915,,,,
22.91999998,89,0,87.91633953,0,142.0488927,0,156.2533186,102.2513925,10.88591567,449.7576803,-129.5462161,-6.790249783,0,0,-421.3918271,90.49250286,-32.66274991,,,,
22.92799998,89,0,232.9733958,0,142.0180992,0,47.58231169,-21.88263737,30.56558657,-305.242345,257.5821947,120.0849181,0,0,236.5537301,-51.30310697,119.0535286,,,,
22.93599998,89,0,-283.9798044,0,-5.079410196,0,121.8754054,204.3879912,-70.251295,411.4276315,-122.1177013,8.54258881,0,0,-305.7185225,46.13548508,-25.41392997,,,,
22.94399998,89,0,378.6226423,0,188.4218506,0,-30.63740156,-78.40787942,71.16497293,-101.5836106,47.13851638,31.37256302,0,0,-102.1798747,18.72231941,32.87367587,,,,
22.95199998,89,0,-201.7839135,0,-18.0294298,0,25.5132012,112.0494895,-60.92170034,-89.07339276,107.7881832,75.53292423,0,0,85.43654774,-59.65554075,50.02565559,,,,
22.95999998,89,0,65.84560429,0,99.27661557,0,57.93558377,62.52884233,0.909002667,351.7989389,-162.7292567,-30.94342998,0,0,-431.668118,72.93971632,-55.20678754,,,,
22.96799998,89,0,214.3408462,0,112.9388381,0,-6.258894665,-61.70600382,16.12887738,-304.207152,264.6429656,107.9474542,0,0,216.396024,-66.73437792,101.0381034,,,,
22.97599998,89,0,-347.9663991,0,-60.88101146,0,22.77644476,147.1948114,-82.54622164,261.0674439,-146.8051242,-15.3345877,0,0,-318.1212862,29.99598861,-48.99042378,,,,
22.98399998,89,0,342.775388,0,143.9845457,0,-78.52281575,-130.0724221,60.85265766,-219.4363311,8.151254975,3.345663895,0,0,-110.9087048,5.848582006,10.39103073,,,,
22.99199998,89,0,-240.1240444,0,-60.83595292,0,-11.49113365,61.97791365,-68.63557248,-85.92645686,105.0855202,53.14636328,0,0,77.92492991,-69.41891589,32.9493417,,,,
22.99999998,89,0,-49.32788372,0,-0.719297044,0,-102.1614252,-13.40017318,-7.463442436,162.3054282,-223.8725622,-81.91188312,0,0,-431.0372534,62.82521872,-88.16305599,,,,
23.00799998,89,0,166.1268981,0,34.97087351,0,-101.9774604,-134.4418058,6.969116379,-496.7394663,164.0149786,47.44004329,0,0,225.2805534,-85.57354295,53.33925896,,,,
23.01599998,89,0,-341.4698543,0,-89.14742111,0,33.12561529,106.9322617,-85.00373807,350.1213027,-131.1995638,-40.00533211,0,0,-309.0210401,16.63032971,-76.26015488,,,,
23.02399998,89,0,290.7948525,0,90.11427593,0,-151.8265042,-180.1646967,52.9580932,-217.1422334,47.93746998,-22.4819877,0,0,-109.2701736,-2.616801891,-12.39307529,,,,
23.03199998,89,0,-275.5028382,0,-118.0458562,0,-89.58125112,1.404009453,-78.29286718,-239.7008054,70.32939924,8.257198585,0,0,87.10647577,-95.28188507,-7.255467137,,,,
23.03999998,90,0,-32.71465334,0,-13.57120992,0,-73.52724071,-44.27366674,-13.62921524,203.7775237,-211.4415988,-105.8199034,0,0,-428.0004816,39.55073337,-114.9323737,,,,
23.04799998,90,0,310.7872693,0,63.41609127,0,-76.24363929,-223.2334283,5.006221146,-810.9705206,478.0030281,121.8377967,0,0,604.0796522,-190.4697999,134.8020133,,,,
23.05599998,90,0,-348.2489961,0,-134.6198454,0,40.0571552,45.54730779,-128.5973529,-317.2163127,309.2576343,94.25030007,0,0,390.2659894,-179.4899317,65.14596489,,,,
23.06399998,90,0,46.1780525,0,22.53087581,0,-33.68374942,-58.26968316,-4.006767806,101.7151307,-56.52410734,-54.02910922,0,0,-268.6562623,8.234659354,-61.14254255,,,,
23.07199998,90,0,-29.68888887,0,6.728277663,0,-7.304507395,-27.38282331,-22.48370414,116.3875059,21.26551046,-21.55392034,0,0,-184.0486244,-10.97336877,-32.60764407,,,,
23.07999998,90,0,16.46308746,0,10.02404884,0,-62.69311375,-75.83582866,-16.36003505,-47.16694437,104.1297414,-8.602486774,0,0,-79.76586939,-42.20030627,-11.80040915,,,,
23.08799998,90,0,-101.3389976,0,-40.07694435,0,-84.39395739,-46.14013748,-41.01383336,-115.1772559,39.1194621,-31.09100813,0,0,-105.7615649,-49.91132875,-38.07430118,,,,
23.09599998,90,0,-107.5719073,0,-57.00543758,0,-152.7734152,-66.8869367,-34.91796469,-11.0703557,-112.4319051,-79.43184978,0,0,-282.6037268,2.246236434,-86.08932472,,,,
23.10399998,90,0,55.85325678,0,-34.49921996,0,-172.8144353,-167.3667369,-24.49237509,-386.1632142,120.2332154,-8.215105445,0,0,95.73600404,-80.17176629,-9.05387281,,,,
23.11199998,90,0,-234.8718439,0,-88.09348769,0,-2.183345367,16.06576078,-79.17145452,220.1390117,-82.28845158,-64.03387086,0,0,-279.9426273,-9.629974074,-99.08601233,,,,
23.11999998,90,0,211.0507072,0,51.82155927,0,-92.20582319,-168.9597679,9.9085496,-77.66602482,98.8273229,-29.90877273,0,0,-128.7248415,-21.17462619,-34.93642251,,,,
23.12799998,90,0,-221.5706623,0,-111.4735955,0,-98.53281001,-47.51408641,-87.26105661,-134.7449171,136.4589763,-6.279196493,0,0,12.81933557,-86.78698123,-27.15643151,,,,
23.13599998,90,0,-119.9779561,0,-95.10411778,0,-185.3592862,-97.23912936,-45.7863867,62.05012507,-162.9166977,-118.8347992,0,0,-394.9357476,23.36883705,-127.9812238,,,,
23.14399998,90,0,102.4615452,0,-59.50738843,0,-188.5040391,-228.2514283,-35.80158313,-524.9168562,172.1968271,-12.69978077,0,0,163.5384303,-109.325195,-10.64223621,,,,
23.15199998,90,0,-360.0725774,0,-169.3436261,0,-46.75946494,4.304102799,-111.7903155,213.7783222,-104.4844223,-90.73716939,0,0,-301.5765622,-28.15380445,-126.7868751,,,,
23.15999998,90,0,214.7458196,0,-4.687995637,0,-204.7211874,-243.1808348,9.128122136,-173.5592758,59.25539571,-71.80884293,0,0,-139.1522141,-31.43766755,-63.32472085,,,,
23.16799998,90,0,-264.4486997,0,-164.2139696,0,-106.9634924,-68.36227131,-103.8890529,-171.7965023,117.0370661,-27.99366752,0,0,57.57033649,-118.5302932,-46.95299066,,,,
23.17599998,90,0,-85.78788231,0,-80.9860959,0,-86.00317566,-88.21966538,-35.6684567,144.7460596,-162.8299887,-137.4461316,0,0,-427.1847001,20.17293074,-145.1738982,,,,
23.18399998,90,0,189.3878325,0,-1.473625913,0,-15.58856134,-185.9194385,-10.8560596,-380.2160231,295.1152985,11.6988663,0,0,192.7204078,-108.1024481,16.57468106,,,,
23.19199998,90,0,-286.6970895,0,-82.65716753,0,201.8385909,110.5525813,-73.36447653,478.7275955,28.28462106,-42.20975915,0,0,-296.5354278,2.326902103,-76.64413404,,,,
23.19999998,90,0,363.7958703,0,127.9747012,0,86.60539995,-127.2259273,72.16947988,28.76282052,217.9063884,-10.75367716,0,0,-122.3024429,18.33017962,11.88746796,,,,
23.20799998,90,0,-118.1248007,0,-16.56813998,0,207.4651771,82.44268738,-45.09300055,103.541385,345.9462817,59.48536186,0,0,88.1315351,-68.38296808,52.48902121,,,,
23.21599998,90,0,41.10793535,0,63.34659139,0,152.2283109,62.2476054,19.39352879,434.2157741,44.17416676,-51.15263765,0,0,-432.8320323,81.75826341,-41.88523666,,,,
23.22399998,90,0,248.7547165,0,89.1759432,0,60.62516197,-77.62321164,27.74272082,-287.3602333,433.4195916,73.85979488,0,0,204.3526985,-59.07253912,109.0373502,,,,
23.23199998,90,0,-295.6575049,0,-54.13242043,0,147.9812124,178.4455163,-52.94013527,427.5481315,93.60640544,-7.694091332,0,0,-296.8557198,35.17485449,-15.81499937,,,,
23.23999998,90,0,343.3296868,0,122.2625015,0,-23.97846621,-107.0617501,77.70309546,-111.7455664,226.9297352,-0.630726137,0,0,-129.8332467,34.62411477,40.56921695,,,,
23.24799998,90,0,-151.4925819,0,-46.528198,0,96.16805777,78.73250888,-49.20914691,-22.34631719,333.0826026,58.82818255,0,0,88.86155545,-64.95980794,63.0576765,,,,
23.25599998,90,0,0.466966031,0,17.8743236,0,33.04835708,46.01952794,16.33945189,379.0592279,28.13287731,-52.27253818,0,0,-442.0896291,86.39515249,-38.7926676,,,,
23.26399998,90,0,208.0366534,0,31.23729522,0,-73.27001049,-117.1759178,17.45091915,-417.7579263,415.6983663,64.87130672,0,0,206.2923474,-66.62761398,102.3946753,,,,
23.27199998,90,0,-323.4090521,0,-107.158492,0,67.86839665,139.7269414,-68.37869683,286.1795644,71.497089,-25.54622279,0,0,-297.5435698,14.46100825,-34.93585957,,,,
23.27999998,90,0,315.4477756,0,74.04874676,0,-96.79448505,-141.5476733,65.58551368,-138.9408312,200.8954791,-16.76947273,0,0,-142.3997265,12.19247698,24.54141855,,,,
23.28799998,90,0,-214.7156215,0,-113.7843645,0,-40.58592972,32.17995356,-60.26124889,-155.5916645,282.4028833,32.0488811,0,0,93.12916724,-92.69839962,43.0063968,,,,
23.29599998,91,0,-52.11704525,0,-46.5511477,0,-68.71973293,-0.072652475,6.044213038,222.9004772,-30.55919885,-89.29747704,0,0,-438.3168593,59.99295982,-74.06511503,,,,
23.30399998,91,0,172.0890359,0,-28.30947855,0,-152.2531181,-171.782899,5.311030425,-441.9772671,372.4506285,36.97487345,0,0,212.707043,-88.52271576,69.69154132,,,,
23.31199998,91,0,-375.7604026,0,-167.4261178,0,-14.97005473,84.16158607,-80.53762234,241.0866481,17.62505664,-53.10437258,0,0,-284.2075376,-0.828326746,-67.94038252,,,,
23.31999998,91,0,279.289698,0,27.3392881,0,-153.9341288,-193.2040885,56.22382442,-179.157868,173.0031215,-44.57768046,0,0,-136.3653314,7.412376048,-11.24328266,,,,
23.32799998,91,0,-234.5775439,0,-157.3063913,0,-86.56754377,-24.63106787,-73.68417507,-180.7373395,278.7187413,14.70191412,0,0,106.297835,-99.1902933,13.14990468,,,,
23.33599998,91,0,-45.06021493,0,-58.03632193,0,-32.80616602,-28.65429717,-6.865552372,218.5741152,-49.45974607,-100.6376498,0,0,-437.0254261,51.91455277,-98.30020563,,,,
23.34399998,91,0,209.5515767,0,-0.265370589,0,-64.54384235,-168.2950728,-1.834657762,-333.2334166,406.2564892,41.13568458,0,0,207.7517624,-90.93840056,62.09651792,,,,
23.35199998,91,0,-332.8509155,0,-124.0182747,0,76.26385711,111.1289232,-88.33171816,392.3471306,101.3418483,-31.89706143,0,0,-286.1292975,3.625806898,-60.42737962,,,,
23.35999998,91,0,317.34924,0,75.95212025,0,-73.13305891,-158.1166286,48.52079731,-86.70529751,238.7351032,-24.81349036,0,0,-147.3128216,15.03915843,4.542430046,,,,
23.36799998,91,0,-249.3642731,0,-140.9603419,0,-100.1683179,-8.903352726,-83.53660308,-150.6516006,318.4941737,24.95564506,0,0,111.6171504,-95.93525154,30.01904567,,,,
23.37599998,91,0,-87.06885681,0,-70.73217836,0,-101.5568001,-29.67408216,-19.52641507,179.5688815,-48.71417953,-107.2665007,0,0,-425.2643672,55.77063941,-95.84524901,,,,
23.38399998,91,0,193.3066813,0,-14.13203884,0,-118.491754,-182.8241473,-10.40234019,-429.0826614,395.395018,24.4130429,0,0,225.0167048,-91.26644067,59.0891724,,,,
23.39199998,91,0,-373.4447048,0,-156.373369,0,13.95655936,88.74611542,-98.8644946,325.8460791,88.65173958,-48.38636242,0,0,-264.049028,-4.409203949,-68.13996413,,,,
23.39999998,91,0,305.4789402,0,56.33847881,0,-84.45069245,-176.1236496,37.53354093,-72.67869811,224.7307005,-41.80309038,0,0,-139.1778835,7.170423555,-14.5232832,,,,
23.40799998,91,0,-203.8944719,0,-117.0016977,0,-17.20187473,-3.060405343,-88.88516854,-35.81015353,366.2826993,20.84933268,0,0,117.657638,-101.9930051,20.72951837,,,,
23.41599998,91,0,-66.2402682,0,-34.02835013,0,-9.902048765,0.873908152,-23.52364244,356.5021419,44.92587522,-95.29289366,0,0,-436.8673526,58.32956798,-91.69097992,,,,
23.42399998,91,0,189.8076249,0,8.224496785,0,-97.71984276,-165.3362627,-14.55511787,-401.3270472,456.5045452,31.52523483,0,0,218.0119606,-86.65729503,60.91644287,,,,
23.43199998,91,0,-424.6588218,0,-183.6376937,0,-72.83551568,74.05194068,-104.6677439,152.9883626,55.9308849,-69.33237486,0,0,-249.9765757,-5.61464355,-83.64749733,,,,
23.43999998,91,0,266.1758848,0,24.20636332,0,-158.7248763,-193.2510347,42.3472969,-196.9307108,155.0616248,-68.27368591,0,0,-125.2167963,7.151462015,-40.99195679,,,,
23.44799998,91,0,-163.6667222,0,-94.234653,0,34.84655009,13.25686379,-66.23573282,-55.11455692,365.0372208,28.28002558,0,0,151.9202922,-92.93052059,14.60893989,,,,
23.45599998,91,0,10.79401045,0,26.92151428,0,128.9737302,50.17429695,11.41616228,424.5369396,91.85680986,-64.23618224,0,0,-400.6959456,85.79107796,-72.4372118,,,,
23.46399998,91,0,300.7390799,0,101.4095084,0,91.16918819,-97.1621646,30.5899008,-183.6935533,555.9900753,81.68655316,0,0,251.7462807,-46.68687527,104.3589568,,,,
23.47199998,91,0,-305.1050756,0,-65.70165081,0,137.9820722,169.5949232,-59.40231307,420.0836887,219.0975959,3.603689587,0,0,-214.757501,41.91266926,-18.2376265,,,,
23.47999998,91,0,385.6298037,0,154.3056447,0,36.37282354,-84.34405659,84.60117166,25.31155485,324.6340665,7.044910858,0,0,-107.9212195,58.29923353,32.85760547,,,,
23.48799998,91,0,-89.27566976,0,-0.135195619,0,131.8357073,97.14935917,-36.02722165,72.17415489,497.9343467,90.79885538,0,0,166.7361074,-56.0668933,86.76482588,,,,
23.49599998,91,0,-1.313593862,0,46.83706855,0,84.6281428,93.29859576,21.75345681,425.9072259,148.4507717,-32.30813424,0,0,-404.1655721,106.012241,-27.82264881,,,,
23.50399998,91,0,300.0198438,0,102.1150455,0,29.01439749,-79.56701218,38.56640205,-284.7309373,560.2259045,87.53378079,0,0,245.1469126,-39.88373544,121.9399746,,,,
23.51199998,91,0,-286.621422,0,-51.79114623,0,140.7921877,194.1703952,-50.64680207,348.894649,234.9817263,11.35300988,0,0,-216.9604619,44.55326106,2.582942718,,,,
23.51999998,91,0,341.5150727,0,132.8786533,0,-40.53238209,-85.59586399,84.02156938,-2.467658328,340.1224715,4.007452302,0,0,-125.6756587,64.20552136,52.10569996,,,,
23.52799998,91,0,-184.5476608,0,-75.23316805,0,-68.63100348,43.7355557,-44.66511892,-127.4397419,447.80922,55.61824014,0,0,172.8098971,-60.57768182,77.71898644,,,,
23.53599998,91,0,-304.8778488,0,-74.92157712,0,-35.51433009,136.275743,-21.72792301,424.6659525,-61.05787287,-109.450885,0,0,-552.7942097,120.7429391,-104.8456054,,,,
23.54399998,91,0,139.0750512,0,69.58261991,0,-23.83378075,-61.21640045,25.25847425,-43.31862535,365.75358,4.304229772,0,0,20.13965014,-4.444310595,37.29643876,,,,
23.55199998,92,0,-57.71986067,0,18.31208994,0,41.23565625,29.23065595,-20.33928989,75.32993503,351.4766872,14.25433039,0,0,3.197892216,-15.20306573,25.10388924,,,,
23.55999998,92,0,124.1887155,0,75.56515959,0,-9.334962443,-43.56613659,22.8406106,-43.63996414,324.6924283,-2.468193736,0,0,-60.98334257,22.63717285,19.82817716,,,,
23.56799998,92,0,-160.5221562,0,-10.77073453,0,19.77837628,56.68276958,-39.41502701,105.7407312,345.0503183,18.67209965,0,0,-20.87651414,-6.385894846,19.45168899,,,,
23.57599998,92,0,166.3327885,0,94.14954226,0,-32.45587704,-57.28329889,37.07464017,-33.39919948,285.1571597,-15.66624548,0,0,-106.7750796,30.82401172,7.49309761,,,,
23.58399998,92,0,-49.22094719,0,20.78983133,0,7.698327802,14.7785031,-22.07216292,-48.84255244,434.6544258,34.73618742,0,0,96.53572509,-43.39915044,45.25879494,,,,
23.59199998,92,0,-74.73055228,0,31.75192755,0,9.181594912,51.79424765,-7.027363899,312.5620567,234.0289108,-28.91177016,0,0,-247.9550107,54.10272844,-27.76246863,,,,
23.59999998,92,0,211.0210533,0,92.23034763,0,-65.60714153,-100.6174922,24.51900246,-278.9556701,454.2897676,35.17370403,0,0,154.1202261,-27.75707561,64.68279645,,,,
23.60799998,92,0,-299.3595704,0,-55.91694286,0,23.05165958,112.7389592,-61.26083598,135.3569102,246.2922261,-8.562868061,0,0,-106.6140421,4.942091756,-18.91146473,,,,
23.61599998,92,0,239.7943845,0,110.4617389,0,-81.1579897,-105.4903735,59.96423025,-58.51385135,294.9856658,-27.26025848,0,0,-114.1404047,41.86854529,1.294912675,,,,
23.62399998,92,0,-162.5221356,0,-56.09952568,0,-107.0007683,-14.3875968,-40.42901666,-199.6947092,442.077588,28.20669461,0,0,191.9628082,-72.46227392,48.10061233,,,,
23.63199998,92,0,-136.4544423,0,-37.61229538,0,-99.52752001,2.795546211,-7.81504961,157.6999377,76.9392115,-95.5716961,0,0,-320.9060539,63.55211304,-78.53062912,,,,
23.63999998,92,0,226.8014567,0,55.35183483,0,-111.4223637,-170.6209295,24.88901091,-414.3528111,470.6446717,10.00061935,0,0,233.6749043,-59.01058017,51.67675678,,,,
23.64799998,92,0,-364.4935705,0,-107.1424871,0,-1.334894172,90.2562571,-70.51458841,218.6587369,231.2558201,-39.97508586,0,0,-127.7728064,1.590054407,-45.90395439,,,,
23.65599998,92,0,270.256865,0,100.963968,0,-72.77022092,-147.6218241,60.50479064,-55.22866929,273.4245195,-53.58232103,0,0,-115.0324334,40.32644586,-16.55853703,,,,
23.66399998,92,0,-152.0941337,0,-52.12392963,0,-41.26957983,-18.13325089,-53.01077336,-191.7439945,464.0212916,19.19343458,0,0,215.8244301,-84.71558506,38.01516031,,,,
23.67199998,92,0,-99.72464861,0,-1.889993137,0,-8.924427417,25.70738664,-5.562622433,307.2486761,123.8782472,-96.16780919,0,0,-358.2619464,77.06731632,-82.73151327,,,,
23.67999998,92,0,308.5115427,0,134.5976115,0,59.69632821,-116.2447353,41.95920627,-254.6041898,587.4940562,43.69966204,0,0,252.4781265,-45.16749172,83.08282036,,,,
23.68799998,92,0,-277.2526493,0,0.073132469,0,233.2560049,193.5281348,-42.92538988,416.5298743,343.8742788,7.391869217,0,0,-135.1662879,35.83112761,-1.00579429,,,,
23.69599998,92,0,386.1047945,0,222.0591158,0,153.0908024,-36.25789843,101.7626658,163.08151,404.3093193,7.804933049,0,0,-106.4085677,84.66343124,46.77783378,,,,
23.70399998,92,0,-23.8745568,0,84.74474194,0,209.3775134,113.0080005,-6.902479678,55.29034514,629.1722197,96.71961866,0,0,238.5971798,-34.02705448,118.5269176,,,,
23.71199998,92,0,-6.886024612,0,120.3866631,0,162.9764887,144.97101,34.2038883,509.3142901,268.4677495,-20.57530784,0,0,-354.172949,134.5759123,4.219968622,,,,
23.71999998,92,0,346.4043705,0,198.6055943,0,69.85015204,-50.91478753,67.02431845,-227.8998197,657.6198579,88.69244378,0,0,272.7553015,-5.806301589,152.7390696,,,,
23.72799998,92,0,-253.6041003,0,36.93395724,0,199.8879916,233.7048694,-31.28777942,392.1972635,398.5732863,24.79184769,0,0,-130.0386327,55.7798647,40.63726803,,,,
23.73599998,92,0,358.9244643,0,223.6347739,0,42.93769669,-26.36169024,105.116435,117.2644787,461.7926013,14.42984158,0,0,-116.2404588,91.77904917,75.9160416,,,,
23.74399998,92,0,-117.1010184,0,23.94328245,0,-7.365819172,75.66705621,-8.173950186,-169.0187537,580.7950449,72.40807552,0,0,246.669348,-41.20660262,119.5466427,,,,
23.75199998,92,0,-86.39118069,0,39.42629873,0,-28.3107172,90.45150552,31.30432729,198.8182085,138.9544668,-74.89404924,0,0,-343.7320338,114.5704537,-29.45357812,,,,
23.75999998,92,0,297.5176964,0,128.4866738,0,-61.94503576,-105.2177224,62.94919591,-390.4279613,563.6522697,45.99738645,0,0,281.591537,-30.8968916,118.9194104,,,,
23.76799998,92,0,-315.0934039,0,-30.35321307,0,93.22574853,181.1531921,-41.16849638,309.8481069,339.2700643,-7.664771446,0,0,-120.8573434,33.99260497,9.839464034,,,,
23.77599998,92,0,343.695007,0,190.8910055,0,16.58899539,-64.1686585,98.27935426,46.87168992,410.6874212,-21.29511091,0,0,-115.874712,75.66638726,41.91755914,,,,
23.78399998,92,0,-59.51794983,0,57.78328024,0,100.572383,79.46211979,-12.59544932,-12.65890457,615.8077154,69.02968844,0,0,243.9191664,-53.25731365,111.3496557,,,,
23.79199998,92,0,-48.58126481,0,89.51299528,0,101.8321671,125.425692,22.1920676,496.2570366,268.7287297,-53.88117146,0,0,-368.2893935,111.6276893,-12.46050259,,,,
23.79999998,92,0,295.0118813,0,138.6442033,0,-33.31501187,-91.25482271,57.53419874,-292.2087545,638.7400092,53.9835483,0,0,261.3551232,-27.55963432,136.876187,,,,
23.80799998,93,0,-344.984838,0,-60.17501276,0,56.22348799,177.2207341,-47.35117417,232.8726562,309.1048216,-8.922841112,0,0,-117.0923435,36.11632615,18.17358159,,,,
23.81599998,93,0,293.3448358,0,128.7144204,0,-79.96070226,-84.96634059,91.32320529,-88.2522139,370.038887,-31.16493215,0,0,-114.5956224,76.1229132,37.46677317,,,,
23.82399998,93,0,-125.1805413,0,-46.91275712,0,-69.94549719,19.39617457,-18.38420152,-248.3844965,544.3139768,40.07176924,0,0,262.041437,-63.39427311,89.05630803,,,,
23.83199998,93,0,-103.7212013,0,-13.68129106,0,-22.05516337,68.24497252,18.15308233,313.1238656,165.3735712,-88.38557248,0,0,-353.1566062,96.97253524,-51.01763322,,,,
23.83999998,93,0,274.1698931,0,71.76725392,0,-94.33117242,-130.6752444,57.74701294,-335.8581604,608.9636742,32.57263733,0,0,269.1977907,-39.00180757,104.8108491,,,,
23.84799998,93,0,-776.4815902,0,-242.0337996,0,43.11091848,303.1451428,-125.7074875,567.1848709,127.546675,-62.14828925,0,0,-323.020365,54.65596907,-70.06073921,,,,
23.85599998,93,0,-371.5229278,0,-91.04501323,0,0.896947011,182.2673307,-18.26532537,705.7359419,-69.62758281,-148.4674731,0,0,-704.8580448,181.500344,-135.5681378,,,,
23.86399998,93,0,99.20368509,0,12.33074798,0,-81.93093285,-68.44172617,27.51820634,-246.1329057,516.8653765,13.45383964,0,0,168.4134038,-24.41643878,72.20102799,,,,
23.87199998,93,0,56.40073382,0,-3.029519417,0,-61.86380489,-48.87482183,21.16820425,-138.4134955,407.5500615,-20.12302059,0,0,33.09097283,5.227686428,30.71260317,,,,
23.87999998,93,0,-65.95679213,0,-39.37384473,0,-24.09906579,0.545825097,-9.152157117,44.74137776,407.2336735,-19.2286252,0,0,-11.08453228,4.268441957,20.33035701,,,,
23.88799998,93,0,-22.54268375,0,-26.67017338,0,-28.82233734,-21.38275262,-0.851522911,74.93194489,363.9059839,-34.59300937,0,0,-78.77427134,27.28827584,11.20237269,,,,
23.89599998,93,0,152.3953977,0,21.99153784,0,-27.79745117,-93.71839401,19.85300699,-190.237572,491.4199524,-0.297835945,0,0,121.389943,-9.401915574,61.62595729,,,,
23.90399998,93,0,-227.2627558,0,-85.62227189,0,34.20139742,74.31452577,-48.59905885,145.0890886,374.0933688,-23.32569409,0,0,-57.62698027,14.9915463,7.94714601,,,,
23.91199998,93,0,199.333213,0,45.69475961,0,-71.24881838,-107.5894436,47.8300541,-106.6795139,388.7821946,-46.78758217,0,0,-64.02233147,37.51369118,16.95226893,,,,
23.91999998,93,0,-96.18300367,0,-59.14779535,0,-38.07129571,-11.65869309,-26.82332667,-118.1133919,530.708706,8.811458085,0,0,185.320738,-58.92015977,56.21367046,,,,
23.92799998,93,0,-110.6946369,0,-51.04528997,0,-38.33366686,25.04474571,-11.37860607,269.689793,251.9743684,-80.235058,0,0,-258.8682062,59.42121724,-44.21022484,,,,
23.93599998,93,0,240.7075595,0,35.50917308,0,-86.76704613,-144.3269865,28.49633695,-336.1821753,564.4849596,7.433056591,0,0,212.8152859,-38.8248528,70.37654168,,,,
23.94399998,93,0,-337.0333337,0,-136.4114689,0,-13.83397755,92.81735226,-73.22128006,138.6384781,353.7680686,-34.74163726,0,0,-70.17803777,3.258208399,-19.10299855,,,,
23.95199998,93,0,224.0307401,0,31.74386593,0,-116.7744118,-133.8945585,56.93686593,-148.9388121,348.1253666,-66.25363733,0,0,-108.7166937,52.90259655,-13.92074193,,,,
23.95999998,93,0,-74.51563515,0,-69.6737337,0,-5.151541366,-13.6535459,-16.4829302,-248.882886,566.92808,27.47153833,0,0,270.7624313,-64.04575533,63.68716589,,,,
23.96799998,93,0,-93.70029105,0,-38.6660699,0,50.3779953,57.19899797,14.39907109,269.9697321,221.8592282,-80.40583715,0,0,-288.8324903,91.99329703,-53.87472337,,,,
23.97599998,93,0,372.8044165,0,111.9542864,0,84.40856643,-110.68367,76.3108756,-242.8472186,649.1340876,46.1983571,0,0,272.8876801,-20.59806638,100.7465275,,,,
23.98399998,93,0,-218.7052662,0,-14.81519345,0,268.6046211,200.9294809,-28.11961132,533.545001,507.9098868,42.75951642,0,0,-51.32790608,40.35160641,43.2119487,,,,
23.99199998,93,0,331.4082328,0,158.4681697,0,84.98726881,-39.12525998,95.08895238,159.3874663,501.7361298,9.287550323,0,0,-119.0162236,97.90740763,59.97818344,,,,
23.99999998,93,0,-4.315528428,0,26.0082754,0,112.8484933,63.93697449,2.65106713,-97.83409037,698.8278308,88.65021813,0,0,289.3020221,-40.97596882,128.0392259,,,,
24.00799998,93,0,-61.28168034,0,37.00809735,0,120.0859251,132.2762337,23.66729402,487.2466491,336.0518267,-31.20909698,0,0,-327.1728771,119.3227381,-1.999607092,,,,
24.01599998,93,0,320.8410589,0,102.7525479,0,-50.94997185,-103.7144164,71.01352966,-354.8155696,704.1591222,61.18236368,0,0,258.5706378,-10.95438805,131.1690332,,,,
24.02399998,93,0,-302.2220542,0,-90.36870689,0,63.08619249,167.6731267,-44.32111996,188.9704445,429.5272068,8.13159017,0,0,-48.03003844,31.98070707,19.71912935,,,,
24.03199998,93,0,286.495389,0,96.17841151,0,-38.81173089,-77.76255704,80.68873662,4.429994061,424.4447722,-22.35652927,0,0,-120.6727353,84.75627252,21.54257558,,,,
24.03999998,93,0,-60.22597426,0,-29.38736089,0,3.069630802,19.88787583,-11.49404845,-223.5942857,673.2997054,69.98484404,0,0,291.4995264,-59.60376682,96.22168289,,,,
24.04799998,93,0,-80.69653212,0,14.91858362,0,99.50959605,113.7227612,10.42829196,416.1746844,297.6068025,-46.32233826,0,0,-334.7696509,103.4582993,-35.80702478,,,,
24.05599998,93,0,304.1587396,0,96.14500712,0,-48.46299315,-116.330244,59.95695206,-308.9620248,668.9853789,56.6023675,0,0,246.428271,-20.48385789,110.4469855,,,,
24.06399998,94,0,-368.0492826,0,-116.1520427,0,10.26581802,144.993771,-52.46745779,128.5895385,410.2760507,-3.528002648,0,0,-59.45834211,21.60304303,6.112009189,,,,
24.07199998,94,0,261.0773254,0,103.29081,0,-6.098913562,-76.51222615,78.85554855,-37.85270813,402.2945728,-42.4018159,0,0,-142.6478139,75.93948775,8.463587505,,,,
24.07999998,94,0,-86.70008107,0,-9.424695018,0,50.37301036,26.71077168,-8.391811492,-141.5437499,670.9688541,55.69796762,0,0,268.82052,-61.77093197,101.7599294,,,,
24.08799998,94,0,-184.7619161,0,-9.330340208,0,48.80213193,96.38907408,6.096333729,402.1171662,291.7080277,-72.098979,0,0,-354.4185588,100.9961914,-29.38584968,,,,
24.09599998,94,0,203.2326552,0,69.3897116,0,-91.71280052,-144.2518686,55.09643747,-451.4283449,623.0283246,12.29283156,0,0,222.1854397,-32.88817271,101.0010299,,,,
24.10399998,94,0,-445.7502651,0,-127.6102073,0,3.833258095,125.1244199,-52.21098879,41.14564226,368.8281216,-42.58637527,0,0,-76.14701675,4.54932287,0.527673321,,,,
24.11199998,94,0,179.7153195,0,76.84363777,0,-47.85103316,-102.462206,71.71032698,-59.78224961,362.6248401,-73.08922365,0,0,-158.9890335,62.54620299,-1.709722692,,,,
24.11999998,94,0,-158.0901736,0,-44.73871228,0,-20.31668075,-11.35173978,-15.54539643,-203.858913,640.5324768,30.43664929,0,0,264.0271924,-78.25358563,83.52109268,,,,
24.12799998,94,0,-230.0427012,0,-44.65350265,0,-0.954833163,65.6093224,-1.494322644,269.375792,269.7845506,-101.0142128,0,0,-350.7312388,83.00282657,-56.73534686,,,,
24.13599998,94,0,239.5497376,0,64.66571136,0,-66.23876369,-158.6641089,47.60810918,-481.87169,610.6957548,-7.881851529,0,0,216.7418924,-48.3803756,67.92526712,,,,
24.14399998,94,0,-371.1165655,0,-94.29295363,0,86.9336659,136.8138498,-53.96248617,219.6692232,426.7346922,-27.95925284,0,0,-78.57898275,-2.778146022,-7.485569471,,,,
24.15199998,94,0,221.2517449,0,97.20658922,0,-13.82968083,-90.06294929,62.84723782,41.92162009,447.6658319,-56.92467776,0,0,-170.5107529,64.8369577,-1.761153298,,,,
24.15999998,94,0,-121.9324503,0,-51.03230919,0,-52.17297982,-21.39789476,-24.58129183,-326.4670971,648.8392276,23.20820107,0,0,263.6859935,-82.72778947,68.38421893,,,,
24.16799998,94,0,-197.9640897,0,-59.68348253,0,-39.17963788,55.77453819,-7.165857136,205.0756403,231.6779839,-104.6062676,0,0,-337.7912173,79.4451204,-71.60793765,,,,
24.17599998,94,0,252.0876398,0,40.32541135,0,-128.5717715,-179.2769202,41.19651211,-443.1258004,622.806634,-0.372765744,0,0,224.4687146,-45.77168061,55.68069508,,,,
24.18399998,94,0,-375.4643467,0,-135.453616,0,2.39187813,100.354849,-56.8761755,107.3335806,418.5200051,-32.96840001,0,0,-55.0680618,-7.294122826,-26.24325103,,,,
24.19199998,94,0,222.3587702,0,54.7696112,0,-74.10654785,-124.7246556,57.66027794,-78.28450418,398.7772443,-66.53348555,0,0,-154.685362,57.93235281,-26.84037508,,,,
24.19999998,94,0,-131.9749162,0,-99.82228177,0,-138.188421,-65.85260193,-28.62983221,-361.3679743,630.8164734,17.73061571,0,0,278.0303963,-91.45744496,41.11140596,,,,
24.20799998,94,0,-192.7869296,0,-96.175099,0,-76.08848691,26.58527232,-3.892116936,152.8923034,209.3165663,-114.4279805,0,0,-317.4290295,73.30464591,-97.7968622,,,,
24.21599998,94,0,343.2389893,0,73.69929731,0,4.179223862,-159.4176971,57.95419159,-328.3359875,652.0428584,15.36003458,0,0,230.697358,-40.1725682,51.90459521,,,,
24.22399998,94,0,-310.3705102,0,-93.12027093,0,124.9736009,141.5874639,-29.51365785,279.9734918,500.07108,2.592640737,0,0,-39.99825339,10.19126571,-3.379330703,,,,
24.23199998,94,0,283.8842512,0,96.31814073,0,35.26122188,-69.82825492,92.28554739,6.676119834,439.2573377,-36.70032322,0,0,-131.7644579,89.89737286,2.324383712,,,,
24.23999998,94,0,56.22453492,0,35.07742429,0,158.6661545,43.15040695,23.49837771,-73.00013484,750.2464608,82.66039298,0,0,304.1136771,-48.06108695,97.94595601,,,,
24.24799998,94,0,-54.81138437,0,48.07273586,0,183.4011664,154.652469,42.01764099,540.6057644,427.5077031,-23.46499734,0,0,-303.7003725,124.8503101,-15.48297327,,,,
24.25599998,94,0,371.2971061,0,138.2637471,0,40.71184021,-83.09722786,79.94237794,-243.2594696,772.0880699,71.2384252,0,0,234.7123785,2.267409568,110.7721485,,,,
24.26399998,94,0,-258.5707782,0,-40.56820897,0,144.7808944,200.4532748,-16.21192251,263.700516,552.5452218,33.99719739,0,0,-27.19698391,32.93628155,33.41772654,,,,
24.27199998,94,0,317.416543,0,143.2463426,0,47.03232566,-16.74128194,94.57139118,115.0998087,522.413289,-6.296638603,0,0,-140.1449814,105.5308176,32.67129347,,,,
24.27999998,94,0,18.62576917,0,22.7731687,0,40.92814286,46.73340398,14.48296554,-103.3243635,784.3324462,95.31495715,0,0,295.8340964,-46.68149816,110.8638868,,,,
24.28799998,94,0,-94.23984834,0,9.478582795,0,53.34605325,136.1060268,32.10771307,373.1572097,368.2411492,-39.6446237,0,0,-303.2470264,112.2101452,-26.6173898,,,,
24.29599998,94,0,371.4493925,0,125.1960524,0,-18.45412854,-98.06507374,73.05266031,-307.6503229,723.5897322,54.98285195,0,0,223.8355392,-12.70148106,93.75181699,,,,
24.30399998,94,0,-277.496183,0,-56.65707775,0,83.1104195,180.3063363,-22.14674949,266.4852324,556.7130876,34.03168306,0,0,-28.06333922,17.09883711,23.7061105,,,,
24.31199998,94,0,281.6715927,0,104.0036328,0,-41.4031751,-50.37100876,84.03774829,46.28777279,475.4301269,-22.16340156,0,0,-141.9662365,90.86847548,10.62969871,,,,
24.31999998,95,0,-0.452763649,0,-16.89374457,0,-39.26351375,4.050274348,1.757611355,-205.0006496,722.8791511,67.15823872,0,0,292.54981,-66.91669014,80.72054292,,,,
24.32799998,95,0,-182.4988252,0,-19.32422048,0,46.05499,176.8018979,37.30841562,681.1097039,119.9637516,-130.8181868,0,0,-664.286077,192.6534286,-125.1689832,,,,
24.33599998,95,0,528.8063363,0,166.6644509,0,-68.45886373,-160.6796783,116.5501742,-145.396384,537.6076704,-22.69094866,0,0,-58.5376857,68.38026956,28.28241733,,,,
24.34399998,95,0,-196.0888776,0,-82.85218102,0,-3.600253288,66.53178011,-46.32579883,-143.4300873,817.6076356,105.9493663,0,0,393.1719808,-115.6315202,101.9645305,,,,
24.35199998,95,0,-37.22290921,0,2.835589804,0,7.884944596,78.64556212,37.39962642,366.4865839,324.6219415,-69.97743454,0,0,-375.0697387,124.5671382,-59.8680327,,,,
24.35999998,95,0,280.6794884,0,57.15165743,0,-115.2303331,-129.4700668,57.76290347,-270.0354753,664.5615035,25.42643924,0,0,164.4624789,-5.75228061,60.22426373,,,,
24.36799998,95,0,-265.3454998,0,-124.0287118,0,-86.42454752,62.92734378,-33.94026877,-27.54274921,580.4377861,16.52514085,0,0,101.0405056,-35.81871473,21.1214488,,,,
24.37599998,95,0,98.44576654,0,5.003073417,0,-79.70383746,-30.756303,53.92819465,74.59099669,346.7354426,-78.79867233,0,0,-254.2263496,90.33557089,-49.01930215,,,,
24.38399998,95,0,105.7909505,0,-28.52628539,0,-125.8635358,-105.1337777,15.1240595,-296.2911281,692.1913677,39.08076203,0,0,280.4516825,-61.95674904,65.21738486,,,,
24.39199998,95,0,-270.6824584,0,-143.9572228,0,-123.5204726,46.10733433,-22.84533293,95.46969893,379.777605,-52.15364508,0,0,-114.2091489,24.0166103,-46.18195612,,,,
24.39999998,95,0,211.5087432,0,2.50277333,0,-151.3158265,-141.7185781,52.56010569,-234.5701258,443.8906934,-55.92323861,0,0,-28.56773337,32.09102005,-25.24050102,,,,
24.40799998,95,0,-88.58759516,0,-84.89225888,0,-63.39700192,-28.54638915,-24.50779199,-134.1432831,649.2447531,24.89327628,0,0,233.8538291,-73.98751474,27.63461528,,,,
24.41599998,95,0,-101.5758853,0,-65.36302907,0,-77.5074685,15.93597885,10.91786446,296.7077271,338.0486137,-84.07077419,0,0,-267.2496308,73.17290025,-70.98231295,,,,
24.42399998,95,0,224.9955852,0,4.729441712,0,-134.277533,-162.5246155,27.79548904,-345.2734703,645.897031,5.162036253,0,0,235.8406673,-44.95926905,38.52931632,,,,
24.43199998,95,0,-286.3913073,0,-136.4466626,0,-30.66408541,73.53085408,-47.17195069,138.1199622,448.7387856,-35.90956725,0,0,-29.73947392,-5.59562824,-38.65453025,,,,
24.43999998,95,0,232.1059821,0,42.93445115,0,-49.4639576,-98.02789292,49.03772114,88.1114561,470.0680805,-55.88415159,0,0,-110.8505319,60.25459743,-27.16797855,,,,
24.44799998,95,0,-12.46784689,0,-32.30472039,0,12.27547749,-21.57420082,-23.93664138,-56.95009613,741.3143544,43.65610329,0,0,278.6717611,-74.43020529,56.66183847,,,,
24.45599998,95,0,-179.9082326,0,-81.85811742,0,-63.53958283,51.98793729,-11.1662336,278.6785591,341.3627472,-93.05362634,0,0,-276.0232468,76.38061456,-67.13635114,,,,
24.46399998,95,0,271.6713848,0,16.69912186,0,-137.6236222,-178.005688,25.68809608,-431.4889176,642.3443681,-16.60385967,0,0,220.0445375,-39.95260822,36.99413974,,,,
24.47199998,95,0,-297.3240781,0,-125.1229809,0,30.28751276,94.7642721,-56.96991347,189.084236,502.0985101,-30.33085638,0,0,-3.060281665,-22.20719704,-27.49491368,,,,
24.47999998,95,0,160.6859971,0,0.231606903,0,-146.0134748,-126.2045684,41.5928553,-16.33776361,418.9817343,-80.80965118,0,0,-136.4070057,58.81484426,-39.83730559,,,,
24.48799998,95,0,-93.71330809,0,-135.2539231,0,-210.5052857,-113.2926572,-37.70732766,-449.0523895,616.3287822,-12.99413128,0,0,310.5356367,-103.2320829,14.15581259,,,,
24.49599998,95,0,-208.0301602,0,-135.0898013,0,-115.2798378,12.15051949,-11.75976518,202.7640507,261.2306717,-126.6809477,0,0,-261.2710079,50.30151264,-114.415751,,,,
24.50399998,95,0,307.2779152,0,13.74045044,0,-111.9487391,-197.6515295,49.77789652,-384.9781567,625.32788,-12.34567868,0,0,236.9307121,-39.6296569,20.52307276,,,,
24.51199998,95,0,-272.6840239,0,-130.4267312,0,69.38325991,96.57440563,-30.17501394,136.5426264,497.9505113,-17.61274952,0,0,43.35609513,-13.67958641,-30.27758243,,,,
24.51999998,95,0,290.9490662,0,93.93996001,0,104.6174916,-51.4122884,87.30974482,225.9059229,517.0924373,-29.90368099,0,0,-115.9320983,89.35453537,-14.00438113,,,,
24.52799998,95,0,88.71538726,0,39.13419715,0,169.6240252,24.80270138,14.39974499,-19.7723753,828.9459441,86.77127626,0,0,331.0688683,-55.90456453,94.16748505,,,,
24.53599998,95,0,-121.766844,0,-5.887145677,0,111.4062183,139.28449,22.52168679,475.009299,428.3629243,-47.54070323,0,0,-260.688249,102.2420035,-29.32841124,,,,
24.54399998,95,0,343.5925537,0,95.5923046,0,-34.0451047,-116.4415531,69.00864914,-226.7970108,737.5282601,35.65216656,0,0,226.8981469,2.974723987,82.95716362,,,,
24.55199998,95,0,-250.270728,0,-74.01737389,0,109.3293415,157.6190068,-31.42740644,185.4789812,560.5376979,7.598803249,0,0,36.90258684,6.480609717,11.11105743,,,,
24.55999998,95,0,265.2793687,0,94.7287436,0,27.09867653,-33.87567648,69.4890676,111.3716688,505.2828052,-36.60808119,0,0,-138.2039723,97.59879487,1.752759157,,,,
24.56799998,95,0,41.60247337,0,9.020953394,0,29.75370934,4.010993941,-9.078091659,-145.3698698,809.8649047,77.1420885,0,0,324.1411005,-55.23159462,93.88971333,,,,
24.57599998,96,0,-162.5096266,0,-42.23017617,0,3.461816316,113.9880431,-2.855841065,343.2547881,374.3702773,-62.39443663,0,0,-262.6552527,96.4045781,-47.26827595,,,,
24.58399998,96,0,314.0570852,0,54.25664157,0,-133.7682634,-157.18486,44.67804844,-354.7706897,657.2782349,16.18960018,0,0,219.9132639,-5.810451172,57.00224873,,,,
24.59199998,96,0,-269.2642361,0,-89.54548255,0,71.36969963,131.0921464,-54.12872193,199.7060538,539.1143341,3.28863969,0,0,27.77468069,-7.211764173,-5.560655425,,,,
24.59999998,96,0,243.5666183,0,86.98698447,0,5.373315973,-43.50872708,55.65525589,111.0281694,488.3788605,-43.61006078,0,0,-163.0990134,89.53181596,-14.10471676,,,,
24.60799998,96,0,34.14502352,0,-5.708052168,0,11.19257255,-14.92798541,-21.18410123,-196.7626755,769.7656091,68.83172681,0,0,310.8071488,-62.105444,76.1749199,,,,
24.61599998,96,0,-153.4334254,0,-27.91113769,0,61.27463342,117.6046758,-15.88725304,440.8161724,393.4650855,-55.07076938,0,0,-287.8817583,85.6693798,-55.49772537,,,,
24.62399998,96,0,283.8154323,0,48.95356948,0,-157.0575702,-164.1720186,38.43316483,-382.2137745,680.9872046,14.35550534,0,0,190.8674202,-12.21234717,50.60867237,,,,
24.63199998,96,0,-345.4983734,0,-148.7494517,0,-56.60500546,83.55358388,-65.61319,-24.49256238,469.0689087,-22.99013589,0,0,31.68551328,-18.33210891,-32.55626235,,,,
24.63999998,96,0,193.6811968,0,41.454883,0,-75.10605213,-93.77948746,46.2298024,36.56421238,413.5420909,-68.12724056,0,0,-165.4547939,75.41071032,-49.29228208,,,,
24.64799998,96,0,-25.41891345,0,-58.73858891,0,-102.9216693,-80.53586725,-32.12753093,-283.2646136,729.9799696,40.84922289,0,0,312.3312928,-79.85615924,43.40809193,,,,
24.65599998,96,0,-224.8625628,0,-102.8468428,0,-66.76244499,47.67105312,-31.89502674,257.415502,298.375025,-105.5958174,0,0,-278.2970997,59.84795493,-108.0190646,,,,
24.66399998,96,0,319.2010073,0,41.77067122,0,-117.7502764,-193.490929,36.58319069,-352.9587338,632.0419961,-14.90758214,0,0,192.0608379,-30.12686101,8.167383054,,,,
24.67199998,96,0,-319.7501499,0,-132.8819642,0,14.73200779,77.95869423,-77.36596469,195.611753,549.4495765,-15.38857799,0,0,23.63756196,-27.58301106,-38.05009702,,,,
24.67999998,96,0,141.6703021,0,3.238905637,0,-130.4048429,-117.7544781,26.43388084,13.69483686,408.2443823,-86.76591367,0,0,-178.0676523,64.4170271,-67.23033528,,,,
24.68799998,96,0,-28.82834974,0,-90.91975741,0,-131.5784812,-114.5996566,-41.91824906,-484.9706054,656.0303693,8.646765644,0,0,323.6488651,-94.14572386,14.50060368,,,,
24.69599998,96,0,-221.5348609,0,-107.0572198,0,-30.42690997,30.41312995,-46.42400286,296.8657041,319.1733175,-110.271233,0,0,-279.4302513,49.34355533,-114.3705729,,,,
24.70399998,96,0,306.2254562,0,36.83083187,0,-113.3345947,-210.4694692,23.71501584,-298.9436637,641.0628565,-21.53696662,0,0,185.5611308,-33.33764309,7.650518651,,,,
24.71199998,96,0,-306.3116777,0,-127.4038727,0,51.63382582,65.89205109,-89.89731785,140.7880655,524.0112153,-29.73215235,0,0,36.11239597,-33.35973235,-44.93365516,,,,
24.71999998,96,0,186.8124258,0,53.78739244,0,-0.389086825,-94.39166153,20.53707881,183.0494708,458.1881632,-80.41898661,0,0,-190.4903702,63.99574986,-61.50109834,,,,
24.72799998,96,0,0.992989446,0,-33.35151563,0,-31.25318001,-80.95973449,-41.47846114,-245.6786361,736.4776077,30.50806197,0,0,313.412495,-83.98070745,41.83223837,,,,
24.73599998,96,0,-233.6377458,0,-85.31245844,0,2.839184902,52.5417964,-52.47246863,313.9677482,331.5235021,-108.845507,0,0,-285.7113716,53.4043566,-98.3631455,,,,
24.74399998,96,0,307.5856286,0,55.95100673,0,-90.74879298,-196.0218557,24.36510583,-335.2021802,650.9992541,-23.94682092,0,0,173.5672766,-34.93002939,16.53886294,,,,
24.75199998,96,0,-348.7326595,0,-149.7428329,0,-23.22038377,52.80028457,-93.85243458,23.32912456,516.4781814,-34.39138582,0,0,43.80067959,-39.94907865,-38.57725316,,,,
24.75999998,96,0,137.6377446,0,5.415083521,0,-91.00597035,-118.2678841,21.5210147,-44.20662957,384.184879,-105.0505094,0,0,-178.1324702,53.57394947,-75.4831971,,,,
24.76799998,96,0,47.15136521,0,-21.2277386,0,32.31376792,-69.2118282,-21.34056732,-314.8420111,724.5477985,34.06137691,0,0,344.9201741,-83.35243259,44.33553021,,,,
24.77599998,96,0,-160.5314207,0,-32.25168805,0,146.5777748,102.1996293,-27.90264511,403.0976868,386.3611426,-75.31530636,0,0,-254.6605274,70.15274457,-70.22983599,,,,
24.78399998,96,0,408.3139637,0,144.7654574,0,96.25276632,-119.6704665,69.33367854,-151.4541501,724.5868599,22.91259491,0,0,198.2957821,-1.887764411,64.4625941,,,,
24.79199998,96,0,-209.4826206,0,-13.48040849,0,237.6816536,165.3962925,-42.1315125,311.6079091,647.7657632,38.13924747,0,0,73.98307589,3.04425642,36.88507636,,,,
24.79999998,96,0,247.6842079,0,141.2846084,0,114.8198844,-0.037538427,62.78186192,225.0897948,542.0404836,-31.32701163,0,0,-178.0991604,98.0815364,5.116334522,,,,
24.80799998,96,0,74.0274223,0,49.35442559,0,54.73088522,-2.171991824,10.81996562,-209.933781,820.6691573,82.69594089,0,0,349.401493,-47.20960939,110.6346363,,,,
24.81599998,96,0,-199.147557,0,-27.79973426,0,58.3697571,123.9286907,-16.47025273,367.4039166,393.9512993,-60.00756652,0,0,-253.7964263,84.67538773,-37.7930484,,,,
24.82399998,96,0,384.532498,0,133.522237,0,-2.182671393,-121.0265546,80.06170512,-279.4726829,704.0639332,17.96361267,0,0,187.9107042,-2.401988884,69.5587123,,,,
24.83199998,97,0,-259.4636357,0,-56.20941164,0,116.4606886,141.6637835,-37.57546678,133.9423916,603.570565,24.00518834,0,0,85.01716826,-0.429371088,32.69146105,,,,
24.83999998,97,0,188.6053941,0,81.7818741,0,5.376777235,-35.72041561,60.14736915,89.94988479,463.960564,-59.70846619,0,0,-178.693954,89.18358224,-13.20862039,,,,
24.84799998,97,0,67.02372472,0,14.77539559,0,1.775046933,-34.08329315,21.74238284,-324.5212036,770.1606869,57.76932988,0,0,359.2087151,-59.55640003,95.00012579,,,,
24.85599998,97,0,-230.2296685,0,-63.58525804,0,16.25291754,100.5238228,-12.82248695,324.0783538,356.2656871,-75.61201682,0,0,-242.858918,77.30517607,-47.80515873,,,,
24.86399998,97,0,339.1557043,0,90.11462108,0,-70.37043516,-156.4089038,83.15297607,-342.6275866,644.2378019,-3.583307203,0,0,189.0127115,-11.0194919,57.11952635,,,,
24.87199998,97,0,-301.5377777,0,-105.2821874,0,40.51831071,94.88236481,-33.72001615,5.4871899,544.7625504,-2.274805488,0,0,103.0376501,-16.24006376,21.21593861,,,,
24.87999998,97,0,123.8985513,0,17.03139027,0,-97.02660447,-90.95471081,54.129577,39.21935598,398.8406104,-87.10647085,0,0,-176.9473431,74.08194033,-37.04996796,,,,
24.88799998,97,0,32.28877581,0,-36.26165044,0,-81.10109957,-90.04252795,24.34778059,-415.9002652,708.1311093,37.94526212,0,0,375.5919211,-73.18777129,67.29938567,,,,
24.89599998,97,0,-241.70817,0,-89.39351964,0,9.856072375,69.33091825,-15.39008713,289.7501386,328.5311407,-83.89949126,0,0,-228.1073903,66.5395948,-68.69425632,,,,
24.90399998,97,0,297.1450856,0,43.5421051,0,-145.5362297,-196.8832455,72.4935627,-309.2951927,609.4843818,-17.53789167,0,0,179.9126547,-21.6929993,27.73818163,,,,
24.91199998,97,0,-349.2601163,0,-163.9271063,0,-63.31149967,53.79858597,-39.52403315,-113.1325712,462.2201069,-28.89833724,0,0,119.1376644,-36.10240481,-20.61067257,,,,
24.91999998,97,0,112.3462161,0,-10.96158217,0,-102.8674302,-101.7027076,47.25216839,-44.27615947,340.4730847,-113.243007,0,0,-170.683741,55.28811858,-77.92339897,,,,
24.92799998,97,0,35.24090834,0,-50.39920385,0,-76.82038058,-98.05638912,18.76985038,-346.3535216,708.1398064,26.76933239,0,0,378.5420913,-86.51609137,38.4272005,,,,
24.93599998,97,0,-253.2585652,0,-103.5473786,0,4.391007291,64.16640118,-20.95112031,317.0742613,302.5685417,-96.97401014,0,0,-218.6861292,52.48988485,-100.196688,,,,
24.94399998,97,0,312.7901105,0,56.77029919,0,-108.4838849,-194.3401932,69.17489105,-282.6627285,615.9742418,-29.04584937,0,0,174.6807271,-32.23996982,0.620155088,,,,
24.95199998,97,0,-334.8179673,0,-135.8473464,0,-8.923294409,61.24657034,-46.79146624,40.37642566,539.1441502,-14.94661062,0,0,119.5880258,-39.12328336,-22.15635087,,,,
24.95999998,97,0,82.4797523,0,-12.78410944,0,-115.0707435,-108.6439041,28.6947558,-33.39538893,312.6493223,-115.6176315,0,0,-173.3684646,52.43933631,-84.63237179,,,,
24.96799998,97,0,19.3114833,0,-61.06614345,0,-115.8919924,-122.7387582,-1.283809113,-462.0480216,649.9188984,4.735041939,0,0,380.8090369,-98.74870653,23.48480993,,,,
24.97599998,97,0,-461.2559055,0,-146.5354408,0,48.79850337,156.5127044,-67.68540917,738.530352,119.3127428,-171.3436343,0,0,-571.4504676,126.9468435,-177.0177435,,,,
24.98399998,97,0,144.6730222,0,33.70621721,0,-72.25233888,-95.0363287,41.35156101,376.3286608,193.5163035,-181.4853324,0,0,-518.9200186,136.2292575,-146.6386952,,,,
24.99199998,97,0,-48.6526058,0,-64.4903065,0,-80.05150298,-71.82950825,-9.789691336,-215.8382936,589.4746551,-19.8666571,0,0,209.0704072,-62.12112126,-4.167988943,,,,
24.99999998,97,0,-9.436000637,0,-49.25205782,0,-99.43650724,-85.30497846,0.52923292,-157.4445238,517.9013105,-51.12416263,0,0,102.2241056,-35.660429,-28.69204063,,,,
25.00799998,97,0,-118.3941594,0,-78.91606622,0,-92.88586457,-42.26186194,-13.46144211,-42.0510377,425.7038904,-69.25512368,0,0,9.171674831,-15.14263984,-56.30472775,,,,
25.01599998,97,0,-24.90736834,0,-53.00600771,0,-114.0618571,-85.56879831,-1.647249968,-78.754644,428.9593417,-69.3255272,0,0,14.39274097,-16.69298499,-55.40617734,,,,
25.02399998,97,0,3.21618443,0,-55.5225974,0,-113.4693866,-105.4321816,-4.766108242,-271.4172608,543.8254893,-31.49643219,0,0,212.5724415,-73.08243334,-18.92548555,,,,
25.03199998,97,0,-177.5475154,0,-75.76841654,0,-0.234618309,26.72905621,-28.39437018,208.8948039,352.8531188,-88.08185816,0,0,-120.7387516,5.928939856,-90.06003454,,,,
25.03999998,97,0,249.2145457,0,71.35571339,0,-4.025821624,-119.0445672,48.96291132,-138.2089016,604.608333,-25.98689458,0,0,150.5082525,-42.32716601,-5.012773162,,,,
25.04799998,97,0,-152.5512892,0,-14.4424138,0,168.5809097,106.5618079,-10.96734628,170.7570709,576.6808541,0.599183846,0,0,101.9474578,-28.72635555,-6.925246698,,,,
25.05599998,97,0,182.4608152,0,134.5256888,0,199.8383445,50.44109,56.14475453,343.4928003,521.0667881,-26.49485723,0,0,-125.9328148,58.04855132,-17.46520792,,,,
25.06399998,97,0,170.5915103,0,132.1232029,0,177.9053304,53.0687838,50.49273458,-44.03091921,826.2594736,89.45302149,0,0,323.0486165,-50.74895151,98.40391786,,,,
25.07199998,97,0,-146.4036755,0,60.56501354,0,191.0673044,208.0073231,6.903437628,475.1096963,474.3671648,-12.10466381,0,0,-171.9172309,69.56326041,-8.539481876,,,,
25.07999998,97,0,370.0467047,0,196.5057806,0,45.14024086,-37.59835125,87.48148414,-122.8593621,687.1890523,33.01847324,0,0,155.8929734,-4.054606053,70.05985398,,,,
25.08799998,98,0,-195.9403255,0,25.0117793,0,144.1455362,195.0084245,-9.305243024,147.7239719,634.993018,52.01712382,0,0,132.7532606,-18.594433,51.9082846,,,,
25.09599998,98,0,155.3627972,0,139.1268518,0,61.76085142,60.84713966,55.49618674,219.4495754,477.9173608,-24.6077871,0,0,-173.1051964,82.32966413,3.26783358,,,,
25.10399998,98,0,134.7432111,0,102.4373476,0,26.85784953,24.080575,36.82819122,-272.0335312,781.0013541,84.05804251,0,0,361.0047693,-61.25354357,107.2971938,,,,
25.11199998,98,0,-184.7407004,0,37.37612203,0,134.2790387,202.6388498,-8.4107863,436.5596606,429.1510837,-21.36151702,0,0,-198.9577732,68.31462456,-17.35974288,,,,
25.11999998,98,0,357.3987084,0,180.1014888,0,-23.2157713,-66.14007299,80.05706916,-173.5708779,679.8359893,36.57248624,0,0,138.8099518,-3.098672779,73.51085721,,,,
25.12799998,98,0,-254.5159146,0,-25.55984915,0,25.25483872,159.7595348,-22.40844249,41.11448256,586.4662255,42.25485006,0,0,140.8868496,-25.98575259,42.61715592,,,,
25.13599998,98,0,161.2980276,0,118.987988,0,14.67353815,32.64992621,49.48498164,210.3891791,423.212384,-41.64401882,0,0,-186.010194,77.34927642,-19.61618311,,,,
25.14399998,98,0,143.065354,0,107.6744953,0,36.22052779,14.90354521,26.91982149,-187.332112,797.0720833,96.82052388,0,0,363.2403632,-71.14904454,105.7732767,,,,
25.15199998,98,0,-205.9351882,0,28.72694264,0,109.2460107,196.3692317,-21.02161949,456.4464843,418.7433786,-20.73638131,0,0,-211.2213443,66.40982965,-22.60660575,,,,
25.15999998,98,0,369.538774,0,179.2056828,0,-29.76921475,-70.42059456,70.32496953,-209.3486211,667.4057069,26.49382484,0,0,137.5317957,-0.938827323,64.48691448,,,,
25.16799998,98,0,-254.7208919,0,-20.80448223,0,41.65385519,170.7799506,-36.45626225,54.76957313,598.4199968,45.78267765,0,0,139.3418422,-23.62079126,42.52620546,,,,
25.17599998,98,0,122.6983731,0,90.8062418,0,-40.95386877,24.02089678,33.28008861,141.0892532,383.3170861,-52.5774655,0,0,-205.0272116,79.9740156,-32.90306112,,,,
25.18399998,98,0,111.0400807,0,62.47380692,0,-42.57760084,-14.08441224,13.71994348,-349.4046827,724.5914011,72.14458958,0,0,361.6258168,-76.58726856,77.25494921,,,,
25.19199998,98,0,-212.9416495,0,6.073894019,0,94.1507445,181.5863694,-30.26460702,432.2676271,376.1471074,-29.66817897,0,0,-213.5887521,60.05871176,-45.97078275,,,,
25.19999998,98,0,368.2170294,0,167.0154688,0,-30.11048888,-84.16913624,62.10112308,-134.0859937,656.5863813,29.77953838,0,0,125.6924976,-8.461638394,48.93450912,,,,
25.20799998,98,0,-251.093017,0,-17.96426308,0,75.89630129,161.6844589,-43.38327226,76.21507598,605.4838757,49.92037558,0,0,132.2190909,-37.83757961,31.55259825,,,,
25.21599998,98,0,134.4167955,0,116.6649368,0,37.31825252,31.99495131,27.54333361,186.4634136,404.0791311,-39.80480926,0,0,-224.0431842,73.63127073,-28.94603403,,,,
25.22399998,98,0,107.5380612,0,68.63014694,0,-30.42519223,-15.53080094,6.257147251,-341.2679894,743.6772381,85.94037978,0,0,350.553739,-78.5030159,89.47402444,,,,
25.23199998,98,0,-256.9368777,0,-28.73129108,0,24.52396546,165.2230815,-39.70333832,329.9974395,349.719363,-34.29488225,0,0,-213.1684268,53.61403382,-49.00923177,,,,
25.23999998,98,0,336.0139014,0,132.248298,0,-92.64465659,-108.228712,52.63280157,-219.4525102,592.0945833,17.94118939,0,0,122.5291931,-15.75764765,36.60372302,,,,
25.24799998,98,0,-268.7818004,0,-44.30836607,0,23.62083067,138.8429809,-52.92441668,26.14323124,558.8425282,43.51607269,0,0,137.1866716,-45.85924743,20.25847902,,,,
25.25599998,98,0,102.9559286,0,88.15107143,0,-24.8231627,17.64750087,19.05810674,130.843275,367.89852,-48.22048178,0,0,-222.2686441,72.74627794,-44.4536487,,,,
25.26399998,98,0,87.38348516,0,53.65394016,0,-65.51011105,-31.15604982,-5.571342878,-357.5306653,714.839885,82.17183867,0,0,355.8373136,-78.81826397,78.96509635,,,,
25.27199998,98,0,-284.3109748,0,-39.90503459,0,5.111904026,152.274067,-56.42024204,353.131289,314.3893689,-38.15591481,0,0,-215.4109599,49.18059079,-58.55658136,,,,
25.27999998,98,0,317.0885984,0,121.3295756,0,-120.3535234,-122.1756264,39.40429176,-253.0408851,550.5697337,3.36130898,0,0,108.0348432,-17.49317095,21.1176273,,,,
25.28799998,98,0,-272.7783055,0,-49.3883409,0,16.97804292,128.0706532,-64.52735877,-0.629050142,545.9518002,30.5123551,0,0,135.8859884,-52.75472459,7.130652788,,,,
25.29599998,98,0,121.8027033,0,104.1788129,0,39.72604998,32.06458996,17.50023368,229.2289531,376.866639,-48.55071098,0,0,-232.0271994,67.49833888,-51.70236765,,,,
25.30399998,98,0,147.7933562,0,80.58909884,0,27.49756492,-33.93283864,0.808031927,-560.1602895,979.8575869,174.8266704,0,0,696.2900585,-169.330978,159.4856338,,,,
25.31199998,98,0,-451.4135946,0,-86.52376051,0,131.690545,226.9267355,-93.59778325,8.013303051,734.2852621,120.5071323,0,0,364.2097595,-110.6551092,71.75007868,,,,
25.31999998,98,0,144.3567966,0,96.6945941,0,37.75401986,-3.148239838,13.26078478,-186.5174719,708.5311313,75.28172586,0,0,259.7119335,-59.53251671,66.21465416,,,,
25.32799998,98,0,-184.8148157,0,4.586491076,0,98.52311647,141.1812375,-35.42403971,16.71327422,650.319244,78.02138057,0,0,198.3097854,-50.70565314,49.89664041,,,,
25.33599998,98,0,71.0987753,0,112.3713412,0,91.22313049,102.1799246,37.30837054,366.7342151,319.2733724,-49.12579969,0,0,-335.3437468,113.189304,-53.6167704,,,,
25.34399998,99,0,322.0289128,0,183.2186363,0,105.6251102,9.030426778,69.96085668,-220.3300755,756.8124366,103.0214333,0,0,299.3575875,-31.92172885,100.313688,,,,
25.35199998,99,0,-195.9335613,0,69.11539163,0,251.0258916,275.1916482,-13.95291264,443.9334737,586.6662872,73.89066726,0,0,-38.00488004,42.0576648,39.01172371,,,,
25.35999998,99,0,305.4947146,0,212.9675569,0,84.42825364,51.11449086,74.62975838,202.4764239,530.4804943,25.41595132,0,0,-146.9068132,95.71757786,36.5872141,,,,
25.36799998,99,0,26.60169785,0,91.95298119,0,79.35065602,115.3767794,10.87855659,-189.855811,745.7549957,125.0735144,0,0,321.9241334,-44.78577013,114.8099281,,,,
25.37599998,99,0,-82.99089927,0,85.06657827,0,112.4754327,204.667574,9.335804231,411.179105,410.5106197,4.128797631,0,0,-260.7911734,100.6978147,-10.12554473,,,,
25.38399998,99,0,342.5525096,0,179.3687575,0,-37.46954453,-23.32035749,74.53281038,-204.9304969,679.9791959,74.53603116,0,0,153.6051679,6.031547624,87.0520537,,,,
25.39199998,99,0,-206.2827153,0,16.59387966,0,86.75178171,207.7567606,-21.37394869,134.4620861,567.0056571,75.09477219,0,0,75.98250336,-3.438180808,46.74285963,,,,
25.39999998,99,0,175.6745343,0,145.0574029,0,23.2429223,63.31707969,52.61702085,231.9493179,438.5906779,3.166374982,0,0,-218.7597792,95.53970023,2.647092612,,,,
25.40799998,99,0,77.70220418,0,72.08859302,0,-45.96721369,26.67876209,19.28341358,-371.3180808,714.0452714,107.0751317,0,0,317.2971052,-49.35824696,105.9547763,,,,
25.41599998,99,0,-204.648685,0,8.103421154,0,37.63068397,182.8190132,-13.73442278,211.7867051,312.2370027,-17.00012347,0,0,-229.8307509,78.33670558,-27.54197616,,,,
25.42399998,99,0,353.0771981,0,166.0230452,0,-50.66852076,-62.89801091,69.25188957,-137.3138382,590.3044316,43.97871961,0,0,91.8095184,11.40622315,59.80014391,,,,
25.43199998,99,0,-233.6915035,0,-18.58760873,0,13.10361953,155.6150796,-36.12303808,97.3804093,573.7080448,61.38428357,0,0,106.4317143,-26.88917508,40.71075979,,,,
25.43999998,99,0,85.07245218,0,75.08915806,0,-82.31628093,26.74377402,34.55292319,86.58747215,337.4453671,-41.26955949,0,0,-244.7629141,86.66148034,-33.33819693,,,,
25.44799998,99,0,107.9651163,0,48.31851241,0,-93.86623621,-34.03160211,15.28113259,-361.8099496,678.6964073,89.59010719,0,0,330.0996105,-62.22130922,79.90992016,,,,
25.45599998,99,0,-271.638312,0,-46.25500655,0,-9.885703793,150.3981156,-34.6178342,296.7467738,310.0414246,-24.57211603,0,0,-220.7916282,59.309932,-58.58386675,,,,
25.46399998,99,0,305.4217396,0,97.0806994,0,-160.0773053,-127.3302489,60.13301704,-322.170201,508.0657372,9.088987931,0,0,77.5776345,2.908807965,12.65768353,,,,
25.47199998,99,0,-271.9910352,0,-83.62040418,0,-48.15275465,98.41607304,-44.94677085,-74.0601335,503.7716683,40.88589243,0,0,136.3387217,-43.66597762,4.095288849,,,,
25.47999998,99,0,33.49962726,0,19.0669984,0,-104.145031,-14.55301604,21.25029651,76.07523431,273.4037692,-65.04279965,0,0,-253.1385168,76.13117996,-73.6159423,,,,
25.48799998,99,0,84.70948725,0,-1.288123024,0,-139.5747052,-93.502045,4.600680332,-439.7607227,608.2948785,54.02453909,0,0,333.3506052,-76.74195221,43.45582202,,,,
25.49599998,99,0,-283.1224397,0,-70.03362042,0,18.80473464,126.7298916,-45.32440053,354.9517463,283.5750661,-46.63031077,0,0,-220.129409,45.05175148,-81.88731221,,,,
25.50399998,99,0,338.7866446,0,120.4482587,0,-63.26079058,-125.8661093,59.61321434,-172.6761446,551.3413118,2.892028636,0,0,56.27197646,-2.289076285,4.470708135,,,,
25.51199998,99,0,-247.1573467,0,-55.04652418,0,37.93908366,106.1665736,-48.38581831,19.80921937,550.2686847,37.97001536,0,0,134.3256588,-51.04098137,6.065234527,,,,
25.51999998,99,0,60.05683485,0,61.85795509,0,-0.697001998,11.53112149,14.72506525,257.3383977,320.5821345,-61.71567176,0,0,-276.1083632,74.29693279,-65.83954497,,,,
25.52799998,99,0,111.9275643,0,49.19453797,0,-60.41996624,-69.2379137,4.660183652,-400.5739685,677.4103868,61.8263479,0,0,313.6974178,-76.12460636,61.19456223,,,,
25.53599998,99,0,-289.5351072,0,-35.54938692,0,56.65562906,150.5350065,-46.31454908,310.9975921,299.1299174,-47.25311189,0,0,-229.4575177,45.60222789,-67.50167904,,,,
25.54399998,99,0,350.5926208,0,163.1510671,0,-30.30047882,-102.8288772,62.28228209,-36.35984287,550.6597893,6.034182319,0,0,36.79644415,4.685565466,19.80288972,,,,
25.55199998,99,0,-264.093444,0,-34.22058033,0,12.99462566,113.5969325,-48.39908153,39.90876615,563.6704583,39.12482546,0,0,125.6673469,-47.24252804,24.21459198,,,,
25.55999998,99,0,17.83806018,0,50.890279,0,-75.23808635,7.63014167,12.22920249,84.42262401,273.0349699,-83.64563005,0,0,-290.3713027,70.23583894,-68.26360728,,,,
25.56799998,99,0,106.5313925,0,40.75016671,0,-121.8553639,-80.89890769,8.253029684,-461.1758124,646.0307042,47.15487218,0,0,308.0490731,-82.98430047,54.8054353,,,,
25.57599998,99,0,-336.1467373,0,-74.03873956,0,-36.31457326,124.5533134,-49.51949171,254.5448861,291.2524021,-60.16664179,0,0,-228.492928,34.47622584,-74.60927981,,,,
25.58399998,99,0,292.7625568,0,99.37320448,0,-145.3338727,-142.9491331,66.2091834,-295.889917,464.9246733,-34.40769958,0,0,38.76270651,-12.94451224,-8.073704776,,,,
25.59199998,99,0,-236.7198992,0,-47.07779998,0,31.9062127,105.5450465,-25.16717595,-102.9134081,498.2836214,20.10163236,0,0,153.4738003,-58.34763975,4.459029042,,,,
25.59999998,100,0,103.5637877,0,111.4775381,0,102.4433181,61.14828351,47.7775925,276.3891975,311.9751618,-55.1980992,0,0,-269.1101607,83.95908581,-54.20469351,,,,
25.60799998,100,0,237.3001059,0,157.2615724,0,135.3644103,17.22002708,56.44013689,-143.41416,756.0401937,101.6277514,0,0,327.1920974,-51.53177803,100.5088995,,,,
25.61599998,100,0,-172.5391696,0,89.87118674,0,288.9512771,266.3046519,-3.079120411,623.5078276,459.7901962,16.64279489,0,0,-215.7066589,73.22536601,-4.381969724,,,,
25.62399998,100,0,753.5247234,0,363.7922641,0,47.49224845,-132.8568451,162.5893199,-66.47135824,612.4792887,20.74419951,0,0,-48.09239666,64.24396668,65.91500183,,,,
25.63199998,100,0,147.8102815,0,127.0652118,0,-39.86848757,15.2638657,52.50483565,-376.2041894,706.7304026,96.85158682,0,0,304.9628851,-48.60054794,108.3825626,,,,
25.63999998,100,0,-366.4981019,0,-25.38074125,0,41.4242387,230.4884522,-34.43649475,256.6459929,346.742046,-2.875019063,0,0,-178.8926421,54.41160236,-26.70804653,,,,
25.64799998,100,0,231.1777079,0,147.5569718,0,-16.37939282,-11.24119066,62.96667908,-85.21329118,501.6492267,19.07850933,0,0,16.79494068,15.78491817,22.68288426,,,,
25.65599998,100,0,33.79932383,0,84.69498476,0,8.4664185,64.67540817,30.18364333,-12.72579243,532.5220623,40.48509492,0,0,66.05285325,-8.184431488,31.05789043,,,,
25.66399998,100,0,-151.6085293,0,32.35719011,0,31.80695633,135.2440758,-2.951307153,163.8319314,472.4419306,22.3192419,0,0,-46.2953191,16.63967871,6.413075597,,,,
25.67199998,100,0,124.7083375,0,99.82731418,0,-53.131467,-2.138115881,43.46363969,-78.11442953,441.4678187,-8.966318086,0,0,-50.45651787,27.65729555,1.068910368,,,,
25.67999998,100,0,-29.78265384,0,44.29321962,0,-13.85553708,45.90084149,3.200269676,-155.0848167,536.5882817,40.00315246,0,0,133.4120395,-29.09861516,32.17931259,,,,
25.68799998,100,0,-135.3944201,0,25.6410262,0,20.76050899,107.9031708,-8.915462144,181.9931481,381.563163,-12.16427954,0,0,-125.4326096,31.16287689,-24.79961964,,,,
25.69599998,100,0,188.3452894,0,97.1855689,0,-106.9985549,-63.3895785,49.44537161,-139.1345171,477.2841538,-5.894088494,0,0,22.10493871,1.524723187,9.492379554,,,,
25.70399998,100,0,-218.3093883,0,-33.10577049,0,-20.33696699,93.63666295,-31.62369879,-17.50376365,491.3317852,26.75637978,0,0,90.41335658,-39.03258731,9.548377349,,,,
25.71199998,100,0,19.21854942,0,31.99786959,0,-73.77746033,4.158996455,15.51485503,63.21379287,293.0857558,-61.9895917,0,0,-219.5693286,53.72514842,-55.75670779,,,,
25.71999998,100,0,56.35050989,0,0.985494378,0,-117.5185086,-65.93812286,1.727257727,-359.7943553,569.4268862,36.90659105,0,0,247.165283,-65.03326978,41.35314856,,,,
25.72799998,100,0,-285.6909703,0,-80.6663537,0,-2.754501975,111.950527,-47.86339394,194.4630872,285.0480107,-41.27588406,0,0,-173.9279348,24.32370592,-57.31682742,,,,
25.73599998,100,0,220.8703324,0,37.91614519,0,-173.4315311,-135.8504027,43.17779576,-278.6080707,413.205383,-39.33525197,0,0,9.784207861,-4.427415695,-12.13193206,,,,
25.74399998,100,0,-294.0032589,0,-145.1267956,0,-123.5623857,34.40295536,-59.69069484,-134.1879259,458.5094629,2.450970613,0,0,150.6732359,-68.55487428,-8.23589741,,,,
25.75199998,100,0,-21.94007046,0,-36.23773044,0,-86.89778601,-25.57139211,-2.385062597,128.6216824,208.3345958,-101.2668213,0,0,-269.1671364,51.93558744,-93.54707981,,,,
25.75999998,100,0,128.9620147,0,-2.875868158,0,-68.60432061,-104.1613251,-1.577091044,-362.9595078,588.4970446,29.28198749,0,0,296.3746377,-82.3757579,37.42841746,,,,
25.76799998,100,0,-313.3936436,0,-98.68886362,0,54.3053775,123.0528608,-66.92640986,378.478563,299.2399105,-52.68283275,0,0,-199.9274514,26.04958273,-72.61435786,,,,
25.77599998,100,0,278.1849,0,71.70489978,0,-85.80992484,-133.4249163,44.83352558,-142.0406491,459.3443127,-39.83048961,0,0,-2.574773787,-3.421195731,-14.57794551,,,,
25.78399998,100,0,-512.4258338,0,-173.0376299,0,25.65825481,161.2036103,-112.5178083,85.34404343,438.3846969,1.017099069,0,0,79.70053924,-63.10864479,-27.41143303,,,,
25.79199998,100,0,-244.3939133,0,-74.24262548,0,-49.65803439,66.24241403,-50.30930581,394.7384835,69.58682648,-149.7838174,0,0,-484.5701507,98.21297186,-148.4296713,,,,
25.79999998,100,0,760.8827656,0,172.321233,0,-307.4399634,-426.5589575,114.7524106,-950.6447104,742.1955732,30.41062222,0,0,525.6261814,-113.9453971,96.5056192,,,,
25.80799998,100,0,159.591267,0,4.512135731,0,-175.4164677,-162.961316,9.825959998,-464.7959798,610.3323454,21.67146725,0,0,339.5380727,-95.7658231,44.95784401,,,,
25.81599998,100,0,-13.58084397,0,-31.08850572,0,-114.0807149,-64.16904422,-18.5257146,-75.02128088,323.7041333,-66.61773015,0,0,-62.445958,-4.60332616,-54.42139146,,,,
25.82399998,100,0,-236.6667461,0,-99.67510508,0,-29.29472839,29.31140744,-68.23543826,30.57195213,369.0670417,-32.68492072,0,0,34.54972152,-46.59691047,-46.53152184,,,,
25.83199998,100,0,38.29090202,0,5.227617987,0,-23.90141093,-45.5727793,-9.341996636,114.4855707,316.0774514,-71.82714094,0,0,-147.3779092,19.9243839,-66.32977525,,,,
25.83999998,100,0,31.69722333,0,-12.58122992,0,-22.99971285,-55.64511833,-19.44308432,-271.6868915,527.1311405,12.82052303,0,0,224.5338844,-59.54199696,16.69718876,,,,
25.84799998,100,0,-221.839783,0,-41.23732051,0,134.8599279,130.319456,-42.72461898,338.6843148,295.6190617,-41.79854662,0,0,-158.1548771,35.42232428,-62.52955049,,,,
25.85599998,101,0,337.3438371,0,154.6579401,0,103.6138989,-52.49444915,70.15099968,29.51618951,518.8143831,9.375308044,0,0,54.41425852,20.83988676,29.54947566,,,,
25.86399998,101,0,-155.5541755,0,12.52561558,0,187.0115434,158.4161522,-30.89461655,156.8951434,562.2380053,56.6688628,0,0,133.9243717,-17.09963792,49.89742917,,,,
25.87199998,101,0,99.85988502,0,128.7724157,0,167.8853603,108.2581062,30.64728849,417.7612248,371.2395591,-27.17446683,0,0,-248.0390487,95.83068762,-10.81617072,,,,
25.87999998,101,0,219.4026029,0,148.8047082,0,132.1006734,30.33756044,31.15637643,-166.6346445,685.0604835,90.87065631,0,0,296.2070744,-23.14906537,117.59388,,,,
25.88799998,101,0,-213.0319539,0,53.23824276,0,246.1595621,250.3779634,-41.73727445,472.4519064,389.4818008,11.27240254,0,0,-187.4273839,74.23249094,6.984992781,,,,
25.89599998,101,0,369.1902336,0,226.7174423,0,81.12502867,-3.128029567,79.45786061,75.4187695,578.125622,30.7118382,0,0,0.080164616,49.16832199,72.67215322,,,,
25.90399998,101,0,-187.3874181,0,23.07519797,0,89.18746827,169.3775872,-35.82630996,37.46996753,563.0729144,63.663612,0,0,166.2019776,-21.16817353,74.3011247,,,,
25.91199998,101,0,16.82939416,0,93.58380908,0,36.83129355,102.5984224,22.08992286,308.6892447,274.483291,-52.36182179,0,0,-296.9456492,99.8230342,-24.51857962,,,,
25.91999998,101,0,170.633211,0,91.52302094,0,-51.23282687,-25.93741247,31.50348041,-398.6208117,635.3847203,67.5807413,0,0,315.7672212,-38.54763865,107.8521417,,,,
25.92799998,101,0,-303.3273898,0,-35.9268991,0,84.32042316,200.0383669,-55.33210314,239.1545844,269.8178217,-31.89457227,0,0,-180.7961666,56.76093608,-30.04100389,,,,
25.93599998,101,0,340.442177,0,162.3037399,0,-22.88870822,-58.85232544,77.15161956,-64.11721107,461.5933444,-10.59429647,0,0,-12.3745028,35.4365125,38.32663526,,,,
25.94399998,101,0,-204.4881121,0,-22.13150531,0,47.58310187,130.0160547,-45.13014766,13.57205231,547.5806403,49.29065933,0,0,183.6240909,-39.87500982,62.95109099,,,,
25.95199998,101,0,-6.205639946,0,58.99688479,0,30.6078392,78.34497264,9.373738688,315.1868031,226.0693565,-80.79470507,0,0,-320.9713691,89.97965915,-52.07883551,,,,
25.95999998,101,0,169.2228794,0,72.93229241,0,-62.83327725,-58.6637058,25.93532764,-395.8409441,594.3727992,44.27439497,0,0,312.4819551,-51.56593207,90.08420684,,,,
25.96799998,101,0,-336.5231028,0,-53.64233889,0,77.23609288,183.9201097,-70.09975278,327.1371253,256.251988,-44.09192503,0,0,-194.20359,45.54275791,-42.30417962,,,,
25.97599998,101,0,310.8368788,0,135.573366,0,-68.5463139,-84.92974306,68.2795654,-95.68441197,418.0529632,-35.78316265,0,0,-32.086329,28.72809768,17.39671024,,,,
25.98399998,101,0,-259.2961668,0,-83.59346184,0,-81.0845778,76.14707504,-57.46450969,-149.385882,470.8128336,18.91303187,0,0,190.4834685,-49.10140624,38.92051212,,,,
25.99199998,101,0,-68.4959763,0,-11.63382253,0,-91.24372601,21.0374933,-11.17897082,204.2494752,117.6195676,-113.3391071,0,0,-331.668869,77.95971143,-89.9145645,,,,
25.99999998,101,0,148.8409772,0,19.11153178,0,-147.5172379,-114.4864423,12.69048707,-436.5535329,524.657715,16.62185887,0,0,305.0382328,-65.55277123,54.67447021,,,,
26.00799998,101,0,-389.0531102,0,-124.4798266,0,-34.57941963,125.3556089,-86.71350307,280.1155597,213.548105,-69.00431826,0,0,-195.5683669,32.30762694,-74.0536719,,,,
26.01599998,101,0,262.3657845,0,68.24656418,0,-155.186184,-145.4641939,51.47792715,-175.5785569,318.0900472,-67.18267737,0,0,-40.69622538,13.01859688,-23.95611085,,,,
26.02399998,101,0,-258.4706935,0,-114.0105326,0,-77.76842984,33.22171222,-71.95643688,-168.9879399,410.6884695,-2.788381501,0,0,191.0928226,-69.38741697,6.472415762,,,,
26.03199998,101,0,-77.3191205,0,-28.07872535,0,-55.95273071,2.667949329,-26.35290493,225.7594126,140.2852838,-125.8899673,0,0,-341.4814049,64.41331652,-109.4730559,,,,
26.03999998,101,0,123.754847,0,-5.819915293,0,-140.8726187,-133.650805,3.037391329,-447.6538522,515.9766984,7.323722355,0,0,302.160221,-71.75601686,39.64978573,,,,
26.04799998,101,0,-412.1390519,0,-155.3351225,0,-22.72021814,106.8499615,-99.76626594,259.1347586,160.4557224,-79.75411333,0,0,-187.3337931,22.37501908,-94.47093711,,,,
26.05599998,101,0,252.0761431,0,40.9152796,0,-128.8612878,-161.8415954,37.02492548,-169.3702664,298.5989681,-81.83902155,0,0,-46.35112413,0.839431088,-50.88816571,,,,
26.06399998,101,0,-197.6356188,0,-143.9019783,0,-124.3212938,-52.69656253,-72.29248187,-440.0595304,533.4288359,23.03021974,0,0,432.5785652,-135.24002,30.12099422,,,,
26.07199998,101,0,-154.5204169,0,-100.6861767,0,-56.12848704,-24.98384779,-52.25411181,14.90753675,171.4148931,-122.8399966,0,0,-126.5091639,-5.366477079,-111.9637252,,,,
26.07999998,101,0,91.56275566,0,9.806049547,0,50.45303483,-56.08405173,3.704575076,-19.73452679,329.981001,-71.70868518,0,0,16.25384368,-25.46912835,-48.326832,,,,
26.08799998,101,0,-106.6922201,0,-8.418912645,0,187.1773701,88.79928107,-32.36475144,338.5600402,340.9760289,-39.50629214,0,0,-75.83325578,10.56706948,-33.36601107,,,,
26.09599998,101,0,198.4213582,0,104.0106424,0,173.4611936,-8.861142752,26.73997343,54.52183162,483.661967,-2.038777336,0,0,91.80884225,0.476426285,31.03324579,,,,
26.10399998,101,0,-116.7399775,0,46.17029937,0,273.7134542,169.7323764,-36.58921086,448.1959921,405.0070455,-0.230209272,0,0,-80.46276376,35.35373711,6.988667955,,,,
26.11199998,102,0,206.952208,0,154.2156622,0,151.6373498,39.51493846,37.49570407,234.2602448,451.8237537,-8.715340513,0,0,-67.101579,41.10900203,32.83223445,,,,
26.11999998,102,0,-60.0246945,0,48.34352026,0,116.8064351,109.2098674,-18.1967917,52.72593641,510.6108277,25.93221034,0,0,129.5037513,-20.21058148,63.52757148,,,,
26.12799998,102,0,-39.26982771,0,74.37836779,0,153.5498602,140.3331832,-15.44590263,389.334302,263.958129,-58.24134547,0,0,-265.9935841,74.55857846,-26.25892673,,,,
26.13599998,102,0,220.5961454,0,124.7989639,0,42.44202839,-10.74901671,29.21815686,-204.7834052,565.6445238,39.50687919,0,0,210.3307242,-21.76947562,90.65314043,,,,
26.14399998,102,0,-289.8715845,0,-25.72788618,0,105.4541854,199.4006058,-62.29174076,301.2851351,291.0373714,-16.7643249,0,0,-141.9469177,46.79096356,-3.146987188,,,,
26.15199998,102,0,277.0518919,0,144.5390863,0,17.07621692,-23.73872911,52.86715796,-14.60398403,363.0695466,-27.151293,0,0,-77.00920483,43.99089497,23.02562605,,,,
26.15999998,102,0,-149.8456877,0,-16.18662611,0,22.96236427,97.41571749,-41.10152898,-63.22022208,480.9210104,36.37789194,0,0,178.4156489,-40.12529527,62.36870483,,,,
26.16799998,102,0,-75.83598758,0,18.81277395,0,20.54445545,90.49678465,-21.20620326,329.1183612,142.8766368,-89.01861616,0,0,-329.4134857,79.38858821,-59.23401368,,,,
26.17599998,102,0,224.7734705,0,84.37548259,0,-21.95681903,-61.7102618,23.20131734,-304.086299,530.6332607,34.31444644,0,0,251.890474,-45.8597233,79.88091004,,,,
26.18399998,102,0,-341.5034143,0,-75.9545688,0,75.74663631,177.72946,-82.45985677,317.9961733,254.8615973,-30.04861259,0,0,-168.9873228,35.42978828,-26.35494734,,,,
26.19199998,102,0,264.7657789,0,92.30843783,0,-78.44445049,-82.09945652,42.10171717,-59.24081121,313.4458495,-47.1748831,0,0,-91.46425662,30.26650714,0.792247098,,,,
26.19999998,102,0,-214.4867239,0,-92.65615069,0,-70.50375917,54.77961359,-61.85916747,-148.3402188,418.424641,20.91382889,0,0,192.3442664,-59.42631022,40.37497456,,,,
26.20799998,102,0,-97.91754268,0,-37.8437682,0,-44.32766665,43.64388087,-32.62954803,238.011452,79.51392778,-111.6765058,0,0,-348.3581543,73.26040791,-85.4050102,,,,
26.21599998,102,0,199.5615379,0,28.4489507,0,-94.39480181,-107.3563933,9.710496554,-380.5159904,491.439909,24.18061792,0,0,265.6720426,-59.56346958,65.7808354,,,,
26.22399998,102,0,-422.0627867,0,-164.0089446,0,-56.18753613,122.7674372,-101.0574026,207.1898266,164.6277718,-53.45295022,0,0,-169.683998,22.31532463,-54.14172909,,,,
26.23199998,102,0,222.9171453,0,16.22320668,0,-170.6921734,-144.4984839,34.89498739,-238.4350399,206.8384689,-83.22747336,0,0,-86.7212749,11.16087073,-38.9380954,,,,
26.23999998,102,0,-193.3565298,0,-114.2121605,0,-25.68656219,31.9732096,-62.50077556,-152.0344758,374.3027206,6.32100336,0,0,202.1669565,-80.68029299,15.79778546,,,,
26.24799998,102,0,-115.6599223,0,-66.78832598,0,-46.72408575,24.26025748,-39.1804674,363.0549897,78.77342176,-115.8874659,0,0,-361.5083184,61.6869191,-98.9292164,,,,
26.25599998,102,0,161.4381921,0,-23.58478102,0,-145.1810167,-143.8599252,0.923095103,-431.1499278,454.8598578,0.925948848,0,0,266.8343088,-76.15522084,39.51791643,,,,
26.26399998,102,0,-395.1837217,0,-174.1995018,0,8.237769805,110.638119,-106.0558823,219.7910029,144.0285581,-70.97251401,0,0,-168.4255755,6.430592998,-76.67122665,,,,
26.27199998,102,0,209.7457114,0,-7.410531164,0,-172.8882492,-164.86756,23.52442271,-157.6903685,225.2426187,-92.24103356,0,0,-98.58491041,3.9837452,-50.13592698,,,,
26.27999998,102,0,-261.8134648,0,-193.1852959,0,-154.0360911,-24.85983573,-80.86135654,-348.9379523,320.3976808,-28.68243467,0,0,211.6853711,-95.36346319,-16.91291317,,,,
26.28799998,102,0,-133.4503614,0,-121.9782408,0,-80.53416046,-17.21439323,-54.43040938,249.9585768,5.879858647,-150.555188,0,0,-358.0507289,39.97115128,-141.6238422,,,,
26.29599998,102,0,177.0156794,0,-39.05392854,0,-108.9694807,-161.8479434,-8.432727216,-337.1588186,441.3857763,-12.83933309,0,0,258.0582065,-96.93286537,16.0028539,,,,
26.30399998,102,0,-418.3670056,0,-207.3329023,0,-21.4523299,88.69601799,-118.0891695,188.5098409,118.9986638,-86.71686976,0,0,-165.7982569,-8.864885672,-95.39970174,,,,
26.31199998,102,0,206.8110776,0,-24.96784335,0,-167.0435265,-180.8805109,12.28954885,-147.6409701,200.2303536,-99.88208939,0,0,-98.44497564,-4.520174631,-68.30211736,,,,
26.31999998,102,0,-216.4177876,0,-163.6484683,0,-53.9924733,-17.23432779,-89.34130665,-200.8356601,359.9269031,-13.56816008,0,0,212.0284933,-101.8323758,-15.03896349,,,,
26.32799998,102,0,-140.9252703,0,-111.6737332,0,-43.98015759,-10.59224082,-69.85304067,307.9909686,36.77452261,-139.2570156,0,0,-367.208373,39.3908066,-131.9939485,,,,
26.33599998,102,0,137.1414845,0,-64.61420189,0,-165.322223,-185.6049317,-24.17878866,-417.5761685,407.9717364,-18.20600482,0,0,258.6343729,-100.0378248,13.33326276,,,,
26.34399998,102,0,-415.1805155,0,-215.0831126,0,-19.07431064,72.87597207,-128.6650696,117.0824437,81.70215121,-92.26332158,0,0,-154.6518083,-21.41085764,-105.5633611,,,,
26.35199998,102,0,254.4660039,0,11.02378698,0,-65.07822113,-158.6976363,13.86995936,-105.7775186,209.3723193,-91.93191727,0,0,-108.2404134,-12.9547441,-65.43995964,,,,
26.35999998,102,0,-143.5530021,0,-94.09340462,0,101.7474093,37.35568981,-66.97286657,-58.75821305,415.883399,15.93296227,0,0,213.1229673,-97.77024505,15.23781731,,,,
26.36799998,103,0,-38.72112007,0,-5.020684984,0,171.6276011,81.67129787,-28.6363146,498.3490201,126.0143355,-89.84344716,0,0,-363.7147252,60.1951425,-81.81203761,,,,
26.37599998,103,0,279.8465405,0,79.44259257,0,89.11467254,-64.43950362,33.4388353,-218.9209712,548.2969865,51.1989694,0,0,260.7428242,-64.65181481,83.30132402,,,,
26.38399998,103,0,-261.0269786,0,-47.74766038,0,260.6226034,222.9591266,-67.12856415,424.9101504,266.6492683,-0.195877,0,0,-145.1042584,25.30484151,-13.70805549,,,,
26.39199998,103,0,385.1369313,0,171.3091737,0,151.1299789,-13.64164379,67.57997873,214.1311754,384.0332909,-0.668546116,0,0,-114.0348874,37.70483585,33.45793013,,,,
26.39999998,103,0,-74.27941567,0,13.12841389,0,162.8323959,137.6141085,-28.71864792,12.52606361,543.8610088,82.06574574,0,0,213.5712946,-59.48141177,97.18837661,,,,
26.40799998,103,0,-10.19027067,0,61.31307159,0,174.2155826,154.9233958,-9.061186008,479.3654274,186.6087673,-49.47415442,0,0,-369.0717528,88.58982241,-29.37856394,,,,
26.41599998,103,0,297.7165656,0,121.9323682,0,53.33208348,-24.73176497,40.33882879,-204.6291615,567.2116954,71.69754259,0,0,247.0182951,-46.66278952,119.865553,,,,
26.42399998,103,0,-303.3412659,0,-52.14304097,0,141.6934062,229.1396889,-69.55414867,317.3890001,257.5721963,2.219693414,0,0,-154.6862715,30.57063292,4.882858778,,,,
26.43199998,103,0,330.5340313,0,144.2001951,0,24.99739692,-22.43438493,66.52392307,25.92135788,323.5415545,-12.45667245,0,0,-127.4418871,38.96053252,29.83299619,,,,
26.43999998,103,0,-87.75015736,0,-5.473964082,0,89.56322295,122.5710734,-27.27856123,-134.2584614,476.1679366,72.02570711,0,0,214.7319928,-63.16619407,93.23378456,,,,
26.44799998,103,0,-36.94045299,0,36.89334297,0,111.7677563,137.8955903,-10.26565734,369.8345288,140.4035767,-59.26996679,0,0,-375.7141672,82.68124399,-34.51620565,,,,
26.45599998,103,0,256.795089,0,78.77790409,0,-41.47713371,-60.16758032,42.07077009,-308.0709333,508.7465917,53.92897377,0,0,243.7973692,-57.27458733,105.9675384,,,,
26.46399998,103,0,-334.7012601,0,-98.0888672,0,71.9139049,191.0304404,-70.25142756,235.8283718,191.4291527,-15.46285932,0,0,-143.2249524,16.75332475,-11.36947136,,,,
26.47199998,103,0,304.932644,0,104.6553916,0,-26.9647503,-60.28924657,63.45862162,-15.87557908,278.157281,-29.52609358,0,0,-128.9677137,30.70760578,11.90472125,,,,
26.47999998,103,0,-126.9036575,0,-59.60492096,0,-7.431722041,65.8356308,-31.74613239,-150.1793969,426.2078583,52.50238738,0,0,223.0897955,-73.20507259,69.70435026,,,,
26.48799998,103,0,-71.10931617,0,-18.49678609,0,27.17958241,83.45732857,-16.84981476,342.4332333,78.45976163,-83.71648437,0,0,-372.3427739,72.36075437,-65.65845537,,,,
26.49599998,103,0,258.9974113,0,54.46471109,0,-67.97987494,-97.98894838,41.76629871,-356.7075947,481.210249,37.82782643,0,0,243.0383764,-63.78987095,85.57393377,,,,
26.50399998,103,0,-351.7523712,0,-117.3841452,0,46.58317881,160.0179052,-73.4350057,215.4224242,166.1253404,-21.50983193,0,0,-136.59271,11.43452129,-21.17108803,,,,
26.51199998,103,0,271.4330225,0,68.16676443,0,-94.46253207,-104.7227778,57.06899673,-68.25144387,218.3688337,-49.61914013,0,0,-128.0031206,22.907694,-6.218471225,,,,
26.51999998,103,0,-147.4872709,0,-93.57887481,0,-68.1086617,24.41114742,-33.77170001,-225.2095416,383.4101084,35.05170533,0,0,239.6811933,-87.08988115,54.4293065,,,,
26.52799998,103,0,-95.16588432,0,-37.90457907,0,1.866197871,61.56464201,-18.78115586,334.2446461,47.271184,-84.66682206,0,0,-363.4243542,62.84349547,-78.64532823,,,,
26.53599998,103,0,256.5532438,0,48.24645884,0,-85.01646958,-125.8215992,41.38300794,-344.2560044,461.1020381,43.04009812,0,0,249.1271541,-68.74570964,70.27250274,,,,
26.54399998,103,0,-363.2869995,0,-130.2313864,0,25.05372347,131.7074501,-77.80797424,200.8349434,156.1800227,-16.76429455,0,0,-124.4237036,8.846903275,-39.49018395,,,,
26.55199998,103,0,268.5772954,0,61.66091151,0,-100.854245,-127.6824066,55.22982592,-138.4924839,184.3218994,-56.68938695,0,0,-127.1836422,23.5131729,-34.88148533,,,,
26.55999998,103,0,-122.3316151,0,-74.42414079,0,-33.77629818,6.871096005,-30.42449064,-197.6553007,394.6273188,36.78396716,0,0,253.5772346,-87.24087241,38.08183386,,,,
26.56799998,103,0,-116.4737114,0,-38.19829796,0,-0.154590031,39.4626053,-21.97824886,406.9451999,51.77087304,-84.47168214,0,0,-354.4924381,65.94981298,-88.09645294,,,,
26.57599998,103,0,208.3650977,0,3.640604328,0,-190.1369206,-184.1331094,37.81353138,-515.1445469,372.933797,9.777924793,0,0,268.1229795,-80.40710989,42.24075516,,,,
26.58399998,103,0,-394.1642347,0,-174.176349,0,-53.42940291,73.59179152,-82.99019299,62.21200095,75.02770972,-49.1257887,0,0,-92.60382406,-17.05594525,-71.54841365,,,,
26.59199998,103,0,266.6842424,0,52.88818988,0,-88.46281368,-162.4814296,51.36762305,-77.3540587,157.900605,-63.05067319,0,0,-116.591657,8.477716377,-51.87956554,,,,
26.59999998,103,0,-139.1497827,0,-93.42969265,0,-56.26123994,-34.97441822,-33.83428108,-205.2293505,370.6217135,36.95981775,0,0,273.1800522,-102.4300396,29.317632,,,,
26.60799998,103,0,-149.1488827,0,-66.71386578,0,-29.52137155,5.327620979,-30.97799877,359.6729208,3.655873802,-89.80276574,0,0,-345.7487197,49.78738996,-104.8787408,,,,
26.61599998,103,0,462.3797738,0,70.97224888,0,-213.0920921,-316.1288867,82.3099346,-961.3481191,593.6406926,77.3250078,0,0,626.3766921,-168.8950903,122.436141,,,,
26.62399998,104,0,-152.754582,0,-124.4763024,0,-117.6948576,-73.9080443,-39.77207468,-707.6246074,554.152241,104.5533482,0,0,645.8403864,-194.2295395,110.1084588,,,,
26.63199998,104,0,188.1232031,0,12.90542788,0,-125.0175595,-166.4142827,34.46366229,-354.9393721,322.268256,2.778403852,0,0,170.3976926,-66.75017348,20.76860478,,,,
26.63999998,104,0,-77.14239075,0,-82.26709654,0,-99.14548863,-76.04046966,-18.94901194,-432.1916513,356.368822,36.57332847,0,0,316.4062477,-109.3436325,38.141491,,,,
26.64799998,104,0,-255.7756534,0,-95.48012562,0,4.522369852,55.84740699,-43.72013193,402.8521331,-75.62646538,-92.3969524,0,0,-392.890853,63.33175133,-126.5183331,,,,
26.65599998,104,0,299.255165,0,63.53745205,0,-95.56142466,-192.515805,64.31398413,-256.8794782,306.2062333,9.148685831,0,0,138.8418722,-48.84322131,14.78076695,,,,
26.66399998,104,0,-292.2752361,0,-131.0954625,0,-34.38236806,28.07154262,-57.00588199,-33.27713665,235.4317755,15.94172951,0,0,112.2725113,-63.132146,-7.36369408,,,,
26.67199998,104,0,-7.188821081,0,-30.00884339,0,-89.20692133,-71.20434945,3.068290249,217.210598,-13.20193586,-91.97779466,0,0,-336.6260565,58.64258447,-104.1945985,,,,
26.67999998,104,0,95.14563119,0,-37.4538404,0,-169.0081852,-176.9882384,13.44459343,-491.4735026,364.5740931,40.16306798,0,0,333.7175175,-97.82122357,41.04067253,,,,
26.68799998,104,0,-361.541458,0,-160.3013814,0,-47.80543805,33.76400401,-74.55752109,196.7940041,-10.40600351,-53.54563981,0,0,-190.3533307,15.29898209,-97.02862128,,,,
26.69599998,104,0,240.951607,0,28.77895367,0,-104.4537385,-198.3032197,56.80899387,-155.6701409,137.6234507,-34.06582354,0,0,-27.87275508,-7.310324586,-45.31710703,,,,
26.70399998,104,0,-130.9317733,0,-69.70365562,0,58.67340736,-10.10020363,-16.85848046,-120.4855593,296.2048802,48.86434543,0,0,234.6801886,-78.28078587,16.25973268,,,,
26.71199998,104,0,12.39850118,0,52.33006623,0,218.2914667,56.3597409,19.02199672,510.1548402,65.6939957,-39.11835527,0,0,-323.1311011,76.79357522,-72.87207922,,,,
26.71999998,104,0,333.3448668,0,161.596264,0,186.7673014,-61.36764541,88.05298533,-84.45633778,498.4330806,107.6487005,0,0,287.5222313,-41.88860325,104.5870891,,,,
26.72799998,104,0,-239.4824037,0,14.4350325,0,278.3164019,205.2358964,-24.43735273,514.5950668,225.9184828,60.09201855,0,0,-102.0387186,41.95807049,16.51829689,,,,
26.73599998,104,0,323.0407461,0,182.5440724,0,99.39702278,-32.33374678,94.05924511,158.8212909,278.8277324,30.76792211,0,0,-105.2181849,51.55942996,28.10651874,,,,
26.74399998,104,0,-47.61876329,0,34.5154478,0,104.4778544,84.51767816,16.69147491,-113.0316566,418.2784129,104.5206515,0,0,268.2632352,-56.28452691,89.11134087,,,,
26.75199998,104,0,-47.33697367,0,65.20471259,0,157.7819033,134.9937192,13.50788632,525.5934485,74.33931703,-11.18304219,0,0,-336.373418,89.53948491,-38.37164087,,,,
26.75999998,104,0,312.6520317,0,146.908335,0,30.75913407,-61.29876654,80.11512751,-179.6597227,469.5579817,100.0095949,0,0,251.1864826,-41.26134197,107.9502968,,,,
26.76799998,104,0,-303.5913046,0,-42.31535224,0,137.7468535,194.1013183,-45.41654492,252.6202379,170.6883641,39.61558931,0,0,-76.9664282,19.24353698,6.477058474,,,,
26.77599998,104,0,289.8293679,0,141.6472504,0,29.39805984,-46.5811676,80.41762672,90.43977669,201.0790197,10.56392711,0,0,-141.714272,51.15430952,12.0924421,,,,
26.78399998,104,0,-79.00912494,0,-8.41170935,0,30.12050066,45.22389513,2.58186558,-165.1200856,403.1499942,97.70811753,0,0,276.9021703,-63.88694196,89.77721316,,,,
26.79199998,104,0,-145.893602,0,-27.58168395,0,19.57106332,75.02027861,-14.380983,284.7823605,-17.08673705,-52.45418703,0,0,-341.7638999,75.8996063,-65.12847586,,,,
26.79999998,104,0,248.277627,0,48.07608297,0,-118.7414736,-149.9698785,59.8309512,-432.0385379,341.3743413,47.58891834,0,0,244.2207913,-55.28677574,68.14717892,,,,
26.80799998,104,0,-358.4041078,0,-128.4558384,0,49.8630885,118.0700429,-70.135649,133.4164612,83.72584264,4.887607896,0,0,-62.5373683,3.600255145,-27.03056959,,,,
26.81599998,104,0,288.3476414,0,104.3364953,0,40.10513846,-95.46518289,57.99514248,95.01194745,145.0476154,-15.94893735,0,0,-156.3311422,40.86678507,-21.05676967,,,,
26.82399998,104,0,-56.04194095,0,-11.11842042,0,79.03001375,16.12395734,-12.3196624,-52.03397057,423.6528807,94.62198353,0,0,273.7853343,-73.77432903,82.75689561,,,,
26.83199998,104,0,-157.5892007,0,-32.02674467,0,51.82189516,66.0568576,-29.35087011,420.5409409,2.601331733,-51.17710941,0,0,-356.8301056,75.32090596,-64.19014654,,,,
26.83999998,104,0,279.5075817,0,75.25714767,0,-50.94862704,-142.6011925,56.18674899,-338.1300426,349.2039185,52.47276589,0,0,229.7737666,-50.87197352,70.35623318,,,,
26.84799998,104,0,-363.2416482,0,-113.5624582,0,73.24347721,127.5723691,-75.69055209,177.8519033,109.2230407,16.0897003,0,0,-66.34729945,6.84136299,-13.69740799,,,,
26.85599998,104,0,224.3396196,0,66.05006775,0,-54.49398257,-116.6436518,43.89054975,-2.224301288,103.1448326,-29.62815759,0,0,-176.2662663,43.23139021,-25.67314922,,,,
26.86399998,104,0,-74.2134178,0,-42.01845884,0,14.89043197,-12.43368719,-21.22298109,-203.1778416,337.5571515,72.58118162,0,0,273.9012553,-79.97414537,65.68651815,,,,
26.87199998,104,0,-168.3752491,0,-46.88093631,0,44.6420939,58.02298501,-37.41045439,352.5904711,-61.19666559,-65.980999,0,0,-363.6448314,72.42244924,-74.69794229,,,,
26.87999998,105,0,241.3786219,0,39.78690003,0,-116.2778663,-170.0333105,47.6011343,-408.6451701,319.0285253,33.20411955,0,0,215.44085,-49.46828071,60.42223266,,,,
26.88799998,105,0,-398.7784467,0,-158.1096828,0,2.734360731,89.20523855,-83.67016841,120.312961,71.51638609,-9.163981271,0,0,-55.76715142,-0.571796408,-30.00296606,,,,
26.89599998,105,0,180.9593671,0,16.12944107,0,-127.1795945,-153.7400436,36.59818062,-63.31939507,29.25955697,-61.66256204,0,0,-171.9934994,35.41818312,-48.16620852,,,,
26.90399998,105,0,-120.4373377,0,-103.7512876,0,-92.87931833,-63.49891071,-26.42247228,-336.1923016,278.8817734,41.23795274,0,0,290.5949078,-88.67657454,39.90485266,,,,
26.91199998,105,0,-172.6206107,0,-78.50213904,0,26.79324993,28.01519349,-43.44330164,369.6722124,-83.17724117,-82.16279924,0,0,-347.3998716,63.57694487,-101.4273752,,,,
26.91999998,105,0,263.5449181,0,39.67115501,0,-79.6456179,-182.5992068,44.63703188,-308.4197394,315.7075221,32.75668297,0,0,217.9147491,-52.31294103,45.88723548,,,,
26.92799998,105,0,-403.3059014,0,-167.3965425,0,5.330956338,75.91387477,-86.23027805,117.7211315,69.46551041,-9.69796184,0,0,-40.45474732,-2.923996389,-37.20941801,,,,
26.93599998,105,0,198.0305341,0,25.82874528,0,-82.14200149,-151.9905181,37.20099841,-20.18633234,34.25899918,-60.30705472,0,0,-164.3948619,38.35198064,-57.31593548,,,,
26.94399998,105,0,-90.49996092,0,-80.28064829,0,-49.22738535,-61.44866601,-24.062821,-270.5489112,303.9005717,54.52455993,0,0,307.4467968,-82.50625221,44.04716936,,,,
26.95199998,105,0,-194.9442109,0,-86.65015285,0,-7.190482734,14.97149033,-50.94224441,402.4966046,-73.70828325,-73.88773867,0,0,-328.7388873,65.67561995,-95.41724993,,,,
26.95999998,105,0,256.132453,0,26.65914459,0,-123.1760574,-205.0347338,43.71162192,-352.0286564,279.5189058,23.82362006,0,0,233.9757108,-54.42273714,37.83847683,,,,
26.96799998,105,0,-386.0359843,0,-160.5631202,0,10.65872198,71.75094086,-80.29002672,91.15753195,57.93843294,-9.794724912,0,0,-14.72700221,-3.754027987,-38.46453231,,,,
26.97599998,105,0,200.1583558,0,35.17366302,0,-60.88344459,-138.9258804,45.55064518,40.16659856,54.20927805,-47.67045071,0,0,-154.3122471,45.95995608,-49.35706164,,,,
26.98399998,105,0,-62.37243103,0,-59.64467989,0,10.69800644,-38.46864555,5.397934929,-264.500415,300.2448582,65.48116935,0,0,337.4666827,-71.8883213,56.60876858,,,,
26.99199998,105,0,-112.3492166,0,-12.83284716,0,189.0319943,88.75034314,-5.940911432,509.9661661,-26.14790506,-40.79427419,0,0,-293.7623611,87.71250412,-62.41626351,,,,
26.99999998,105,0,361.0772347,0,133.3428611,0,113.5520003,-103.8897931,98.53682677,-142.6081185,398.8842464,84.71530969,0,0,257.3828062,-13.10547187,98.95871792,,,,
27.00799998,105,0,-291.2141786,0,-59.34664364,0,208.3575601,171.8010942,-21.94894499,254.4256489,159.6608157,54.5130592,0,0,31.43847238,44.19530244,37.46786974,,,,
27.01599998,105,0,320.6424007,0,163.3097534,0,170.5284118,-22.02433461,93.87180638,264.7809183,162.7793276,19.15210188,0,0,-124.7980565,95.16039435,28.60022258,,,,
27.02399998,105,0,110.9636716,0,70.58344373,0,124.2551288,6.568288339,56.58391544,-437.9446408,677.3743657,213.2825549,0,0,730.2220074,-118.1575802,221.3380932,,,,
27.03199998,105,0,-289.8250545,0,-37.39009698,0,134.8580157,178.2599478,-23.62077113,278.125252,182.0956345,63.60062108,0,0,16.70999341,42.10765729,48.57929548,,,,
27.03999998,105,0,-164.6641063,0,7.288895531,0,87.84175142,129.5064324,1.648215859,498.078952,-18.32428918,-18.34247876,0,0,-335.9301121,130.9252733,-27.27583945,,,,
27.04799998,105,0,-282.9254853,0,-38.48856189,0,119.1926268,168.7323717,-22.06714818,306.3189035,111.7803093,39.37818857,0,0,-79.80198106,63.37989835,22.99123578,,,,
27.05599998,105,0,452.6787093,0,188.1187539,0,28.1108509,-115.0195291,114.8645171,-199.0262479,312.7903838,68.99602691,0,0,158.9605373,14.04201985,88.32716809,,,,
27.06399998,105,0,-153.3085267,0,-1.19845969,0,101.5603963,119.5306962,-1.183806302,100.7216003,222.8640253,68.87624665,0,0,75.31362658,18.87733739,61.662079,,,,
27.07199998,105,0,-66.33941676,0,20.83280231,0,42.25167031,77.93955885,15.47826335,281.3865853,65.81971795,-1.131434439,0,0,-189.846532,76.97211184,3.306050079,,,,
27.07999998,105,0,288.9835149,0,77.36017518,0,-121.8129249,-135.4726804,83.74448374,-380.113989,295.7191932,60.31403593,0,0,257.4539159,-30.39334652,87.80855504,,,,
27.08799998,105,0,-387.9998287,0,-131.3507169,0,27.10696678,147.1185165,-51.54576137,189.4557808,-3.915823594,3.728193884,0,0,-83.82425253,33.51853799,-18.57559006,,,,
27.09599998,105,0,309.0834826,0,96.24051592,0,-32.66638945,-107.5758255,81.57350547,-21.46746196,127.4625249,9.270552351,0,0,-43.73834244,37.28401091,14.73402911,,,,
27.10399998,105,0,-76.62475101,0,-38.03800281,0,-2.000094639,19.53680317,8.099102929,-126.2887769,265.6008082,81.79995705,0,0,242.1077946,-40.51851923,70.08718867,,,,
27.11199998,105,0,-97.92618564,0,-5.137036772,0,113.7916312,93.26664387,-6.513856533,399.7796859,-21.39182101,-23.43625587,0,0,-265.9079898,75.59354273,-40.56113042,,,,
27.11999998,105,0,346.9719406,0,124.0512077,0,22.89336108,-106.8669107,79.24083202,-148.9205903,346.9081816,81.26263099,0,0,215.2947635,-26.5406053,93.58859844,,,,
27.12799998,105,0,-356.2449847,0,-104.6494059,0,59.5977678,146.9061661,-51.35479859,183.775291,80.66449139,35.66810368,0,0,-19.21037432,20.53596592,16.16559345,,,,
27.13599998,106,0,233.4827564,0,71.3654367,0,-50.43064016,-94.43450153,60.67921266,-35.06591852,31.84199709,-14.74970503,0,0,-117.4983161,55.76568958,-3.854408211,,,,
27.14399998,106,0,-87.22158209,0,-60.28197071,0,-80.07190894,-31.83774926,-1.517486589,-245.2453159,250.113493,81.46782896,0,0,309.066377,-57.78103927,80.21649909,,,,
27.15199998,106,0,-218.9814501,0,-98.17279878,0,-66.41687218,29.45601136,-31.64355744,189.9283345,-155.7867118,-71.15354456,0,0,-264.0532442,67.11873994,-75.00546603,,,,
27.15999998,106,0,288.9475538,0,38.48370206,0,-131.4851403,-189.2289926,62.78517718,-406.3721109,198.2574563,25.27457998,0,0,233.0609484,-41.52557895,40.59225468,,,,
27.16799998,106,0,-350.1605278,0,-133.6503803,0,29.22794956,90.49672411,-62.85480078,220.8297835,70.04939294,26.23571887,0,0,27.31823975,-2.337483772,-7.954026599,,,,
27.17599998,106,0,185.9537725,0,35.23064197,0,-87.49296573,-129.6969,43.49757444,34.39316451,-5.019312859,-43.80318869,0,0,-147.1503745,48.39014376,-43.44111898,,,,
27.18399998,106,0,-56.3446745,0,-68.13720977,0,-82.57221127,-72.73508026,-1.192650074,-342.0581173,221.7399133,55.54546439,0,0,337.4068143,-79.12912568,43.96555769,,,,
27.19199998,106,0,-174.6540081,0,-63.30740094,0,45.37748131,45.66046498,-29.98583551,398.0188094,-121.0930901,-63.61514049,0,0,-283.0997343,62.64104788,-89.95638108,,,,
27.19999998,106,0,308.7901253,0,69.31973746,0,-70.29758603,-178.7423663,64.22495305,-233.4862974,254.8352964,39.68206911,0,0,210.598745,-36.7727289,44.81953592,,,,
27.20799998,106,0,-363.6438992,0,-137.045221,0,9.188937557,80.23480798,-65.71020914,142.6112324,51.21034176,17.87713539,0,0,30.71817784,-3.463406144,-16.47278024,,,,
27.21599998,106,0,173.547548,0,28.686785,0,-99.28927919,-128.78179,38.40110001,-12.3772473,-53.60032484,-56.55578971,0,0,-166.1050449,48.39591699,-61.47824644,,,,
27.22399998,106,0,-46.30202835,0,-65.22345271,0,-97.91781498,-78.24299798,-2.060330796,-336.1795356,224.1460202,58.43497623,0,0,340.9767581,-85.06592866,43.15615314,,,,
27.23199998,106,0,-201.4202931,0,-70.34010318,0,11.16610375,42.31506302,-34.99430356,402.7425368,-134.7523235,-65.49950122,0,0,-285.1133672,58.71007269,-92.19346556,,,,
27.23999998,106,0,278.7388372,0,51.17268791,0,-134.8145568,-195.855812,57.07089414,-347.1013818,195.9550185,21.27567396,0,0,213.5926358,-46.18383382,30.1748509,,,,
27.24799998,106,0,-392.0592193,0,-164.2948423,0,-59.90998131,55.62687827,-75.72628988,34.1886649,-14.82044625,-6.882911269,0,0,49.68849618,-22.16439849,-35.4387935,,,,
27.25599998,106,0,170.6090902,0,34.199908,0,-88.56828608,-131.8669923,33.4186923,71.23345245,-82.51757691,-65.3997625,0,0,-165.9467007,39.95643813,-72.77072798,,,,
27.26399998,106,0,-49.58372217,0,-57.49059451,0,-95.00216966,-86.95996321,-8.73791047,-324.0780122,218.0006804,54.70555199,0,0,346.3188295,-89.18466321,40.87391374,,,,
27.27199998,106,0,-255.4172117,0,-99.25750256,0,-39.37173895,22.14136145,-54.12904439,321.5283428,-181.129435,-88.21375977,0,0,-285.7143948,50.37284566,-106.4160766,,,,
27.27999998,106,0,270.1342347,0,47.46607213,0,-123.5574655,-210.1670426,46.61337342,-324.4592355,144.6620743,2.30971578,0,0,202.5637414,-54.04416874,11.73772713,,,,
27.28799998,106,0,-373.9561949,0,-145.9999554,0,1.699968691,56.17279943,-79.44368479,73.02989084,-14.24114001,-10.51879323,0,0,40.76617213,-29.10404643,-41.22012166,,,,
27.29599998,106,0,160.4037946,0,44.28790679,0,-40.99434959,-117.2062597,30.1256235,113.0472571,-65.51740773,-64.55847941,0,0,-184.4909605,40.5468066,-72.64143151,,,,
27.30399998,106,0,-16.55212194,0,-27.89597914,0,-11.37924184,-60.32509307,2.44831717,-309.484789,209.1481243,59.67701048,0,0,354.9002177,-83.98838534,42.98925985,,,,
27.31199998,106,0,-162.6857082,0,-20.14972662,0,151.8626743,90.77483409,-25.81796199,457.0807915,-145.0988032,-56.60635447,0,0,-273.4170639,66.23612046,-87.67220646,,,,
27.31999998,106,0,379.7199383,0,167.4806232,0,108.2561887,-105.0790166,86.56650374,-14.1634156,277.0416144,73.61105275,0,0,203.276182,-16.9809676,64.05026444,,,,
27.32799998,106,0,-272.5705089,0,-20.14220128,0,205.4159598,170.746749,-45.15881868,248.7261059,102.3010957,62.1714844,0,0,59.17522801,14.89804596,23.49196014,,,,
27.33599998,106,0,258.9819947,0,168.0152677,0,129.1486387,-7.732544745,51.91500051,262.1925925,14.33291403,-2.690574584,0,0,-187.1735422,84.03457574,-10.51010583,,,,
27.34399998,106,0,50.7177973,0,86.85604443,0,97.34826251,31.97918709,13.73800676,-34.70959484,338.5327406,133.7419221,0,0,337.5549094,-45.42385589,115.9167832,,,,
27.35199998,106,0,-179.2500391,0,32.04599403,0,123.3087007,143.5321538,-33.17721447,500.4546021,-95.67176989,-10.66979447,0,0,-289.8699912,94.66324202,-31.5525164,,,,
27.35999998,106,0,352.0437533,0,164.1990474,0,-18.24030013,-107.8042076,71.25525118,-221.7562562,208.0057437,73.86952194,0,0,192.701054,-4.101688134,86.01231805,,,,
27.36799998,106,0,-289.8341466,0,-27.12229599,0,119.5000362,159.0043394,-57.66731517,245.6729876,82.81394537,70.8349699,0,0,57.85618853,14.47001589,40.91323787,,,,
27.37599998,106,0,190.2422543,0,121.6896573,0,-6.61970064,-37.84667137,41.74342805,185.1239141,-39.79954492,-7.361326239,0,0,-191.8601147,83.21015834,-5.232313695,,,,
27.38399998,106,0,-7.347085534,0,8.197945557,0,-76.06263726,-27.33307216,5.732720885,-373.4342108,207.8703895,98.02551988,0,0,360.9196742,-56.13666852,96.44740567,,,,
27.39199998,107,0,-205.8077449,0,-27.31914125,0,39.53435155,105.3216942,-42.34367783,365.8206457,-175.6140333,-39.58197114,0,0,-270.3221096,77.86772393,-59.54856676,,,,
27.39999998,107,0,319.268093,0,106.7762873,0,-105.0957942,-148.8927826,63.59818326,-270.3171461,158.3644245,45.91830985,0,0,197.1409406,-17.88673485,55.90515589,,,,
27.40799998,107,0,-333.360307,0,-93.45923969,0,18.40576377,110.4873709,-66.42158687,130.760967,19.06134303,37.6145769,0,0,77.36666615,-4.309288008,7.321522858,,,,
27.41599998,107,0,163.5971171,0,73.41366006,0,-47.72452457,-70.85992673,35.08084279,150.6727138,-95.42394352,-38.7183713,0,0,-185.2540153,69.94133555,-39.63822495,,,,
27.42399998,107,0,-214.8971448,0,-106.0405377,0,-99.31077641,-14.64920848,-35.67741558,-468.3591205,203.2460671,92.17751293,0,0,491.6155193,-97.83193958,81.60259832,,,,
27.43199998,107,0,-916.8784553,0,-309.7748089,0,44.35202174,285.2305013,-179.2425448,519.9276178,-393.9372224,-90.08721558,0,0,-327.3899901,65.83463398,-140.8840924,,,,
27.43999998,107,0,-247.1853756,0,-101.2173844,0,-82.9660709,17.99309286,-41.32112824,154.0578062,-263.8333348,-83.48074477,0,0,-238.0849423,61.74521894,-95.37867033,,,,
27.44799998,107,0,-613.1706812,0,-223.0344929,0,-19.80593738,154.1132169,-114.3352591,58.33691053,-114.0963217,-2.321836796,0,0,54.53162522,-13.78790917,-35.07452217,,,,
27.45599998,107,0,-156.5099996,0,-70.31321483,0,-81.11591163,-12.18841744,-22.47940487,186.8320861,-270.8884785,-93.18098167,0,0,-276.8704776,68.90479434,-105.032882,,,,
27.46399998,107,0,326.2581887,0,46.49440733,0,-233.0257467,-259.8379065,79.12880786,-510.3120649,111.6155409,17.83052974,0,0,305.3873357,-54.07015962,31.81502559,,,,
27.47199998,107,0,-392.2225145,0,-180.7122768,0,-120.6211468,16.99319928,-69.16786645,-16.10759534,-120.36357,-25.62993711,0,0,92.52388535,-26.18458867,-47.95372095,,,,
27.47999998,107,0,53.4064217,0,-21.3309665,0,-120.8314375,-122.1237376,15.18823021,33.87904051,-205.4483545,-98.07923637,0,0,-152.8196054,35.50629212,-96.51174734,,,,
27.48799998,107,0,168.1595204,0,23.83193585,0,-60.28136228,-153.8290354,37.61190756,-242.6197569,156.188547,28.23671751,0,0,307.3043078,-62.38375058,26.21312178,,,,
27.49599998,107,0,-298.392699,0,-102.4190095,0,28.47768605,49.98337147,-55.65840068,302.3963828,-99.02599668,-27.20403643,0,0,-57.88368529,18.83294706,-56.17942827,,,,
27.50399998,107,0,215.5856142,0,47.24152161,0,-100.3570423,-165.5586749,50.94689966,-107.2696324,-39.96512878,-41.04985339,0,0,2.939183545,15.89182156,-35.95014497,,,,
27.51199998,107,0,-94.30074776,0,-61.05188144,0,-52.67347362,-57.06722767,-11.11656992,-209.2386035,93.90262472,25.5348458,0,0,286.6735524,-63.338351,17.76868434,,,,
27.51999998,107,0,-139.3297769,0,-46.82542429,0,-11.19587032,-0.480956844,-20.09582534,306.7481721,-172.9926567,-71.85285571,0,0,-193.7019611,43.53731873,-82.82721657,,,,
27.52799998,107,0,240.4606077,0,47.64959772,0,-127.6822294,-186.3853351,63.29133746,-304.495296,110.1109498,5.21961703,0,0,233.1436583,-43.30269256,20.53402102,,,,
27.53599998,107,0,-336.1724545,0,-141.6968469,0,-44.68763497,31.8354928,-55.87430445,12.10308438,-83.61841471,-28.26190542,0,0,78.53965445,-22.28469317,-39.38842241,,,,
27.54399998,107,0,134.701615,0,15.0353943,0,-101.8230387,-135.8322789,37.33491054,39.45389364,-135.8161077,-80.02241165,0,0,-109.9602451,32.6607948,-72.01758995,,,,
27.55199998,107,0,-15.05499945,0,-45.3013404,0,-72.01412549,-91.23668875,6.508351051,-301.1874588,138.2033354,29.18198535,0,0,364.9002382,-78.88712367,29.45554109,,,,
27.55999998,107,0,-202.4858071,0,-71.41403943,0,28.5063307,35.05273157,-40.3322447,337.7832825,-208.3466259,-89.53651764,0,0,-202.4857281,43.332336,-99.36937278,,,,
27.56799998,107,0,277.8290786,0,58.16953194,0,-121.2065338,-199.2311117,62.96934057,-232.0075399,105.6598878,-10.91526507,0,0,207.3322386,-38.47493011,11.95530507,,,,
27.57599998,107,0,-353.0140242,0,-148.3379396,0,-51.49602256,32.64857993,-61.66973587,-32.8542189,-46.44131858,-26.84856109,0,0,130.6829353,-34.06361658,-32.68559145,,,,
27.58399998,107,0,142.0972698,0,25.86298403,0,-55.6005146,-116.215103,37.98186017,43.41558458,-177.7090293,-95.32344843,0,0,-140.2690318,45.32427867,-88.60206525,,,,
27.59199998,107,0,64.86314132,0,2.441432674,0,27.97816965,-76.68209965,29.30659215,-257.1120191,186.8979569,53.4959937,0,0,409.2030491,-71.08582049,50.91679573,,,,
27.59999998,107,0,-179.8207634,0,-26.59147661,0,161.1317365,93.11851834,-16.11613025,457.2421699,-153.8256418,-56.63979873,0,0,-188.9354328,71.32629674,-67.56704074,,,,
27.60799998,107,0,399.6562321,0,160.5407611,0,79.94909093,-120.1065122,113.9890808,-81.61776754,176.7224023,38.39355086,0,0,229.5699911,3.662020395,60.03122868,,,,
27.61599998,107,0,-196.5109018,0,7.50630508,0,258.2328701,171.7306086,-1.215957443,328.7667251,120.8579716,67.14799749,0,0,176.1657739,18.12220202,55.35907156,,,,
27.62399998,107,0,236.9723279,0,160.3491734,0,157.8603858,24.04987644,90.08233921,373.9801037,-15.00403718,-5.514839565,0,0,-131.8124311,112.7219275,11.91923408,,,,
27.63199998,107,0,121.9414393,0,91.55060588,0,79.48940566,16.39864441,69.42504011,-209.5328463,290.5746817,116.1904419,0,0,440.7247599,-23.25538832,135.1081062,,,,
27.63999998,107,0,-162.3092289,0,28.63379926,0,158.4376192,169.519719,7.445599222,447.1821904,-114.9731685,-20.0709565,0,0,-178.8252219,103.9610762,-17.23362124,,,,
27.64799998,108,0,399.8970579,0,179.5673951,0,3.814704393,-87.74026008,128.4135287,-175.8448804,156.4907971,51.14575425,0,0,230.0840576,26.51545901,86.61279771,,,,
27.65599998,108,0,-227.2315183,0,-6.358354863,0,135.6609573,172.8844287,-1.668762474,172.9390019,86.61091651,68.00022757,0,0,182.6661257,25.71885717,65.9239118,,,,
27.66399998,108,0,190.4679213,0,130.3831548,0,39.78692165,6.256068936,79.97882901,236.3611564,-55.76418889,-19.99962328,0,0,-149.2953048,113.0077187,3.358599152,,,,
27.67199998,108,0,100.0340271,0,58.51182808,0,-13.77551253,-22.24675529,64.60103564,-346.6645619,224.5667374,91.08419405,0,0,442.187801,-31.42971862,117.1237245,,,,
27.67999998,108,0,-175.0066937,0,10.11300856,0,128.3215807,146.8515579,4.462219508,469.4067653,-144.2931874,-27.21563807,0,0,-179.1404721,99.43315164,-22.96654034,,,,
