Time:125Hz,Epoch,FP1,FP2,C3,C4,P7,P8,O1,O2,F7,F8,F3,F4,T7,T8,P3,P4,,,,
262.5759998,1025,-3.107595511,73.47958525,51.2772096,0.854082815,75.03334978,-15.37152497,0,-53.2544302,14.42845039,-76.28031319,384.7350306,70.28760691,106.1821264,-63.22041746,422.146183,359.501337,,,,
262.5839998,1025,-3.114619486,-371.2276485,-311.6332204,-83.91183616,-325.2769017,-94.56953364,0,-18.60458474,-49.39416357,74.9079863,-525.8930413,-50.29257624,-111.9597782,47.44507651,-461.4057395,-344.3513918,,,,
262.5919998,1025,-3.12153795,370.3315806,410.705886,81.74070004,573.4139682,66.75836883,0,-192.9067953,61.68347935,-72.34286682,243.4066562,76.89167593,77.13722156,-45.22697771,183.6873206,117.1688907,,,,
262.5999998,1025,-3.128351135,-378.1017485,-372.0381307,-114.9702426,-417.5897428,-101.4287128,0,22.32416038,-97.28114428,-35.49201417,-147.7503749,-66.01370258,-41.65476129,-44.13726618,3.828913653,43.47648909,,,,
262.6079998,1025,-3.135059271,111.3245187,191.2533843,38.19886072,342.7889862,37.39534894,0,-147.5372392,23.06953716,26.58604438,-315.1859527,9.457597856,-54.05352363,43.85247706,-342.2571796,-298.2179349,,,,
262.6159998,1025,-3.141662591,77.15765475,42.7267687,-15.30249975,106.2287686,-10.06431062,0,-77.85148921,-11.84110244,-105.1840647,362.5802192,33.75073817,82.89443556,-83.81097702,427.6335197,355.5643155,,,,
262.6239998,1025,-3.148161333,-363.0993218,-322.6408662,-81.06637901,-320.6522519,-72.92998794,0,-5.492498035,-57.57041727,68.53421493,-539.0719169,-66.8119539,-127.432498,50.9802731,-458.8230787,-344.3718068,,,,
262.6319998,1025,-3.154555731,383.9883711,400.8439919,98.8311111,545.6297642,94.60522432,0,-174.5338743,64.84927551,-59.51497654,241.6785572,84.75439533,71.96395759,-21.1055863,187.6674376,127.9047574,,,,
262.6399998,1025,-3.160846026,-374.5986062,-406.6203713,-100.5231984,-519.57676,-81.54735227,0,48.02993128,-76.14299092,-6.331459273,-132.7612931,-45.27952326,-43.93727437,-9.452199759,-9.922929783,40.82233776,,,,
262.6479998,1025,-3.167032458,92.56523851,143.1044088,47.77092097,192.6058738,55.02197651,0,-129.846454,56.21890054,62.13029268,-311.3253364,37.59204049,-55.85822303,87.24598974,-397.4834287,-335.8432051,,,,
262.6559998,1026,-3.173115269,56.58840545,4.866556435,-5.955719557,-52.91843436,4.605048331,0,-66.34880773,9.933010766,-89.10395568,374.1154799,58.59210409,84.15035054,-53.42836449,379.6630442,324.1879148,,,,
262.6639998,1026,-3.179094703,-394.2204572,-371.2492865,-75.55278651,-506.6937863,-64.01783287,0,13.6113518,-44.57565177,74.90194475,-527.6877479,-48.7485231,-126.0939821,77.51343023,-506.4950944,-378.7521498,,,,
262.6719998,1026,-3.184971005,359.0429411,365.4113757,97.51793757,399.8323198,99.33025036,0,-189.4250577,69.50906359,-63.34469198,239.4819093,91.67116677,75.2330016,-1.449274772,134.3690245,85.28864048,,,,
262.6799998,1026,-3.190744422,-396.8467738,-443.5820522,-109.557457,-630.252469,-92.36790075,0,20.27609696,-88.49755056,-25.47351911,-140.4588534,-56.26453669,-44.60787594,-22.84083841,-45.04328298,15.0175404,,,,
262.6879998,1026,-3.196415205,72.97379409,98.59968364,46.20344169,88.6103499,44.39744636,0,-127.4862875,51.60032384,59.40204396,-331.4162403,31.34787502,-61.8610009,76.02411716,-451.9558867,-376.3370777,,,,
262.6959998,1026,-3.201983602,65.11659485,-10.49886665,6.132122792,-110.7967104,10.14139647,0,-61.14870775,14.78882621,-83.20949769,379.2457432,66.26062229,90.15449118,-46.44595891,341.1951922,299.1113968,,,,
262.7039998,1026,-3.207449866,-385.8746073,-390.7751323,-62.97633652,-562.0802378,-62.84314831,0,18.60473546,-49.00118156,80.07234181,-516.4487327,-42.01298096,-119.008787,80.71097374,-526.6623167,-380.5623106,,,,
262.7119998,1026,-3.212814252,376.4439202,357.8554689,120.5512088,354.2232627,101.8488853,0,-176.8614657,70.97385777,-47.23057734,240.4558327,104.7732437,78.86044156,9.490430681,104.3228867,80.55926453,,,,
262.7199998,1026,-3.218077013,-373.5748476,-434.3837826,-80.29481644,-672.1873376,-86.90364011,0,28.87350433,-88.8676771,-20.86620077,-121.839278,-46.69436705,-32.82112987,-10.47547198,-45.63606209,35.76111045,,,,
262.7279998,1026,-3.223238408,74.80944594,88.67127997,62.98183494,-1.243689749,33.61936693,0,-131.7293651,41.82587913,54.02210216,-325.4971939,30.71263995,-54.33200749,78.05540837,-456.4866105,-360.0139688,,,,
262.7359998,1026,-3.228298695,65.84642549,-18.02055148,11.50068622,-210.585526,-13.29003038,0,-87.30566892,11.31118775,-92.13548928,373.6965824,66.1129021,91.35949521,-53.47832349,318.8347981,296.4904493,,,,
262.7439998,1026,-3.233258133,-401.0259361,-413.9109375,-67.95338954,-680.7935823,-94.15273231,0,6.111514156,-48.44386818,61.36290326,-527.3302398,-51.04099358,-120.2603426,67.94460837,-554.1293573,-390.5859303,,,,
262.7519998,1026,-3.238116985,355.6830473,323.7102739,115.1874889,217.142025,74.211684,0,-171.6088817,85.39488191,-49.70227669,235.0332883,107.9709026,80.80776646,14.21998171,49.09260181,43.21389944,,,,
262.7599998,1026,-3.242875513,-381.6227529,-448.2094456,-81.7891193,-781.0802905,-100.0591699,0,10.74254721,-73.58484993,-14.05821169,-106.2450924,-27.41067619,-24.6325302,3.842538246,-100.9807987,-2.589398415,,,,
262.7679998,1026,-3.247533982,70.50104156,87.50186499,67.498263,-71.59361748,33.28141497,0,-147.7309923,29.31208077,37.32898486,-317.3543314,28.39073045,-51.35943341,79.00688769,-482.1130029,-366.9917094,,,,
262.7759998,1026,-3.252092658,73.14947744,-16.11725122,28.1490573,-261.3292139,-1.557937447,0,-75.25256387,0.851266649,-103.6509256,391.8829157,55.83632824,94.40440981,-40.21862269,310.6608543,309.6362586,,,,
262.7839998,1026,-3.25655181,-396.4448,-423.9624955,-51.24463737,-747.714796,-80.63881715,0,21.11695161,-37.99774172,79.41960377,-503.6025995,-50.02279032,-112.750764,105.6257105,-581.3748606,-392.9752316,,,,
262.7919998,1026,-3.260911706,369.1090401,322.0889495,126.4843721,159.0823749,82.58001385,0,-173.023644,92.15295881,-45.17760538,254.4028246,104.71528,89.41600246,32.98540704,25.15784624,39.01211389,,,,
262.7999998,1026,-3.265172616,-366.0615861,-451.4051352,-79.05052445,-848.8654632,-99.47080587,0,16.56180548,-65.26857706,-25.75172141,-74.46139727,-34.87318455,-14.49233817,1.839476104,-102.7117658,6.677539558,,,,
262.8079998,1026,-3.269334813,74.78510421,71.15564975,63.41450857,-172.1449188,28.25883951,0,-125.7733735,56.77982334,44.86598063,-294.2768439,34.71606113,-39.07554929,89.84263182,-512.7282815,-387.2633189,,,,
262.8159998,1026,-3.273398571,88.82288591,-14.89290872,21.99360289,-341.9680853,-8.245572271,0,-75.67064168,21.09310207,-102.4858424,419.5878431,72.57176926,109.3049321,-42.10807529,286.3577263,286.2078463,,,,
262.8239998,1026,-3.277364164,-395.1362016,-430.1218773,-64.06640711,-819.007694,-94.25893147,0,2.691819513,-42.29505202,66.16244964,-483.1182759,-42.99984342,-108.1795271,79.82630544,-587.5262761,-403.5227267,,,,
262.8319998,1026,-3.281231868,364.9552693,308.9305254,118.2951766,111.5808276,66.20149844,0,-183.4631152,88.60559755,-46.45588913,258.6868143,108.3941704,84.16756479,19.56035971,-3.2153673,13.71271002,,,,
262.8399998,1026,-3.285001963,-360.7577177,-457.4223869,-79.61227796,-843.3530889,-113.0185835,0,3.227699379,-77.5590834,-32.080667,-68.71861773,-37.28020375,-20.94787632,-7.100910783,-120.409021,-5.265606294,,,,
262.8479998,1026,-3.288674726,82.02667199,62.3729172,69.16110505,-135.2963056,23.67723898,0,-143.3947576,37.23535641,44.6434843,-302.4611416,28.73715171,-46.82280548,79.45532352,-527.0576456,-393.1061933,,,,
262.8559998,1026,-3.292250438,117.3184129,-9.914675785,35.38795114,-269.1622224,-2.465919369,0,-105.3198155,25.13938239,-80.50696505,429.4914154,88.91178178,110.6595359,-37.30980768,263.7841338,275.644384,,,,
262.8639998,1026,-3.295729381,-357.2217821,-407.0131409,-59.84726643,-702.8916673,-87.4569217,0,-56.33703967,-53.48204589,62.00711511,-466.4698853,-32.98212828,-103.3748204,65.9569334,-580.5245029,-385.2848755,,,,
262.8719998,1026,-3.299111839,409.881635,340.3382346,112.5268068,234.5563536,72.4446023,0,-221.8366219,57.35925598,-69.09757216,254.5108058,96.41550202,84.21025813,-19.24476051,36.34871218,55.41382771,,,,
262.8799998,1026,-3.302398096,-330.3484283,-447.5518105,-94.01063444,-778.1028969,-118.1283454,0,13.84283598,-81.39644421,-25.59153366,-75.11727811,-42.40110681,-21.52107004,-25.92944523,-103.229852,9.838881308,,,,
262.8879998,1026,-3.305588439,85.41318275,56.94811825,42.9719763,-98.19236493,4.503770446,0,-121.3758231,31.27055487,45.99359703,-329.1719144,10.89406918,-55.54765111,62.04313216,-541.5694204,-405.1670403,,,,
262.8959998,1026,-3.308683154,114.4839061,-20.4163237,6.647005158,-230.7940162,-24.75313996,0,-50.20936414,0.823693557,-96.86511761,393.569808,49.71033481,97.49739115,-73.03992295,264.6272929,276.761291,,,,
262.9039998,1026,-3.31168253,-382.2350333,-441.4048388,-86.92653841,-676.3999284,-111.0590485,0,39.9397688,-60.6780432,70.41841785,-505.2787084,-61.37414893,-115.7382902,50.99411999,-612.4417648,-410.2585964,,,,
262.9119998,1027,-3.314586858,389.850107,329.4572588,94.58973366,335.864486,59.24686105,0,-137.5134999,50.54251406,-66.23775757,221.8464126,74.20951674,71.25516807,-30.9195946,-7.364374588,25.47117012,,,,
262.9199998,1027,-3.317396427,-341.3404446,-453.0935331,-103.4745582,-620.4467519,-121.0231107,0,102.8310371,-99.22248673,-33.4013287,-84.51743105,-59.42717342,-30.46146196,-47.66616749,-94.86555057,27.79911081,,,,
262.9279998,1027,-3.320111532,66.07113562,29.66458709,40.17482623,68.79076091,4.464100951,0,-21.98279579,34.1618979,73.9435009,-338.7754656,24.95257056,-60.52753155,71.08557425,-559.057559,-408.9530197,,,,
262.9359998,1027,-3.322732465,112.0125341,-24.69255955,6.689183223,-21.53086318,-22.24949396,0,12.51712803,7.028636389,-77.83651495,397.9383151,68.10880959,96.77714765,-65.55496688,244.1414852,267.3089669,,,,
262.9439998,1027,-3.325259522,-390.6789526,-457.3605116,-93.75042965,-508.836761,-113.0234003,0,93.30638513,-61.33735502,70.25349428,-500.5376298,-61.79674361,-117.4733921,41.81698163,-605.7190737,-400.7933649,,,,
262.9519998,1027,-3.327692998,380.6374441,296.2485694,88.21767977,438.6366399,51.32789406,0,-91.63074077,69.85955966,-42.02995169,219.7802308,87.0073356,69.71031363,-19.17624284,-29.28732917,9.234533363,,,,
262.9599998,1027,-3.330033192,-340.0048902,-474.0361915,-113.4639933,-526.973019,-137.6579904,0,97.78891801,-88.94422009,-26.87508372,-80.92408634,-53.04969631,-35.0065124,-50.2799025,-118.5913127,11.86790851,,,,
262.9679998,1027,-3.332280402,66.70959985,17.54343552,28.2232382,163.5436401,-9.790582437,0,-44.44706301,28.71324724,56.972178,-356.9975161,2.970269336,-73.47276588,45.0660994,-576.1623674,-420.6389506,,,,
262.9759998,1027,-3.334434927,121.8900757,-26.08989143,2.177750968,95.20230041,-24.8551497,0,-1.482893099,16.95111954,-74.15715459,394.4137548,61.43065634,93.72526153,-75.62223645,234.2314236,261.0478227,,,,
262.9839998,1027,-3.33649707,-392.5453126,-460.5319223,-102.7464474,-356.5420632,-114.8277688,0,62.86618486,-61.04513335,67.62684444,-492.5150616,-62.1691748,-118.7919744,25.42173334,-605.1438872,-395.5362115,,,,
262.9919998,1027,-3.338467131,371.4163677,288.6078768,80.05014811,619.2874568,56.93727104,0,-107.1172304,65.97419827,-52.47288958,217.8459276,72.97017532,63.17305304,-42.03897341,-40.08323251,2.971624784,,,,
262.9999998,1027,-3.340345416,-351.4582061,-496.47091,-110.5914968,-355.9950479,-117.5555947,0,132.5314374,-61.36079921,-1.354218773,-60.47238501,-40.85074501,-27.27531286,-34.40710209,-152.3426434,-14.09400395,,,,
263.0079998,1027,-3.342132227,51.72379843,6.183178459,33.08414719,349.4765758,17.70186788,0,-28.39774882,55.07271113,82.1233037,-332.5064983,35.07784621,-59.44901883,73.48527417,-621.9331042,-452.961744,,,,
263.0159998,1027,-3.343827871,122.1941005,-1.472606831,7.586983664,308.4438155,3.573508678,0,-20.65429852,14.82755347,-90.92212391,421.4304684,71.21610346,103.2209709,-75.58309126,232.5475846,269.0512678,,,,
263.0239998,1027,-3.345432655,-403.0979204,-450.0758951,-94.1118206,-202.8394735,-91.04578064,0,69.17440234,-66.34322006,60.12114577,-476.4514184,-65.55691485,-115.3308183,31.73888442,-590.3922243,-371.0501678,,,,
263.0319998,1027,-3.346946886,359.7504279,299.4884524,87.92884197,736.9413877,74.48915855,0,-111.8958974,59.21391248,-42.09593984,213.4434815,76.25025704,59.20424698,-29.94026957,-38.87547284,10.05708067,,,,
263.0399998,1027,-3.348370874,-359.4619024,-473.8357289,-110.9433793,-243.2813447,-116.1057067,0,94.19551743,-86.82810048,-13.57658193,-60.71382399,-48.38516558,-35.18788557,-58.43606526,-118.578213,13.12629647,,,,
263.0479998,1027,-3.349704929,27.29042592,3.278842564,26.57442536,424.4238926,0.267610614,0,-50.36060461,39.3847997,76.17007872,-343.9490957,16.09001867,-70.5402735,43.165987,-598.7756255,-436.5691721,,,,
263.0559998,1027,-3.350949362,106.0920742,-17.37416824,4.61835486,378.7030587,-16.88362199,0,-17.35865454,28.99230163,-73.1601655,419.9182423,62.63523636,96.42595408,-87.38643538,217.6597102,246.5635272,,,,
263.0639998,1027,-3.352104485,-406.7085293,-466.2212382,-92.71842498,-101.6406294,-106.1862858,0,77.62288401,-39.76070012,83.54519037,-454.3499707,-56.00235053,-109.6715828,26.00303819,-618.2056376,-406.2180604,,,,
263.0719998,1027,-3.353170612,388.489115,319.825456,100.6414931,916.4081527,76.12388547,0,-119.5741354,90.75742839,-24.04601904,254.8502837,100.0042486,79.80189109,-28.39418338,-59.16911405,-11.39856625,,,,
263.0799998,1027,-3.354148056,-314.8914812,-429.6009149,-94.30853361,-19.31541144,-100.3740868,0,85.27846465,-70.40676133,-13.69952285,-4.591683653,-36.59982323,-11.02335049,-59.03412733,-102.7575625,28.95810373,,,,
263.0879998,1027,-3.355037135,55.51146863,33.97902892,35.42415612,627.7453221,16.02651501,0,-37.32596243,41.08495666,75.95686727,-304.2649873,19.94329128,-54.56943107,47.74031407,-575.1149058,-412.7285867,,,,
263.0959998,1027,-3.355838163,135.9728854,21.92832464,11.82581941,568.1587009,1.561456978,0,-11.2525487,37.35729349,-62.99214662,457.8395915,82.70464017,110.4976374,-65.704375,240.8409642,267.0357713,,,,
263.1039998,1027,-3.356551458,-400.898837,-437.9477745,-95.91230641,37.26886414,-96.26897783,0,58.93537699,-43.41715921,84.2100681,-437.1880145,-46.30785442,-106.3736765,41.9561305,-598.7192505,-390.5716951,,,,
263.1119998,1027,-3.357177339,382.5424569,345.8401031,94.21511307,1018.084766,79.31833565,0,-130.7967696,73.45854998,-33.4404188,251.603833,94.63768845,71.10687793,-24.62494282,-42.7801376,-5.229174402,,,,
263.1199998,1027,-3.357716126,-316.8343774,-397.3716132,-97.51794985,71.26820272,-95.53587692,0,74.28915009,-81.13004946,-16.40684768,5.88768307,-33.70622275,-20.02924657,-48.9104203,-69.6977808,43.06245362,,,,
263.1279998,1027,-3.358168138,48.97717166,63.63165452,27.17572724,724.5209644,15.97424799,0,-77.2954203,33.63292022,78.11210932,-311.4007901,17.07238367,-67.60519693,51.68082885,-554.7075738,-411.8314046,,,,
263.1359998,1027,-3.358533696,156.5456952,79.24519295,15.72236719,717.7229768,9.205521728,0,-28.70717036,27.09484458,-75.98704263,454.5341949,65.81003512,104.3450929,-83.22219161,285.19462,282.5405978,,,,
263.1439998,1027,-3.358813124,-370.314506,-372.0556394,-77.22264508,209.3369586,-79.18502614,0,74.79595242,-45.74490655,69.41879684,-425.9885078,-57.65100713,-101.9146059,37.559109,-519.2720469,-345.0522484,,,,
263.1519998,1027,-3.359006745,419.0178097,420.7473975,109.8360129,1217.119671,95.72211668,0,-144.3581502,86.90451199,-38.41878749,261.616547,95.64158376,78.98184824,-15.0956336,35.30507807,37.85502295,,,,
263.1599998,1027,-3.359114882,-271.4214118,-308.814201,-90.9288835,298.8951579,-79.28136375,0,49.08188362,-73.24001803,-39.74022213,24.21284501,-41.74209103,-10.28169371,-64.11591074,32.27659603,99.53782524,,,,
263.1679998,1028,-3.359137862,93.04941762,146.5028304,35.23569827,929.9077076,35.65272381,0,-74.756242,37.00703011,50.52723807,-299.1264997,1.770510476,-61.98937746,38.58641087,-447.6040017,-352.6873117,,,,
263.1759998,1028,-3.359076008,206.3382445,161.3634971,21.95738514,891.5575953,25.610874,0,-34.51685762,39.94462338,-80.80761858,480.824619,67.93529084,111.545721,-75.53863207,382.3157922,333.3951915,,,,
263.1839998,1028,-3.35892965,-336.829827,-304.1037865,-85.68044197,349.9737456,-70.45988062,0,59.67568154,-46.43753199,62.56601675,-397.4391362,-53.03875725,-95.86975092,29.71744144,-428.90243,-300.9660561,,,,
263.1919998,1028,-3.358699114,457.4846921,488.6611529,108.0322634,1348.567327,114.4925597,0,-132.5074775,90.93327146,-35.0385934,286.4515691,101.3339899,85.06945599,-16.55812876,108.4741,66.25231479,,,,
263.1999998,1028,-3.358384729,-227.6606038,-236.7441275,-85.16103618,430.6632954,-55.96757423,0,57.53538362,-51.72043764,-12.5765573,63.44806772,-25.02153453,2.890021401,-40.95070732,95.58748215,121.8561129,,,,
263.2079998,1028,-3.357986824,122.6455265,224.4853009,29.561096,1094.105042,52.3921025,0,-100.5113275,24.96528613,42.06022558,-279.2555221,-1.551707613,-55.4060363,29.3575575,-374.279554,-316.9087296,,,,
263.2159998,1028,-3.35750573,250.4021649,255.7738255,17.9445454,1108.363416,47.79867765,0,-65.29220556,18.21375448,-105.7136305,498.6809307,50.37260162,115.9166505,-104.0337843,479.4536553,390.2796588,,,,
263.2239998,1028,-3.356941778,-299.5602778,-224.6549739,-86.55196631,562.2714838,-50.19091711,0,42.26344392,-43.26665409,69.21803278,-380.9962736,-62.56912744,-87.14580491,25.34854433,-339.7976594,-253.3905267,,,,
263.2319998,1028,-3.3562953,487.3147652,560.5924334,103.2010987,1555.41963,125.4771583,0,-146.1178044,80.46572589,-45.35055871,288.717483,86.98876724,93.36979672,-30.4185418,200.8814104,114.3086047,,,,
263.2399998,1028,-3.355566629,-196.8365374,-179.2544674,-82.22848594,604.9710846,-42.57466606,0,65.19720675,-58.96564699,-22.06510791,72.29086858,-30.93701674,14.78512389,-50.95481338,188.9422092,171.6997039,,,,
263.2479998,1028,-3.354756098,150.026937,273.3244614,41.86196677,1241.66537,73.70555645,0,-89.65183465,41.40806787,63.21203821,-274.2600837,15.60255285,-41.30183619,49.18038235,-310.1502661,-290.2550205,,,,
263.2559998,1028,-3.353864042,281.0635822,311.413629,22.43690633,1262.220076,61.72573481,0,-73.27878446,16.84388366,-110.1103716,508.602503,58.54216531,123.9267543,-103.9811724,567.1446359,436.3780898,,,,
263.2639998,1028,-3.352890795,-292.8564193,-197.2159945,-85.38259057,677.9749032,-45.79764552,0,44.75296975,-51.11744896,59.77656742,-380.9959182,-69.80092578,-92.22801836,15.44046282,-260.4641522,-209.7530091,,,,
263.2719998,1028,-3.351836694,496.6156364,600.9647667,115.2511414,1693.30616,142.0648234,0,-154.9677986,90.54140113,-39.8969683,291.6406689,90.00116084,88.16327626,-23.95187391,260.7705458,148.7719446,,,,
263.2799998,1028,-3.350702076,-177.6595581,-127.6252424,-75.18901573,769.5572663,-25.23290192,0,40.77216222,-57.75887425,-34.53363182,94.16574666,-30.46441905,11.89981442,-57.57428916,283.1680811,239.7018989,,,,
263.2879998,1028,-3.349487277,161.9442743,299.6258809,51.30468279,1373.582547,85.11643939,0,-92.22747022,48.51715797,73.74928509,-272.8842119,16.30055313,-49.31709088,56.12951964,-239.0944736,-239.5706782,,,,
263.2959998,1028,-3.348192637,304.3081745,345.2431146,40.70602639,1393.801227,77.90276029,0,-74.35026542,33.03685545,-85.13715637,517.94849,74.36394967,119.856614,-79.62099249,626.9212515,477.2419933,,,,
263.3039998,1028,-3.346818493,-281.2876181,-170.8563793,-80.68449425,788.8228539,-38.65363723,0,37.99646704,-58.24115455,53.01217339,-371.8113771,-66.59619809,-102.008802,18.2559355,-193.8327945,-162.9757646,,,,
263.3119998,1028,-3.345365185,509.681603,617.4526897,121.7289526,1774.917569,140.80762,0,-144.5790807,88.2578446,-38.98378683,290.4929725,88.24698484,77.49405219,-15.93292906,305.9937443,175.1838408,,,,
263.3199998,1028,-3.343833054,-168.6900601,-129.1804927,-64.15509319,809.9912323,-34.342361,0,67.63024009,-45.1674538,-15.17479658,105.3723088,-19.03310267,8.706507072,-34.98428926,316.7140535,253.8564237,,,,
263.3279998,1028,-3.342222441,151.0264554,281.4943435,55.24997685,1383.645621,68.7353623,0,-70.40170698,56.28735523,82.24859835,-276.316435,24.50199202,-55.82275355,69.67510683,-242.2409699,-252.2016795,,,,
263.3359998,1028,-3.340533686,312.1775067,347.46569,52.64875028,1428.960301,69.77426836,0,-68.39460043,48.8236719,-76.37779402,527.2229341,86.61596251,125.3843447,-63.31445051,623.7665074,469.7970893,,,,
263.3439998,1028,-3.338767133,-285.472266,-189.4907394,-71.85140937,801.5780356,-48.25189017,0,44.86600853,-38.7308589,75.44493984,-364.9597655,-49.93705667,-93.31653833,41.06215862,-193.0900733,-162.8655684,,,,
263.3519998,1028,-3.336923124,499.1848688,596.6404363,121.2076325,1799.218064,129.9005415,0,-162.7744438,91.2679517,-32.84767763,270.6932372,93.18915341,70.47872947,-10.67647418,282.9382068,159.187291,,,,
263.3599998,1028,-3.335002003,-168.3235494,-123.2730384,-66.77383507,887.7996296,-36.67183094,0,21.10752602,-65.64653661,-36.36057618,91.00624334,-26.28439403,1.755965811,-49.42109283,324.1868611,268.0742598,,,,
263.3679998,1028,-3.333004114,130.2300467,280.2160964,40.13306098,1462.918321,62.59499294,0,-103.8228638,23.40576901,54.0659861,-305.0896249,4.891417944,-66.45107897,48.47929017,-220.4441378,-225.9901119,,,,
263.3759998,1028,-3.330929801,288.561339,346.7279276,33.59383606,1502.972621,60.30604828,0,-87.95890014,21.54093698,-111.3199814,500.1799384,61.18791406,108.356976,-85.97221558,642.0895607,490.6069935,,,,
263.3839998,1028,-3.328779411,-308.4770295,-195.3138501,-81.45177451,850.5362385,-51.60450099,0,41.71963107,-47.01361791,52.50185613,-381.0550748,-62.77543192,-100.9096738,40.02135532,-177.3200497,-140.1008839,,,,
263.3919998,1028,-3.326553289,482.1492991,592.3239052,114.2561324,1829.258396,128.8741664,0,-155.5283199,102.4273073,-38.36626149,262.0234729,93.50123367,72.7773229,4.404009124,288.4222728,170.9416385,,,,
263.3999998,1028,-3.324251782,-182.2319038,-134.9065823,-77.62845321,888.9824709,-42.64932683,0,27.58578245,-52.48603664,-42.47695534,100.094477,-28.03029985,3.918491099,-42.94591573,334.2462872,278.9188946,,,,
263.4079998,1028,-3.321875237,117.3718255,257.6954224,40.52259861,1440.386695,63.9160948,0,-90.24934124,37.09632969,63.7940913,-308.3630813,8.091806889,-66.9961227,66.43730876,-233.9237867,-232.2549336,,,,
263.4159998,1028,-3.319424002,291.1838549,333.1030708,42.29693836,1500.99002,70.43775657,0,-81.73065304,33.45745729,-95.2507769,504.1392108,72.66066148,109.2392413,-59.23848044,629.5782087,487.244614,,,,
263.4239998,1029,-3.316898424,-328.3966468,-225.7853463,-86.95431121,849.4012211,-51.02440148,0,26.59501664,-51.33237328,46.11213636,-381.6639919,-66.00962161,-107.2056208,49.24290459,-183.1788076,-138.4332823,,,,
263.4319998,1029,-3.314298853,450.0524281,560.5253418,110.9846395,1842.133859,129.8196997,0,-162.63317,96.28387477,-46.78085504,240.8090696,80.2257102,62.46543085,8.945607501,264.6448464,154.588894,,,,
263.4399998,1029,-3.311625639,-218.4146899,-168.2468536,-77.71483956,903.106184,-42.67538849,0,37.8914578,-51.96494179,-41.32403288,87.14997955,-35.81917823,-3.331706847,-28.6633462,318.6715739,270.017344,,,,
263.4479998,1029,-3.30887913,61.83962143,211.8056554,31.66952378,1432.634767,53.31682743,0,-91.67514579,41.38585737,55.72843694,-330.803392,-2.455526383,-77.82744877,82.11790116,-262.2235448,-251.8998125,,,,
263.4559998,1029,-3.306059677,246.2323672,303.4921864,37.61785908,1498.542837,63.12720142,0,-89.75277813,44.67960215,-106.0558243,494.2122145,62.7282377,103.5777638,-54.64447453,598.185432,461.6028297,,,,
263.4639998,1029,-3.303167632,-375.9287008,-258.4033755,-96.14991571,833.309475,-62.14687343,0,18.0469002,-60.97188205,38.78598461,-390.0616012,-80.00069475,-113.1200751,37.57917044,-202.7241466,-150.3239799,,,,
263.4719998,1029,-3.300203345,403.6164867,533.063022,96.07385132,1827.713181,110.5569064,0,-194.4183597,65.52282833,-65.0047904,214.9231681,55.55471813,51.60164207,-12.98357157,245.3466176,146.2894201,,,,
263.4799998,1029,-3.297167169,-255.5668245,-189.4078008,-89.61919083,894.3353781,-60.96140299,0,-6.317153101,-80.47714605,-71.09425588,73.64995702,-69.94933254,-12.91067057,-58.68257593,310.9615034,273.5618941,,,,
263.4879998,1029,-3.294059455,23.24214774,181.1795322,22.92555741,1422.429496,39.27159772,0,-119.1752284,10.61299381,32.46555175,-353.1306852,-44.26330808,-91.21445081,57.11584553,-279.3886844,-252.937569,,,,
263.4959998,1029,-3.290880557,230.196769,289.7418373,35.46031539,1520.551975,55.61950372,0,-109.8992915,16.72742337,-120.5752653,480.9814745,33.18801527,98.24800695,-64.62579885,592.0178343,468.8912836,,,,
263.5039998,1029,-3.287630827,-377.8827725,-276.6908746,-98.75774718,852.8111853,-72.18477052,0,-3.809034985,-74.48916433,30.80980347,-389.7484967,-96.45381171,-112.5507074,32.19530559,-199.156374,-131.4349886,,,,
263.5119998,1029,-3.284310619,411.8659229,507.326244,93.55776568,1830.471142,100.0594059,0,-199.6271031,72.08792779,-60.94949622,217.4748821,51.06948083,50.59430803,-12.42174646,226.0492526,146.4178448,,,,
263.5199998,1029,-3.280920288,-248.3152448,-220.5481977,-92.41856202,864.0712699,-66.75547209,0,11.73078358,-68.61193304,-64.5413555,93.81958145,-58.89358851,-7.025438225,-50.02898556,288.9146103,267.718319,,,,
263.5279998,1029,-3.277460187,10.25325601,132.7480784,14.49408845,1344.089132,31.67391124,0,-111.7262163,18.88724747,40.48387922,-344.6439363,-29.77673348,-84.82818309,66.27683189,-320.938578,-273.5355452,,,,
263.5359998,1029,-3.273930671,207.0381854,236.9081203,24.61135242,1423.421225,44.97005663,0,-118.9547361,23.50302268,-122.6624875,485.8274377,42.00936399,98.16571725,-69.960188,539.3181035,438.6504493,,,,
263.5439998,1029,-3.270332097,-428.2374361,-361.2734223,-104.2041128,699.0314168,-76.67885341,0,25.07433515,-64.38882031,31.63633941,-389.7565507,-87.69420932,-120.1141914,36.49591908,-271.8636448,-177.6332292,,,,
263.5519998,1029,-3.266664819,363.6161855,421.9483084,105.5241309,1663.515398,115.8310015,0,-159.9373365,103.1807003,-28.24885516,219.9951151,77.72784063,48.85981277,31.25168181,119.7083505,75.82021895,,,,
263.5599998,1029,-3.262929193,-277.4050092,-281.4722636,-71.5817407,735.8242132,-43.75246661,0,20.26588062,-40.2934335,-29.68808578,121.6341491,-25.46347778,0.39764685,-7.45266589,206.7919322,220.0545988,,,,
263.5679998,1029,-3.259125576,-29.68910962,50.57095678,32.56923618,1191.784646,42.53130374,0,-86.30534253,35.47829856,70.74963778,-335.0466711,-2.048643384,-84.14164621,95.29394524,-406.6764497,-328.1576081,,,,
263.5759998,1029,-3.255254325,183.8990491,163.5658921,47.54042447,1261.624127,58.47212598,0,-91.56073559,52.13210381,-86.85965545,497.9928923,77.05572274,102.2193695,-30.81594497,431.7239634,360.6242131,,,,
263.5839998,1029,-3.251315795,-427.9696511,-395.6170969,-81.83994016,565.9235103,-52.99665888,0,16.4268821,-54.91166498,44.2268978,-365.5895975,-65.75394922,-107.1846087,60.090861,-348.6285163,-223.6341991,,,,
263.5919998,1029,-3.247310346,370.2306557,394.1500593,112.6664558,1525.286961,128.6014775,0,-173.1902041,84.05568267,-45.64220528,225.8307134,67.4861922,57.29807515,22.14473805,74.90649652,60.50671694,,,,
263.5999998,1029,-3.243238334,-277.9306149,-328.510134,-79.80496655,552.1018389,-48.13476726,0,12.92377953,-51.1942428,-54.0748343,125.4064655,-44.25553227,0.815547081,-19.96580616,154.8149116,197.8640009,,,,
263.6079998,1029,-3.239100118,-42.44457962,6.046000397,16.70097971,994.1072264,35.97625953,0,-109.7130632,23.7204995,44.5555222,-345.2360196,-22.62111883,-90.3739284,85.3562347,-480.2897394,-363.5206235,,,,
263.6159998,1029,-3.234896056,170.0433263,120.4647852,24.60803674,1059.956486,46.54427007,0,-111.5874171,29.37857443,-114.2288322,479.2886296,43.25968957,94.31278776,-50.03373819,365.9696748,332.4272167,,,,
263.6239998,1029,-3.230626506,-465.5334317,-476.8143369,-112.2288294,319.2748629,-76.56359911,0,9.505692686,-71.10203236,28.13411931,-394.7265377,-95.16401294,-118.3972664,45.64867505,-428.5029815,-270.0115229,,,,
263.6319998,1029,-3.226291827,329.8689882,321.2059603,87.59759233,1305.832842,110.8565607,0,-206.2148647,67.24027584,-62.06170005,184.6644584,54.36881675,40.86455763,6.702617515,-26.315204,-7.696682251,,,,
263.6399998,1029,-3.221892379,-312.1170212,-390.9508179,-97.6998993,356.0202464,-61.1187504,0,-14.36098439,-77.08035006,-78.04080912,91.15136349,-69.48660394,-15.73216481,-48.17219725,71.5438372,148.2326947,,,,
263.6479998,1029,-3.21742852,-79.70569033,-69.25143543,6.641750188,771.9607008,25.05944617,0,-110.729827,7.94886103,30.77391537,-380.7202427,-49.74970443,-104.1320779,68.05074238,-569.39317,-413.965455,,,,
263.6559998,1029,-3.212900611,154.4842513,71.77623994,30.74080628,853.6225069,47.81856859,0,-116.2516735,31.27799638,-118.1928532,473.660524,45.52717904,89.48064737,-53.69732706,280.9350038,285.7888133,,,,
263.6639998,1029,-3.208309011,-493.1943131,-538.3530858,-102.4328384,87.15390207,-78.12648055,0,25.16643912,-54.51679689,40.67782748,-383.0203469,-77.60718422,-122.9731587,54.3702749,-518.2530549,-316.9041168,,,,
263.6719998,1029,-3.20365408,303.1677592,256.4125955,96.75894468,1084.013063,106.2203711,0,-183.9364826,92.34158704,-41.22733534,194.0703446,78.74886096,33.19651776,28.03394901,-139.9058634,-74.92347558,,,,
263.6799998,1030,-3.198936179,-312.0470796,-424.3366758,-85.9323263,202.8320129,-55.51391455,0,-13.98144579,-71.51776808,-76.55744255,117.7038137,-46.87528684,-15.99452553,-41.76678676,-8.697771284,104.7722141,,,,
263.6879998,1030,-3.194155668,-66.48768417,-100.7277357,24.21439501,648.8977528,42.44767729,0,-103.8672564,6.581896486,43.74324572,-366.0704565,-29.42803841,-102.5489121,75.79602541,-633.821997,-444.1554061,,,,
263.6959998,1030,-3.189312908,196.9373403,48.36592171,51.9620555,766.2979669,70.59014815,0,-109.2352455,46.53099523,-86.02045958,493.1773678,73.70707725,96.25183648,-30.86429127,217.6203174,254.1622637,,,,
263.7039998,1030,-3.18440826,-446.0789072,-559.6245053,-89.99400255,15.06470014,-61.54248332,0,5.004183546,-47.73796097,57.63258485,-363.0970467,-63.12574036,-111.7423242,63.26899098,-570.3691934,-344.1793381,,,,
263.7119998,1030,-3.179442084,360.8764663,248.0647107,117.1847927,1006.380802,124.8876793,0,-197.6705955,103.2939121,-19.42262702,203.1383373,87.77622406,48.48054438,32.11071601,-190.1001583,-104.2490713,,,,
263.7199998,1030,-3.174414743,-242.6439657,-420.5352653,-65.13822074,106.8296224,-40.0005266,0,-15.74022622,-42.93824141,-40.39955973,148.0022011,-22.81074725,7.695208717,-29.37033928,-40.71131114,89.2602973,,,,
263.7279998,1030,-3.169326597,-20.98813481,-103.4333428,21.24283309,541.0692905,42.34020751,0,-114.023026,6.236723747,55.73311669,-356.4361358,-25.86627661,-91.27971864,62.86219452,-662.9923539,-457.8031406,,,,
263.7359998,1030,-3.164178008,235.737183,57.47913622,41.21221648,687.3159827,64.6995965,0,-84.4040591,16.95801911,-95.05754781,482.8379458,48.37159438,95.82094983,-71.29877233,203.3855187,251.9922392,,,,
263.7439998,1030,-3.158969338,-428.6253658,-557.1302724,-107.4624408,-48.06620962,-75.20304702,0,80.90856874,-77.79273073,55.13696865,-379.7360532,-92.07824127,-116.7349619,31.68857666,-578.6608754,-338.8994369,,,,
263.7519998,1030,-3.153700948,364.2086457,246.2019378,95.6655191,986.5957926,109.256566,0,-100.6620755,68.09986305,-25.21423624,173.3598297,58.45777684,38.69399363,4.122716249,-209.8519058,-105.4033218,,,,
263.7599998,1030,-3.148373201,-242.0436906,-432.5270263,-78.54138295,130.0695836,-51.2822963,0,104.3927478,-63.78234478,-35.13812309,136.5019983,-39.69433019,8.63413408,-50.52384324,-55.98523503,91.98721954,,,,
263.7679998,1030,-3.142986459,-40.30633766,-133.3998356,12.87383048,581.0615643,33.11978353,0,7.169433535,24.14894158,86.83699963,-363.5455134,-20.26084516,-80.84556366,69.94398755,-711.6598477,-485.2271941,,,,
263.7759998,1030,-3.137541083,228.7307703,51.44284626,38.36216906,775.3558453,68.99253391,0,-12.71554118,50.00676799,-76.19981519,493.8308643,62.00207887,112.838938,-62.71053998,155.0361276,222.0512235,,,,
263.7839998,1030,-3.132037436,-437.9840991,-570.6674093,-112.7755707,24.83993444,-68.36184216,0,120.9609044,-56.65299629,59.96086588,-358.3170457,-91.07251575,-99.61316783,23.01634258,-600.7487972,-347.8854499,,,,
263.7919998,1030,-3.12647588,349.0018159,221.1009892,91.96868346,1012.16045,114.8545916,0,-69.9834903,85.90264351,-14.89978949,176.9953208,56.59276704,48.51209157,-4.106223979,-243.5433703,-127.7250668,,,,
263.7999998,1030,-3.120856777,-249.6562284,-448.302908,-74.34112393,124.099056,-36.70054321,0,117.0568443,-45.92059388,-23.56789679,144.334704,-31.65683887,15.82993073,-51.95755436,-90.52523844,66.01162413,,,,
263.8079998,1030,-3.115180491,-56.75081669,-157.4118172,15.47474482,545.7186942,43.87283585,0,6.435079284,28.2691439,93.04541546,-367.3903793,-23.11929017,-80.89616593,65.33498371,-754.8505478,-517.3154841,,,,
263.8159998,1030,-3.109447383,224.0838297,39.24626715,43.28780764,765.5069281,73.81262661,0,-18.76130816,40.12394828,-84.27313585,493.3985188,55.4750974,112.6116141,-74.54523868,125.1147175,202.6234852,,,,
263.8239998,1030,-3.103657817,-447.2737002,-581.5042975,-105.2536026,42.3406041,-62.90514392,0,120.1528611,-62.49187362,63.6741492,-350.5058267,-79.04981158,-95.60783156,15.70381039,-629.6101287,-365.4210159,,,,
263.8319998,1030,-3.097812154,342.2886157,223.268799,97.70025189,1091.47485,125.081686,0,-74.53127933,86.16146844,-5.335208089,183.0610026,70.97921444,49.9682236,-8.68034885,-284.2928338,-156.3590431,,,,
263.8399998,1030,-3.091910757,-242.7676049,-423.3923166,-75.21687657,283.4296568,-27.50882177,0,102.4136441,-62.20513167,-47.0839178,162.1953243,-35.4762741,13.52128943,-68.54954502,-84.38454869,77.98707672,,,,
263.8479998,1030,-3.08595399,-64.23291326,-137.7426648,3.189749822,717.3193786,40.92890819,0,-10.08005962,0.17816796,62.91378259,-374.495103,-41.62028746,-91.7459916,38.33613453,-735.9816072,-496.0171854,,,,
263.8559998,1030,-3.079942214,224.5584203,64.89644774,34.46880701,925.2113025,70.64477234,0,-22.50608401,23.70842539,-96.55277523,479.1289502,37.65082985,101.7046885,-98.25839172,135.407791,208.3498852,,,,
263.8639998,1030,-3.073875792,-447.4055539,-562.2966725,-106.610981,162.4548228,-59.51290473,0,127.5501108,-73.05952935,53.6205414,-356.0665856,-92.87094863,-103.4979797,7.629501436,-610.7641307,-352.5175937,,,,
263.8719998,1030,-3.067755086,333.6424546,240.8715184,91.71528124,1169.77589,127.6355886,0,-86.29748635,71.53067225,-21.31955619,172.1549285,52.00609822,41.40489758,-14.26184565,-268.7292021,-142.1882699,,,,
263.8799998,1030,-3.061580461,-254.3017991,-408.8315998,-87.12116291,317.2281999,-27.41836806,0,92.07838405,-79.70547494,-65.60362151,161.7311083,-65.05443366,6.324379864,-85.23512409,-66.22702532,95.68458309,,,,
263.8879998,1030,-3.055352277,-87.80616693,-147.3577979,-5.536002312,706.519351,43.28354125,0,1.762358492,-13.68695348,55.20910543,-385.794294,-65.52339985,-102.6156298,35.32957385,-738.7389382,-489.6929955,,,,
263.8959998,1030,-3.049070897,201.2629989,49.66946145,26.01282334,913.4953858,71.89203641,0,-25.63767094,24.10832185,-90.00250334,471.1022444,32.28390569,92.66940837,-86.85460837,113.6824366,202.1554644,,,,
263.9039998,1030,-3.042736685,-477.1607081,-580.6577112,-124.5969286,168.6414388,-64.0911891,0,104.0834626,-78.85238944,43.73916561,-367.337939,-107.3136856,-113.8570743,-2.791313315,-631.7927842,-358.0203102,,,,
263.9119998,1030,-3.036350002,313.9955062,231.1592571,79.39967016,1214.05377,124.4940301,0,-94.08491117,55.98810007,-41.72596075,139.7411485,28.23104024,27.53335813,-35.28148978,-289.250245,-148.1525582,,,,
263.9199998,1030,-3.02991121,-270.4483461,-429.0795321,-92.16782155,356.490686,-35.13961342,0,115.4798583,-72.51232363,-55.3637223,144.0320335,-68.19936528,3.167180543,-81.87377987,-90.03824374,82.81957301,,,,
263.9279998,1030,-3.023420673,-111.7188448,-173.1224942,-10.23041334,742.6593853,35.38734887,0,17.32214506,5.944441943,75.12820843,-402.6935695,-53.9140809,-99.69588944,52.3329384,-784.3205583,-522.7993961,,,,
263.9359998,1031,-3.016878751,197.6633455,55.25871641,24.75626745,981.2044157,67.5297122,0,-38.4677682,24.32184081,-96.70730784,458.7694455,36.6125741,91.3410823,-82.70826688,85.38946967,185.2639464,,,,
263.9439998,1031,-3.010285809,-491.9000863,-595.3993777,-131.1840005,175.4402299,-80.91883766,0,105.2953615,-84.84987041,40.2341487,-375.82132,-112.2202582,-119.654247,1.678207786,-650.3905282,-364.5299432,,,,
263.9519998,1031,-3.003642206,298.1861328,208.0277555,76.10995568,1181.095723,106.6870522,0,-87.06946586,68.2751419,-22.20405729,126.802102,36.53587959,25.58487247,-14.30594239,-337.1578824,-180.3602121,,,,
263.9599998,1031,-2.996948305,-275.9285798,-434.9456631,-95.1729352,330.5780724,-56.2861228,0,91.88290783,-62.15410959,-49.42602376,148.1146725,-51.81240101,6.160227234,-68.63999531,-123.7293948,63.58267785,,,,
263.9679998,1031,-2.990204469,-135.8699276,-190.9244068,-27.92592705,690.6537431,1.356432304,0,-16.36537361,6.326456355,63.28969137,-410.5911289,-51.67874768,-103.1716927,49.49133458,-818.8010761,-543.5242549,,,,
263.9759998,1031,-2.983411057,188.239583,54.37471483,5.024414864,957.6387893,45.6304295,0,-56.16342197,28.71859155,-112.33356,450.3951414,34.17597756,87.76934228,-91.28132469,52.13800688,158.6142326,,,,
263.9839998,1031,-2.976568433,-496.4401599,-593.0936022,-145.7222615,174.2468668,-91.15979418,0,108.6817782,-81.59171984,24.23476328,-378.6992212,-112.4218767,-120.1248637,-3.889744138,-661.8018008,-371.9653056,,,,
263.9919998,1031,-2.969676958,287.5804271,204.8730883,60.20257679,1186.028179,95.69873828,0,-96.2789196,70.50062675,-35.07023716,110.5003144,37.79307415,21.51475758,-15.93072046,-352.1619292,-187.9425459,,,,
263.9999998,1031,-2.962736992,-280.2361064,-425.1684835,-116.1252213,361.1800988,-63.22620145,0,64.96302898,-74.34940999,-75.75570782,133.8201444,-57.10035553,-4.910165326,-89.61455397,-122.2173961,67.76860661,,,,
264.0079998,1031,-2.955748897,-146.2779415,-187.4733402,-38.97360139,712.9432234,0.294225937,0,-16.46345619,-17.66491898,41.10576306,-438.1040551,-65.0041277,-123.3084561,24.86450226,-811.9581157,-532.6940659,,,,
264.0159998,1031,-2.948713033,187.0473563,54.56566267,13.42799606,963.5516715,51.15341157,0,-40.84597737,23.63054475,-99.47281301,434.7903756,35.79375449,73.4684051,-89.14445565,54.37176635,168.3333307,,,,
264.0239998,1031,-2.941629762,-506.1555067,-600.3202205,-133.3867696,160.474953,-83.44587722,0,120.5730375,-78.67031858,54.6082227,-378.1989817,-97.22163565,-127.2504429,10.1376875,-662.8107921,-366.5557041,,,,
264.0319998,1031,-2.934499443,276.3497777,209.7100667,73.4363087,1185.131571,105.3883909,0,-90.7466048,71.99187595,-14.35643738,109.8159455,53.65209732,15.79109805,-6.478277422,-358.5564288,-188.3521522,,,,
264.0399998,1031,-2.927322438,-280.3848867,-408.6559751,-101.4717428,374.3968869,-50.75021991,0,68.1709389,-60.40983144,-55.76416439,148.3445519,-40.29428496,-4.066781522,-80.26697621,-119.6878078,74.62877778,,,,
264.0479998,1031,-2.920099105,-152.2123739,-176.5567208,-27.34798715,725.3817538,15.42906144,0,-8.656545,-3.047803443,64.17570796,-433.8008376,-49.15420544,-117.824602,38.37426189,-816.8188953,-532.902076,,,,
264.0559998,1031,-2.912829806,192.9046922,82.34537826,19.95070843,1014.707822,62.09949533,0,-54.14366892,26.21082649,-104.5929974,438.4722217,43.41386594,83.35623489,-89.26039458,67.16429101,182.0015025,,,,
264.0639998,1031,-2.9055149,-510.0935884,-585.7825989,-139.46814,212.203465,-89.72200814,0,99.44900425,-81.04431137,34.82934288,-385.0573824,-106.5745848,-123.2534676,-1.161883514,-648.133514,-354.0293847,,,,
264.0719998,1031,-2.898154746,271.5516241,218.3909825,68.8685848,1237.339113,101.1373728,0,-96.04049009,74.00971939,-18.27079986,86.91368817,43.16460034,17.94128173,-1.802153843,-369.1900156,-200.9349624,,,,
264.0799998,1031,-2.890749703,-272.723123,-390.8301689,-96.69781469,440.6245824,-45.97295877,0,57.64315216,-59.91448264,-62.20007828,149.1325455,-46.34414226,6.494690555,-72.83954151,-108.4988468,80.95286866,,,,
264.0879998,1031,-2.883300131,-156.0255316,-174.343518,-21.87952881,779.1942125,15.42723139,0,-22.85975456,0.667302919,61.16970059,-441.0501341,-57.51384575,-113.747628,38.31669527,-811.3654362,-532.7405907,,,,
264.0959998,1031,-2.875806387,196.5150988,90.18195815,32.67532197,1076.857086,67.3748741,0,-49.08870541,47.26998545,-91.79599217,431.5189808,50.16890078,86.52679372,-80.19398135,60.11446367,167.817772,,,,
264.1039998,1031,-2.868268832,-519.0765867,-585.1596772,-128.1196555,256.3688894,-86.38059901,0,106.6825957,-63.54403618,37.48507079,-383.320666,-94.6230996,-116.665996,9.078858385,-643.3401625,-356.4796541,,,,
264.1119998,1031,-2.860687822,251.317487,209.0529209,77.08043872,1265.250289,96.70577581,0,-101.2624782,83.37489586,-22.91209215,77.30427265,48.00101004,20.69418084,1.047960011,-370.9023833,-211.3858784,,,,
264.1199998,1031,-2.853063716,-290.6772151,-408.0389175,-88.83985706,457.9575442,-52.14329443,0,62.63405448,-46.77840335,-56.25427738,146.1025329,-35.1989959,10.4703021,-65.55275709,-111.8691797,66.77135743,,,,
264.1279998,1031,-2.845396871,-188.4628656,-202.0428898,-20.30140643,775.6368405,5.42533773,0,-24.69554588,5.975542792,66.90659127,-456.8143816,-50.243038,-112.4359163,50.48015226,-834.5441426,-558.1341953,,,,
264.1359998,1031,-2.837687645,181.5833163,87.6283005,33.74353126,1091.27546,64.0360846,0,-71.4377794,40.5889296,-101.3567533,423.766528,44.82786303,88.91091313,-81.77576438,47.06343751,154.5533612,,,,
264.1439998,1031,-2.829936394,-525.8726534,-590.8730095,-133.3395903,250.4426839,-84.98772573,0,97.46522225,-71.54041196,28.7737938,-382.3147854,-100.7941821,-115.4696608,3.163284371,-639.1525927,-351.4893182,,,,
264.1519998,1031,-2.822143476,254.3165098,198.2942017,77.08638554,1214.978748,100.7139148,0,-95.76035557,90.43575439,-13.15591543,68.34864473,52.22813824,18.77393981,12.54850209,-393.6666109,-225.5024288,,,,
264.1599998,1031,-2.814309246,-266.214212,-401.4086184,-80.0604825,376.6582872,-41.01818716,0,57.7471245,-38.48295591,-50.49966609,162.5817954,-28.36892216,16.67094125,-56.79708296,-116.7256088,71.61197568,,,,
264.1679998,1031,-2.806434062,-169.8817253,-200.1583772,-16.88135817,653.5994293,15.49385102,0,-35.84322835,4.061528026,68.09830511,-441.3463253,-47.33954673,-108.6851497,53.13555698,-826.30179,-540.9266162,,,,
264.1759998,1031,-2.798518278,211.0401138,95.10748999,47.2440854,945.6804889,73.7267914,0,-80.43698551,48.83579742,-85.76972194,439.3688574,65.33979816,92.69922804,-68.47465229,47.58090166,161.8482342,,,,
264.1839998,1031,-2.79056225,-505.9111843,-586.9153587,-120.6992173,73.11766802,-79.75173259,0,63.10450848,-65.72189073,44.53774257,-359.6589106,-76.90179789,-108.4334209,6.774660228,-632.7968718,-337.6340474,,,,
264.1919998,1032,-2.782566333,251.9890606,200.3073735,72.58328036,1023.78291,95.91140675,0,-144.8122421,81.03465161,-15.42726425,71.80976509,49.94492829,15.92822253,-7.283709536,-392.9757229,-220.1746487,,,,
264.1999998,1032,-2.774530882,-265.5243034,-392.9192486,-82.49482837,176.9360327,-47.12157996,0,35.03405547,-45.04805128,-59.38409345,165.7429298,-38.24354279,13.58438317,-78.15292115,-111.2544184,76.40005516,,,,
264.2079998,1032,-2.766456251,-172.0392984,-204.749435,-12.05544087,414.4286725,8.356426884,0,-42.96368291,9.946056908,73.54795687,-443.9857616,-47.37063169,-105.9255875,46.42419068,-833.8030284,-543.6807152,,,,
264.2159998,1032,-2.758342794,216.8386275,88.02901892,56.08788364,684.6551151,60.14244321,0,-77.81809773,65.2356531,-73.63758576,445.0977285,69.68822573,97.26408396,-64.38648842,28.03928206,144.648522,,,,
264.2239998,1032,-2.750190865,-491.571216,-586.7997218,-100.8472595,-185.1036125,-90.76380001,0,77.22216412,-49.81443709,52.3607496,-339.7538585,-71.84139537,-104.5615005,18.50139608,-648.1171911,-349.7669631,,,,
264.2319998,1032,-2.742000816,283.4338428,219.3532453,99.93788008,804.5765447,94.18124301,0,-145.3983738,90.69519168,-13.14240132,99.13395553,59.67077895,19.46793941,3.418508587,-392.452763,-210.4402382,,,,
264.2399998,1032,-2.733773001,-234.4489106,-376.3822441,-71.79746729,-21.97808307,-54.05905149,0,25.58074801,-44.45778686,-65.93109616,208.482502,-33.54465583,15.212473,-74.34112486,-84.10862886,105.3265794,,,,
264.2479998,1032,-2.725507773,-164.6625709,-205.4834017,-23.39985315,216.5418453,-2.892681021,0,-46.27574583,0.261658959,64.22079794,-428.8197972,-61.49543324,-111.3691759,48.77701765,-824.2822427,-535.9661901,,,,
264.2559998,1032,-2.717205482,234.4918077,100.2895625,44.75915265,524.654381,60.22464131,0,-81.78587593,55.01763604,-78.41303467,450.0914079,52.65137298,96.83305637,-61.87649519,34.6435259,147.929424,,,,
264.2639998,1032,-2.708866481,-485.0665223,-588.5965262,-113.4653758,-347.065729,-87.54881543,0,85.21988119,-60.0790361,58.09072169,-337.2523426,-79.24795525,-97.00363196,29.40921621,-639.2168025,-343.4388463,,,,
264.2719998,1032,-2.700491121,280.6325052,214.9600505,84.19488781,660.9648695,96.25258726,0,-145.743256,80.21302041,-6.04664616,73.93607254,54.02504885,27.76180687,18.27838466,-407.8848048,-226.4730326,,,,
264.2799998,1032,-2.692079753,-222.0977281,-357.6675787,-75.84459724,-110.4448176,-50.65390115,0,8.426661574,-54.91211714,-72.72568436,193.4085907,-36.21213295,21.84592405,-69.8574313,-80.46979123,104.9721254,,,,
264.2879998,1032,-2.683632726,-160.4462385,-192.2963102,-18.17765985,140.7291036,-3.323804142,0,-54.05057913,-6.799973105,54.85220457,-440.3233212,-54.87630005,-111.633608,53.23012684,-816.4419086,-529.2240443,,,,
264.2959998,1032,-2.675150391,245.5584138,124.8690365,50.54474709,487.7225014,58.79283536,0,-102.5332233,51.06424172,-93.64268694,445.9808442,61.76371863,94.27414106,-63.20786928,40.31031339,152.1459195,,,,
264.3039998,1032,-2.666633098,-473.300076,-561.268514,-109.6255372,-353.5676396,-90.47760381,0,66.50652714,-69.90616163,37.97701462,-330.7129178,-74.65153116,-102.6700471,18.95002938,-618.5847339,-324.6447734,,,,
264.3119998,1032,-2.658081194,291.4363586,234.8705357,86.22523193,666.2715199,92.71407847,0,-147.116357,80.64144364,-6.549886503,82.50887576,63.77708896,21.90889669,18.78763118,-396.1655,-214.9513464,,,,
264.3199998,1032,-2.649495029,-205.8764886,-343.3466365,-77.0126994,-95.59823982,-52.96144194,0,4.747419462,-46.69766733,-66.2663992,217.9433524,-26.7487911,20.71227299,-71.79842743,-71.40992918,113.1782563,,,,
264.3279998,1032,-2.640874951,-144.7469255,-185.2684244,-15.50943456,158.1599918,-1.216065647,0,-52.37926682,-8.077810709,55.89802684,-432.2746233,-54.97291239,-112.5243145,45.01182384,-813.5707267,-520.7099743,,,,
264.3359998,1032,-2.632221307,279.9728548,147.9702014,54.89267336,534.6907979,64.27437104,0,-110.8245661,54.94753592,-91.88168721,452.6796355,60.4775257,104.9959186,-66.02881649,57.66126831,173.0852662,,,,
264.3439998,1032,-2.623534444,-452.8783929,-551.4404867,-117.3377709,-317.7701017,-96.89318055,0,50.99544047,-65.28147095,34.79580418,-328.7363245,-87.74878816,-90.71119309,13.52127949,-597.3629033,-302.7724482,,,,
264.3519998,1032,-2.614814708,308.9514348,245.5703027,84.93521631,707.1813776,85.98052855,0,-141.1432481,74.47798619,-14.70518621,66.52742536,47.01255813,25.69565284,19.76688018,-393.1724184,-208.4075118,,,,
264.3599998,1032,-2.606062447,-172.2776304,-317.274786,-69.96088971,-22.80056236,-50.24169914,0,24.68535128,-45.54561086,-64.48653208,229.5722254,-17.51689091,37.75269408,-49.53164049,-47.52453961,136.0809201,,,,
264.3679998,1032,-2.597278005,-129.7568875,-170.1043113,-20.92269048,242.5924115,-5.041836896,0,-43.79124527,-0.014849993,65.3330126,-414.8077438,-36.34248577,-95.26374532,74.32061311,-789.0128051,-500.3150388,,,,
264.3759998,1032,-2.588461727,287.9744239,160.3682061,42.02607819,638.5511868,50.28546311,0,-107.2480734,53.41675984,-92.728434,473.5398953,66.31654498,106.1164534,-50.94305086,78.16287078,181.833409,,,,
264.3839998,1032,-2.579613958,-453.7136587,-553.4566677,-128.4365436,-214.8173816,-110.5470467,0,53.67763728,-61.45472703,39.16073376,-307.0736442,-80.94080393,-93.22895577,25.43429371,-586.5034597,-308.658659,,,,
264.3919998,1032,-2.570735042,317.0305239,261.325671,87.35395211,855.3248577,86.34376491,0,-160.8159249,91.6900206,-5.678837894,74.76834554,58.89429267,29.85971126,28.81551262,-383.2178348,-217.2078409,,,,
264.3999998,1032,-2.561825323,-163.6632011,-298.2625417,-67.82809615,142.2477206,-56.68569368,0,-4.42311631,-42.38124085,-70.32532668,239.7311964,-20.86806758,39.32953566,-61.06796576,-2.075657453,155.6487453,,,,
264.4079998,1032,-2.552885142,-143.0532415,-167.753834,-24.88413728,380.1217361,-20.97290171,0,-71.46360996,-8.389593255,62.3626362,-433.5060932,-50.83245051,-108.9882304,57.9372691,-774.1173543,-508.5230118,,,,
264.4159998,1032,-2.543914843,302.4235014,208.7103874,52.26464932,828.041121,56.98112295,0,-141.4952636,43.3764426,-104.0875207,458.4333774,56.7957749,96.56201905,-70.70705815,101.1536203,181.1918272,,,,
264.4239998,1032,-2.534914768,-445.6257819,-502.7219804,-128.9529467,-30.87626138,-106.3787383,0,20.99177444,-90.35038255,6.060872821,-308.4702567,-102.3199041,-100.0047937,-10.69725481,-513.7667564,-263.0342821,,,,
264.4319998,1032,-2.525885258,302.7119793,291.1593941,73.30215187,970.563359,76.09524231,0,-174.9162791,62.98275092,-33.00162974,58.27506873,27.02444977,12.48386614,-4.252189021,-338.8773618,-197.8722235,,,,
264.4399998,1032,-2.516826652,-165.7975563,-257.1189961,-69.08720212,215.0019788,-55.02626131,0,-2.497622182,-49.88000318,-81.6796782,240.5181435,-37.83755421,29.62484693,-72.42324696,28.34801106,161.9894159,,,,
264.4479998,1033,-2.507739293,-144.4226979,-122.2512598,-21.08881914,428.0958428,-11.92381438,0,-79.45229363,-18.76609985,53.46041717,-435.2433075,-59.40215297,-111.6485601,55.41599387,-730.5953901,-486.6002361,,,,
264.4559998,1033,-2.498623518,317.2058942,271.6256717,60.06022724,868.1986222,67.636973,0,-145.7060346,24.6044524,-119.1940241,456.9054508,48.32975769,95.82072903,-74.29572083,169.197473,223.1868205,,,,
264.4639998,1033,-2.489479667,-432.5475988,-447.5579644,-115.8899703,-39.44918602,-97.04642428,0,32.4902628,-91.65348597,5.426885192,-301.4291355,-102.484805,-95.06636507,3.008814913,-442.2737445,-220.1684423,,,,
264.4719998,1033,-2.480308079,315.1195162,346.7985881,83.17111838,941.9877423,82.73737725,0,-184.0638884,69.12604302,-32.06414669,59.85129619,31.21539254,18.25190941,8.218522682,-275.2412797,-164.5306246,,,,
264.4799998,1033,-2.471109091,-142.903303,-191.1065449,-67.349035,170.500347,-49.80161229,0,-19.61576994,-59.55437662,-101.2438336,253.4332552,-38.85493933,31.20114724,-84.81993851,122.7630197,219.314758,,,,
264.4879998,1033,-2.46188304,-140.1466259,-81.96747372,-25.2750924,299.5888663,-11.35988797,0,-74.83931492,-14.65549758,52.02503153,-426.4314585,-58.48052082,-110.0720848,51.01038175,-653.263113,-444.6891771,,,,
264.4959998,1033,-2.452630263,317.2701258,309.1140062,54.04986625,688.2523574,69.49445709,0,-147.5647996,49.05613644,-104.3284583,473.8938065,57.95248624,104.8925289,-66.93222689,222.5528027,239.8193295,,,,
264.5039998,1033,-2.443351096,-440.5672066,-414.3337701,-129.1046343,-257.8989602,-90.00010624,0,18.83812612,-94.04218632,5.076454438,-295.0656301,-104.4707774,-96.17250513,3.550977104,-383.8012729,-196.920982,,,,
264.5119998,1033,-2.434045873,308.1320966,376.6831919,71.2780202,709.7109887,97.08853394,0,-196.9253422,49.64897377,-36.28443947,43.09100645,17.1168022,7.382956049,12.7969718,-216.5618196,-139.6795186,,,,
264.5199998,1033,-2.424714931,-143.4373801,-161.2626889,-70.94702426,-58.99610441,-32.1357251,0,-19.87757992,-61.12607875,-96.22415235,257.2936758,-49.29549171,29.7529477,-71.89319687,193.5496201,247.0687678,,,,
264.5279998,1033,-2.415358602,-148.9435934,-60.6865265,-31.00172159,72.28174507,5.493151754,0,-72.59845727,-17.91652237,52.92430882,-432.125955,-74.19450945,-114.1262649,63.17602233,-596.6353346,-427.8918396,,,,
264.5359998,1033,-2.405977221,341.7318472,350.2075414,49.01932823,494.2010054,89.38642594,0,-163.6268645,32.4199328,-121.2675498,467.9183365,34.57451288,95.56921233,-69.48879722,288.6243188,266.7050792,,,,
264.5439998,1033,-2.396571119,-396.9586783,-386.8363547,-127.4331833,-505.8957011,-76.44934471,0,27.88131953,-91.04762376,15.4902479,-277.0401153,-112.7875199,-96.58314071,5.62140403,-308.5014886,-165.4414478,,,,
264.5519998,1033,-2.38714063,360.5820384,405.7079247,69.26273454,424.5825874,100.2110686,0,-203.1013071,75.36887441,0.480880735,65.50326107,28.88372689,17.37892715,28.03376888,-174.5281824,-135.0481692,,,,
264.5599998,1033,-2.377686084,-68.93384497,-102.1381163,-86.94803893,-314.7884535,-34.15708821,0,-79.61472273,-65.49180021,-107.047623,279.7177224,-62.29365701,35.48883068,-93.59407362,258.1136159,276.9123914,,,,
264.5679998,1033,-2.368207812,-82.24278327,-20.52182049,-46.7326987,-201.853386,-1.347799351,0,-99.86647951,-42.81241113,36.3878711,-429.3920605,-106.777306,-118.5411586,28.55757469,-511.1645357,-377.9066442,,,,
264.5759998,1033,-2.358706145,403.9076372,385.6723125,41.20078888,283.7597119,77.68914196,0,-163.8272476,33.27447216,-96.86467973,479.5687186,31.05781013,96.75927529,-71.85628066,357.6444234,297.9223154,,,,
264.5839998,1033,-2.349181412,-352.8475603,-345.4702204,-145.4634693,-564.1435639,-91.64783814,0,24.01205742,-102.028146,15.11394298,-265.3340216,-120.5094866,-100.1975783,-16.8145034,-239.175785,-135.4188249,,,,
264.5919998,1033,-2.339633941,394.2336975,449.5267664,57.05905526,513.4097448,99.87407081,0,-147.4805371,47.11498813,-11.61461795,59.41331759,7.893715018,5.860804929,-15.33647772,-93.30643868,-98.82257281,,,,
264.5999998,1033,-2.330064061,-35.71411327,-56.22550575,-80.94331013,-96.72570509,-17.4670942,0,30.31717154,-69.46591323,-74.67028012,303.4372201,-47.00171104,39.90137332,-101.5576977,356.5040094,323.6634373,,,,
264.6079998,1033,-2.3204721,-86.03864078,12.85858346,-55.41368511,113.6213906,6.324863095,0,-16.02178852,-54.11884259,58.15622509,-421.6297121,-91.66726153,-116.6020536,19.50114972,-426.6420143,-337.0769626,,,,
264.6159998,1033,-2.310858382,381.4439446,405.9697502,20.37607269,627.1985264,74.1224512,0,-84.63724189,8.497726299,-107.3073824,455.9555741,14.70322409,87.41652199,-114.8295242,423.9025753,325.0024765,,,,
264.6239998,1033,-2.301223236,-385.9198931,-351.7422848,-153.3667925,-268.0744184,-94.82868469,0,130.8344589,-100.9019853,29.61922219,-282.9796025,-119.99592,-103.1275307,-39.21904818,-194.5509802,-121.5446432,,,,
264.6319998,1033,-2.291566986,355.4870766,440.5720118,54.80803747,782.0297655,93.17120785,0,-73.67850115,59.80044391,13.32291507,36.38800644,26.92186286,0.64977033,-16.01589628,-79.06150655,-99.6378602,,,,
264.6399998,1033,-2.281889956,-70.47641953,-76.34039597,-87.50514051,124.2683958,-36.65802685,0,75.41792786,-58.16749281,-58.54050728,278.9537881,-36.3913663,29.79043873,-113.7875016,358.039185,316.2613913,,,,
264.6479998,1033,-2.272192471,-110.414341,-13.52273526,-50.21880084,302.0075258,-8.510602994,0,35.95758678,-37.41944428,85.20981741,-453.9563004,-79.83825481,-120.5536581,20.81802064,-451.9853097,-362.7031517,,,,
264.6559998,1033,-2.262474853,394.7510329,430.0363071,42.08347491,865.4272008,79.34311742,0,-51.08637897,15.06020282,-90.9747012,439.2787327,27.42082905,94.13390855,-98.69292705,425.5084612,328.1665265,,,,
264.6639998,1033,-2.252737425,-380.2238554,-333.1245445,-139.6128856,-45.76117694,-89.2983509,0,137.4115542,-107.9802911,30.73791133,-297.3578965,-120.7476076,-100.4638162,-32.0252317,-163.0758224,-89.92030238,,,,
264.6719998,1033,-2.242980508,351.7201951,446.7283004,62.33071086,999.361657,98.67729766,0,-83.08366957,51.03974149,7.621918837,0.745789968,17.15185777,-2.954781624,-18.95579877,-71.37315066,-88.5838115,,,,
264.6799998,1033,-2.233204424,-63.51026021,-56.22230692,-81.53586543,365.1842396,-29.23424863,0,67.22215883,-69.93612527,-79.78618776,261.64968,-52.2915721,29.67275625,-129.9224268,386.8541909,342.6118358,,,,
264.6879998,1033,-2.223409492,-127.4052446,-27.22381033,-51.72970619,485.9460691,-10.66823232,0,37.1302494,-37.49525744,83.20327544,-477.3772417,-87.85646208,-128.1414266,5.720022318,-435.4842849,-352.5247326,,,,
264.6959998,1033,-2.213596032,380.9126826,413.7788918,42.04247879,1033.46733,80.26791535,0,-61.54504854,27.90565998,-77.21180236,416.7555952,39.10725576,86.82670272,-111.6368923,418.7170856,314.36505,,,,
264.7039998,1034,-2.203764363,-398.7247847,-349.2755249,-146.2981134,109.1191015,-90.91311737,0,127.2078355,-116.7530964,23.69436018,-315.759128,-123.2850372,-104.4469636,-58.49158363,-147.8789835,-81.45693967,,,,
264.7119998,1034,-2.193914803,321.3099431,415.6524975,53.6395065,1111.258074,87.77703769,0,-85.82793154,38.05526125,8.603713736,-38.14319757,5.47254955,-8.910379737,-30.90831085,-69.64570111,-92.15380944,,,,
264.7199998,1034,-2.184047668,-84.27924677,-78.80515103,-83.63109016,466.7578968,-36.64299049,0,52.84926691,-74.77916755,-76.42753542,237.1432707,-54.68610226,26.61335016,-127.0269371,389.5152503,340.5706543,,,,
264.7279998,1034,-2.174163274,-158.1603901,-57.86558163,-56.23161737,565.5845605,-15.09136644,0,32.58017617,-48.19043199,74.44840109,-504.4096032,-97.32314971,-137.6471826,3.341432131,-431.0770054,-347.807966,,,,
264.7359998,1034,-2.164261939,361.5740101,386.1365393,40.70767299,1111.283364,76.32914559,0,-58.10674217,33.30309613,-68.58859529,397.6827531,40.84297025,80.33060764,-107.1009869,410.3711747,304.542212,,,,
264.7439998,1034,-2.154343975,-415.6839635,-380.3623098,-147.4564322,188.6124992,-95.52679234,0,126.8893609,-103.493757,37.00134286,-321.2640361,-110.5461181,-102.5936149,-53.33666999,-158.0494722,-92.30651107,,,,
264.7519998,1034,-2.144409698,307.1632771,384.7284783,59.2744028,1197.08205,93.38488927,0,-70.83682145,56.94985591,21.32982801,-51.70241737,18.76717657,-4.211882911,-23.25755619,-94.78756856,-111.0192198,,,,
264.7599998,1034,-2.13445942,-80.20870871,-86.62494955,-69.62500569,582.8966409,-23.27667045,0,52.39383509,-50.32532821,-59.26250811,248.8232827,-31.99646519,42.69646793,-114.3316432,375.0774345,331.0977555,,,,
264.7679998,1034,-2.124493454,-166.2609446,-62.79239962,-49.1244604,693.2483998,-7.099156532,0,10.21508374,-48.30530178,72.83406955,-502.3943613,-86.79635199,-124.7548182,2.203630525,-436.1327048,-346.0115253,,,,
264.7759998,1034,-2.114512111,366.4876081,395.1215177,57.193667,1256.413427,93.36400288,0,-61.92015902,26.20416864,-78.56648594,392.2463422,45.07464485,83.63391913,-107.1210815,412.746507,315.2297623,,,,
264.7839998,1034,-2.104515703,-407.3986026,-369.0962569,-126.3511814,324.0882181,-79.56257411,0,119.0318481,-104.995991,40.64539236,-307.4638555,-91.82263569,-103.9854824,-34.48058308,-142.0020087,-68.03745566,,,,
264.7919998,1034,-2.094504539,299.9488854,386.3892496,65.35063123,1309.163416,91.27478729,0,-99.40218881,44.31016873,19.27171719,-52.25080228,34.76377365,-20.17554846,-16.68333911,-89.52680859,-98.30488734,,,,
264.7999998,1034,-2.084478928,-83.0814695,-96.14682252,-66.83893,669.0914234,-29.59955587,0,53.20634026,-61.10937123,-66.09334067,249.6760844,-22.7534263,21.62020718,-123.7169634,375.800147,334.1995041,,,,
264.8079998,1034,-2.074439179,-174.4582344,-93.36928134,-42.36956065,743.6137284,-12.22025898,0,27.36292096,-41.47983092,88.0913625,-496.555243,-69.10781914,-135.4277062,14.33250488,-454.1440272,-356.9693512,,,,
264.8159998,1034,-2.064385599,374.2382213,386.4412067,64.33687582,1331.095071,88.20051227,0,-87.77904439,37.34243568,-65.00882207,410.662099,66.02685566,86.46541485,-97.39577773,395.8186894,302.5194442,,,,
264.8239998,1034,-2.054318494,-397.93829,-375.7227553,-123.3510941,401.6721554,-84.05878591,0,96.98315285,-108.9536288,33.07558055,-287.8063745,-93.05088384,-98.12937502,-51.52237811,-140.7532371,-72.85351928,,,,
264.8319998,1034,-2.044238172,305.7843242,369.6571771,69.76516253,1376.23051,95.50470413,0,-83.55047905,39.60009974,16.74660254,-46.23232538,24.50066415,-11.6797928,-22.11360534,-94.47309047,-109.5396091,,,,
264.8399998,1034,-2.034144936,-61.09942323,-92.25502582,-58.37449963,762.0116299,-13.77144631,0,58.56744108,-55.39028071,-59.74030779,277.6069182,-17.78021867,40.93866855,-110.6776493,389.6734132,338.856193,,,,
264.8479998,1034,-2.024039091,-162.200735,-90.09362327,-37.69353528,830.3361887,3.994327449,0,21.04114445,-49.35406461,80.62063636,-487.3359994,-76.62478536,-126.7188575,18.48771253,-438.7732285,-351.1413938,,,,
264.8559998,1034,-2.013920941,389.9900916,394.3059716,71.21757181,1411.659014,108.4255601,0,-77.92185791,22.74937581,-80.57916482,404.3060828,47.423917,85.38524586,-99.07224043,408.034165,307.6580598,,,,
264.8639998,1034,-2.003790787,-389.4934907,-373.3309779,-116.874089,463.3185006,-62.57383868,0,113.4491076,-110.5005797,28.56565124,-280.0785963,-97.81843563,-93.855313,-44.71964506,-123.5845933,-57.48919269,,,,
264.8719998,1034,-1.993648931,304.930555,372.9463251,72.24369234,1432.143483,109.6304636,0,-91.82703418,40.08738528,7.848536502,-54.15654601,20.27633185,-10.19261743,-19.75809835,-95.88772264,-107.0270995,,,,
264.8799998,1034,-1.983495675,-50.37113041,-78.12683397,-51.84586786,822.7726991,-4.029358753,0,46.65337605,-54.1799875,-74.13452253,277.1898063,-23.99633712,43.79853675,-116.1503627,398.0411845,349.2551062,,,,
264.8879998,1034,-1.973331317,-159.0689115,-90.70446169,-27.92009438,865.0100021,9.661316487,0,35.64023964,-39.68901595,85.68161085,-483.5699351,-72.08816069,-118.4130639,24.42941698,-434.1665203,-338.3315835,,,,
264.8959998,1034,-1.963156157,399.4520867,400.705181,78.60090906,1454.699422,110.5541034,0,-69.61423111,35.76780874,-68.53014046,412.3945898,57.77755213,99.74199434,-88.66339854,409.3019246,319.8161729,,,,
264.9039998,1034,-1.952970493,-388.4011719,-379.0406816,-117.3086934,489.9033308,-69.30281586,0,115.6268456,-101.2835211,38.24359626,-273.7814286,-89.52873823,-80.33782633,-35.34656806,-122.2050323,-46.63157323,,,,
264.9119998,1034,-1.942774623,309.5934428,376.2212727,81.09230738,1471.408866,109.7383196,0,-74.42186524,44.25514727,15.20675785,-63.40362503,33.16977992,0.793842795,-4.078102546,-105.6525098,-103.2700609,,,,
264.9199998,1034,-1.932568842,-32.5807433,-50.9312304,-37.71570707,896.2468109,5.619787949,0,70.97325414,-58.98454079,-82.33133055,285.9868988,-16.75329907,59.27974025,-104.9110632,433.1852933,390.832764,,,,
264.9279998,1034,-1.922353447,-173.2384294,-95.24316244,-27.21360956,897.5088906,7.33137461,0,53.28864898,-38.12249321,90.02253986,-489.9393701,-70.07022218,-111.1865602,43.77802895,-410.8427241,-314.1674941,,,,
264.9359998,1034,-1.912128731,397.6224919,413.4256128,89.76688378,1507.995708,117.2683441,0,-57.75155168,51.22313686,-60.34193311,403.4733155,71.65843879,106.7502329,-60.62034782,407.9949735,317.5617624,,,,
264.9439998,1034,-1.901894989,-385.467807,-357.2644083,-103.4332639,560.4892965,-55.09640576,0,130.9200752,-97.91364688,23.26999738,-268.3285095,-88.14247889,-71.38612922,-22.87093764,-87.37997444,-15.81355609,,,,
264.9519998,1034,-1.891652512,287.0267536,365.3089088,80.07145063,1506.502035,105.9899636,0,-78.55611917,46.3278015,15.17232344,-75.98710018,24.2203681,-3.195324244,8.420976297,-98.41509133,-97.70202683,,,,
264.9599998,1035,-1.881401594,-48.53169268,-64.43497467,-38.00937943,927.2281925,-4.336472005,0,55.47336405,-45.48768677,-73.51266365,290.2525942,-11.28794028,56.71729721,-92.99272035,414.604879,373.7382502,,,,
264.9679998,1035,-1.871142526,-192.7330339,-111.0469801,-31.08529617,934.3767524,-0.860217268,0,38.16209256,-38.1317297,75.08511055,-484.3180066,-73.22371763,-109.2192706,33.797006,-419.5326358,-317.1732528,,,,
264.9759998,1035,-1.860875596,381.9285245,401.3558286,83.00470329,1558.690746,104.5148386,0,-87.7052653,48.29347662,-76.73027948,410.6536422,61.62795547,109.5018335,-73.78482243,400.9613898,311.6616108,,,,
264.9839998,1035,-1.850601095,-400.1060821,-370.0005058,-101.5930538,609.4164455,-71.02755863,0,110.0255333,-90.35068308,19.91282477,-244.4283169,-85.08550481,-65.80093563,-23.91625314,-98.83243298,-29.03158523,,,,
264.9919998,1035,-1.840319311,272.9844655,359.5935678,86.6024057,1573.593302,94.28592465,0,-88.09315417,47.30250663,5.38633032,-65.2557151,21.88674085,0.933945063,5.67881804,-109.937231,-109.0027748,,,,
264.9999998,1035,-1.830030531,-51.86427068,-61.67891359,-34.24177146,1012.704952,-14.84500961,0,35.97961814,-43.24654644,-82.31100993,309.5010671,-18.35515404,61.59040926,-94.71257473,416.9604336,367.8802986,,,,
265.0079998,1035,-1.819735041,-195.9702887,-104.7134258,-26.37921293,1027.037207,-10.78818973,0,27.78423758,-31.59173373,73.4132154,-466.2811115,-73.63097427,-107.8999806,40.7040689,-416.5946673,-325.981776,,,,
265.0159998,1035,-1.809433127,390.878796,420.6904011,84.13888736,1681.123838,93.2141926,0,-81.56091081,46.50994712,-88.30963459,420.6067565,53.98556458,104.3959044,-71.76109985,423.4916748,322.0766319,,,,
265.0239998,1035,-1.799125073,-403.7241447,-372.7922595,-114.4429583,717.0926241,-90.25810717,0,105.4802202,-94.59428683,13.98966197,-236.9830178,-94.9493097,-75.69062099,-24.53652534,-78.65559897,-20.74518558,,,,
265.0319998,1035,-1.788811163,266.5982531,355.5422004,80.59130713,1685.760639,80.69748143,0,-91.98504291,51.42354591,13.92968086,-64.34807864,33.13007459,-3.460374988,14.26119535,-110.2082806,-121.4424119,,,,
265.0399998,1035,-1.77849168,-50.78964521,-59.30922616,-32.63749106,1140.404819,-31.76927263,0,46.57979855,-33.58978693,-74.15027479,327.1204329,7.240694178,69.98066208,-84.56868208,442.2763264,375.8695668,,,,
265.0479998,1035,-1.768166906,-226.3842545,-133.9492327,-32.68316614,1122.000383,-39.82263757,0,24.53531701,-27.13641269,83.49759968,-465.8351234,-55.21953224,-106.4435356,44.67322072,-415.288256,-335.4237975,,,,
265.0559998,1035,-1.757837121,362.4460723,396.9314015,84.17037676,1778.211173,74.98046265,0,-106.267997,47.18384914,-81.7720415,409.3407618,63.6635107,101.076707,-76.69858962,397.9413224,288.8000233,,,,
265.0639998,1035,-1.747502605,-422.3016209,-388.9916974,-108.536848,814.591261,-101.1690746,0,91.18909689,-93.66804127,12.78524502,-240.6456039,-93.714983,-71.79848643,-30.66061438,-86.07156946,-39.93951428,,,,
265.0719998,1035,-1.737163636,248.1649251,336.2215814,88.14660324,1777.268833,72.97456801,0,-82.00800093,50.58998699,18.16308953,-80.72296349,33.12469563,-0.871542437,17.76872136,-124.6921067,-145.2521475,,,,
265.0799998,1035,-1.726820494,-60.35960912,-73.80688029,-24.29772955,1234.107035,-32.04105959,0,48.92215177,-37.93223405,-67.61875836,321.9507441,11.6162141,70.69253719,-77.36556939,431.8971089,356.209278,,,,
265.0879998,1035,-1.716473454,-237.6879775,-153.3019533,-27.0852894,1198.468683,-40.32774466,0,22.83217501,-29.24377476,86.38380282,-476.6730256,-59.08540534,-106.7563586,53.79129406,-434.5641615,-359.7026216,,,,
265.0959998,1035,-1.706122793,373.0957157,396.910732,96.5986256,1866.530106,78.65248332,0,-85.06991768,48.18149338,-77.76306584,406.1663033,64.2222169,107.3269398,-61.10401788,382.6665117,270.4387829,,,,
265.1039998,1035,-1.695768786,-411.3178282,-381.2591704,-100.9159788,902.1587408,-98.58767097,0,96.12236494,-104.8023277,12.36737707,-221.9209011,-88.75515789,-65.12248643,-18.00657783,-70.3355855,-30.00576031,,,,
265.1119998,1035,-1.685411707,248.1555449,348.7835482,83.18321546,1851.220183,69.7484738,0,-118.5348123,31.17906022,0.256040147,-76.90715457,13.02456495,-8.569669386,8.366570591,-111.4364499,-135.7513488,,,,
265.1199998,1035,-1.675051828,-52.23589335,-58.3205777,-29.92262872,1276.943591,-32.70090427,0,31.33441251,-47.79978748,-83.92912273,332.1225549,-14.60358236,61.29846518,-95.68093575,443.7709784,363.9483128,,,,
265.1279998,1035,-1.664689423,-239.8750695,-151.6323429,-38.98177074,1196.071841,-38.12670003,0,15.25289619,-37.46994394,80.28758692,-468.153771,-68.28296306,-114.3149389,47.90169727,-425.9954804,-356.3237277,,,,
265.1359998,1035,-1.654324761,382.4544197,426.5000403,78.48005274,1876.245217,85.85027072,0,-139.418487,31.90120025,-104.1037564,405.1016375,50.0769856,95.47081974,-80.04966837,406.914256,284.3816499,,,,
265.1439998,1035,-1.643958115,-404.1401313,-359.8937386,-116.7316779,858.1744924,-91.48222629,0,63.76549591,-116.0222364,-5.351960339,-232.9135755,-110.5766412,-78.48202618,-43.96395107,-38.64100149,-8.633178426,,,,
265.1519998,1035,-1.633589751,254.2148143,354.5647079,74.18241089,1734.780641,78.99640092,0,-114.6264619,34.61117457,12.55523512,-98.27829593,10.9918127,-13.64352409,11.48255244,-104.0536942,-132.3558443,,,,
265.1599998,1035,-1.623219939,-25.89680371,-28.1541412,-35.65403801,1128.300277,-21.9494221,0,17.88213439,-45.0710878,-82.53933331,336.2599949,-7.549438532,66.72423496,-84.23056607,474.7464912,388.5283563,,,,
265.1679998,1035,-1.612848946,-227.7198802,-133.8375454,-42.10350088,947.8877306,-37.09264325,0,9.813346616,-37.43870909,84.652339,-464.2198627,-70.25372834,-110.4800143,60.462858,-394.7690836,-330.8134024,,,,
265.1759998,1035,-1.602477038,403.8994145,450.4708116,87.63400187,1552.549435,84.63510002,0,-137.6725443,39.57373556,-89.7017172,419.0588023,52.67740353,102.2715138,-59.55903891,422.9149385,294.7204203,,,,
265.1839998,1035,-1.59210448,-382.2601674,-335.1927361,-111.582725,465.5518993,-101.202934,0,55.4809849,-116.4673613,-14.02060919,-199.5961021,-114.6783652,-71.61765452,-38.86532803,-6.855349747,14.75623687,,,,
265.1919998,1035,-1.581731536,257.8335124,368.3484144,71.40168799,1278.920707,67.21413134,0,-126.1740936,30.65492698,-3.511568729,-81.71617088,-2.677928776,-14.81804504,7.181011833,-86.77758554,-124.5745883,,,,
265.1999998,1035,-1.57135847,-14.00398109,-0.253740532,-29.43573255,668.1500162,-13.48565263,0,15.48296273,-47.3168448,-94.13919266,359.1076356,-16.4330517,68.07658534,-86.45340062,503.6301726,404.056957,,,,
265.2079998,1035,-1.560985544,-224.7096642,-115.4674216,-31.25442438,476.1471215,-20.7234212,0,11.5439054,-44.43732847,80.60160624,-451.7695539,-77.24215841,-107.7116269,61.52874484,-357.4182532,-301.8022205,,,,
265.2159998,1036,-1.550613018,407.7399636,463.1478906,104.0175123,1083.329657,101.2785744,0,-134.8588419,50.1711553,-71.16212884,427.9142637,60.02822172,110.5779814,-48.76714234,442.4888624,308.6451051,,,,
265.2239998,1036,-1.540241153,-372.3139585,-321.8075455,-85.27465759,10.06520865,-74.69084522,0,74.48845343,-88.14307652,21.31139711,-172.9784889,-82.4171436,-52.27475406,-9.472791796,11.26565747,25.69906701,,,,
265.2319998,1036,-1.529870209,277.2439434,391.7399834,94.28197048,862.469198,89.37599844,0,-140.2155965,47.72310158,19.78170478,-62.78941189,29.20621912,0.850070323,35.8433946,-63.38788021,-106.7585653,,,,
265.2399998,1036,-1.519500442,14.42479434,32.82007024,-28.55911162,285.0460233,-18.55832931,0,-46.95596271,-57.46455128,-111.2653241,381.2920431,-18.89678639,69.59244117,-105.8770999,549.7463314,439.4677624,,,,
265.2479998,1036,-1.509132112,-212.6037654,-98.75667747,-45.16736404,72.04650237,-40.88090685,0,-24.86319187,-60.61034444,55.51140177,-443.9909405,-100.9416055,-118.0867841,26.83163521,-326.77705,-282.274812,,,,
265.2559998,1036,-1.498765472,886.5284957,957.95608,210.6872236,1233.434546,191.9290619,0,-262.5350026,139.1376187,-127.9585284,786.8759819,146.215043,204.1509265,-73.92687661,712.5571133,477.7315754,,,,
265.2639998,1036,-1.488400779,15.71149326,37.80518908,-23.77010615,-95.17051928,-24.1869891,0,-19.87285875,-39.21373518,-87.88271212,372.8486837,0.728259835,79.46517738,-85.07257369,531.8654559,415.5715133,,,,
265.2719998,1036,-1.478038286,-289.1691562,-192.1445853,-62.86967239,-402.3682917,-65.43590667,0,16.71697889,-72.33651645,71.34077531,-486.8085111,-89.00273017,-118.9966337,47.68981415,-344.2612834,-294.4410997,,,,
265.2799998,1036,-1.467678247,279.4979,345.620063,64.61536314,192.6511088,48.58565541,0,-103.0308506,21.96115278,-52.67891733,291.6415849,40.74358509,73.39258816,-31.49637844,354.9491098,233.7131902,,,,
265.2879998,1036,-1.457320914,2.989299182,65.16320708,-7.35243658,-246.835942,-18.96856448,0,-43.16841725,-33.72571161,-34.05483111,86.85704207,-14.77563741,17.63253654,-26.58274247,223.4926571,148.7444224,,,,
265.2959998,1036,-1.446966537,-139.1388556,-60.17082216,-36.34045322,-441.6940255,-45.80536359,0,-12.72320588,-48.98383367,11.56056415,-171.7845578,-54.18879931,-50.0665548,5.782716628,-22.67145833,-48.35424706,,,,
265.3039998,1036,-1.436615366,226.6741698,306.5640786,53.59000748,-48.94915909,38.64574145,0,-99.5585521,28.11599242,-30.26589995,180.78926,24.6638715,39.20751552,-16.08570919,238.7967399,129.812939,,,,
265.3119998,1036,-1.42626765,-79.98449852,-32.55434413,-32.24350649,-544.8552463,-35.08147882,0,-6.997814521,-46.50541035,-32.13923339,106.0158639,-32.1767016,9.54553637,-29.13813794,260.051649,179.7957673,,,,
265.3199998,1036,-1.415923637,-67.19047515,23.65026328,-5.040865547,-504.2263194,-12.51689959,0,-11.64380929,-20.18341781,42.41435202,-164.5097697,-31.55044662,-44.26240348,39.07996071,-58.30624966,-93.14803784,,,,
265.3279998,1036,-1.405583574,286.48459,345.3069401,67.83649588,-174.4296891,56.218262,0,-94.45400325,31.35328794,-44.12288893,315.7577791,45.91768721,76.33946726,-19.10831546,377.6235957,239.4400708,,,,
265.3359998,1036,-1.395247706,-262.6365309,-207.824952,-69.14158037,-908.4758922,-65.15741377,0,43.19062908,-82.09960225,4.85448409,-125.2634102,-72.68990888,-45.38760546,2.887525505,77.87137755,45.0144123,,,,
265.3439998,1036,-1.384916278,261.8731353,349.1458266,75.97828947,-200.1998029,68.37979922,0,-94.50389263,38.36765803,13.37528327,8.020296707,24.69647616,8.286312153,44.44144414,54.49622735,-32.02641684,,,,
265.3519998,1036,-1.374589534,60.42375008,63.95609963,-13.42729896,-478.1307033,-4.696993761,0,-30.49900293,-39.61432077,-76.00604451,333.8177537,0.103250783,69.76726046,-50.58754667,515.2652781,382.1762068,,,,
265.3599998,1036,-1.364267717,-114.5079816,-34.41628958,-28.08321159,-359.1957269,-13.80739729,0,-30.27281765,-59.96893282,43.97956476,-326.3939799,-70.22301282,-79.78389693,38.89269424,-138.7451883,-154.9267887,,,,
265.3679998,1036,-1.353951067,451.5675108,492.6260821,86.53511204,430.8907578,92.95222803,0,-150.3475374,25.49500371,-74.08479262,392.5523286,46.42705944,94.92370644,-41.00732367,516.4263065,332.3708959,,,,
265.3759998,1036,-1.343639825,-257.5393482,-215.7790403,-102.9790555,-331.7943751,-84.47801293,0,10.41259945,-117.2238095,-13.43543451,-105.7974442,-95.05429638,-47.05664033,-25.04278708,194.4193115,127.6550826,,,,
265.3839998,1036,-1.333334232,310.1610565,414.2440795,57.05786142,633.6595942,60.36327124,0,-141.9373814,8.678152393,5.156737876,-59.4914283,-9.531230359,-13.70641864,16.69391693,70.50809139,-44.09470993,,,,
265.3919998,1036,-1.323034524,102.9919494,116.147033,-37.61074505,346.7195305,-13.69659299,0,-19.671637,-64.98756753,-97.71439544,398.1776117,-25.23054544,68.66960015,-92.78828851,675.0718387,490.1604703,,,,
265.3999998,1036,-1.312740939,-161.33489,-50.00171369,-69.30015752,317.4061965,-39.85253885,0,18.01219144,-85.40337968,52.11307518,-400.3182759,-104.8236654,-116.5222712,26.75377149,-132.023274,-167.2953822,,,,
265.4079998,1036,-1.302453714,473.7844987,545.0470935,69.08312159,1161.477377,89.19799309,0,-80.06935561,12.82060331,-83.97801853,395.613555,23.65759079,79.41146106,-66.82530765,587.1365155,365.8282042,,,,
265.4159998,1036,-1.292173084,-292.5323904,-219.266887,-125.0794546,303.3929412,-85.79700699,0,136.7135425,-131.0908478,-11.78857979,-130.198901,-120.0980127,-65.43934677,-44.7610736,254.4554347,158.5153316,,,,
265.4239998,1036,-1.281899282,292.3928782,441.5991684,44.17439255,1261.087258,67.55218006,0,-30.04824385,14.39928396,19.93923747,-85.81147321,-18.49193774,-27.70464043,15.69664037,107.3704049,-37.12285172,,,,
265.4319998,1036,-1.271632542,97.84416376,159.9946479,-46.92721544,933.8941926,-13.45822604,0,71.57401772,-57.66183477,-92.63658686,424.0359457,-28.37766545,67.5498022,-99.80917334,763.7552038,531.1623013,,,,
265.4399998,1036,-1.261373096,-186.6529994,-9.254276304,-80.36617432,838.085712,-48.6431477,0,98.02431133,-94.41507378,49.54096935,-414.940296,-119.5413453,-122.3595465,11.86958977,-58.92734877,-144.714299,,,,
265.4479998,1036,-1.251121174,486.1390792,632.710156,66.97036124,1681.844517,91.12369502,0,-36.22755985,4.812673211,-98.86316899,423.6119481,19.1945903,89.22133259,-87.37328456,714.8172907,430.0161259,,,,
265.4559998,1036,-1.240877007,-291.5633694,-133.6245619,-133.9193357,781.4019345,-87.28450518,0,141.6409217,-148.3445485,-33.68814501,-104.7975111,-129.338445,-60.89786368,-72.24664167,392.2492142,235.8009179,,,,
265.4639998,1036,-1.230640822,292.8301352,535.3727341,33.29616012,1727.517663,58.9237275,0,-39.97708065,-20.65101193,-16.7937237,-90.43448923,-45.63119315,-38.01067673,-34.42623058,238.4986584,34.36134346,,,,
265.4719998,1037,-1.220412848,100.5437446,241.2495054,-49.36498385,1371.596057,-21.27468469,0,88.04291634,-81.18980524,-118.5424855,432.5217858,-44.608653,60.61168378,-140.3718265,910.913234,615.7659287,,,,
265.4799998,1037,-1.210193312,-206.4018569,37.11512543,-77.52578721,1231.682243,-54.16115399,0,109.451971,-88.04810127,55.00150972,-411.3961087,-112.4668355,-129.4721504,11.02746313,41.78771601,-91.15342339,,,,
265.4879998,1037,-1.199982438,472.130779,670.493903,71.76723986,2076.115907,80.92499609,0,-48.78138846,17.27399622,-92.07616793,431.4096996,28.24318999,76.8302018,-86.93205234,787.1388832,463.8224643,,,,
265.4959998,1037,-1.189780451,-317.6978352,-135.7612235,-129.85169,1129.511127,-105.5268928,0,164.2824657,-143.1122728,-22.93836061,-108.3709091,-117.726233,-74.29343238,-67.65060042,446.2112242,259.37474,,,,
265.5039998,1037,-1.179587575,265.1997486,520.6182904,43.00783345,2053.366301,50.53825559,0,-8.12371152,-4.059683279,10.49928075,-106.7888543,-10.63512514,-39.82403175,-1.166398539,252.4155841,30.18165705,,,,
265.5119998,1037,-1.169404031,91.70150915,236.96622,-43.50520314,1705.921479,-24.04644472,0,89.58442137,-66.2492912,-102.1635617,432.2123377,-13.13579647,67.78636896,-118.0408508,921.1612906,612.1609541,,,,
265.5199998,1037,-1.159230041,-226.7111799,11.24765987,-83.97201811,1530.641929,-63.496516,0,109.8416455,-97.69554052,51.34367165,-429.3356545,-110.7138856,-132.295507,2.888019023,48.47979319,-90.63918854,,,,
265.5279998,1037,-1.149065825,460.2132037,649.476896,70.99194543,2358.666491,80.15446529,0,-39.2143062,16.66258399,-86.75733435,408.9491475,30.13994011,72.16092152,-98.21189928,787.5458888,458.0532433,,,,
265.5359998,1037,-1.138911601,-317.3086895,-162.4142044,-120.0283604,1382.776745,-93.66483703,0,182.7136032,-117.1901901,7.680952415,-115.8309862,-102.9177232,-74.65891692,-61.02066717,437.7705807,246.6786552,,,,
265.5439998,1037,-1.128767588,269.2542,488.4069371,56.06730259,2292.81353,62.56503296,0,-8.607497908,20.70664784,42.87564667,-117.0701272,2.204215839,-44.20121484,14.47984088,225.6792126,11.84488862,,,,
265.5519998,1037,-1.118634002,100.0775178,216.2457985,-37.41124054,1957.536405,-26.37818791,0,52.75793144,-53.5171782,-93.51506198,436.0631256,-7.210254803,60.22419737,-125.8481668,908.0102006,607.2907016,,,,
265.5599998,1037,-1.10851106,-231.5141634,-27.63063967,-86.25824964,1756.328463,-76.86957179,0,94.74619791,-91.33999446,51.47907518,-436.983965,-113.6766064,-143.1039,-15.14283408,24.66552408,-104.9383661,,,,
265.5679998,1037,-1.098398975,464.6053628,613.287913,71.83689168,2583.407526,70.13268496,0,-27.25125357,32.00540148,-74.25523098,401.9134674,35.62328905,72.5793802,-87.41816824,745.9405818,428.1160693,,,,
265.5759998,1037,-1.08829796,-324.8995753,-199.2438514,-129.6107576,1603.240931,-115.274209,0,163.1465104,-102.1757772,13.6375615,-115.69615,-95.00920906,-70.23718134,-49.69164093,400.1786314,216.9081713,,,,
265.5839998,1037,-1.07820823,232.983665,441.0596691,35.811543,2494.559941,32.7249161,0,-21.34801183,16.87812925,27.03676287,-147.2432277,-14.62209145,-53.26289488,0.29822587,184.2399384,-20.27330823,,,,
265.5919998,1037,-1.068129994,64.07712211,172.5517356,-47.74435166,2146.025234,-40.66388805,0,76.51311371,-52.51957417,-101.4570512,411.7347138,-21.97360118,55.03464568,-121.0269965,873.6134615,582.6427712,,,,
265.5999998,1037,-1.058063463,-282.8468305,-83.87972834,-88.14614264,1905.379247,-82.23774768,0,102.6676769,-77.73813368,68.40318992,-465.3328106,-106.7401401,-145.9919147,17.33551059,-30.81295173,-145.5088473,,,,
265.6079998,1037,-1.048008846,420.305047,576.3269225,76.15281296,2738.872101,71.49150394,0,-40.49688369,34.0926516,-69.10243355,377.081505,45.80131074,69.03150074,-73.30096578,699.5447999,401.3395354,,,,
265.6159998,1037,-1.03796635,-359.9539877,-229.1692264,-125.5109751,1754.704822,-109.6680495,0,151.954355,-109.8545963,6.602014859,-118.2816544,-88.02144155,-71.25506493,-54.6695988,383.0047544,220.2286805,,,,
265.6239998,1037,-1.027936184,195.6675053,390.5735506,43.89009821,2609.237389,39.57866562,0,-30.52993545,31.81989722,49.36364109,-161.5692248,7.918404488,-55.40043651,7.523608847,130.5485311,-49.89340273,,,,
265.6319998,1037,-1.017918552,50.47188135,134.024648,-28.40348959,2271.910308,-24.72553699,0,62.19889514,-18.088772,-68.1480462,418.8467714,17.17790341,63.33296963,-111.3370476,820.5673693,551.9540351,,,,
265.6399998,1037,-1.00791366,-291.5688662,-123.6609318,-73.97476251,2034.443069,-67.21938996,0,87.0147852,-55.93607432,90.45435918,-454.0807423,-81.05557789,-137.2083762,13.58196139,-68.82763228,-159.9078937,,,,
265.6479998,1037,-0.99792171,411.3515687,520.1515392,86.9408906,2846.915091,78.63460965,0,-43.76304726,55.15650674,-39.75893818,372.1976646,65.20821662,73.74983877,-71.24325784,639.8354332,364.4988032,,,,
265.6559998,1037,-0.987942906,-371.5187775,-298.207166,-108.9072514,1834.671368,-103.1423328,0,165.8331358,-83.79706803,40.56238485,-115.9876433,-63.81217605,-62.65087823,-34.91930559,309.048718,164.5665511,,,,
265.6639998,1037,-0.977977448,195.9644617,343.6738076,65.43898483,2706.148219,50.98095862,0,-9.268849861,44.52927885,72.99881028,-162.067891,24.36378751,-46.34289054,36.13805707,56.03384401,-107.9650199,,,,
265.6719998,1037,-0.968025537,73.08508619,113.6739531,-6.223069121,2394.393647,-15.26980996,0,92.43342102,-10.13891953,-53.25086558,433.4478042,28.66572224,77.62046731,-85.66681448,780.0657454,520.3194834,,,,
265.6799998,1037,-0.958087372,-281.5631164,-156.2250947,-61.34210099,2135.056946,-67.07131029,0,111.979333,-44.88322426,101.1591477,-438.775942,-71.61537538,-127.7741357,35.64250383,-99.26544181,-183.4881802,,,,
265.6879998,1037,-0.948163151,424.9545847,504.1184843,90.34665495,2966.788499,73.70493473,0,-49.07879651,65.09155343,-41.61501682,383.4030264,64.37337826,75.149406,-58.86570841,606.9822123,338.3539916,,,,
265.6959998,1037,-0.93825307,-363.5852299,-314.991203,-113.3020912,1955.135147,-112.452903,0,164.8259138,-74.04931355,28.31388375,-103.9673457,-82.02863056,-59.99079654,-38.66764377,289.0905367,152.5794923,,,,
265.7039998,1037,-0.928357327,184.7296447,308.340069,56.59391525,2805.096501,45.3942629,0,-1.58521367,59.09035642,64.01034871,-161.303696,6.834727278,-43.73244385,33.00060039,19.0395866,-129.2789979,,,,
265.7119998,1037,-0.918476114,59.80070792,81.88012242,-16.79703283,2492.768137,-16.04054552,0,74.24548792,2.564063843,-54.27659907,442.5414793,25.25978127,81.75277817,-83.09290924,732.653947,489.6554738,,,,
265.7199998,1037,-0.908609627,-314.3232259,-200.224289,-74.88935692,2212.166938,-69.75091814,0,85.58476641,-46.58700596,104.6361158,-450.706466,-76.14044691,-128.4898983,37.94545019,-162.5222194,-228.1938573,,,,
265.7279998,1038,-0.898758057,403.3858665,475.7565135,84.16324199,3062.508167,83.13943795,0,-66.10374319,53.94288282,-47.36142533,368.0815184,59.95648702,68.93893823,-63.7674333,545.5949872,294.1140904,,,,
265.7359998,1038,-0.888921595,-373.0242801,-334.1374616,-113.9845581,2058.095177,-97.04137775,0,152.8039488,-80.76133678,30.91841563,-95.48805456,-73.05155424,-64.41312493,-40.58127292,248.1682643,127.1235676,,,,
265.7439998,1038,-0.879100433,171.1857997,284.0887284,52.51086946,2898.143305,49.31198785,0,-31.01208236,49.08055285,69.38640148,-171.7547913,11.42595576,-49.24172432,34.18818583,-28.25482737,-158.7918045,,,,
265.7519998,1038,-0.869294758,61.42287442,62.31669592,-17.90780877,2584.784386,-14.39550533,0,55.45746386,-20.38135446,-74.33696387,433.8709889,12.9963548,75.66123423,-101.175702,702.4863004,472.8571913,,,,
265.7599998,1038,-0.85950476,-313.6923965,-235.494713,-60.77313908,2273.780631,-59.30819296,0,120.4438841,-42.32073446,107.5995288,-453.3842149,-70.1920372,-126.1757701,42.5852425,-205.4262688,-253.0911469,,,,
265.7679998,1038,-0.849730624,421.0633249,459.6781558,115.9257914,3144.567371,103.0377202,0,-38.32024928,83.96770811,-29.64647659,371.8723516,85.15377253,83.44470703,-29.05878989,496.1313626,265.8731448,,,,
265.7759998,1038,-0.839972537,-350.8294113,-339.6789398,-88.8839637,2146.888159,-80.74288031,0,149.1556917,-74.39506829,19.35916001,-77.69721887,-66.25828436,-52.08963868,-31.01760394,235.4793916,129.5919767,,,,
265.7839998,1038,-0.830230683,177.4205842,274.8746147,63.86420587,2971.972479,59.7285428,0,-33.44317488,54.17029654,64.61802084,-167.1514317,14.23622601,-45.51217814,31.95849127,-54.1029256,-169.9100674,,,,
265.7919998,1038,-0.820505246,77.08257623,69.71997612,-8.713823928,2670.674475,-6.127875025,0,51.0636318,-4.025221042,-68.57141207,449.4465938,24.39337439,80.5240628,-95.39174151,683.7632453,464.6159037,,,,
265.7999998,1038,-0.810796408,-305.8780989,-235.2548204,-64.02729664,2340.070699,-62.67276231,0,95.40199086,-42.4778174,104.6640086,-439.1831832,-71.26820341,-125.5292756,40.35771232,-213.3113489,-251.6749462,,,,
265.8079998,1038,-0.801104351,425.9478027,463.3711714,100.4798529,3200.725751,89.68903076,0,-73.2299601,75.37894381,-39.37385764,375.6884422,74.61960937,83.27176632,-42.76180394,476.3857781,256.1571671,,,,
265.8159998,1038,-0.791429254,-357.2393135,-353.9480802,-105.6755909,2160.502959,-98.86329067,0,138.967616,-80.20784898,12.06577255,-75.03405572,-75.05273434,-46.29854719,-35.11365418,211.862012,116.3756102,,,,
265.8239998,1038,-0.781771297,167.8655544,247.3161632,60.24076108,2954.782218,51.89057796,0,-43.36336146,52.11187041,66.7565733,-184.8930682,11.34053254,-42.34264114,45.53009995,-104.5229872,-205.3871776,,,,
265.8319998,1038,-0.772130657,84.13236593,54.0871342,0.210995917,2661.360526,-3.862580707,0,33.42065834,-4.057527056,-72.43196293,443.0196907,25.61952276,86.39387713,-87.34897424,646.7762782,439.2098881,,,,
265.8399998,1038,-0.762507512,-319.067074,-274.1883986,-63.20929492,2292.022158,-72.19723652,0,89.30550787,-49.74039964,96.45493423,-450.3825962,-74.26949136,-121.0957582,42.15225338,-246.0650833,-272.1158163,,,,
265.8479998,1038,-0.752902037,420.3352537,429.6776985,105.5629625,3148.088255,77.33621545,0,-75.72967441,70.47717068,-36.28597976,357.1529093,76.61213227,81.25618685,-37.50298361,429.2168221,220.3133915,,,,
265.8559998,1038,-0.743314406,-356.4296505,-388.0321638,-91.85543421,2096.145699,-110.219286,0,151.830249,-75.72530505,26.17506058,-75.15605337,-64.35461994,-46.30762164,-26.53623712,178.9720917,89.76543962,,,,
265.8639998,1038,-0.733744794,159.1064734,205.8740316,72.19837203,2870.798557,43.01098604,0,-27.90383888,63.34973301,88.03304567,-190.3258936,24.8973497,-38.22804859,65.62004231,-158.3896083,-248.5839456,,,,
265.8719998,1038,-0.724193372,93.54746449,41.63566673,12.29188529,2601.322756,0.862395093,0,38.03800926,12.20299971,-59.62143627,459.0493624,40.74747935,98.28842793,-64.65160643,600.1444665,404.2369004,,,,
265.8799998,1038,-0.714660312,-316.9817568,-287.7564292,-61.02470043,2222.500261,-64.41640973,0,94.98370629,-39.49958612,92.93244612,-432.2067029,-72.93660637,-111.5545536,56.83569702,-276.2268482,-286.8051578,,,,
265.8879998,1038,-0.705145783,434.2980487,436.331375,103.6171018,3106.279361,92.94562074,0,-85.2256141,81.50164014,-45.70258282,363.0320278,64.92877553,87.93169918,-25.63625554,392.1124444,203.1682336,,,,
265.8959998,1038,-0.695649956,-334.3722925,-357.7847436,-99.306372,2096.571702,-93.56666884,0,123.723962,-79.59791037,-4.23804633,-60.00815816,-88.6021515,-40.91782916,-32.03456123,180.5416546,112.0224554,,,,
265.9039998,1038,-0.686172996,152.0342881,214.616531,48.80700864,2858.475906,37.18972778,0,-50.68246256,37.83046276,42.75507107,-198.2655991,-16.08009011,-46.11573928,46.11782092,-145.7822688,-211.562385,,,,
265.9119998,1038,-0.676715072,81.54217613,38.31753929,-9.247384333,2573.170693,-13.50633696,0,28.78308758,0.268044444,-86.1392624,448.8679908,6.651383403,87.85602979,-70.81563395,587.2826546,413.7463856,,,,
265.9199998,1038,-0.667276349,-338.6481668,-305.3048942,-70.0516539,2171.333734,-73.0694763,0,96.16542374,-43.51455075,89.15638745,-443.7018935,-89.97090923,-118.5717786,60.81507945,-308.3811233,-293.329909,,,,
265.9279998,1038,-0.657856992,413.5737301,418.8909225,101.670288,3048.850708,85.76397743,0,-94.91492184,73.01156686,-42.79577681,351.6456711,63.84954372,86.98957795,-23.96725959,356.886277,195.0836199,,,,
265.9359998,1038,-0.648457163,-348.4962381,-371.1315197,-102.1865037,2025.875335,-99.6475093,0,97.69056958,-88.1282427,-5.563909939,-56.00699845,-81.17756466,-38.5006953,-35.52090752,146.8069543,98.23609919,,,,
265.9439998,1038,-0.639077025,143.8711944,202.8482952,52.71194945,2772.081537,39.04468441,0,-53.74800892,33.30858435,47.74726117,-202.6848691,-8.250712694,-45.92394373,38.47666378,-192.6019154,-238.0587694,,,,
265.9519998,1038,-0.629716739,91.93037306,39.46407792,7.078767568,2495.188102,-5.818467597,0,39.01770355,6.717546485,-73.95046511,467.0863976,25.08455269,98.23223357,-68.98479642,559.3553494,402.5518442,,,,
265.9599998,1038,-0.620376465,-336.0999,-306.6865373,-57.08218486,2093.365377,-69.20452834,0,81.16811634,-40.40183183,86.35220898,-419.981055,-74.3238925,-111.9038325,74.74991859,-328.4862271,-304.3302902,,,,
265.9679998,1038,-0.611056363,419.8407375,415.8743097,111.676716,2974.932091,89.06854695,0,-94.60057915,72.11214425,-60.02776989,364.6960078,66.76644021,84.77956006,-13.8337833,339.0189837,179.4243267,,,,
265.9759998,1038,-0.601756589,-346.7424744,-405.4673372,-84.43603258,1907.071881,-94.07527151,0,148.6288348,-62.54478347,11.93321911,-32.59502341,-60.85821961,-33.0882448,-2.616243045,118.1311071,69.3103926,,,,
265.9839998,1039,-0.5924773,140.7108912,166.9651462,76.23644728,2651.755614,53.98131489,0,-32.22315618,70.67965312,85.96711635,-186.9543733,27.86662141,-38.32496184,102.0231465,-257.0805123,-299.6344167,,,,
265.9919998,1039,-0.583218653,109.139115,44.64488434,15.75613251,2441.166061,11.38496431,0,5.985452211,8.657987574,-85.58713374,486.5505989,31.99055312,102.9333966,-45.38462312,536.5331984,378.3845778,,,,
265.9999998,1039,-0.573980802,-337.5522164,-322.5118727,-64.47098394,2012.815623,-67.93522443,0,87.31812136,-47.2199536,68.93497621,-416.5696669,-87.48346289,-109.4657096,67.45970828,-338.2223489,-312.2708858,,,,
266.0079998,1039,-0.564763898,420.2041898,404.1826763,111.1698766,2892.021096,89.10714296,0,-83.51030992,91.27447462,-45.13065735,366.593432,75.5766476,94.21423074,5.470948019,304.6872202,151.2463707,,,,
266.0159998,1039,-0.555568096,-335.895853,-396.5436127,-89.94670688,1859.532884,-96.69851919,0,110.0706297,-59.46594037,2.61619875,-15.81324238,-59.37129614,-23.97342939,-1.283657291,115.5608317,69.46999095,,,,
266.0239998,1039,-0.546393546,142.8624766,163.7617433,66.09284873,2595.297784,43.36512085,0,-56.42613684,56.918901,63.07121628,-193.0593743,14.30483332,-41.77541573,71.07027894,-260.4053183,-296.8387893,,,,
266.0319998,1039,-0.537240398,125.2660907,52.80982305,19.0824563,2392.43875,11.98385643,0,-7.212183385,6.161272747,-88.20556614,497.2022669,46.17199131,104.5178141,-63.43493561,535.7275646,382.5647562,,,,
266.0399998,1039,-0.528108801,-331.637916,-316.3085241,-60.68105363,1957.452248,-61.31866649,0,59.30080291,-59.26117723,69.18763547,-400.6149795,-68.22954395,-108.604328,54.50758895,-330.9266047,-300.5936688,,,,
266.0479998,1039,-0.518998902,426.2737179,422.0137061,112.4388572,2852.605991,97.6705737,0,-111.2359092,71.58117379,-54.94382061,373.2071526,77.36550634,88.95736195,-20.0732915,305.2553793,157.3876564,,,,
266.0559998,1039,-0.509910849,-323.0757356,-362.735821,-90.39207326,1847.704144,-86.8186467,0,85.22599418,-83.61210304,-24.66051493,6.870813004,-65.76427039,-26.75858061,-33.29799898,138.9043578,95.82955817,,,,
266.0639998,1039,-0.500844786,147.4150986,188.3244012,64.7941818,2573.963545,46.24932289,0,-68.54330162,36.63469074,42.59142007,-181.8728824,6.643105615,-47.60046323,53.64702668,-238.1207232,-269.704328,,,,
266.0719998,1039,-0.491800858,136.4284629,74.56154705,19.99272928,2361.503673,9.487443975,0,-15.42956604,8.492434627,-90.84329921,517.4376133,45.00955119,102.6128685,-64.89437303,555.070973,405.0418539,,,,
266.0799998,1039,-0.482779209,-329.3719231,-308.6367315,-64.32881782,1910.691203,-65.26286982,0,43.87510235,-59.63744849,52.3414846,-387.9950689,-78.55756683,-111.0799899,49.63672523,-317.2877308,-283.7484423,,,,
266.0879998,1039,-0.47377998,436.8527699,434.9196501,118.4511703,2807.555371,101.4498292,0,-108.7178849,68.03567114,-75.27792935,370.1791122,67.72816384,85.47752357,-17.95653918,315.2494851,169.2755313,,,,
266.0959998,1039,-0.464803313,-309.6699573,-347.3938043,-82.74781235,1792.77628,-83.64834906,0,87.38443253,-73.92334462,-24.95574281,15.1192151,-61.36062207,-22.10934967,-12.18633625,156.0954395,110.8892084,,,,
266.1039998,1039,-0.455849347,146.2424961,192.6979176,53.27285058,2507.530419,38.18963516,0,-96.98317368,33.7689198,31.68125792,-199.1870102,-4.023727307,-50.84923752,62.20932693,-240.3898882,-273.3115593,,,,
266.1119998,1039,-0.446918221,143.2666674,80.22574765,4.789717985,2293.247593,-3.701222163,0,-29.46040594,-3.537517584,-114.4646655,497.3965283,27.54024889,90.6916353,-77.49321077,558.6974138,404.8217145,,,,
266.1199998,1039,-0.438010074,-335.0535477,-316.6441966,-76.79500375,1812.519793,-83.74860495,0,40.701276,-51.50617227,64.55779579,-400.8618741,-74.2526446,-120.9992719,52.93180503,-332.11665,-298.1760698,,,,
266.1279998,1039,-0.429125041,431.9628341,434.0203237,105.9774148,2723.244435,86.54220016,0,-144.9911515,69.24150875,-61.71640013,358.2053961,70.18619757,76.00269647,-20.95552463,286.2718143,143.8580878,,,,
266.1359998,1039,-0.420263259,-319.3823048,-358.552557,-92.25529525,1695.700401,-90.71704625,0,73.1583101,-93.2257581,-38.0326552,12.6159057,-79.40904448,-34.10224285,-32.96424342,154.0485558,110.7405831,,,,
266.1439998,1039,-0.411424861,123.0766902,168.5795981,57.58639285,2382.192108,41.41115713,0,-67.2697128,33.28750743,43.30578161,-212.5099675,-17.25274714,-55.78900536,71.46024038,-268.5517764,-295.7516558,,,,
266.1519998,1039,-0.402609981,147.214763,85.99637666,24.74353764,2215.477984,14.52503828,0,-17.67725981,10.54835974,-93.69177746,509.4845718,26.74551438,103.1942786,-50.70219708,535.2932848,383.3310416,,,,
266.1599998,1039,-0.393818751,-323.4661943,-316.0859298,-58.58131406,1752.12288,-63.23452444,0,42.52876226,-50.30192425,66.17456547,-380.0819811,-79.48698466,-109.7932474,65.93175208,-328.7629042,-292.7540437,,,,
266.1679998,1039,-0.385051303,464.0088352,442.9194714,124.2955364,2696.528811,107.4897095,0,-136.632269,74.47553416,-50.08590656,372.324796,71.31542815,87.10922304,-12.49817331,284.9183624,146.1953027,,,,
266.1759998,1039,-0.376307765,-257.8373405,-318.1336993,-76.68848454,1757.043174,-68.7430178,0,41.46495189,-86.03044527,-20.99158242,41.86910212,-66.45086168,-19.47129617,-35.2989001,179.8652096,134.1418501,,,,
266.1839998,1039,-0.367588268,187.0000105,215.7979811,62.07204434,2511.860055,58.48388248,0,-138.9274846,20.35395975,40.65964238,-203.5903882,-12.48875575,-59.18663945,42.02870046,-217.2736924,-246.3830573,,,,
266.1919998,1039,-0.358892938,210.3870418,128.3737179,24.35074394,2371.324078,24.28995613,0,-65.38855024,0.177893306,-90.80579299,522.1610786,26.78118878,96.79922022,-81.79516906,595.1575716,439.5025903,,,,
266.1999998,1039,-0.350221903,-294.2247336,-294.6853482,-65.27614012,1904.851542,-60.26349121,0,28.55901922,-47.02820161,88.64198888,-363.5322103,-78.8170443,-110.4914523,61.67022292,-286.4751864,-255.3796092,,,,
266.2079998,1039,-0.341575288,472.4619196,458.4204874,115.8634966,2856.665842,108.2983293,0,-131.1339863,77.3276583,-39.12174295,374.2986058,63.15636574,80.83203644,-10.90638558,310.4790839,165.4491156,,,,
266.2159998,1039,-0.332953218,-263.6848952,-325.3774905,-80.20619115,1877.59281,-73.27696302,0,109.0563348,-73.59201699,-6.105891602,53.03615485,-71.43174202,-20.60581316,-29.31486359,193.0239986,137.7083399,,,,
266.2239998,1039,-0.324355816,165.1233683,204.9891202,58.07475467,2623.770644,54.16859683,0,-39.37409069,39.81983132,69.64124819,-194.6320351,-4.710575716,-51.19560548,65.43735063,-238.019379,-274.4861094,,,,
266.2319998,1039,-0.315783204,200.7150687,153.1852792,8.818379762,2536.520095,20.49904697,0,19.54210353,-11.74045609,-106.6253064,533.5025783,14.95703942,99.48338945,-89.21910908,610.7020409,441.8828398,,,,
266.2399998,1040,-0.307235503,-311.0954386,-294.3642375,-88.07219373,2032.902083,-74.79129795,0,149.7415022,-74.97872006,57.88163549,-366.6106497,-109.595337,-121.2794352,30.02058631,-252.8378137,-237.4702161,,,,
266.2479998,1040,-0.298712835,476.2051111,456.0395428,102.4606811,2962.179105,96.94947827,0,-6.451752521,80.97606805,-28.27268709,376.6562863,64.24202261,77.71086308,-12.23476609,312.7844849,153.5523649,,,,
266.2559998,1040,-0.290215316,-245.992395,-308.3123608,-100.7525287,1982.373091,-84.82672295,0,181.1456254,-77.53352999,-10.93797404,78.92852283,-66.77359055,-16.38774132,-41.57480354,223.0629929,152.9059675,,,,
266.2639998,1040,-0.281743067,167.2808299,200.4067543,33.72782506,2659.416936,35.93587298,0,28.40269535,23.90528903,61.43326059,-195.8969944,-19.65665759,-56.2870149,33.27391688,-215.5579212,-260.1361345,,,,
266.2719998,1040,-0.273296203,220.8506349,148.0146979,7.309364486,2523.834228,14.95635403,0,82.67366753,10.7648725,-62.78614854,538.0392911,32.10235689,108.0199821,-92.67492913,599.9554827,424.0849623,,,,
266.2799998,1040,-0.26487484,-298.7038125,-291.7540539,-87.54706918,2009.939508,-71.72174716,0,166.1004207,-55.75977297,87.60763042,-361.05612,-88.00925004,-106.0654666,21.68935479,-257.2034591,-249.4899467,,,,
266.2879998,1040,-0.256479093,480.5496254,475.9187208,101.3055026,2957.70918,104.8667733,0,-14.79766836,79.27766379,-38.05030963,362.0203157,57.15448015,79.57263982,-46.35366769,327.9807273,161.8645446,,,,
266.2959998,1040,-0.248109075,-252.5358224,-302.6666853,-95.95831925,1957.128251,-76.35070767,0,184.3868609,-65.53499742,1.760885977,70.19997186,-72.34058081,-16.82503119,-64.54702981,237.5566109,159.8123726,,,,
266.3039998,1040,-0.239764899,135.1298284,179.1096646,32.9949361,2618.631536,40.07433718,0,31.41798581,35.13020202,78.68595307,-217.9703983,-24.46001565,-59.48763345,21.31691357,-232.1976697,-281.7480035,,,,
266.3119998,1040,-0.231446676,193.9709314,133.6289425,6.868072253,2512.189993,20.29963452,0,85.45749845,19.62043557,-61.42750574,528.3117554,27.52660771,105.8534619,-95.06770742,584.0726748,403.5664192,,,,
266.3199998,1040,-0.223154517,-339.0603164,-329.0648477,-87.91526508,1969.973667,-74.95358039,0,181.5983779,-40.97028352,112.2723337,-368.5356865,-78.80996773,-108.2114842,40.82281664,-289.2672479,-279.6689645,,,,
266.3279998,1040,-0.214888531,446.3463132,442.6993633,105.1683749,2919.53116,99.4180469,0,-5.246954175,87.62556701,-14.52714859,347.8323001,76.0168574,75.26064156,-24.39845412,274.6636284,115.1533967,,,,
266.3359998,1040,-0.206648826,-267.625058,-320.4969509,-79.5235554,1923.988797,-72.0453872,0,203.3507509,-51.68313837,12.03237312,84.7482418,-48.74294344,-12.93747176,-32.40645964,206.079204,134.5855937,,,,
266.3439998,1040,-0.198435509,123.1606781,158.0869334,52.7459301,2562.146635,43.58596015,0,42.38777125,57.02012195,92.59809369,-203.4983283,-0.440853925,-54.58632947,61.67499661,-263.2235725,-305.2518153,,,,
266.3519998,1040,-0.190248686,198.1461331,129.7991655,19.32487088,2464.83692,14.74101977,0,65.21339951,22.38994418,-78.33218019,540.7812865,36.24686887,102.4651163,-91.55589492,571.2350971,393.0715658,,,,
266.3599998,1040,-0.182088462,-347.19435,-339.672181,-78.85821469,1894.247362,-85.545386,0,177.6154317,-46.33818668,88.17232766,-367.7132644,-85.38199041,-116.5334362,34.33245277,-298.0390708,-282.3701525,,,,
266.3679998,1040,-0.173954941,437.355637,440.2671162,115.0014752,2843.952375,87.51245837,0,-13.69483268,87.03064897,-19.07549202,339.0317167,68.95280445,73.15474405,-23.2398175,256.4156061,104.7249824,,,,
266.3759998,1040,-0.165848226,-269.6050553,-311.9917754,-80.40444801,1876.952796,-86.06067186,0,167.5494785,-68.33768734,-0.612940571,83.40604513,-58.80459909,-10.43224286,-57.670173,212.1634717,143.0938588,,,,
266.3839998,1040,-0.157768418,115.2708234,170.671263,50.51192949,2536.404349,39.48016339,0,17.25758911,35.57825786,85.59155547,-224.153744,-11.36222252,-59.19286041,34.39246019,-266.1042781,-300.9466266,,,,
266.3919998,1040,-0.149715618,203.8857003,166.6268292,23.62053166,2482.401124,27.32065482,0,52.07080286,6.305614231,-77.40782557,536.2767655,32.82613223,102.9260333,-111.4682532,588.1223416,412.5433862,,,,
266.3999998,1040,-0.141689926,-351.6245715,-316.9238874,-84.24795508,1912.585359,-68.92912244,0,161.8592745,-63.05298421,85.55542774,-363.7642007,-89.58631251,-109.7843641,10.78530288,-258.0051754,-244.9116258,,,,
266.4079998,1040,-0.13369144,430.2079883,457.0027107,104.4604578,2859.009778,104.439516,0,-25.71973134,82.8581657,-21.22412878,328.9309148,58.86817513,74.30469615,-34.21520244,277.2435515,126.2313396,,,,
266.4159998,1040,-0.125720258,-286.4697006,-301.0928633,-94.13072254,1867.192308,-75.6365281,0,172.9233114,-70.61028654,-13.0241773,81.04098262,-73.00885912,-13.90504379,-59.48990427,235.8253617,166.7349933,,,,
266.4239998,1040,-0.117776476,75.11405372,156.416075,37.83292082,2472.572178,44.02711083,0,38.7289367,34.48637582,78.87686717,-240.3476949,-19.51428238,-65.11118827,49.48729551,-267.4447217,-298.827722,,,,
266.4319998,1040,-0.109860189,180.6133605,160.6428634,19.86645445,2409.606549,36.00467993,0,68.65996553,18.34297568,-72.32920859,535.6131466,39.37701564,101.4600337,-77.32717822,574.4242033,403.6417435,,,,
266.4399998,1040,-0.101971491,-372.0056879,-325.7642542,-92.97013729,1830.030004,-65.07020583,0,156.7006378,-63.35938447,80.07636889,-356.8131179,-86.49743833,-115.3032309,31.97893692,-259.8367736,-242.4857655,,,,
266.4479998,1040,-0.094110477,428.3097679,459.5200106,100.2325817,2793.972731,112.2882323,0,-42.73856922,74.00174147,-26.27426979,330.8833059,64.4957239,65.22935596,-27.77701844,275.0652448,127.2388503,,,,
266.4559998,1040,-0.086277238,-265.8450567,-285.921413,-93.8759045,1822.123425,-64.11356625,0,151.0850615,-74.73087754,-16.84694736,107.2312407,-61.39435854,-18.25670606,-62.60394507,254.9398505,184.2715375,,,,
266.4639998,1040,-0.078471864,87.78557105,155.6742333,29.23108755,2414.002578,44.9109862,0,15.97202558,35.7126907,74.67215032,-227.9342155,-20.81886335,-71.35823715,34.22007066,-256.0531608,-288.5523284,,,,
266.4719998,1040,-0.070694447,203.2707926,171.5184671,14.15072974,2366.8944,37.39508102,0,56.66421954,32.57552371,-67.14214861,549.7740539,38.66214526,100.8356831,-88.87898558,578.1772368,404.5879425,,,,
266.4799998,1040,-0.062945075,-362.0554203,-315.0121495,-97.9878594,1782.740934,-65.51951197,0,147.5933075,-56.18357,79.5110472,-339.0274153,-86.38673769,-115.3688491,28.72735005,-248.8064465,-235.2263115,,,,
266.4879998,1040,-0.055223836,422.4962861,460.933296,94.01972011,2723.936601,107.5056279,0,-42.22983143,76.28861587,-28.66430345,335.9964087,63.12608822,64.66441243,-26.09545253,276.678818,125.3598201,,,,
266.4959998,1041,-0.047530817,-279.6190622,-288.6250149,-97.45567235,1734.303449,-65.6648566,0,171.1239924,-67.62609239,-11.25093289,120.6031796,-53.44902812,-12.54761794,-53.37097907,254.1376317,177.6407343,,,,
266.5039998,1041,-0.039866104,64.40636165,155.9116322,31.36613214,2326.354549,48.02162379,0,27.6732067,37.66827853,76.89092387,-223.3615475,-3.317796468,-68.84326657,53.41081504,-261.1253512,-297.2295909,,,,
266.5119998,1041,-0.032229781,188.4515677,180.3695133,20.15640271,2286.557663,37.7208184,0,53.93097719,32.10215302,-75.38480723,561.696805,59.8688153,103.2204349,-76.28493699,586.6562612,408.9051038,,,,
266.5199998,1041,-0.024621933,-387.2631057,-323.9076783,-101.8727297,1682.872535,-76.06313737,0,143.5219889,-61.89165121,65.54808773,-332.5587853,-77.37275276,-115.8754569,22.81019412,-246.6520323,-232.9314763,,,,
266.5279998,1041,-0.017042642,414.2683215,461.6892633,94.35690982,2646.405613,101.3132061,0,-46.79886898,74.06511263,-39.26844424,334.1808095,64.0216382,63.13221321,-29.15625595,266.4767021,120.5774278,,,,
266.5359998,1041,-0.00949199,-274.6238635,-290.9884087,-90.59758778,1655.247669,-71.58615858,0,182.1733662,-59.06739616,-9.230006048,136.6886426,-45.4645438,-6.486178774,-39.55590638,256.6376286,186.3798141,,,,
266.5439998,1041,-0.001970058,55.33414427,140.6481329,27.28465034,2233.655601,29.99435464,0,29.88078758,40.45558886,80.90198402,-222.5464706,5.152683452,-64.4974207,66.12848787,-277.3879449,-301.273074,,,,
266.5519998,1041,0.005523076,195.7957492,184.422404,16.86128185,2214.357207,20.53089693,0,40.38097773,28.58797734,-80.65790815,565.7419035,59.1518578,108.5843642,-78.11914676,576.4498686,408.3074808,,,,
266.5599998,1041,0.012987331,-385.3532897,-336.358372,-92.20131661,1578.216978,-87.3554906,0,162.9778704,-50.52629619,84.48062246,-319.2020901,-62.66254772,-105.675545,37.62863901,-256.5368952,-235.555042,,,,
266.5679998,1041,0.020422632,417.8265258,461.0755637,107.9470999,2561.055713,92.66698339,0,-48.63115556,90.17335288,-14.28818595,350.0304229,101.2858869,73.71478607,-6.348510606,250.2267125,112.1108271,,,,
266.5759998,1041,0.0278289,-268.2471617,-280.3304539,-93.35091952,1592.489756,-86.52449564,0,136.1006698,-68.13818483,-18.60844269,153.2164117,-39.8687048,-3.810650525,-53.29770333,268.315406,203.5473287,,,,
266.5839998,1041,0.035206061,52.56895982,130.9585826,24.68064721,2140.932546,22.8511248,0,26.46942558,30.00691637,80.59222866,-234.6599143,-12.73982059,-71.70317376,55.84880277,-291.6006801,-303.7422723,,,,
266.5919998,1041,0.04255404,217.0791635,193.4385473,30.87154372,2144.059858,31.78077029,0,58.65447309,39.95829896,-59.65276819,577.4904972,70.33433238,113.6488447,-55.68250077,561.5964517,406.7186097,,,,
266.5999998,1041,0.049872764,-379.3096486,-336.3182455,-92.73067674,1501.499746,-85.25186241,0,153.2931325,-46.76818329,96.14814862,-302.3466709,-58.34730095,-97.96565521,53.04320695,-260.0921843,-226.1647812,,,,
266.6079998,1041,0.05716216,416.0065853,454.7489821,100.3437116,2467.181494,92.48717007,0,-43.82590588,84.95850238,-8.206483543,339.0587769,84.26679405,70.91403871,0.285988725,218.2601469,93.06489253,,,,
266.6159998,1041,0.064422157,-256.5318152,-278.2534386,-86.23099802,1490.09342,-77.9352962,0,162.7646068,-59.24555986,-5.447961353,166.0514602,-33.56463765,2.623767412,-27.65740428,244.7727591,188.0030865,,,,
266.6239998,1041,0.071652685,53.0901049,126.3310065,34.9740226,2027.074439,27.85512488,0,23.81060513,39.53061026,89.81026325,-224.1992794,4.862518955,-61.31102851,83.47755109,-316.2407397,-321.2902265,,,,
266.6319998,1041,0.078853673,221.3552979,196.0149527,39.40740196,2041.95634,37.32170147,0,35.9380509,38.15400569,-66.47639431,580.9396058,75.57081042,118.5279737,-48.4581596,542.2518651,391.2269583,,,,
266.6399998,1041,0.086025054,-389.5676442,-349.714437,-89.99267767,1373.979887,-80.36442886,0,147.8319805,-51.3332319,85.65221602,-304.2013398,-57.91571661,-98.97036846,57.36184787,-272.9798801,-233.206627,,,,
266.6479998,1041,0.093166761,400.875425,437.8759464,101.0765519,2333.265813,97.71244595,0,-51.07558718,87.1670433,-14.71472547,327.8248411,89.79457955,70.50899571,7.339772022,190.6964597,73.77981355,,,,
266.6559998,1041,0.100278726,-272.0734698,-295.418992,-86.95324413,1358.964323,-72.34026944,0,147.4045723,-56.8419735,-11.61161731,166.4670621,-28.99324182,5.525853468,-28.25995604,218.8375659,171.1192499,,,,
266.6639998,1041,0.107360884,25.92390762,99.52608557,26.53555566,1890.797667,30.59217229,0,12.74761483,31.75908495,80.13450854,-238.3103116,-5.912309113,-67.36258721,79.25341778,-351.9219177,-339.5928525,,,,
266.6719998,1041,0.114413172,214.1834749,187.0368782,31.3930223,1929.366954,41.14598911,0,22.6908334,36.20657978,-75.71210363,571.5986777,63.58392571,114.8265621,-51.50826064,513.3686036,377.9897244,,,,
266.6799998,1041,0.121435526,-393.6476319,-359.2580087,-94.92372326,1257.392685,-77.11073208,0,142.7308951,-48.82005082,84.35119426,-308.5769646,-60.36943889,-99.19497653,58.72695682,-298.1508021,-241.8371307,,,,
266.6879998,1041,0.128427883,406.6202979,439.2306307,100.6885562,2234.216936,104.2079464,0,-52.00925111,82.2445126,-18.5625836,317.8536953,89.61615848,64.27289171,13.19990703,164.2805998,66.97238078,,,,
266.6959998,1041,0.135390182,-253.6695908,-286.7312057,-81.95055412,1269.941455,-65.60992634,0,139.9704598,-56.58295065,-15.37043347,172.1958019,-22.89659136,0.635076874,-23.30929687,210.7113021,176.5759418,,,,
266.7039998,1041,0.142322363,32.49665688,96.20051598,33.10104114,1784.846796,29.77071943,0,-0.438111339,43.8198993,88.60629055,-235.4845244,11.17128672,-73.77908884,83.1140863,-373.0417716,-348.3559669,,,,
266.7119998,1041,0.149224366,230.0796455,202.8399216,38.16506968,1854.724535,36.53239727,0,-7.192356088,37.23949939,-85.80680662,587.5131651,74.75414977,103.4265618,-58.34496763,505.4740688,376.8335039,,,,
266.7199998,1041,0.156096133,-386.0191754,-347.2815594,-91.30556207,1187.629451,-85.34176993,0,109.9153621,-66.55321407,55.24978351,-296.233986,-69.00664948,-115.5678598,41.52502262,-287.7145188,-227.2170535,,,,
266.7279998,1041,0.162937607,406.4411273,446.707951,101.9470148,2165.921377,94.28530849,0,-88.24750794,71.06863996,-36.29149159,317.5738374,81.10401178,50.82592281,-3.277371747,172.6849693,78.74915042,,,,
266.7359998,1041,0.16974873,-254.8456962,-277.1539737,-85.41911871,1207.454478,-77.06643516,0,107.681117,-66.50390216,-28.41869741,182.3365502,-27.73480325,-10.59104093,-39.43909984,234.2329899,196.0085518,,,,
266.7439998,1041,0.176529449,20.52802113,94.73419863,24.41598931,1706.363457,15.79827166,0,-21.76296399,24.68672582,77.2071418,-248.8340806,-1.61678374,-94.29292766,73.52264718,-367.9123362,-345.6372614,,,,
266.7519998,1042,0.183279707,224.4672846,207.5304647,28.92747368,1781.095518,24.35682585,0,-36.13731195,19.31088424,-98.53190795,573.0619923,62.0852204,87.4211559,-70.15418684,511.9440033,380.7352678,,,,
266.7599998,1042,0.189999452,-401.0143092,-359.1259185,-95.60487871,1085.379042,-93.51173491,0,103.3817261,-70.93061405,58.31573087,-306.6402823,-78.59235677,-121.1721648,34.47334953,-289.5727922,-232.2130154,,,,
266.7679998,1042,0.196688632,405.6774469,441.8431943,109.8864555,2058.514259,95.29966791,0,-84.90781983,82.91395845,-14.38503032,307.1879511,74.88285064,50.70203161,8.595163742,144.2769291,50.79029451,,,,
266.7759998,1042,0.203347194,-246.2618514,-277.1504968,-84.98381989,1097.872705,-82.04680277,0,90.6638111,-63.63279175,-25.33154924,192.0904629,-37.80331782,-7.868901941,-38.08106011,233.6875347,193.762766,,,,
266.7839998,1042,0.209975088,14.87154858,76.81008954,18.88467908,1570.062449,6.309615929,0,-35.43194594,25.41174638,82.78158371,-254.6095192,-9.383816966,-94.37601425,66.79722638,-387.4181252,-364.7101177,,,,
266.7919998,1042,0.216572265,247.8030362,219.1359665,39.67516575,1671.861792,34.14895452,0,-41.94581695,31.84414641,-76.72207439,581.5556794,72.89833576,93.93735967,-66.73333738,485.0876914,355.3569159,,,,
266.7999998,1042,0.223138675,-383.2456011,-350.9506035,-93.73648542,968.989264,-85.84038909,0,92.34712259,-74.04773368,56.42733069,-286.7398186,-72.42885037,-118.0466341,31.15581841,-277.4244063,-219.3172394,,,,
266.8079998,1042,0.229674272,411.4829128,439.9094466,105.8777825,1934.09231,97.50304011,0,-96.16111677,75.96359786,-27.10520563,306.5786779,74.33485378,46.74604987,5.183576317,145.1293452,55.15564183,,,,
266.8159998,1042,0.236179008,-227.9708746,-265.1983443,-74.32184574,988.5445146,-67.16277309,0,101.2139732,-60.19223564,-23.94584252,199.5269893,-28.95024205,-2.830467913,-24.9209388,231.3498801,197.5790986,,,,
266.8239998,1042,0.242652838,19.69720776,77.3798065,26.83693648,1445.488113,20.82318586,0,-18.09844164,22.09091233,78.07238788,-258.3442967,-6.042891683,-91.4967039,86.55753429,-383.669067,-348.7588743,,,,
266.8319998,1042,0.249095717,247.9088155,212.7906391,42.47211897,1536.006245,42.48343339,0,-35.7645099,32.04909959,-85.67285301,581.3018899,75.62503203,94.82871291,-48.27657543,486.10725,368.971085,,,,
266.8399998,1042,0.255507601,-393.8051159,-365.229748,-88.13866048,812.9431542,-76.22326538,0,99.85002133,-69.85548226,64.69516231,-280.1184327,-61.51786516,-116.8230157,54.57207179,-290.3884622,-219.2624503,,,,
266.8479998,1042,0.261888447,397.039848,436.656714,117.5325688,1783.800054,117.9295621,0,-99.27052715,72.49657054,-20.68876775,306.1898474,84.05002825,43.28254516,25.59020584,125.1905721,50.4687406,,,,
266.8559998,1042,0.268238213,-240.7109534,-253.0014427,-58.68032902,857.981754,-35.91060586,0,86.70534956,-68.6134326,-32.0521505,214.4704553,-22.05302906,-3.113868168,-13.39715715,236.8817493,214.3765496,,,,
266.8639998,1042,0.274556859,9.672307244,97.87601375,43.47336376,1334.162154,53.89534131,0,-26.35043073,10.44712818,75.04677217,-251.6785917,-5.139580395,-90.10849219,101.5875444,-368.0049623,-327.029346,,,,
266.8719998,1042,0.280844344,254.4969791,239.5634317,55.99034022,1441.341569,67.18101964,0,-44.98960316,21.69465837,-86.88324304,583.8990636,66.61530638,95.33044237,-38.66618869,519.7209904,399.5370325,,,,
266.8799998,1042,0.287100629,-394.7500043,-360.6517309,-83.12779735,700.0597444,-64.88806654,0,89.79990004,-68.07672556,70.63180171,-286.7846331,-69.30304925,-121.0597089,63.21055469,-266.1175128,-200.362935,,,,
266.8879998,1042,0.293325676,406.8022397,442.5415791,120.2629895,1683.958589,118.3414718,0,-110.9876956,81.23711379,-10.28487506,287.0990244,81.32299456,36.50145719,35.79360511,127.9776872,48.34052371,,,,
266.8959998,1042,0.299519447,-224.8092225,-252.8223954,-61.21178215,753.9348771,-46.97138244,0,61.65290124,-71.16188597,-33.77256566,204.020545,-35.38520159,-10.29852078,-26.24161152,252.5908596,222.9016655,,,,
266.9039998,1042,0.305681907,7.76389436,83.66047216,44.07589461,1210.526196,50.46123794,0,-44.53487325,7.665992766,81.53123504,-275.8809243,-18.89389327,-101.0284573,86.09496087,-377.4661128,-339.5657661,,,,
266.9119998,1042,0.31181302,262.8876938,252.9558668,66.58241689,1351.704705,84.44239156,0,-54.24606745,19.68576698,-83.79033592,567.8694773,61.34027871,90.83310045,-42.28648293,514.5552725,392.0206578,,,,
266.9199998,1042,0.317912751,-400.5681653,-347.8284606,-81.76072504,606.7678951,-44.25968379,0,69.46168183,-90.32816158,53.34965891,-308.0338495,-91.02257496,-127.1857812,52.20057174,-247.7903015,-182.2300553,,,,
266.9279998,1042,0.323981067,392.1961573,453.6298092,122.9197113,1583.263535,140.8321794,0,-110.9510136,66.14833512,-16.91076173,251.4916867,59.99359331,27.07933909,33.99201937,135.4129308,53.50388312,,,,
266.9359998,1042,0.330017936,-240.0020438,-245.1505262,-55.7776484,646.5169603,-28.22679221,0,86.36158587,-61.84745446,-25.87899232,192.4257911,-31.85906833,-9.015230847,-6.27368204,266.2648574,229.2920828,,,,
266.9439998,1042,0.336023325,-28.78962313,62.32800471,35.70815939,1069.538167,51.87333474,0,-46.64792293,13.27143269,80.52454285,-301.5217216,-16.64775284,-105.2382635,97.72502919,-384.451708,-349.0737518,,,,
266.9519998,1042,0.341997204,242.3642715,240.1144371,64.12907795,1220.869814,78.12079343,0,-65.76723733,25.67379702,-88.22533176,547.0429249,60.60978793,84.81240182,-44.62381143,496.3132591,367.5087372,,,,
266.9599998,1042,0.347939543,-417.5471274,-371.2954687,-78.90936261,467.0620284,-60.89411931,0,73.11087491,-79.05946783,56.68730477,-310.4141678,-81.23275536,-122.4883917,54.57073228,-264.2186632,-203.9798732,,,,
266.9679998,1042,0.353850313,381.8004268,423.9554419,122.6312355,1447.754838,122.1770337,0,-132.7342821,69.28011136,-18.07577841,244.6112939,72.49914564,30.42744944,29.25001981,103.4543846,23.32704687,,,,
266.9759998,1042,0.359729486,-230.0385722,-249.2721388,-49.23347989,543.6414655,-33.25333411,0,52.87361263,-63.24544421,-30.89091577,206.3372534,-24.00115467,-6.853047701,-21.0829561,254.8139566,217.8003757,,,,
266.9839998,1042,0.365577035,-32.64592487,56.64620755,41.91383951,966.364789,46.01723875,0,-58.85229009,9.288777137,80.472499,-290.3316723,-17.35524901,-102.3435089,88.47125763,-389.7477545,-347.7520386,,,,
266.9919998,1042,0.371392934,249.3698414,242.7124749,74.83760141,1137.147436,78.02585911,0,-70.36753293,26.47018731,-85.02755597,564.1335017,66.51527244,93.02590641,-45.95080818,490.4055857,371.795924,,,,
266.9999998,1042,0.377177156,-402.5457821,-361.253398,-63.20572886,399.7283206,-51.0558048,0,68.97137488,-70.64524758,65.2398982,-279.910785,-63.66864786,-106.8340122,57.48616842,-249.8400276,-184.2355381,,,,
267.0079998,1043,0.382929679,398.0689242,436.5498332,126.6564256,1399.713548,119.8661416,0,-152.7892016,71.17662698,-17.13884051,268.9045789,84.30093041,47.15534159,22.73757484,130.8827735,51.82372904,,,,
267.0159998,1043,0.388650478,-200.4184756,-239.2924125,-51.39871676,513.0431217,-44.52633307,0,24.25988696,-68.66421936,-39.95719693,231.2024682,-16.45432902,9.305138982,-34.78779567,286.1532985,245.9965412,,,,
267.0239998,1043,0.39433953,3.293682863,62.03206006,42.28971859,942.4749431,37.23382443,0,-78.34058648,8.451107569,82.27637955,-282.7350637,-4.21110093,-88.10933912,84.63606471,-365.8565756,-329.5374604,,,,
267.0319998,1043,0.399996815,289.3443212,248.6321967,65.69911277,1113.301212,57.94232712,0,-91.72419393,30.12745957,-78.91161519,570.5320893,77.3794145,104.8818516,-52.78674122,520.4172,389.1258896,,,,
267.0399998,1043,0.40562231,-389.6341085,-379.0239163,-79.74759834,332.330344,-80.82845521,0,70.70560899,-66.94142941,74.485061,-277.1225827,-57.31664635,-101.3126034,49.83755812,-246.3016896,-192.5502057,,,,
267.0479998,1043,0.411215996,410.4109258,432.0729131,123.1434021,1330.984873,104.3907433,0,-111.9239246,83.04710139,6.135261973,268.1238499,100.468597,52.62972275,26.48205259,113.1235081,24.23602518,,,,
267.0559998,1043,0.416777854,-184.0125005,-237.7005008,-54.70644966,433.5148654,-59.37433906,0,95.95798757,-55.830843,-18.4426777,246.8608736,-5.364663958,17.10321029,-43.13165991,299.1487475,244.0511429,,,,
267.0639998,1043,0.422307866,-2.149478432,43.59730774,32.97299665,824.0636696,18.67416554,0,26.73719301,14.4473752,98.35213837,-279.2621624,-6.569784316,-85.19191406,70.07457254,-369.0326616,-343.9012357,,,,
267.0719998,1043,0.427806013,298.2291945,253.1494407,64.60900378,1021.775311,55.96054587,0,21.90724944,38.3451771,-68.62484196,584.9652564,82.0450424,111.5217334,-63.42525721,513.9859508,373.5884061,,,,
267.0799998,1043,0.433272281,-384.3839971,-375.3793178,-81.8105275,244.9970907,-79.90658134,0,176.7441554,-60.06630269,77.59349534,-255.1907858,-58.65938769,-96.54814891,27.90133553,-229.4028484,-181.8360991,,,,
267.0879998,1043,0.438706652,413.5297995,434.0109493,121.6431591,1243.737684,103.9484242,0,-12.11454166,88.88971833,10.86513912,276.5226447,85.48467582,52.48763063,2.514615148,120.1725971,30.21006032,,,,
267.0959998,1043,0.444109113,-166.2650483,-218.9671472,-53.74269425,363.8121043,-55.73625712,0,173.1777669,-49.16021084,-16.79777307,266.1530896,-18.09173097,22.21627059,-59.49893588,317.4323545,258.3607812,,,,
267.1039998,1043,0.449479649,8.35541249,59.9357532,32.90577513,748.037455,19.14587788,0,78.46812104,22.73048901,102.9549795,-273.431548,-15.77190592,-80.11706179,61.33334634,-343.2490605,-324.3285369,,,,
267.1119998,1043,0.454818247,311.2244995,260.265512,67.08063304,926.222178,49.23615243,0,66.93988698,51.91549164,-52.21670734,584.6673044,78.6051079,116.0061318,-66.5290743,538.3149097,387.1255396,,,,
267.1199998,1043,0.460124895,-383.6303103,-395.0113273,-80.29593223,102.4445914,-90.84703565,0,219.4200627,-41.81042099,107.3257506,-263.1694865,-48.89612433,-96.97359371,37.27958993,-229.1855682,-190.0717868,,,,
267.1279998,1043,0.465399582,404.9436336,421.4936633,125.311969,1108.403357,101.5772093,0,0.115320387,107.1074027,36.35419724,258.7300032,107.0887241,51.5304045,21.07550552,103.6012401,10.63630531,,,,
267.1359998,1043,0.470642297,-186.4017432,-224.843013,-53.32027765,245.3873302,-56.04158602,0,163.0729586,-46.18042651,-13.64159141,259.927981,-3.170001025,23.06295424,-56.49524908,319.6826054,256.807732,,,,
267.1439998,1043,0.475853031,-29.66066154,34.85434149,30.60924821,614.1555346,20.10339761,0,81.4412104,19.10126132,101.8099997,-301.5149778,-13.08251668,-89.54973899,52.31042721,-367.3527522,-344.9906284,,,,
267.1519998,1043,0.481031775,293.5489367,262.9597854,69.93442815,837.3262663,62.69428001,0,56.62864499,52.68770152,-60.06643718,570.3385839,83.68875949,112.9231571,-76.13030399,525.824535,379.1320597,,,,
267.1599998,1043,0.48617852,-402.9664303,-381.4045783,-85.61359071,39.25355071,-82.7372227,0,182.5689174,-55.47274509,81.89891237,-263.9657753,-58.67818142,-99.76480377,20.68131584,-213.0185923,-173.0908357,,,,
