Time:125Hz,Epoch,FP1,FP2,C3,C4,P7,P8,O1,O2,F7,F8,F3,F4,T7,T8,P3,P4,,,,
23.06399998,90,0,-73.22896989,0,0,0,0,0,0,0,98.98616111,0,0,0,0,0,0,,,,
23.07199998,90,0,447.4014822,0,0,0,0,0,0,0,-90.62714078,0,0,0,0,0,0,,,,
23.07999998,90,0,-697.4134047,0,0,0,0,0,0,0,-44.67946325,0,0,0,0,0,0,,,,
23.08799998,90,0,685.974688,0,0,0,0,0,0,0,48.67770643,0,0,0,0,0,0,,,,
23.09599998,90,0,-361.9149666,0,0,0,0,0,0,0,-175.7542405,0,0,0,0,0,0,,,,
23.10399998,90,0,-83.86003877,0,0,0,0,0,0,0,122.5005192,0,0,0,0,0,0,,,,
23.11199998,90,0,480.7031315,0,0,0,0,0,0,0,-111.6154058,0,0,0,0,0,0,,,,
23.11999998,90,0,-749.8948817,0,0,0,0,0,0,0,-20.93301085,0,0,0,0,0,0,,,,
23.12799998,90,0,624.4868325,0,0,0,0,0,0,0,150.9755507,0,0,0,0,0,0,,,,
23.13599998,90,0,-355.4868435,0,0,0,0,0,0,0,-122.1786106,0,0,0,0,0,0,,,,
23.14399998,90,0,-136.6229913,0,0,0,0,0,0,0,150.1666252,0,0,0,0,0,0,,,,
23.15199998,90,0,471.2099644,0,0,0,0,0,0,0,-60.89472385,0,0,0,0,0,0,,,,
23.15999998,90,0,-752.9006058,0,0,0,0,0,0,0,-14.02236905,0,0,0,0,0,0,,,,
23.16799998,90,0,620.3489748,0,0,0,0,0,0,0,125.4798644,0,0,0,0,0,0,,,,
23.17599998,90,0,-344.3637686,0,0,0,0,0,0,0,-146.3315326,0,0,0,0,0,0,,,,
23.18399998,90,0,-192.5885642,0,0,0,0,0,0,0,163.7961357,0,0,0,0,0,0,,,,
23.19199998,90,0,481.0862154,0,0,0,0,0,0,0,-27.17562567,0,0,0,0,0,0,,,,
23.19999998,90,0,-752.1863785,0,0,0,0,0,0,0,-21.86513911,0,0,0,0,0,0,,,,
23.20799998,90,0,600.8667969,0,0,0,0,0,0,0,142.3175421,0,0,0,0,0,0,,,,
23.21599998,90,0,-294.678547,0,0,0,0,0,0,0,-111.6124269,0,0,0,0,0,0,,,,
23.22399998,90,0,-171.4069217,0,0,0,0,0,0,0,169.456957,0,0,0,0,0,0,,,,
23.23199998,90,0,517.9408232,0,0,0,0,0,0,0,-10.28939702,0,0,0,0,0,0,,,,
23.23999998,90,0,-747.3073074,0,0,0,0,0,0,0,-11.4968041,0,0,0,0,0,0,,,,
23.24799998,90,0,603.7151758,0,0,0,0,0,0,0,130.9211102,0,0,0,0,0,0,,,,
23.25599998,90,0,-260.5668165,0,0,0,0,0,0,0,-154.4020845,0,0,0,0,0,0,,,,
23.26399998,90,0,-645.4564936,0,0,0,0,0,0,0,92.10747675,0,0,0,0,0,0,,,,
23.27199998,90,0,297.3730088,0,0,0,0,0,0,0,-34.96587769,0,0,0,0,0,0,,,,
23.27999998,90,0,-132.9521157,0,0,0,0,0,0,0,-84.27646776,0,0,0,0,0,0,,,,
23.28799998,90,0,230.7581508,0,0,0,0,0,0,0,2.952440427,0,0,0,0,0,0,,,,
23.29599998,91,0,-302.1958698,0,0,0,0,0,0,0,-93.28572349,0,0,0,0,0,0,,,,
23.30399998,91,0,310.2431323,0,0,0,0,0,0,0,57.87112799,0,0,0,0,0,0,,,,
23.31199998,91,0,-488.0253207,0,0,0,0,0,0,0,-278.557338,0,0,0,0,0,0,,,,
23.31999998,91,0,-1397.062809,0,0,0,0,0,0,0,-251.16123,0,0,0,0,0,0,,,,
23.32799998,91,0,276.4757821,0,0,0,0,0,0,0,122.5819106,0,0,0,0,0,0,,,,
23.33599998,91,0,216.2357586,0,0,0,0,0,0,0,207.7714056,0,0,0,0,0,0,,,,
23.34399998,91,0,-66.76180367,0,0,0,0,0,0,0,215.5064788,0,0,0,0,0,0,,,,
23.35199998,91,0,-72.95623065,0,0,0,0,0,0,0,228.2489726,0,0,0,0,0,0,,,,
23.35999998,91,0,281.0636333,0,0,0,0,0,0,0,287.3824458,0,0,0,0,0,0,,,,
23.36799998,91,0,-69.12772868,0,0,0,0,0,0,0,184.1352895,0,0,0,0,0,0,,,,
23.37599998,91,0,-65.25813501,0,0,0,0,0,0,0,340.6249041,0,0,0,0,0,0,,,,
23.38399998,91,0,415.567605,0,0,0,0,0,0,0,250.324422,0,0,0,0,0,0,,,,
23.39199998,91,0,-465.3640457,0,0,0,0,0,0,0,214.634375,0,0,0,0,0,0,,,,
23.39999998,91,0,488.9214747,0,0,0,0,0,0,0,330.4417004,0,0,0,0,0,0,,,,
23.40799998,91,0,-57.83019277,0,0,0,0,0,0,0,96.16910215,0,0,0,0,0,0,,,,
23.41599998,91,0,-206.3886208,0,0,0,0,0,0,0,339.775213,0,0,0,0,0,0,,,,
23.42399998,91,0,596.017462,0,0,0,0,0,0,0,231.0383788,0,0,0,0,0,0,,,,
23.43199998,91,0,-615.3307741,0,0,0,0,0,0,0,178.4911012,0,0,0,0,0,0,,,,
23.43999998,91,0,504.1596503,0,0,0,0,0,0,0,387.1428884,0,0,0,0,0,0,,,,
23.44799998,91,0,-90.53196479,0,0,0,0,0,0,0,156.1198832,0,0,0,0,0,0,,,,
23.45599998,91,0,-279.366777,0,0,0,0,0,0,0,393.5921085,0,0,0,0,0,0,,,,
23.46399998,91,0,652.8933262,0,0,0,0,0,0,0,242.854326,0,0,0,0,0,0,,,,
23.47199998,91,0,-692.3235619,0,0,0,0,0,0,0,199.8043615,0,0,0,0,0,0,,,,
23.47999998,91,0,501.0097378,0,0,0,0,0,0,0,416.2893962,0,0,0,0,0,0,,,,
23.48799998,91,0,-47.54881772,0,0,0,0,0,0,0,79.22462994,0,0,0,0,0,0,,,,
23.49599998,91,0,-300.3201178,0,0,0,0,0,0,0,297.4838954,0,0,0,0,0,0,,,,
23.50399998,91,0,701.7717408,0,0,0,0,0,0,0,191.6178133,0,0,0,0,0,0,,,,
23.51199998,91,0,-645.0882689,0,0,0,0,0,0,0,106.2919621,0,0,0,0,0,0,,,,
23.51999998,91,0,521.6264646,0,0,0,0,0,0,0,325.4109757,0,0,0,0,0,0,,,,
23.52799998,91,0,-12.41898141,0,0,0,0,0,0,0,53.04774961,0,0,0,0,0,0,,,,
23.53599998,91,0,-306.0404337,0,0,0,0,0,0,0,307.8788025,0,0,0,0,0,0,,,,
23.54399998,91,0,710.7040709,0,0,0,0,0,0,0,212.9939076,0,0,0,0,0,0,,,,
23.55199998,92,0,-674.0302708,0,0,0,0,0,0,0,135.2954978,0,0,0,0,0,0,,,,
23.55999998,92,0,476.3048623,0,0,0,0,0,0,0,386.0308361,0,0,0,0,0,0,,,,
23.56799998,92,0,-0.88679649,0,0,0,0,0,0,0,93.70775376,0,0,0,0,0,0,,,,
23.57599998,92,0,-332.538513,0,0,0,0,0,0,0,304.6204684,0,0,0,0,0,0,,,,
23.58399998,92,0,730.6774159,0,0,0,0,0,0,0,205.5720401,0,0,0,0,0,0,,,,
23.59199998,92,0,-641.0612957,0,0,0,0,0,0,0,101.685023,0,0,0,0,0,0,,,,
23.59999998,92,0,472.7178537,0,0,0,0,0,0,0,331.1766697,0,0,0,0,0,0,,,,
23.60799998,92,0,14.11294804,0,0,0,0,0,0,0,58.35673949,0,0,0,0,0,0,,,,
23.61599998,92,0,-361.3756292,0,0,0,0,0,0,0,294.579651,0,0,0,0,0,0,,,,
23.62399998,92,0,736.6005101,0,0,0,0,0,0,0,188.6588237,0,0,0,0,0,0,,,,
23.63199998,92,0,-655.4616838,0,0,0,0,0,0,0,84.57095825,0,0,0,0,0,0,,,,
23.63999998,92,0,439.2506025,0,0,0,0,0,0,0,349.7046963,0,0,0,0,0,0,,,,
23.64799998,92,0,46.47043634,0,0,0,0,0,0,0,62.15790592,0,0,0,0,0,0,,,,
23.65599998,92,0,-383.185938,0,0,0,0,0,0,0,267.6022832,0,0,0,0,0,0,,,,
23.66399998,92,0,752.1680095,0,0,0,0,0,0,0,165.3065272,0,0,0,0,0,0,,,,
23.67199998,92,0,-626.5756659,0,0,0,0,0,0,0,25.46032491,0,0,0,0,0,0,,,,
23.67999998,92,0,433.8939274,0,0,0,0,0,0,0,277.8866821,0,0,0,0,0,0,,,,
23.68799998,92,0,80.80028026,0,0,0,0,0,0,0,9.517101008,0,0,0,0,0,0,,,,
23.69599998,92,0,-420.3824229,0,0,0,0,0,0,0,233.6390396,0,0,0,0,0,0,,,,
23.70399998,92,0,737.602078,0,0,0,0,0,0,0,178.4389235,0,0,0,0,0,0,,,,
23.71199998,92,0,-628.4471201,0,0,0,0,0,0,0,42.36024424,0,0,0,0,0,0,,,,
23.71999998,92,0,395.5147832,0,0,0,0,0,0,0,283.6605402,0,0,0,0,0,0,,,,
23.72799998,92,0,109.4622926,0,0,0,0,0,0,0,-6.551736292,0,0,0,0,0,0,,,,
23.73599998,92,0,-424.0399351,0,0,0,0,0,0,0,195.5609384,0,0,0,0,0,0,,,,
23.74399998,92,0,975.7570932,0,0,0,0,0,0,0,83.89968119,0,0,0,0,0,0,,,,
23.75199998,92,0,-808.4158277,0,0,0,0,0,0,0,-263.6510625,0,0,0,0,0,0,,,,
23.75999998,92,0,-581.0384933,0,0,0,0,0,0,0,25.34170989,0,0,0,0,0,0,,,,
23.76799998,92,0,141.8838385,0,0,0,0,0,0,0,51.69168951,0,0,0,0,0,0,,,,
23.77599998,92,0,-121.2789339,0,0,0,0,0,0,0,224.1188567,0,0,0,0,0,0,,,,
23.78399998,92,0,407.4381261,0,0,0,0,0,0,0,136.3238872,0,0,0,0,0,0,,,,
23.79199998,92,0,-454.4203052,0,0,0,0,0,0,0,93.16759816,0,0,0,0,0,0,,,,
23.79999998,92,0,310.5020839,0,0,0,0,0,0,0,297.3248518,0,0,0,0,0,0,,,,
23.80799998,93,0,14.85991632,0,0,0,0,0,0,0,51.11739103,0,0,0,0,0,0,,,,
23.81599998,93,0,-385.69875,0,0,0,0,0,0,0,256.8414459,0,0,0,0,0,0,,,,
23.82399998,93,0,608.5651731,0,0,0,0,0,0,0,202.9299126,0,0,0,0,0,0,,,,
23.83199998,93,0,-537.8581389,0,0,0,0,0,0,0,67.123914,0,0,0,0,0,0,,,,
23.83999998,93,0,305.6952491,0,0,0,0,0,0,0,269.4508132,0,0,0,0,0,0,,,,
23.84799998,93,0,129.2317542,0,0,0,0,0,0,0,-9.20281083,0,0,0,0,0,0,,,,
23.85599998,93,0,-449.9411436,0,0,0,0,0,0,0,150.6854402,0,0,0,0,0,0,,,,
23.86399998,93,0,711.6957436,0,0,0,0,0,0,0,99.61631046,0,0,0,0,0,0,,,,
23.87199998,93,0,-577.3313892,0,0,0,0,0,0,0,-31.70443687,0,0,0,0,0,0,,,,
23.87999998,93,0,258.8584005,0,0,0,0,0,0,0,227.2635762,0,0,0,0,0,0,,,,
23.88799998,93,0,181.4132259,0,0,0,0,0,0,0,-55.48984182,0,0,0,0,0,0,,,,
23.89599998,93,0,-502.7889848,0,0,0,0,0,0,0,100.2045077,0,0,0,0,0,0,,,,
23.90399998,93,0,714.9471859,0,0,0,0,0,0,0,93.67107348,0,0,0,0,0,0,,,,
23.91199998,93,0,-608.4229628,0,0,0,0,0,0,0,-24.01572795,0,0,0,0,0,0,,,,
23.91999998,93,0,238.5748126,0,0,0,0,0,0,0,241.806339,0,0,0,0,0,0,,,,
23.92799998,93,0,199.2243388,0,0,0,0,0,0,0,-62.12820826,0,0,0,0,0,0,,,,
23.93599998,93,0,-562.8128739,0,0,0,0,0,0,0,119.1183277,0,0,0,0,0,0,,,,
23.94399998,93,0,718.6625916,0,0,0,0,0,0,0,138.2100819,0,0,0,0,0,0,,,,
23.95199998,93,0,-601.2024425,0,0,0,0,0,0,0,-10.41369108,0,0,0,0,0,0,,,,
23.95999998,93,0,213.7061299,0,0,0,0,0,0,0,286.9849468,0,0,0,0,0,0,,,,
23.96799998,93,0,226.1293045,0,0,0,0,0,0,0,-14.46338625,0,0,0,0,0,0,,,,
23.97599998,93,0,-599.9057136,0,0,0,0,0,0,0,145.7827395,0,0,0,0,0,0,,,,
23.98399998,93,0,712.9396011,0,0,0,0,0,0,0,175.5565651,0,0,0,0,0,0,,,,
23.99199998,93,0,-597.0242395,0,0,0,0,0,0,0,-22.28656344,0,0,0,0,0,0,,,,
23.99999998,93,0,171.5734633,0,0,0,0,0,0,0,266.1189004,0,0,0,0,0,0,,,,
24.00799998,93,0,268.9066085,0,0,0,0,0,0,0,-21.05855142,0,0,0,0,0,0,,,,
24.01599998,93,0,-590.2749394,0,0,0,0,0,0,0,121.8584824,0,0,0,0,0,0,,,,
24.02399998,93,0,717.9804094,0,0,0,0,0,0,0,180.1161044,0,0,0,0,0,0,,,,
24.03199998,93,0,-568.1729856,0,0,0,0,0,0,0,-5.619501835,0,0,0,0,0,0,,,,
24.03999998,93,0,155.4059194,0,0,0,0,0,0,0,283.2345761,0,0,0,0,0,0,,,,
24.04799998,93,0,265.1812808,0,0,0,0,0,0,0,9.365558756,0,0,0,0,0,0,,,,
24.05599998,93,0,-643.2351343,0,0,0,0,0,0,0,138.5528786,0,0,0,0,0,0,,,,
24.06399998,94,0,714.95249,0,0,0,0,0,0,0,177.4209302,0,0,0,0,0,0,,,,
24.07199998,94,0,-537.5573967,0,0,0,0,0,0,0,-39.97760567,0,0,0,0,0,0,,,,
24.07999998,94,0,123.4302006,0,0,0,0,0,0,0,231.4703451,0,0,0,0,0,0,,,,
24.08799998,94,0,302.0295121,0,0,0,0,0,0,0,-38.67644477,0,0,0,0,0,0,,,,
24.09599998,94,0,-619.6774486,0,0,0,0,0,0,0,71.83187966,0,0,0,0,0,0,,,,
24.10399998,94,0,719.6697932,0,0,0,0,0,0,0,125.8031419,0,0,0,0,0,0,,,,
24.11199998,94,0,-530.2644495,0,0,0,0,0,0,0,-52.10399979,0,0,0,0,0,0,,,,
24.11999998,94,0,125.4044456,0,0,0,0,0,0,0,223.3258294,0,0,0,0,0,0,,,,
24.12799998,94,0,381.0903605,0,0,0,0,0,0,0,-56.2009856,0,0,0,0,0,0,,,,
24.13599998,94,0,-602.60724,0,0,0,0,0,0,0,71.52015478,0,0,0,0,0,0,,,,
24.14399998,94,0,763.1015146,0,0,0,0,0,0,0,134.6429888,0,0,0,0,0,0,,,,
24.15199998,94,0,-447.0271855,0,0,0,0,0,0,0,-83.90151012,0,0,0,0,0,0,,,,
24.15999998,94,0,107.3517209,0,0,0,0,0,0,0,226.2946248,0,0,0,0,0,0,,,,
24.16799998,94,0,396.0543122,0,0,0,0,0,0,0,-14.60032183,0,0,0,0,0,0,,,,
24.17599998,94,0,-616.9238672,0,0,0,0,0,0,0,77.14789345,0,0,0,0,0,0,,,,
24.18399998,94,0,755.5995244,0,0,0,0,0,0,0,170.5407906,0,0,0,0,0,0,,,,
24.19199998,94,0,-404.9490383,0,0,0,0,0,0,0,-48.85547631,0,0,0,0,0,0,,,,
24.19999998,94,0,103.3463678,0,0,0,0,0,0,0,233.6833311,0,0,0,0,0,0,,,,
24.20799998,94,0,428.0285211,0,0,0,0,0,0,0,27.73395392,0,0,0,0,0,0,,,,
24.21599998,94,0,-623.5212785,0,0,0,0,0,0,0,130.196577,0,0,0,0,0,0,,,,
24.22399998,94,0,1131.55901,0,0,0,0,0,0,0,194.5678186,0,0,0,0,0,0,,,,
24.23199998,94,0,-22.11872768,0,0,0,0,0,0,0,-208.5298561,0,0,0,0,0,0,,,,
24.23999998,94,0,-445.4702262,0,0,0,0,0,0,0,14.84250733,0,0,0,0,0,0,,,,
24.24799998,94,0,297.822251,0,0,0,0,0,0,0,91.38997384,0,0,0,0,0,0,,,,
24.25599998,94,0,-339.5341946,0,0,0,0,0,0,0,160.4841056,0,0,0,0,0,0,,,,
24.26399998,94,0,538.3190837,0,0,0,0,0,0,0,96.67998773,0,0,0,0,0,0,,,,
24.27199998,94,0,-260.6639908,0,0,0,0,0,0,0,-23.28193421,0,0,0,0,0,0,,,,
24.27999998,94,0,87.78502987,0,0,0,0,0,0,0,225.3551238,0,0,0,0,0,0,,,,
24.28799998,94,0,377.966936,0,0,0,0,0,0,0,3.221155684,0,0,0,0,0,0,,,,
24.29599998,94,0,-542.5840486,0,0,0,0,0,0,0,103.1458009,0,0,0,0,0,0,,,,
24.30399998,94,0,663.9369049,0,0,0,0,0,0,0,178.6752145,0,0,0,0,0,0,,,,
24.31199998,94,0,-301.1905608,0,0,0,0,0,0,0,-39.43133003,0,0,0,0,0,0,,,,
24.31999998,95,0,31.84188195,0,0,0,0,0,0,0,205.7650042,0,0,0,0,0,0,,,,
24.32799998,95,0,474.2798093,0,0,0,0,0,0,0,-2.19667067,0,0,0,0,0,0,,,,
24.33599998,95,0,-597.927046,0,0,0,0,0,0,0,55.91783051,0,0,0,0,0,0,,,,
24.34399998,95,0,710.0002941,0,0,0,0,0,0,0,178.4801305,0,0,0,0,0,0,,,,
24.35199998,95,0,-308.9494583,0,0,0,0,0,0,0,-11.84328866,0,0,0,0,0,0,,,,
24.35999998,95,0,-2.56773866,0,0,0,0,0,0,0,256.3063827,0,0,0,0,0,0,,,,
24.36799998,95,0,517.5577192,0,0,0,0,0,0,0,37.85280234,0,0,0,0,0,0,,,,
24.37599998,95,0,-660.4045982,0,0,0,0,0,0,0,109.9185032,0,0,0,0,0,0,,,,
24.38399998,95,0,714.2330685,0,0,0,0,0,0,0,219.3779317,0,0,0,0,0,0,,,,
24.39199998,95,0,-274.5300794,0,0,0,0,0,0,0,-57.6632198,0,0,0,0,0,0,,,,
24.39999998,95,0,-37.76619454,0,0,0,0,0,0,0,250.6443946,0,0,0,0,0,0,,,,
24.40799998,95,0,537.8485354,0,0,0,0,0,0,0,84.47455993,0,0,0,0,0,0,,,,
24.41599998,95,0,-646.5254222,0,0,0,0,0,0,0,105.0215466,0,0,0,0,0,0,,,,
24.42399998,95,0,714.5716533,0,0,0,0,0,0,0,222.3740959,0,0,0,0,0,0,,,,
24.43199998,95,0,-261.3981563,0,0,0,0,0,0,0,-13.61365461,0,0,0,0,0,0,,,,
24.43999998,95,0,-48.75250591,0,0,0,0,0,0,0,266.4064643,0,0,0,0,0,0,,,,
24.44799998,95,0,567.5687756,0,0,0,0,0,0,0,68.82750428,0,0,0,0,0,0,,,,
24.45599998,95,0,-668.7511906,0,0,0,0,0,0,0,107.9431479,0,0,0,0,0,0,,,,
24.46399998,95,0,671.9398313,0,0,0,0,0,0,0,272.9803042,0,0,0,0,0,0,,,,
24.47199998,95,0,-265.715103,0,0,0,0,0,0,0,38.03034364,0,0,0,0,0,0,,,,
24.47999998,95,0,-105.8879946,0,0,0,0,0,0,0,282.1380522,0,0,0,0,0,0,,,,
24.48799998,95,0,544.9520498,0,0,0,0,0,0,0,79.98507369,0,0,0,0,0,0,,,,
24.49599998,95,0,-683.4266473,0,0,0,0,0,0,0,113.2567149,0,0,0,0,0,0,,,,
24.50399998,95,0,694.5390109,0,0,0,0,0,0,0,227.467096,0,0,0,0,0,0,,,,
24.51199998,95,0,-213.3701,0,0,0,0,0,0,0,-49.07315967,0,0,0,0,0,0,,,,
24.51999998,95,0,-139.8335034,0,0,0,0,0,0,0,252.8987726,0,0,0,0,0,0,,,,
24.52799998,95,0,544.9346046,0,0,0,0,0,0,0,87.39735858,0,0,0,0,0,0,,,,
24.53599998,95,0,-730.8385943,0,0,0,0,0,0,0,108.3128395,0,0,0,0,0,0,,,,
24.54399998,95,0,618.612611,0,0,0,0,0,0,0,272.3069971,0,0,0,0,0,0,,,,
24.55199998,95,0,-226.8657549,0,0,0,0,0,0,0,-23.18538461,0,0,0,0,0,0,,,,
24.55999998,95,0,-174.5406407,0,0,0,0,0,0,0,240.3975885,0,0,0,0,0,0,,,,
24.56799998,95,0,585.4321549,0,0,0,0,0,0,0,67.61498418,0,0,0,0,0,0,,,,
24.57599998,96,0,-712.4724418,0,0,0,0,0,0,0,19.62689273,0,0,0,0,0,0,,,,
24.58399998,96,0,612.7146665,0,0,0,0,0,0,0,178.9447699,0,0,0,0,0,0,,,,
24.59199998,96,0,-174.1594411,0,0,0,0,0,0,0,-94.31689452,0,0,0,0,0,0,,,,
24.59999998,96,0,-183.5748503,0,0,0,0,0,0,0,160.3543314,0,0,0,0,0,0,,,,
24.60799998,96,0,592.2218202,0,0,0,0,0,0,0,44.3527954,0,0,0,0,0,0,,,,
24.61599998,96,0,-700.9557565,0,0,0,0,0,0,0,48.05906481,0,0,0,0,0,0,,,,
24.62399998,96,0,622.5989692,0,0,0,0,0,0,0,193.8046766,0,0,0,0,0,0,,,,
24.63199998,96,0,-163.5150165,0,0,0,0,0,0,0,-72.96468368,0,0,0,0,0,0,,,,
24.63999998,96,0,-231.3188883,0,0,0,0,0,0,0,209.4335015,0,0,0,0,0,0,,,,
24.64799998,96,0,609.516408,0,0,0,0,0,0,0,55.01499138,0,0,0,0,0,0,,,,
24.65599998,96,0,-721.0717969,0,0,0,0,0,0,0,36.62254413,0,0,0,0,0,0,,,,
24.66399998,96,0,571.5627232,0,0,0,0,0,0,0,224.760377,0,0,0,0,0,0,,,,
24.67199998,96,0,-147.6885449,0,0,0,0,0,0,0,-52.61295758,0,0,0,0,0,0,,,,
24.67999998,96,0,-264.5435824,0,0,0,0,0,0,0,229.8113496,0,0,0,0,0,0,,,,
24.68799998,96,0,611.9324108,0,0,0,0,0,0,0,119.7524589,0,0,0,0,0,0,,,,
24.69599998,96,0,-965.8308289,0,0,0,0,0,0,0,5.138263652,0,0,0,0,0,0,,,,
24.70399998,96,0,656.0708775,0,0,0,0,0,0,0,149.1598384,0,0,0,0,0,0,,,,
24.71199998,96,0,836.3140097,0,0,0,0,0,0,0,-89.2439095,0,0,0,0,0,0,,,,
24.71999998,96,0,-113.323087,0,0,0,0,0,0,0,70.48875859,0,0,0,0,0,0,,,,
24.72799998,96,0,265.0871175,0,0,0,0,0,0,0,101.0496547,0,0,0,0,0,0,,,,
24.73599998,96,0,-515.6470854,0,0,0,0,0,0,0,173.3224645,0,0,0,0,0,0,,,,
24.74399998,96,0,365.9398491,0,0,0,0,0,0,0,201.4367897,0,0,0,0,0,0,,,,
24.75199998,96,0,-172.959391,0,0,0,0,0,0,0,20.86597778,0,0,0,0,0,0,,,,
24.75999998,96,0,-221.4829336,0,0,0,0,0,0,0,222.2226863,0,0,0,0,0,0,,,,
24.76799998,96,0,537.2363886,0,0,0,0,0,0,0,5.363058984,0,0,0,0,0,0,,,,
24.77599998,96,0,-633.7532095,0,0,0,0,0,0,0,0.284965049,0,0,0,0,0,0,,,,
24.78399998,96,0,467.5561148,0,0,0,0,0,0,0,164.172228,0,0,0,0,0,0,,,,
24.79199998,96,0,-93.16058248,0,0,0,0,0,0,0,-75.98507481,0,0,0,0,0,0,,,,
24.79999998,96,0,-344.1519476,0,0,0,0,0,0,0,167.3896522,0,0,0,0,0,0,,,,
24.80799998,96,0,591.9436839,0,0,0,0,0,0,0,42.97609838,0,0,0,0,0,0,,,,
24.81599998,96,0,-696.1764491,0,0,0,0,0,0,0,-46.47036546,0,0,0,0,0,0,,,,
24.82399998,96,0,412.7046012,0,0,0,0,0,0,0,144.6588836,0,0,0,0,0,0,,,,
24.83199998,97,0,-94.23497285,0,0,0,0,0,0,0,-85.62093037,0,0,0,0,0,0,,,,
24.83999998,97,0,-375.4016256,0,0,0,0,0,0,0,124.2330432,0,0,0,0,0,0,,,,
24.84799998,97,0,628.4418082,0,0,0,0,0,0,0,-5.083357191,0,0,0,0,0,0,,,,
24.85599998,97,0,-738.6142536,0,0,0,0,0,0,0,-46.64603972,0,0,0,0,0,0,,,,
24.86399998,97,0,417.2841044,0,0,0,0,0,0,0,175.4444206,0,0,0,0,0,0,,,,
24.87199998,97,0,-48.4288876,0,0,0,0,0,0,0,-118.4996362,0,0,0,0,0,0,,,,
24.87999998,97,0,-419.0112011,0,0,0,0,0,0,0,153.962677,0,0,0,0,0,0,,,,
24.88799998,97,0,665.5894675,0,0,0,0,0,0,0,75.68775712,0,0,0,0,0,0,,,,
24.89599998,97,0,-693.6806239,0,0,0,0,0,0,0,-45.81492141,0,0,0,0,0,0,,,,
24.90399998,97,0,449.6545654,0,0,0,0,0,0,0,174.0721691,0,0,0,0,0,0,,,,
24.91199998,97,0,45.52588205,0,0,0,0,0,0,0,-128.6927803,0,0,0,0,0,0,,,,
24.91999998,97,0,-399.1296123,0,0,0,0,0,0,0,117.323186,0,0,0,0,0,0,,,,
24.92799998,97,0,701.5889001,0,0,0,0,0,0,0,99.73829556,0,0,0,0,0,0,,,,
24.93599998,97,0,-653.416301,0,0,0,0,0,0,0,-11.64363174,0,0,0,0,0,0,,,,
24.94399998,97,0,442.5698603,0,0,0,0,0,0,0,182.3154966,0,0,0,0,0,0,,,,
24.95199998,97,0,66.81728408,0,0,0,0,0,0,0,-108.5720142,0,0,0,0,0,0,,,,
24.95999998,97,0,-419.1178439,0,0,0,0,0,0,0,127.2109256,0,0,0,0,0,0,,,,
24.96799998,97,0,718.3034129,0,0,0,0,0,0,0,86.07149654,0,0,0,0,0,0,,,,
24.97599998,97,0,-647.1131259,0,0,0,0,0,0,0,-22.37893213,0,0,0,0,0,0,,,,
24.98399998,97,0,382.2703434,0,0,0,0,0,0,0,232.1492804,0,0,0,0,0,0,,,,
24.99199998,97,0,49.34654221,0,0,0,0,0,0,0,-7.807857633,0,0,0,0,0,0,,,,
24.99999998,97,0,-449.9943794,0,0,0,0,0,0,0,205.2498695,0,0,0,0,0,0,,,,
25.00799998,97,0,719.3235572,0,0,0,0,0,0,0,118.522825,0,0,0,0,0,0,,,,
25.01599998,97,0,-653.3422756,0,0,0,0,0,0,0,-22.79593661,0,0,0,0,0,0,,,,
25.02399998,97,0,374.9870328,0,0,0,0,0,0,0,222.1301035,0,0,0,0,0,0,,,,
25.03199998,97,0,129.2917525,0,0,0,0,0,0,0,-74.29149288,0,0,0,0,0,0,,,,
25.03999998,97,0,-426.8165756,0,0,0,0,0,0,0,107.3422016,0,0,0,0,0,0,,,,
25.04799998,97,0,748.8530892,0,0,0,0,0,0,0,115.0226653,0,0,0,0,0,0,,,,
25.05599998,97,0,-617.2959118,0,0,0,0,0,0,0,44.69841771,0,0,0,0,0,0,,,,
25.06399998,97,0,376.5994965,0,0,0,0,0,0,0,313.7430591,0,0,0,0,0,0,,,,
25.07199998,97,0,162.8457342,0,0,0,0,0,0,0,36.31716589,0,0,0,0,0,0,,,,
25.07999998,97,0,-445.8369383,0,0,0,0,0,0,0,205.0273121,0,0,0,0,0,0,,,,
25.08799998,98,0,777.44058,0,0,0,0,0,0,0,159.4742119,0,0,0,0,0,0,,,,
25.09599998,98,0,-591.8011659,0,0,0,0,0,0,0,25.32328306,0,0,0,0,0,0,,,,
25.10399998,98,0,335.3926571,0,0,0,0,0,0,0,305.1742036,0,0,0,0,0,0,,,,
25.11199998,98,0,174.2274621,0,0,0,0,0,0,0,45.60381121,0,0,0,0,0,0,,,,
25.11999998,98,0,-468.2988197,0,0,0,0,0,0,0,200.8298093,0,0,0,0,0,0,,,,
25.12799998,98,0,786.8773911,0,0,0,0,0,0,0,152.8578966,0,0,0,0,0,0,,,,
25.13599998,98,0,-559.1609671,0,0,0,0,0,0,0,-6.67585519,0,0,0,0,0,0,,,,
25.14399998,98,0,343.901461,0,0,0,0,0,0,0,243.9114837,0,0,0,0,0,0,,,,
25.15199998,98,0,220.612727,0,0,0,0,0,0,0,-28.34122097,0,0,0,0,0,0,,,,
25.15999998,98,0,-483.5369209,0,0,0,0,0,0,0,163.6749797,0,0,0,0,0,0,,,,
25.16799998,98,0,793.0545147,0,0,0,0,0,0,0,162.4513459,0,0,0,0,0,0,,,,
25.17599998,98,0,-559.1031211,0,0,0,0,0,0,0,-101.3275177,0,0,0,0,0,0,,,,
25.18399998,98,0,13.40856835,0,0,0,0,0,0,0,172.167082,0,0,0,0,0,0,,,,
25.19199998,98,0,238.7147059,0,0,0,0,0,0,0,129.5701194,0,0,0,0,0,0,,,,
25.19999998,98,0,-170.2791316,0,0,0,0,0,0,0,133.6841554,0,0,0,0,0,0,,,,
25.20799998,98,0,339.1177707,0,0,0,0,0,0,0,69.63050235,0,0,0,0,0,0,,,,
25.21599998,98,0,-289.5095726,0,0,0,0,0,0,0,113.1162825,0,0,0,0,0,0,,,,
25.22399998,98,0,1261.187409,0,0,0,0,0,0,0,170.8045121,0,0,0,0,0,0,,,,
25.23199998,98,0,1088.8658,0,0,0,0,0,0,0,-38.53994643,0,0,0,0,0,0,,,,
25.23999998,98,0,-335.2964361,0,0,0,0,0,0,0,106.3339256,0,0,0,0,0,0,,,,
25.24799998,98,0,-59.80977834,0,0,0,0,0,0,0,132.4681699,0,0,0,0,0,0,,,,
25.25599998,98,0,238.2007302,0,0,0,0,0,0,0,116.2045174,0,0,0,0,0,0,,,,
25.26399998,98,0,-23.2612191,0,0,0,0,0,0,0,95.4763689,0,0,0,0,0,0,,,,
25.27199998,98,0,-177.6556098,0,0,0,0,0,0,0,154.3861726,0,0,0,0,0,0,,,,
25.27999998,98,0,472.5634577,0,0,0,0,0,0,0,146.8927044,0,0,0,0,0,0,,,,
25.28799998,98,0,-356.1753259,0,0,0,0,0,0,0,26.99438962,0,0,0,0,0,0,,,,
25.29599998,98,0,164.391023,0,0,0,0,0,0,0,217.8534365,0,0,0,0,0,0,,,,
25.30399998,98,0,206.5524249,0,0,0,0,0,0,0,51.41008684,0,0,0,0,0,0,,,,
25.31199998,98,0,-490.6362976,0,0,0,0,0,0,0,150.6866616,0,0,0,0,0,0,,,,
25.31999998,98,0,659.0786385,0,0,0,0,0,0,0,192.9905721,0,0,0,0,0,0,,,,
25.32799998,98,0,-421.1979281,0,0,0,0,0,0,0,-5.085883257,0,0,0,0,0,0,,,,
25.33599998,98,0,150.8756057,0,0,0,0,0,0,0,239.1713736,0,0,0,0,0,0,,,,
25.34399998,99,0,295.0186637,0,0,0,0,0,0,0,19.14108664,0,0,0,0,0,0,,,,
25.35199998,99,0,-585.848687,0,0,0,0,0,0,0,127.8211026,0,0,0,0,0,0,,,,
25.35999998,99,0,705.7966105,0,0,0,0,0,0,0,193.674515,0,0,0,0,0,0,,,,
25.36799998,99,0,-480.5212405,0,0,0,0,0,0,0,-14.51608299,0,0,0,0,0,0,,,,
25.37599998,99,0,112.0092148,0,0,0,0,0,0,0,256.9077207,0,0,0,0,0,0,,,,
25.38399998,99,0,332.4237477,0,0,0,0,0,0,0,6.005068583,0,0,0,0,0,0,,,,
25.39199998,99,0,-622.0145945,0,0,0,0,0,0,0,93.28427901,0,0,0,0,0,0,,,,
25.39999998,99,0,719.9890069,0,0,0,0,0,0,0,157.3138325,0,0,0,0,0,0,,,,
25.40799998,99,0,-491.8596987,0,0,0,0,0,0,0,-37.26394829,0,0,0,0,0,0,,,,
25.41599998,99,0,72.79663056,0,0,0,0,0,0,0,272.8003691,0,0,0,0,0,0,,,,
25.42399998,99,0,336.4524029,0,0,0,0,0,0,0,20.17195319,0,0,0,0,0,0,,,,
25.43199998,99,0,-672.871452,0,0,0,0,0,0,0,113.1214858,0,0,0,0,0,0,,,,
25.43999998,99,0,709.4775142,0,0,0,0,0,0,0,178.8946626,0,0,0,0,0,0,,,,
25.44799998,99,0,-475.5284108,0,0,0,0,0,0,0,-63.12166808,0,0,0,0,0,0,,,,
25.45599998,99,0,43.10779715,0,0,0,0,0,0,0,234.9077275,0,0,0,0,0,0,,,,
25.46399998,99,0,372.6674913,0,0,0,0,0,0,0,-33.12169535,0,0,0,0,0,0,,,,
25.47199998,99,0,-666.0900213,0,0,0,0,0,0,0,39.32705172,0,0,0,0,0,0,,,,
25.47999998,99,0,698.2307291,0,0,0,0,0,0,0,150.5916752,0,0,0,0,0,0,,,,
25.48799998,99,0,-478.9564135,0,0,0,0,0,0,0,-77.83061653,0,0,0,0,0,0,,,,
25.49599998,99,0,-8.481946179,0,0,0,0,0,0,0,212.792709,0,0,0,0,0,0,,,,
25.50399998,99,0,372.5311455,0,0,0,0,0,0,0,-26.26221021,0,0,0,0,0,0,,,,
25.51199998,99,0,-688.29033,0,0,0,0,0,0,0,49.76634418,0,0,0,0,0,0,,,,
25.51999998,99,0,685.284839,0,0,0,0,0,0,0,163.7246071,0,0,0,0,0,0,,,,
25.52799998,99,0,-428.8020223,0,0,0,0,0,0,0,-60.66239573,0,0,0,0,0,0,,,,
25.53599998,99,0,34.30638642,0,0,0,0,0,0,0,198.5400851,0,0,0,0,0,0,,,,
25.54399998,99,0,409.3201078,0,0,0,0,0,0,0,-50.14843378,0,0,0,0,0,0,,,,
25.55199998,99,0,-734.8417008,0,0,0,0,0,0,0,63.95433157,0,0,0,0,0,0,,,,
25.55999998,99,0,680.0532884,0,0,0,0,0,0,0,152.4354926,0,0,0,0,0,0,,,,
25.56799998,99,0,-425.3943671,0,0,0,0,0,0,0,-152.8924773,0,0,0,0,0,0,,,,
25.57599998,99,0,-66.41463918,0,0,0,0,0,0,0,149.0773823,0,0,0,0,0,0,,,,
25.58399998,99,0,398.1961654,0,0,0,0,0,0,0,-55.04904747,0,0,0,0,0,0,,,,
25.59199998,99,0,-746.5861227,0,0,0,0,0,0,0,16.70474679,0,0,0,0,0,0,,,,
25.59999998,100,0,670.9715432,0,0,0,0,0,0,0,126.3826838,0,0,0,0,0,0,,,,
25.60799998,100,0,-388.272185,0,0,0,0,0,0,0,-161.002914,0,0,0,0,0,0,,,,
25.61599998,100,0,-88.4604891,0,0,0,0,0,0,0,150.3157514,0,0,0,0,0,0,,,,
25.62399998,100,0,439.9531913,0,0,0,0,0,0,0,-72.63858981,0,0,0,0,0,0,,,,
25.63199998,100,0,-746.6502267,0,0,0,0,0,0,0,-65.41297162,0,0,0,0,0,0,,,,
25.63999998,100,0,624.3487541,0,0,0,0,0,0,0,109.3849748,0,0,0,0,0,0,,,,
25.64799998,100,0,-393.2594049,0,0,0,0,0,0,0,-134.3980915,0,0,0,0,0,0,,,,
25.65599998,100,0,-120.4668545,0,0,0,0,0,0,0,105.439625,0,0,0,0,0,0,,,,
25.66399998,100,0,477.0961178,0,0,0,0,0,0,0,-117.8051482,0,0,0,0,0,0,,,,
25.67199998,100,0,-735.9219284,0,0,0,0,0,0,0,-88.11901346,0,0,0,0,0,0,,,,
25.67999998,100,0,1423.929866,0,0,0,0,0,0,0,158.1475667,0,0,0,0,0,0,,,,
25.68799998,100,0,1193.070681,0,0,0,0,0,0,0,-111.6101008,0,0,0,0,0,0,,,,
25.69599998,100,0,-371.9784262,0,0,0,0,0,0,0,-22.04710313,0,0,0,0,0,0,,,,
25.70399998,100,0,-161.8411617,0,0,0,0,0,0,0,1.513768516,0,0,0,0,0,0,,,,
25.71199998,100,0,70.16157678,0,0,0,0,0,0,0,47.56204551,0,0,0,0,0,0,,,,
25.71999998,100,0,56.85138309,0,0,0,0,0,0,0,-36.95865299,0,0,0,0,0,0,,,,
25.72799998,100,0,-402.7291931,0,0,0,0,0,0,0,-49.95617842,0,0,0,0,0,0,,,,
25.73599998,100,0,371.2138338,0,0,0,0,0,0,0,83.0651361,0,0,0,0,0,0,,,,
25.74399998,100,0,-292.3345954,0,0,0,0,0,0,0,-66.95111542,0,0,0,0,0,0,,,,
25.75199998,100,0,-122.0196186,0,0,0,0,0,0,0,145.2764576,0,0,0,0,0,0,,,,
25.75999998,100,0,371.4836272,0,0,0,0,0,0,0,-6.475374651,0,0,0,0,0,0,,,,
25.76799998,100,0,-632.6186842,0,0,0,0,0,0,0,-45.05171999,0,0,0,0,0,0,,,,
25.77599998,100,0,525.3421737,0,0,0,0,0,0,0,102.919543,0,0,0,0,0,0,,,,
25.78399998,100,0,-242.8142023,0,0,0,0,0,0,0,-146.6936902,0,0,0,0,0,0,,,,
25.79199998,100,0,-156.1665993,0,0,0,0,0,0,0,96.64104602,0,0,0,0,0,0,,,,
25.79999998,100,0,487.0406836,0,0,0,0,0,0,0,-19.64771474,0,0,0,0,0,0,,,,
25.80799998,100,0,-699.1081656,0,0,0,0,0,0,0,-25.42336476,0,0,0,0,0,0,,,,
25.81599998,100,0,575.5911441,0,0,0,0,0,0,0,122.8944393,0,0,0,0,0,0,,,,
25.82399998,100,0,-256.3284196,0,0,0,0,0,0,0,-108.108813,0,0,0,0,0,0,,,,
25.83199998,100,0,-202.0323627,0,0,0,0,0,0,0,161.4636794,0,0,0,0,0,0,,,,
25.83999998,100,0,545.0731841,0,0,0,0,0,0,0,-16.1196702,0,0,0,0,0,0,,,,
25.84799998,100,0,-735.7218023,0,0,0,0,0,0,0,-12.6268607,0,0,0,0,0,0,,,,
25.85599998,101,0,585.0732625,0,0,0,0,0,0,0,153.3906808,0,0,0,0,0,0,,,,
25.86399998,101,0,-201.8100905,0,0,0,0,0,0,0,-139.6337098,0,0,0,0,0,0,,,,
25.87199998,101,0,-215.844508,0,0,0,0,0,0,0,145.4386564,0,0,0,0,0,0,,,,
25.87999998,101,0,560.1126772,0,0,0,0,0,0,0,12.29379433,0,0,0,0,0,0,,,,
25.88799998,101,0,-756.5690751,0,0,0,0,0,0,0,6.479934329,0,0,0,0,0,0,,,,
25.89599998,101,0,548.3929156,0,0,0,0,0,0,0,210.8518984,0,0,0,0,0,0,,,,
25.90399998,101,0,-212.8276679,0,0,0,0,0,0,0,-58.45405266,0,0,0,0,0,0,,,,
25.91199998,101,0,-250.1608169,0,0,0,0,0,0,0,186.4091835,0,0,0,0,0,0,,,,
25.91999998,101,0,605.1743427,0,0,0,0,0,0,0,28.32703496,0,0,0,0,0,0,,,,
25.92799998,101,0,-705.8643104,0,0,0,0,0,0,0,-8.114453952,0,0,0,0,0,0,,,,
25.93599998,101,0,606.2662938,0,0,0,0,0,0,0,139.75732,0,0,0,0,0,0,,,,
25.94399998,101,0,-130.1454923,0,0,0,0,0,0,0,-170.1639884,0,0,0,0,0,0,,,,
25.95199998,101,0,-220.5130257,0,0,0,0,0,0,0,73.77623028,0,0,0,0,0,0,,,,
25.95999998,101,0,688.9750562,0,0,0,0,0,0,0,-111.574973,0,0,0,0,0,0,,,,
25.96799998,101,0,-700.2122371,0,0,0,0,0,0,0,-145.0317212,0,0,0,0,0,0,,,,
25.97599998,101,0,562.1946629,0,0,0,0,0,0,0,86.37880946,0,0,0,0,0,0,,,,
25.98399998,101,0,-106.4279739,0,0,0,0,0,0,0,-211.3005946,0,0,0,0,0,0,,,,
25.99199998,101,0,-289.3313037,0,0,0,0,0,0,0,62.28040482,0,0,0,0,0,0,,,,
25.99999998,101,0,629.2336196,0,0,0,0,0,0,0,-37.72031293,0,0,0,0,0,0,,,,
26.00799998,101,0,-747.145603,0,0,0,0,0,0,0,-85.12177113,0,0,0,0,0,0,,,,
26.01599998,101,0,504.8094697,0,0,0,0,0,0,0,139.9673754,0,0,0,0,0,0,,,,
26.02399998,101,0,-100.9112198,0,0,0,0,0,0,0,-164.6280034,0,0,0,0,0,0,,,,
26.03199998,101,0,-313.1739432,0,0,0,0,0,0,0,52.33447365,0,0,0,0,0,0,,,,
26.03999998,101,0,645.1441356,0,0,0,0,0,0,0,-49.86260067,0,0,0,0,0,0,,,,
26.04799998,101,0,-737.737174,0,0,0,0,0,0,0,-99.51453079,0,0,0,0,0,0,,,,
26.05599998,101,0,495.916045,0,0,0,0,0,0,0,106.4708847,0,0,0,0,0,0,,,,
26.06399998,101,0,-58.19005817,0,0,0,0,0,0,0,-213.7938349,0,0,0,0,0,0,,,,
26.07199998,101,0,-339.3317434,0,0,0,0,0,0,0,24.68785669,0,0,0,0,0,0,,,,
26.07999998,101,0,638.6368166,0,0,0,0,0,0,0,2.53564012,0,0,0,0,0,0,,,,
26.08799998,101,0,-737.2134725,0,0,0,0,0,0,0,-19.91644974,0,0,0,0,0,0,,,,
26.09599998,101,0,465.8839694,0,0,0,0,0,0,0,170.1082304,0,0,0,0,0,0,,,,
26.10399998,101,0,-57.66865261,0,0,0,0,0,0,0,-141.3653233,0,0,0,0,0,0,,,,
26.11199998,102,0,-365.7677547,0,0,0,0,0,0,0,80.34065911,0,0,0,0,0,0,,,,
26.11999998,102,0,683.8986964,0,0,0,0,0,0,0,-35.70259801,0,0,0,0,0,0,,,,
26.12799998,102,0,-695.4509162,0,0,0,0,0,0,0,-136.1279009,0,0,0,0,0,0,,,,
26.13599998,102,0,475.0867671,0,0,0,0,0,0,0,60.87512638,0,0,0,0,0,0,,,,
26.14399998,102,0,-9.807305049,0,0,0,0,0,0,0,-245.768916,0,0,0,0,0,0,,,,
26.15199998,102,0,-383.0364674,0,0,0,0,0,0,0,6.39639615,0,0,0,0,0,0,,,,
26.15999998,102,0,709.0011009,0,0,0,0,0,0,0,-76.09347224,0,0,0,0,0,0,,,,
26.16799998,102,0,-696.5766671,0,0,0,0,0,0,0,-174.4985844,0,0,0,0,0,0,,,,
26.17599998,102,0,418.6012563,0,0,0,0,0,0,0,94.00333971,0,0,0,0,0,0,,,,
26.18399998,102,0,4.504610289,0,0,0,0,0,0,0,-209.2906503,0,0,0,0,0,0,,,,
26.19199998,102,0,-434.6345277,0,0,0,0,0,0,0,6.636754406,0,0,0,0,0,0,,,,
26.19999998,102,0,678.0294256,0,0,0,0,0,0,0,-4.602463129,0,0,0,0,0,0,,,,
26.20799998,102,0,-671.5179335,0,0,0,0,0,0,0,-125.9987434,0,0,0,0,0,0,,,,
26.21599998,102,0,416.4430757,0,0,0,0,0,0,0,75.90755035,0,0,0,0,0,0,,,,
26.22399998,102,0,10.01758015,0,0,0,0,0,0,0,-165.1277027,0,0,0,0,0,0,,,,
26.23199998,102,0,-449.9979101,0,0,0,0,0,0,0,74.17251336,0,0,0,0,0,0,,,,
26.23999998,102,0,703.2931425,0,0,0,0,0,0,0,-13.10253955,0,0,0,0,0,0,,,,
26.24799998,102,0,-690.6300414,0,0,0,0,0,0,0,-143.6580516,0,0,0,0,0,0,,,,
26.25599998,102,0,372.4112677,0,0,0,0,0,0,0,103.3275635,0,0,0,0,0,0,,,,
26.26399998,102,0,31.13547098,0,0,0,0,0,0,0,-163.3418658,0,0,0,0,0,0,,,,
26.27199998,102,0,-494.3120777,0,0,0,0,0,0,0,70.97442475,0,0,0,0,0,0,,,,
26.27999998,102,0,698.104569,0,0,0,0,0,0,0,26.84163274,0,0,0,0,0,0,,,,
26.28799998,102,0,-697.9028931,0,0,0,0,0,0,0,-86.24290812,0,0,0,0,0,0,,,,
26.29599998,102,0,314.7655962,0,0,0,0,0,0,0,172.7409998,0,0,0,0,0,0,,,,
26.30399998,102,0,43.65571777,0,0,0,0,0,0,0,-133.4058746,0,0,0,0,0,0,,,,
26.31199998,102,0,-538.1990241,0,0,0,0,0,0,0,80.20737849,0,0,0,0,0,0,,,,
26.31999998,102,0,664.9631258,0,0,0,0,0,0,0,67.32363634,0,0,0,0,0,0,,,,
26.32799998,102,0,-706.1329373,0,0,0,0,0,0,0,-73.93447889,0,0,0,0,0,0,,,,
26.33599998,102,0,290.6302546,0,0,0,0,0,0,0,172.0097367,0,0,0,0,0,0,,,,
26.34399998,102,0,81.3899725,0,0,0,0,0,0,0,-129.74583,0,0,0,0,0,0,,,,
26.35199998,102,0,-549.8928248,0,0,0,0,0,0,0,54.91870523,0,0,0,0,0,0,,,,
26.35999998,102,0,683.9426256,0,0,0,0,0,0,0,25.30723516,0,0,0,0,0,0,,,,
26.36799998,103,0,-686.8432049,0,0,0,0,0,0,0,-125.4193682,0,0,0,0,0,0,,,,
26.37599998,103,0,250.2081871,0,0,0,0,0,0,0,139.8458056,0,0,0,0,0,0,,,,
26.38399998,103,0,107.4020021,0,0,0,0,0,0,0,-158.3717278,0,0,0,0,0,0,,,,
26.39199998,103,0,-561.5262495,0,0,0,0,0,0,0,12.3999617,0,0,0,0,0,0,,,,
26.39999998,103,0,686.6237802,0,0,0,0,0,0,0,-1.07991613,0,0,0,0,0,0,,,,
26.40799998,103,0,-676.7779902,0,0,0,0,0,0,0,-146.8809834,0,0,0,0,0,0,,,,
26.41599998,103,0,207.7130601,0,0,0,0,0,0,0,158.3176235,0,0,0,0,0,0,,,,
26.42399998,103,0,109.5520342,0,0,0,0,0,0,0,-105.2977069,0,0,0,0,0,0,,,,
26.43199998,103,0,-581.5170019,0,0,0,0,0,0,0,58.22949309,0,0,0,0,0,0,,,,
26.43999998,103,0,709.5237078,0,0,0,0,0,0,0,50.1265831,0,0,0,0,0,0,,,,
26.44799998,103,0,-648.9889358,0,0,0,0,0,0,0,-122.917426,0,0,0,0,0,0,,,,
26.45599998,103,0,189.5400205,0,0,0,0,0,0,0,175.3906053,0,0,0,0,0,0,,,,
26.46399998,103,0,141.64195,0,0,0,0,0,0,0,-73.36154588,0,0,0,0,0,0,,,,
26.47199998,103,0,-589.05444,0,0,0,0,0,0,0,66.03842281,0,0,0,0,0,0,,,,
26.47999998,103,0,726.6791239,0,0,0,0,0,0,0,46.83603853,0,0,0,0,0,0,,,,
26.48799998,103,0,-623.7827242,0,0,0,0,0,0,0,-130.5815586,0,0,0,0,0,0,,,,
26.49599998,103,0,200.4708143,0,0,0,0,0,0,0,141.1924445,0,0,0,0,0,0,,,,
26.50399998,103,0,211.9730663,0,0,0,0,0,0,0,-148.1373341,0,0,0,0,0,0,,,,
26.51199998,103,0,-624.5502754,0,0,0,0,0,0,0,26.14558135,0,0,0,0,0,0,,,,
26.51999998,103,0,693.8701556,0,0,0,0,0,0,0,92.03142843,0,0,0,0,0,0,,,,
26.52799998,103,0,-611.5961252,0,0,0,0,0,0,0,-85.74877571,0,0,0,0,0,0,,,,
26.53599998,103,0,160.3266759,0,0,0,0,0,0,0,184.0326449,0,0,0,0,0,0,,,,
26.54399998,103,0,229.5596885,0,0,0,0,0,0,0,-97.99434858,0,0,0,0,0,0,,,,
26.55199998,103,0,-623.5199355,0,0,0,0,0,0,0,44.64600732,0,0,0,0,0,0,,,,
26.55999998,103,0,717.0783199,0,0,0,0,0,0,0,96.67440483,0,0,0,0,0,0,,,,
26.56799998,103,0,-567.8681134,0,0,0,0,0,0,0,-95.45084412,0,0,0,0,0,0,,,,
26.57599998,103,0,164.3366131,0,0,0,0,0,0,0,159.9330964,0,0,0,0,0,0,,,,
26.58399998,103,0,296.7485973,0,0,0,0,0,0,0,-154.5439703,0,0,0,0,0,0,,,,
26.59199998,103,0,-585.5636748,0,0,0,0,0,0,0,-54.17438801,0,0,0,0,0,0,,,,
26.59999998,103,0,764.6780926,0,0,0,0,0,0,0,-8.982481032,0,0,0,0,0,0,,,,
26.60799998,103,0,-520.2315492,0,0,0,0,0,0,0,-173.1128427,0,0,0,0,0,0,,,,
26.61599998,103,0,133.8770944,0,0,0,0,0,0,0,151.9341899,0,0,0,0,0,0,,,,
26.62399998,104,0,304.1989711,0,0,0,0,0,0,0,-115.009669,0,0,0,0,0,0,,,,
26.63199998,104,0,-616.2866682,0,0,0,0,0,0,0,-2.097277958,0,0,0,0,0,0,,,,
26.63999998,104,0,1106.452029,0,0,0,0,0,0,0,44.65376644,0,0,0,0,0,0,,,,
26.64799998,104,0,-425.1766155,0,0,0,0,0,0,0,-172.62407,0,0,0,0,0,0,,,,
26.65599998,104,0,-342.313882,0,0,0,0,0,0,0,234.3576599,0,0,0,0,0,0,,,,
26.66399998,104,0,798.7789275,0,0,0,0,0,0,0,-15.08198824,0,0,0,0,0,0,,,,
26.67199998,104,0,-1463.208112,0,0,0,0,0,0,0,-153.526776,0,0,0,0,0,0,,,,
26.67999998,104,0,-1058.146749,0,0,0,0,0,0,0,44.92110836,0,0,0,0,0,0,,,,
26.68799998,104,0,-542.0604856,0,0,0,0,0,0,0,-118.5040576,0,0,0,0,0,0,,,,
26.69599998,104,0,-555.9930134,0,0,0,0,0,0,0,84.58007303,0,0,0,0,0,0,,,,
26.70399998,104,0,832.9163521,0,0,0,0,0,0,0,77.52534898,0,0,0,0,0,0,,,,
26.71199998,104,0,-252.9609865,0,0,0,0,0,0,0,-138.438084,0,0,0,0,0,0,,,,
26.71999998,104,0,-182.0686468,0,0,0,0,0,0,0,62.40268155,0,0,0,0,0,0,,,,
26.72799998,104,0,712.9598528,0,0,0,0,0,0,0,-31.29486079,0,0,0,0,0,0,,,,
26.73599998,104,0,-554.936159,0,0,0,0,0,0,0,-81.91554384,0,0,0,0,0,0,,,,
26.74399998,104,0,365.2536432,0,0,0,0,0,0,0,136.3064423,0,0,0,0,0,0,,,,
26.75199998,104,0,208.4815518,0,0,0,0,0,0,0,-74.74927842,0,0,0,0,0,0,,,,
26.75999998,104,0,-474.8692962,0,0,0,0,0,0,0,68.03611144,0,0,0,0,0,0,,,,
26.76799998,104,0,730.1605925,0,0,0,0,0,0,0,103.9705707,0,0,0,0,0,0,,,,
26.77599998,104,0,-424.486841,0,0,0,0,0,0,0,-101.0187756,0,0,0,0,0,0,,,,
26.78399998,104,0,163.9141621,0,0,0,0,0,0,0,141.8204313,0,0,0,0,0,0,,,,
26.79199998,104,0,374.2532279,0,0,0,0,0,0,0,-61.83934313,0,0,0,0,0,0,,,,
26.79999998,104,0,-592.5962268,0,0,0,0,0,0,0,30.1621599,0,0,0,0,0,0,,,,
26.80799998,104,0,728.1754274,0,0,0,0,0,0,0,104.6473538,0,0,0,0,0,0,,,,
26.81599998,104,0,-379.3288269,0,0,0,0,0,0,0,-110.0591168,0,0,0,0,0,0,,,,
26.82399998,104,0,48.96713682,0,0,0,0,0,0,0,163.4736055,0,0,0,0,0,0,,,,
26.83199998,104,0,445.9584885,0,0,0,0,0,0,0,-66.14057453,0,0,0,0,0,0,,,,
26.83999998,104,0,-609.502918,0,0,0,0,0,0,0,-29.08207687,0,0,0,0,0,0,,,,
26.84799998,104,0,738.738936,0,0,0,0,0,0,0,59.0445822,0,0,0,0,0,0,,,,
26.85599998,104,0,-343.3698982,0,0,0,0,0,0,0,-148.6890353,0,0,0,0,0,0,,,,
26.86399998,104,0,18.19480351,0,0,0,0,0,0,0,135.4854198,0,0,0,0,0,0,,,,
26.87199998,104,0,470.4739719,0,0,0,0,0,0,0,-73.26350075,0,0,0,0,0,0,,,,
26.87999998,105,0,-655.3238417,0,0,0,0,0,0,0,-6.096041282,0,0,0,0,0,0,,,,
26.88799998,105,0,717.0357562,0,0,0,0,0,0,0,105.2159863,0,0,0,0,0,0,,,,
26.89599998,105,0,-338.1684299,0,0,0,0,0,0,0,-137.0040928,0,0,0,0,0,0,,,,
26.90399998,105,0,-33.96992499,0,0,0,0,0,0,0,156.6940543,0,0,0,0,0,0,,,,
26.91199998,105,0,490.5843589,0,0,0,0,0,0,0,-28.39447325,0,0,0,0,0,0,,,,
26.91999998,105,0,-665.1351206,0,0,0,0,0,0,0,6.610115526,0,0,0,0,0,0,,,,
26.92799998,105,0,703.5224507,0,0,0,0,0,0,0,116.6307066,0,0,0,0,0,0,,,,
26.93599998,105,0,-317.3465452,0,0,0,0,0,0,0,-122.8627351,0,0,0,0,0,0,,,,
26.94399998,105,0,-54.00886109,0,0,0,0,0,0,0,153.01191,0,0,0,0,0,0,,,,
26.95199998,105,0,511.7812899,0,0,0,0,0,0,0,-45.64048736,0,0,0,0,0,0,,,,
26.95999998,105,0,-696.6345241,0,0,0,0,0,0,0,11.11303467,0,0,0,0,0,0,,,,
26.96799998,105,0,682.7294776,0,0,0,0,0,0,0,156.8728069,0,0,0,0,0,0,,,,
26.97599998,105,0,-290.4251097,0,0,0,0,0,0,0,-88.32050683,0,0,0,0,0,0,,,,
26.98399998,105,0,-100.1640965,0,0,0,0,0,0,0,221.6501608,0,0,0,0,0,0,,,,
26.99199998,105,0,531.6710574,0,0,0,0,0,0,0,37.19659226,0,0,0,0,0,0,,,,
26.99999998,105,0,-682.9489335,0,0,0,0,0,0,0,26.28697368,0,0,0,0,0,0,,,,
27.00799998,105,0,651.0214956,0,0,0,0,0,0,0,182.5310761,0,0,0,0,0,0,,,,
27.01599998,105,0,-287.1547463,0,0,0,0,0,0,0,-46.44751271,0,0,0,0,0,0,,,,
27.02399998,105,0,-115.6068245,0,0,0,0,0,0,0,204.292268,0,0,0,0,0,0,,,,
27.03199998,105,0,536.6724127,0,0,0,0,0,0,0,-2.058468153,0,0,0,0,0,0,,,,
27.03999998,105,0,-723.5583771,0,0,0,0,0,0,0,17.6134409,0,0,0,0,0,0,,,,
27.04799998,105,0,647.5015977,0,0,0,0,0,0,0,179.1021459,0,0,0,0,0,0,,,,
27.05599998,105,0,-240.3099601,0,0,0,0,0,0,0,-103.5147875,0,0,0,0,0,0,,,,
27.06399998,105,0,-153.679945,0,0,0,0,0,0,0,175.5651521,0,0,0,0,0,0,,,,
27.07199998,105,0,563.3229259,0,0,0,0,0,0,0,33.19185267,0,0,0,0,0,0,,,,
27.07999998,105,0,-707.0522923,0,0,0,0,0,0,0,20.1770138,0,0,0,0,0,0,,,,
27.08799998,105,0,612.1391557,0,0,0,0,0,0,0,181.4414084,0,0,0,0,0,0,,,,
27.09599998,105,0,-231.0903606,0,0,0,0,0,0,0,-75.58823008,0,0,0,0,0,0,,,,
27.10399998,105,0,-160.3013132,0,0,0,0,0,0,0,167.1405975,0,0,0,0,0,0,,,,
27.11199998,105,0,582.2211214,0,0,0,0,0,0,0,-0.475704136,0,0,0,0,0,0,,,,
27.11999998,105,0,-1001.811378,0,0,0,0,0,0,0,-100.5010999,0,0,0,0,0,0,,,,
27.12799998,105,0,113.5295665,0,0,0,0,0,0,0,92.45303663,0,0,0,0,0,0,,,,
27.13599998,106,0,-711.4975667,0,0,0,0,0,0,0,5.15247912,0,0,0,0,0,0,,,,
27.14399998,106,0,-1408.199266,0,0,0,0,0,0,0,165.9077743,0,0,0,0,0,0,,,,
27.15199998,106,0,-273.4849753,0,0,0,0,0,0,0,71.59647673,0,0,0,0,0,0,,,,
27.15999998,106,0,-339.4623246,0,0,0,0,0,0,0,89.26837484,0,0,0,0,0,0,,,,
27.16799998,106,0,614.0870978,0,0,0,0,0,0,0,77.20255509,0,0,0,0,0,0,,,,
27.17599998,106,0,-274.1702819,0,0,0,0,0,0,0,-63.36528828,0,0,0,0,0,0,,,,
27.18399998,106,0,-44.58966059,0,0,0,0,0,0,0,162.4467148,0,0,0,0,0,0,,,,
27.19199998,106,0,516.1154252,0,0,0,0,0,0,0,-5.272790091,0,0,0,0,0,0,,,,
27.19999998,106,0,-640.956908,0,0,0,0,0,0,0,21.55744184,0,0,0,0,0,0,,,,
27.20799998,106,0,612.3195125,0,0,0,0,0,0,0,122.5723545,0,0,0,0,0,0,,,,
27.21599998,106,0,-172.8014998,0,0,0,0,0,0,0,-92.22104263,0,0,0,0,0,0,,,,
27.22399998,106,0,-181.1403391,0,0,0,0,0,0,0,139.9840433,0,0,0,0,0,0,,,,
27.23199998,106,0,640.3589841,0,0,0,0,0,0,0,-12.2065768,0,0,0,0,0,0,,,,
27.23999998,106,0,-667.809409,0,0,0,0,0,0,0,-23.95279119,0,0,0,0,0,0,,,,
27.24799998,106,0,549.497926,0,0,0,0,0,0,0,195.7099178,0,0,0,0,0,0,,,,
27.25599998,106,0,-109.0984077,0,0,0,0,0,0,0,-43.30921058,0,0,0,0,0,0,,,,
27.26399998,106,0,-236.3510304,0,0,0,0,0,0,0,177.6003855,0,0,0,0,0,0,,,,
27.27199998,106,0,665.1677455,0,0,0,0,0,0,0,57.67830578,0,0,0,0,0,0,,,,
27.27999998,106,0,-653.8410251,0,0,0,0,0,0,0,0.430866235,0,0,0,0,0,0,,,,
27.28799998,106,0,591.1856964,0,0,0,0,0,0,0,180.0614421,0,0,0,0,0,0,,,,
27.29599998,106,0,-40.62117044,0,0,0,0,0,0,0,-99.42533558,0,0,0,0,0,0,,,,
27.30399998,106,0,-282.2259281,0,0,0,0,0,0,0,176.2583936,0,0,0,0,0,0,,,,
27.31199998,106,0,682.3214373,0,0,0,0,0,0,0,91.8440655,0,0,0,0,0,0,,,,
27.31999998,106,0,-668.2505104,0,0,0,0,0,0,0,14.38078394,0,0,0,0,0,0,,,,
27.32799998,106,0,537.972107,0,0,0,0,0,0,0,210.3019662,0,0,0,0,0,0,,,,
27.33599998,106,0,-11.62038028,0,0,0,0,0,0,0,-91.70647072,0,0,0,0,0,0,,,,
27.34399998,106,0,-274.1031437,0,0,0,0,0,0,0,151.9878747,0,0,0,0,0,0,,,,
27.35199998,106,0,710.6693975,0,0,0,0,0,0,0,95.55988562,0,0,0,0,0,0,,,,
27.35999998,106,0,-665.7025641,0,0,0,0,0,0,0,58.51637273,0,0,0,0,0,0,,,,
27.36799998,106,0,534.2618332,0,0,0,0,0,0,0,260.4717555,0,0,0,0,0,0,,,,
27.37599998,106,0,26.68906966,0,0,0,0,0,0,0,-66.76919271,0,0,0,0,0,0,,,,
27.38399998,106,0,-300.3632305,0,0,0,0,0,0,0,161.7535088,0,0,0,0,0,0,,,,
27.39199998,107,0,747.20425,0,0,0,0,0,0,0,58.34133643,0,0,0,0,0,0,,,,
27.39999998,107,0,-621.5438214,0,0,0,0,0,0,0,-58.44556728,0,0,0,0,0,0,,,,
27.40799998,107,0,511.983769,0,0,0,0,0,0,0,178.2659877,0,0,0,0,0,0,,,,
27.41599998,107,0,35.18308397,0,0,0,0,0,0,0,-81.54785929,0,0,0,0,0,0,,,,
27.42399998,107,0,-332.4232695,0,0,0,0,0,0,0,153.4607485,0,0,0,0,0,0,,,,
27.43199998,107,0,745.8932487,0,0,0,0,0,0,0,85.9625453,0,0,0,0,0,0,,,,
27.43999998,107,0,-613.9604164,0,0,0,0,0,0,0,-11.77385676,0,0,0,0,0,0,,,,
27.44799998,107,0,514.9830826,0,0,0,0,0,0,0,207.690551,0,0,0,0,0,0,,,,
27.45599998,107,0,96.84948936,0,0,0,0,0,0,0,-83.67690374,0,0,0,0,0,0,,,,
27.46399998,107,0,-329.0637077,0,0,0,0,0,0,0,129.3097965,0,0,0,0,0,0,,,,
27.47199998,107,0,778.0203502,0,0,0,0,0,0,0,62.67309125,0,0,0,0,0,0,,,,
27.47999998,107,0,-582.4633481,0,0,0,0,0,0,0,-57.26559048,0,0,0,0,0,0,,,,
27.48799998,107,0,492.0449031,0,0,0,0,0,0,0,159.299867,0,0,0,0,0,0,,,,
27.49599998,107,0,102.6366376,0,0,0,0,0,0,0,-109.8115129,0,0,0,0,0,0,,,,
27.50399998,107,0,-347.1542265,0,0,0,0,0,0,0,120.6177665,0,0,0,0,0,0,,,,
27.51199998,107,0,803.0729072,0,0,0,0,0,0,0,44.21902647,0,0,0,0,0,0,,,,
27.51999998,107,0,-589.4998981,0,0,0,0,0,0,0,-66.39526258,0,0,0,0,0,0,,,,
27.52799998,107,0,465.7485806,0,0,0,0,0,0,0,217.8498097,0,0,0,0,0,0,,,,
27.53599998,107,0,159.9135874,0,0,0,0,0,0,0,-75.43658413,0,0,0,0,0,0,,,,
27.54399998,107,0,-364.9943595,0,0,0,0,0,0,0,117.0197056,0,0,0,0,0,0,,,,
27.55199998,107,0,796.8633826,0,0,0,0,0,0,0,95.7702208,0,0,0,0,0,0,,,,
27.55999998,107,0,-579.4757057,0,0,0,0,0,0,0,-37.94721539,0,0,0,0,0,0,,,,
27.56799998,107,0,429.0787207,0,0,0,0,0,0,0,200.2605657,0,0,0,0,0,0,,,,
27.57599998,107,0,175.3442663,0,0,0,0,0,0,0,-80.12041722,0,0,0,0,0,0,,,,
27.58399998,107,0,-373.3527269,0,0,0,0,0,0,0,95.62663088,0,0,0,0,0,0,,,,
27.59199998,107,0,813.8710996,0,0,0,0,0,0,0,54.25702909,0,0,0,0,0,0,,,,
27.59999998,107,0,-634.4503863,0,0,0,0,0,0,0,-149.8249731,0,0,0,0,0,0,,,,
27.60799998,107,0,39.92729406,0,0,0,0,0,0,0,129.9002297,0,0,0,0,0,0,,,,
27.61599998,107,0,-562.8819671,0,0,0,0,0,0,0,-35.27665095,0,0,0,0,0,0,,,,
27.62399998,107,0,-1669.599942,0,0,0,0,0,0,0,3.306475967,0,0,0,0,0,0,,,,
27.63199998,107,0,-286.9932302,0,0,0,0,0,0,0,62.46279124,0,0,0,0,0,0,,,,
27.63999998,107,0,-367.9417643,0,0,0,0,0,0,0,49.10957822,0,0,0,0,0,0,,,,
27.64799998,108,0,615.577264,0,0,0,0,0,0,0,127.37792,0,0,0,0,0,0,,,,
27.65599998,108,0,-22.24553289,0,0,0,0,0,0,0,-75.98322722,0,0,0,0,0,0,,,,
27.66399998,108,0,-225.4688921,0,0,0,0,0,0,0,83.14198683,0,0,0,0,0,0,,,,
27.67199998,108,0,785.2465954,0,0,0,0,0,0,0,26.40149856,0,0,0,0,0,0,,,,
27.67999998,108,0,-562.1988574,0,0,0,0,0,0,0,-58.66209373,0,0,0,0,0,0,,,,
27.68799998,108,0,491.0272088,0,0,0,0,0,0,0,126.550496,0,0,0,0,0,0,,,,
27.69599998,108,0,166.0678125,0,0,0,0,0,0,0,-81.70302237,0,0,0,0,0,0,,,,
27.70399998,108,0,-370.5319205,0,0,0,0,0,0,0,107.7240328,0,0,0,0,0,0,,,,
27.71199998,108,0,818.4175113,0,0,0,0,0,0,0,57.12909818,0,0,0,0,0,0,,,,
27.71999998,108,0,-540.8321158,0,0,0,0,0,0,0,-79.49046973,0,0,0,0,0,0,,,,
27.72799998,108,0,341.7673976,0,0,0,0,0,0,0,194.3482847,0,0,0,0,0,0,,,,
27.73599998,108,0,204.8050198,0,0,0,0,0,0,0,-59.12006205,0,0,0,0,0,0,,,,
27.74399998,108,0,-464.9808136,0,0,0,0,0,0,0,73.48081914,0,0,0,0,0,0,,,,
27.75199998,108,0,762.2316648,0,0,0,0,0,0,0,79.63047104,0,0,0,0,0,0,,,,
27.75999998,108,0,-562.9535241,0,0,0,0,0,0,0,-40.98290512,0,0,0,0,0,0,,,,
27.76799998,108,0,300.1705827,0,0,0,0,0,0,0,208.3160568,0,0,0,0,0,0,,,,
27.77599998,108,0,265.8569572,0,0,0,0,0,0,0,-88.98211953,0,0,0,0,0,0,,,,
27.78399998,108,0,-507.8376447,0,0,0,0,0,0,0,70.47848594,0,0,0,0,0,0,,,,
27.79199998,108,0,798.8918625,0,0,0,0,0,0,0,87.58245723,0,0,0,0,0,0,,,,
27.79999998,108,0,-480.4887406,0,0,0,0,0,0,0,-114.8061652,0,0,0,0,0,0,,,,
27.80799998,108,0,282.5665511,0,0,0,0,0,0,0,130.8993965,0,0,0,0,0,0,,,,
27.81599998,108,0,287.3396266,0,0,0,0,0,0,0,-118.1672558,0,0,0,0,0,0,,,,
27.82399998,108,0,-519.9939418,0,0,0,0,0,0,0,24.15632621,0,0,0,0,0,0,,,,
27.83199998,108,0,786.9636267,0,0,0,0,0,0,0,28.69628021,0,0,0,0,0,0,,,,
27.83999998,108,0,-504.2700274,0,0,0,0,0,0,0,-147.6190226,0,0,0,0,0,0,,,,
27.84799998,108,0,255.6837941,0,0,0,0,0,0,0,128.404562,0,0,0,0,0,0,,,,
27.85599998,108,0,351.7846819,0,0,0,0,0,0,0,-170.9370437,0,0,0,0,0,0,,,,
27.86399998,108,0,-519.1119597,0,0,0,0,0,0,0,-56.77785887,0,0,0,0,0,0,,,,
27.87199998,108,0,802.3778799,0,0,0,0,0,0,0,24.70799765,0,0,0,0,0,0,,,,
27.87999998,108,0,-485.8572473,0,0,0,0,0,0,0,-148.917751,0,0,0,0,0,0,,,,
27.88799998,108,0,197.4636229,0,0,0,0,0,0,0,114.174622,0,0,0,0,0,0,,,,
27.89599998,108,0,349.3819513,0,0,0,0,0,0,0,-148.9945568,0,0,0,0,0,0,,,,
27.90399998,109,0,-560.5685717,0,0,0,0,0,0,0,-44.39563041,0,0,0,0,0,0,,,,
27.91199998,109,0,796.3468796,0,0,0,0,0,0,0,18.97584391,0,0,0,0,0,0,,,,
27.91999998,109,0,-439.1641879,0,0,0,0,0,0,0,-150.704772,0,0,0,0,0,0,,,,
27.92799998,109,0,172.9911968,0,0,0,0,0,0,0,145.1334798,0,0,0,0,0,0,,,,
27.93599998,109,0,356.3214329,0,0,0,0,0,0,0,-68.72162061,0,0,0,0,0,0,,,,
27.94399998,109,0,-593.7616351,0,0,0,0,0,0,0,60.15430276,0,0,0,0,0,0,,,,
27.95199998,109,0,740.9652801,0,0,0,0,0,0,0,111.9576243,0,0,0,0,0,0,,,,
27.95999998,109,0,-464.5570415,0,0,0,0,0,0,0,-105.9483944,0,0,0,0,0,0,,,,
27.96799998,109,0,137.067749,0,0,0,0,0,0,0,142.3997391,0,0,0,0,0,0,,,,
27.97599998,109,0,377.9009874,0,0,0,0,0,0,0,-126.1306387,0,0,0,0,0,0,,,,
27.98399998,109,0,-586.2709942,0,0,0,0,0,0,0,-56.10039938,0,0,0,0,0,0,,,,
27.99199998,109,0,769.52505,0,0,0,0,0,0,0,11.77239454,0,0,0,0,0,0,,,,
27.99999998,109,0,-427.873095,0,0,0,0,0,0,0,-152.0758573,0,0,0,0,0,0,,,,
28.00799998,109,0,125.8357523,0,0,0,0,0,0,0,124.0620302,0,0,0,0,0,0,,,,
28.01599998,109,0,414.3090099,0,0,0,0,0,0,0,-130.7079666,0,0,0,0,0,0,,,,
28.02399998,109,0,-588.7990999,0,0,0,0,0,0,0,-40.75281899,0,0,0,0,0,0,,,,
28.03199998,109,0,779.0559435,0,0,0,0,0,0,0,17.75599387,0,0,0,0,0,0,,,,
28.03999998,109,0,-412.6003915,0,0,0,0,0,0,0,-181.9853239,0,0,0,0,0,0,,,,
28.04799998,109,0,71.93584888,0,0,0,0,0,0,0,132.1607554,0,0,0,0,0,0,,,,
28.05599998,109,0,426.6246457,0,0,0,0,0,0,0,-102.4253597,0,0,0,0,0,0,,,,
28.06399998,109,0,-593.3362471,0,0,0,0,0,0,0,-52.66326287,0,0,0,0,0,0,,,,
28.07199998,109,0,782.7011903,0,0,0,0,0,0,0,20.45630878,0,0,0,0,0,0,,,,
28.07999998,109,0,-204.1763538,0,0,0,0,0,0,0,-246.4686457,0,0,0,0,0,0,,,,
28.08799998,109,0,744.0516956,0,0,0,0,0,0,0,109.2835343,0,0,0,0,0,0,,,,
28.09599998,109,0,1752.881222,0,0,0,0,0,0,0,41.09001211,0,0,0,0,0,0,,,,
28.10399998,109,0,-494.1985039,0,0,0,0,0,0,0,-131.8138737,0,0,0,0,0,0,,,,
28.11199998,109,0,-171.800613,0,0,0,0,0,0,0,39.40015709,0,0,0,0,0,0,,,,
28.11999998,109,0,443.5724171,0,0,0,0,0,0,0,-19.09594966,0,0,0,0,0,0,,,,
28.12799998,109,0,-213.4116302,0,0,0,0,0,0,0,-97.06659047,0,0,0,0,0,0,,,,
28.13599998,109,0,-92.43411184,0,0,0,0,0,0,0,-4.912479249,0,0,0,0,0,0,,,,
28.14399998,109,0,400.6044223,0,0,0,0,0,0,0,-47.07041153,0,0,0,0,0,0,,,,
28.15199998,109,0,-269.7450579,0,0,0,0,0,0,0,-149.514915,0,0,0,0,0,0,,,,
28.15999998,110,0,138.4254438,0,0,0,0,0,0,0,11.84137234,0,0,0,0,0,0,,,,
28.16799998,110,0,273.1407868,0,0,0,0,0,0,0,-135.6630067,0,0,0,0,0,0,,,,
28.17599998,110,0,-483.4720152,0,0,0,0,0,0,0,-54.77943757,0,0,0,0,0,0,,,,
28.18399998,110,0,595.5573331,0,0,0,0,0,0,0,17.139995,0,0,0,0,0,0,,,,
28.19199998,110,0,-280.0138689,0,0,0,0,0,0,0,-199.8178888,0,0,0,0,0,0,,,,
28.19999998,110,0,-5.797891479,0,0,0,0,0,0,0,41.13682651,0,0,0,0,0,0,,,,
28.20799998,110,0,446.2092668,0,0,0,0,0,0,0,-154.6352964,0,0,0,0,0,0,,,,
28.21599998,110,0,-618.0451258,0,0,0,0,0,0,0,-114.1256672,0,0,0,0,0,0,,,,
28.22399998,110,0,659.0828077,0,0,0,0,0,0,0,8.23713959,0,0,0,0,0,0,,,,
28.23199998,110,0,-255.5901732,0,0,0,0,0,0,0,-265.4693455,0,0,0,0,0,0,,,,
28.23999998,110,0,-26.13023238,0,0,0,0,0,0,0,-4.836720976,0,0,0,0,0,0,,,,
28.24799998,110,0,530.2951713,0,0,0,0,0,0,0,-161.4613119,0,0,0,0,0,0,,,,
28.25599998,110,0,-632.3931091,0,0,0,0,0,0,0,-115.8510738,0,0,0,0,0,0,,,,
28.26399998,110,0,691.5924353,0,0,0,0,0,0,0,39.25985675,0,0,0,0,0,0,,,,
28.27199998,110,0,-253.5838566,0,0,0,0,0,0,0,-203.2891844,0,0,0,0,0,0,,,,
28.27999998,110,0,-68.20175329,0,0,0,0,0,0,0,53.38791069,0,0,0,0,0,0,,,,
28.28799998,110,0,547.6330124,0,0,0,0,0,0,0,-130.0007025,0,0,0,0,0,0,,,,
28.29599998,110,0,-675.7323787,0,0,0,0,0,0,0,-92.15268471,0,0,0,0,0,0,,,,
28.30399998,110,0,664.9102822,0,0,0,0,0,0,0,53.82484797,0,0,0,0,0,0,,,,
28.31199998,110,0,-236.4763008,0,0,0,0,0,0,0,-232.9304751,0,0,0,0,0,0,,,,
28.31999998,110,0,-98.640054,0,0,0,0,0,0,0,14.54555298,0,0,0,0,0,0,,,,
28.32799998,110,0,550.6248069,0,0,0,0,0,0,0,-154.7866646,0,0,0,0,0,0,,,,
28.33599998,110,0,-686.7280887,0,0,0,0,0,0,0,-130.3274423,0,0,0,0,0,0,,,,
28.34399998,110,0,664.1216141,0,0,0,0,0,0,0,16.85184556,0,0,0,0,0,0,,,,
28.35199998,110,0,-208.3312024,0,0,0,0,0,0,0,-262.4854233,0,0,0,0,0,0,,,,
28.35999998,110,0,-121.8686261,0,0,0,0,0,0,0,18.39780016,0,0,0,0,0,0,,,,
28.36799998,110,0,573.7326366,0,0,0,0,0,0,0,-130.1256402,0,0,0,0,0,0,,,,
28.37599998,110,0,-679.4187578,0,0,0,0,0,0,0,-120.3690061,0,0,0,0,0,0,,,,
28.38399998,110,0,659.3346102,0,0,0,0,0,0,0,61.45910601,0,0,0,0,0,0,,,,
28.39199998,110,0,-181.1962525,0,0,0,0,0,0,0,-212.8210118,0,0,0,0,0,0,,,,
28.39999998,110,0,-149.5330252,0,0,0,0,0,0,0,35.18996998,0,0,0,0,0,0,,,,
28.40799998,110,0,593.9855765,0,0,0,0,0,0,0,-126.6327379,0,0,0,0,0,0,,,,
28.41599998,111,0,-657.8045592,0,0,0,0,0,0,0,-155.3289946,0,0,0,0,0,0,,,,
28.42399998,111,0,663.2747986,0,0,0,0,0,0,0,-21.01444047,0,0,0,0,0,0,,,,
28.43199998,111,0,-170.7353876,0,0,0,0,0,0,0,-281.1341107,0,0,0,0,0,0,,,,
28.43999998,111,0,-193.7617772,0,0,0,0,0,0,0,43.81067067,0,0,0,0,0,0,,,,
28.44799998,111,0,598.566199,0,0,0,0,0,0,0,-106.1314801,0,0,0,0,0,0,,,,
28.45599998,111,0,-699.8517859,0,0,0,0,0,0,0,-145.1635722,0,0,0,0,0,0,,,,
28.46399998,111,0,612.3565575,0,0,0,0,0,0,0,37.46561232,0,0,0,0,0,0,,,,
28.47199998,111,0,-130.6443414,0,0,0,0,0,0,0,-262.5122178,0,0,0,0,0,0,,,,
28.47999998,111,0,-195.2453879,0,0,0,0,0,0,0,-10.6648611,0,0,0,0,0,0,,,,
28.48799998,111,0,643.37933,0,0,0,0,0,0,0,-147.4443307,0,0,0,0,0,0,,,,
28.49599998,111,0,-668.9444153,0,0,0,0,0,0,0,-175.1586311,0,0,0,0,0,0,,,,
28.50399998,111,0,588.2772855,0,0,0,0,0,0,0,35.35089146,0,0,0,0,0,0,,,,
28.51199998,111,0,-127.8821851,0,0,0,0,0,0,0,-222.0083153,0,0,0,0,0,0,,,,
28.51999998,111,0,-230.7165125,0,0,0,0,0,0,0,35.62235589,0,0,0,0,0,0,,,,
28.52799998,111,0,663.7241332,0,0,0,0,0,0,0,-131.5302287,0,0,0,0,0,0,,,,
28.53599998,111,0,-672.2785039,0,0,0,0,0,0,0,-194.1508808,0,0,0,0,0,0,,,,
28.54399998,111,0,548.7557098,0,0,0,0,0,0,0,63.93081929,0,0,0,0,0,0,,,,
28.55199998,111,0,-92.8637047,0,0,0,0,0,0,0,-187.3590865,0,0,0,0,0,0,,,,
28.55999998,111,0,-49.76927006,0,0,0,0,0,0,0,150.2701766,0,0,0,0,0,0,,,,
28.56799998,111,0,1749.640763,0,0,0,0,0,0,0,172.128488,0,0,0,0,0,0,,,,
28.57599998,111,0,525.0924325,0,0,0,0,0,0,0,-43.56717522,0,0,0,0,0,0,,,,
28.58399998,111,0,253.3843078,0,0,0,0,0,0,0,55.09724984,0,0,0,0,0,0,,,,
28.59199998,111,0,-346.8853982,0,0,0,0,0,0,0,-146.4947235,0,0,0,0,0,0,,,,
28.59999998,111,0,-16.75866122,0,0,0,0,0,0,0,-7.506771503,0,0,0,0,0,0,,,,
28.60799998,111,0,376.2374621,0,0,0,0,0,0,0,-117.4248733,0,0,0,0,0,0,,,,
28.61599998,111,0,-657.2166557,0,0,0,0,0,0,0,-171.1845537,0,0,0,0,0,0,,,,
28.62399998,111,0,534.1127456,0,0,0,0,0,0,0,-40.6371007,0,0,0,0,0,0,,,,
28.63199998,111,0,-227.3103711,0,0,0,0,0,0,0,-276.43343,0,0,0,0,0,0,,,,
28.63999998,111,0,-264.8952053,0,0,0,0,0,0,0,-7.607220669,0,0,0,0,0,0,,,,
28.64799998,111,0,547.0803737,0,0,0,0,0,0,0,-110.7430302,0,0,0,0,0,0,,,,
28.65599998,111,0,-716.1139936,0,0,0,0,0,0,0,-205.4572153,0,0,0,0,0,0,,,,
28.66399998,111,0,449.3057638,0,0,0,0,0,0,0,13.66037425,0,0,0,0,0,0,,,,
28.67199998,112,0,-117.5602322,0,0,0,0,0,0,0,-250.080236,0,0,0,0,0,0,,,,
28.67999998,112,0,-344.6185519,0,0,0,0,0,0,0,-49.57359947,0,0,0,0,0,0,,,,
28.68799998,112,0,592.4892399,0,0,0,0,0,0,0,-152.3930304,0,0,0,0,0,0,,,,
28.69599998,112,0,-734.9204401,0,0,0,0,0,0,0,-223.5559889,0,0,0,0,0,0,,,,
28.70399998,112,0,417.723777,0,0,0,0,0,0,0,-1.674226165,0,0,0,0,0,0,,,,
28.71199998,112,0,-73.92001081,0,0,0,0,0,0,0,-300.9430087,0,0,0,0,0,0,,,,
28.71999998,112,0,-414.9316027,0,0,0,0,0,0,0,-82.23350686,0,0,0,0,0,0,,,,
28.72799998,112,0,624.4914777,0,0,0,0,0,0,0,-165.3922616,0,0,0,0,0,0,,,,
28.73599998,112,0,-714.3266031,0,0,0,0,0,0,0,-261.788888,0,0,0,0,0,0,,,,
28.74399998,112,0,397.4070943,0,0,0,0,0,0,0,-46.02678903,0,0,0,0,0,0,,,,
28.75199998,112,0,-37.39029833,0,0,0,0,0,0,0,-334.2683885,0,0,0,0,0,0,,,,
28.75999998,112,0,-420.190471,0,0,0,0,0,0,0,-99.59063261,0,0,0,0,0,0,,,,
28.76799998,112,0,654.0331275,0,0,0,0,0,0,0,-177.3913227,0,0,0,0,0,0,,,,
28.77599998,112,0,-717.8228453,0,0,0,0,0,0,0,-281.5573698,0,0,0,0,0,0,,,,
28.78399998,112,0,377.7967441,0,0,0,0,0,0,0,-29.55392472,0,0,0,0,0,0,,,,
28.79199998,112,0,13.05260135,0,0,0,0,0,0,0,-313.5727627,0,0,0,0,0,0,,,,
28.79999998,112,0,-428.9731231,0,0,0,0,0,0,0,-103.3830208,0,0,0,0,0,0,,,,
28.80799998,112,0,687.40379,0,0,0,0,0,0,0,-111.4070365,0,0,0,0,0,0,,,,
28.81599998,112,0,-678.1907931,0,0,0,0,0,0,0,-132.5500151,0,0,0,0,0,0,,,,
28.82399998,112,0,347.6265417,0,0,0,0,0,0,0,175.170783,0,0,0,0,0,0,,,,
28.83199998,112,0,9.583896558,0,0,0,0,0,0,0,-71.90768172,0,0,0,0,0,0,,,,
28.83999998,112,0,-474.742478,0,0,0,0,0,0,0,144.3089061,0,0,0,0,0,0,,,,
28.84799998,112,0,650.449295,0,0,0,0,0,0,0,65.26104313,0,0,0,0,0,0,,,,
28.85599998,112,0,-709.2630427,0,0,0,0,0,0,0,-108.4702901,0,0,0,0,0,0,,,,
28.86399998,112,0,319.4006658,0,0,0,0,0,0,0,116.597707,0,0,0,0,0,0,,,,
28.87199998,112,0,21.05109041,0,0,0,0,0,0,0,-175.155962,0,0,0,0,0,0,,,,
28.87999998,112,0,-521.3579921,0,0,0,0,0,0,0,2.470154651,0,0,0,0,0,0,,,,
28.88799998,112,0,660.4460276,0,0,0,0,0,0,0,-56.26590368,0,0,0,0,0,0,,,,
28.89599998,112,0,-688.7523386,0,0,0,0,0,0,0,-198.9626997,0,0,0,0,0,0,,,,
28.90399998,112,0,302.182432,0,0,0,0,0,0,0,70.7955844,0,0,0,0,0,0,,,,
28.91199998,112,0,74.94298618,0,0,0,0,0,0,0,-207.5080939,0,0,0,0,0,0,,,,
28.91999998,112,0,-523.2098075,0,0,0,0,0,0,0,-21.11771265,0,0,0,0,0,0,,,,
28.92799998,113,0,655.9222742,0,0,0,0,0,0,0,-23.44088359,0,0,0,0,0,0,,,,
28.93599998,113,0,-699.266723,0,0,0,0,0,0,0,-152.6912282,0,0,0,0,0,0,,,,
28.94399998,113,0,251.4211996,0,0,0,0,0,0,0,103.9901836,0,0,0,0,0,0,,,,
28.95199998,113,0,98.58868953,0,0,0,0,0,0,0,-222.463469,0,0,0,0,0,0,,,,
28.95999998,113,0,-515.8398582,0,0,0,0,0,0,0,-113.0417232,0,0,0,0,0,0,,,,
28.96799998,113,0,702.8008394,0,0,0,0,0,0,0,-128.3825894,0,0,0,0,0,0,,,,
28.97599998,113,0,-634.224924,0,0,0,0,0,0,0,-249.571179,0,0,0,0,0,0,,,,
28.98399998,113,0,245.008779,0,0,0,0,0,0,0,61.67474768,0,0,0,0,0,0,,,,
28.99199998,113,0,107.8768212,0,0,0,0,0,0,0,-157.9140814,0,0,0,0,0,0,,,,
28.99999998,113,0,-549.7369806,0,0,0,0,0,0,0,5.731913966,0,0,0,0,0,0,,,,
29.00799998,113,0,664.9789851,0,0,0,0,0,0,0,23.451658,0,0,0,0,0,0,,,,
29.01599998,113,0,-659.1749118,0,0,0,0,0,0,0,-105.533488,0,0,0,0,0,0,,,,
29.02399998,113,0,231.8659377,0,0,0,0,0,0,0,106.1415726,0,0,0,0,0,0,,,,
29.03199998,113,0,138.6031292,0,0,0,0,0,0,0,-191.6844196,0,0,0,0,0,0,,,,
29.03999998,113,0,-581.1870714,0,0,0,0,0,0,0,73.59413008,0,0,0,0,0,0,,,,
29.04799998,113,0,969.7253784,0,0,0,0,0,0,0,79.38521317,0,0,0,0,0,0,,,,
29.05599998,113,0,-619.9315164,0,0,0,0,0,0,0,-321.2349618,0,0,0,0,0,0,,,,
29.06399998,113,0,-100.3281071,0,0,0,0,0,0,0,42.66287364,0,0,0,0,0,0,,,,
29.07199998,113,0,685.6643092,0,0,0,0,0,0,0,-192.2899629,0,0,0,0,0,0,,,,
29.07999998,113,0,-822.6118752,0,0,0,0,0,0,0,-218.7109866,0,0,0,0,0,0,,,,
29.08799998,113,0,485.0444181,0,0,0,0,0,0,0,73.01196718,0,0,0,0,0,0,,,,
29.09599998,113,0,-83.73415761,0,0,0,0,0,0,0,-273.9132444,0,0,0,0,0,0,,,,
29.10399998,113,0,-411.3396513,0,0,0,0,0,0,0,-83.32232503,0,0,0,0,0,0,,,,
29.11199998,113,0,698.0348512,0,0,0,0,0,0,0,-138.0821235,0,0,0,0,0,0,,,,
29.11999998,113,0,-610.4505525,0,0,0,0,0,0,0,-271.3486551,0,0,0,0,0,0,,,,
29.12799998,113,0,291.3236749,0,0,0,0,0,0,0,41.95779992,0,0,0,0,0,0,,,,
29.13599998,113,0,144.9966783,0,0,0,0,0,0,0,-139.8393649,0,0,0,0,0,0,,,,
29.14399998,113,0,-567.074603,0,0,0,0,0,0,0,103.407347,0,0,0,0,0,0,,,,
29.15199998,113,0,658.7511428,0,0,0,0,0,0,0,160.7944549,0,0,0,0,0,0,,,,
29.15999998,113,0,-567.9611232,0,0,0,0,0,0,0,-44.70259147,0,0,0,0,0,0,,,,
29.16799998,113,0,145.7013394,0,0,0,0,0,0,0,205.5608437,0,0,0,0,0,0,,,,
29.17599998,113,0,197.0230878,0,0,0,0,0,0,0,-13.52412519,0,0,0,0,0,0,,,,
29.18399998,114,0,-618.8978417,0,0,0,0,0,0,0,111.5518872,0,0,0,0,0,0,,,,
29.19199998,114,0,675.0759717,0,0,0,0,0,0,0,147.231678,0,0,0,0,0,0,,,,
29.19999998,114,0,-542.0792043,0,0,0,0,0,0,0,-32.32797716,0,0,0,0,0,0,,,,
29.20799998,114,0,126.4625957,0,0,0,0,0,0,0,221.3577713,0,0,0,0,0,0,,,,
29.21599998,114,0,264.1258255,0,0,0,0,0,0,0,-32.2357845,0,0,0,0,0,0,,,,
29.22399998,114,0,-637.297783,0,0,0,0,0,0,0,91.52049939,0,0,0,0,0,0,,,,
29.23199998,114,0,703.6469131,0,0,0,0,0,0,0,139.9030363,0,0,0,0,0,0,,,,
29.23999998,114,0,-508.6218082,0,0,0,0,0,0,0,-62.11237691,0,0,0,0,0,0,,,,
29.24799998,114,0,83.04726182,0,0,0,0,0,0,0,224.3435433,0,0,0,0,0,0,,,,
29.25599998,114,0,278.1588566,0,0,0,0,0,0,0,2.188323905,0,0,0,0,0,0,,,,
29.26399998,114,0,-657.4436965,0,0,0,0,0,0,0,113.6602736,0,0,0,0,0,0,,,,
29.27199998,114,0,702.8049537,0,0,0,0,0,0,0,143.5403381,0,0,0,0,0,0,,,,
29.27999998,114,0,-502.7126055,0,0,0,0,0,0,0,-84.93563879,0,0,0,0,0,0,,,,
29.28799998,114,0,48.8180481,0,0,0,0,0,0,0,204.9705237,0,0,0,0,0,0,,,,
29.29599998,114,0,311.1055664,0,0,0,0,0,0,0,-28.76078789,0,0,0,0,0,0,,,,
29.30399998,114,0,-683.8655803,0,0,0,0,0,0,0,61.47752029,0,0,0,0,0,0,,,,
29.31199998,114,0,659.8427133,0,0,0,0,0,0,0,135.8854875,0,0,0,0,0,0,,,,
29.31999998,114,0,-519.3528932,0,0,0,0,0,0,0,-52.62517907,0,0,0,0,0,0,,,,
29.32799998,114,0,-5.761559245,0,0,0,0,0,0,0,249.483463,0,0,0,0,0,0,,,,
29.33599998,114,0,316.2249258,0,0,0,0,0,0,0,-10.59024511,0,0,0,0,0,0,,,,
29.34399998,114,0,-706.7190759,0,0,0,0,0,0,0,32.32507627,0,0,0,0,0,0,,,,
29.35199998,114,0,652.3061612,0,0,0,0,0,0,0,102.104722,0,0,0,0,0,0,,,,
29.35999998,114,0,-489.5515601,0,0,0,0,0,0,0,-132.3507958,0,0,0,0,0,0,,,,
29.36799998,114,0,-41.20398427,0,0,0,0,0,0,0,142.3612695,0,0,0,0,0,0,,,,
29.37599998,114,0,318.5601142,0,0,0,0,0,0,0,-66.06632849,0,0,0,0,0,0,,,,
29.38399998,114,0,-733.0756445,0,0,0,0,0,0,0,-4.118812661,0,0,0,0,0,0,,,,
29.39199998,114,0,605.5606059,0,0,0,0,0,0,0,94.9032451,0,0,0,0,0,0,,,,
29.39999998,114,0,-520.8256133,0,0,0,0,0,0,0,-89.02704302,0,0,0,0,0,0,,,,
29.40799998,114,0,-82.46426826,0,0,0,0,0,0,0,167.553119,0,0,0,0,0,0,,,,
29.41599998,114,0,351.7536796,0,0,0,0,0,0,0,-99.97974803,0,0,0,0,0,0,,,,
29.42399998,114,0,-737.4434296,0,0,0,0,0,0,0,-52.85473299,0,0,0,0,0,0,,,,
29.43199998,114,0,624.3503515,0,0,0,0,0,0,0,45.16546662,0,0,0,0,0,0,,,,
29.43999998,115,0,-460.2665898,0,0,0,0,0,0,0,-158.9735156,0,0,0,0,0,0,,,,
29.44799998,115,0,-108.3923485,0,0,0,0,0,0,0,131.993007,0,0,0,0,0,0,,,,
29.45599998,115,0,345.9779527,0,0,0,0,0,0,0,-97.86277153,0,0,0,0,0,0,,,,
29.46399998,115,0,-766.7701762,0,0,0,0,0,0,0,-38.15362402,0,0,0,0,0,0,,,,
29.47199998,115,0,612.3920955,0,0,0,0,0,0,0,55.46153048,0,0,0,0,0,0,,,,
29.47999998,115,0,-426.0100415,0,0,0,0,0,0,0,-212.454592,0,0,0,0,0,0,,,,
29.48799998,115,0,-108.7041836,0,0,0,0,0,0,0,75.3674908,0,0,0,0,0,0,,,,
29.49599998,115,0,404.6429931,0,0,0,0,0,0,0,-123.5183344,0,0,0,0,0,0,,,,
29.50399998,115,0,-981.6579448,0,0,0,0,0,0,0,-11.09422224,0,0,0,0,0,0,,,,
29.51199998,115,0,792.0710428,0,0,0,0,0,0,0,303.8130505,0,0,0,0,0,0,,,,
29.51999998,115,0,544.2725223,0,0,0,0,0,0,0,20.16795054,0,0,0,0,0,0,,,,
29.52799998,115,0,-46.3817403,0,0,0,0,0,0,0,169.4172476,0,0,0,0,0,0,,,,
29.53599998,115,0,629.3410904,0,0,0,0,0,0,0,7.491636408,0,0,0,0,0,0,,,,
29.54399998,115,0,-618.9444455,0,0,0,0,0,0,0,-193.9005091,0,0,0,0,0,0,,,,
29.55199998,115,0,-140.7166126,0,0,0,0,0,0,0,103.0236333,0,0,0,0,0,0,,,,
29.55999998,115,0,387.1341136,0,0,0,0,0,0,0,-81.61472834,0,0,0,0,0,0,,,,
29.56799998,115,0,-581.7257418,0,0,0,0,0,0,0,-142.0297556,0,0,0,0,0,0,,,,
29.57599998,115,0,169.324827,0,0,0,0,0,0,0,65.88186185,0,0,0,0,0,0,,,,
29.58399998,115,0,45.72807751,0,0,0,0,0,0,0,-141.8752407,0,0,0,0,0,0,,,,
29.59199998,115,0,-547.9904948,0,0,0,0,0,0,0,-43.37788352,0,0,0,0,0,0,,,,
29.59999998,115,0,479.5227882,0,0,0,0,0,0,0,-4.201122011,0,0,0,0,0,0,,,,
29.60799998,115,0,-407.44426,0,0,0,0,0,0,0,-188.904908,0,0,0,0,0,0,,,,
29.61599998,115,0,-83.18593363,0,0,0,0,0,0,0,22.65005902,0,0,0,0,0,0,,,,
29.62399998,115,0,335.9883763,0,0,0,0,0,0,0,-158.358289,0,0,0,0,0,0,,,,
29.63199998,115,0,-695.2952961,0,0,0,0,0,0,0,-101.3867238,0,0,0,0,0,0,,,,
29.63999998,115,0,505.4477698,0,0,0,0,0,0,0,31.57167863,0,0,0,0,0,0,,,,
29.64799998,115,0,-340.900183,0,0,0,0,0,0,0,-195.2120863,0,0,0,0,0,0,,,,
29.65599998,115,0,-202.7949059,0,0,0,0,0,0,0,69.48662672,0,0,0,0,0,0,,,,
29.66399998,115,0,425.5608608,0,0,0,0,0,0,0,-91.70467697,0,0,0,0,0,0,,,,
29.67199998,115,0,-747.2447347,0,0,0,0,0,0,0,-122.9122987,0,0,0,0,0,0,,,,
29.67999998,115,0,523.2634834,0,0,0,0,0,0,0,-1.58259922,0,0,0,0,0,0,,,,
29.68799998,115,0,-311.4536315,0,0,0,0,0,0,0,-233.4425917,0,0,0,0,0,0,,,,
29.69599998,116,0,-232.5890316,0,0,0,0,0,0,0,30.57509783,0,0,0,0,0,0,,,,
29.70399998,116,0,474.0024597,0,0,0,0,0,0,0,-135.2352388,0,0,0,0,0,0,,,,
29.71199998,116,0,-785.1163383,0,0,0,0,0,0,0,-120.9945652,0,0,0,0,0,0,,,,
29.71999998,116,0,519.744585,0,0,0,0,0,0,0,45.60078374,0,0,0,0,0,0,,,,
29.72799998,116,0,-267.0675716,0,0,0,0,0,0,0,-235.8438668,0,0,0,0,0,0,,,,
29.73599998,116,0,-237.2646837,0,0,0,0,0,0,0,22.28913345,0,0,0,0,0,0,,,,
29.74399998,116,0,558.2370209,0,0,0,0,0,0,0,-145.2706557,0,0,0,0,0,0,,,,
29.75199998,116,0,-719.6610834,0,0,0,0,0,0,0,-191.8483653,0,0,0,0,0,0,,,,
29.75999998,116,0,533.9463695,0,0,0,0,0,0,0,6.820565756,0,0,0,0,0,0,,,,
29.76799998,116,0,-239.0832853,0,0,0,0,0,0,0,-232.0558762,0,0,0,0,0,0,,,,
29.77599998,116,0,-267.1639432,0,0,0,0,0,0,0,5.133633203,0,0,0,0,0,0,,,,
29.78399998,116,0,561.7469687,0,0,0,0,0,0,0,-143.2584724,0,0,0,0,0,0,,,,
29.79199998,116,0,-709.1883349,0,0,0,0,0,0,0,-182.1642357,0,0,0,0,0,0,,,,
29.79999998,116,0,560.4706528,0,0,0,0,0,0,0,-10.29665478,0,0,0,0,0,0,,,,
29.80799998,116,0,-168.8238352,0,0,0,0,0,0,0,-265.742604,0,0,0,0,0,0,,,,
29.81599998,116,0,-258.4167421,0,0,0,0,0,0,0,-4.196793378,0,0,0,0,0,0,,,,
29.82399998,116,0,577.6482338,0,0,0,0,0,0,0,-109.8980035,0,0,0,0,0,0,,,,
29.83199998,116,0,-734.7770119,0,0,0,0,0,0,0,-144.6782773,0,0,0,0,0,0,,,,
29.83999998,116,0,525.8552009,0,0,0,0,0,0,0,53.8650833,0,0,0,0,0,0,,,,
29.84799998,116,0,-156.2286597,0,0,0,0,0,0,0,-176.9205755,0,0,0,0,0,0,,,,
29.85599998,116,0,-295.2460133,0,0,0,0,0,0,0,65.86774792,0,0,0,0,0,0,,,,
29.86399998,116,0,593.7523626,0,0,0,0,0,0,0,-47.7936289,0,0,0,0,0,0,,,,
29.87199998,116,0,-712.6124997,0,0,0,0,0,0,0,-101.8749593,0,0,0,0,0,0,,,,
29.87999998,116,0,534.0588167,0,0,0,0,0,0,0,60.1761028,0,0,0,0,0,0,,,,
29.88799998,116,0,-113.7756953,0,0,0,0,0,0,0,-192.8200867,0,0,0,0,0,0,,,,
29.89599998,116,0,-311.9971672,0,0,0,0,0,0,0,62.37377591,0,0,0,0,0,0,,,,
29.90399998,116,0,605.28756,0,0,0,0,0,0,0,-42.42582694,0,0,0,0,0,0,,,,
29.91199998,116,0,-713.0041127,0,0,0,0,0,0,0,-99.87439405,0,0,0,0,0,0,,,,
29.91999998,116,0,496.1021673,0,0,0,0,0,0,0,63.44725976,0,0,0,0,0,0,,,,
29.92799998,116,0,-126.3884982,0,0,0,0,0,0,0,-208.9952434,0,0,0,0,0,0,,,,
29.93599998,116,0,-340.8413015,0,0,0,0,0,0,0,60.06079018,0,0,0,0,0,0,,,,
29.94399998,116,0,638.2544991,0,0,0,0,0,0,0,-61.33906791,0,0,0,0,0,0,,,,
29.95199998,117,0,-715.7111027,0,0,0,0,0,0,0,-153.2011087,0,0,0,0,0,0,,,,
29.95999998,117,0,482.9520631,0,0,0,0,0,0,0,66.11561467,0,0,0,0,0,0,,,,
29.96799998,117,0,-57.51322015,0,0,0,0,0,0,0,-214.7170706,0,0,0,0,0,0,,,,
29.97599998,117,0,-342.6160121,0,0,0,0,0,0,0,10.25124936,0,0,0,0,0,0,,,,
29.98399998,117,0,1064.785212,0,0,0,0,0,0,0,37.23797298,0,0,0,0,0,0,,,,
29.99199998,117,0,-426.6144264,0,0,0,0,0,0,0,80.94249088,0,0,0,0,0,0,,,,
29.99999998,117,0,247.5448345,0,0,0,0,0,0,0,194.8039074,0,0,0,0,0,0,,,,
30.00799998,117,0,255.4733086,0,0,0,0,0,0,0,-217.8990951,0,0,0,0,0,0,,,,
30.01599998,117,0,-669.1997358,0,0,0,0,0,0,0,76.85531897,0,0,0,0,0,0,,,,
30.02399998,117,0,611.2085278,0,0,0,0,0,0,0,74.67725909,0,0,0,0,0,0,,,,
30.03199998,117,0,-326.2791099,0,0,0,0,0,0,0,-186.326091,0,0,0,0,0,0,,,,
30.03999998,117,0,-137.4589932,0,0,0,0,0,0,0,126.4194828,0,0,0,0,0,0,,,,
30.04799998,117,0,482.1728493,0,0,0,0,0,0,0,-73.24736728,0,0,0,0,0,0,,,,
30.05599998,117,0,-672.2957628,0,0,0,0,0,0,0,-44.02801423,0,0,0,0,0,0,,,,
30.06399998,117,0,439.199193,0,0,0,0,0,0,0,87.15260157,0,0,0,0,0,0,,,,
30.07199998,117,0,-90.65725935,0,0,0,0,0,0,0,-167.849181,0,0,0,0,0,0,,,,
30.07999998,117,0,-277.3132893,0,0,0,0,0,0,0,19.52209017,0,0,0,0,0,0,,,,
30.08799998,117,0,619.5821329,0,0,0,0,0,0,0,-91.48125298,0,0,0,0,0,0,,,,
30.09599998,117,0,-656.7491095,0,0,0,0,0,0,0,-104.525681,0,0,0,0,0,0,,,,
30.10399998,117,0,400.8059012,0,0,0,0,0,0,0,80.14431747,0,0,0,0,0,0,,,,
30.11199998,117,0,-10.15100364,0,0,0,0,0,0,0,-137.7534377,0,0,0,0,0,0,,,,
30.11999998,117,0,-404.2603953,0,0,0,0,0,0,0,98.76305652,0,0,0,0,0,0,,,,
30.12799998,117,0,655.8300663,0,0,0,0,0,0,0,17.74999121,0,0,0,0,0,0,,,,
30.13599998,117,0,-698.1315986,0,0,0,0,0,0,0,-16.32165188,0,0,0,0,0,0,,,,
30.14399998,117,0,341.0111005,0,0,0,0,0,0,0,230.7112648,0,0,0,0,0,0,,,,
30.15199998,117,0,20.34801193,0,0,0,0,0,0,0,-50.4696559,0,0,0,0,0,0,,,,
30.15999998,117,0,-485.3324555,0,0,0,0,0,0,0,161.8641754,0,0,0,0,0,0,,,,
30.16799998,117,0,661.3451402,0,0,0,0,0,0,0,92.73186579,0,0,0,0,0,0,,,,
30.17599998,117,0,-692.694859,0,0,0,0,0,0,0,-27.45242009,0,0,0,0,0,0,,,,
30.18399998,117,0,322.1495992,0,0,0,0,0,0,0,207.630214,0,0,0,0,0,0,,,,
30.19199998,117,0,84.36188003,0,0,0,0,0,0,0,-120.4787531,0,0,0,0,0,0,,,,
30.19999998,117,0,-477.3417707,0,0,0,0,0,0,0,58.24263314,0,0,0,0,0,0,,,,
30.20799998,118,0,691.3014309,0,0,0,0,0,0,0,51.44702164,0,0,0,0,0,0,,,,
30.21599998,118,0,-688.5549329,0,0,0,0,0,0,0,-56.79574209,0,0,0,0,0,0,,,,
30.22399998,118,0,274.4570819,0,0,0,0,0,0,0,229.5109012,0,0,0,0,0,0,,,,
30.23199998,118,0,79.83052838,0,0,0,0,0,0,0,-55.25100631,0,0,0,0,0,0,,,,
30.23999998,118,0,-553.3282362,0,0,0,0,0,0,0,108.3751135,0,0,0,0,0,0,,,,
30.24799998,118,0,660.2332811,0,0,0,0,0,0,0,107.1772069,0,0,0,0,0,0,,,,
30.25599998,118,0,-665.2492709,0,0,0,0,0,0,0,-66.56515821,0,0,0,0,0,0,,,,
30.26399998,118,0,252.822422,0,0,0,0,0,0,0,160.5478237,0,0,0,0,0,0,,,,
30.27199998,118,0,109.7168261,0,0,0,0,0,0,0,-109.6618823,0,0,0,0,0,0,,,,
30.27999998,118,0,-533.1747982,0,0,0,0,0,0,0,28.05144125,0,0,0,0,0,0,,,,
30.28799998,118,0,664.3599535,0,0,0,0,0,0,0,26.70225394,0,0,0,0,0,0,,,,
30.29599998,118,0,-691.8115455,0,0,0,0,0,0,0,-50.80294129,0,0,0,0,0,0,,,,
30.30399998,118,0,212.1614923,0,0,0,0,0,0,0,207.564549,0,0,0,0,0,0,,,,
30.31199998,118,0,101.4317406,0,0,0,0,0,0,0,-97.15985262,0,0,0,0,0,0,,,,
30.31999998,118,0,-595.2166764,0,0,0,0,0,0,0,96.12678654,0,0,0,0,0,0,,,,
30.32799998,118,0,677.0983068,0,0,0,0,0,0,0,80.38559097,0,0,0,0,0,0,,,,
30.33599998,118,0,-661.0023206,0,0,0,0,0,0,0,-92.57951803,0,0,0,0,0,0,,,,
30.34399998,118,0,188.4413708,0,0,0,0,0,0,0,209.4680607,0,0,0,0,0,0,,,,
30.35199998,118,0,154.8423268,0,0,0,0,0,0,0,-87.09449682,0,0,0,0,0,0,,,,
30.35999998,118,0,-589.9204191,0,0,0,0,0,0,0,48.10027314,0,0,0,0,0,0,,,,
30.36799998,118,0,695.5472935,0,0,0,0,0,0,0,60.51789493,0,0,0,0,0,0,,,,
30.37599998,118,0,-601.5882677,0,0,0,0,0,0,0,-147.668077,0,0,0,0,0,0,,,,
30.38399998,118,0,202.370168,0,0,0,0,0,0,0,121.3369949,0,0,0,0,0,0,,,,
30.39199998,118,0,213.1410102,0,0,0,0,0,0,0,-140.5871402,0,0,0,0,0,0,,,,
30.39999998,118,0,-581.2292886,0,0,0,0,0,0,0,-11.82425746,0,0,0,0,0,0,,,,
30.40799998,118,0,693.1068957,0,0,0,0,0,0,0,51.29235609,0,0,0,0,0,0,,,,
30.41599998,118,0,-581.914595,0,0,0,0,0,0,0,-116.7136353,0,0,0,0,0,0,,,,
30.42399998,118,0,178.3764021,0,0,0,0,0,0,0,123.9188503,0,0,0,0,0,0,,,,
30.43199998,118,0,212.5226724,0,0,0,0,0,0,0,-123.9680689,0,0,0,0,0,0,,,,
30.43999998,118,0,-597.3573855,0,0,0,0,0,0,0,14.73632034,0,0,0,0,0,0,,,,
30.44799998,118,0,728.4608274,0,0,0,0,0,0,0,41.70433263,0,0,0,0,0,0,,,,
30.45599998,118,0,-546.159347,0,0,0,0,0,0,0,-136.9093106,0,0,0,0,0,0,,,,
30.46399998,119,0,153.3451011,0,0,0,0,0,0,0,143.1851429,0,0,0,0,0,0,,,,
30.47199998,119,0,238.3720969,0,0,0,0,0,0,0,-117.9235506,0,0,0,0,0,0,,,,
30.47999998,119,0,-625.7782351,0,0,0,0,0,0,0,5.604525284,0,0,0,0,0,0,,,,
30.48799998,119,0,717.2660836,0,0,0,0,0,0,0,58.50199694,0,0,0,0,0,0,,,,
30.49599998,119,0,-508.3825558,0,0,0,0,0,0,0,-167.0285977,0,0,0,0,0,0,,,,
30.50399998,119,0,143.6934939,0,0,0,0,0,0,0,81.36312202,0,0,0,0,0,0,,,,
30.51199998,119,0,280.2516659,0,0,0,0,0,0,0,-145.6666943,0,0,0,0,0,0,,,,
30.51999998,119,0,-588.2385936,0,0,0,0,0,0,0,-35.46914625,0,0,0,0,0,0,,,,
30.52799998,119,0,736.8595939,0,0,0,0,0,0,0,-3.427761558,0,0,0,0,0,0,,,,
30.53599998,119,0,-499.1137312,0,0,0,0,0,0,0,-172.0912593,0,0,0,0,0,0,,,,
30.54399998,119,0,141.9933086,0,0,0,0,0,0,0,105.1596817,0,0,0,0,0,0,,,,
30.55199998,119,0,312.7875529,0,0,0,0,0,0,0,-160.5457052,0,0,0,0,0,0,,,,
30.55999998,119,0,-614.3589225,0,0,0,0,0,0,0,-20.21513292,0,0,0,0,0,0,,,,
30.56799998,119,0,752.2026999,0,0,0,0,0,0,0,33.89516133,0,0,0,0,0,0,,,,
30.57599998,119,0,-470.2321613,0,0,0,0,0,0,0,-188.9988714,0,0,0,0,0,0,,,,
30.58399998,119,0,95.4575722,0,0,0,0,0,0,0,106.612895,0,0,0,0,0,0,,,,
30.59199998,119,0,317.9702473,0,0,0,0,0,0,0,-133.8460412,0,0,0,0,0,0,,,,
30.59999998,119,0,-646.0447617,0,0,0,0,0,0,0,-18.27573735,0,0,0,0,0,0,,,,
30.60799998,119,0,746.9276738,0,0,0,0,0,0,0,24.72002395,0,0,0,0,0,0,,,,
30.61599998,119,0,-431.2547029,0,0,0,0,0,0,0,-241.2301921,0,0,0,0,0,0,,,,
30.62399998,119,0,82.13642436,0,0,0,0,0,0,0,59.08803025,0,0,0,0,0,0,,,,
30.63199998,119,0,366.1595479,0,0,0,0,0,0,0,-163.4816164,0,0,0,0,0,0,,,,
30.63999998,119,0,-638.0546616,0,0,0,0,0,0,0,-95.84823104,0,0,0,0,0,0,,,,
30.64799998,119,0,724.0702268,0,0,0,0,0,0,0,-30.92544019,0,0,0,0,0,0,,,,
30.65599998,119,0,-447.2456283,0,0,0,0,0,0,0,-249.2801137,0,0,0,0,0,0,,,,
30.66399998,119,0,32.23424887,0,0,0,0,0,0,0,54.46034461,0,0,0,0,0,0,,,,
30.67199998,119,0,383.2344581,0,0,0,0,0,0,0,-187.0066622,0,0,0,0,0,0,,,,
30.67999998,119,0,-645.7281288,0,0,0,0,0,0,0,-130.24382,0,0,0,0,0,0,,,,
30.68799998,119,0,724.9814503,0,0,0,0,0,0,0,-20.09370091,0,0,0,0,0,0,,,,
30.69599998,119,0,-415.1445436,0,0,0,0,0,0,0,-232.3479148,0,0,0,0,0,0,,,,
30.70399998,119,0,26.44539458,0,0,0,0,0,0,0,47.97534466,0,0,0,0,0,0,,,,
30.71199998,119,0,426.7670238,0,0,0,0,0,0,0,-166.6557337,0,0,0,0,0,0,,,,
30.71999998,120,0,-653.738723,0,0,0,0,0,0,0,-83.88778035,0,0,0,0,0,0,,,,
30.72799998,120,0,701.3916797,0,0,0,0,0,0,0,38.37295338,0,0,0,0,0,0,,,,
30.73599998,120,0,-388.7844146,0,0,0,0,0,0,0,-183.0338735,0,0,0,0,0,0,,,,
30.74399998,120,0,-5.272973536,0,0,0,0,0,0,0,92.41760406,0,0,0,0,0,0,,,,
30.75199998,120,0,404.7804979,0,0,0,0,0,0,0,-105.9040122,0,0,0,0,0,0,,,,
30.75999998,120,0,-677.8516737,0,0,0,0,0,0,0,-62.16694933,0,0,0,0,0,0,,,,
30.76799998,120,0,680.704071,0,0,0,0,0,0,0,14.09460763,0,0,0,0,0,0,,,,
30.77599998,120,0,-400.8704399,0,0,0,0,0,0,0,-181.7310036,0,0,0,0,0,0,,,,
30.78399998,120,0,-17.15630158,0,0,0,0,0,0,0,86.64543399,0,0,0,0,0,0,,,,
30.79199998,120,0,455.3533149,0,0,0,0,0,0,0,-182.7340555,0,0,0,0,0,0,,,,
30.79999998,120,0,-700.1085629,0,0,0,0,0,0,0,-119.7884843,0,0,0,0,0,0,,,,
30.80799998,120,0,667.6658807,0,0,0,0,0,0,0,-11.9671333,0,0,0,0,0,0,,,,
30.81599998,120,0,-363.2327687,0,0,0,0,0,0,0,-272.0243084,0,0,0,0,0,0,,,,
30.82399998,120,0,-67.91601696,0,0,0,0,0,0,0,15.770094,0,0,0,0,0,0,,,,
30.83199998,120,0,444.1519296,0,0,0,0,0,0,0,-215.3114832,0,0,0,0,0,0,,,,
30.83999998,120,0,-702.1022905,0,0,0,0,0,0,0,-198.8921308,0,0,0,0,0,0,,,,
30.84799998,120,0,651.1139901,0,0,0,0,0,0,0,-66.12353048,0,0,0,0,0,0,,,,
30.85599998,120,0,-366.4940052,0,0,0,0,0,0,0,-287.8800696,0,0,0,0,0,0,,,,
30.86399998,120,0,-101.8857187,0,0,0,0,0,0,0,-20.49944351,0,0,0,0,0,0,,,,
30.87199998,120,0,448.6911941,0,0,0,0,0,0,0,-224.2417812,0,0,0,0,0,0,,,,
30.87999998,120,0,-742.6507558,0,0,0,0,0,0,0,-146.9846804,0,0,0,0,0,0,,,,
30.88799998,120,0,625.324812,0,0,0,0,0,0,0,-7.330872769,0,0,0,0,0,0,,,,
30.89599998,120,0,-347.994305,0,0,0,0,0,0,0,-263.6601394,0,0,0,0,0,0,,,,
30.90399998,120,0,-136.0165596,0,0,0,0,0,0,0,4.142490672,0,0,0,0,0,0,,,,
30.91199998,120,0,485.3067118,0,0,0,0,0,0,0,-229.4717387,0,0,0,0,0,0,,,,
30.91999998,120,0,-719.7351882,0,0,0,0,0,0,0,-225.8210277,0,0,0,0,0,0,,,,
30.92799998,120,0,631.4225552,0,0,0,0,0,0,0,-97.59330406,0,0,0,0,0,0,,,,
30.93599998,120,0,-300.1311607,0,0,0,0,0,0,0,-351.3867124,0,0,0,0,0,0,,,,
30.94399998,120,0,-148.8752217,0,0,0,0,0,0,0,-40.48576238,0,0,0,0,0,0,,,,
30.95199998,120,0,499.2802432,0,0,0,0,0,0,0,-205.2737892,0,0,0,0,0,0,,,,
30.95999998,120,0,-741.0385422,0,0,0,0,0,0,0,-212.6213246,0,0,0,0,0,0,,,,
30.96799998,120,0,593.4193548,0,0,0,0,0,0,0,-86.1795918,0,0,0,0,0,0,,,,
30.97599998,121,0,-281.981263,0,0,0,0,0,0,0,-354.333401,0,0,0,0,0,0,,,,
30.98399998,121,0,-196.2748933,0,0,0,0,0,0,0,-76.51144086,0,0,0,0,0,0,,,,
30.99199998,121,0,485.2438498,0,0,0,0,0,0,0,-209.4762293,0,0,0,0,0,0,,,,
30.99999998,121,0,-748.0429907,0,0,0,0,0,0,0,-190.0411389,0,0,0,0,0,0,,,,
31.00799998,121,0,552.4387293,0,0,0,0,0,0,0,-32.42328999,0,0,0,0,0,0,,,,
31.01599998,121,0,-292.8771593,0,0,0,0,0,0,0,-276.9868657,0,0,0,0,0,0,,,,
31.02399998,121,0,-211.5426379,0,0,0,0,0,0,0,-36.23642442,0,0,0,0,0,0,,,,
31.03199998,121,0,510.3184361,0,0,0,0,0,0,0,-232.6339578,0,0,0,0,0,0,,,,
31.03999998,121,0,-753.294194,0,0,0,0,0,0,0,-244.059304,0,0,0,0,0,0,,,,
31.04799998,121,0,567.5029849,0,0,0,0,0,0,0,-87.66037213,0,0,0,0,0,0,,,,
31.05599998,121,0,-239.4207331,0,0,0,0,0,0,0,-363.1680351,0,0,0,0,0,0,,,,
31.06399998,121,0,-222.471045,0,0,0,0,0,0,0,-92.8220461,0,0,0,0,0,0,,,,
31.07199998,121,0,560.7058383,0,0,0,0,0,0,0,-240.9240217,0,0,0,0,0,0,,,,
31.07999998,121,0,-737.3670372,0,0,0,0,0,0,0,-254.2832075,0,0,0,0,0,0,,,,
31.08799998,121,0,529.5879714,0,0,0,0,0,0,0,-31.36699972,0,0,0,0,0,0,,,,
31.09599998,121,0,-237.1085602,0,0,0,0,0,0,0,-277.4173597,0,0,0,0,0,0,,,,
31.10399998,121,0,-284.0410598,0,0,0,0,0,0,0,-17.98189334,0,0,0,0,0,0,,,,
31.11199998,121,0,517.2188017,0,0,0,0,0,0,0,-109.597593,0,0,0,0,0,0,,,,
31.11999998,121,0,-788.0103169,0,0,0,0,0,0,0,-117.1496914,0,0,0,0,0,0,,,,
31.12799998,121,0,484.1417567,0,0,0,0,0,0,0,69.54065875,0,0,0,0,0,0,,,,
31.13599998,121,0,-206.617611,0,0,0,0,0,0,0,-202.1450099,0,0,0,0,0,0,,,,
31.14399998,121,0,-267.9228859,0,0,0,0,0,0,0,21.0181246,0,0,0,0,0,0,,,,
31.15199998,121,0,587.4294962,0,0,0,0,0,0,0,-115.3512839,0,0,0,0,0,0,,,,
31.15999998,121,0,-734.5905306,0,0,0,0,0,0,0,-148.7185454,0,0,0,0,0,0,,,,
31.16799998,121,0,524.585283,0,0,0,0,0,0,0,47.74223908,0,0,0,0,0,0,,,,
31.17599998,121,0,-134.1918141,0,0,0,0,0,0,0,-222.5155178,0,0,0,0,0,0,,,,
31.18399998,121,0,-287.1554464,0,0,0,0,0,0,0,32.99737839,0,0,0,0,0,0,,,,
31.19199998,121,0,596.4598139,0,0,0,0,0,0,0,-66.57240082,0,0,0,0,0,0,,,,
31.19999998,121,0,-719.7686728,0,0,0,0,0,0,0,-123.5736344,0,0,0,0,0,0,,,,
31.20799998,121,0,499.1081473,0,0,0,0,0,0,0,83.22762778,0,0,0,0,0,0,,,,
31.21599998,121,0,-135.5069382,0,0,0,0,0,0,0,-154.9948409,0,0,0,0,0,0,,,,
31.22399998,121,0,-317.0571718,0,0,0,0,0,0,0,75.98031888,0,0,0,0,0,0,,,,
31.23199998,122,0,604.1308565,0,0,0,0,0,0,0,-37.09380446,0,0,0,0,0,0,,,,
31.23999998,122,0,-734.1899643,0,0,0,0,0,0,0,-81.72003955,0,0,0,0,0,0,,,,
31.24799998,122,0,472.7509949,0,0,0,0,0,0,0,104.0743731,0,0,0,0,0,0,,,,
31.25599998,122,0,-110.6857641,0,0,0,0,0,0,0,-170.2742498,0,0,0,0,0,0,,,,
31.26399998,122,0,-343.8517196,0,0,0,0,0,0,0,64.07748039,0,0,0,0,0,0,,,,
31.27199998,122,0,607.1826341,0,0,0,0,0,0,0,-25.93273078,0,0,0,0,0,0,,,,
31.27999998,122,0,-741.5298527,0,0,0,0,0,0,0,-69.18625829,0,0,0,0,0,0,,,,
31.28799998,122,0,452.5308056,0,0,0,0,0,0,0,115.5037024,0,0,0,0,0,0,,,,
31.29599998,122,0,-88.6910211,0,0,0,0,0,0,0,-158.1671011,0,0,0,0,0,0,,,,
31.30399998,122,0,-368.1394857,0,0,0,0,0,0,0,87.19597549,0,0,0,0,0,0,,,,
31.31199998,122,0,649.9023999,0,0,0,0,0,0,0,-20.02595759,0,0,0,0,0,0,,,,
31.31999998,122,0,-695.7065974,0,0,0,0,0,0,0,-90.02572852,0,0,0,0,0,0,,,,
31.32799998,122,0,470.633797,0,0,0,0,0,0,0,98.44597625,0,0,0,0,0,0,,,,
31.33599998,122,0,-30.54849973,0,0,0,0,0,0,0,-210.6732263,0,0,0,0,0,0,,,,
31.34399998,122,0,-370.0545827,0,0,0,0,0,0,0,40.03585172,0,0,0,0,0,0,,,,
31.35199998,122,0,675.0099533,0,0,0,0,0,0,0,-43.75970976,0,0,0,0,0,0,,,,
31.35999998,122,0,-721.8998704,0,0,0,0,0,0,0,-125.1336889,0,0,0,0,0,0,,,,
31.36799998,122,0,400.9301262,0,0,0,0,0,0,0,144.1320155,0,0,0,0,0,0,,,,
31.37599998,122,0,-5.770353105,0,0,0,0,0,0,0,-138.0486871,0,0,0,0,0,0,,,,
31.38399998,122,0,-401.7084073,0,0,0,0,0,0,0,44.05165383,0,0,0,0,0,0,,,,
31.39199998,122,0,651.0667996,0,0,0,0,0,0,0,-16.08445338,0,0,0,0,0,0,,,,
31.39999998,122,0,-711.7047418,0,0,0,0,0,0,0,-90.74999567,0,0,0,0,0,0,,,,
31.40799998,122,0,388.9649571,0,0,0,0,0,0,0,111.7062213,0,0,0,0,0,0,,,,
31.41599998,122,0,6.85685499,0,0,0,0,0,0,0,-174.1860693,0,0,0,0,0,0,,,,
31.42399998,122,0,-423.0645731,0,0,0,0,0,0,0,55.28237124,0,0,0,0,0,0,,,,
31.43199998,122,0,662.8810625,0,0,0,0,0,0,0,4.920528707,0,0,0,0,0,0,,,,
31.43999998,122,0,-709.4247715,0,0,0,0,0,0,0,-76.91323276,0,0,0,0,0,0,,,,
31.44799998,122,0,354.9323259,0,0,0,0,0,0,0,140.1015927,0,0,0,0,0,0,,,,
31.45599998,122,0,2.224121891,0,0,0,0,0,0,0,-150.9928033,0,0,0,0,0,0,,,,
31.46399998,122,0,-464.2442496,0,0,0,0,0,0,0,80.49102021,0,0,0,0,0,0,,,,
31.47199998,122,0,684.9793409,0,0,0,0,0,0,0,5.175194307,0,0,0,0,0,0,,,,
31.47999998,122,0,-656.9932827,0,0,0,0,0,0,0,-146.6769824,0,0,0,0,0,0,,,,
31.48799998,123,0,393.408987,0,0,0,0,0,0,0,79.62897224,0,0,0,0,0,0,,,,
31.49599998,123,0,68.20356623,0,0,0,0,0,0,0,-188.7503001,0,0,0,0,0,0,,,,
31.50399998,123,0,-479.0853884,0,0,0,0,0,0,0,62.63196465,0,0,0,0,0,0,,,,
31.51199998,123,0,699.6805898,0,0,0,0,0,0,0,45.84742265,0,0,0,0,0,0,,,,
31.51999998,123,0,-650.1645416,0,0,0,0,0,0,0,-96.20116449,0,0,0,0,0,0,,,,
31.52799998,123,0,340.5207258,0,0,0,0,0,0,0,147.683867,0,0,0,0,0,0,,,,
31.53599998,123,0,90.3501771,0,0,0,0,0,0,0,-132.5231041,0,0,0,0,0,0,,,,
31.54399998,123,0,-478.6271284,0,0,0,0,0,0,0,40.40585925,0,0,0,0,0,0,,,,
31.55199998,123,0,714.5379173,0,0,0,0,0,0,0,5.40362264,0,0,0,0,0,0,,,,
31.55999998,123,0,-638.8168712,0,0,0,0,0,0,0,-124.2706095,0,0,0,0,0,0,,,,
31.56799998,123,0,325.5722902,0,0,0,0,0,0,0,115.2598946,0,0,0,0,0,0,,,,
31.57599998,123,0,139.3361407,0,0,0,0,0,0,0,-177.5052143,0,0,0,0,0,0,,,,
31.58399998,123,0,-487.4937094,0,0,0,0,0,0,0,19.6368957,0,0,0,0,0,0,,,,
31.59199998,123,0,712.4535228,0,0,0,0,0,0,0,38.85572116,0,0,0,0,0,0,,,,
31.59999998,123,0,-638.9402205,0,0,0,0,0,0,0,-99.77649353,0,0,0,0,0,0,,,,
31.60799998,123,0,284.5877792,0,0,0,0,0,0,0,147.5273463,0,0,0,0,0,0,,,,
31.61599998,123,0,158.8894417,0,0,0,0,0,0,0,-140.2326024,0,0,0,0,0,0,,,,
31.62399998,123,0,-516.1491898,0,0,0,0,0,0,0,22.80624789,0,0,0,0,0,0,,,,
31.63199998,123,0,686.6333278,0,0,0,0,0,0,0,87.89852444,0,0,0,0,0,0,,,,
31.63999998,123,0,-634.4763566,0,0,0,0,0,0,0,-28.47029351,0,0,0,0,0,0,,,,
31.64799998,123,0,248.8363428,0,0,0,0,0,0,0,204.9842205,0,0,0,0,0,0,,,,
31.65599998,123,0,149.8508488,0,0,0,0,0,0,0,-43.88617618,0,0,0,0,0,0,,,,
31.66399998,123,0,-516.0192163,0,0,0,0,0,0,0,73.66896872,0,0,0,0,0,0,,,,
31.67199998,123,0,714.1331133,0,0,0,0,0,0,0,37.96452273,0,0,0,0,0,0,,,,
31.67999998,123,0,-645.4637063,0,0,0,0,0,0,0,-41.39184708,0,0,0,0,0,0,,,,
31.68799998,123,0,214.2390216,0,0,0,0,0,0,0,254.9507844,0,0,0,0,0,0,,,,
31.69599998,123,0,157.7549219,0,0,0,0,0,0,0,-15.80666418,0,0,0,0,0,0,,,,
31.70399998,123,0,-571.8627463,0,0,0,0,0,0,0,156.8132049,0,0,0,0,0,0,,,,
31.71199998,123,0,715.2219803,0,0,0,0,0,0,0,147.8613865,0,0,0,0,0,0,,,,
31.71999998,123,0,-617.64635,0,0,0,0,0,0,0,-17.08423885,0,0,0,0,0,0,,,,
31.72799998,123,0,178.3020662,0,0,0,0,0,0,0,277.1524638,0,0,0,0,0,0,,,,
31.73599998,123,0,168.3260079,0,0,0,0,0,0,0,9.083132747,0,0,0,0,0,0,,,,
31.74399998,124,0,-601.4367024,0,0,0,0,0,0,0,150.94663,0,0,0,0,0,0,,,,
31.75199998,124,0,693.4441405,0,0,0,0,0,0,0,150.5411922,0,0,0,0,0,0,,,,
31.75999998,124,0,-619.8513468,0,0,0,0,0,0,0,-42.64227064,0,0,0,0,0,0,,,,
31.76799998,124,0,154.8836161,0,0,0,0,0,0,0,246.9544279,0,0,0,0,0,0,,,,
31.77599998,124,0,187.0484669,0,0,0,0,0,0,0,11.3379783,0,0,0,0,0,0,,,,
31.78399998,124,0,-646.4605757,0,0,0,0,0,0,0,173.4304839,0,0,0,0,0,0,,,,
31.79199998,124,0,690.8352551,0,0,0,0,0,0,0,184.2223534,0,0,0,0,0,0,,,,
31.79999998,124,0,-595.8692799,0,0,0,0,0,0,0,-40.16830708,0,0,0,0,0,0,,,,
31.80799998,124,0,106.6099237,0,0,0,0,0,0,0,235.6701694,0,0,0,0,0,0,,,,
31.81599998,124,0,203.8555908,0,0,0,0,0,0,0,-18.34672661,0,0,0,0,0,0,,,,
31.82399998,124,0,-651.0280202,0,0,0,0,0,0,0,113.4888832,0,0,0,0,0,0,,,,
31.83199998,124,0,694.2175622,0,0,0,0,0,0,0,181.7946648,0,0,0,0,0,0,,,,
31.83999998,124,0,-570.2739132,0,0,0,0,0,0,0,17.93036372,0,0,0,0,0,0,,,,
31.84799998,124,0,120.476472,0,0,0,0,0,0,0,282.8995066,0,0,0,0,0,0,,,,
31.85599998,124,0,289.3326142,0,0,0,0,0,0,0,-22.52248837,0,0,0,0,0,0,,,,
31.86399998,124,0,-640.3519957,0,0,0,0,0,0,0,88.2193767,0,0,0,0,0,0,,,,
31.87199998,124,0,698.3168167,0,0,0,0,0,0,0,178.5703582,0,0,0,0,0,0,,,,
31.87999998,124,0,-533.2626915,0,0,0,0,0,0,0,-15.23415731,0,0,0,0,0,0,,,,
31.88799998,124,0,93.88425314,0,0,0,0,0,0,0,248.9526037,0,0,0,0,0,0,,,,
31.89599998,124,0,293.3073628,0,0,0,0,0,0,0,-17.4820579,0,0,0,0,0,0,,,,
31.90399998,124,0,-662.836815,0,0,0,0,0,0,0,93.16943343,0,0,0,0,0,0,,,,
31.91199998,124,0,701.0069886,0,0,0,0,0,0,0,184.2587914,0,0,0,0,0,0,,,,
31.91999998,124,0,-505.6735744,0,0,0,0,0,0,0,-36.66505682,0,0,0,0,0,0,,,,
31.92799998,124,0,67.92199161,0,0,0,0,0,0,0,238.1648301,0,0,0,0,0,0,,,,
31.93599998,124,0,312.1427458,0,0,0,0,0,0,0,17.75483814,0,0,0,0,0,0,,,,
31.94399998,124,0,-681.7942881,0,0,0,0,0,0,0,119.6742277,0,0,0,0,0,0,,,,
31.95199998,124,0,683.239225,0,0,0,0,0,0,0,208.0386012,0,0,0,0,0,0,,,,
31.95999998,124,0,-495.1183416,0,0,0,0,0,0,0,-13.72026476,0,0,0,0,0,0,,,,
31.96799998,124,0,38.48267625,0,0,0,0,0,0,0,256.7320958,0,0,0,0,0,0,,,,
31.97599998,124,0,340.7777254,0,0,0,0,0,0,0,42.40690817,0,0,0,0,0,0,,,,
31.98399998,124,0,-664.1583376,0,0,0,0,0,0,0,113.3070008,0,0,0,0,0,0,,,,
31.99199998,124,0,712.4723385,0,0,0,0,0,0,0,173.8996428,0,0,0,0,0,0,,,,
31.99999998,125,0,-446.4816094,0,0,0,0,0,0,0,-34.29623179,0,0,0,0,0,0,,,,
32.00799998,125,0,42.72903595,0,0,0,0,0,0,0,236.2514078,0,0,0,0,0,0,,,,
32.01599998,125,0,392.97902,0,0,0,0,0,0,0,10.34121537,0,0,0,0,0,0,,,,
32.02399998,125,0,-653.2161121,0,0,0,0,0,0,0,98.14259414,0,0,0,0,0,0,,,,
32.03199998,125,0,695.1712303,0,0,0,0,0,0,0,188.2664175,0,0,0,0,0,0,,,,
32.03999998,125,0,-467.9356217,0,0,0,0,0,0,0,17.9188861,0,0,0,0,0,0,,,,
32.04799998,125,0,-17.1562588,0,0,0,0,0,0,0,310.4189005,0,0,0,0,0,0,,,,
32.05599998,125,0,372.359019,0,0,0,0,0,0,0,57.5638375,0,0,0,0,0,0,,,,
32.06399998,125,0,-705.9641525,0,0,0,0,0,0,0,147.7874101,0,0,0,0,0,0,,,,
32.07199998,125,0,721.1304593,0,0,0,0,0,0,0,208.4220548,0,0,0,0,0,0,,,,
32.07999998,125,0,-375.0153091,0,0,0,0,0,0,0,-69.28854418,0,0,0,0,0,0,,,,
32.08799998,125,0,16.04319723,0,0,0,0,0,0,0,231.5399573,0,0,0,0,0,0,,,,
32.09599998,125,0,460.8344058,0,0,0,0,0,0,0,18.5313886,0,0,0,0,0,0,,,,
32.10399998,125,0,-685.6179628,0,0,0,0,0,0,0,101.033999,0,0,0,0,0,0,,,,
32.11199998,125,0,693.7186276,0,0,0,0,0,0,0,232.9352492,0,0,0,0,0,0,,,,
32.11999998,125,0,-381.8461661,0,0,0,0,0,0,0,-3.048586911,0,0,0,0,0,0,,,,
32.12799998,125,0,-59.96112151,0,0,0,0,0,0,0,291.6352336,0,0,0,0,0,0,,,,
32.13599998,125,0,440.9768488,0,0,0,0,0,0,0,72.52663089,0,0,0,0,0,0,,,,
32.14399998,125,0,-691.8970005,0,0,0,0,0,0,0,102.5700519,0,0,0,0,0,0,,,,
32.15199998,125,0,680.8220694,0,0,0,0,0,0,0,201.4402289,0,0,0,0,0,0,,,,
32.15999998,125,0,-379.4521881,0,0,0,0,0,0,0,-46.30768786,0,0,0,0,0,0,,,,
32.16799998,125,0,-92.52737123,0,0,0,0,0,0,0,243.5700733,0,0,0,0,0,0,,,,
32.17599998,125,0,453.1186616,0,0,0,0,0,0,0,26.51269996,0,0,0,0,0,0,,,,
32.18399998,125,0,-713.957338,0,0,0,0,0,0,0,59.04516246,0,0,0,0,0,0,,,,
32.19199998,125,0,676.4090854,0,0,0,0,0,0,0,188.0131414,0,0,0,0,0,0,,,,
32.19999998,125,0,-336.2814602,0,0,0,0,0,0,0,-58.0190965,0,0,0,0,0,0,,,,
32.20799998,125,0,-106.9617449,0,0,0,0,0,0,0,244.9546461,0,0,0,0,0,0,,,,
32.21599998,125,0,484.4087622,0,0,0,0,0,0,0,51.44045037,0,0,0,0,0,0,,,,
32.22399998,125,0,-729.9962638,0,0,0,0,0,0,0,63.32091041,0,0,0,0,0,0,,,,
32.23199998,125,0,610.2643457,0,0,0,0,0,0,0,218.3328519,0,0,0,0,0,0,,,,
32.23999998,125,0,-352.7894298,0,0,0,0,0,0,0,-24.52583257,0,0,0,0,0,0,,,,
32.24799998,125,0,-72.10343684,0,0,0,0,0,0,0,401.8934964,0,0,0,0,0,0,,,,
32.25599998,126,0,1090.685237,0,0,0,0,0,0,0,385.9414223,0,0,0,0,0,0,,,,
32.26399998,126,0,-230.1435147,0,0,0,0,0,0,0,215.1698444,0,0,0,0,0,0,,,,
32.27199998,126,0,573.2128397,0,0,0,0,0,0,0,410.6082908,0,0,0,0,0,0,,,,
32.27999998,126,0,335.1684351,0,0,0,0,0,0,0,113.1845738,0,0,0,0,0,0,,,,
32.28799998,126,0,-527.0674697,0,0,0,0,0,0,0,31.40361845,0,0,0,0,0,0,,,,
32.29599998,126,0,60.95536487,0,0,0,0,0,0,0,250.6786552,0,0,0,0,0,0,,,,
32.30399998,126,0,176.4353394,0,0,0,0,0,0,0,125.0036826,0,0,0,0,0,0,,,,
32.31199998,126,0,-300.1396041,0,0,0,0,0,0,0,66.94232831,0,0,0,0,0,0,,,,
32.31999998,126,0,36.05244545,0,0,0,0,0,0,0,227.3680833,0,0,0,0,0,0,,,,
32.32799998,126,0,154.3310696,0,0,0,0,0,0,0,67.24642939,0,0,0,0,0,0,,,,
32.33599998,126,0,-464.9469745,0,0,0,0,0,0,0,120.5314502,0,0,0,0,0,0,,,,
32.34399998,126,0,428.7039578,0,0,0,0,0,0,0,157.7147252,0,0,0,0,0,0,,,,
32.35199998,126,0,-255.2848336,0,0,0,0,0,0,0,-32.59536135,0,0,0,0,0,0,,,,
32.35999998,126,0,-175.4969531,0,0,0,0,0,0,0,204.9002497,0,0,0,0,0,0,,,,
32.36799998,126,0,382.2330869,0,0,0,0,0,0,0,55.79360633,0,0,0,0,0,0,,,,
32.37599998,126,0,-707.1658172,0,0,0,0,0,0,0,64.29024748,0,0,0,0,0,0,,,,
32.38399998,126,0,456.577423,0,0,0,0,0,0,0,204.4064335,0,0,0,0,0,0,,,,
32.39199998,126,0,-286.1441619,0,0,0,0,0,0,0,-1.376673809,0,0,0,0,0,0,,,,
32.39999998,126,0,-273.0521344,0,0,0,0,0,0,0,248.1746899,0,0,0,0,0,0,,,,
32.40799998,126,0,463.2757944,0,0,0,0,0,0,0,77.92994915,0,0,0,0,0,0,,,,
32.41599998,126,0,-815.3686755,0,0,0,0,0,0,0,80.12649567,0,0,0,0,0,0,,,,
32.42399998,126,0,481.7903775,0,0,0,0,0,0,0,231.0419049,0,0,0,0,0,0,,,,
32.43199998,126,0,-253.6394806,0,0,0,0,0,0,0,-56.31706073,0,0,0,0,0,0,,,,
32.43999998,126,0,-329.2511272,0,0,0,0,0,0,0,216.5520383,0,0,0,0,0,0,,,,
32.44799998,126,0,515.2179105,0,0,0,0,0,0,0,72.83816516,0,0,0,0,0,0,,,,
32.45599998,126,0,-802.3538218,0,0,0,0,0,0,0,30.54453859,0,0,0,0,0,0,,,,
32.46399998,126,0,483.9120659,0,0,0,0,0,0,0,203.0435563,0,0,0,0,0,0,,,,
32.47199998,126,0,-211.3682985,0,0,0,0,0,0,0,-88.67571725,0,0,0,0,0,0,,,,
32.47999998,126,0,-305.5053792,0,0,0,0,0,0,0,160.3676988,0,0,0,0,0,0,,,,
32.48799998,126,0,561.9658665,0,0,0,0,0,0,0,48.56236046,0,0,0,0,0,0,,,,
32.49599998,126,0,-825.9165726,0,0,0,0,0,0,0,75.10961115,0,0,0,0,0,0,,,,
32.50399998,126,0,458.1297833,0,0,0,0,0,0,0,301.1293962,0,0,0,0,0,0,,,,
32.51199998,127,0,-190.7508899,0,0,0,0,0,0,0,-13.05092006,0,0,0,0,0,0,,,,
32.51999998,127,0,-356.2017392,0,0,0,0,0,0,0,232.8641614,0,0,0,0,0,0,,,,
32.52799998,127,0,577.3217329,0,0,0,0,0,0,0,94.93454388,0,0,0,0,0,0,,,,
32.53599998,127,0,-790.8202283,0,0,0,0,0,0,0,16.58100721,0,0,0,0,0,0,,,,
32.54399998,127,0,428.3094417,0,0,0,0,0,0,0,253.7578844,0,0,0,0,0,0,,,,
32.55199998,127,0,-208.08307,0,0,0,0,0,0,0,8.810722309,0,0,0,0,0,0,,,,
32.55999998,127,0,-392.5519217,0,0,0,0,0,0,0,243.4953105,0,0,0,0,0,0,,,,
32.56799998,127,0,579.7627733,0,0,0,0,0,0,0,96.45788481,0,0,0,0,0,0,,,,
32.57599998,127,0,-798.8454355,0,0,0,0,0,0,0,32.04977879,0,0,0,0,0,0,,,,
32.58399998,127,0,432.6878255,0,0,0,0,0,0,0,247.6275762,0,0,0,0,0,0,,,,
32.59199998,127,0,-145.9513792,0,0,0,0,0,0,0,-66.62174824,0,0,0,0,0,0,,,,
32.59999998,127,0,-411.7364629,0,0,0,0,0,0,0,171.330978,0,0,0,0,0,0,,,,
32.60799998,127,0,576.4200288,0,0,0,0,0,0,0,89.7767524,0,0,0,0,0,0,,,,
32.61599998,127,0,-805.7279196,0,0,0,0,0,0,0,10.73074935,0,0,0,0,0,0,,,,
32.62399998,127,0,405.4442422,0,0,0,0,0,0,0,211.6143739,0,0,0,0,0,0,,,,
32.63199998,127,0,-114.5950978,0,0,0,0,0,0,0,-80.32899537,0,0,0,0,0,0,,,,
32.63999998,127,0,-427.5757734,0,0,0,0,0,0,0,148.9539302,0,0,0,0,0,0,,,,
32.64799998,127,0,602.7060772,0,0,0,0,0,0,0,55.38866599,0,0,0,0,0,0,,,,
32.65599998,127,0,-777.9880866,0,0,0,0,0,0,0,-21.13180276,0,0,0,0,0,0,,,,
32.66399998,127,0,370.6167758,0,0,0,0,0,0,0,181.0401943,0,0,0,0,0,0,,,,
32.67199998,127,0,-147.4145799,0,0,0,0,0,0,0,-116.3670592,0,0,0,0,0,0,,,,
32.67999998,127,0,-523.9385531,0,0,0,0,0,0,0,148.9729409,0,0,0,0,0,0,,,,
32.68799998,127,0,540.9850913,0,0,0,0,0,0,0,67.04950161,0,0,0,0,0,0,,,,
32.69599998,127,0,-834.3531893,0,0,0,0,0,0,0,-65.96970544,0,0,0,0,0,0,,,,
32.70399998,127,0,311.1907038,0,0,0,0,0,0,0,165.9220123,0,0,0,0,0,0,,,,
32.71199998,127,0,-128.4251746,0,0,0,0,0,0,0,-103.9905002,0,0,0,0,0,0,,,,
32.71999998,127,0,-523.9266485,0,0,0,0,0,0,0,116.9560553,0,0,0,0,0,0,,,,
32.72799998,127,0,982.5046236,0,0,0,0,0,0,0,143.8535916,0,0,0,0,0,0,,,,
32.73599998,127,0,-276.9549115,0,0,0,0,0,0,0,9.259493427,0,0,0,0,0,0,,,,
32.74399998,127,0,-150.5489642,0,0,0,0,0,0,0,129.3320088,0,0,0,0,0,0,,,,
32.75199998,127,0,-929.3442769,0,0,0,0,0,0,0,-9.007436138,0,0,0,0,0,0,,,,
32.75999998,127,0,-1609.724545,0,0,0,0,0,0,0,132.8999132,0,0,0,0,0,0,,,,
32.76799998,128,0,-546.2286536,0,0,0,0,0,0,0,83.58512875,0,0,0,0,0,0,,,,
32.77599998,128,0,-488.9599545,0,0,0,0,0,0,0,109.7088237,0,0,0,0,0,0,,,,
32.78399998,128,0,542.8403356,0,0,0,0,0,0,0,157.118474,0,0,0,0,0,0,,,,
32.79199998,128,0,-288.3617134,0,0,0,0,0,0,0,-42.04722046,0,0,0,0,0,0,,,,
32.79999998,128,0,-222.833868,0,0,0,0,0,0,0,177.4716057,0,0,0,0,0,0,,,,
32.80799998,128,0,583.8034277,0,0,0,0,0,0,0,45.68177191,0,0,0,0,0,0,,,,
32.81599998,128,0,-720.5789704,0,0,0,0,0,0,0,17.88533374,0,0,0,0,0,0,,,,
32.82399998,128,0,443.4389865,0,0,0,0,0,0,0,208.4818689,0,0,0,0,0,0,,,,
32.83199998,128,0,-35.48913497,0,0,0,0,0,0,0,-39.7646624,0,0,0,0,0,0,,,,
32.83999998,128,0,-409.8944563,0,0,0,0,0,0,0,182.0350349,0,0,0,0,0,0,,,,
32.84799998,128,0,667.8561845,0,0,0,0,0,0,0,139.12409,0,0,0,0,0,0,,,,
32.85599998,128,0,-635.6169511,0,0,0,0,0,0,0,7.296980551,0,0,0,0,0,0,,,,
32.86399998,128,0,391.5471361,0,0,0,0,0,0,0,209.6296051,0,0,0,0,0,0,,,,
32.87199998,128,0,94.93748213,0,0,0,0,0,0,0,-32.99433831,0,0,0,0,0,0,,,,
32.87999998,128,0,-406.3791924,0,0,0,0,0,0,0,142.7670102,0,0,0,0,0,0,,,,
32.88799998,128,0,753.4036582,0,0,0,0,0,0,0,108.6891212,0,0,0,0,0,0,,,,
32.89599998,128,0,-608.3347295,0,0,0,0,0,0,0,24.73775294,0,0,0,0,0,0,,,,
32.90399998,128,0,350.787855,0,0,0,0,0,0,0,293.1292176,0,0,0,0,0,0,,,,
32.91199998,128,0,148.7131742,0,0,0,0,0,0,0,24.31449843,0,0,0,0,0,0,,,,
32.91999998,128,0,-449.4699472,0,0,0,0,0,0,0,177.2321984,0,0,0,0,0,0,,,,
32.92799998,128,0,758.4351275,0,0,0,0,0,0,0,145.6265694,0,0,0,0,0,0,,,,
32.93599998,128,0,-611.6126464,0,0,0,0,0,0,0,21.36075298,0,0,0,0,0,0,,,,
32.94399998,128,0,312.7048426,0,0,0,0,0,0,0,270.3355902,0,0,0,0,0,0,,,,
32.95199998,128,0,172.7000048,0,0,0,0,0,0,0,0.254224799,0,0,0,0,0,0,,,,
32.95999998,128,0,-493.4482498,0,0,0,0,0,0,0,153.1559192,0,0,0,0,0,0,,,,
32.96799998,128,0,755.329842,0,0,0,0,0,0,0,106.3251229,0,0,0,0,0,0,,,,
32.97599998,128,0,-599.5548466,0,0,0,0,0,0,0,-52.47137402,0,0,0,0,0,0,,,,
32.98399998,128,0,289.6200252,0,0,0,0,0,0,0,211.3649796,0,0,0,0,0,0,,,,
32.99199998,128,0,199.6611061,0,0,0,0,0,0,0,-48.5122646,0,0,0,0,0,0,,,,
32.99999998,128,0,-528.2746901,0,0,0,0,0,0,0,137.5113151,0,0,0,0,0,0,,,,
33.00799998,128,0,769.8795735,0,0,0,0,0,0,0,139.9300684,0,0,0,0,0,0,,,,
33.01599998,128,0,-542.4197663,0,0,0,0,0,0,0,-63.72676155,0,0,0,0,0,0,,,,
33.02399998,129,0,288.1242883,0,0,0,0,0,0,0,214.1608163,0,0,0,0,0,0,,,,
33.03199998,129,0,227.4817162,0,0,0,0,0,0,0,34.34947276,0,0,0,0,0,0,,,,
33.03999998,129,0,-535.8732265,0,0,0,0,0,0,0,210.7722224,0,0,0,0,0,0,,,,
33.04799998,129,0,784.688466,0,0,0,0,0,0,0,180.0895668,0,0,0,0,0,0,,,,
33.05599998,129,0,-540.5734088,0,0,0,0,0,0,0,-2.765488388,0,0,0,0,0,0,,,,
33.06399998,129,0,250.7548931,0,0,0,0,0,0,0,280.9745944,0,0,0,0,0,0,,,,
33.07199998,129,0,270.9050797,0,0,0,0,0,0,0,19.02645397,0,0,0,0,0,0,,,,
33.07999998,129,0,-541.1889183,0,0,0,0,0,0,0,168.7001002,0,0,0,0,0,0,,,,
33.08799998,129,0,776.4444347,0,0,0,0,0,0,0,210.7560597,0,0,0,0,0,0,,,,
33.09599998,129,0,-518.9969655,0,0,0,0,0,0,0,27.82056232,0,0,0,0,0,0,,,,
33.10399998,129,0,233.2349662,0,0,0,0,0,0,0,299.1169583,0,0,0,0,0,0,,,,
33.11199998,129,0,262.9974625,0,0,0,0,0,0,0,49.15084725,0,0,0,0,0,0,,,,
33.11999998,129,0,-598.4567637,0,0,0,0,0,0,0,173.1404191,0,0,0,0,0,0,,,,
33.12799998,129,0,765.4457087,0,0,0,0,0,0,0,202.3401428,0,0,0,0,0,0,,,,
33.13599998,129,0,-509.3118315,0,0,0,0,0,0,0,3.997003932,0,0,0,0,0,0,,,,
33.14399998,129,0,190.5071221,0,0,0,0,0,0,0,288.3797425,0,0,0,0,0,0,,,,
33.15199998,129,0,291.3816414,0,0,0,0,0,0,0,67.8560374,0,0,0,0,0,0,,,,
33.15999998,129,0,-591.4135119,0,0,0,0,0,0,0,179.5496084,0,0,0,0,0,0,,,,
33.16799998,129,0,774.7101983,0,0,0,0,0,0,0,193.5607063,0,0,0,0,0,0,,,,
33.17599998,129,0,-472.6877025,0,0,0,0,0,0,0,-38.58382437,0,0,0,0,0,0,,,,
33.18399998,129,0,190.2478695,0,0,0,0,0,0,0,205.3799784,0,0,0,0,0,0,,,,
33.19199998,129,0,319.5104076,0,0,0,0,0,0,0,-5.545417399,0,0,0,0,0,0,,,,
33.19999998,129,0,-605.6727741,0,0,0,0,0,0,0,141.6875218,0,0,0,0,0,0,,,,
33.20799998,129,0,758.3929623,0,0,0,0,0,0,0,176.6854076,0,0,0,0,0,0,,,,
33.21599998,129,0,-1021.691696,0,0,0,0,0,0,0,-37.99107998,0,0,0,0,0,0,,,,
33.22399998,129,0,-252.8225963,0,0,0,0,0,0,0,301.5002017,0,0,0,0,0,0,,,,
33.23199998,129,0,995.8268884,0,0,0,0,0,0,0,14.11850283,0,0,0,0,0,0,,,,
33.23999998,129,0,-931.5271164,0,0,0,0,0,0,0,-9.2846268,0,0,0,0,0,0,,,,
33.24799998,129,0,552.9909928,0,0,0,0,0,0,0,214.7388999,0,0,0,0,0,0,,,,
33.25599998,129,0,107.093743,0,0,0,0,0,0,0,-97.98680777,0,0,0,0,0,0,,,,
33.26399998,129,0,-573.6055565,0,0,0,0,0,0,0,144.8879115,0,0,0,0,0,0,,,,
33.27199998,129,0,800.2974818,0,0,0,0,0,0,0,136.9312495,0,0,0,0,0,0,,,,
33.27999998,130,0,-619.0240415,0,0,0,0,0,0,0,-21.84515332,0,0,0,0,0,0,,,,
33.28799998,130,0,185.3323013,0,0,0,0,0,0,0,214.5500512,0,0,0,0,0,0,,,,
33.29599998,130,0,259.081681,0,0,0,0,0,0,0,-20.58208091,0,0,0,0,0,0,,,,
33.30399998,130,0,-638.228083,0,0,0,0,0,0,0,92.7194251,0,0,0,0,0,0,,,,
33.31199998,130,0,727.9186034,0,0,0,0,0,0,0,129.2304465,0,0,0,0,0,0,,,,
33.31999998,130,0,-505.589769,0,0,0,0,0,0,0,-69.40108949,0,0,0,0,0,0,,,,
33.32799998,130,0,55.10379101,0,0,0,0,0,0,0,184.6915788,0,0,0,0,0,0,,,,
33.33599998,130,0,353.562915,0,0,0,0,0,0,0,-47.63752933,0,0,0,0,0,0,,,,
33.34399998,130,0,-669.264871,0,0,0,0,0,0,0,23.93268231,0,0,0,0,0,0,,,,
33.35199998,130,0,706.7499488,0,0,0,0,0,0,0,120.928421,0,0,0,0,0,0,,,,
33.35999998,130,0,-447.1588129,0,0,0,0,0,0,0,-31.37331674,0,0,0,0,0,0,,,,
33.36799998,130,0,20.16197758,0,0,0,0,0,0,0,287.2406233,0,0,0,0,0,0,,,,
33.37599998,130,0,410.5530322,0,0,0,0,0,0,0,72.76432109,0,0,0,0,0,0,,,,
33.38399998,130,0,-689.3853522,0,0,0,0,0,0,0,159.5550522,0,0,0,0,0,0,,,,
33.39199998,130,0,735.3241843,0,0,0,0,0,0,0,240.3999937,0,0,0,0,0,0,,,,
33.39999998,130,0,-381.8911854,0,0,0,0,0,0,0,-18.38166458,0,0,0,0,0,0,,,,
33.40799998,130,0,-26.8047866,0,0,0,0,0,0,0,291.2835441,0,0,0,0,0,0,,,,
33.41599998,130,0,436.6438187,0,0,0,0,0,0,0,90.16438219,0,0,0,0,0,0,,,,
33.42399998,130,0,-691.0289211,0,0,0,0,0,0,0,144.3662729,0,0,0,0,0,0,,,,
33.43199998,130,0,704.4631686,0,0,0,0,0,0,0,254.9128728,0,0,0,0,0,0,,,,
33.43999998,130,0,-392.1154083,0,0,0,0,0,0,0,1.675505946,0,0,0,0,0,0,,,,
33.44799998,130,0,-89.01317534,0,0,0,0,0,0,0,308.1142688,0,0,0,0,0,0,,,,
33.45599998,130,0,427.2934959,0,0,0,0,0,0,0,121.2972595,0,0,0,0,0,0,,,,
33.46399998,130,0,-732.2599476,0,0,0,0,0,0,0,139.8882413,0,0,0,0,0,0,,,,
33.47199998,130,0,650.8605416,0,0,0,0,0,0,0,278.6923736,0,0,0,0,0,0,,,,
33.47999998,130,0,-367.70987,0,0,0,0,0,0,0,79.53286032,0,0,0,0,0,0,,,,
33.48799998,130,0,-66.39017942,0,0,0,0,0,0,0,346.2314583,0,0,0,0,0,0,,,,
33.49599998,130,0,470.7436741,0,0,0,0,0,0,0,129.1934075,0,0,0,0,0,0,,,,
33.50399998,130,0,-723.445043,0,0,0,0,0,0,0,174.9257875,0,0,0,0,0,0,,,,
33.51199998,130,0,685.8601008,0,0,0,0,0,0,0,295.1963997,0,0,0,0,0,0,,,,
33.51999998,130,0,-317.1919383,0,0,0,0,0,0,0,23.18430464,0,0,0,0,0,0,,,,
33.52799998,130,0,-93.64948594,0,0,0,0,0,0,0,305.7673147,0,0,0,0,0,0,,,,
33.53599998,131,0,512.0444342,0,0,0,0,0,0,0,142.0429674,0,0,0,0,0,0,,,,
33.54399998,131,0,-699.65197,0,0,0,0,0,0,0,152.3395882,0,0,0,0,0,0,,,,
33.55199998,131,0,663.7226549,0,0,0,0,0,0,0,265.9900709,0,0,0,0,0,0,,,,
33.55999998,131,0,-339.4572585,0,0,0,0,0,0,0,55.14033633,0,0,0,0,0,0,,,,
33.56799998,131,0,-160.6023458,0,0,0,0,0,0,0,364.5168994,0,0,0,0,0,0,,,,
33.57599998,131,0,519.5719435,0,0,0,0,0,0,0,160.8100609,0,0,0,0,0,0,,,,
33.58399998,131,0,-723.4700885,0,0,0,0,0,0,0,160.4471771,0,0,0,0,0,0,,,,
33.59199998,131,0,633.4334165,0,0,0,0,0,0,0,318.6509003,0,0,0,0,0,0,,,,
33.59999998,131,0,-272.757857,0,0,0,0,0,0,0,44.79954684,0,0,0,0,0,0,,,,
33.60799998,131,0,-125.0993615,0,0,0,0,0,0,0,271.7649045,0,0,0,0,0,0,,,,
33.61599998,131,0,570.5015627,0,0,0,0,0,0,0,104.8543826,0,0,0,0,0,0,,,,
33.62399998,131,0,-709.0641359,0,0,0,0,0,0,0,140.5980235,0,0,0,0,0,0,,,,
33.63199998,131,0,635.3776129,0,0,0,0,0,0,0,288.6168673,0,0,0,0,0,0,,,,
33.63999998,131,0,-228.1432267,0,0,0,0,0,0,0,1.436555625,0,0,0,0,0,0,,,,
33.64799998,131,0,-137.1494559,0,0,0,0,0,0,0,251.572928,0,0,0,0,0,0,,,,
33.65599998,131,0,584.4171452,0,0,0,0,0,0,0,87.31796305,0,0,0,0,0,0,,,,
33.66399998,131,0,-715.6436181,0,0,0,0,0,0,0,95.68387992,0,0,0,0,0,0,,,,
33.67199998,131,0,619.0884076,0,0,0,0,0,0,0,260.3994861,0,0,0,0,0,0,,,,
33.67999998,131,0,-700.4776127,0,0,0,0,0,0,0,-112.7732856,0,0,0,0,0,0,,,,
33.68799998,131,0,-650.2562144,0,0,0,0,0,0,0,159.8013432,0,0,0,0,0,0,,,,
33.69599998,131,0,1235.158941,0,0,0,0,0,0,0,93.9434131,0,0,0,0,0,0,,,,
33.70399998,131,0,-1254.862911,0,0,0,0,0,0,0,-249.7860869,0,0,0,0,0,0,,,,
33.71199998,131,0,-945.4101361,0,0,0,0,0,0,0,-64.00021029,0,0,0,0,0,0,,,,
33.71999998,131,0,263.5389163,0,0,0,0,0,0,0,49.47754723,0,0,0,0,0,0,,,,
33.72799998,131,0,34.24286975,0,0,0,0,0,0,0,180.6890852,0,0,0,0,0,0,,,,
33.73599998,131,0,247.1433949,0,0,0,0,0,0,0,51.01577499,0,0,0,0,0,0,,,,
33.74399998,131,0,-333.5926783,0,0,0,0,0,0,0,103.8670814,0,0,0,0,0,0,,,,
33.75199998,131,0,440.3729064,0,0,0,0,0,0,0,203.332828,0,0,0,0,0,0,,,,
33.75999998,131,0,-125.396575,0,0,0,0,0,0,0,8.820198242,0,0,0,0,0,0,,,,
33.76799998,131,0,-100.3116688,0,0,0,0,0,0,0,201.1602807,0,0,0,0,0,0,,,,
33.77599998,131,0,494.9601391,0,0,0,0,0,0,0,53.91653894,0,0,0,0,0,0,,,,
33.78399998,131,0,-586.554733,0,0,0,0,0,0,0,38.95225184,0,0,0,0,0,0,,,,
33.79199998,132,0,532.0224572,0,0,0,0,0,0,0,164.211082,0,0,0,0,0,0,,,,
33.79999998,132,0,-107.8966896,0,0,0,0,0,0,0,-107.2777707,0,0,0,0,0,0,,,,
33.80799998,132,0,-178.6044835,0,0,0,0,0,0,0,109.6642617,0,0,0,0,0,0,,,,
33.81599998,132,0,649.4967189,0,0,0,0,0,0,0,-40.80293998,0,0,0,0,0,0,,,,
33.82399998,132,0,-645.3539,0,0,0,0,0,0,0,-79.39971841,0,0,0,0,0,0,,,,
33.83199998,132,0,556.1873776,0,0,0,0,0,0,0,127.4271688,0,0,0,0,0,0,,,,
33.83999998,132,0,-80.6449362,0,0,0,0,0,0,0,-163.5491186,0,0,0,0,0,0,,,,
33.84799998,132,0,-288.5444952,0,0,0,0,0,0,0,48.21296233,0,0,0,0,0,0,,,,
33.85599998,132,0,592.297383,0,0,0,0,0,0,0,-55.5550462,0,0,0,0,0,0,,,,
33.86399998,132,0,-758.9125979,0,0,0,0,0,0,0,-120.8975156,0,0,0,0,0,0,,,,
33.87199998,132,0,463.2677738,0,0,0,0,0,0,0,70.67831851,0,0,0,0,0,0,,,,
33.87999998,132,0,-133.6531217,0,0,0,0,0,0,0,-203.2451167,0,0,0,0,0,0,,,,
33.88799998,132,0,-342.110648,0,0,0,0,0,0,0,14.0256083,0,0,0,0,0,0,,,,
33.89599998,132,0,634.8835777,0,0,0,0,0,0,0,-104.182363,0,0,0,0,0,0,,,,
33.90399998,132,0,-709.9617405,0,0,0,0,0,0,0,-169.5523593,0,0,0,0,0,0,,,,
33.91199998,132,0,500.2151864,0,0,0,0,0,0,0,40.13620108,0,0,0,0,0,0,,,,
33.91999998,132,0,-88.21166765,0,0,0,0,0,0,0,-231.000841,0,0,0,0,0,0,,,,
33.92799998,132,0,-347.7491578,0,0,0,0,0,0,0,28.49735834,0,0,0,0,0,0,,,,
33.93599998,132,0,661.4545828,0,0,0,0,0,0,0,-56.04568266,0,0,0,0,0,0,,,,
33.94399998,132,0,-699.2381984,0,0,0,0,0,0,0,-136.3550254,0,0,0,0,0,0,,,,
33.95199998,132,0,517.0730833,0,0,0,0,0,0,0,65.08911094,0,0,0,0,0,0,,,,
33.95999998,132,0,-34.06206883,0,0,0,0,0,0,0,-225.9850867,0,0,0,0,0,0,,,,
33.96799998,132,0,-378.0529414,0,0,0,0,0,0,0,43.11727332,0,0,0,0,0,0,,,,
33.97599998,132,0,674.61128,0,0,0,0,0,0,0,-19.33135646,0,0,0,0,0,0,,,,
33.98399998,132,0,-696.6462595,0,0,0,0,0,0,0,-138.3563606,0,0,0,0,0,0,,,,
33.99199998,132,0,457.2173047,0,0,0,0,0,0,0,48.91670712,0,0,0,0,0,0,,,,
33.99999998,132,0,-25.83010606,0,0,0,0,0,0,0,-237.9138664,0,0,0,0,0,0,,,,
34.00799998,132,0,-390.3473075,0,0,0,0,0,0,0,-22.47962281,0,0,0,0,0,0,,,,
34.01599998,132,0,678.4829288,0,0,0,0,0,0,0,-127.3438569,0,0,0,0,0,0,,,,
34.02399998,132,0,-702.0970119,0,0,0,0,0,0,0,-208.9503486,0,0,0,0,0,0,,,,
34.03199998,132,0,434.2965209,0,0,0,0,0,0,0,48.12670462,0,0,0,0,0,0,,,,
34.03999998,132,0,-0.872575609,0,0,0,0,0,0,0,-224.8219166,0,0,0,0,0,0,,,,
34.04799998,133,0,-401.6073069,0,0,0,0,0,0,0,-0.675221591,0,0,0,0,0,0,,,,
34.05599998,133,0,733.0378846,0,0,0,0,0,0,0,-89.72710988,0,0,0,0,0,0,,,,
34.06399998,133,0,-645.8638292,0,0,0,0,0,0,0,-225.6568846,0,0,0,0,0,0,,,,
34.07199998,133,0,430.6710219,0,0,0,0,0,0,0,-1.160087761,0,0,0,0,0,0,,,,
34.07999998,133,0,32.75478793,0,0,0,0,0,0,0,-251.1154601,0,0,0,0,0,0,,,,
34.08799998,133,0,-418.2369585,0,0,0,0,0,0,0,-5.65037009,0,0,0,0,0,0,,,,
34.09599998,133,0,729.7169903,0,0,0,0,0,0,0,-87.17782509,0,0,0,0,0,0,,,,
34.10399998,133,0,-662.4970247,0,0,0,0,0,0,0,-224.4075646,0,0,0,0,0,0,,,,
34.11199998,133,0,368.7392473,0,0,0,0,0,0,0,44.24639879,0,0,0,0,0,0,,,,
34.11999998,133,0,24.0591315,0,0,0,0,0,0,0,-206.5275851,0,0,0,0,0,0,,,,
34.12799998,133,0,-459.587546,0,0,0,0,0,0,0,-19.45906378,0,0,0,0,0,0,,,,
34.13599998,133,0,702.5244994,0,0,0,0,0,0,0,-83.28648651,0,0,0,0,0,0,,,,
34.14399998,133,0,-671.9768458,0,0,0,0,0,0,0,-211.0496981,0,0,0,0,0,0,,,,
34.15199998,133,0,359.0467763,0,0,0,0,0,0,0,21.37881618,0,0,0,0,0,0,,,,
34.15999998,133,0,-302.3561771,0,0,0,0,0,0,0,-340.5364866,0,0,0,0,0,0,,,,
34.16799998,133,0,-1775.604101,0,0,0,0,0,0,0,-188.1926034,0,0,0,0,0,0,,,,
34.17599998,133,0,-369.7451468,0,0,0,0,0,0,0,-50.71714107,0,0,0,0,0,0,,,,
34.18399998,133,0,-356.529285,0,0,0,0,0,0,0,-183.8501974,0,0,0,0,0,0,,,,
34.19199998,133,0,480.4532088,0,0,0,0,0,0,0,-11.87083269,0,0,0,0,0,0,,,,
34.19999998,133,0,-112.772337,0,0,0,0,0,0,0,-174.0752382,0,0,0,0,0,0,,,,
34.20799998,133,0,-269.8768946,0,0,0,0,0,0,0,-41.12590395,0,0,0,0,0,0,,,,
34.21599998,133,0,649.2856514,0,0,0,0,0,0,0,-76.56150107,0,0,0,0,0,0,,,,
34.22399998,133,0,-655.9812238,0,0,0,0,0,0,0,-158.2785202,0,0,0,0,0,0,,,,
34.23199998,133,0,402.7482099,0,0,0,0,0,0,0,56.68136481,0,0,0,0,0,0,,,,
34.23999998,133,0,48.21422554,0,0,0,0,0,0,0,-167.2350111,0,0,0,0,0,0,,,,
34.24799998,133,0,-444.4304865,0,0,0,0,0,0,0,9.837945374,0,0,0,0,0,0,,,,
34.25599998,133,0,697.5784072,0,0,0,0,0,0,0,-44.72147484,0,0,0,0,0,0,,,,
34.26399998,133,0,-629.3047515,0,0,0,0,0,0,0,-188.1649779,0,0,0,0,0,0,,,,
34.27199998,133,0,329.4534641,0,0,0,0,0,0,0,44.96354596,0,0,0,0,0,0,,,,
34.27999998,133,0,131.9400227,0,0,0,0,0,0,0,-226.9525077,0,0,0,0,0,0,,,,
34.28799998,133,0,-491.2523865,0,0,0,0,0,0,0,-50.44342238,0,0,0,0,0,0,,,,
34.29599998,133,0,731.0547943,0,0,0,0,0,0,0,-80.47921996,0,0,0,0,0,0,,,,
34.30399998,134,0,-590.4762838,0,0,0,0,0,0,0,-237.6345939,0,0,0,0,0,0,,,,
34.31199998,134,0,317.0051577,0,0,0,0,0,0,0,18.31923597,0,0,0,0,0,0,,,,
34.31999998,134,0,216.7757139,0,0,0,0,0,0,0,-273.018905,0,0,0,0,0,0,,,,
34.32799998,134,0,-486.4151912,0,0,0,0,0,0,0,-101.689861,0,0,0,0,0,0,,,,
34.33599998,134,0,767.7397477,0,0,0,0,0,0,0,-80.13658916,0,0,0,0,0,0,,,,
34.34399998,134,0,-547.096351,0,0,0,0,0,0,0,-228.1520732,0,0,0,0,0,0,,,,
34.35199998,134,0,308.2678605,0,0,0,0,0,0,0,42.02355351,0,0,0,0,0,0,,,,
34.35999998,134,0,266.7783895,0,0,0,0,0,0,0,-231.8495778,0,0,0,0,0,0,,,,
34.36799998,134,0,-490.3867372,0,0,0,0,0,0,0,-76.00261461,0,0,0,0,0,0,,,,
34.37599998,134,0,766.7600937,0,0,0,0,0,0,0,-42.44088547,0,0,0,0,0,0,,,,
34.38399998,134,0,-546.8696616,0,0,0,0,0,0,0,-190.7650983,0,0,0,0,0,0,,,,
34.39199998,134,0,250.6830237,0,0,0,0,0,0,0,69.79036302,0,0,0,0,0,0,,,,
34.39999998,134,0,266.2111147,0,0,0,0,0,0,0,-202.1814588,0,0,0,0,0,0,,,,
34.40799998,134,0,-499.1718662,0,0,0,0,0,0,0,-72.41448074,0,0,0,0,0,0,,,,
34.41599998,134,0,791.4520713,0,0,0,0,0,0,0,-72.5135713,0,0,0,0,0,0,,,,
34.42399998,134,0,-495.3719167,0,0,0,0,0,0,0,-247.6249698,0,0,0,0,0,0,,,,
34.43199998,134,0,248.3115705,0,0,0,0,0,0,0,20.66874527,0,0,0,0,0,0,,,,
34.43999998,134,0,270.957553,0,0,0,0,0,0,0,-223.7082032,0,0,0,0,0,0,,,,
34.44799998,134,0,-557.2667926,0,0,0,0,0,0,0,-43.53563229,0,0,0,0,0,0,,,,
34.45599998,134,0,752.9248277,0,0,0,0,0,0,0,10.46842618,0,0,0,0,0,0,,,,
34.46399998,134,0,-500.3554216,0,0,0,0,0,0,0,-180.4634701,0,0,0,0,0,0,,,,
34.47199998,134,0,215.6261459,0,0,0,0,0,0,0,87.08259404,0,0,0,0,0,0,,,,
34.47999998,134,0,302.0310295,0,0,0,0,0,0,0,-152.8223335,0,0,0,0,0,0,,,,
34.48799998,134,0,-548.2270437,0,0,0,0,0,0,0,-19.32194411,0,0,0,0,0,0,,,,
34.49599998,134,0,790.0762428,0,0,0,0,0,0,0,-13.244133,0,0,0,0,0,0,,,,
34.50399998,134,0,-451.4666006,0,0,0,0,0,0,0,-243.6498545,0,0,0,0,0,0,,,,
34.51199998,134,0,207.0818011,0,0,0,0,0,0,0,37.08131019,0,0,0,0,0,0,,,,
34.51999998,134,0,372.4512812,0,0,0,0,0,0,0,-220.6123532,0,0,0,0,0,0,,,,
34.52799998,134,0,-511.1611768,0,0,0,0,0,0,0,-152.7026509,0,0,0,0,0,0,,,,
34.53599998,134,0,787.1789398,0,0,0,0,0,0,0,-93.68272111,0,0,0,0,0,0,,,,
34.54399998,134,0,-450.5681663,0,0,0,0,0,0,0,-242.1396236,0,0,0,0,0,0,,,,
34.55199998,134,0,153.4674399,0,0,0,0,0,0,0,51.41637805,0,0,0,0,0,0,,,,
34.55999998,135,0,354.256549,0,0,0,0,0,0,0,-195.2122218,0,0,0,0,0,0,,,,
34.56799998,135,0,-566.1476498,0,0,0,0,0,0,0,-92.5765612,0,0,0,0,0,0,,,,
34.57599998,135,0,750.0733639,0,0,0,0,0,0,0,-15.97367275,0,0,0,0,0,0,,,,
34.58399998,135,0,-407.745048,0,0,0,0,0,0,0,-223.3187372,0,0,0,0,0,0,,,,
34.59199998,135,0,163.1595363,0,0,0,0,0,0,0,37.37732465,0,0,0,0,0,0,,,,
34.59999998,135,0,396.2045075,0,0,0,0,0,0,0,-183.9535708,0,0,0,0,0,0,,,,
34.60799998,135,0,-525.2019646,0,0,0,0,0,0,0,-96.79353012,0,0,0,0,0,0,,,,
34.61599998,135,0,780.3346458,0,0,0,0,0,0,0,-40.99147821,0,0,0,0,0,0,,,,
34.62399998,135,0,-392.1939751,0,0,0,0,0,0,0,-249.8635712,0,0,0,0,0,0,,,,
34.63199998,135,0,125.4758536,0,0,0,0,0,0,0,19.65476333,0,0,0,0,0,0,,,,
34.63999998,135,0,225.684534,0,0,0,0,0,0,0,-307.0331758,0,0,0,0,0,0,,,,
34.64799998,135,0,-968.6772956,0,0,0,0,0,0,0,-219.0648436,0,0,0,0,0,0,,,,
34.65599998,135,0,936.1845917,0,0,0,0,0,0,0,58.89754526,0,0,0,0,0,0,,,,
34.66399998,135,0,-166.8352403,0,0,0,0,0,0,0,-320.75534,0,0,0,0,0,0,,,,
34.67199998,135,0,-350.898228,0,0,0,0,0,0,0,-69.85274695,0,0,0,0,0,0,,,,
34.67999998,135,0,862.6955528,0,0,0,0,0,0,0,-143.6699087,0,0,0,0,0,0,,,,
34.68799998,135,0,-664.7697401,0,0,0,0,0,0,0,-267.9241152,0,0,0,0,0,0,,,,
34.69599998,135,0,367.8678115,0,0,0,0,0,0,0,43.57058308,0,0,0,0,0,0,,,,
34.70399998,135,0,235.9629491,0,0,0,0,0,0,0,-256.3277614,0,0,0,0,0,0,,,,
34.71199998,135,0,-511.7724853,0,0,0,0,0,0,0,-99.45282485,0,0,0,0,0,0,,,,
34.71999998,135,0,736.4314912,0,0,0,0,0,0,0,-41.53431508,0,0,0,0,0,0,,,,
34.72799998,135,0,-448.5441167,0,0,0,0,0,0,0,-250.0635286,0,0,0,0,0,0,,,,
34.73599998,135,0,128.3415689,0,0,0,0,0,0,0,44.42382523,0,0,0,0,0,0,,,,
34.74399998,135,0,372.4580882,0,0,0,0,0,0,0,-226.597365,0,0,0,0,0,0,,,,
34.75199998,135,0,-568.0943809,0,0,0,0,0,0,0,-168.9644565,0,0,0,0,0,0,,,,
34.75999998,135,0,699.9240376,0,0,0,0,0,0,0,-52.68421297,0,0,0,0,0,0,,,,
34.76799998,135,0,-332.4947768,0,0,0,0,0,0,0,-305.9267917,0,0,0,0,0,0,,,,
34.77599998,135,0,30.67968477,0,0,0,0,0,0,0,-39.75373377,0,0,0,0,0,0,,,,
34.78399998,135,0,400.0932038,0,0,0,0,0,0,0,-196.4103126,0,0,0,0,0,0,,,,
34.79199998,135,0,-601.8076644,0,0,0,0,0,0,0,-137.2415291,0,0,0,0,0,0,,,,
34.79999998,135,0,672.4360194,0,0,0,0,0,0,0,-40.15425371,0,0,0,0,0,0,,,,
34.80799998,135,0,-326.4578486,0,0,0,0,0,0,0,-240.0249956,0,0,0,0,0,0,,,,
34.81599998,136,0,10.82824734,0,0,0,0,0,0,0,34.71633544,0,0,0,0,0,0,,,,
34.82399998,136,0,493.6180249,0,0,0,0,0,0,0,-192.1515141,0,0,0,0,0,0,,,,
34.83199998,136,0,-578.6985212,0,0,0,0,0,0,0,-167.8077625,0,0,0,0,0,0,,,,
34.83999998,136,0,667.5676834,0,0,0,0,0,0,0,-20.86269034,0,0,0,0,0,0,,,,
34.84799998,136,0,-304.7357946,0,0,0,0,0,0,0,-181.8058442,0,0,0,0,0,0,,,,
34.85599998,136,0,307.2505107,0,0,0,0,0,0,0,153.3893441,0,0,0,0,0,0,,,,
34.86399998,136,0,1706.706588,0,0,0,0,0,0,0,-67.7006712,0,0,0,0,0,0,,,,
34.87199998,136,0,407.4467503,0,0,0,0,0,0,0,-182.3785466,0,0,0,0,0,0,,,,
34.87999998,136,0,1103.603869,0,0,0,0,0,0,0,41.88787458,0,0,0,0,0,0,,,,
34.88799998,136,0,267.0143359,0,0,0,0,0,0,0,-229.9330275,0,0,0,0,0,0,,,,
34.89599998,136,0,-735.3745896,0,0,0,0,0,0,0,-138.1398747,0,0,0,0,0,0,,,,
34.90399998,136,0,620.7747295,0,0,0,0,0,0,0,-58.4156295,0,0,0,0,0,0,,,,
34.91199998,136,0,-149.763194,0,0,0,0,0,0,0,-235.0892475,0,0,0,0,0,0,,,,
34.91999998,136,0,-343.1669001,0,0,0,0,0,0,0,-53.94027317,0,0,0,0,0,0,,,,
34.92799998,136,0,572.2742846,0,0,0,0,0,0,0,-124.1847489,0,0,0,0,0,0,,,,
34.93599998,136,0,-417.4416394,0,0,0,0,0,0,0,-286.7896927,0,0,0,0,0,0,,,,
34.94399998,136,0,129.5150362,0,0,0,0,0,0,0,-89.12130998,0,0,0,0,0,0,,,,
34.95199998,136,0,277.1908521,0,0,0,0,0,0,0,-228.3341493,0,0,0,0,0,0,,,,
34.95999998,136,0,-540.6883169,0,0,0,0,0,0,0,-160.7412263,0,0,0,0,0,0,,,,
34.96799998,136,0,532.4097619,0,0,0,0,0,0,0,-58.51888882,0,0,0,0,0,0,,,,
34.97599998,136,0,-313.5859938,0,0,0,0,0,0,0,-231.8637868,0,0,0,0,0,0,,,,
34.98399998,136,0,-63.4818232,0,0,0,0,0,0,0,-25.32185359,0,0,0,0,0,0,,,,
34.99199998,136,0,423.8621285,0,0,0,0,0,0,0,-219.7830298,0,0,0,0,0,0,,,,
34.99999998,136,0,-628.0998995,0,0,0,0,0,0,0,-185.4033145,0,0,0,0,0,0,,,,
35.00799998,136,0,520.1798064,0,0,0,0,0,0,0,-16.48503558,0,0,0,0,0,0,,,,
35.01599998,136,0,-260.0762291,0,0,0,0,0,0,0,-230.2435499,0,0,0,0,0,0,,,,
35.02399998,136,0,-122.4029841,0,0,0,0,0,0,0,-9.221024686,0,0,0,0,0,0,,,,
35.03199998,136,0,479.0770573,0,0,0,0,0,0,0,-182.3516062,0,0,0,0,0,0,,,,
35.03999998,136,0,-644.1860244,0,0,0,0,0,0,0,-158.5026119,0,0,0,0,0,0,,,,
35.04799998,136,0,557.8901765,0,0,0,0,0,0,0,-8.133108335,0,0,0,0,0,0,,,,
35.05599998,136,0,-203.4221798,0,0,0,0,0,0,0,-285.0409834,0,0,0,0,0,0,,,,
35.06399998,136,0,-145.8018616,0,0,0,0,0,0,0,-68.6684807,0,0,0,0,0,0,,,,
35.07199998,137,0,505.049127,0,0,0,0,0,0,0,-216.758389,0,0,0,0,0,0,,,,
35.07999998,137,0,-660.9130735,0,0,0,0,0,0,0,-205.4863228,0,0,0,0,0,0,,,,
35.08799998,137,0,544.2978496,0,0,0,0,0,0,0,-49.38046345,0,0,0,0,0,0,,,,
35.09599998,137,0,-201.5310572,0,0,0,0,0,0,0,-304.4382299,0,0,0,0,0,0,,,,
35.10399998,137,0,-187.7936662,0,0,0,0,0,0,0,-43.98366677,0,0,0,0,0,0,,,,
35.11199998,137,0,538.2741131,0,0,0,0,0,0,0,-193.1571672,0,0,0,0,0,0,,,,
35.11999998,137,0,-644.0664187,0,0,0,0,0,0,0,-232.5521081,0,0,0,0,0,0,,,,
35.12799998,137,0,546.2394248,0,0,0,0,0,0,0,-52.62345389,0,0,0,0,0,0,,,,
35.13599998,137,0,-141.9948813,0,0,0,0,0,0,0,-290.3910507,0,0,0,0,0,0,,,,
35.14399998,137,0,-189.9680426,0,0,0,0,0,0,0,-41.07633555,0,0,0,0,0,0,,,,
35.15199998,137,0,532.4934484,0,0,0,0,0,0,0,-144.7598258,0,0,0,0,0,0,,,,
35.15999998,137,0,-634.8716217,0,0,0,0,0,0,0,-177.5939993,0,0,0,0,0,0,,,,
35.16799998,137,0,570.1813441,0,0,0,0,0,0,0,-46.06318717,0,0,0,0,0,0,,,,
35.17599998,137,0,-88.17849253,0,0,0,0,0,0,0,-315.3848986,0,0,0,0,0,0,,,,
35.18399998,137,0,-182.6845114,0,0,0,0,0,0,0,-73.8473552,0,0,0,0,0,0,,,,
35.19199998,137,0,554.5748906,0,0,0,0,0,0,0,-155.5607789,0,0,0,0,0,0,,,,
35.19999998,137,0,-651.9025026,0,0,0,0,0,0,0,-151.0266976,0,0,0,0,0,0,,,,
35.20799998,137,0,518.1722763,0,0,0,0,0,0,0,13.20826106,0,0,0,0,0,0,,,,
35.21599998,137,0,-110.9989476,0,0,0,0,0,0,0,-255.0707314,0,0,0,0,0,0,,,,
35.22399998,137,0,-221.7467162,0,0,0,0,0,0,0,-26.89921564,0,0,0,0,0,0,,,,
35.23199998,137,0,592.2171648,0,0,0,0,0,0,0,-155.6362541,0,0,0,0,0,0,,,,
35.23999998,137,0,-621.2840786,0,0,0,0,0,0,0,-210.6591102,0,0,0,0,0,0,,,,
35.24799998,137,0,517.7555175,0,0,0,0,0,0,0,-29.00857255,0,0,0,0,0,0,,,,
35.25599998,137,0,-64.3649221,0,0,0,0,0,0,0,-283.7351919,0,0,0,0,0,0,,,,
35.26399998,137,0,-211.5891973,0,0,0,0,0,0,0,-60.78902225,0,0,0,0,0,0,,,,
35.27199998,137,0,637.4940494,0,0,0,0,0,0,0,-173.3412205,0,0,0,0,0,0,,,,
35.27999998,137,0,-579.8451523,0,0,0,0,0,0,0,-220.50766,0,0,0,0,0,0,,,,
35.28799998,137,0,534.1041397,0,0,0,0,0,0,0,-24.02627198,0,0,0,0,0,0,,,,
35.29599998,137,0,-22.07277736,0,0,0,0,0,0,0,-282.6143059,0,0,0,0,0,0,,,,
35.30399998,137,0,-244.1498271,0,0,0,0,0,0,0,-60.09593739,0,0,0,0,0,0,,,,
35.31199998,137,0,607.8753992,0,0,0,0,0,0,0,-148.7717919,0,0,0,0,0,0,,,,
35.31999998,137,0,-615.7957174,0,0,0,0,0,0,0,-198.2743906,0,0,0,0,0,0,,,,
35.32799998,138,0,480.2003587,0,0,0,0,0,0,0,-18.09580204,0,0,0,0,0,0,,,,
35.33599998,138,0,-16.96213128,0,0,0,0,0,0,0,-279.9887453,0,0,0,0,0,0,,,,
35.34399997,138,0,-110.1168748,0,0,0,0,0,0,0,42.95878097,0,0,0,0,0,0,,,,
35.35199998,138,0,993.5518816,0,0,0,0,0,0,0,-60.84541258,0,0,0,0,0,0,,,,
35.35999998,138,0,-767.9360878,0,0,0,0,0,0,0,-306.9526397,0,0,0,0,0,0,,,,
35.36799997,138,0,273.3184533,0,0,0,0,0,0,0,40.57454417,0,0,0,0,0,0,,,,
35.37599998,138,0,417.0264756,0,0,0,0,0,0,0,-222.6122276,0,0,0,0,0,0,,,,
35.38399997,138,0,-725.7294932,0,0,0,0,0,0,0,-141.0732184,0,0,0,0,0,0,,,,
35.39199997,138,0,671.0974486,0,0,0,0,0,0,0,-4.14104783,0,0,0,0,0,0,,,,
35.39999998,138,0,-290.2585374,0,0,0,0,0,0,0,-267.6110863,0,0,0,0,0,0,,,,
35.40799997,138,0,-135.6057421,0,0,0,0,0,0,0,-15.43603659,0,0,0,0,0,0,,,,
35.41599998,138,0,551.0782705,0,0,0,0,0,0,0,-150.504186,0,0,0,0,0,0,,,,
35.42399998,138,0,-603.9791311,0,0,0,0,0,0,0,-188.7821873,0,0,0,0,0,0,,,,
35.43199997,138,0,477.6624644,0,0,0,0,0,0,0,-5.255602835,0,0,0,0,0,0,,,,
35.43999998,138,0,-86.41102648,0,0,0,0,0,0,0,-214.9572288,0,0,0,0,0,0,,,,
35.44799997,138,0,-277.8973052,0,0,0,0,0,0,0,-11.85510219,0,0,0,0,0,0,,,,
35.45599997,138,0,568.6612563,0,0,0,0,0,0,0,-98.54537945,0,0,0,0,0,0,,,,
35.46399998,138,0,-609.7959499,0,0,0,0,0,0,0,-128.6855045,0,0,0,0,0,0,,,,
35.47199997,138,0,390.1122906,0,0,0,0,0,0,0,53.79390377,0,0,0,0,0,0,,,,
35.47999997,138,0,-3.073602624,0,0,0,0,0,0,0,-208.919635,0,0,0,0,0,0,,,,
35.48799998,138,0,-349.5538738,0,0,0,0,0,0,0,-3.200187582,0,0,0,0,0,0,,,,
35.49599997,138,0,579.8164119,0,0,0,0,0,0,0,-59.30960623,0,0,0,0,0,0,,,,
35.50399998,138,0,-623.9248124,0,0,0,0,0,0,0,-124.5810703,0,0,0,0,0,0,,,,
35.51199998,138,0,351.0758118,0,0,0,0,0,0,0,73.53101826,0,0,0,0,0,0,,,,
35.51999997,138,0,28.1081639,0,0,0,0,0,0,0,-189.8537615,0,0,0,0,0,0,,,,
35.52799998,138,0,-380.9964843,0,0,0,0,0,0,0,2.353307172,0,0,0,0,0,0,,,,
35.53599997,138,0,609.9312056,0,0,0,0,0,0,0,-55.74297084,0,0,0,0,0,0,,,,
35.54399997,138,0,-637.3718406,0,0,0,0,0,0,0,-116.1976948,0,0,0,0,0,0,,,,
35.55199998,138,0,310.0337005,0,0,0,0,0,0,0,129.1618244,0,0,0,0,0,0,,,,
35.55999997,138,0,49.30519319,0,0,0,0,0,0,0,-136.9324021,0,0,0,0,0,0,,,,
35.56799998,138,0,-422.6973433,0,0,0,0,0,0,0,43.49838428,0,0,0,0,0,0,,,,
35.57599998,138,0,632.5234771,0,0,0,0,0,0,0,-8.566285441,0,0,0,0,0,0,,,,
35.58399997,139,0,-596.7592496,0,0,0,0,0,0,0,-111.2096432,0,0,0,0,0,0,,,,
35.59199997,139,0,281.1258474,0,0,0,0,0,0,0,134.8505023,0,0,0,0,0,0,,,,
35.59999997,139,0,49.38276692,0,0,0,0,0,0,0,-115.8244201,0,0,0,0,0,0,,,,
35.60799997,139,0,-469.7134351,0,0,0,0,0,0,0,55.44919307,0,0,0,0,0,0,,,,
35.61599997,139,0,596.1568482,0,0,0,0,0,0,0,15.90688945,0,0,0,0,0,0,,,,
35.62399997,139,0,-605.3587136,0,0,0,0,0,0,0,-122.063294,0,0,0,0,0,0,,,,
35.63199997,139,0,251.087319,0,0,0,0,0,0,0,82.04680625,0,0,0,0,0,0,,,,
35.63999997,139,0,61.06629285,0,0,0,0,0,0,0,-168.2854133,0,0,0,0,0,0,,,,
35.64799997,139,0,-469.4070961,0,0,0,0,0,0,0,-10.05791819,0,0,0,0,0,0,,,,
35.65599997,139,0,625.2701646,0,0,0,0,0,0,0,-54.90646637,0,0,0,0,0,0,,,,
35.66399997,139,0,-576.6609052,0,0,0,0,0,0,0,-159.8550834,0,0,0,0,0,0,,,,
35.67199997,139,0,257.9601561,0,0,0,0,0,0,0,88.5176136,0,0,0,0,0,0,,,,
35.67999997,139,0,107.1567773,0,0,0,0,0,0,0,-165.6613715,0,0,0,0,0,0,,,,
35.68799997,139,0,-482.4316042,0,0,0,0,0,0,0,-5.178969519,0,0,0,0,0,0,,,,
35.69599997,139,0,613.0091804,0,0,0,0,0,0,0,-15.85061293,0,0,0,0,0,0,,,,
35.70399997,139,0,-593.5338365,0,0,0,0,0,0,0,-132.9157286,0,0,0,0,0,0,,,,
35.71199997,139,0,215.755597,0,0,0,0,0,0,0,100.9437296,0,0,0,0,0,0,,,,
35.71999997,139,0,104.1131907,0,0,0,0,0,0,0,-163.5209247,0,0,0,0,0,0,,,,
35.72799997,139,0,-521.5656589,0,0,0,0,0,0,0,13.2223029,0,0,0,0,0,0,,,,
35.73599997,139,0,608.5710975,0,0,0,0,0,0,0,30.94602378,0,0,0,0,0,0,,,,
35.74399997,139,0,-1298.577171,0,0,0,0,0,0,0,-216.7011776,0,0,0,0,0,0,,,,
35.75199997,139,0,-1206.933258,0,0,0,0,0,0,0,22.30545631,0,0,0,0,0,0,,,,
35.75999997,139,0,279.9663255,0,0,0,0,0,0,0,9.333301239,0,0,0,0,0,0,,,,
35.76799997,139,0,72.41586499,0,0,0,0,0,0,0,32.72777131,0,0,0,0,0,0,,,,
35.77599997,139,0,-101.061754,0,0,0,0,0,0,0,-38.65391104,0,0,0,0,0,0,,,,
35.78399997,139,0,-102.8777858,0,0,0,0,0,0,0,-21.50510785,0,0,0,0,0,0,,,,
35.79199997,139,0,314.9385639,0,0,0,0,0,0,0,-3.162697525,0,0,0,0,0,0,,,,
35.79999997,139,0,-357.0235059,0,0,0,0,0,0,0,-85.05237354,0,0,0,0,0,0,,,,
35.80799997,139,0,167.4976718,0,0,0,0,0,0,0,101.8929181,0,0,0,0,0,0,,,,
35.81599997,139,0,108.5634501,0,0,0,0,0,0,0,-93.14193666,0,0,0,0,0,0,,,,
35.82399997,139,0,-398.3458084,0,0,0,0,0,0,0,26.06883596,0,0,0,0,0,0,,,,
35.83199997,139,0,557.0999071,0,0,0,0,0,0,0,81.77868489,0,0,0,0,0,0,,,,
35.83999997,140,0,-427.9789531,0,0,0,0,0,0,0,-70.20466266,0,0,0,0,0,0,,,,
35.84799997,140,0,159.9953573,0,0,0,0,0,0,0,167.2158832,0,0,0,0,0,0,,,,
35.85599997,140,0,202.4874497,0,0,0,0,0,0,0,-42.40051862,0,0,0,0,0,0,,,,
35.86399997,140,0,-461.8742785,0,0,0,0,0,0,0,66.09232729,0,0,0,0,0,0,,,,
35.87199997,140,0,624.0715586,0,0,0,0,0,0,0,107.2517008,0,0,0,0,0,0,,,,
35.87999997,140,0,-469.7761802,0,0,0,0,0,0,0,-25.63855111,0,0,0,0,0,0,,,,
35.88799997,140,0,171.6748386,0,0,0,0,0,0,0,204.2056148,0,0,0,0,0,0,,,,
35.89599997,140,0,252.8087635,0,0,0,0,0,0,0,-50.33516493,0,0,0,0,0,0,,,,
35.90399997,140,0,-497.8382442,0,0,0,0,0,0,0,83.97575015,0,0,0,0,0,0,,,,
35.91199997,140,0,687.3131404,0,0,0,0,0,0,0,108.900464,0,0,0,0,0,0,,,,
35.91999997,140,0,-389.8660981,0,0,0,0,0,0,0,-87.47225927,0,0,0,0,0,0,,,,
35.92799997,140,0,212.085969,0,0,0,0,0,0,0,143.830008,0,0,0,0,0,0,,,,
35.93599997,140,0,296.7834405,0,0,0,0,0,0,0,-74.66357177,0,0,0,0,0,0,,,,
35.94399997,140,0,-490.7757468,0,0,0,0,0,0,0,84.70139888,0,0,0,0,0,0,,,,
35.95199997,140,0,695.3907817,0,0,0,0,0,0,0,125.6310954,0,0,0,0,0,0,,,,
35.95999997,140,0,-414.9154047,0,0,0,0,0,0,0,-44.34294411,0,0,0,0,0,0,,,,
35.96799997,140,0,166.4114957,0,0,0,0,0,0,0,240.9626455,0,0,0,0,0,0,,,,
35.97599997,140,0,316.0390206,0,0,0,0,0,0,0,12.28585422,0,0,0,0,0,0,,,,
35.98399997,140,0,-490.5330625,0,0,0,0,0,0,0,115.3856038,0,0,0,0,0,0,,,,
35.99199997,140,0,708.9650726,0,0,0,0,0,0,0,178.7866444,0,0,0,0,0,0,,,,
35.99999997,140,0,-390.7363485,0,0,0,0,0,0,0,27.01817833,0,0,0,0,0,0,,,,
36.00799997,140,0,156.5794325,0,0,0,0,0,0,0,270.9289417,0,0,0,0,0,0,,,,
36.01599997,140,0,332.204869,0,0,0,0,0,0,0,37.69839534,0,0,0,0,0,0,,,,
36.02399997,140,0,-526.8909407,0,0,0,0,0,0,0,180.0412832,0,0,0,0,0,0,,,,
36.03199997,140,0,684.6033343,0,0,0,0,0,0,0,245.6729727,0,0,0,0,0,0,,,,
36.03999997,140,0,-367.0090899,0,0,0,0,0,0,0,53.76191505,0,0,0,0,0,0,,,,
36.04799997,140,0,-171.4512113,0,0,0,0,0,0,0,343.0493356,0,0,0,0,0,0,,,,
36.05599997,140,0,275.946663,0,0,0,0,0,0,0,177.6580199,0,0,0,0,0,0,,,,
36.06399997,140,0,-100.6410849,0,0,0,0,0,0,0,162.6562075,0,0,0,0,0,0,,,,
36.07199997,140,0,307.8893031,0,0,0,0,0,0,0,203.3832964,0,0,0,0,0,0,,,,
36.07999997,140,0,-245.9884056,0,0,0,0,0,0,0,152.6707175,0,0,0,0,0,0,,,,
36.08799997,140,0,421.8200533,0,0,0,0,0,0,0,224.2663368,0,0,0,0,0,0,,,,
36.09599997,141,0,-111.9771058,0,0,0,0,0,0,0,90.99705906,0,0,0,0,0,0,,,,
36.10399997,141,0,12.65363771,0,0,0,0,0,0,0,272.8253156,0,0,0,0,0,0,,,,
36.11199997,141,0,398.6153918,0,0,0,0,0,0,0,167.053359,0,0,0,0,0,0,,,,
36.11999997,141,0,-422.4220623,0,0,0,0,0,0,0,168.1279871,0,0,0,0,0,0,,,,
36.12799997,141,0,622.2747082,0,0,0,0,0,0,0,245.1221091,0,0,0,0,0,0,,,,
36.13599997,141,0,-224.7410079,0,0,0,0,0,0,0,76.24664562,0,0,0,0,0,0,,,,
36.14399997,141,0,34.42307458,0,0,0,0,0,0,0,335.2216264,0,0,0,0,0,0,,,,
36.15199997,141,0,426.3497868,0,0,0,0,0,0,0,160.3297411,0,0,0,0,0,0,,,,
36.15999997,141,0,-491.1101315,0,0,0,0,0,0,0,158.0074796,0,0,0,0,0,0,,,,
36.16799997,141,0,676.9939595,0,0,0,0,0,0,0,232.1366874,0,0,0,0,0,0,,,,
36.17599997,141,0,-298.5720999,0,0,0,0,0,0,0,72.10508254,0,0,0,0,0,0,,,,
36.18399997,141,0,16.84323317,0,0,0,0,0,0,0,358.6231786,0,0,0,0,0,0,,,,
36.19199997,141,0,426.6974016,0,0,0,0,0,0,0,136.09065,0,0,0,0,0,0,,,,
36.19999997,141,0,-579.3586077,0,0,0,0,0,0,0,176.7267574,0,0,0,0,0,0,,,,
36.20799997,141,0,653.6630286,0,0,0,0,0,0,0,266.739535,0,0,0,0,0,0,,,,
36.21599997,141,0,-282.9916831,0,0,0,0,0,0,0,18.81921282,0,0,0,0,0,0,,,,
36.22399997,141,0,0.983180769,0,0,0,0,0,0,0,290.8666107,0,0,0,0,0,0,,,,
36.23199997,141,0,443.1323896,0,0,0,0,0,0,0,107.4324928,0,0,0,0,0,0,,,,
36.23999997,141,0,-560.1991037,0,0,0,0,0,0,0,147.2031266,0,0,0,0,0,0,,,,
36.24799997,141,0,664.8758196,0,0,0,0,0,0,0,255.0342383,0,0,0,0,0,0,,,,
36.25599997,141,0,-253.078297,0,0,0,0,0,0,0,7.326190092,0,0,0,0,0,0,,,,
36.26399997,141,0,154.2257092,0,0,0,0,0,0,0,381.0224948,0,0,0,0,0,0,,,,
36.27199997,141,0,1155.159287,0,0,0,0,0,0,0,337.3610789,0,0,0,0,0,0,,,,
36.27999997,141,0,-197.9120213,0,0,0,0,0,0,0,49.23676142,0,0,0,0,0,0,,,,
