Time:125Hz,Epoch,FP1,FP2,C3,C4,P7,P8,O1,O2,F7,F8,F3,F4,T7,T8,P3,P4,,,,
187.4959999,732,-8.132503888,-70.43509568,4.58E-08,-92.38485,-6.72E-05,55.58318835,6.91E-07,7.36E-07,261.3886932,-78.8143702,-52.29562472,-1.75E-05,144.8203378,261.9086821,-6.50E-06,-9.32E-06,,,,
187.5039999,732,41.19614874,-165.3606538,4.58E-08,102.0824163,-6.74E-05,215.6500879,6.93E-07,7.42E-07,-294.2715667,-35.21982337,55.45056466,-1.74E-05,-159.1230697,-308.7265639,-5.82E-06,-9.26E-06,,,,
187.5119999,732,-30.40391743,163.9163425,4.59E-08,-84.94021506,-6.75E-05,27.76601749,6.96E-07,7.47E-07,196.0598183,63.85963002,-166.548977,-1.71E-05,16.26185388,163.7599689,-5.14E-06,-8.91E-06,,,,
187.5199999,732,13.84833966,-316.3126075,4.59E-08,2.602293455,-6.76E-05,155.7179945,6.98E-07,7.53E-07,-10.75270684,-160.6146711,107.4050821,-1.51E-05,44.85232972,-30.43928396,-4.46E-06,-9.09E-06,,,,
187.5279999,732,-25.56074174,117.8984674,4.60E-08,-7.131029714,-6.78E-05,112.963201,7.00E-07,7.59E-07,-184.2931756,74.59738613,-121.6868647,-1.31E-05,-196.6266107,-264.7673253,-3.79E-06,-9.51E-06,,,,
187.5359999,732,-87.4157422,-146.1714081,4.60E-08,-116.0899422,-6.79E-05,48.82509583,7.02E-07,7.65E-07,256.6023728,-108.6542938,-51.67283208,-1.45E-05,126.2306071,210.0767051,-3.12E-06,-9.28E-06,,,,
187.5439999,732,-25.91363613,-198.7485686,4.61E-08,75.56382964,-6.80E-05,201.0948646,7.04E-07,7.71E-07,-319.3910439,-76.2105742,-6.428576724,-1.52E-05,-207.7234954,-386.1538288,-2.45E-06,-9.18E-06,,,,
187.5519999,732,-95.20449894,154.5180511,4.61E-08,-102.1628097,-6.82E-05,19.68243879,7.06E-07,7.76E-07,173.7952639,30.68354475,-232.4700702,-1.46E-05,-11.01523718,96.30109414,-1.79E-06,-9.14E-06,,,,
187.5599999,732,-17.50139878,-302.0787083,4.62E-08,-2.684943813,-6.83E-05,149.5171815,7.08E-07,7.82E-07,-1.242905339,-171.4052829,70.16255214,-1.46E-05,56.88184016,-5.136185679,-1.12E-06,-9.00E-06,,,,
187.5679999,732,-15.08109686,152.3467992,4.62E-08,-8.120622366,-6.84E-05,99.44156906,7.10E-07,7.88E-07,-174.0195326,77.40210101,-161.1967297,-1.44E-05,-193.6947863,-211.8117367,-4.60E-07,-8.95E-06,,,,
187.5759999,732,-54.4781432,-106.9535152,4.62E-08,-115.6098416,-6.85E-05,33.67742749,7.12E-07,7.93E-07,252.9276544,-106.1985726,-90.81176258,-1.52E-05,118.9827207,247.6534265,1.99E-07,-8.84E-06,,,,
187.5839999,732,42.6727131,-143.4291435,4.63E-08,79.62500883,-6.86E-05,186.9210116,7.14E-07,7.99E-07,-305.1235084,-66.97740093,1.814538737,-1.59E-05,-190.2096487,-315.8238072,8.55E-07,-8.76E-06,,,,
187.5919999,732,-12.91923767,215.6137465,4.63E-08,-99.06292792,-6.87E-05,1.361407719,7.16E-07,8.04E-07,216.9376818,51.26405502,-179.8084204,-1.55E-05,10.195411,163.9655483,1.51E-06,-8.67E-06,,,,
187.5999999,732,34.04841617,-270.9379358,4.63E-08,-2.662546022,-6.88E-05,130.1258372,7.18E-07,8.10E-07,27.99813836,-158.1808634,120.4224908,-1.53E-05,62.01573048,4.514063621,2.16E-06,-8.58E-06,,,,
187.6079999,732,19.77553957,169.5647211,4.64E-08,-9.949718394,-6.90E-05,82.64200438,7.20E-07,8.15E-07,-155.1082282,85.24798916,-113.3349256,-1.62E-05,-173.7807645,-201.3878021,2.81E-06,-8.50E-06,,,,
187.6159999,732,-1.16847893,-64.25543446,4.64E-08,-130.3170594,-6.91E-05,10.15169053,7.21E-07,8.21E-07,315.3847752,-94.24799344,-23.05449353,-1.49E-05,167.8790622,289.3941129,3.45E-06,-8.41E-06,,,,
187.6239999,732,66.32811038,-150.1612162,4.64E-08,43.23899055,-6.92E-05,162.8567876,7.23E-07,8.26E-07,-258.0255065,-66.01890663,59.12219371,-1.27E-05,-146.3429269,-320.1437701,4.10E-06,-8.33E-06,,,,
187.6319999,732,-53.56691908,145.1481877,4.65E-08,-140.2935793,-6.93E-05,-13.84292282,7.25E-07,8.31E-07,185.1504952,34.24291833,-185.3514182,-1.41E-05,3.545358945,96.71818092,4.74E-06,-8.24E-06,,,,
187.6399999,732,-8.231622052,-305.8718054,4.65E-08,-22.11977552,-6.94E-05,116.6892702,7.27E-07,8.37E-07,-22.13629897,-182.7108707,81.22225939,-1.48E-05,23.63315681,-68.26487982,5.38E-06,-8.16E-06,,,,
187.6479999,733,-3.19942673,158.0854363,4.65E-08,-3.868515633,-6.95E-05,71.2869556,7.28E-07,8.42E-07,-186.8184143,61.78333589,-132.927819,-1.42E-05,-180.6766031,-262.7504862,6.01E-06,-8.07E-06,,,,
187.6559999,733,-30.18220548,-74.95922191,4.66E-08,-118.9028757,-6.96E-05,2.041135442,7.30E-07,8.47E-07,287.8982747,-112.0062365,-36.68967365,-1.52E-05,185.772841,258.1372842,6.64E-06,-8.47E-06,,,,
187.6639999,733,40.30213864,-128.7425177,4.66E-08,53.84140121,-6.96E-05,154.1423003,7.32E-07,8.52E-07,-277.8826087,-72.01137799,48.16533017,-1.59E-05,-126.9776723,-307.4220805,7.28E-06,-9.07E-06,,,,
187.6719999,733,-91.38513805,152.198501,4.66E-08,-128.6497467,-6.97E-05,-20.15471711,7.33E-07,8.57E-07,150.4803166,30.1303258,-196.8911458,-1.35E-05,29.38509432,113.1125995,7.90E-06,-8.59E-06,,,,
187.6799999,733,-55.11128859,-323.6177427,4.66E-08,-15.2717612,-6.98E-05,116.6451956,7.35E-07,8.62E-07,-86.45948849,-196.2911089,42.36421239,-1.25E-05,24.48764274,-46.96726484,8.53E-06,-7.99E-06,,,,
187.6879999,733,-40.06172697,156.345807,4.67E-08,-3.159096948,-6.99E-05,74.3276854,7.37E-07,8.67E-07,-263.1607243,49.28582911,-188.1363195,-1.39E-05,-210.2018596,-228.2496508,9.15E-06,-8.08E-06,,,,
187.6959999,733,-72.99795341,-94.81412438,4.67E-08,-130.5605257,-7.00E-05,0.152165439,7.38E-07,8.72E-07,205.975397,-123.2601196,-84.54658664,-1.43E-05,161.3024938,269.6216706,9.77E-06,-7.97E-06,,,,
187.7039999,733,10.81163177,-159.6299843,4.67E-08,39.40613251,-7.01E-05,148.712941,7.40E-07,8.77E-07,-376.5805949,-93.68444925,-4.897341593,-1.50E-05,-167.9544112,-328.5847228,1.04E-05,-7.86E-06,,,,
187.7119999,733,-56.17446339,192.880447,4.67E-08,-134.1613285,-7.02E-05,-29.23396389,7.41E-07,8.82E-07,87.92187535,15.10578461,-236.1920822,-1.38E-05,-7.528347813,112.6214089,1.10E-05,-8.05E-06,,,,
187.7199999,733,14.83038187,-256.4725445,4.67E-08,-20.36875169,-7.02E-05,102.1518501,7.43E-07,8.87E-07,-63.33094161,-186.5698336,68.7725987,-1.26E-05,53.36433588,10.06730544,1.16E-05,-8.17E-06,,,,
187.7279999,733,-7.053724939,171.7184323,4.67E-08,-6.355748085,-7.03E-05,64.88513774,7.44E-07,8.92E-07,-247.9853385,66.97204001,-146.8661408,-1.38E-05,-181.4667543,-196.2890412,1.22E-05,-8.03E-06,,,,
187.7359999,733,-79.66506278,-107.0037048,4.68E-08,-131.8832295,-7.04E-05,2.467302023,7.46E-07,8.97E-07,164.3832043,-114.9941864,-88.57877561,-1.44E-05,141.4532227,224.0304395,1.28E-05,-7.94E-06,,,,
187.7439999,733,-0.305341923,-157.9491967,4.68E-08,36.24547527,-7.05E-05,155.3575892,7.47E-07,9.01E-07,-391.1317201,-84.81768256,-7.716335543,-1.30E-05,-167.0394596,-354.0335516,1.34E-05,-8.11E-06,,,,
187.7519999,733,-71.67095524,198.489089,4.68E-08,-138.591205,-7.05E-05,-26.24795324,7.49E-07,9.06E-07,108.6839045,30.27124534,-208.1492976,-1.20E-05,29.88992085,131.9150574,1.40E-05,-8.23E-06,,,,
187.7599999,733,-26.37243381,-296.7093735,4.68E-08,-26.38976058,-7.06E-05,106.8010297,7.50E-07,9.11E-07,-70.03252775,-183.9738208,92.5082412,-1.31E-05,70.86262403,-13.8524626,1.46E-05,-8.09E-06,,,,
187.7679999,733,-10.43686971,174.8740412,4.68E-08,-6.595996082,-7.07E-05,62.39911206,7.52E-07,9.15E-07,-235.7810643,63.36074584,-135.5657698,-1.48E-05,-163.1470344,-215.2064127,1.52E-05,-8.24E-06,,,,
187.7759999,733,-43.46676928,-46.37272338,4.68E-08,-123.3878991,-7.07E-05,-9.429214961,7.53E-07,9.20E-07,224.3716526,-107.111906,-47.00117136,-1.33E-05,190.8569324,264.5571357,1.58E-05,-8.40E-06,,,,
187.7839999,733,-1.96793907,-155.4510925,4.68E-08,47.79082169,-7.08E-05,155.7774711,7.54E-07,9.24E-07,-372.2606962,-76.94514328,38.66155049,-1.20E-05,-173.3319136,-335.1335627,1.64E-05,-7.74E-06,,,,
187.7919999,733,-79.25532883,199.8373185,4.68E-08,-128.3753283,-7.09E-05,-14.68147047,7.55E-07,9.29E-07,56.26411298,31.65837232,-225.733111,-1.44E-05,-44.31061072,103.4232695,1.70E-05,-7.47E-06,,,,
187.7999999,733,20.94212819,-217.169209,4.68E-08,-15.66265806,-7.09E-05,113.5798158,7.57E-07,9.33E-07,-99.12979488,-169.6247327,70.66897398,-1.29E-05,41.38824749,-19.76416046,1.76E-05,-7.76E-06,,,,
187.8079999,733,77.84290095,275.3384673,4.68E-08,5.044695819,-7.10E-05,59.93555068,7.58E-07,9.38E-07,-181.7994942,105.6683131,-82.1166505,-1.15E-05,-123.655819,-143.333096,1.82E-05,-7.82E-06,,,,
187.8159999,733,26.52678112,13.0974245,4.68E-08,-116.1552242,-7.10E-05,-18.3794277,7.59E-07,9.42E-07,267.8283338,-59.82073151,7.845917732,-1.40E-05,238.2330111,360.2209173,1.88E-05,-7.95E-06,,,,
187.8239999,733,28.97239843,-125.3207896,4.68E-08,56.57687659,-7.11E-05,143.9064801,7.60E-07,9.46E-07,-388.1475625,-43.74668846,37.76880382,-1.24E-05,-124.6123929,-285.4514548,1.93E-05,-7.59E-06,,,,
187.8319999,733,-78.49639412,205.2422724,4.68E-08,-114.5814211,-7.11E-05,-27.51986118,7.62E-07,9.50E-07,59.02259846,63.05886273,-225.2587011,-1.10E-05,14.71049612,156.1374984,1.99E-05,-7.25E-06,,,,
187.8399999,733,-26.78524204,-257.8199288,4.68E-08,-3.379924836,-7.12E-05,107.4257355,7.63E-07,9.55E-07,-116.2148909,-150.4389076,66.61225259,-1.35E-05,54.17975459,13.75214127,2.05E-05,-7.52E-06,,,,
187.8479999,733,-42.35962477,176.4729982,4.68E-08,13.7803671,-7.12E-05,73.08846662,7.64E-07,9.59E-07,-300.6469228,94.18395969,-147.0982865,-1.29E-05,-174.3282639,-223.5952449,2.10E-05,-7.63E-06,,,,
187.8559999,733,-89.84827209,-54.00263781,4.68E-08,-110.7710747,-7.13E-05,2.287837165,7.65E-07,9.63E-07,170.7907258,-80.36093046,-72.13700016,-1.24E-05,186.3942341,281.0163642,2.16E-05,-7.72E-06,,,,
187.8639999,733,3.479159401,-74.02182311,4.68E-08,61.70526358,-7.13E-05,148.4049429,7.66E-07,9.67E-07,-375.0416151,-45.56478575,30.44410992,-1.18E-05,-131.2448643,-254.3975163,2.22E-05,-7.63E-06,,,,
187.8719999,733,-74.38863916,277.2325298,4.68E-08,-111.3453774,-7.13E-05,-38.93303281,7.67E-07,9.71E-07,121.1819919,78.0852404,-156.7345789,-1.03E-05,73.75403266,226.5670983,2.27E-05,-7.26E-06,,,,
187.8799999,733,-37.13882659,-219.3326687,4.68E-08,-2.887587131,-7.14E-05,91.57907589,7.68E-07,9.75E-07,-47.99964035,-136.8752059,145.9569697,-1.26E-05,129.5727762,69.91567666,2.33E-05,-7.48E-06,,,,
187.8879999,733,-28.51910836,239.160252,4.68E-08,18.37470657,-7.14E-05,57.95455885,7.69E-07,9.79E-07,-252.5217665,106.6828373,-91.22287459,-1.22E-05,-159.7753121,-195.3191768,2.39E-05,-7.40E-06,,,,
187.8959999,733,-70.42936173,-15.24075006,4.68E-08,-100.1847339,-7.14E-05,-3.274742665,7.70E-07,9.83E-07,201.7855036,-58.73523392,-23.50821179,-1.16E-05,168.1418774,272.8631363,2.44E-05,-7.23E-06,,,,
187.9039999,734,-1.04322784,-99.0595122,4.68E-08,78.54428632,-7.15E-05,163.876657,7.71E-07,9.87E-07,-359.7140781,-25.0950888,63.66403353,-1.20E-05,-143.8789335,-307.1871363,2.50E-05,-7.48E-06,,,,
187.9119999,734,-65.00430321,276.5162154,4.68E-08,-90.8517649,-7.15E-05,-16.60929204,7.72E-07,9.91E-07,129.2159769,93.33737356,-152.0233036,-1.14E-05,54.69458266,168.6821712,2.55E-05,-7.07E-06,,,,
187.9199999,734,-12.48424635,-205.8107781,4.68E-08,14.90388379,-7.15E-05,104.4034831,7.73E-07,9.95E-07,-18.18874617,-121.0101502,156.9799113,-1.16E-05,132.0478718,66.50092802,2.60E-05,-6.99E-06,,,,
187.9279999,734,-29.71879542,198.6018623,4.68E-08,34.60747925,-7.16E-05,66.88963252,7.74E-07,9.99E-07,-206.913974,122.6538727,-63.26807319,-1.12E-05,-118.6940726,-152.4399988,2.66E-05,-7.49E-06,,,,
187.9359999,734,-90.61371666,-64.93553603,4.67E-08,-84.76126199,-7.16E-05,4.822565118,7.75E-07,1.00E-06,201.4214897,-54.2368958,-37.86400037,-1.12E-05,179.5517665,303.5902831,2.71E-05,-7.28E-06,,,,
187.9439999,734,-3.52253583,-117.7782852,4.67E-08,86.76738984,-7.16E-05,164.8068331,7.75E-07,1.01E-06,-386.1346489,-30.05528093,20.66024884,-1.10E-05,-165.1292113,-291.4976512,2.77E-05,-7.16E-06,,,,
187.9519999,734,-61.89690852,244.1739263,4.67E-08,-92.45930986,-7.16E-05,-20.80886683,7.76E-07,1.01E-06,135.6474743,92.51266682,-171.5327335,-1.09E-05,50.3931962,190.8511359,2.82E-05,-7.15E-06,,,,
187.9599999,734,-31.44470006,-265.6399134,4.67E-08,10.23712668,-7.17E-05,111.0088691,7.77E-07,1.01E-06,-62.56199627,-133.1129121,100.2711756,-1.07E-05,83.80864183,34.10339482,2.87E-05,-7.00E-06,,,,
187.9679999,734,-5.880857808,210.0497215,4.67E-08,29.93370036,-7.17E-05,74.22182818,7.78E-07,1.02E-06,-244.8459699,109.7477349,-130.2987435,-1.06E-05,-181.8967584,-195.3421052,2.93E-05,-6.97E-06,,,,
187.9759999,734,-44.10047124,-23.68892466,4.66E-08,-92.69314728,-7.17E-05,0.939433008,7.79E-07,1.02E-06,262.104225,-47.80572031,-22.69965748,-1.04E-05,198.2852605,319.6588734,2.98E-05,-6.86E-06,,,,
187.9839999,734,-53.37353979,-196.6353925,4.66E-08,78.81984654,-7.17E-05,174.2674672,7.79E-07,1.02E-06,-389.371217,-36.67021234,17.55123454,-1.03E-05,-172.1000915,-324.565226,3.03E-05,-6.80E-06,,,,
187.9919999,734,-133.1604145,167.6295922,4.66E-08,-95.61458962,-7.17E-05,2.398302042,7.80E-07,1.03E-06,61.05350078,65.06279454,-253.8414412,-1.11E-05,-37.3006596,103.622209,3.08E-05,-6.71E-06,,,,
187.9999999,734,-14.92975544,-221.549183,4.66E-08,15.63324485,-7.17E-05,127.7184651,7.81E-07,1.03E-06,-49.98420604,-141.2873387,77.60305131,-1.19E-05,52.5416725,21.88497377,3.13E-05,-6.63E-06,,,,
188.0079999,734,13.22095462,228.7573138,4.66E-08,42.53989406,-7.17E-05,91.10580908,7.82E-07,1.03E-06,-217.1620695,120.3925409,-88.03081527,-9.53E-06,-170.1126508,-165.0224643,3.19E-05,-6.55E-06,,,,
188.0159999,734,-39.75548301,-35.21963211,4.65E-08,-84.4195855,-7.17E-05,13.40663746,7.82E-07,1.04E-06,247.5869683,-49.44950375,-8.980951506,-9.51E-06,194.3017323,336.4370583,3.24E-05,-6.71E-06,,,,
188.0239999,734,18.408406,-131.4312076,4.65E-08,84.67291678,-7.17E-05,169.0342306,7.83E-07,1.04E-06,-342.2339907,-36.64952611,62.67210021,-1.09E-05,-114.3348709,-254.6640944,3.29E-05,-6.86E-06,,,,
188.0319999,734,-73.17636221,207.5887244,4.65E-08,-86.24835323,-7.17E-05,-1.998817773,7.83E-07,1.04E-06,100.5442362,76.70923514,-189.9732077,-1.10E-05,24.36299731,171.5592999,3.34E-05,-6.71E-06,,,,
188.0399999,734,-36.62443619,-276.8073914,4.64E-08,15.19610359,-7.17E-05,131.3646882,7.84E-07,1.05E-06,-85.38804425,-143.6182177,76.48986496,-1.11E-05,52.94289176,16.81543029,3.39E-05,-6.40E-06,,,,
188.0479999,734,-3.823527647,188.9315666,4.64E-08,26.55014907,-7.17E-05,86.04046743,7.85E-07,1.05E-06,-230.1892312,103.4280327,-115.0587654,-9.68E-06,-169.9849501,-171.2812203,3.44E-05,-6.59E-06,,,,
188.0559999,734,-23.03427451,-21.17174251,4.64E-08,-101.4533619,-7.17E-05,5.951658306,7.85E-07,1.05E-06,253.9738377,-66.86467788,-27.79293104,-1.08E-05,172.6010356,321.5227108,3.49E-05,-6.54E-06,,,,
188.0639999,734,24.82693001,-125.5635852,4.63E-08,73.93202767,-7.17E-05,169.65288,7.85E-07,1.06E-06,-338.2208153,-42.0277684,67.270861,-1.07E-05,-154.6243568,-297.4612738,3.54E-05,-6.11E-06,,,,
188.0719999,734,-56.22299709,215.2764614,4.63E-08,-100.244611,-7.17E-05,-8.659793653,7.86E-07,1.06E-06,144.2723716,85.19054829,-151.6575944,-9.18E-06,22.3473747,170.8759904,3.59E-05,-6.39E-06,,,,
188.0799999,734,13.60521496,-235.0631898,4.63E-08,0.519569631,-7.17E-05,113.6401065,7.87E-07,1.06E-06,-27.53522691,-135.9083701,121.0368994,-1.04E-05,68.27087398,45.65636794,3.64E-05,-6.52E-06,,,,
188.0879999,734,23.36511339,215.5212901,4.62E-08,22.44480541,-7.17E-05,74.39725922,7.87E-07,1.07E-06,-196.7489523,115.4836196,-75.23463465,-1.11E-05,-169.9325065,-180.2758858,3.68E-05,-6.12E-06,,,,
188.0959999,734,-11.4214494,-20.36754248,4.62E-08,-97.9566842,-7.17E-05,-0.691944148,7.87E-07,1.07E-06,279.5136591,-45.64546773,0.154886925,-9.70E-06,163.1872838,307.1967569,3.73E-05,-5.85E-06,,,,
188.1039999,734,79.39489521,-98.39050982,4.62E-08,82.36270053,-7.17E-05,158.1773093,7.88E-07,1.07E-06,-320.1680431,-28.89746862,78.92121471,-8.76E-06,-174.7007017,-292.3425874,3.78E-05,-6.32E-06,,,,
188.1119999,734,9.596943232,261.6025752,4.61E-08,-86.1257971,-7.17E-05,-21.95032849,7.88E-07,1.08E-06,164.1927078,92.40943526,-128.5169672,-9.85E-06,5.812017761,169.2977802,3.83E-05,-6.44E-06,,,,
188.1199999,734,74.44888403,-195.338605,4.61E-08,20.52089211,-7.16E-05,100.234818,7.88E-07,1.08E-06,29.8195759,-120.0053992,177.0153686,-1.06E-05,88.83327244,79.66021852,3.88E-05,-5.99E-06,,,,
188.1279999,734,24.70383793,183.5190359,4.61E-08,43.85171342,-7.16E-05,71.98729853,7.89E-07,1.08E-06,-185.1430333,122.5065255,-39.9573423,-9.16E-06,-154.5190443,-155.7283848,3.92E-05,-6.01E-06,,,,
188.1359999,734,-134.8479794,-156.8766405,4.60E-08,-89.27412396,-7.16E-05,19.83559729,7.89E-07,1.08E-06,186.8096333,-69.57382326,-58.39866133,-8.19E-06,116.8572567,237.3810086,3.97E-05,-5.95E-06,,,,
188.1439999,734,-55.80743316,-213.2363,4.60E-08,75.3645851,-7.16E-05,184.2436093,7.89E-07,1.09E-06,-414.1281321,-67.92227461,-38.57953686,-7.41E-06,-253.274902,-385.6563956,4.02E-05,-6.07E-06,,,,
188.1519999,734,-73.32856125,202.2613722,4.59E-08,-101.3472906,-7.16E-05,-2.069756073,7.90E-07,1.09E-06,116.6998033,57.86703724,-224.7699742,-8.23E-06,-51.17044417,103.8830511,4.06E-05,-6.26E-06,,,,
188.1599999,735,6.92241842,-253.4258258,4.59E-08,2.834126707,-7.15E-05,124.0352202,7.90E-07,1.09E-06,-4.581374053,-151.5106916,107.6409043,-1.02E-05,56.07696706,9.949449799,4.11E-05,-6.08E-06,,,,
188.1679999,735,42.96413062,212.3356599,4.58E-08,29.3995843,-7.15E-05,87.99319713,7.90E-07,1.09E-06,-185.9938373,104.3951424,-78.93557218,-8.54E-06,-180.9113051,-194.2856856,4.16E-05,-6.03E-06,,,,
188.1759999,735,-30.42717624,-63.58652376,4.58E-08,-98.86516468,-7.15E-05,14.83689824,7.90E-07,1.10E-06,263.6517066,-60.47313459,-13.21114212,-7.45E-06,141.3890341,284.6965797,4.20E-05,-5.96E-06,,,,
188.1839999,735,-2.356239911,-209.557108,4.57E-08,70.56932529,-7.14E-05,183.0856435,7.91E-07,1.10E-06,-362.3374802,-54.14221586,31.11166977,-7.82E-06,-211.3143231,-349.9881971,4.25E-05,-5.87E-06,,,,
188.1919999,735,-64.72726839,176.2885776,4.57E-08,-103.8555503,-7.14E-05,7.680902661,7.91E-07,1.10E-06,68.80164318,55.83630973,-233.6015976,-7.47E-06,-90.73551274,59.03399964,4.29E-05,-5.81E-06,,,,
188.1999999,735,27.31521461,-261.2116496,4.56E-08,1.36982639,-7.14E-05,132.1364702,7.91E-07,1.10E-06,-29.58760138,-150.2681805,84.82500221,-9.35E-06,3.171395862,-14.55750148,4.34E-05,-5.73E-06,,,,
188.2079999,735,46.60152556,165.568137,4.56E-08,26.74651058,-7.13E-05,98.59656078,7.91E-07,1.11E-06,-194.6384737,111.2590002,-102.6515407,-1.00E-05,-197.2954503,-207.4310758,4.38E-05,-5.66E-06,,,,
188.2159999,735,-6.186519219,-71.27603663,4.55E-08,-108.9148908,-7.13E-05,16.71542889,7.91E-07,1.11E-06,234.3495951,-60.1651619,-75.76012022,-8.44E-06,132.6406021,255.1596935,4.43E-05,-5.82E-06,,,,
188.2239999,735,59.31617926,-171.6937564,4.55E-08,62.10006669,-7.13E-05,175.0935652,7.91E-07,1.11E-06,-338.5463749,-47.05389612,-2.596825085,-8.65E-06,-180.5994913,-322.7935316,4.47E-05,-5.97E-06,,,,
188.2319999,735,-10.95984754,190.28585,4.54E-08,-108.7134634,-7.12E-05,2.578573838,7.91E-07,1.11E-06,112.3282897,69.65435251,-240.2397459,-8.60E-06,-26.3169999,110.5784849,4.51E-05,-5.83E-06,,,,
188.2399999,735,59.89133432,-252.1758196,4.54E-08,-11.98059104,-7.12E-05,122.1382588,7.91E-07,1.12E-06,-15.40889899,-150.9183715,71.5112551,-8.28E-06,61.03364447,6.5615449,4.56E-05,-5.28E-06,,,,
188.2479999,735,56.13162281,191.1079703,4.53E-08,12.48315596,-7.11E-05,82.42532145,7.91E-07,1.12E-06,-175.0657897,100.5515134,-99.94531996,-8.32E-06,-155.9272051,-184.4661128,4.60E-05,-5.01E-06,,,,
188.2559999,735,-9.439977493,-40.66649397,4.53E-08,-114.1560394,-7.11E-05,7.546268941,7.91E-07,1.12E-06,264.202538,-66.90998312,-53.17665853,-8.07E-06,149.0847002,285.7135069,4.64E-05,-5.29E-06,,,,
188.2639999,735,77.76053209,-114.1068414,4.52E-08,62.81387915,-7.10E-05,166.9428878,7.91E-07,1.12E-06,-294.58495,-43.70778687,48.06051945,-8.02E-06,-158.9186252,-291.9408668,4.68E-05,-5.39E-06,,,,
188.2719999,735,20.77920082,256.7527192,4.52E-08,-108.4137613,-7.10E-05,-19.62716367,7.91E-07,1.13E-06,227.4707383,92.94349527,-134.9430174,-7.85E-06,61.71554372,205.1727862,4.73E-05,-5.52E-06,,,,
188.2799999,735,33.45559627,-277.6209346,4.51E-08,-25.40748545,-7.09E-05,106.5393625,7.91E-07,1.13E-06,35.21412564,-137.0651451,135.5827844,-7.75E-06,98.06948999,56.57313521,4.77E-05,-5.19E-06,,,,
188.2879999,735,-1.824751271,121.1620133,4.50E-08,-14.89182741,-7.09E-05,84.45642687,7.91E-07,1.13E-06,-254.1842195,87.15835773,-139.2788777,-7.61E-06,-227.7067014,-267.7149121,4.81E-05,-4.85E-06,,,,
188.2959999,735,-1.870839379,-36.16570584,4.50E-08,-124.0707392,-7.08E-05,1.98305457,7.91E-07,1.13E-06,266.4948043,-69.31426181,-61.80219098,-7.49E-06,133.8313615,270.0381838,4.85E-05,-5.14E-06,,,,
188.3039999,735,98.9346094,-97.4584936,4.49E-08,78.85934472,-7.08E-05,158.35303,7.91E-07,1.13E-06,-266.3019828,-37.68403942,76.31397257,-7.37E-06,-140.4359849,-261.3726749,4.89E-05,-5.49E-06,,,,
188.3119999,735,3.132011647,235.5783259,4.49E-08,-90.01086502,-7.07E-05,-16.38901553,7.91E-07,1.14E-06,184.4401014,90.26146187,-150.4011104,-7.25E-06,34.17723274,166.5333454,4.93E-05,-5.11E-06,,,,
188.3199999,735,56.28061303,-259.602283,4.48E-08,-3.609298348,-7.07E-05,110.9366297,7.91E-07,1.14E-06,51.90959835,-127.8899803,130.3468143,-8.08E-06,97.46112206,67.74708306,4.97E-05,-4.76E-06,,,,
188.3279999,735,48.82253695,156.5411954,4.47E-08,11.48890118,-7.06E-05,88.77603423,7.91E-07,1.14E-06,-218.7610911,109.4329224,-127.2066115,-8.86E-06,-205.52271,-221.9790365,5.01E-05,-5.31E-06,,,,
188.3359999,735,24.84526445,-44.26536194,4.47E-08,-104.3741996,-7.05E-05,8.637380951,7.90E-07,1.14E-06,249.9175063,-53.73240666,-76.64096544,-6.54E-06,136.6241649,265.5994052,5.05E-05,-5.15E-06,,,,
188.3439999,735,126.2142281,-123.5116365,4.46E-08,96.23512987,-7.05E-05,165.2920629,7.90E-07,1.14E-06,-273.2684526,-29.09068051,60.15163541,-4.63E-06,-140.8482951,-271.8594888,5.09E-05,-4.99E-06,,,,
188.3519999,735,21.41891758,221.5807849,4.45E-08,-75.51767102,-7.04E-05,-7.982614929,7.90E-07,1.14E-06,155.6496628,96.09055944,-174.3098503,-6.11E-06,12.73274079,147.5216821,5.13E-05,-5.04E-06,,,,
188.3599999,735,76.42063178,-233.6208453,4.45E-08,0.158681896,-7.03E-05,108.2355971,7.90E-07,1.15E-06,18.56167333,-124.6290844,114.9263194,-6.79E-06,80.82986466,49.20644454,5.17E-05,-4.87E-06,,,,
188.3679999,735,73.05255567,187.9785351,4.44E-08,7.492540168,-7.03E-05,74.25463208,7.90E-07,1.15E-06,-177.5979892,120.1239916,-76.86935828,-6.33E-06,-181.4386332,-189.2345285,5.21E-05,-4.87E-06,,,,
188.3759999,735,14.05456904,-49.51340913,4.43E-08,-106.6396612,-7.02E-05,6.405430497,7.89E-07,1.15E-06,265.9313182,-47.95515227,-38.36310401,-7.29E-06,134.6143546,267.895774,5.25E-05,-4.76E-06,,,,
188.3839999,735,153.2850622,-86.54497246,4.42E-08,102.3855578,-7.01E-05,167.7997208,7.89E-07,1.15E-06,-264.6134474,-26.04501954,76.09698419,-6.14E-06,-141.9374274,-285.1148811,5.29E-05,-4.72E-06,,,,
188.3919999,735,112.8022619,302.9265792,4.42E-08,-64.36592141,-7.01E-05,-22.6504178,7.89E-07,1.15E-06,266.0655452,120.7608365,-87.2814674,-4.88E-06,84.94044174,231.8266588,5.33E-05,-4.64E-06,,,,
188.3999999,735,116.4403845,-225.0062703,4.41E-08,10.91582353,-7.00E-05,94.98525496,7.88E-07,1.15E-06,91.00707664,-103.4165281,196.3194532,-6.29E-06,146.7664446,103.8623361,5.36E-05,-4.58E-06,,,,
188.4079999,735,98.15628539,200.1001188,4.40E-08,20.64251872,-6.99E-05,63.10826805,7.88E-07,1.16E-06,-164.2346388,125.6885803,-55.32665617,-6.84E-06,-154.6180648,-194.2993182,5.40E-05,-4.27E-06,,,,
188.4159999,736,70.34763686,26.24061422,4.40E-08,-92.85983025,-6.98E-05,-19.88822993,7.88E-07,1.16E-06,355.6914226,-30.51939218,21.74216122,-7.49E-06,200.5212965,364.7437494,5.44E-05,-4.46E-06,,,,
188.4239999,736,112.8048651,-109.9460909,4.39E-08,108.7610858,-6.98E-05,153.143943,7.87E-07,1.16E-06,-211.26948,-10.70952195,137.7697336,-6.36E-06,-87.63660584,-207.4731194,5.47E-05,-4.44E-06,,,,
188.4319999,736,-9.004818371,195.9232158,4.38E-08,-63.37168426,-6.97E-05,-11.5544577,7.87E-07,1.16E-06,194.3601176,110.366825,-132.5840102,-5.16E-06,57.07340498,154.7236486,5.51E-05,-4.01E-06,,,,
188.4399999,736,29.41962124,-284.7678936,4.37E-08,13.77865161,-6.96E-05,115.271942,7.86E-07,1.16E-06,14.90943786,-123.4781313,108.9953125,-6.49E-06,97.18210774,11.50134386,5.55E-05,-4.32E-06,,,,
188.4479999,736,37.17477375,156.75679,4.37E-08,23.50358792,-6.95E-05,88.23551029,7.86E-07,1.16E-06,-208.0783621,113.3113316,-111.0248959,-6.15E-06,-183.073306,-242.7805154,5.58E-05,-4.45E-06,,,,
188.4559999,736,9.864756285,-41.39809096,4.36E-08,-92.59008899,-6.94E-05,10.3812189,7.85E-07,1.16E-06,294.9458057,-42.54923718,-36.1864809,-4.90E-06,177.4036417,291.1985185,5.62E-05,-4.07E-06,,,,
188.4639999,736,96.8092285,-136.2066175,4.35E-08,110.4463941,-6.93E-05,179.1130389,7.85E-07,1.17E-06,-270.4486483,-23.95036521,73.44292358,-6.06E-06,-128.2556018,-271.991325,5.65E-05,-3.80E-06,,,,
188.4719999,736,8.761817116,218.2524706,4.34E-08,-60.12950937,-6.93E-05,4.395990757,7.84E-07,1.17E-06,180.4289462,107.2288399,-158.1824858,-5.91E-06,17.8357422,161.2557901,5.69E-05,-4.29E-06,,,,
188.4799999,736,19.76823046,-278.5145012,4.33E-08,18.63900175,-6.92E-05,129.3066505,7.84E-07,1.17E-06,22.03826465,-122.2944864,116.7541171,-4.51E-06,80.06319344,34.92560495,5.73E-05,-4.67E-06,,,,
188.4879999,736,12.00881709,157.0467354,4.33E-08,29.38383299,-6.91E-05,101.1887066,7.83E-07,1.17E-06,-215.7106533,111.2010597,-106.890106,-5.77E-06,-204.6424763,-245.2998654,5.76E-05,-4.21E-06,,,,
188.4959999,736,4.637521402,-21.15911876,4.32E-08,-87.81447393,-6.90E-05,17.69476705,7.83E-07,1.17E-06,288.4044765,-44.0546932,-30.32057542,-5.57E-06,147.5025176,282.487954,5.79E-05,-3.94E-06,,,,
188.5039999,736,121.8261892,-107.6609669,4.31E-08,120.5770933,-6.89E-05,183.5778322,7.82E-07,1.17E-06,-246.2911407,-19.80865876,110.7746868,-5.15E-06,-120.0873225,-247.7128331,5.83E-05,-3.97E-06,,,,
188.5119999,736,40.48035135,220.4420036,4.30E-08,-47.12292355,-6.88E-05,11.27436783,7.82E-07,1.17E-06,202.7985706,113.8398781,-112.7364138,-5.40E-06,43.53004575,206.3866227,5.86E-05,-3.88E-06,,,,
188.5199999,736,34.09412159,-321.3423331,4.29E-08,28.5719126,-6.87E-05,144.8409425,7.81E-07,1.17E-06,-18.48472497,-128.4844084,114.8542934,-5.02E-06,55.69575249,8.024143243,5.90E-05,-3.82E-06,,,,
188.5279999,736,37.12626114,127.0794556,4.28E-08,39.81199202,-6.86E-05,120.1194059,7.80E-07,1.18E-06,-275.9403883,92.99841379,-141.4082251,-4.14E-06,-246.6035322,-317.5499796,5.93E-05,-3.76E-06,,,,
188.5359999,736,72.54720662,15.75843736,4.28E-08,-84.58903983,-6.85E-05,19.37074496,7.80E-07,1.18E-06,309.9298154,-55.72467451,-23.230785,-3.03E-06,168.7402258,287.0719075,5.96E-05,-3.70E-06,,,,
188.5439999,736,175.4611974,-76.10754087,4.27E-08,111.9743172,-6.84E-05,175.1424805,7.79E-07,1.18E-06,-201.7101971,-30.26462492,157.5721252,-5.19E-06,-62.14117121,-212.605949,5.99E-05,-3.64E-06,,,,
188.5519999,736,58.93205704,239.0559275,4.26E-08,-60.79880183,-6.83E-05,6.297327409,7.78E-07,1.18E-06,197.8909376,93.53544074,-87.30624608,-4.94E-06,65.21885436,196.0012016,6.03E-05,-3.58E-06,,,,
188.5599999,736,45.40508277,-288.5104083,4.25E-08,10.36818167,-6.82E-05,135.3985276,7.78E-07,1.18E-06,-11.64854637,-148.4080733,140.1122797,-4.32E-06,82.30233495,16.44148617,6.06E-05,-3.76E-06,,,,
188.5679999,736,-21.25120191,89.25907807,4.24E-08,20.26073565,-6.81E-05,122.2903239,7.77E-07,1.18E-06,-323.3456251,67.30360092,-138.3290565,-5.76E-06,-240.6976395,-322.1085749,6.09E-05,-3.93E-06,,,,
188.5759999,736,-29.58392959,-49.589971,4.23E-08,-95.9127819,-6.80E-05,41.3400217,7.76E-07,1.18E-06,184.8659932,-90.94544229,-83.63653229,-6.10E-06,89.35840118,239.9936773,6.12E-05,-3.80E-06,,,,
188.5839999,736,95.41968686,-105.8228075,4.22E-08,112.0980854,-6.79E-05,205.9965577,7.75E-07,1.18E-06,-324.7939772,-59.94553555,86.56063769,-6.01E-06,-154.2333504,-272.9429876,6.15E-05,-3.74E-06,,,,
188.5919999,736,-4.948150602,226.5031463,4.21E-08,-56.29136887,-6.78E-05,38.24724238,7.75E-07,1.18E-06,88.54391129,73.32784397,-143.5642425,-3.83E-06,13.77078807,129.0761723,6.18E-05,-3.93E-06,,,,
188.5999999,736,59.73718051,-223.6048379,4.20E-08,12.72525746,-6.77E-05,147.0251271,7.74E-07,1.18E-06,-22.98354997,-149.0445476,137.7728377,-3.99E-06,87.35803668,60.71952266,6.22E-05,-3.60E-06,,,,
188.6079999,736,68.26607198,219.2390659,4.20E-08,21.55210214,-6.76E-05,114.5824227,7.73E-07,1.18E-06,-250.8114678,90.56466323,-72.00446444,-4.24E-06,-163.231273,-190.3717924,6.25E-05,-3.27E-06,,,,
188.6159999,736,27.48351287,39.17366489,4.19E-08,-94.77748869,-6.75E-05,35.68464417,7.72E-07,1.18E-06,229.9622425,-63.47986333,-22.24961677,-4.65E-06,202.7034581,331.2199241,6.28E-05,-3.82E-06,,,,
188.6239999,736,125.8545601,-38.28669931,4.18E-08,110.5889832,-6.73E-05,193.9728327,7.72E-07,1.18E-06,-275.4574746,-34.29278418,124.0609777,-5.82E-06,-59.2008765,-185.7307246,6.31E-05,-3.44E-06,,,,
188.6319999,736,29.89320207,292.0745697,4.17E-08,-61.46462862,-6.72E-05,17.74717679,7.71E-07,1.19E-06,142.4868015,99.55466954,-115.8373952,-3.27E-06,72.53700352,207.9985739,6.34E-05,-3.06E-06,,,,
188.6399999,736,71.7971207,-214.8279503,4.16E-08,10.81044137,-6.71E-05,140.5574456,7.70E-07,1.19E-06,-15.48781556,-132.1759025,139.9504641,-3.45E-06,123.6897111,79.87603316,6.37E-05,-3.67E-06,,,,
188.6479999,736,78.45917864,207.2272292,4.15E-08,24.34153898,-6.70E-05,116.0346356,7.69E-07,1.19E-06,-250.4769609,104.6838535,-83.41334406,-4.75E-06,-138.2430095,-193.9158287,6.39E-05,-3.24E-06,,,,
188.6559999,736,37.01701993,19.011625,4.14E-08,-96.67852721,-6.69E-05,35.3034265,7.68E-07,1.19E-06,216.987746,-51.70438416,-45.29435442,-3.11E-06,183.4041534,313.0234415,6.42E-05,-2.90E-06,,,,
188.6639999,736,150.3530981,-52.67648939,4.13E-08,107.5306967,-6.68E-05,198.5408065,7.67E-07,1.19E-06,-315.7513094,-34.28410288,82.32853929,-4.22E-06,-112.6197252,-220.9746101,6.45E-05,-3.49E-06,,,,
188.6719999,737,72.00429604,297.5330263,4.12E-08,-60.133081,-6.66E-05,24.09962935,7.66E-07,1.19E-06,142.8073901,104.0492175,-128.025137,-5.23E-06,68.80155478,225.2661862,6.48E-05,-3.32E-06,,,,
188.6799999,737,90.95136804,-221.474656,4.11E-08,13.91192029,-6.65E-05,144.9883766,7.65E-07,1.19E-06,2.1377643,-124.7071119,148.0223237,-3.61E-06,142.5107813,113.1603661,6.51E-05,-3.19E-06,,,,
188.6879999,737,126.7037328,248.7876416,4.10E-08,31.00500812,-6.64E-05,110.5419209,7.64E-07,1.19E-06,-221.4066235,110.5364358,-67.4613837,-2.87E-06,-134.7213161,-178.1144845,6.54E-05,-3.24E-06,,,,
188.6959999,737,92.3013076,68.33754355,4.09E-08,-88.14686524,-6.63E-05,24.42529838,7.63E-07,1.19E-06,293.7526203,-32.37966928,27.32343799,-3.91E-06,228.3031719,369.4373806,6.56E-05,-3.33E-06,,,,
188.7039999,737,153.9200062,-50.68289328,4.08E-08,113.3922872,-6.61E-05,190.391701,7.62E-07,1.19E-06,-264.8888777,-14.46789712,156.0719739,-4.73E-06,-59.53077202,-205.8298254,6.59E-05,-3.56E-06,,,,
188.7119999,737,80.63778468,333.9142153,4.07E-08,-55.42807618,-6.60E-05,6.678833406,7.61E-07,1.19E-06,176.9054839,121.1874935,-84.20635242,-3.33E-06,88.18987078,195.6669952,6.62E-05,-2.91E-06,,,,
188.7199999,737,62.53861822,-216.5540896,4.06E-08,22.72174676,-6.59E-05,135.1735588,7.60E-07,1.19E-06,5.499554529,-100.6744397,184.7222807,-2.42E-06,132.4445609,110.186236,6.64E-05,-2.91E-06,,,,
188.7279999,737,45.40568724,203.289775,4.05E-08,42.26742727,-6.58E-05,115.8617602,7.59E-07,1.19E-06,-286.7280145,134.7796521,-86.27588021,-1.67E-06,-163.9972068,-201.5633627,6.67E-05,-3.21E-06,,,,
188.7359999,737,59.0182038,73.36018768,4.04E-08,-83.49004425,-6.56E-05,17.97130847,7.58E-07,1.19E-06,257.1801633,-8.545549775,-24.56686122,-3.49E-06,224.6688568,356.3690427,6.70E-05,-2.77E-06,,,,
188.7439999,737,110.8609219,-93.37383368,4.03E-08,113.5777611,-6.55E-05,191.7145748,7.57E-07,1.19E-06,-316.2710427,-0.492327071,103.9901689,-4.47E-06,-90.06004415,-207.7154955,6.72E-05,-3.02E-06,,,,
188.7519999,737,15.83925714,259.1923322,4.02E-08,-59.35234145,-6.54E-05,21.90798805,7.56E-07,1.19E-06,81.83244008,118.823632,-178.6210664,-2.68E-06,12.98338411,143.9038072,6.75E-05,-3.24E-06,,,,
188.7599999,737,80.9159924,-201.4123566,4.01E-08,6.906240401,-6.52E-05,128.8540197,7.55E-07,1.19E-06,7.587578428,-104.5489425,112.7859601,-3.09E-06,118.0714514,90.97537465,6.77E-05,-2.80E-06,,,,
188.7679999,737,71.82627405,191.7145774,4.00E-08,22.67388019,-6.51E-05,103.990649,7.54E-07,1.19E-06,-244.4079554,127.4440223,-98.59473174,-2.98E-06,-156.3243825,-180.1552247,6.80E-05,-2.58E-06,,,,
188.7759999,737,25.56904924,4.208199343,3.99E-08,-95.55564261,-6.50E-05,26.10260007,7.53E-07,1.19E-06,218.691021,-35.37201232,-76.81374145,-2.77E-06,174.1743615,309.9338734,6.82E-05,-2.34E-06,,,,
188.7839999,737,110.106283,-90.88588937,3.98E-08,109.3394371,-6.48E-05,196.4447733,7.52E-07,1.19E-06,-318.2897902,-23.76560878,51.51951544,-2.82E-06,-120.5175433,-233.2120002,6.85E-05,-2.78E-06,,,,
188.7919999,737,50.28383155,308.8328089,3.96E-08,-56.95578425,-6.47E-05,11.87106097,7.51E-07,1.19E-06,153.4351397,117.3971435,-156.4315025,-1.67E-06,36.34634423,211.9879508,6.87E-05,-3.22E-06,,,,
188.7999999,737,89.29987992,-171.5818931,3.95E-08,17.47996431,-6.46E-05,120.7092777,7.49E-07,1.19E-06,65.86786427,-103.2169667,157.8966938,-7.59E-07,155.9025688,134.645289,6.90E-05,-2.97E-06,,,,
188.8079999,737,97.62798999,250.6100377,3.94E-08,38.84816185,-6.44E-05,92.53672726,7.48E-07,1.19E-06,-165.8902844,135.9399286,-39.06339223,-9.27E-07,-99.57143357,-170.9516767,6.92E-05,-2.73E-06,,,,
188.8159999,737,78.03505324,69.36417609,3.93E-08,-80.92097426,-6.43E-05,1.814969538,7.47E-07,1.19E-06,328.4535841,-13.00788012,18.33163775,-8.57E-07,248.8584033,347.7639845,6.94E-05,-2.45E-06,,,,
188.8239999,737,120.2196915,-112.4533803,3.92E-08,122.6091368,-6.41E-05,176.7049864,7.46E-07,1.19E-06,-243.1266923,-8.871026322,136.7905053,-7.19E-07,-58.04349655,-215.6473365,6.97E-05,-2.69E-06,,,,
188.8319999,737,6.116373991,234.5641458,3.91E-08,-45.89138183,-6.40E-05,11.44136454,7.45E-07,1.19E-06,134.9025922,112.0330715,-154.4666634,-7.25E-07,21.40216315,133.8804902,6.99E-05,-2.88E-06,,,,
188.8399999,737,63.91181449,-203.8222289,3.90E-08,22.7046917,-6.38E-05,126.2362604,7.43E-07,1.19E-06,21.41320018,-109.9990786,118.8212704,-1.55E-06,99.64455521,59.47229208,7.01E-05,-2.72E-06,,,,
188.8479999,737,89.15209482,229.5976061,3.89E-08,38.45765733,-6.37E-05,96.01235296,7.42E-07,1.19E-06,-174.6905215,139.8991271,-55.19550476,-2.42E-06,-122.8935557,-160.8961389,7.03E-05,-2.70E-06,,,,
188.8559999,737,23.50403964,16.68123616,3.88E-08,-91.97627487,-6.36E-05,8.886222234,7.41E-07,1.19E-06,283.2451424,-17.16474326,-35.37398966,-2.04E-06,198.1803092,333.6523148,7.06E-05,-2.17E-06,,,,
188.8639999,737,75.40089272,-139.4769943,3.87E-08,103.4666466,-6.34E-05,180.982191,7.40E-07,1.19E-06,-290.1772452,-15.34491023,59.78013565,-2.00E-06,-119.6711593,-243.7401704,7.08E-05,-1.90E-06,,,,
188.8719999,737,-23.75624207,210.5268262,3.85E-08,-61.12597064,-6.33E-05,15.53819289,7.38E-07,1.19E-06,94.15161408,106.7870443,-215.3334001,-1.97E-06,-11.37799479,113.3126722,7.10E-05,-2.22E-06,,,,
188.8799999,737,-9.54100105,-268.8943417,3.84E-08,10.30550048,-6.31E-05,134.9998477,7.37E-07,1.19E-06,-59.09235718,-131.2301498,36.99071322,-1.82E-06,28.99373454,-8.628380627,7.12E-05,-2.32E-06,,,,
188.8879999,737,11.43430522,162.7761585,3.83E-08,25.81373411,-6.30E-05,102.6414154,7.36E-07,1.19E-06,-216.7942214,117.3638047,-127.7704872,-2.75E-06,-189.4342059,-204.8619138,7.14E-05,-2.48E-06,,,,
188.8959999,737,-45.0980497,-40.21563994,3.82E-08,-95.70213121,-6.28E-05,21.17982793,7.34E-07,1.19E-06,255.8396323,-34.2082747,-93.1142704,-3.54E-06,170.7610158,307.6408981,7.16E-05,-2.17E-06,,,,
188.9039999,737,16.05304469,-153.6365809,3.81E-08,110.3895057,-6.27E-05,199.517574,7.33E-07,1.19E-06,-348.3845275,-32.26632858,-9.998354641,-1.28E-06,-178.1967716,-301.6965869,7.18E-05,-1.85E-06,,,,
188.9119999,737,-38.42390816,252.6340338,3.80E-08,-55.14843974,-6.25E-05,21.51455445,7.32E-07,1.19E-06,130.5650418,110.3166849,-222.4347491,-3.54E-07,-16.96035852,139.3825721,7.20E-05,-2.16E-06,,,,
188.9199999,737,-17.2659607,-270.3907122,3.79E-08,16.17742421,-6.23E-05,142.6211452,7.30E-07,1.19E-06,9.572996254,-118.5093873,78.61480852,-1.82E-06,93.52363002,52.80946558,7.22E-05,-2.06E-06,,,,
188.9279999,738,-11.96229118,128.9971432,3.77E-08,38.25141647,-6.22E-05,130.2628047,7.29E-07,1.19E-06,-270.5621719,110.6406319,-146.4020233,-1.34E-06,-221.385362,-278.2169494,7.24E-05,-1.96E-06,,,,
188.9359999,738,-23.55752256,-11.43756568,3.76E-08,-83.01416756,-6.20E-05,45.98801409,7.27E-07,1.19E-06,232.8757637,-39.38763325,-99.18327563,-2.19E-06,127.0493486,243.7830059,7.26E-05,-1.98E-06,,,,
188.9439999,738,59.67981632,-127.5774557,3.75E-08,122.8160097,-6.19E-05,217.5194876,7.26E-07,1.18E-06,-284.5303057,-25.00607537,57.73803698,-1.26E-06,-118.6561059,-269.780411,7.28E-05,-1.88E-06,,,,
188.9519999,738,-17.34988665,239.6108615,3.74E-08,-41.70710253,-6.17E-05,41.22639283,7.25E-07,1.18E-06,155.3088942,111.9574554,-178.571108,1.06E-07,25.44639664,133.5161888,7.30E-05,-1.87E-06,,,,
188.9599999,738,24.03788766,-258.2916567,3.73E-08,25.2615935,-6.16E-05,154.4849039,7.23E-07,1.18E-06,30.76707362,-122.2165477,92.86732864,-1.44E-06,116.2884091,51.1769566,7.32E-05,-1.80E-06,,,,
188.9679999,738,43.43195937,148.9717292,3.72E-08,41.39225613,-6.14E-05,136.1220503,7.22E-07,1.18E-06,-216.9690746,109.8458259,-110.1376271,-1.97E-06,-161.8893548,-217.9330622,7.34E-05,-1.77E-06,,,,
188.9759999,738,-13.06360155,-43.64944773,3.70E-08,-86.41575457,-6.12E-05,54.83428634,7.20E-07,1.18E-06,261.3181496,-44.63399266,-74.9497084,-7.80E-07,153.2726059,269.3419981,7.36E-05,-1.71E-06,,,,
188.9839999,738,49.45554485,-168.297288,3.69E-08,114.5348765,-6.11E-05,229.6242767,7.19E-07,1.18E-06,-314.7647227,-43.3086377,30.44326265,2.11E-07,-146.4716778,-320.1563037,7.38E-05,-1.67E-06,,,,
188.9919999,738,18.48223676,264.6085933,3.68E-08,-51.92380681,-6.09E-05,44.17069906,7.17E-07,1.18E-06,160.0514151,103.6960972,-185.9759652,-1.98E-06,21.74689958,122.3867557,7.39E-05,-1.86E-06,,,,
188.9999999,738,46.61372078,-246.1616582,3.67E-08,15.28353933,-6.07E-05,149.4924338,7.16E-07,1.18E-06,88.45607746,-117.3890828,136.3388602,-7.68E-07,135.6347043,86.83299762,7.41E-05,-2.04E-06,,,,
189.0079999,738,-0.042988173,124.7074012,3.66E-08,35.13209879,-6.06E-05,136.0589773,7.14E-07,1.18E-06,-237.7708187,100.9382948,-120.8393556,6.90E-07,-190.4234506,-249.2936094,7.43E-05,-1.45E-06,,,,
189.0159999,738,-25.10027541,-9.048705918,3.64E-08,-89.8897626,-6.04E-05,44.90989765,7.13E-07,1.18E-06,251.6081837,-53.37191046,-95.79643755,-2.00E-06,141.7949358,277.3847684,7.44E-05,-1.19E-06,,,,
189.0239999,738,67.63813111,-152.5300254,3.63E-08,111.3714421,-6.03E-05,208.9266899,7.11E-07,1.18E-06,-248.70159,-46.02175352,74.85966873,-1.36E-06,-100.5277317,-237.4390515,7.46E-05,-1.53E-06,,,,
189.0319999,738,-8.460197122,212.9338754,3.62E-08,-53.87467743,-6.01E-05,39.58916408,7.10E-07,1.18E-06,136.3419075,82.2106522,-193.7462165,-1.06E-06,10.53283502,99.83864342,7.48E-05,-1.63E-06,,,,
189.0399999,738,41.91901834,-250.5790624,3.61E-08,16.82490637,-5.99E-05,155.5643609,7.08E-07,1.18E-06,44.01540309,-140.0830235,98.14327361,-4.38E-07,92.71730577,29.8504519,7.49E-05,-1.56E-06,,,,
189.0479999,738,28.45500728,121.9138314,3.59E-08,41.97453927,-5.97E-05,145.925633,7.06E-07,1.17E-06,-205.6381475,98.36911867,-98.22763439,8.92E-07,-186.3315401,-242.9544598,7.51E-05,-1.26E-06,,,,
189.0559999,738,-6.935932783,-41.85134319,3.58E-08,-82.23127865,-5.96E-05,62.95460625,7.05E-07,1.17E-06,255.0136746,-52.86140429,-87.44930576,4.13E-07,142.1962508,251.3125787,7.53E-05,-1.02E-06,,,,
189.0639999,738,82.5066514,-157.8095159,3.57E-08,114.2465541,-5.94E-05,222.9258354,7.03E-07,1.17E-06,-258.0549468,-42.56093075,68.44601503,6.56E-07,-99.76466978,-263.3684812,7.54E-05,-1.03E-06,,,,
189.0719999,738,-40.70373968,162.0284301,3.56E-08,-56.70688504,-5.92E-05,54.5088375,7.02E-07,1.17E-06,108.7722804,82.44849139,-217.3955263,-1.23E-06,-0.891975945,89.49309802,7.56E-05,-9.98E-07,,,,
189.0799999,738,-1.557220288,-319.0815566,3.54E-08,11.56765316,-5.91E-05,175.2948574,7.00E-07,1.17E-06,-27.55360042,-155.1913987,21.98398737,-1.08E-06,52.3456822,-5.198477028,7.57E-05,-1.41E-06,,,,
189.0879999,738,24.97141486,113.3819907,3.53E-08,34.84051117,-5.89E-05,156.0821041,6.98E-07,1.17E-06,-232.3760225,86.88404133,-146.5061889,-5.16E-07,-195.4787909,-248.8803271,7.59E-05,-1.37E-06,,,,
189.0959999,738,-4.777749653,-34.51200431,3.52E-08,-96.40912709,-5.87E-05,60.72724518,6.97E-07,1.17E-06,267.9774927,-61.73769908,-105.9974231,-9.92E-07,148.5138887,257.7705257,7.60E-05,-7.15E-07,,,,
189.1039999,738,112.3701456,-140.4640473,3.51E-08,97.94432633,-5.85E-05,212.4622417,6.95E-07,1.17E-06,-226.2279198,-54.12040719,56.66478345,1.41E-06,-87.16911997,-251.7158404,7.61E-05,-8.40E-07,,,,
189.1119999,738,-6.814163718,163.8458013,3.49E-08,-70.91551254,-5.84E-05,39.82195866,6.93E-07,1.17E-06,170.440887,79.26366494,-193.4095425,1.09E-06,28.15087737,139.1243075,7.63E-05,-8.13E-07,,,,
189.1199999,738,-21.46984373,-366.8254807,3.48E-08,-4.649087373,-5.82E-05,163.028327,6.92E-07,1.17E-06,-31.71230943,-170.3939241,8.164563388,8.38E-07,26.3684869,-15.52439721,7.64E-05,-9.55E-07,,,,
189.1279999,738,18.14848389,91.73835863,3.47E-08,19.94875327,-5.80E-05,140.491953,6.90E-07,1.16E-06,-279.8736829,60.91227982,-187.1287223,3.62E-07,-251.8692633,-312.1615695,7.66E-05,-1.20E-06,,,,
189.1359999,738,24.14131675,-27.66342841,3.46E-08,-103.1458189,-5.78E-05,41.46589025,6.88E-07,1.16E-06,280.4742195,-70.59171253,-77.92047183,-8.43E-07,138.3983264,257.7840071,7.67E-05,-1.05E-06,,,,
189.1439999,738,130.5514821,-152.613947,3.44E-08,103.8674183,-5.77E-05,207.0859971,6.87E-07,1.16E-06,-224.9819433,-54.86526342,99.06836001,-2.47E-07,-97.35399075,-273.1561415,7.68E-05,-1.28E-06,,,,
189.1519999,738,35.62579121,194.7819933,3.43E-08,-58.32894132,-5.75E-05,41.15162272,6.85E-07,1.16E-06,173.4145824,88.31115526,-146.1921352,-3.61E-07,19.72249751,77.04598698,7.69E-05,-9.84E-07,,,,
189.1599999,738,44.30616803,-303.278658,3.42E-08,4.743432772,-5.73E-05,158.2398639,6.83E-07,1.16E-06,37.96709242,-146.2224401,110.9063905,6.89E-07,59.04988383,-6.085272724,7.71E-05,-6.52E-07,,,,
189.1679999,738,40.41936332,96.0509667,3.40E-08,26.92803303,-5.71E-05,141.3515605,6.82E-07,1.16E-06,-232.5410896,80.66909717,-106.7636829,-2.34E-07,-218.2766214,-281.6299629,7.72E-05,-9.97E-07,,,,
189.1759999,738,11.13047647,-42.24273437,3.39E-08,-96.88388431,-5.69E-05,50.15676093,6.80E-07,1.16E-06,253.0106777,-66.58064916,-86.0621118,-3.90E-07,137.3501496,239.3470455,7.73E-05,-6.44E-07,,,,
189.1839999,739,121.1953128,-134.9127973,3.38E-08,109.9270483,-5.67E-05,216.4217269,6.78E-07,1.15E-06,-257.0088929,-55.3422508,72.15783259,1.15E-06,-106.2265079,-261.7145305,7.74E-05,-5.85E-07,,,,
189.1919999,739,26.17813861,205.3381344,3.36E-08,-51.64021153,-5.66E-05,49.08485725,6.76E-07,1.15E-06,183.6269859,96.68886503,-145.7081114,1.63E-06,53.79423242,161.0265156,7.76E-05,-1.14E-06,,,,
189.1999999,739,47.77632162,-282.7874025,3.35E-08,8.17593486,-5.64E-05,159.3983939,6.74E-07,1.15E-06,47.493407,-139.0607995,98.81711317,7.91E-07,110.4730773,59.24046231,7.77E-05,-9.63E-07,,,,
189.2079999,739,52.48044793,121.6442723,3.34E-08,26.88061463,-5.62E-05,140.3287171,6.73E-07,1.15E-06,-228.8075334,87.12177037,-112.5229734,-2.62E-07,-192.2981266,-247.4918583,7.78E-05,-8.93E-07,,,,
189.2159999,739,0.364986844,-63.02812486,3.33E-08,-98.24093735,-5.60E-05,59.49248041,6.71E-07,1.15E-06,255.1183939,-58.94550839,-83.99143189,1.22E-06,130.9063641,264.0148468,7.79E-05,-9.27E-07,,,,
189.2239999,739,142.9234112,-123.2433058,3.31E-08,105.7539251,-5.58E-05,221.4258019,6.69E-07,1.15E-06,-257.3888558,-54.66104757,55.33232289,2.02E-06,-136.634858,-257.9686389,7.80E-05,-8.21E-07,,,,
189.2319999,739,110.3814439,293.741441,3.30E-08,-54.71235274,-5.56E-05,32.81572101,6.67E-07,1.15E-06,241.6190914,103.4652937,-115.1844032,8.61E-07,66.3559519,202.4846571,7.81E-05,-8.32E-07,,,,
189.2399999,739,99.19937938,-235.6223347,3.29E-08,15.53982933,-5.54E-05,145.9488429,6.65E-07,1.14E-06,134.7154236,-123.3713447,188.319564,-9.08E-07,161.8301219,124.7755233,7.82E-05,-7.62E-07,,,,
189.2479999,739,74.54169811,158.4199375,3.27E-08,46.13498234,-5.53E-05,135.9472138,6.64E-07,1.14E-06,-173.4001279,103.2804548,-36.27761493,4.74E-07,-167.5796332,-210.8276692,7.83E-05,-7.43E-07,,,,
189.2559999,739,13.05245847,7.409908201,3.26E-08,-78.18554655,-5.51E-05,45.6985021,6.62E-07,1.14E-06,323.8686686,-40.02201264,-0.259755301,1.60E-06,173.026141,294.5492629,7.84E-05,-2.18E-07,,,,
189.2639999,739,52.73634378,-149.1056371,3.25E-08,120.8044693,-5.49E-05,217.2215573,6.60E-07,1.14E-06,-215.2493084,-43.65915264,140.9266404,1.09E-06,-100.580613,-271.9797279,7.85E-05,-4.52E-07,,,,
189.2719999,739,-34.07270164,210.7813666,3.23E-08,-42.80127016,-5.47E-05,47.73573537,6.58E-07,1.14E-06,190.0428938,93.5168416,-117.3127629,2.36E-06,5.66934729,119.1980871,7.86E-05,-7.59E-07,,,,
189.2799999,739,-20.03173116,-300.603709,3.22E-08,18.241981,-5.45E-05,164.4087124,6.56E-07,1.14E-06,51.5597086,-145.7618784,122.4512061,1.29E-06,71.84796423,30.45501011,7.87E-05,-2.84E-07,,,,
189.2879999,739,-42.35653245,79.57411092,3.21E-08,35.22539116,-5.43E-05,152.7193459,6.54E-07,1.14E-06,-244.4874307,75.9923509,-108.9801712,-7.15E-07,-212.6317288,-295.1145792,7.87E-05,-1.31E-07,,,,
189.2959999,739,-64.88494368,-52.38861246,3.19E-08,-93.01657811,-5.41E-05,60.56792764,6.52E-07,1.13E-06,263.5162201,-70.92484284,-78.69475135,-7.18E-08,134.7796233,239.9322286,7.88E-05,-3.54E-07,,,,
189.3039999,739,51.19762539,-152.4025299,3.18E-08,111.7867824,-5.39E-05,230.9008577,6.50E-07,1.13E-06,-253.5924898,-67.66355483,79.99037955,-4.20E-09,-132.1497647,-287.3214798,7.89E-05,-8.04E-07,,,,
189.3119999,739,-6.162397551,230.8099352,3.16E-08,-48.57597198,-5.37E-05,54.66964515,6.48E-07,1.13E-06,203.6477458,87.45595276,-125.5504739,-1.18E-07,43.37175786,155.9219206,7.90E-05,-4.22E-07,,,,
189.3199999,739,2.294456173,-298.4481874,3.15E-08,17.10120828,-5.35E-05,170.3076551,6.46E-07,1.13E-06,77.00205498,-148.1520503,133.836872,1.08E-06,120.6487614,83.88212395,7.91E-05,-1.27E-07,,,,
189.3279999,739,2.509370112,104.0817637,3.14E-08,39.70509956,-5.33E-05,161.6166609,6.45E-07,1.13E-06,-242.2947881,68.50865072,-111.7309868,1.90E-06,-223.6785898,-285.6288037,7.92E-05,-2.31E-07,,,,
189.3359999,739,-12.44768541,-19.55401212,3.12E-08,-90.55261044,-5.31E-05,63.73846663,6.43E-07,1.12E-06,316.3034166,-68.27922297,-46.21484723,1.76E-06,162.1201448,275.9380224,7.92E-05,-1.33E-07,,,,
189.3439999,739,82.35032114,-148.5549332,3.11E-08,114.191903,-5.29E-05,236.7395433,6.41E-07,1.12E-06,-209.7614164,-67.1420332,108.4747205,1.77E-06,-97.36228766,-251.9778762,7.93E-05,-1.29E-07,,,,
189.3519999,739,28.23114903,259.4533835,3.10E-08,-46.73827493,-5.28E-05,64.92131127,6.39E-07,1.12E-06,186.6557003,80.37731317,-142.614425,9.50E-07,-0.171660871,131.5101639,7.94E-05,-8.71E-08,,,,
189.3599999,739,40.40128382,-243.580877,3.08E-08,18.33911129,-5.26E-05,172.2438144,6.37E-07,1.12E-06,94.18227765,-145.9950289,147.9509033,1.21E-08,107.8600559,79.50703456,7.94E-05,-5.79E-08,,,,
189.3679999,739,37.52382601,153.1342301,3.07E-08,45.29579652,-5.24E-05,155.7299181,6.35E-07,1.12E-06,-204.8551814,75.99203501,-62.0468962,4.14E-07,-194.2318404,-267.9747493,7.95E-05,-2.72E-08,,,,
189.3759999,739,29.75721751,6.337795827,3.06E-08,-86.11678336,-5.22E-05,58.41997599,6.33E-07,1.12E-06,335.2824101,-58.86105588,3.685970781,4.08E-07,163.978366,293.0555877,7.96E-05,5.10E-09,,,,
189.3839999,739,101.7748855,-174.5010074,3.04E-08,117.8876362,-5.20E-05,240.3195372,6.31E-07,1.11E-06,-225.2119817,-59.38999491,139.0258237,2.34E-06,-105.0857739,-270.639059,7.96E-05,-2.04E-07,,,,
189.3919999,739,27.31223006,205.363592,3.03E-08,-41.77978586,-5.18E-05,75.55711053,6.29E-07,1.11E-06,150.7169473,81.62916329,-141.3371467,4.25E-06,-6.511160182,72.51518672,7.97E-05,-3.97E-07,,,,
189.3999999,739,75.40550591,-293.7620105,3.01E-08,21.27411142,-5.16E-05,183.4191876,6.27E-07,1.11E-06,89.11072747,-147.8355459,146.3391587,2.71E-06,99.19479959,72.68324739,7.97E-05,-5.51E-08,,,,
189.4079999,739,83.32130937,110.0790214,3.00E-08,50.51473055,-5.14E-05,172.6265694,6.25E-07,1.11E-06,-233.2117199,69.00813564,-85.28535542,1.92E-06,-215.1764487,-264.7393547,7.98E-05,1.97E-07,,,,
189.4159999,739,42.7072728,-13.80160713,2.99E-08,-80.78636561,-5.12E-05,73.98594458,6.23E-07,1.11E-06,297.7344564,-67.51273846,-32.26978432,2.34E-06,151.0261963,265.1230494,7.98E-05,-9.65E-08,,,,
189.4239999,739,88.43338805,-202.2008658,2.97E-08,115.6830713,-5.10E-05,245.2619505,6.21E-07,1.10E-06,-236.2258548,-73.02638989,120.5290273,1.28E-06,-102.6988259,-271.8391934,7.99E-05,-2.69E-07,,,,
189.4319999,739,8.193704311,182.3375081,2.96E-08,-49.00469708,-5.08E-05,79.16033627,6.19E-07,1.10E-06,86.6894791,50.59457739,-191.3765318,2.37E-06,-39.88804889,51.78778303,7.99E-05,7.35E-08,,,,
189.4399999,740,93.83842004,-240.715334,2.94E-08,13.49730895,-5.06E-05,181.1384785,6.16E-07,1.10E-06,64.45404869,-167.5516724,124.8990545,4.50E-06,101.0926858,66.62763737,8.00E-05,7.84E-08,,,,
189.4479999,740,88.4347373,144.0577303,2.93E-08,41.22804438,-5.04E-05,166.8616829,6.14E-07,1.10E-06,-181.9326405,80.58486987,-33.46661002,2.97E-06,-145.3342336,-214.2134398,8.00E-05,2.82E-07,,,,
189.4559999,740,-15.45562654,-49.78912027,2.92E-08,-91.1672332,-5.01E-05,80.64507852,6.12E-07,1.10E-06,234.9504659,-66.48237465,-54.83588782,2.10E-06,135.8415943,251.0805471,8.01E-05,6.13E-07,,,,
189.4639999,740,91.66558308,-154.2232985,2.90E-08,108.8534351,-4.99E-05,244.8826823,6.10E-07,1.09E-06,-313.1501203,-74.52350014,71.32086434,1.64E-06,-142.6689686,-271.2332418,8.01E-05,3.09E-08,,,,
189.4719999,740,51.23713826,247.9470478,2.89E-08,-52.81175522,-4.97E-05,68.28648976,6.08E-07,1.09E-06,115.514099,75.7241882,-141.2341832,2.48E-06,19.79900177,131.4938672,8.01E-05,1.31E-07,,,,
189.4799999,740,44.8910649,-287.5560886,2.87E-08,12.01017609,-4.95E-05,187.480389,6.06E-07,1.09E-06,15.79710652,-156.0400314,146.4440599,3.74E-06,107.1908908,55.57674642,8.02E-05,2.67E-07,,,,
189.4879999,740,12.02982252,89.87927152,2.86E-08,41.33842386,-4.93E-05,188.421847,6.04E-07,1.09E-06,-320.7758469,63.94854574,-97.97963539,1.30E-06,-242.5468908,-308.4025275,8.02E-05,1.63E-07,,,,
189.4959999,740,-14.94077048,-13.82631285,2.85E-08,-91.91842564,-4.91E-05,96.03701562,6.02E-07,1.08E-06,192.4309806,-74.55362358,-82.79489582,2.62E-06,90.9509721,213.3472086,8.02E-05,5.38E-07,,,,
189.5039999,740,156.2550161,-61.98777841,2.83E-08,113.4016942,-4.89E-05,250.8349431,6.00E-07,1.08E-06,-222.3798149,-55.75660949,136.314759,3.96E-06,-98.92150463,-224.5587916,8.02E-05,2.40E-07,,,,
189.5119999,740,56.12650701,253.8440561,2.82E-08,-47.35310521,-4.87E-05,86.40829996,5.98E-07,1.08E-06,165.4846615,97.61495016,-88.14039665,1.28E-06,57.3157408,167.245114,8.03E-05,2.67E-07,,,,
189.5199999,740,32.29494302,-281.8328868,2.80E-08,7.927038534,-4.85E-05,202.5243129,5.96E-07,1.08E-06,-0.039283022,-152.0876097,119.2941814,2.82E-06,103.1166087,49.47498774,8.03E-05,8.70E-07,,,,
189.5279999,740,97.54363224,202.0829187,2.79E-08,36.78117406,-4.83E-05,175.3441749,5.93E-07,1.08E-06,-220.6014855,79.03888513,-62.52117388,4.00E-06,-179.6010182,-210.9448788,8.03E-05,5.29E-07,,,,
189.5359999,740,47.88976814,14.94722735,2.78E-08,-94.93047731,-4.81E-05,84.37188446,5.91E-07,1.07E-06,309.2431283,-49.0238095,6.924693644,1.43E-06,204.6397548,355.9981525,8.03E-05,2.88E-07,,,,
189.5439999,740,169.183285,-87.56996725,2.76E-08,102.4156201,-4.79E-05,244.4941002,5.89E-07,1.07E-06,-234.4852127,-54.33268841,127.288521,1.95E-06,-73.942604,-204.1460222,8.03E-05,7.03E-07,,,,
189.5519999,740,132.7311904,321.1622594,2.75E-08,-57.43870794,-4.77E-05,60.96893134,5.87E-07,1.07E-06,195.9367077,101.9762029,-100.1062963,3.22E-06,74.66150815,206.2072079,8.04E-05,6.39E-07,,,,
189.5599999,740,134.004525,-212.6360432,2.73E-08,7.672795769,-4.75E-05,173.0153054,5.85E-07,1.07E-06,108.1107363,-122.087429,185.3540819,3.73E-06,196.2010444,171.8042388,8.04E-05,4.03E-07,,,,
189.5679999,740,160.8409601,222.1036306,2.72E-08,40.96885313,-4.73E-05,157.4161545,5.83E-07,1.06E-06,-180.0440083,109.9882975,-15.20505158,3.84E-06,-117.98882,-168.5567617,8.04E-05,2.52E-07,,,,
189.5759999,740,75.8380454,12.04405548,2.71E-08,-86.54526397,-4.70E-05,77.15313665,5.81E-07,1.06E-06,277.1640436,-30.50884648,3.221510088,3.63E-06,189.6399616,306.0870408,8.04E-05,3.05E-07,,,,
189.5839999,740,148.8178314,-145.0412076,2.69E-08,117.8397768,-4.68E-05,254.8401616,5.78E-07,1.06E-06,-285.7783619,-42.76906412,105.4133789,3.88E-06,-119.6477972,-259.6281609,8.04E-05,3.60E-07,,,,
189.5919999,740,97.5165154,264.6386792,2.68E-08,-39.5488853,-4.66E-05,84.31261904,5.76E-07,1.06E-06,113.4461998,104.6513881,-156.8867804,3.74E-06,-29.58126596,125.7096184,8.04E-05,3.52E-07,,,,
189.5999999,740,118.8101833,-230.2902393,2.66E-08,24.74011354,-4.64E-05,202.7014582,5.74E-07,1.05E-06,15.74034998,-125.7316039,112.970176,3.87E-06,74.3320244,69.1434182,8.04E-05,4.08E-07,,,,
189.6079999,740,166.2254779,228.8991752,2.65E-08,56.06468288,-4.62E-05,184.8558216,5.72E-07,1.05E-06,-206.1800246,115.6168238,-55.68116493,3.83E-06,-156.8625415,-206.240898,8.04E-05,4.15E-07,,,,
189.6159999,740,103.9563311,56.87355757,2.63E-08,-82.85289755,-4.60E-05,85.65754514,5.70E-07,1.05E-06,314.2442412,-20.7395897,-6.737510726,3.89E-06,199.6157027,354.8234164,8.04E-05,4.54E-07,,,,
189.6239999,740,148.7043865,-142.5613715,2.62E-08,110.3115042,-4.58E-05,259.1718415,5.67E-07,1.05E-06,-256.2340701,-44.15809403,115.5512679,3.89E-06,-99.71506102,-213.4773419,8.04E-05,4.73E-07,,,,
189.6319999,740,79.85276753,256.3782204,2.61E-08,-51.37234479,-4.56E-05,88.77813128,5.65E-07,1.04E-06,134.1007999,94.22527807,-159.5210917,3.92E-06,-1.992561149,126.4602218,8.04E-05,9.80E-07,,,,
189.6399999,740,115.4781972,-200.5826291,2.59E-08,6.91598571,-4.53E-05,190.9364745,5.63E-07,1.04E-06,72.59118756,-135.7887413,119.2017751,2.99E-06,102.565193,105.7555505,8.04E-05,1.45E-06,,,,
189.6479999,740,120.7506768,191.4019143,2.58E-08,37.18567187,-4.51E-05,169.6028315,5.61E-07,1.04E-06,-158.5868819,107.5376525,-27.86574263,4.02E-06,-131.1514333,-165.0682104,8.04E-05,1.09E-06,,,,
189.6559999,740,36.45059021,1.022705692,2.56E-08,-96.25216684,-4.49E-05,73.13783975,5.58E-07,1.04E-06,301.8232931,-32.07161094,-23.26518742,4.23E-06,190.1768712,309.2984667,8.04E-05,8.98E-07,,,,
189.6639999,740,94.35532497,-160.3223524,2.55E-08,106.9866487,-4.47E-05,249.1386331,5.56E-07,1.03E-06,-282.9050897,-48.37962638,85.66815683,3.76E-06,-134.3245717,-254.1607045,8.03E-05,7.81E-07,,,,
189.6719999,740,4.12426872,192.3396061,2.53E-08,-44.17992373,-4.45E-05,88.71654692,5.54E-07,1.03E-06,131.9761814,106.9280718,-153.5093804,3.29E-06,-17.66178788,138.3544176,8.03E-05,1.01E-06,,,,
189.6799999,740,12.38865976,-315.8642945,2.52E-08,17.39940185,-4.43E-05,209.8875237,5.52E-07,1.03E-06,-3.512765917,-135.3083838,75.76312315,2.07E-06,27.18750075,13.09998168,8.03E-05,1.33E-06,,,,
189.6879999,740,36.13142886,114.6336933,2.50E-08,51.07544694,-4.41E-05,206.4323653,5.50E-07,1.03E-06,-298.0698947,91.50632018,-122.7157984,4.51E-06,-279.1161912,-328.0034336,8.03E-05,7.38E-07,,,,
189.6959999,741,49.11260151,26.11240489,2.49E-08,-74.16547473,-4.38E-05,102.5591034,5.47E-07,1.02E-06,286.2788987,-26.34005928,-37.5491149,3.33E-06,141.7344652,281.2104463,8.03E-05,1.08E-06,,,,
189.7039999,741,173.3447435,-95.31823722,2.48E-08,129.1873038,-4.36E-05,266.8322989,5.45E-07,1.02E-06,-217.0299712,-24.58821829,151.4734841,2.00E-06,-86.13123853,-226.3104275,8.02E-05,1.43E-06,,,,
189.7119999,741,77.15889975,261.0181826,2.46E-08,-36.46551061,-4.34E-05,96.60312149,5.43E-07,1.02E-06,172.5894813,129.3384714,-93.31152198,4.77E-06,29.08472183,128.6337536,8.02E-05,1.24E-06,,,,
189.7199999,741,76.67645802,-251.2097245,2.45E-08,16.78904306,-4.32E-05,202.8281096,5.40E-07,1.02E-06,61.67305529,-110.8871081,137.3941088,5.18E-06,100.9433795,55.88638576,8.02E-05,1.37E-06,,,,
189.7279999,741,50.46537337,122.9315855,2.43E-08,51.2660716,-4.30E-05,201.0425183,5.38E-07,1.01E-06,-256.7880533,109.1274881,-84.50325676,3.97E-06,-228.6054701,-274.796826,8.02E-05,1.33E-06,,,,
189.7359999,741,12.11819768,11.42395564,2.42E-08,-78.39573035,-4.28E-05,103.8487876,5.36E-07,1.01E-06,268.1953105,-21.63911032,-60.81152175,3.25E-06,132.593213,291.8988001,8.01E-05,1.38E-06,,,,
189.7439999,741,122.4029998,-125.5182594,2.40E-08,124.7575644,-4.26E-05,266.2508892,5.34E-07,1.01E-06,-221.6926939,-22.97937529,118.934965,4.42E-06,-83.20521901,-209.8809612,8.01E-05,1.38E-06,,,,
189.7519999,741,13.96149718,214.2009479,2.39E-08,-37.89901931,-4.23E-05,96.03936797,5.31E-07,1.01E-06,152.1189727,123.2467203,-141.4848863,5.37E-06,25.28436673,133.6966124,8.01E-05,1.41E-06,,,,
189.7599999,741,33.21110963,-259.1094609,2.38E-08,14.35973739,-4.21E-05,203.3624701,5.29E-07,1.00E-06,42.2044373,-120.6062663,88.50752022,5.01E-06,93.21728086,63.98765044,8.00E-05,1.18E-06,,,,
189.7679999,741,49.52179372,152.4614427,2.36E-08,42.85903278,-4.19E-05,189.0832942,5.27E-07,1.00E-06,-209.0625372,114.8534824,-82.76950603,4.17E-06,-193.827125,-240.2968268,8.00E-05,9.75E-07,,,,
189.7759999,741,0.483695697,16.58835069,2.35E-08,-98.07447465,-4.17E-05,79.55653249,5.24E-07,9.97E-07,305.4520971,-16.51903358,-59.49229492,3.28E-06,157.8554851,299.5413461,7.99E-05,1.07E-06,,,,
189.7839999,741,84.40692587,-136.3553278,2.33E-08,102.4536132,-4.15E-05,246.8008455,5.22E-07,9.94E-07,-236.9315108,-37.03433267,92.65122912,3.56E-06,-106.5019314,-236.0587867,7.99E-05,1.32E-06,,,,
189.7919999,741,-10.88401207,228.3002107,2.32E-08,-51.49784426,-4.12E-05,77.55514582,5.20E-07,9.91E-07,167.5467192,112.3202915,-143.2309582,4.54E-06,2.605676519,121.723433,7.99E-05,1.55E-06,,,,
189.7999999,741,20.15208699,-257.4879723,2.30E-08,8.629108065,-4.10E-05,183.181963,5.17E-07,9.89E-07,80.75707447,-123.8334484,109.4753897,5.39E-06,100.0191421,63.61670043,7.98E-05,1.27E-06,,,,
189.8079999,741,57.89902101,159.1972043,2.29E-08,40.34871733,-4.08E-05,172.9852764,5.15E-07,9.86E-07,-206.7809625,103.6494687,-72.86737105,5.20E-06,-194.4437721,-260.4901922,7.98E-05,1.06E-06,,,,
189.8159999,741,10.88282539,15.8454862,2.27E-08,-98.58464901,-4.06E-05,67.38758881,5.13E-07,9.83E-07,321.1321801,-24.86597151,-27.04378073,5.17E-06,158.2830872,283.8900704,7.97E-05,1.41E-06,,,,
189.8239999,741,68.14161781,-171.5917939,2.26E-08,103.661795,-4.04E-05,243.088426,5.10E-07,9.80E-07,-238.2766428,-41.65655141,106.5401676,5.27E-06,-98.37345385,-258.3993112,7.97E-05,1.39E-06,,,,
189.8319999,741,-10.19907024,236.461113,2.25E-08,-52.71001601,-4.02E-05,76.53745058,5.08E-07,9.77E-07,127.2329904,107.0336116,-176.3904694,4.24E-06,-2.735111809,84.44178473,7.96E-05,1.58E-06,,,,
189.8399999,741,44.51698359,-228.5545494,2.23E-08,7.345664799,-3.99E-05,177.530719,5.06E-07,9.74E-07,90.3900678,-120.4185153,121.0436136,3.41E-06,101.8431226,74.58746903,7.95E-05,1.90E-06,,,,
189.8479999,741,78.84835522,167.3332148,2.22E-08,44.78629856,-3.97E-05,168.4142998,5.03E-07,9.71E-07,-188.0354989,112.4339385,-39.84111259,3.67E-06,-192.5950386,-215.3130744,7.95E-05,1.78E-06,,,,
189.8559999,741,6.145648199,35.47699159,2.20E-08,-94.25660747,-3.95E-05,65.20880932,5.01E-07,9.68E-07,300.0799693,-17.42997876,-28.73134329,3.70E-06,133.9577286,306.6201254,7.94E-05,1.84E-06,,,,
189.8639999,741,43.75663333,-149.8612726,2.19E-08,106.8682653,-3.93E-05,235.4134173,4.99E-07,9.65E-07,-217.9202483,-28.91131354,131.3190396,3.65E-06,-125.7639563,-220.2920084,7.94E-05,1.84E-06,,,,
189.8719999,741,-11.32986039,249.196277,2.17E-08,-52.26604972,-3.91E-05,57.10959888,4.96E-07,9.63E-07,171.8357609,116.7509407,-135.6047714,3.74E-06,-13.28258387,129.8819267,7.93E-05,1.85E-06,,,,
189.8799999,741,42.06982223,-240.9737836,2.16E-08,-2.828072921,-3.88E-05,153.8836353,4.94E-07,9.60E-07,75.12601933,-130.1684393,110.4702764,3.71E-06,82.13070073,57.46703335,7.92E-05,1.87E-06,,,,
189.8879999,741,62.46338302,127.0002952,2.14E-08,32.11213261,-3.86E-05,146.9118148,4.92E-07,9.57E-07,-200.1431251,98.88255783,-67.39034077,3.77E-06,-214.8182247,-239.7805206,7.92E-05,1.88E-06,,,,
189.8959999,741,50.53038747,25.7787533,2.13E-08,-101.9015903,-3.84E-05,39.09688935,4.89E-07,9.54E-07,314.9649175,-27.52576157,-49.37458772,5.67E-06,134.5335788,302.3748319,7.91E-05,1.66E-06,,,,
189.9039999,741,125.8969868,-151.6539664,2.11E-08,102.4337448,-3.82E-05,213.3633462,4.87E-07,9.51E-07,-248.5812477,-43.60649955,102.4557942,7.50E-06,-124.8212188,-254.1203852,7.90E-05,1.44E-06,,,,
189.9119999,741,23.97179438,203.6149223,2.10E-08,-54.08492661,-3.80E-05,49.17823013,4.85E-07,9.48E-07,141.0339106,110.5147305,-155.2882685,5.97E-06,-24.84355802,124.8107804,7.90E-05,1.53E-06,,,,
189.9199999,741,57.78709752,-251.9925165,2.09E-08,-3.536999055,-3.77E-05,144.8441294,4.82E-07,9.45E-07,74.10574356,-129.7460601,97.26251431,5.11E-06,68.71800977,85.19641874,7.89E-05,1.77E-06,,,,
189.9279999,741,63.53538405,144.2688125,2.07E-08,30.35095662,-3.75E-05,134.7714556,4.80E-07,9.42E-07,-225.5520518,93.26115892,-73.3497417,5.51E-06,-218.4377005,-251.7629297,7.88E-05,2.00E-06,,,,
189.9359999,741,-2.305529294,-17.91863846,2.06E-08,-108.9221081,-3.73E-05,32.89118365,4.77E-07,9.39E-07,295.2070489,-37.37763439,-44.47019171,5.36E-06,143.8008957,293.1594942,7.87E-05,1.72E-06,,,,
189.9439999,741,62.44566342,-197.622175,2.04E-08,92.25861392,-3.71E-05,207.8612576,4.75E-07,9.35E-07,-268.5643275,-66.51983255,77.75919279,5.42E-06,-146.5976618,-287.3831557,7.87E-05,1.50E-06,,,,
189.9519999,742,-4.487919132,218.7788567,2.03E-08,-61.24809601,-3.69E-05,43.72482979,4.73E-07,9.32E-07,101.8464625,78.55115979,-193.4373366,4.46E-06,-63.64890171,52.58685874,7.86E-05,1.84E-06,,,,
189.9599999,742,40.34155418,-238.573234,2.01E-08,-5.287781794,-3.66E-05,149.2024793,4.70E-07,9.29E-07,69.42183322,-150.0494011,97.03108424,3.56E-06,68.50959337,68.7640857,7.85E-05,1.82E-06,,,,
189.9679999,742,51.83015944,147.7376537,2.00E-08,34.36811679,-3.64E-05,144.9683767,4.68E-07,9.26E-07,-211.0129648,86.67523208,-62.0585085,5.78E-06,-223.0470778,-266.6863138,7.84E-05,1.77E-06,,,,
189.9759999,742,16.43744276,17.60098607,1.98E-08,-103.8991918,-3.62E-05,35.31779809,4.65E-07,9.23E-07,309.0341089,-37.05437479,-37.05882861,6.61E-06,111.1477582,256.9786929,7.83E-05,2.09E-06,,,,
189.9839999,742,101.6812275,-167.8942272,1.97E-08,93.74819995,-3.60E-05,203.2444487,4.63E-07,9.20E-07,-239.2187011,-60.91942849,104.0294862,5.08E-06,-155.1624233,-268.9315194,7.82E-05,1.80E-06,,,,
189.9919999,742,14.9126481,202.9126733,1.96E-08,-63.27421661,-3.57E-05,35.73800782,4.61E-07,9.17E-07,119.0385005,86.316556,-170.870446,4.53E-06,-52.38193225,63.66446924,7.82E-05,1.80E-06,,,,
189.9999999,742,38.6208429,-277.9534782,1.94E-08,-6.677985612,-3.55E-05,139.8918183,4.58E-07,9.14E-07,48.15512297,-148.0934507,88.48941441,3.67E-06,51.55066952,37.1995476,7.81E-05,2.39E-06,,,,
190.0079999,742,95.75857732,154.9722344,1.93E-08,36.36279161,-3.53E-05,131.9759576,4.56E-07,9.11E-07,-219.791442,86.08030957,-68.721722,4.77E-06,-234.0545008,-253.9399178,7.80E-05,2.27E-06,,,,
190.0159999,742,104.4505596,69.92779617,1.91E-08,-101.8387649,-3.51E-05,15.94998432,4.53E-07,9.07E-07,343.2160875,-33.57065805,-8.5950203,5.81E-06,150.7864711,307.0087418,7.79E-05,2.24E-06,,,,
190.0239999,742,174.3615628,-138.8234118,1.90E-08,96.95154142,-3.49E-05,185.9104912,4.51E-07,9.04E-07,-199.6144162,-54.90994843,153.1873284,4.41E-06,-100.2495901,-227.9354609,7.78E-05,2.09E-06,,,,
190.0319999,742,79.06254136,224.3722992,1.88E-08,-58.20279828,-3.46E-05,21.13150071,4.49E-07,9.01E-07,156.9433067,91.22744186,-126.1656114,5.58E-06,-6.303525864,108.0298842,7.77E-05,1.80E-06,,,,
190.0399999,742,103.166389,-245.9432532,1.87E-08,-3.47052468,-3.44E-05,126.2379014,4.46E-07,8.98E-07,85.67079266,-149.6639599,124.9820487,6.69E-06,99.18146229,68.52419386,7.76E-05,2.41E-06,,,,
190.0479999,742,103.7397895,134.2038892,1.86E-08,38.23333683,-3.42E-05,133.7322618,4.44E-07,8.95E-07,-218.3565698,79.91218226,-48.43289545,5.18E-06,-215.4636439,-255.9542848,7.75E-05,2.12E-06,,,,
190.0559999,742,42.01743204,-7.975451918,1.84E-08,-100.3431794,-3.40E-05,37.53837726,4.41E-07,8.91E-07,288.0331065,-47.79986979,-37.34285005,6.43E-06,109.9862451,262.7535393,7.74E-05,1.78E-06,,,,
190.0639999,742,126.363527,-187.4288271,1.83E-08,98.52948681,-3.38E-05,207.6183168,4.39E-07,8.88E-07,-268.3377556,-75.9193152,93.23332682,6.52E-06,-164.4008929,-292.6329155,7.73E-05,2.48E-06,,,,
190.0719999,742,57.15557929,198.3480751,1.81E-08,-58.73478739,-3.35E-05,36.61257974,4.36E-07,8.85E-07,107.7295061,72.32989188,-173.5438952,5.09E-06,-63.75035291,71.44210486,7.72E-05,2.11E-06,,,,
190.0799999,742,74.60220277,-286.6245267,1.80E-08,-8.496499018,-3.33E-05,137.0501124,4.34E-07,8.82E-07,47.44890266,-174.1809547,80.15667035,6.55E-06,65.86116229,35.29091052,7.71E-05,1.59E-06,,,,
190.0879999,742,105.0881915,122.2000554,1.78E-08,30.95613029,-3.31E-05,125.9049525,4.32E-07,8.78E-07,-230.9079098,50.7446892,-87.37085063,6.39E-06,-201.859905,-291.5137201,7.70E-05,2.03E-06,,,,
190.0959999,742,66.51794635,2.655014064,1.77E-08,-105.3084002,-3.29E-05,19.48502973,4.29E-07,8.75E-07,306.9882083,-70.84935851,-46.87745205,4.21E-06,151.1960201,269.5082175,7.69E-05,2.23E-06,,,,
190.1039999,742,124.3863386,-187.267572,1.76E-08,103.2235758,-3.26E-05,205.3457871,4.27E-07,8.72E-07,-254.6497075,-91.40363796,98.85761143,5.59E-06,-133.2311099,-293.6813167,7.68E-05,2.15E-06,,,,
190.1119999,742,42.57157846,205.2249232,1.74E-08,-46.27211704,-3.24E-05,44.55512972,4.24E-07,8.69E-07,115.1965094,67.08871905,-166.0883649,6.71E-06,-50.36790465,48.43904918,7.66E-05,2.43E-06,,,,
190.1199999,742,65.56452463,-281.5240484,1.73E-08,2.901547076,-3.22E-05,147.8394983,4.22E-07,8.65E-07,55.53785174,-173.179473,85.52964065,6.08E-06,63.31229797,28.49213494,7.65E-05,2.65E-06,,,,
190.1279999,742,59.73784424,89.06743424,1.71E-08,38.69393017,-3.20E-05,151.7216696,4.20E-07,8.62E-07,-263.1228468,50.90542052,-107.7491386,6.39E-06,-244.5078012,-333.158598,7.64E-05,2.59E-06,,,,
190.1359999,742,34.49406283,1.600301471,1.70E-08,-99.23744334,-3.18E-05,44.42858988,4.17E-07,8.59E-07,277.1312861,-67.12114812,-85.86926554,6.23E-06,97.00318037,231.3053853,7.63E-05,2.60E-06,,,,
190.1439999,742,171.0368525,-119.4165928,1.68E-08,111.2078159,-3.15E-05,214.1437654,4.15E-07,8.55E-07,-220.2224854,-75.36714796,95.43927593,6.29E-06,-123.1707268,-257.9009923,7.62E-05,2.61E-06,,,,
190.1519999,742,108.1536483,271.473563,1.67E-08,-41.67018486,-3.13E-05,44.31147349,4.12E-07,8.52E-07,169.6539964,94.94628238,-133.0713238,6.26E-06,-7.202428004,101.4204516,7.61E-05,2.60E-06,,,,
190.1599999,742,132.5106149,-220.5058685,1.66E-08,4.576268782,-3.11E-05,135.1318119,4.10E-07,8.49E-07,111.0230388,-141.0473845,131.1108924,6.26E-06,93.93934307,98.00216996,7.59E-05,2.38E-06,,,,
190.1679999,742,135.4174004,124.9701367,1.64E-08,46.06694718,-3.09E-05,132.0042858,4.07E-07,8.45E-07,-214.0321208,81.34477202,-52.35102519,6.25E-06,-192.7053823,-249.3157676,7.58E-05,2.15E-06,,,,
190.1759999,742,85.52760078,-10.50071936,1.63E-08,-94.77687996,-3.07E-05,27.21265306,4.05E-07,8.42E-07,280.3318851,-50.6064174,-55.34102603,6.24E-06,137.6420077,252.4825537,7.57E-05,2.23E-06,,,,
190.1839999,742,216.3353796,-125.8155534,1.61E-08,108.179928,-3.04E-05,190.7759241,4.03E-07,8.39E-07,-215.1375376,-69.27591502,120.3438867,6.24E-06,-110.6731943,-250.5128534,7.56E-05,2.23E-06,,,,
190.1919999,742,135.3608212,252.5547375,1.60E-08,-39.32830006,-3.02E-05,20.66635902,4.00E-07,8.35E-07,183.6859605,99.5618323,-92.01645316,6.23E-06,18.06763146,137.5822855,7.54E-05,2.46E-06,,,,
190.1999999,742,108.5025731,-271.9346999,1.58E-08,16.99723911,-3.00E-05,131.492698,3.98E-07,8.32E-07,62.08068205,-146.4665441,135.6094387,6.22E-06,91.93018077,71.50521828,7.53E-05,2.71E-06,,,,
190.2079999,743,138.9573082,143.3037698,1.57E-08,62.68223085,-2.98E-05,134.8656748,3.95E-07,8.29E-07,-241.8304865,80.25480774,-55.42537338,6.22E-06,-205.6701944,-289.9988808,7.52E-05,2.39E-06,,,,
190.2159999,743,85.82770788,7.396591824,1.56E-08,-76.66579283,-2.96E-05,31.18646786,3.93E-07,8.25E-07,303.5709272,-37.56108127,-23.89590872,6.21E-06,160.503121,273.8653337,7.50E-05,2.19E-06,,,,
190.2239999,743,137.4090302,-188.5218066,1.54E-08,125.6349098,-2.93E-05,212.6850784,3.90E-07,8.22E-07,-291.8172375,-71.34597442,89.61836312,5.25E-06,-143.7134021,-295.0794512,7.49E-05,2.51E-06,,,,
190.2319999,743,108.5795844,286.2661555,1.53E-08,-30.08330488,-2.91E-05,32.00061032,3.88E-07,8.18E-07,106.0428339,88.43529592,-159.5578235,4.34E-06,-26.76611615,72.97154437,7.48E-05,2.72E-06,,,,
190.2399999,743,157.0461093,-166.9447389,1.51E-08,17.40013356,-2.89E-05,114.4146688,3.85E-07,8.15E-07,119.2888643,-140.8615588,168.7828869,6.54E-06,161.9212183,134.5154334,7.46E-05,2.41E-06,,,,
190.2479999,743,142.7369076,187.539605,1.50E-08,59.17884831,-2.87E-05,111.5177013,3.83E-07,8.12E-07,-220.2013467,83.99788431,-3.272240128,6.41E-06,-134.4513625,-221.5619662,7.45E-05,2.44E-06,,,,
190.2559999,743,59.96842926,57.30866663,1.49E-08,-88.25127755,-2.85E-05,-2.016457111,3.80E-07,8.08E-07,263.4495532,-45.78792599,-23.06862442,5.87E-06,179.8371773,289.999957,7.44E-05,2.51E-06,,,,
190.2639999,743,109.3393093,-147.4808064,1.47E-08,108.5797845,-2.82E-05,172.7927883,3.78E-07,8.05E-07,-300.4941458,-79.69258001,106.7927355,7.41E-06,-99.16311525,-267.0109283,7.42E-05,2.44E-06,,,,
190.2719999,743,42.41687923,242.86936,1.46E-08,-44.21895116,-2.80E-05,8.411755435,3.76E-07,8.01E-07,71.27080631,77.60051962,-151.6181956,5.93E-06,-11.31392652,83.6949723,7.41E-05,2.50E-06,,,,
190.2799999,743,56.59913579,-260.6110657,1.44E-08,3.613881088,-2.78E-05,108.4973398,3.73E-07,7.98E-07,11.4437173,-165.8130981,104.8206613,6.04E-06,88.32135355,85.85278916,7.40E-05,2.47E-06,,,,
190.2879999,743,34.66623833,90.38128753,1.43E-08,46.91912002,-2.76E-05,119.4443579,3.71E-07,7.94E-07,-371.8009969,46.19698032,-120.6659737,7.30E-06,-253.4091218,-331.7789446,7.38E-05,2.50E-06,,,,
190.2959999,743,-10.49237176,-10.83295378,1.42E-08,-90.11048583,-2.74E-05,18.89317526,3.68E-07,7.91E-07,155.1963927,-76.10591375,-112.8151366,5.92E-06,74.1473563,215.6960834,7.37E-05,2.49E-06,,,,
190.3039999,743,77.61984189,-180.7921732,1.40E-08,119.0331439,-2.71E-05,205.3461343,3.66E-07,7.87E-07,-365.8800198,-95.60515918,69.27351784,5.05E-06,-185.7097491,-287.1896541,7.35E-05,2.50E-06,,,,
190.3119999,743,24.76357803,246.8725445,1.39E-08,-31.4328873,-2.69E-05,41.45808911,3.63E-07,7.84E-07,23.47731942,73.60059661,-170.64614,6.36E-06,-58.17015602,40.92745818,7.34E-05,2.50E-06,,,,
190.3199999,743,96.92267118,-194.1078809,1.37E-08,12.39061454,-2.67E-05,127.413337,3.61E-07,7.80E-07,53.2733054,-152.2742709,140.0133758,7.14E-06,118.0232869,98.44674553,7.32E-05,2.98E-06,,,,
190.3279999,743,114.201368,175.9272542,1.36E-08,53.23298419,-2.65E-05,131.4773266,3.59E-07,7.77E-07,-281.7977028,73.21587448,-26.85275369,5.90E-06,-191.432463,-247.8088831,7.31E-05,2.71E-06,,,,
190.3359999,743,65.8985566,70.1800929,1.35E-08,-89.55458434,-2.63E-05,23.71539489,3.56E-07,7.73E-07,247.5674104,-41.49252614,-17.95722348,5.03E-06,154.5139115,290.280282,7.29E-05,2.37E-06,,,,
190.3439999,743,139.4771154,-122.8720084,1.33E-08,114.9529068,-2.60E-05,201.7973759,3.54E-07,7.70E-07,-256.0238042,-56.08220359,150.3389882,6.30E-06,-83.18019407,-199.8750994,7.28E-05,3.05E-06,,,,
190.3519999,743,18.4915114,235.4850027,1.32E-08,-38.50402878,-2.58E-05,45.39602377,3.51E-07,7.66E-07,48.01668088,101.658838,-153.4696562,7.13E-06,-24.25362765,92.52224709,7.26E-05,3.16E-06,,,,
190.3599999,743,44.70921036,-216.4410414,1.30E-08,2.552950214,-2.56E-05,135.2300253,3.49E-07,7.63E-07,8.983160846,-139.7443527,93.30534986,7.76E-06,90.17337929,69.78191843,7.25E-05,2.84E-06,,,,
190.3679999,743,83.84637887,194.2916804,1.29E-08,45.22837982,-2.54E-05,127.015437,3.46E-07,7.59E-07,-255.6628274,91.40473778,-36.02013259,6.80E-06,-178.1604035,-238.8765202,7.23E-05,2.66E-06,,,,
190.3759999,743,31.28373301,71.95589052,1.28E-08,-98.96462319,-2.52E-05,12.10898823,3.44E-07,7.56E-07,279.0044614,-26.92966699,-1.397436478,4.71E-06,190.7313185,328.1355954,7.22E-05,2.71E-06,,,,
190.3839999,743,109.4437989,-119.2312809,1.26E-08,103.5443373,-2.50E-05,186.6526898,3.41E-07,7.52E-07,-270.9668456,-59.24549321,146.3330354,6.21E-06,-73.22948438,-213.0176778,7.20E-05,2.95E-06,,,,
190.3919999,743,41.37429568,307.0724441,1.25E-08,-44.87225999,-2.47E-05,16.84600258,3.39E-07,7.49E-07,96.22689747,105.7158572,-117.9516886,7.15E-06,0.749134529,125.6547695,7.18E-05,3.16E-06,,,,
190.3999999,743,69.73423696,-164.4910406,1.24E-08,4.659703539,-2.45E-05,109.2495875,3.37E-07,7.45E-07,90.88916814,-123.9296376,171.4709673,6.65E-06,148.3643739,162.5940109,7.17E-05,3.10E-06,,,,
190.4079999,743,101.215691,215.1998052,1.22E-08,56.85168053,-2.43E-05,115.8285592,3.34E-07,7.42E-07,-226.3694858,105.8503787,11.06127381,6.86E-06,-129.2099105,-182.9881701,7.15E-05,3.09E-06,,,,
190.4159999,743,27.74453806,97.40372457,1.21E-08,-84.8858423,-2.41E-05,7.224524968,3.32E-07,7.38E-07,284.0328434,-12.79955421,13.60903899,7.70E-06,208.689164,355.3817594,7.13E-05,3.11E-06,,,,
190.4239999,743,84.78323543,-104.0951693,1.19E-08,114.6060798,-2.39E-05,181.1366313,3.29E-07,7.35E-07,-242.6969498,-43.57726533,166.7245417,8.62E-06,-70.18990599,-184.6343148,7.12E-05,3.09E-06,,,,
190.4319999,743,62.50840027,345.5763728,1.18E-08,-32.72385277,-2.37E-05,7.397949425,3.27E-07,7.31E-07,146.768469,126.7405309,-87.5736773,6.39E-06,17.79715738,146.3322586,7.10E-05,3.10E-06,,,,
190.4399999,743,41.19573799,-201.0927253,1.17E-08,16.26428535,-2.34E-05,113.6036754,3.24E-07,7.27E-07,96.54517243,-106.6209855,181.7359182,4.58E-06,142.8104388,144.0274286,7.09E-05,3.09E-06,,,,
190.4479999,743,11.12315069,120.2248083,1.15E-08,64.71499651,-2.32E-05,132.029848,3.22E-07,7.24E-07,-275.8453449,111.2076992,-43.06569642,5.20E-06,-205.2499088,-260.1279149,7.07E-05,3.09E-06,,,,
190.4559999,743,20.80389098,88.15281342,1.14E-08,-78.77959199,-2.30E-05,12.81111317,3.19E-07,7.20E-07,251.6486971,-6.82323664,-61.85308032,6.03E-06,135.4184525,279.7778331,7.05E-05,3.08E-06,,,,
190.4639999,744,110.4311284,-115.3354264,1.13E-08,124.1450965,-2.28E-05,187.5116552,3.17E-07,7.17E-07,-242.6875014,-27.44303237,143.4317022,6.87E-06,-73.9440771,-198.6000122,7.03E-05,3.08E-06,,,,
190.4719999,744,53.32189612,300.3187517,1.11E-08,-20.96096914,-2.26E-05,18.54483257,3.15E-07,7.13E-07,143.631944,142.5463387,-106.2542886,6.67E-06,33.94520576,142.4887136,7.02E-05,3.08E-06,,,,
190.4799999,744,77.01917578,-175.106564,1.10E-08,24.57850308,-2.24E-05,108.4716899,3.12E-07,7.10E-07,116.3469295,-97.20241983,162.144274,6.60E-06,171.2773244,137.3637143,7.00E-05,2.84E-06,,,,
190.4879999,744,40.58541736,122.5487372,1.09E-08,72.38669065,-2.21E-05,124.9349541,3.10E-07,7.06E-07,-232.5281207,119.8963634,-9.845169159,6.70E-06,-158.7210998,-246.191047,6.98E-05,2.61E-06,,,,
190.4959999,744,8.113298469,62.17112745,1.07E-08,-65.55960553,-2.19E-05,20.53943986,3.07E-07,7.02E-07,262.054341,-1.490438721,-41.5161444,6.57E-06,146.9498994,257.1085333,6.97E-05,3.15E-06,,,,
190.5039999,744,160.3165911,-38.35765673,1.06E-08,146.2840608,-2.17E-05,188.8293894,3.05E-07,6.99E-07,-199.5476781,-10.10447683,176.0194217,6.63E-06,-37.48138259,-182.3837092,6.95E-05,3.36E-06,,,,
190.5119999,744,100.1608515,357.3118562,1.05E-08,-0.455100789,-2.15E-05,11.08454268,3.03E-07,6.95E-07,220.8375139,174.710477,-13.01274803,6.57E-06,106.7093283,232.7705296,6.93E-05,2.97E-06,,,,
190.5199999,744,61.65002899,-178.8303757,1.03E-08,36.72555019,-2.13E-05,107.1235276,3.00E-07,6.91E-07,124.4094529,-79.6945106,207.7203507,6.58E-06,187.584217,163.6836439,6.91E-05,2.83E-06,,,,
190.5279999,744,51.24655081,184.1362115,1.02E-08,84.2340151,-2.11E-05,119.0169692,2.98E-07,6.88E-07,-217.9419423,133.0297756,6.428581636,5.59E-06,-136.9880272,-220.9117361,6.89E-05,3.09E-06,,,,
190.5359999,744,36.78416314,126.9463689,1.01E-08,-60.39938629,-2.09E-05,-0.599057862,2.95E-07,6.84E-07,338.1954873,19.24103762,19.52711692,4.68E-06,222.4347375,346.7481951,6.88E-05,3.33E-06,,,,
190.5439999,744,135.6527322,-68.7722012,9.90E-09,138.0548315,-2.07E-05,170.0807265,2.93E-07,6.81E-07,-176.3011726,-6.178830245,200.2181128,6.87E-06,-6.700825849,-184.0140528,6.86E-05,2.75E-06,,,,
190.5519999,744,47.58068213,284.338414,9.80E-09,-12.35321894,-2.04E-05,6.298156324,2.91E-07,6.77E-07,176.8253965,165.8995988,-73.47527348,8.64E-06,65.35785638,139.0457255,6.84E-05,3.04E-06,,,,
190.5599999,744,46.91883466,-226.2882796,9.70E-09,28.38904175,-2.02E-05,110.9690828,2.88E-07,6.73E-07,65.28618878,-84.10437163,115.5349693,7.99E-06,120.6577744,86.44589958,6.82E-05,3.38E-06,,,,
190.5679999,744,94.62161033,191.8469366,9.50E-09,75.81855254,-2.00E-05,119.317566,2.86E-07,6.70E-07,-260.608613,138.577543,-57.8278311,8.07E-06,-193.5603176,-265.7055454,6.80E-05,3.16E-06,,,,
190.5759999,744,82.7422043,133.1210851,9.40E-09,-69.50196971,-1.98E-05,-6.61435236,2.83E-07,6.66E-07,351.4312603,35.67890534,15.53091302,7.15E-06,211.6200884,362.4383276,6.79E-05,3.27E-06,,,,
190.5839999,744,113.0149025,-121.5462527,9.30E-09,133.8974487,-1.96E-05,178.2854413,2.81E-07,6.62E-07,-198.9998391,0.836232495,185.4768273,6.12E-06,-31.30668179,-175.3712266,6.77E-05,3.21E-06,,,,
190.5919999,744,28.29313487,300.1106809,9.10E-09,-13.57886371,-1.94E-05,13.75188125,2.78E-07,6.59E-07,155.4645249,167.1926769,-96.45493383,6.47E-06,39.6382463,134.6976546,6.75E-05,3.23E-06,,,,
190.5999999,744,41.58060933,-182.6192239,9.00E-09,24.24990919,-1.92E-05,100.6501625,2.76E-07,6.55E-07,149.2920036,-74.12801829,180.1697608,6.36E-06,173.592902,141.3038375,6.73E-05,3.21E-06,,,,
190.6079999,744,-17.18620501,103.175528,8.90E-09,66.13180249,-1.90E-05,122.9824007,2.74E-07,6.52E-07,-256.6035987,130.3781431,-28.38877055,7.28E-06,-184.7384522,-293.2302381,6.71E-05,3.21E-06,,,,
190.6159999,744,-67.42551529,47.56472611,8.70E-09,-83.09451692,-1.88E-05,4.727580254,2.71E-07,6.48E-07,265.1320879,10.14719358,-57.02008501,8.21E-06,142.894026,249.0306707,6.69E-05,3.20E-06,,,,
190.6239999,744,34.2062061,-128.4016571,8.60E-09,120.0012385,-1.85E-05,173.6605814,2.69E-07,6.44E-07,-217.5363684,-14.44532963,155.7925651,7.85E-06,-59.16177866,-228.3349896,6.67E-05,3.20E-06,,,,
190.6319999,744,-27.43993237,261.4151571,8.50E-09,-24.52349372,-1.83E-05,14.57038226,2.66E-07,6.40E-07,135.1721818,153.4724367,-92.57296296,6.92E-06,24.80092518,104.8771708,6.65E-05,2.95E-06,,,,
190.6399999,744,17.20100996,-192.848924,8.40E-09,23.87026271,-1.81E-05,108.3550009,2.64E-07,6.37E-07,113.3480885,-89.23538014,160.9318869,6.03E-06,135.3726157,116.7793539,6.63E-05,3.20E-06,,,,
190.6479999,744,10.62905932,166.3580815,8.20E-09,77.97013615,-1.79E-05,124.4732796,2.62E-07,6.33E-07,-241.1686599,135.1372051,-10.14472699,7.19E-06,-200.8887995,-253.2980924,6.61E-05,3.24E-06,,,,
190.6559999,744,-44.40063918,81.3421443,8.10E-09,-70.94220963,-1.77E-05,9.310308078,2.59E-07,6.30E-07,317.9033562,29.93814532,2.784327399,8.10E-06,165.5496455,337.8425536,6.59E-05,3.11E-06,,,,
190.6639999,744,56.56818749,-108.0658488,8.00E-09,127.0869357,-1.75E-05,181.692931,2.57E-07,6.26E-07,-175.9150779,-1.686771267,188.0931202,6.74E-06,-51.51401164,-195.3395807,6.58E-05,3.46E-06,,,,
190.6719999,744,-6.195793455,308.8968924,7.80E-09,-21.94064274,-1.73E-05,16.7676708,2.55E-07,6.22E-07,145.8033721,163.2838731,-93.34776355,5.92E-06,-6.119953701,92.52495519,6.56E-05,3.59E-06,,,,
190.6799999,744,49.13094355,-136.3635315,7.70E-09,17.05601689,-1.71E-05,91.42172554,2.52E-07,6.19E-07,176.9773385,-66.71400952,188.7519401,7.13E-06,168.705542,180.6341441,6.54E-05,3.33E-06,,,,
190.6879999,744,77.42383806,220.3401247,7.60E-09,65.46247903,-1.69E-05,92.33533996,2.50E-07,6.15E-07,-143.9811463,159.9887734,38.22480413,7.97E-06,-105.4938735,-196.4429449,6.52E-05,3.07E-06,,,,
190.6959999,744,2.897620247,104.1430362,7.50E-09,-77.69511388,-1.67E-05,-16.42829734,2.47E-07,6.11E-07,355.3712101,46.27702003,25.11719779,6.67E-06,209.1738546,319.9150217,6.50E-05,3.40E-06,,,,
190.7039999,744,94.1991917,-74.39261883,7.30E-09,130.6235898,-1.65E-05,156.6562767,2.45E-07,6.08E-07,-137.2296937,21.64112834,206.4940252,5.81E-06,-24.09181675,-165.4504452,6.48E-05,3.35E-06,,,,
190.7119999,744,22.91067097,345.0854339,7.20E-09,-12.78853075,-1.63E-05,-8.818508868,2.43E-07,6.04E-07,200.6006815,193.4685523,-59.95334254,7.05E-06,62.70429147,147.2057096,6.46E-05,3.52E-06,,,,
190.7199999,745,8.27256852,-166.1344494,7.10E-09,28.60065483,-1.61E-05,84.17212872,2.40E-07,6.00E-07,176.5154132,-52.33944171,201.0823673,7.86E-06,196.2316497,166.1047289,6.44E-05,3.81E-06,,,,
190.7279999,745,4.805329662,172.6838221,6.90E-09,80.28762568,-1.59E-05,95.99032826,2.38E-07,5.97E-07,-164.60243,164.0279417,23.07397568,6.58E-06,-129.2278702,-219.2523619,6.42E-05,3.19E-06,,,,
190.7359999,745,-82.65464799,40.83494384,6.80E-09,-64.89814535,-1.56E-05,-4.546108185,2.36E-07,5.93E-07,309.0560167,44.18177985,-18.81009708,6.67E-06,183.5365092,280.0185942,6.40E-05,2.78E-06,,,,
190.7439999,745,5.497225362,-145.3758409,6.70E-09,141.1986238,-1.54E-05,178.523334,2.33E-07,5.89E-07,-228.2792849,4.406227363,129.6978372,7.85E-06,-86.73157055,-261.7910111,6.37E-05,2.90E-06,,,,
190.7519999,745,17.90455611,354.7178112,6.60E-09,-1.36273724,-1.52E-05,-2.189666157,2.31E-07,5.86E-07,192.8827787,187.3706962,-84.45586168,6.52E-06,28.23904152,113.7028409,6.35E-05,2.88E-06,,,,
190.7599999,745,40.12234367,-159.2874585,6.40E-09,36.80769092,-1.50E-05,84.34913246,2.29E-07,5.82E-07,212.0493949,-47.26431043,237.2341787,6.55E-06,213.968567,185.0682898,6.33E-05,2.86E-06,,,,
190.7679999,745,27.033998,155.7355532,6.30E-09,86.2768703,-1.48E-05,100.8093525,2.26E-07,5.78E-07,-183.0565399,159.5562248,37.12476587,7.81E-06,-152.4380879,-240.7493109,6.31E-05,2.88E-06,,,,
190.7759999,745,21.63427759,147.7125706,6.20E-09,-60.68979208,-1.46E-05,-29.57449024,2.24E-07,5.75E-07,368.1611539,52.13370618,25.26605892,8.32E-06,189.1794011,315.0416893,6.29E-05,2.85E-06,,,,
190.7839999,745,105.0570043,-58.92921847,6.10E-09,139.8752989,-1.44E-05,138.3997274,2.22E-07,5.71E-07,-100.572734,29.74884436,251.9535019,8.28E-06,-0.014108056,-154.2261768,6.27E-05,3.34E-06,,,,
190.7919999,745,-26.58865143,272.0315822,5.90E-09,-6.668083289,-1.42E-05,-16.34618358,2.19E-07,5.67E-07,203.2310132,197.4505517,-35.6443778,6.18E-06,44.82812046,128.2007927,6.25E-05,3.78E-06,,,,
190.7999999,745,-32.30947828,-208.4860667,5.80E-09,34.76472112,-1.40E-05,78.15828036,2.17E-07,5.64E-07,141.5820809,-53.64721825,162.1615157,6.42E-06,145.8697334,122.9998692,6.23E-05,3.63E-06,,,,
190.8079999,745,-16.25079208,144.5020018,5.70E-09,89.93628249,-1.38E-05,97.51961057,2.15E-07,5.60E-07,-220.139156,161.839337,-16.23697731,7.69E-06,-184.6158481,-267.0094669,6.21E-05,3.63E-06,,,,
190.8159999,745,-67.144351,52.43627796,5.60E-09,-56.30904585,-1.36E-05,-10.82775625,2.12E-07,5.56E-07,307.5234682,52.54639733,-27.54718759,8.13E-06,141.8855618,275.3050904,6.19E-05,3.41E-06,,,,
190.8239999,745,87.41638868,-59.97128652,5.50E-09,149.3308391,-1.34E-05,151.2330817,2.10E-07,5.53E-07,-134.1636526,26.50860829,178.882107,8.16E-06,-41.72377978,-162.9669423,6.17E-05,3.13E-06,,,,
190.8319999,745,71.28825333,373.4589137,5.30E-09,8.97283347,-1.32E-05,-27.217036,2.08E-07,5.49E-07,279.042185,213.0002823,-10.58560081,7.91E-06,113.3431873,210.0702409,6.14E-05,3.70E-06,,,,
190.8399999,745,8.066354272,-206.9176109,5.20E-09,50.3400799,-1.30E-05,76.79118541,2.05E-07,5.45E-07,188.1064752,-35.52280072,222.1293468,8.08E-06,209.3061859,163.258935,6.12E-05,3.88E-06,,,,
190.8479999,745,-0.454779397,153.6610547,5.10E-09,108.6458095,-1.28E-05,102.5792149,2.03E-07,5.41E-07,-212.5961443,174.227661,-4.124714517,7.89E-06,-168.6419024,-265.0623016,6.10E-05,3.49E-06,,,,
190.8559999,745,-12.22790522,103.8823849,5.00E-09,-38.66241422,-1.26E-05,-17.81886343,2.01E-07,5.38E-07,361.7936615,68.87104318,16.96172678,7.95E-06,208.752101,304.8781367,6.08E-05,3.34E-06,,,,
190.8639999,745,45.14685062,-152.8074481,4.80E-09,158.5548387,-1.24E-05,164.0085696,1.98E-07,5.34E-07,-172.820962,25.39627558,203.5733085,7.85E-06,-42.73300669,-226.7549493,6.06E-05,3.59E-06,,,,
190.8719999,745,-15.31407525,279.4038361,4.70E-09,9.930644819,-1.22E-05,-0.002638691,1.96E-07,5.30E-07,150.7631051,191.7214569,-88.10227279,7.85E-06,-13.90201198,74.54562527,6.04E-05,3.82E-06,,,,
190.8799999,745,11.67640281,-172.3573261,4.60E-09,42.29961465,-1.20E-05,78.13872927,1.94E-07,5.27E-07,176.6295541,-49.39913164,191.545113,7.80E-06,163.1784104,139.4084302,6.02E-05,3.24E-06,,,,
190.8879999,745,4.289326432,143.7963709,4.50E-09,93.85374864,-1.18E-05,91.07646521,1.92E-07,5.23E-07,-176.1939235,163.9624857,40.79212997,7.77E-06,-143.4989473,-242.6137729,5.99E-05,3.52E-06,,,,
190.8959999,745,-39.39979044,66.595312,4.40E-09,-54.01803375,-1.16E-05,-21.6615303,1.89E-07,5.19E-07,316.6585537,47.23188662,-9.776331174,7.73E-06,158.7711006,262.4721124,5.97E-05,3.85E-06,,,,
190.9039999,745,76.94385296,-101.9468361,4.30E-09,150.917054,-1.15E-05,154.5509552,1.87E-07,5.16E-07,-169.6209713,11.9943089,171.7434774,7.69E-06,-45.66063672,-219.3838109,5.95E-05,3.15E-06,,,,
190.9119999,745,19.36419923,298.2932446,4.10E-09,10.9303652,-1.13E-05,-11.38956541,1.85E-07,5.12E-07,213.1523006,192.6466633,-48.83402731,7.65E-06,59.68328289,133.107424,5.93E-05,3.28E-06,,,,
190.9199999,745,6.046674994,-219.6551456,4.00E-09,45.76613319,-1.11E-05,80.40464591,1.82E-07,5.08E-07,159.3367157,-60.19364694,186.1250273,7.62E-06,153.5595335,128.2727356,5.91E-05,3.33E-06,,,,
190.9279999,745,34.06827098,160.5355665,3.90E-09,98.01198175,-1.09E-05,91.47196791,1.80E-07,5.05E-07,-205.1059205,147.5156004,-0.001393451,7.58E-06,-172.056245,-255.6708987,5.88E-05,3.45E-06,,,,
190.9359999,745,15.29855524,129.563719,3.80E-09,-49.40763827,-1.07E-05,-36.62296524,1.78E-07,5.01E-07,375.815806,46.78490659,27.73135716,7.55E-06,203.1955117,338.9601437,5.86E-05,3.76E-06,,,,
190.9439999,745,104.8951372,-77.89797783,3.70E-09,157.1923929,-1.05E-05,143.8871495,1.76E-07,4.97E-07,-114.0711962,18.37155698,247.1854791,7.51E-06,-10.60964026,-148.6651621,5.84E-05,3.61E-06,,,,
190.9519999,745,40.69273001,324.3773511,3.50E-09,19.93174202,-1.03E-05,-13.11842824,1.73E-07,4.94E-07,219.9055411,197.9061987,-10.15918896,7.48E-06,73.206588,148.7010006,5.82E-05,3.64E-06,,,,
190.9599999,745,56.43817024,-133.2948185,3.40E-09,55.5117218,-1.01E-05,63.28184763,1.71E-07,4.90E-07,207.2758828,-48.70482738,238.0456975,6.49E-06,208.9923712,171.7966882,5.80E-05,3.62E-06,,,,
190.9679999,745,46.80879219,190.4277291,3.30E-09,106.9394837,-9.91E-06,72.01764806,1.69E-07,4.86E-07,-150.6358275,164.3615021,85.57363464,7.46E-06,-96.54843755,-216.8418858,5.77E-05,3.84E-06,,,,
190.9759999,746,-38.90786936,65.096609,3.20E-09,-42.64231973,-9.71E-06,-35.9874203,1.67E-07,4.83E-07,327.245591,48.19005998,39.99591107,7.61E-06,213.0266395,278.9045895,5.75E-05,3.58E-06,,,,
190.9839999,746,65.40484622,-106.1565772,3.10E-09,159.7161884,-9.52E-06,142.6511648,1.64E-07,4.79E-07,-209.3782485,-0.869098654,186.6497544,7.08E-06,-61.14395918,-232.1221073,5.73E-05,3.51E-06,,,,
190.9919999,746,21.29117118,331.5648772,3.00E-09,15.1815763,-9.33E-06,-29.67024093,1.62E-07,4.75E-07,155.5546569,176.288615,-46.60802129,9.42E-06,33.66865272,133.8476954,5.71E-05,3.63E-06,,,,
190.9999999,746,39.50196264,-135.9993236,2.80E-09,45.10112,-9.14E-06,42.42616954,1.60E-07,4.72E-07,174.0600788,-65.505508,235.2704226,7.98E-06,197.2092537,195.341977,5.68E-05,3.50E-06,,,,
191.0079999,746,37.79615549,199.3928441,2.70E-09,95.39607448,-8.95E-06,51.48884752,1.58E-07,4.68E-07,-183.4324976,149.0066117,78.26295832,6.78E-06,-130.8537257,-202.1832278,5.66E-05,3.81E-06,,,,
191.0159999,746,-58.09451899,85.87640374,2.60E-09,-57.58355813,-8.77E-06,-62.32157865,1.56E-07,4.65E-07,266.3968515,28.88754227,10.57182395,7.42E-06,156.4692525,277.3102062,5.64E-05,3.49E-06,,,,
191.0239999,746,37.21714501,-100.8362162,2.50E-09,142.1513419,-8.58E-06,110.5530374,1.53E-07,4.61E-07,-248.569066,-17.43607534,172.4704577,6.07E-06,-75.3192751,-232.6284412,5.61E-05,3.46E-06,,,,
191.0319999,746,-55.88239721,386.0394497,2.40E-09,-77.60255141,-8.39E-06,-107.1825293,1.51E-07,4.57E-07,289.52884,184.7819581,-138.176636,7.22E-06,89.69946542,277.397141,5.59E-05,3.79E-06,,,,
191.0399999,746,-39.21589492,-200.7384967,2.30E-09,-31.48420936,-8.20E-06,19.44246806,1.49E-07,4.54E-07,255.4907873,-107.6867712,159.9300888,7.30E-06,251.3300782,308.2342494,5.57E-05,3.90E-06,,,,
191.0479999,746,58.11135465,87.32828896,2.20E-09,197.9364392,-8.02E-06,164.1655351,1.47E-07,4.50E-07,-471.076428,131.7160038,105.1974559,5.85E-06,-251.8352429,-468.2309587,5.55E-05,3.65E-06,,,,
191.0559999,746,-86.6582705,219.3943188,2.10E-09,-63.534878,-7.83E-06,-66.06653706,1.44E-07,4.46E-07,341.087139,111.0828263,-101.7291171,7.27E-06,174.6248035,355.1178061,5.52E-05,3.36E-06,,,,
191.0639999,746,-14.47227229,-236.26405,1.90E-09,110.8262874,-7.64E-06,146.1715412,1.42E-07,4.43E-07,-119.6036969,-76.67867003,195.1439994,9.00E-06,51.73282382,-59.95316804,5.50E-05,3.70E-06,,,,
191.0719999,746,-16.43154818,301.3320065,1.80E-09,76.72452444,-7.46E-06,63.37805861,1.40E-07,4.39E-07,-192.9511472,201.0573072,-51.94815704,7.63E-06,-146.5251356,-184.2663117,5.48E-05,3.64E-06,,,,
191.0799999,746,-60.40033155,-2.01254016,1.70E-09,-46.59333055,-7.27E-06,-8.848800765,1.38E-07,4.35E-07,298.9070137,-14.83504789,58.18432733,6.54E-06,238.1594021,358.2307494,5.45E-05,3.81E-06,,,,
191.0879999,746,72.83619814,11.84548537,1.60E-09,170.3933794,-7.09E-06,152.8819734,1.36E-07,4.32E-07,-286.3114659,61.59491166,170.571961,8.00E-06,-88.67028358,-242.5860279,5.43E-05,4.09E-06,,,,
191.0959999,746,-2.664629611,319.0702569,1.50E-09,-9.74364474,-6.91E-06,-34.77729907,1.34E-07,4.28E-07,209.17671,168.319362,-59.66981019,6.71E-06,114.3080883,229.8686204,5.41E-05,3.47E-06,,,,
191.1039999,746,21.40994094,-157.1608466,1.40E-09,67.37353002,-6.72E-06,87.16619027,1.31E-07,4.25E-07,39.5579177,-56.29227006,193.2754349,6.59E-06,145.4369299,111.5340693,5.38E-05,3.28E-06,,,,
191.1119999,746,55.38468933,267.9352197,1.30E-09,88.65235163,-6.54E-06,57.36982653,1.29E-07,4.21E-07,-172.6690862,180.067804,26.62600398,7.97E-06,-102.6145424,-151.0633826,5.36E-05,3.63E-06,,,,
191.1199999,746,-36.1897753,57.51678112,1.20E-09,-51.28106079,-6.36E-06,-34.65224745,1.27E-07,4.17E-07,297.7522263,38.32282527,44.15888507,8.38E-06,245.5515319,347.9620922,5.34E-05,3.53E-06,,,,
191.1279999,746,28.23593781,-104.7539709,1.10E-09,152.8237807,-6.18E-06,148.458459,1.25E-07,4.14E-07,-283.9902979,25.16580682,159.8508987,9.35E-06,-65.18824478,-224.1133138,5.31E-05,3.49E-06,,,,
191.1359999,746,-34.40383692,288.8113724,1.00E-09,2.300817885,-6.00E-06,-20.13744726,1.23E-07,4.10E-07,119.4795951,177.9981214,-84.480632,8.09E-06,43.90589367,126.6886305,5.29E-05,3.52E-06,,,,
191.1439999,746,-59.39607493,-212.6150794,8.00E-10,48.42385468,-5.82E-06,80.74102131,1.21E-07,4.07E-07,42.35621902,-60.60983513,154.5949031,7.09E-06,141.1503111,80.05056294,5.27E-05,3.47E-06,,,,
191.1519999,746,-27.68181118,186.4178354,7.00E-10,96.39742264,-5.64E-06,85.90009012,1.18E-07,4.03E-07,-275.3086752,150.0381905,-10.52174238,7.46E-06,-172.4071368,-263.5287738,5.24E-05,3.48E-06,,,,
191.1599999,746,-62.80411557,104.3961146,6.00E-10,-45.73005505,-5.46E-06,-25.95016271,1.16E-07,3.99E-07,274.4318436,43.47677022,14.12608338,8.23E-06,195.9624305,310.8787413,5.22E-05,3.45E-06,,,,
191.1679999,746,5.437402855,-108.13955,5.00E-10,158.6168398,-5.28E-06,154.6360614,1.14E-07,3.96E-07,-241.3003517,10.71227881,178.3640181,7.21E-06,-40.65907082,-192.0321085,5.19E-05,3.45E-06,,,,
191.1759999,746,-52.07717024,310.8869586,4.00E-10,20.2765643,-5.10E-06,-8.73708968,1.12E-07,3.92E-07,111.6135493,182.1794952,-84.47356988,6.05E-06,30.17576072,128.1410245,5.17E-05,3.43E-06,,,,
191.1839999,746,-20.34529512,-147.330861,3.00E-10,58.13091644,-4.92E-06,75.70883557,1.10E-07,3.89E-07,96.13394112,-56.69721061,168.2575345,7.49E-06,168.1897691,144.8937267,5.15E-05,3.89E-06,,,,
191.1919999,746,24.33735595,214.4177014,2.00E-10,111.338003,-4.75E-06,86.4093285,1.08E-07,3.85E-07,-217.0669865,163.6116645,36.82810043,7.19E-06,-124.1735675,-199.0117969,5.12E-05,4.33E-06,,,,
191.1999999,746,-47.62627718,89.69448794,1.00E-10,-41.49846279,-4.57E-06,-27.44721743,1.06E-07,3.81E-07,324.7706742,67.03793034,33.09148357,7.94E-06,224.5560535,360.1589757,5.10E-05,3.92E-06,,,,
191.2079999,746,16.56002812,-125.969336,0,159.9539767,-4.39E-06,159.9878471,1.04E-07,3.78E-07,-259.658359,10.84113449,143.1277435,9.06E-06,-71.49914659,-218.0890694,5.08E-05,3.69E-06,,,,
191.2159999,746,-32.05998333,311.4749614,-1.00E-10,25.91957301,-4.22E-06,3.242748687,1.02E-07,3.74E-07,92.14474036,188.8208266,-113.7923382,6.60E-06,-13.46259585,98.41228158,5.05E-05,3.77E-06,,,,
191.2239999,746,-19.33104704,-191.5191777,-2.00E-10,57.59366479,-4.04E-06,86.99008925,9.95E-08,3.71E-07,140.863379,-45.67853492,173.6182904,5.88E-06,167.1407258,159.4191843,5.03E-05,3.71E-06,,,,
191.2319999,747,-20.88358399,132.3492696,-3.00E-10,107.95314,-3.87E-06,108.3469562,9.74E-08,3.67E-07,-275.7687506,149.8218805,-24.73602722,7.28E-06,-197.2546551,-295.6660175,5.00E-05,3.47E-06,,,,
191.2399999,747,-78.24941921,62.6074832,-4.00E-10,-47.52423619,-3.70E-06,-7.685854049,9.53E-08,3.64E-07,247.2462009,38.83539327,-52.98829291,6.90E-06,129.2693998,242.7206075,4.98E-05,3.70E-06,,,,
191.2479999,747,70.54225337,-81.55516109,-5.00E-10,155.5690966,-3.52E-06,160.8539148,9.32E-08,3.60E-07,-185.7740281,3.371746577,177.5378857,7.75E-06,-49.44865268,-202.880001,4.96E-05,3.97E-06,,,,
191.2559999,747,49.42413375,370.55124,-6.00E-10,20.2623769,-3.35E-06,-10.9661699,9.12E-08,3.57E-07,193.7548214,196.4358777,-27.16402761,8.78E-06,62.87077185,169.9476786,4.93E-05,3.58E-06,,,,
191.2639999,747,55.83664243,-128.4385266,-7.00E-10,48.11306284,-3.18E-06,64.06267479,8.91E-08,3.53E-07,197.4079073,-44.94705908,230.9427406,8.29E-06,234.4959545,228.1821986,4.91E-05,3.39E-06,,,,
191.2719999,747,77.70289076,204.3688254,-8.00E-10,104.700099,-3.01E-06,76.73492231,8.70E-08,3.49E-07,-165.1542762,163.1365376,59.78056352,8.38E-06,-96.64432176,-179.294185,4.88E-05,3.67E-06,,,,
191.2799999,747,7.426322475,103.1571694,-9.00E-10,-44.98457979,-2.84E-06,-39.33711974,8.50E-08,3.46E-07,337.937872,57.81819334,12.24183603,7.36E-06,218.4278383,333.8882601,4.86E-05,3.87E-06,,,,
191.2879999,747,98.23712732,-112.9461699,-1.00E-09,153.9969005,-2.67E-06,139.9752257,8.29E-08,3.42E-07,-197.3501313,7.431501417,164.3378531,6.38E-06,-22.76769785,-209.6714426,4.84E-05,3.53E-06,,,,
191.2959999,747,37.79222319,295.7039623,-1.10E-09,14.17201225,-2.50E-06,-19.60419055,8.09E-08,3.39E-07,151.0733637,188.6276559,-89.09892207,6.66E-06,37.41594013,114.9544565,4.81E-05,3.78E-06,,,,
191.3039999,747,31.48558795,-192.2817588,-1.20E-09,46.25224258,-2.33E-06,74.20427059,7.89E-08,3.35E-07,118.5403212,-64.34413257,130.8355743,6.57E-06,148.7463935,107.8586002,4.79E-05,3.82E-06,,,,
191.3119999,747,72.40146017,193.8881319,-1.30E-09,108.1094336,-2.16E-06,96.18037213,7.68E-08,3.32E-07,-234.338263,150.8960828,-18.79226797,6.50E-06,-169.6680306,-291.3426169,4.76E-05,3.43E-06,,,,
191.3199999,747,9.665620189,110.4290564,-1.40E-09,-42.28035168,-1.99E-06,-27.24973131,7.48E-08,3.28E-07,348.3674953,61.56467906,2.406015951,6.52E-06,204.5033694,338.1630756,4.74E-05,3.78E-06,,,,
191.3279999,747,73.06399744,-136.1071149,-1.50E-09,158.1375737,-1.82E-06,153.6809603,7.28E-08,3.25E-07,-204.5883407,4.759940966,147.2356033,7.39E-06,-57.02481242,-200.7312609,4.71E-05,3.72E-06,,,,
191.3359999,747,37.2244378,318.3994751,-1.60E-09,18.7646704,-1.66E-06,-8.539711495,7.08E-08,3.21E-07,125.5074219,183.8854636,-124.6094386,8.29E-06,-5.022726179,94.11960997,4.69E-05,3.64E-06,,,,
191.3439999,747,56.38617834,-149.1147546,-1.70E-09,48.30360605,-1.49E-06,73.13734539,6.88E-08,3.18E-07,172.5937458,-52.23820178,166.1460515,7.94E-06,171.8618108,174.4930958,4.67E-05,3.94E-06,,,,
191.3519999,747,96.88532917,215.0631383,-1.80E-09,109.0522541,-1.33E-06,85.88565656,6.68E-08,3.14E-07,-155.6652205,170.8569792,51.89451317,7.92E-06,-126.595225,-191.8742875,4.64E-05,4.08E-06,,,,
191.3599999,747,49.24079633,134.6479112,-1.90E-09,-49.30905319,-1.16E-06,-45.41397062,6.48E-08,3.11E-07,393.3808682,77.09211524,53.62405834,7.93E-06,220.343089,376.8017823,4.62E-05,4.03E-06,,,,
191.3679999,747,86.07195098,-162.6116138,-2.00E-09,145.7988131,-9.97E-07,141.3343624,6.28E-08,3.07E-07,-189.027391,13.83859226,194.185854,7.81E-06,-70.82560443,-199.1233058,4.59E-05,3.99E-06,,,,
191.3759999,747,23.43335674,265.4321975,-2.10E-09,10.48637647,-8.34E-07,-14.79357878,6.08E-08,3.04E-07,108.2798624,184.9389318,-109.1076454,7.82E-06,-39.86510999,76.2629313,4.57E-05,4.00E-06,,,,
191.3839999,747,57.52102814,-177.4179232,-2.20E-09,37.60509039,-6.71E-07,57.83796178,5.89E-08,3.00E-07,151.2906686,-60.6714611,149.3870694,7.73E-06,143.1322714,161.8094196,4.54E-05,3.95E-06,,,,
191.3919999,747,54.8429484,137.76197,-2.30E-09,91.6579164,-5.08E-07,71.65739316,5.69E-08,2.97E-07,-196.9237265,148.7337904,17.50095074,7.71E-06,-174.0761374,-230.3189112,4.52E-05,3.94E-06,,,,
191.3999999,747,-63.42632997,11.54874212,-2.40E-09,-62.65029823,-3.47E-07,-41.25395214,5.49E-08,2.94E-07,294.5113568,35.97105773,-26.65054644,7.65E-06,140.1511672,269.9466073,4.49E-05,3.91E-06,,,,
191.4079999,747,-3.116215374,-215.5927106,-2.50E-09,142.2591109,-1.85E-07,154.6327194,5.30E-08,2.90E-07,-275.2588031,-29.62104774,104.0044762,7.61E-06,-122.5155821,-281.4829666,4.47E-05,3.90E-06,,,,
191.4159999,747,-30.22050373,244.604768,-2.60E-09,6.314027059,-2.48E-08,-4.344838934,5.10E-08,2.87E-07,92.08012368,162.2215266,-144.8780419,7.55E-06,-60.51287309,58.59362172,4.44E-05,3.87E-06,,,,
191.4239999,747,-14.94291852,-245.7016517,-2.70E-09,28.03423122,1.35E-07,73.36989901,4.91E-08,2.83E-07,125.3707403,-79.7440854,127.0704725,7.51E-06,103.2603286,117.2195185,4.42E-05,3.85E-06,,,,
191.4319999,747,-13.69589732,78.14304628,-2.80E-09,82.39334008,2.95E-07,98.94707234,4.72E-08,2.80E-07,-277.6793693,123.3053465,-39.45257983,7.46E-06,-226.0147429,-320.0651057,4.40E-05,3.83E-06,,,,
191.4399999,747,-51.47987558,43.40706712,-2.90E-09,-70.54368643,4.53E-07,-20.15941829,4.52E-08,2.76E-07,268.4877833,27.52340173,-61.82081004,7.42E-06,102.2031099,233.6095235,4.37E-05,4.05E-06,,,,
191.4479999,747,91.76301905,-124.5506338,-3.00E-09,136.1346007,6.11E-07,155.0602834,4.33E-08,2.73E-07,-197.3244081,-14.43225785,149.5947826,7.37E-06,-101.3857061,-232.7395037,4.35E-05,3.78E-06,,,,
191.4559999,747,64.89375712,303.8084035,-3.00E-09,2.538252126,7.69E-07,-12.26022665,4.14E-08,2.69E-07,177.8843002,186.0173383,-68.99910874,7.32E-06,7.540315242,129.1614995,4.32E-05,3.71E-06,,,,
191.4639999,747,87.91462586,-175.9651594,-3.10E-09,25.99448102,9.26E-07,59.90224609,3.95E-08,2.66E-07,203.7727405,-58.30938979,193.5274182,7.28E-06,168.1058508,189.6252115,4.30E-05,3.81E-06,,,,
191.4719999,747,118.8479202,181.192175,-3.20E-09,82.98793319,1.08E-06,77.40301087,3.76E-08,2.63E-07,-164.6439094,148.8050956,58.08260004,7.23E-06,-131.3509773,-230.0133741,4.27E-05,3.44E-06,,,,
191.4799999,747,49.33045813,94.46906634,-3.30E-09,-70.90380377,1.24E-06,-43.06204195,3.57E-08,2.59E-07,385.3484985,61.31496705,60.70798448,7.19E-06,224.1484578,348.76686,4.25E-05,3.75E-06,,,,
191.4879999,748,132.5167852,-137.6771551,-3.40E-09,127.8958444,1.39E-06,132.824979,3.38E-08,2.56E-07,-140.874475,7.943942523,236.7834701,7.14E-06,-30.2216793,-166.6205756,4.22E-05,4.20E-06,,,,
191.4959999,748,68.79101239,275.7675742,-3.50E-09,-10.14089824,1.55E-06,-27.70816057,3.19E-08,2.53E-07,162.7221777,186.6461971,-42.17859764,7.10E-06,18.69966129,101.1657028,4.20E-05,3.82E-06,,,,
191.5039999,748,69.72838431,-214.6289856,-3.60E-09,22.87958941,1.70E-06,58.91954502,3.00E-08,2.49E-07,183.4436058,-59.07828071,197.1714979,6.10E-06,166.6397061,169.7698033,4.17E-05,3.55E-06,,,,
191.5119999,748,69.56762061,124.730316,-3.70E-09,89.03655516,1.85E-06,86.54413261,2.81E-08,2.46E-07,-195.7126868,151.7771639,40.06696542,7.06E-06,-164.5747343,-255.9953601,4.15E-05,3.90E-06,,,,
191.5199999,748,-13.31206058,43.22655793,-3.80E-09,-68.45184614,2.01E-06,-36.8958238,2.63E-08,2.43E-07,331.4953645,55.81058394,6.222796641,9.11E-06,177.8206133,279.1238893,4.12E-05,3.57E-06,,,,
191.5279999,748,84.29983811,-182.1172964,-3.90E-09,132.4460533,2.16E-06,139.2172089,2.44E-08,2.39E-07,-175.9846124,-3.97498295,184.7225201,8.46E-06,-60.08988068,-196.1643285,4.10E-05,3.52E-06,,,,
191.5359999,748,22.16473348,240.1838079,-3.90E-09,-1.756109856,2.31E-06,-16.30048977,2.26E-08,2.36E-07,132.5461827,174.6223141,-86.53784721,8.40E-06,-23.85964679,85.00623814,4.07E-05,3.86E-06,,,,
191.5439999,748,25.37823221,-238.7815851,-4.00E-09,23.33984489,2.46E-06,62.08080307,2.07E-08,2.32E-07,157.0888622,-69.43521297,152.8386047,8.52E-06,138.0093477,136.9362698,4.05E-05,3.71E-06,,,,
191.5519999,748,52.05494073,104.4039908,-4.10E-09,84.48855131,2.61E-06,81.61547513,1.89E-08,2.29E-07,-214.651223,139.0316079,4.834230012,7.32E-06,-180.0675102,-263.0042289,4.02E-05,3.96E-06,,,,
191.5599999,748,-7.616700125,45.70666285,-4.20E-09,-72.36751096,2.76E-06,-38.28802726,1.70E-08,2.26E-07,313.3695472,39.62589903,-20.40040471,6.51E-06,144.7058404,262.5748725,4.00E-05,3.69E-06,,,,
191.5679999,748,133.0151104,-125.3120025,-4.30E-09,131.4729173,2.91E-06,133.1818694,1.52E-08,2.23E-07,-135.7886924,-3.128673739,205.3611721,6.65E-06,-53.61282651,-198.0992241,3.97E-05,3.37E-06,,,,
191.5759999,748,89.7432452,289.6425528,-4.40E-09,-0.061388563,3.06E-06,-32.46305431,1.34E-08,2.19E-07,220.2046291,193.1360761,-8.665220229,6.64E-06,49.29048718,146.7007625,3.95E-05,3.74E-06,,,,
191.5839999,748,19.21382079,-283.6125788,-4.50E-09,21.77816334,3.20E-06,56.57224341,1.16E-08,2.16E-07,152.5046255,-75.50250445,181.1326946,6.51E-06,159.2625552,132.1549441,3.93E-05,3.64E-06,,,,
191.5919999,748,17.9155716,56.97855435,-4.50E-09,78.70033085,3.35E-06,80.15143328,9.80E-09,2.13E-07,-267.7024132,112.1119672,-28.68881752,7.51E-06,-222.5168807,-326.2599084,3.90E-05,3.82E-06,,,,
191.5999999,748,-35.79932827,22.13762623,-4.60E-09,-79.83877314,3.50E-06,-49.55803847,8.00E-09,2.09E-07,303.5020249,18.48353044,-29.4380186,8.30E-06,136.242483,261.1744713,3.88E-05,4.08E-06,,,,
191.6079999,748,48.63310186,-208.9393712,-4.70E-09,123.8401345,3.64E-06,131.5805731,6.20E-09,2.06E-07,-198.4877196,-38.05799255,178.2944049,8.00E-06,-77.3474733,-229.5531902,3.85E-05,3.94E-06,,,,
191.6159999,748,4.105845979,229.6049524,-4.80E-09,-9.272248778,3.79E-06,-31.44094552,4.40E-09,2.03E-07,137.3475759,148.9396802,-71.81382303,7.95E-06,-17.70320741,76.91654797,3.83E-05,3.95E-06,,,,
191.6239999,748,-10.88780874,-272.6052457,-4.90E-09,9.857369535,3.93E-06,45.1073279,2.60E-09,1.99E-07,140.7770615,-105.2169384,162.4569166,7.01E-06,132.2593296,118.7851589,3.80E-05,4.16E-06,,,,
191.6319999,748,23.11981449,73.07772449,-5.00E-09,68.05761865,4.07E-06,65.82360106,8.00E-10,1.96E-07,-243.572469,97.28981793,5.069720027,5.98E-06,-196.7198408,-297.8688486,3.78E-05,3.88E-06,,,,
191.6399999,748,-15.77798248,26.67695641,-5.00E-09,-89.13290695,4.22E-06,-65.14098799,-9.00E-10,1.93E-07,330.5078831,8.643959363,1.011195951,6.28E-06,154.07363,295.4842617,3.75E-05,3.34E-06,,,,
191.6479999,748,55.19224155,-226.8944581,-5.10E-09,113.7705576,4.36E-06,119.4072215,-2.70E-09,1.90E-07,-198.8896834,-54.06343569,174.9273001,7.13E-06,-98.43022754,-234.7802455,3.73E-05,3.46E-06,,,,
191.6559999,748,-6.23495572,199.630699,-5.20E-09,-17.13125966,4.50E-06,-31.7198757,-4.40E-09,1.86E-07,102.0335068,130.6719629,-101.5933627,7.96E-06,-58.6182727,38.14017353,3.70E-05,3.45E-06,,,,
191.6639999,748,-17.73278066,-276.6895024,-5.30E-09,9.13922632,4.64E-06,47.48269516,-6.20E-09,1.83E-07,138.7268741,-113.8564793,151.1492311,7.68E-06,115.3742411,114.3882844,3.68E-05,3.38E-06,,,,
191.6719999,748,9.012363919,87.32543372,-5.40E-09,75.1708621,4.78E-06,66.83661385,-7.90E-09,1.80E-07,-228.7043439,94.35229013,19.14894859,6.65E-06,-205.5744178,-302.9544033,3.65E-05,3.41E-06,,,,
191.6799999,748,-56.91778366,26.15570518,-5.40E-09,-80.97273829,4.92E-06,-55.99348936,-9.70E-09,1.77E-07,300.5666096,3.844879169,-2.171985937,5.78E-06,127.9931956,257.3107278,3.63E-05,3.35E-06,,,,
191.6879999,748,29.037234,-214.1550806,-5.50E-09,123.7182831,5.06E-06,128.0548449,-1.14E-08,1.74E-07,-199.1201735,-51.95625,179.2218162,7.85E-06,-104.2622219,-226.5131665,3.60E-05,3.35E-06,,,,
191.6959999,748,19.82586259,252.9505485,-5.60E-09,-4.67116173,5.20E-06,-35.90962905,-1.31E-08,1.70E-07,152.8772995,145.3367254,-57.57154485,8.69E-06,-38.9960384,78.30841687,3.58E-05,3.32E-06,,,,
191.7039999,748,2.813427084,-260.5658279,-5.70E-09,15.18697718,5.33E-06,46.47522574,-1.48E-08,1.67E-07,140.219115,-102.6605926,187.2566477,7.06E-06,133.1703204,107.7367188,3.55E-05,3.31E-06,,,,
191.7119999,748,39.88112798,105.0632041,-5.80E-09,75.81196294,5.47E-06,61.87258814,-1.65E-08,1.64E-07,-229.5291942,102.043199,42.7556951,7.43E-06,-177.4563856,-297.0151689,3.53E-05,3.76E-06,,,,
191.7199999,748,39.51221485,112.8766063,-5.80E-09,-84.33389642,5.61E-06,-88.56074503,-1.82E-08,1.61E-07,387.9686245,26.50640794,77.91323473,6.45E-06,202.2712238,333.004337,3.50E-05,4.19E-06,,,,
191.7279999,748,49.50307642,-225.961201,-5.90E-09,112.99578,5.74E-06,106.0649074,-1.99E-08,1.58E-07,-209.0462317,-43.41830887,233.1713663,7.26E-06,-66.10946347,-223.2307709,3.48E-05,4.03E-06,,,,
191.7359999,748,-32.79871194,204.5500971,-6.00E-09,-17.17134366,5.88E-06,-38.38036917,-2.16E-08,1.55E-07,18.09718349,123.1131365,-122.1750181,8.50E-06,-95.26224789,4.063553292,3.45E-05,4.01E-06,,,,
191.7439999,749,22.22718093,-203.0228584,-6.10E-09,7.668590473,6.01E-06,29.67386907,-2.33E-08,1.51E-07,120.3841882,-115.0937639,155.5428989,6.83E-06,122.1756738,149.9523906,3.43E-05,4.01E-06,,,,
191.7519999,749,-10.83163131,50.4131479,-6.10E-09,70.26963664,6.15E-06,68.90848451,-2.49E-08,1.48E-07,-279.4824717,86.8241296,26.42209283,7.13E-06,-174.0023176,-272.5680743,3.40E-05,3.72E-06,,,,
191.7599999,749,-93.94161258,4.595755499,-6.20E-09,-90.96678695,6.28E-06,-47.94601508,-2.66E-08,1.45E-07,179.3960498,-21.67228248,-78.89131136,6.23E-06,92.28879701,213.7627375,3.38E-05,3.49E-06,,,,
191.7679999,749,27.6423989,-176.0297889,-6.30E-09,107.4008924,6.41E-06,128.6474042,-2.83E-08,1.42E-07,-282.8182115,-76.20923617,130.658127,6.97E-06,-111.2849709,-235.3654011,3.35E-05,3.52E-06,,,,
191.7759999,749,-56.12955512,206.7638195,-6.40E-09,-25.86940939,6.54E-06,-18.19240737,-2.99E-08,1.39E-07,34.39100123,113.8097607,-101.8516852,8.26E-06,-53.40431225,56.87806886,3.33E-05,3.50E-06,,,,
191.7839999,749,-68.67245069,-263.3241475,-6.40E-09,-2.237860427,6.67E-06,73.0127875,-3.16E-08,1.36E-07,-17.35162402,-144.7682409,74.99354056,6.56E-06,43.40468899,52.37271759,3.31E-05,3.70E-06,,,,
191.7919999,749,15.94520198,144.9950168,-6.50E-09,70.16442604,6.80E-06,99.87301502,-3.32E-08,1.33E-07,-334.302903,77.87390776,-29.09683678,5.93E-06,-224.4388047,-302.0451472,3.28E-05,3.92E-06,,,,
191.7999999,749,-19.32308451,97.6567359,-6.60E-09,-86.28664341,6.93E-06,-33.59937328,-3.48E-08,1.30E-07,281.7461472,8.038103655,23.16604646,6.99E-06,168.1684777,321.0458817,3.26E-05,3.81E-06,,,,
191.8079999,749,36.39297456,-164.0962467,-6.70E-09,110.8265742,7.06E-06,145.4670755,-3.64E-08,1.27E-07,-276.8637752,-61.31803436,186.6421683,8.82E-06,-96.10715332,-219.0411428,3.23E-05,3.56E-06,,,,
191.8159999,749,-3.205203553,294.7195318,-6.70E-09,-19.20535399,7.19E-06,-16.19475358,-3.81E-08,1.23E-07,42.339622,126.2127503,-86.48208054,7.41E-06,-44.16131328,68.00955158,3.21E-05,3.32E-06,,,,
191.8239999,749,-5.171870608,-206.6576234,-6.80E-09,4.468834318,7.32E-06,66.15322236,-3.97E-08,1.20E-07,76.52368898,-118.3728439,161.0408494,6.30E-06,123.9890826,139.0417508,3.18E-05,3.84E-06,,,,
191.8319999,749,16.99293388,116.8941829,-6.90E-09,74.59380713,7.44E-06,101.3905985,-4.13E-08,1.17E-07,-334.1814065,85.50392307,2.702878669,7.76E-06,-210.3353264,-294.0120727,3.16E-05,4.03E-06,,,,
191.8399999,749,-19.50134474,99.58095469,-6.90E-09,-80.50027408,7.57E-06,-33.29700227,-4.29E-08,1.14E-07,230.2047074,2.47124376,-15.80260413,8.34E-06,137.943238,290.7797013,3.13E-05,3.61E-06,,,,
191.8479999,749,21.24121477,-189.5517898,-7.00E-09,120.8827678,7.70E-06,154.6335084,-4.44E-08,1.11E-07,-295.4261669,-60.49882362,173.7542389,7.16E-06,-93.03945313,-217.584211,3.11E-05,3.46E-06,,,,
191.8559999,749,-33.96219333,257.0650264,-7.10E-09,-8.228141879,7.82E-06,1.024212681,-4.60E-08,1.08E-07,10.4787125,126.1736034,-106.4870609,6.18E-06,-54.26841201,50.04606528,3.08E-05,3.69E-06,,,,
191.8639999,749,-4.221605303,-182.5929807,-7.20E-09,12.18257847,7.94E-06,71.35308059,-4.76E-08,1.05E-07,77.83368205,-115.831496,151.6795717,7.43E-06,132.6941371,150.0798217,3.06E-05,3.91E-06,,,,
191.8719999,749,-14.5671209,96.9865826,-7.20E-09,78.66599793,8.07E-06,112.956999,-4.91E-08,1.02E-07,-347.5103682,87.14451599,12.68572024,8.20E-06,-192.0401577,-299.8518909,3.03E-05,3.55E-06,,,,
191.8799999,749,-55.65716008,61.96906691,-7.30E-09,-83.50281707,8.19E-06,-14.41058642,-5.07E-08,9.92E-08,189.9875433,-1.770291413,-33.01827812,6.89E-06,136.3365651,247.209241,3.01E-05,3.33E-06,,,,
191.8879999,749,56.13410924,-150.9300917,-7.40E-09,115.2088659,8.31E-06,161.2942974,-5.23E-08,9.62E-08,-285.656945,-58.34984835,165.1397365,5.99E-06,-76.21068621,-214.6706678,2.99E-05,3.61E-06,,,,
191.8959999,749,-9.90044483,280.1745924,-7.40E-09,-11.96205284,8.43E-06,5.394831818,-5.38E-08,9.32E-08,32.70788543,138.9993555,-82.67931914,7.20E-06,-17.82426873,73.96904849,2.96E-05,3.80E-06,,,,
191.9039999,749,5.735047797,-172.5528818,-7.50E-09,9.077954961,8.56E-06,70.05273506,-5.53E-08,9.02E-08,117.338537,-96.8640147,186.7301396,7.04E-06,194.5340939,182.2920404,2.94E-05,3.46E-06,,,,
191.9119999,749,14.20677861,150.7232559,-7.60E-09,80.25859495,8.68E-06,100.7066703,-5.69E-08,8.73E-08,-294.3667597,107.4465464,46.32501108,5.78E-06,-127.0680883,-256.1102857,2.91E-05,3.71E-06,,,,
191.9199999,749,-39.92175834,121.5960363,-7.60E-09,-79.94213077,8.79E-06,-32.37133427,-5.84E-08,8.43E-08,258.3262729,23.64620403,21.05360987,7.03E-06,195.3796533,316.5233382,2.89E-05,3.97E-06,,,,
191.9279999,749,68.51349898,-110.7688942,-7.70E-09,116.0842577,8.91E-06,136.4585122,-5.99E-08,8.14E-08,-192.7230943,-32.23226207,240.0318764,7.88E-06,-1.234882064,-136.2208964,2.86E-05,3.56E-06,,,,
191.9359999,749,-6.583096752,287.3760032,-7.80E-09,-10.84330218,9.03E-06,-18.63965406,-6.14E-08,7.84E-08,76.95560923,151.5711672,-47.89224136,6.49E-06,30.25059096,98.5047472,2.84E-05,3.61E-06,,,,
191.9439999,749,-3.460264557,-197.0800432,-7.80E-09,12.31842015,9.15E-06,56.16520543,-6.29E-08,7.55E-08,115.0514325,-96.10248771,168.3841127,5.66E-06,174.8761703,176.8550194,2.81E-05,3.86E-06,,,,
191.9519999,749,15.11310915,109.4211302,-7.90E-09,85.79585343,9.27E-06,96.91603441,-6.44E-08,7.26E-08,-284.9449528,108.8622613,23.98006906,6.83E-06,-168.4058431,-244.7589606,2.79E-05,3.52E-06,,,,
191.9599999,749,-46.11559721,68.17924573,-7.90E-09,-70.10427344,9.38E-06,-20.01198184,-6.59E-08,6.97E-08,226.3691387,22.29665535,-30.43156059,7.65E-06,156.3936647,287.4039533,2.77E-05,3.50E-06,,,,
191.9679999,749,80.22411279,-130.8402091,-8.00E-09,135.1297914,9.50E-06,161.4973828,-6.73E-08,6.68E-08,-237.3001522,-26.64173735,170.0247096,6.32E-06,-44.7102161,-187.8840875,2.74E-05,3.80E-06,,,,
191.9759999,749,54.37887551,317.5061503,-8.10E-09,11.57477188,9.61E-06,-0.882943939,-6.88E-08,6.39E-08,120.5258054,183.0715487,-43.99489874,6.39E-06,25.57273079,125.1065659,2.72E-05,3.43E-06,,,,
191.9839999,749,46.41744178,-185.3208121,-8.10E-09,36.63474818,9.73E-06,73.45461673,-7.03E-08,6.10E-08,141.2686323,-67.52838949,191.8195806,7.54E-06,178.470505,179.0582326,2.69E-05,3.44E-06,,,,
191.9919999,749,64.62326899,133.3978271,-8.20E-09,123.5234114,9.84E-06,109.9694212,-7.17E-08,5.81E-08,-279.4129448,129.233806,30.39457103,6.19E-06,-180.293903,-287.6371791,2.67E-05,3.49E-06,,,,
191.9999999,750,5.566333386,110.4889995,-8.30E-09,-41.45569923,9.95E-06,-28.04473808,-7.32E-08,5.53E-08,302.3559168,55.58613357,24.29378826,7.14E-06,182.1010208,316.1987217,2.64E-05,3.61E-06,,,,
192.0079999,750,70.92753102,-147.1616665,-8.30E-09,132.7952923,1.01E-05,152.337672,-7.46E-08,5.24E-08,-210.089777,-7.220688152,210.572767,8.33E-06,-31.87168611,-182.1548837,2.62E-05,3.88E-06,,,,
192.0159999,750,21.65173282,301.6132033,-8.40E-09,2.786658134,1.02E-05,-1.631312703,-7.60E-08,4.96E-08,81.10192916,186.77268,-57.92583398,5.71E-06,3.128362053,69.95857291,2.60E-05,3.26E-06,,,,
192.0239999,750,47.01936249,-129.1472754,-8.40E-09,44.05180293,1.03E-05,68.88448332,-7.75E-08,4.67E-08,178.2680335,-43.97996367,209.4859495,7.02E-06,212.4636319,210.7648677,2.57E-05,3.30E-06,,,,
192.0319999,750,57.77002256,184.074276,-8.50E-09,139.4712799,1.04E-05,107.1327228,-7.89E-08,4.39E-08,-190.5271059,171.9297549,85.13657208,8.21E-06,-90.29557048,-184.5680835,2.55E-05,3.39E-06,,,,
192.0399999,750,-70.32003085,86.24172945,-8.60E-09,-28.27098069,1.05E-05,-15.41144713,-8.03E-08,4.11E-08,307.3367623,84.71039998,16.89978751,5.48E-06,216.8795952,332.8386065,2.52E-05,3.47E-06,,,,
192.0479999,750,-36.29711421,-175.3350616,-8.60E-09,156.2166434,1.06E-05,177.2090279,-8.17E-08,3.83E-08,-261.2323285,0.634633608,138.1850867,6.90E-06,-70.76840828,-224.4045847,2.50E-05,3.78E-06,,,,
192.0559999,750,-89.11491595,269.220874,-8.70E-09,31.19649582,1.07E-05,25.33270626,-8.31E-08,3.55E-08,61.69208828,188.6522431,-114.6965005,8.01E-06,-21.32581199,76.59590618,2.48E-05,3.61E-06,,,,
192.0639999,750,-90.27569299,-203.682917,-8.70E-09,40.67736688,1.08E-05,93.06778709,-8.45E-08,3.27E-08,136.7919613,-57.68897617,145.9102271,6.29E-06,180.4122479,189.8217415,2.45E-05,3.63E-06,,,,
192.0719999,750,-61.38682439,141.5969579,-8.80E-09,106.2157431,1.09E-05,123.6053802,-8.58E-08,3.00E-08,-256.8090913,141.2880198,5.198568217,5.72E-06,-162.4070494,-263.7127604,2.43E-05,3.59E-06,,,,
192.0799999,750,-116.3823887,107.9221234,-8.90E-09,-54.1960563,1.10E-05,-9.507158801,-8.72E-08,2.72E-08,317.5946043,62.75882589,-6.683642847,5.76E-06,188.6735041,316.3353181,2.40E-05,3.56E-06,,,,
192.0879999,750,-48.14808632,-140.4214108,-8.90E-09,144.3445026,1.11E-05,175.8430201,-8.86E-08,2.44E-08,-189.0590786,-2.980418898,175.0622855,6.73E-06,-25.76845684,-182.0295943,2.38E-05,3.55E-06,,,,
192.0959999,750,-158.5262813,243.369643,-9.00E-09,19.27274243,1.12E-05,30.7941285,-8.99E-08,2.17E-08,86.6609688,187.4046645,-92.11567901,5.58E-06,-3.693240974,64.52308478,2.36E-05,3.51E-06,,,,
192.1039999,750,-176.9314134,-252.1288039,-9.00E-09,29.35876864,1.14E-05,104.4021979,-9.13E-08,1.90E-08,113.1988314,-70.42746014,115.9255964,5.43E-06,128.1607079,142.6854332,2.33E-05,3.49E-06,,,,
192.1119999,750,-89.10976086,144.1474516,-9.10E-09,99.10649756,1.15E-05,127.9116669,-9.26E-08,1.62E-08,-249.6011898,131.8794348,-16.18793672,6.78E-06,-171.0457271,-251.9553148,2.31E-05,3.46E-06,,,,
192.1199999,750,-147.1513027,85.69323704,-9.10E-09,-57.68040474,1.16E-05,-3.982383003,-9.40E-08,1.35E-08,330.8766734,62.00886453,1.68520362,7.20E-06,218.0667014,343.0230496,2.28E-05,3.44E-06,,,,
192.1279999,750,-77.95678469,-200.5357846,-9.20E-09,137.5487937,1.17E-05,181.5382052,-9.53E-08,1.08E-08,-210.4676006,-14.7181419,156.8589467,7.18E-06,-55.7638352,-200.1267906,2.26E-05,3.41E-06,,,,
192.1359999,750,-98.17298832,272.7732124,-9.20E-09,7.721823348,1.18E-05,17.81257071,-9.66E-08,8.10E-09,96.44151877,171.4539975,-112.4105263,5.99E-06,-17.93219819,71.54315039,2.24E-05,3.39E-06,,,,
192.1439999,750,-115.8612093,-217.5776954,-9.30E-09,21.31892792,1.19E-05,87.58613285,-9.79E-08,5.40E-09,170.26568,-74.45102212,155.2492047,7.12E-06,186.5008479,204.2559924,2.21E-05,3.36E-06,,,,
192.1519999,750,-128.7037474,68.27875897,-9.40E-09,88.11809327,1.20E-05,129.7244894,-9.92E-08,2.80E-09,-254.4004221,120.3599344,-3.34781027,7.11E-06,-179.1249596,-265.8588745,2.19E-05,3.34E-06,,,,
192.1599999,750,-194.705042,32.38484383,-9.40E-09,-78.929401,1.21E-05,-3.563140898,-1.01E-07,1.00E-10,274.1429955,33.10313567,-58.30834766,5.69E-06,134.0712146,249.0154901,2.17E-05,3.31E-06,,,,
192.1679999,750,-101.1486712,-222.971316,-9.50E-09,114.184306,1.22E-05,174.2841749,-1.02E-07,-2.60E-09,-226.082927,-39.78375858,128.8740988,7.06E-06,-78.08259472,-227.0933368,2.14E-05,3.29E-06,,,,
192.1759999,750,-98.13001559,272.7634078,-9.50E-09,-15.11566971,1.23E-05,8.915008341,-1.03E-07,-5.20E-09,91.42705341,153.8157116,-124.7475393,6.88E-06,-21.29713504,62.253612,2.12E-05,3.74E-06,,,,
192.1839999,750,-86.60436199,-195.5674568,-9.60E-09,-4.220591925,1.24E-05,68.05125465,-1.04E-07,-7.80E-09,165.8079358,-86.69939633,135.3700812,5.57E-06,177.8234787,164.1413484,2.10E-05,3.69E-06,,,,
192.1919999,750,-105.7767376,40.70612706,-9.60E-09,64.66692898,1.24E-05,104.6228683,-1.06E-07,-1.05E-08,-261.1494557,110.8327939,-16.51381261,6.87E-06,-175.9546696,-269.9144151,2.07E-05,3.54E-06,,,,
192.1999999,750,-118.7611541,70.89419163,-9.70E-09,-95.41382001,1.25E-05,-36.54084295,-1.07E-07,-1.31E-08,273.4667175,20.98778254,-86.63363203,6.73E-06,130.7576398,282.7768688,2.05E-05,3.41E-06,,,,
192.2079999,750,-7.460109254,-161.1931454,-9.70E-09,107.9241436,1.26E-05,142.7471731,-1.08E-07,-1.57E-08,-174.7388044,-39.24506533,153.886931,4.45E-06,-31.42962579,-175.3402843,2.02E-05,3.05E-06,,,,
192.2159999,750,-102.5475226,203.1745066,-9.80E-09,-14.17680463,1.27E-05,5.921898566,-1.09E-07,-1.83E-08,100.6242299,158.2529237,-97.29776378,5.81E-06,-7.093467555,64.79731594,2.00E-05,3.17E-06,,,,
192.2239999,750,-107.1964553,-260.7650333,-9.80E-09,-5.469337703,1.28E-05,78.76221467,-1.11E-07,-2.08E-08,111.3276316,-104.2565743,74.41852175,6.87E-06,105.7696656,103.8422679,1.98E-05,3.10E-06,,,,
192.2319999,750,-66.00642446,62.73188919,-9.90E-09,61.98131465,1.29E-05,108.1402875,-1.12E-07,-2.34E-08,-264.7409362,90.78646685,-52.02788584,4.29E-06,-212.9474556,-315.0391446,1.95E-05,3.56E-06,,,,
192.2399999,750,-105.1455673,55.33491822,-9.90E-09,-96.97069881,1.30E-05,-27.18594341,-1.13E-07,-2.60E-08,302.5721189,16.82262771,-56.7240309,5.61E-06,128.855797,261.2562427,1.93E-05,3.51E-06,,,,
192.2479999,750,-13.88424555,-192.3996398,-1.00E-08,102.9313037,1.31E-05,151.6991544,-1.14E-07,-2.85E-08,-167.3171568,-43.92432802,153.1224084,6.79E-06,-63.86226763,-209.8686981,1.91E-05,3.36E-06,,,,
192.2559999,751,-76.18458661,229.034899,-1.00E-08,-22.97853442,1.32E-05,-2.457460064,-1.16E-07,-3.11E-08,114.5630911,153.293445,-112.3450567,6.00E-06,-14.97414936,44.79234751,1.89E-05,3.71E-06,,,,
192.2639999,751,-98.14789562,-259.2591606,-1.01E-08,-11.02795135,1.33E-05,67.54119519,-1.17E-07,-3.36E-08,145.05376,-100.3308502,104.5350101,6.36E-06,150.5975213,131.9794047,1.86E-05,3.33E-06,,,,
192.2719999,751,-114.1298341,-8.480391216,-1.01E-08,57.2895982,1.34E-05,113.1913532,-1.18E-07,-3.61E-08,-300.8068526,80.82037772,-57.02806149,5.14E-06,-229.6110922,-342.3021768,1.84E-05,3.32E-06,,,,
192.2799999,751,-162.9665308,-10.8619701,-1.01E-08,-108.842333,1.35E-05,-17.52004977,-1.19E-07,-3.86E-08,208.2422449,-14.5305398,-131.8837556,6.19E-06,62.57148881,170.5111986,1.82E-05,3.38E-06,,,,
192.2879999,751,-15.87503439,-218.9826882,-1.02E-08,88.06000177,1.35E-05,153.8120722,-1.20E-07,-4.11E-08,-219.1486913,-77.28300996,97.01341335,6.29E-06,-97.56602291,-268.832019,1.79E-05,3.02E-06,,,,
192.2959999,751,-23.79879771,219.6864139,-1.02E-08,-38.18712066,1.36E-05,-2.683472701,-1.21E-07,-4.36E-08,85.10400672,119.7165995,-141.989401,4.80E-06,-60.21498595,3.889000062,1.77E-05,3.32E-06,,,,
192.3039999,751,24.19444211,-192.4996052,-1.03E-08,-27.10570504,1.37E-05,53.31664764,-1.23E-07,-4.61E-08,177.5084387,-119.4416186,107.5428577,6.22E-06,148.5682348,154.723896,1.75E-05,3.29E-06,,,,
192.3119999,751,69.63925161,107.8452514,-1.03E-08,46.34920133,1.38E-05,81.46846841,-1.24E-07,-4.86E-08,-174.7823662,94.59804325,26.27978872,6.01E-06,-116.510222,-239.7821779,1.72E-05,3.17E-06,,,,
192.3199999,751,-12.03088652,50.42020673,-1.04E-08,-118.7607985,1.39E-05,-53.22565478,-1.25E-07,-5.10E-08,328.0349406,8.224822548,-28.56314215,5.69E-06,178.7078055,269.9593928,1.70E-05,3.48E-06,,,,
192.3279999,751,76.61486156,-179.4218697,-1.04E-08,72.25386878,1.40E-05,115.7506053,-1.26E-07,-5.34E-08,-161.4137737,-69.84002407,153.4261731,6.92E-06,-46.00269699,-209.7877715,1.68E-05,3.13E-06,,,,
192.3359999,751,7.083994771,212.3419532,-1.05E-08,-52.41331594,1.41E-05,-31.2347771,-1.27E-07,-5.59E-08,111.8752703,123.8099986,-95.40608841,5.60E-06,-8.876987066,30.52063052,1.66E-05,3.11E-06,,,,
192.3439999,751,-27.73868692,-295.1455462,-1.05E-08,-34.36998995,1.41E-05,53.46688048,-1.28E-07,-5.83E-08,123.6258126,-129.1236929,92.91316757,5.54E-06,124.967554,103.4382013,1.63E-05,3.66E-06,,,,
192.3519999,751,22.25941397,46.39265254,-1.05E-08,43.19074971,1.42E-05,90.52112954,-1.29E-07,-6.07E-08,-274.0974639,68.4531321,-63.21001763,5.87E-06,-221.3643093,-338.2584502,1.61E-05,3.27E-06,,,,
192.3599999,751,-38.37063092,20.24395474,-1.06E-08,-117.4992616,1.43E-05,-48.1706046,-1.31E-07,-6.31E-08,310.5170496,-3.89189981,-75.3725657,6.38E-06,145.5107708,243.3474619,1.59E-05,2.97E-06,,,,
192.3679999,751,24.33241389,-242.349804,-1.06E-08,78.85138044,1.44E-05,132.7390399,-1.32E-07,-6.55E-08,-189.6490911,-80.20703414,102.5241991,7.53E-06,-67.12730794,-230.3969427,1.57E-05,3.57E-06,,,,
192.3759999,751,-0.864612524,227.5850958,-1.07E-08,-47.97339788,1.45E-05,-23.36884784,-1.33E-07,-6.79E-08,86.23765529,111.8414134,-155.5098307,5.08E-06,-37.92643852,-0.860076023,1.54E-05,3.21E-06,,,,
192.3839999,751,2.970501624,-253.9387846,-1.07E-08,-34.62073429,1.46E-05,42.79977747,-1.34E-07,-7.03E-08,186.7132874,-127.5538365,109.6252746,5.27E-06,173.9894117,127.252981,1.52E-05,2.87E-06,,,,
