Time:125Hz,Epoch,FP1,FP2,C3,C4,P7,P8,O1,O2,F7,F8,F3,F4,T7,T8,P3,P4,,,,
116.4319999,454,-181.7440932,3190.187432,-197.9455049,-210.9397471,350.8899527,-207.3800215,170.7652573,430.2263491,-71.92445665,-37.9739253,79.56863984,2.161396331,-67.0554039,-39.58188004,-1.865532222,-3917.762635,,,,
116.4399999,454,36.62537952,3161.085676,24.66229338,24.00233391,-5.843101737,6.653763286,-70.6222947,223.0582634,-145.4651616,-123.1971569,77.5870207,-98.7851524,-139.7846372,-139.9070708,-2.691900918,-3692.637848,,,,
116.4479999,454,-43.7481374,3046.881829,-57.67967535,-67.15615534,116.3809734,-55.85641855,40.50484358,326.7304185,91.62668845,120.9890037,75.61103926,149.1401817,98.3253994,108.4833859,-3.515034065,-4133.432869,,,,
116.4559999,454,-101.9258823,3271.961093,-118.606475,-123.0328956,383.5486362,-135.3614102,97.2052948,372.7163237,-187.3394613,-158.2557711,73.64072379,-117.5459633,-175.9590455,-161.1549224,-4.334923296,-3490.226519,,,,
116.4639999,454,131.8902803,3016.129935,119.6331896,116.3581065,-93.94807831,117.128059,-101.619898,210.733041,86.5491275,108.1538371,71.67610229,125.6721614,95.52357932,98.63379536,-5.151560358,-3949.333479,,,,
116.4719999,454,-159.9791782,3190.955045,-179.182281,-191.9272069,463.7709948,-185.5747005,156.2160544,440.4853881,-25.89576464,-4.141282729,69.71720251,40.66846995,-25.40278446,9.32213242,-5.964937111,-3717.102202,,,,
116.4799999,455,65.33591133,3158.90722,51.19236076,51.01253801,163.8169181,42.04461086,-78.10668573,246.6358142,-127.0379098,-110.5787456,67.76405196,-84.44403104,-128.362887,-119.0925663,-6.775045528,-3490.448274,,,,
116.4879999,455,-26.92895557,3046.131174,-38.69915846,-51.15514226,332.0964939,-34.67610027,41.85566525,354.8272961,120.0674523,145.554734,65.81667789,169.6750994,122.1864411,139.5483023,-7.581877698,-3940.010494,,,,
116.4959999,455,-144.7494853,3288.490925,-160.7251226,-164.7119386,662.6093523,-177.864814,93.21416764,399.5693808,-198.1126572,-172.9706279,63.87510729,-136.0068496,-193.2556842,-174.6231573,-8.385425822,-3289.262349,,,,
116.5039999,455,103.1452717,3040.354821,92.07410764,89.92528493,245.5810511,92.77093857,-109.5836629,224.4655859,47.98233833,66.80945719,61.93936693,81.17680383,53.4619561,44.04407033,-9.185682212,-3732.290339,,,,
116.5119999,455,-192.9721306,3227.959974,-207.5809502,-222.5190353,782.5042161,-211.3995776,162.0630581,453.7674364,-54.10920888,-36.95216253,60.00948329,4.830035851,-51.86664501,-31.84464135,-9.982639292,-3489.293825,,,,
116.5199999,455,38.55320242,3207.54829,24.1996772,24.67916987,379.0807015,12.77863006,-75.40360568,248.4575037,-152.4467187,-140.3443854,58.08548264,-120.13229,-158.1731499,-150.2033298,-10.7762896,-3234.41354,,,,
116.5279999,455,-9.656728915,3088.766441,-26.74376408,-36.74941158,356.0114497,-24.72986324,31.82576862,327.4791624,127.2670541,151.6247057,56.16739097,167.3686798,118.4964286,136.0473782,-11.56662579,-3682.730424,,,,
116.5359999,455,-138.4577704,3344.154044,-165.1732269,-166.2233828,480.1041789,-179.5479257,84.63346721,365.6869003,-188.7772904,-166.7056456,54.25523404,-133.0276992,-194.3870647,-172.3507024,-12.35364063,-3034.130956,,,,
116.5439999,455,72.75608519,3117.328564,47.29610595,50.03620527,22.47008678,50.79131221,-123.5614252,189.8263621,23.89650635,37.77314333,52.34903736,51.51588608,25.66543814,26.19153065,-13.13732697,-3461.890669,,,,
116.5519999,455,-237.3134928,3297.667449,-264.1286859,-270.9903425,642.2885452,-263.6223983,139.2225923,411.5451125,-88.79334204,-68.55982027,50.44882617,-33.76970812,-87.84331862,-54.46393591,-13.91767782,-3218.419071,,,,
116.5599999,455,-8.023343521,3268.084815,-38.83713731,-28.117026,403.6625832,-42.50168458,-100.2057016,207.1173243,-204.008729,-195.4339358,48.5546255,-175.5810513,-210.347564,-198.0411713,-14.69468626,-2962.91189,,,,
116.5679999,455,-84.98358287,3159.675335,-121.7201996,-124.9219838,615.4509719,-112.5700831,10.0479238,300.57042,55.62545689,60.61355104,46.6664601,87.61167981,52.12888377,55.19515506,-15.46834551,-3412.383465,,,,
116.5759999,455,-229.3494055,3412.916583,-268.7346137,-266.2585114,834.0444846,-278.6941359,59.75994139,358.3967732,-275.8751847,-263.0192639,44.78435449,-228.6480344,-282.8349795,-265.5625551,-16.23864888,-2754.960865,,,,
116.5839999,455,64.54439187,3156.859839,28.49561863,33.8095509,265.2182805,29.36614127,-160.5771915,182.0429433,-45.35572307,-39.83118954,42.90833292,-27.40381482,-47.48847704,-43.32544874,-17.00558979,-3179.082955,,,,
116.5919999,455,-161.3702859,3317.736309,-194.9684975,-203.8588277,670.3469581,-204.6407376,112.073141,391.5239338,-49.70283948,-51.95621332,41.03841943,-4.791436059,-35.76014371,-29.84056815,-17.76916179,-2973.339014,,,,
116.5999999,455,30.04708492,3290.518994,9.524688536,17.91568139,152.7570284,-4.010039906,-109.9946671,193.3975969,-135.5067799,-131.366934,39.17463779,-101.0058721,-127.496684,-136.3932238,-18.52935853,-2742.564869,,,,
116.6079999,455,-48.00167474,3169.312022,-68.2781147,-68.24385568,89.36587056,-64.80421634,5.944723628,288.9821771,70.9600822,80.45922771,37.31701152,116.0769662,75.52122497,96.36665571,-19.28617376,-3189.513407,,,,
116.6159999,455,-141.5808713,3403.77106,-171.2995179,-165.2525045,249.2735056,-185.5931029,70.39169688,333.3165816,-204.7565231,-202.7408512,35.4655639,-153.1072026,-195.8273624,-168.8102524,-20.03960134,-2544.321833,,,,
116.6239999,455,94.34017124,3149.315908,69.33320149,82.14052915,-120.7959864,71.29589052,-140.6774056,163.9397502,29.26828896,36.78588168,33.62031798,63.0155194,37.91095851,49.11178795,-20.78963526,-2979.94189,,,,
116.6319999,455,-189.2003531,3318.730982,-212.7362573,-209.2322128,490.0164801,-214.4183669,130.8900332,392.1709181,-66.32228776,-52.84804228,31.78129655,0.043866441,-54.7668409,-18.46622543,-21.53626959,-2754.80127,,,,
116.6399999,455,49.03904812,3287.23557,26.66798687,44.18591322,79.54825124,23.67008114,-102.4159646,188.038809,-141.1510669,-130.5058984,29.94852215,-104.5273836,-127.8764798,-123.3273643,-22.27949854,-2502.279017,,,,
116.6479999,455,0.142711351,3152.019802,-24.36202273,-15.05202227,145.2880925,-6.958677916,-2.152010708,275.0164812,112.6155838,124.4890588,28.12201709,157.6565826,130.6861623,142.5106033,-23.01931639,-2964.278354,,,,
116.6559999,455,-133.5692946,3386.497222,-156.217763,-142.1808826,367.5022699,-157.6594325,66.36091893,326.6241144,-177.3274324,-171.0608497,26.30180342,-118.179512,-166.2825634,-135.0667542,-23.75571757,-2330.109216,,,,
116.6639999,455,85.26347664,3131.844763,68.38416991,81.57793671,-148.8758233,77.06492915,-144.493894,155.9265306,42.65412743,51.68191391,24.48790296,74.84372561,51.40990717,66.87927664,-24.48869659,-2764.794987,,,,
116.6719999,455,-223.5270664,3303.376617,-244.0393008,-242.7351706,405.3550517,-243.0657801,118.9064996,390.0112368,-79.70467936,-72.96493783,22.68033729,-16.40264578,-67.81804504,-32.56186598,-25.21824806,-2547.723462,,,,
116.6799999,455,-26.71367791,3287.182315,-37.91249747,-23.82738473,157.3307949,-40.19632872,-111.2325954,201.8149852,-202.1754491,-204.9093405,20.87912773,-162.6438121,-196.9263226,-183.002804,-25.94436673,-2286.114292,,,,
116.6879999,455,-73.22556328,3156.653625,-79.96795206,-78.88682845,272.2225511,-66.45698154,-10.96301054,292.1668966,58.33107723,56.72830628,19.08429538,99.83303523,76.54611538,88.05263264,-26.66704743,-2741.309435,,,,
116.6959999,455,-211.7768725,3394.480937,-221.5886179,-212.7166617,518.7723482,-225.7147831,51.75544335,346.1840706,-236.9125311,-239.0447008,17.29586107,-182.7576551,-223.1271061,-200.0703004,-27.3862851,-2101.226914,,,,
116.7039999,455,32.74969297,3133.135844,23.70037978,39.48437463,244.6731311,40.04822834,-163.3651401,172.5438181,-38.07292206,-32.91026871,15.51384543,-5.358215315,-34.12887369,-15.44702302,-28.1020748,-2524.296961,,,,
116.7119999,455,-196.2827974,3274.544278,-210.8367964,-206.6904809,941.7979964,-204.8214037,95.60331648,389.2254704,-83.51240014,-84.75954994,13.7382688,-27.33824309,-77.49208563,-33.04174659,-28.81441168,-2317.177976,,,,
116.7199999,455,3.578800986,3235.712805,-1.282360978,15.94863049,646.6029236,-6.291191142,-131.4357061,190.0998249,-155.0111397,-167.567209,11.96915131,-127.5298793,-157.8094928,-132.670758,-29.52329101,-2071.691884,,,,
116.7279999,455,-74.72846507,3094.222464,-76.3850308,-69.10371022,711.5797053,-59.03188177,-15.86919218,286.9935263,75.3384791,69.77817356,10.20651284,112.2455497,87.71633857,108.1636162,-30.22870816,-2532.42516,,,,
116.7359999,456,-174.8370208,3318.683806,-178.0046718,-164.6386544,792.7591863,-179.666549,59.38058529,342.1334138,-203.6721821,-214.0833347,8.450373048,-153.9829509,-193.7414192,-161.5361142,-30.93065859,-1881.462664,,,,
116.7439999,456,46.56163251,3055.888902,54.49552663,72.98065666,365.5372288,65.82058931,-148.5317809,167.1694241,4.34046068,-0.912125858,6.70075132,31.3803683,7.726710807,29.56928634,-31.62913788,-2299.827241,,,,
116.7519999,456,-278.0441566,3220.52885,-276.5260994,-264.4879555,1105.11769,-263.044404,118.4435603,403.335919,-115.0384961,-118.5220852,4.957666826,-55.82753304,-100.649949,-61.93012314,-32.32414173,-2088.505599,,,,
116.7599999,456,-79.52631065,3199.112921,-82.56656691,-54.71233504,877.5869124,-73.93324842,-121.2700728,208.874667,-229.8537285,-242.3468757,3.221138501,-197.7325244,-235.0589474,-192.9622589,-33.0156659,-1820.805705,,,,
116.7679999,456,-124.3527581,3054.747678,-128.0618692,-115.200774,1002.231941,-105.5063108,-28.25246654,290.0970372,13.21025377,2.147915425,1.491185019,43.98036679,12.76285971,51.81892044,-33.70370631,-2283.677415,,,,
116.7759999,456,-231.1242057,3283.888629,-233.6159463,-214.5590257,1083.754435,-227.4199139,38.42894287,344.0494403,-275.3601858,-299.8560641,-0.23217516,-236.1285504,-262.0675161,-245.7129113,-34.38825893,-1645.520196,,,,
116.7839999,456,44.4655765,3010.284424,50.87554979,76.70077206,386.6845304,70.03221403,-175.3413382,156.1530037,-10.24760427,-29.46782605,-1.948923828,6.676449261,-9.839936179,10.54103077,-35.06931988,-2079.894278,,,,
116.7919999,456,-212.2856745,3149.353232,-214.546501,-200.7065079,775.5325352,-198.0328076,100.9271837,373.944846,-56.40484142,-73.12496885,-3.659043005,-13.17487793,-53.02913258,-7.169689664,-35.74688534,-1890.670286,,,,
116.7999999,456,-17.86243859,3121.946534,-25.80025059,0.542371447,328.7439443,-14.10822299,-128.5877055,181.3718141,-180.1204928,-211.2545698,-5.362514952,-165.2047505,-178.5604285,-153.6293815,-36.42095163,-1626.666574,,,,
116.8079999,456,-71.80920363,2970.332903,-79.93881663,-69.15322462,373.2240002,-59.19382859,-42.2164797,260.4691541,74.09623406,52.25348225,-7.059322165,97.20611493,73.92737567,117.0247068,-37.09151515,-2108.583199,,,,
116.8159999,456,-171.1728933,3188.171124,-175.8147687,-160.2149024,722.3927483,-173.1767041,27.45017422,308.4490127,-206.6045563,-230.6941022,-8.749447377,-172.0746185,-195.7683268,-171.6401567,-37.7585724,-1491.374849,,,,
116.8239999,456,74.07892761,2917.992802,76.88146195,99.7769984,524.5902929,97.85596208,-186.8714472,126.8135626,22.49291349,-5.599207285,-10.43287355,26.8390873,27.58739758,40.36761873,-38.42212001,-1938.127425,,,,
116.8319999,456,-232.3509707,3068.118477,-237.8039099,-228.8035797,1280.374205,-224.1837861,84.16926723,355.8210626,-59.37513576,-82.49390237,-12.10958389,-24.3302987,-58.14029116,-6.304505034,-39.08215468,-1773.031126,,,,
116.8399999,456,-43.77118206,3041.109018,-48.51414248,-26.22530388,1047.581169,-45.79340435,-135.6604424,163.9016508,-199.0672153,-227.307189,-13.77956182,-188.3540182,-199.0249703,-178.7462983,-39.73867322,-1525.604847,,,,
116.8479999,456,-89.21263163,2879.55601,-92.75447589,-75.77556651,1192.911432,-71.26837741,-47.1940906,242.7357016,51.34664621,19.71602347,-15.44279102,62.93304954,45.12245388,87.18335968,-40.39167255,-2022.152814,,,,
116.8559999,456,-203.27709,3095.315695,-211.1512213,-186.3863521,1413.513986,-200.0025974,17.14518044,296.0552319,-233.3240018,-263.0711096,-17.09925539,-201.1514071,-229.7493515,-182.3818777,-41.04114969,-1415.093959,,,,
116.8639999,456,24.05124465,2824.847954,18.1933622,45.89254011,881.4783312,43.41852514,-196.800165,115.576399,-19.32967666,-43.42531282,-18.74893905,-7.01388612,-7.153442178,5.37846501,-41.68710174,-1862.390571,,,,
116.8719999,456,-250.9792531,2961.875764,-261.4390144,-247.1282988,1380.400477,-247.7515437,62.97968422,340.6087226,-107.7695466,-130.5304189,-20.39182638,-70.00553938,-98.18184979,-58.94737987,-42.32952593,-1694.061601,,,,
116.8799999,456,-19.05265451,2917.816952,-25.38354429,-4.125505384,1117.780972,-24.04367582,-170.0019308,136.3045512,-195.1714535,-220.6557922,-22.02790197,-181.0492147,-188.349578,-169.375578,-42.96841957,-1448.578699,,,,
116.8879999,456,-101.2002701,2757.251596,-105.9812497,-99.77284359,1400.805285,-90.69035251,-70.72064312,214.5163302,61.83953052,30.05474632,-23.65715066,77.86931736,65.69960891,92.98365591,-43.60378008,-1949.999943,,,,
116.8959999,456,-243.1761331,2986.711892,-250.6860143,-235.5664138,1811.213386,-248.461955,2.976392812,281.826991,-277.6179718,-314.6777413,-25.27955749,-251.1915308,-274.3724251,-233.8955266,-44.23560496,-1325.015816,,,,
116.9039999,456,26.34583605,2715.695808,22.16621866,40.97352856,1456.45845,42.13506642,-217.197316,101.8354031,-35.68833862,-65.7095314,-26.89510776,-35.55858018,-25.70751233,-8.854121776,-44.86389183,-1759.906649,,,,
116.9119999,456,-245.1496305,2854.450557,-254.1723663,-250.643166,2084.413787,-242.2343364,60.22498428,329.5828936,-85.86276069,-118.0958483,-28.50378698,-55.85321856,-74.35441775,-40.34289083,-45.48863841,-1590.662611,,,,
116.9199999,456,-32.73432925,2822.768987,-35.8588076,-17.48204919,1706.468358,-28.2335824,-149.426205,137.1580677,-205.4961514,-242.9484783,-30.10558091,-193.5651858,-198.0022044,-180.1312811,-46.10984249,-1325.773063,,,,
116.9279999,456,-75.27985861,2657.500859,-73.72348836,-62.67914726,1689.212442,-45.81597044,-55.9750268,211.7262651,68.88492396,44.21372645,-31.70047551,84.46670184,85.66120399,104.9532762,-46.72750199,-1829.060055,,,,
116.9359999,456,-189.2550013,2877.410662,-191.1151204,-171.2446007,1864.931631,-179.851218,15.32104062,269.5696646,-217.1609045,-243.8927672,-33.28845699,-188.9718605,-197.8093047,-173.3604886,-47.34161492,-1223.036098,,,,
116.9439999,456,84.53547244,2599.703841,84.76400134,110.1233078,1313.142123,113.8575469,-196.1896306,81.33009939,23.26374136,-11.54216904,-34.86951178,27.55555329,35.19266014,54.2787195,-47.95217936,-1667.580801,,,,
116.9519999,456,-188.6970057,2729.87672,-192.8464767,-177.796667,1767.264196,-168.0133726,82.01227324,302.4240641,-24.02668074,-57.88149038,-36.44362655,7.730598082,-10.43385315,31.61657323,-48.55919353,-1520.175825,,,,
116.9599999,456,8.283693895,2700.617997,6.128654967,40.11417294,1275.268476,26.40295892,-136.9243135,112.3735441,-153.7360152,-186.2883249,-38.01078816,-139.3102486,-140.7438967,-112.0271847,-49.16265571,-1267.082449,,,,
116.9679999,456,-24.6877695,2535.330717,-27.73618957,-5.180240067,1196.856203,10.49854176,-43.79976157,187.8232991,107.6331861,84.14236061,-39.57098374,130.9716031,122.0611734,164.8452187,-49.7625643,-1767.558946,,,,
116.9759999,456,-151.0722939,2752.376665,-157.8794296,-135.4113664,1331.766169,-143.4805577,36.89715831,244.4508806,-159.6846322,-196.4611458,-41.12420062,-128.5351907,-141.3730218,-111.7264581,-50.35891779,-1158.030705,,,,
116.9839999,456,88.28419851,2479.274201,85.48533801,112.6673482,678.9410943,110.7265254,-185.1214624,57.68126835,51.73586918,2.312821154,-42.67042635,52.76741883,63.06473669,77.8824774,-50.95171475,-1595.391079,,,,
116.9919999,457,-201.814321,2617.585461,-206.3618466,-191.01542,1074.523012,-187.2281276,81.04545851,284.2678418,-35.24189627,-76.46151539,-44.20964872,-6.104963809,-28.99225235,14.84938757,-51.54095386,-1434.127098,,,,
116.9999999,457,-5.717101444,2593.055328,-5.931972007,19.99422998,641.954411,1.876958111,-137.9333813,96.35772313,-161.7460757,-204.5227652,-45.74185574,-157.4459608,-155.2203592,-147.5782665,-52.1266339,-1159.508817,,,,
117.0079999,457,-27.98679955,2428.296199,-27.10881977,-13.73163119,648.7310951,-4.849466605,-40.79075454,170.5901617,113.883083,64.73752459,-47.26703565,118.2195708,122.960209,142.7180452,-52.70875373,-1650.630524,,,,
117.0159999,457,-154.446618,2648.965381,-152.0924029,-135.3858791,867.7177383,-149.3945667,45.62144923,233.5558267,-162.9246702,-215.642083,-48.78517689,-144.8031177,-149.3588089,-124.0472082,-53.28731231,-1023.907767,,,,
117.0239999,457,96.24883748,2371.946441,103.4836383,123.0705337,298.8322851,119.2932164,-175.653755,49.60452196,46.24470776,2.402134955,-50.29626813,39.82837462,63.2726104,60.23904916,-53.86230871,-1443.375258,,,,
117.0319999,457,-177.1882755,2499.975812,-177.6311755,-167.1004956,818.6555806,-160.4129255,93.74367145,273.7465292,-11.19844073,-55.33767902,-51.80029828,9.709023925,6.566378939,28.61995076,-54.43374206,-1289.520589,,,,
117.0399999,457,11.98044567,2466.270012,14.40917868,41.84049131,576.6586942,28.23342546,-135.7683437,81.6273812,-128.7625079,-177.0890861,-53.29725645,-127.1571186,-121.2347601,-110.4063226,-55.00161161,-1020.817127,,,,
117.0479999,457,-34.60071103,2292.858701,-36.56083127,-22.13571938,840.6062841,-8.405697325,-58.41362057,150.4093784,125.3480547,82.97319462,-54.78713198,129.2723117,125.6161544,153.5768381,-55.56591669,-1519.263115,,,,
117.0559999,457,-183.6592536,2521.317926,-192.2516237,-174.9837634,1347.600523,-183.9686826,18.59572324,213.8238732,-194.4782051,-242.4430037,-56.26991443,-179.4995088,-190.4099105,-159.3935267,-56.12665674,-894.9781135,,,,
117.0639999,457,89.01969365,2245.087838,94.16195638,113.9492232,936.9523464,113.6550365,-206.1328231,28.63717105,22.49527466,-20.28225988,-57.74559357,15.68028827,37.84934569,43.83470749,-56.68383127,-1315.508632,,,,
117.0719999,457,-176.0546163,2362.19784,-170.3156684,-164.1585121,1448.310368,-157.0851295,72.70917066,256.3972616,0.024744811,-39.35501185,-59.2141594,23.94928706,17.63683174,46.85916852,-57.23743989,-1169.710838,,,,
117.0799999,457,-20.52041767,2335.505018,-15.86123336,6.803153214,1107.270808,-9.80664565,-156.1048331,76.95344609,-156.4952113,-201.1180354,-60.67560213,-150.5968573,-152.3786919,-132.5925411,-57.7874823,-891.8363028,,,,
117.0879999,457,-33.05208695,2157.473882,-27.84245462,-16.22798042,1165.407824,-7.812661331,-86.0630888,151.0268136,94.12987333,57.44268312,-62.12991219,107.3403139,103.4124041,135.7002846,-58.3339583,-1387.493456,,,,
117.0959999,457,-143.3923641,2369.033211,-135.3363682,-121.3088652,1431.362094,-135.6432824,5.736172739,218.0256537,-163.9065012,-201.2759589,-63.57708023,-138.731814,-144.5959416,-116.7129719,-58.87686777,-772.4275424,,,,
117.1039999,457,85.82478125,2093.776577,99.7899188,120.3319013,882.6232126,119.0236568,-215.7007351,41.05371832,52.11853204,14.48890217,-65.01709711,49.13780781,68.62373259,76.45712595,-59.41621069,-1194.884042,,,,
117.1119999,457,-189.9501538,2216.973811,-186.789989,-177.057738,1310.61173,-171.0374293,44.8058745,273.5741457,-22.89551788,-52.30398317,-66.4499539,7.203174454,-6.232507379,28.76921356,-59.95198712,-1042.540847,,,,
117.1199999,457,6.38977529,2188.95019,10.84958264,31.17701648,855.7123137,9.224193224,-185.438618,87.44131184,-164.2623411,-198.2585627,-67.87564192,-155.1232206,-156.3986609,-142.7206494,-60.48419722,-764.5027333,,,,
117.1279999,457,-11.27796065,2016.23663,-4.542509049,-0.902562794,821.5045144,5.413102008,-108.5403673,152.6463919,122.6265622,80.31807129,-69.29415265,125.0085943,125.7762256,137.5392505,-61.01284123,-1277.523431,,,,
117.1359999,457,-135.0510765,2241.329796,-133.6227962,-128.5019342,1090.870144,-142.2421022,-22.26987223,214.0360603,-153.6603604,-193.050609,-70.70547782,-140.8647756,-139.54843,-134.7964272,-61.53791948,-666.9646984,,,,
117.1439999,457,119.2352076,1970.282473,121.1618077,131.3138117,649.038704,128.0781672,-243.6671737,24.21260178,73.95584694,46.92212714,-72.10960937,60.67020547,84.45630725,77.77681225,-62.05943241,-1095.148734,,,,
117.1519999,457,-147.8281667,2097.150329,-153.5476041,-157.7758534,1208.59845,-152.0955915,33.3069817,250.2601838,19.60106495,-8.437611067,-73.50653945,31.69229086,19.77232961,45.1918001,-62.5773805,-953.2679701,,,,
117.1599999,457,31.49412166,2077.746582,22.74320164,31.14651701,839.8261654,13.27410242,-190.666344,66.14221086,-139.4193048,-177.7427604,-74.89626041,-152.1012143,-145.3358754,-139.296043,-63.09176438,-663.7616538,,,,
117.1679999,457,-5.880927268,1909.014972,-18.26302488,-19.04315237,841.6427507,-6.964252001,-119.9442875,136.7410944,134.0029178,105.2953559,-76.27876482,122.1495772,124.9831944,144.5990747,-63.60258472,-1172.259285,,,,
117.1759999,457,-145.403366,2147.110872,-156.9067467,-156.9207837,1037.682229,-166.528538,-27.22081032,212.8412645,-164.1863671,-188.8981261,-77.65404546,-162.691382,-162.4090651,-144.7351267,-64.10984229,-554.3897445,,,,
117.1839999,457,124.8428921,1886.4052,116.3003224,117.2899982,399.2385166,116.1159191,-250.8509624,27.6663914,44.97755277,17.0500389,-79.02209533,13.49174146,51.92350647,43.80210307,-64.61353796,-970.4053422,,,,
117.1919999,457,-99.29645705,2009.26504,-113.6995224,-128.2258359,808.2794967,-122.6907496,23.04928072,243.9974853,36.08374576,10.57656363,-80.38290763,30.72663364,40.66826226,57.96365674,-65.11367267,-834.2946026,,,,
117.1999999,457,80.88618277,1998.413967,74.24973008,69.99333647,375.3660664,50.53997242,-166.6222726,55.74504567,-89.15412252,-117.7160789,-81.73647576,-109.5194848,-84.79385196,-91.56821737,-65.61024746,-541.2215028,,,,
117.2079999,457,30.38089132,1837.555514,20.66514534,12.31377404,328.3653123,23.51094481,-68.54965242,120.7243541,160.7875357,143.0970692,-83.08279335,146.0297825,168.7367163,169.6325443,-66.10326344,-1049.010932,,,,
117.2159999,457,-84.93023469,2069.057157,-101.1978772,-100.6878571,571.3504912,-111.9752711,24.78641836,180.3203067,-127.2181171,-137.0410354,-84.42185421,-125.2966262,-120.427349,-107.9520331,-66.59272182,-436.2942082,,,,
117.2239999,457,161.5933539,1814.957658,146.9994681,149.4244929,60.49513846,144.9816146,-189.6215771,-12.70002254,86.43172648,71.17413535,-85.75365238,61.7676283,85.48162646,83.44704239,-67.07862389,-850.0898115,,,,
117.2319999,457,-129.9498311,1955.234054,-156.3065095,-164.3765617,590.330149,-158.7581661,85.68563407,212.0673757,31.87064452,12.5740808,-87.07818209,30.68801678,36.54120138,52.99148968,-67.56097103,-716.9780828,,,,
117.2399999,457,44.56811514,1954.357617,21.91623675,30.69863049,242.6045324,15.00020131,-130.9693059,29.24431386,-135.2937256,-158.604356,-88.3954378,-159.8026804,-131.2464526,-135.2833648,-68.03976468,-417.0846834,,,,
117.2479999,458,5.11515123,1803.487558,-13.09563047,-17.90534084,248.522631,-5.490738522,-48.45444504,101.8601362,106.2189863,89.48403969,-89.70541414,84.70334652,113.3986881,120.3059021,-68.51500641,-920.9282119,,,,
117.2559999,458,-131.5149167,2047.275135,-149.9275461,-155.8028244,535.8298982,-166.4288128,49.29359205,175.6695114,-160.002922,-177.4081137,-91.00810597,-167.340708,-141.1161904,-136.9249117,-68.98669782,-310.7301728,,,,
117.2639999,458,140.8984271,1785.360836,126.1376566,128.1825954,6.400074105,123.310741,-180.5385017,-17.2374805,62.47302682,37.52646627,-92.30350835,23.79651834,69.12979539,57.1792212,-69.45484064,-727.3683619,,,,
117.2719999,458,-90.20620421,1907.257051,-114.8776461,-121.7847935,482.914944,-121.8275166,87.88988354,205.3577626,31.8351115,7.454966057,-93.59161654,17.40819278,34.64707154,50.14354497,-69.91943666,-615.1474632,,,,
117.2799999,458,100.1183858,1895.736222,82.75939141,84.50266735,89.8151512,64.09703877,-111.2748156,25.95465474,-75.50107856,-105.7114333,-94.87242599,-110.5836728,-59.01303517,-73.24023749,-70.38048775,-340.7277055,,,,
117.2879999,458,39.3656492,1737.046633,27.47898068,17.13478151,36.69127123,26.50449749,-19.06464399,102.7561941,167.1228183,132.8957875,-96.14593237,132.3467668,186.0959143,178.6192594,-70.83799587,-855.1789034,,,,
117.2959999,458,-92.98365856,1973.273687,-109.0680147,-114.0869961,263.7569474,-128.949685,82.49710038,180.2204592,-123.252574,-157.8042974,-97.41213154,-145.606004,-106.7973812,-107.2201801,-71.29196305,-238.4783878,,,,
117.3039999,458,172.9816682,1704.947863,162.1416978,163.0599741,-313.4274599,158.346481,-144.2913901,-13.4850743,105.9938757,72.67001256,-98.67101957,56.01732105,117.472187,102.8814485,-71.74239143,-653.6670913,,,,
117.3119999,458,-121.3643441,1837.061881,-137.1250646,-143.9037149,201.6569027,-141.9439498,124.2598119,216.5803533,32.4235334,4.145497047,-99.92259273,14.09495621,37.65665767,56.36457255,-72.18928321,-531.4201561,,,,
117.3199999,458,66.37869889,1830.957491,54.31117311,61.35781284,-99.78057012,36.12104078,-87.12621331,33.49872501,-108.9491078,-136.4088708,-101.1668475,-141.6940858,-99.85786383,-105.5000259,-72.63264066,-230.8995897,,,,
117.3279999,458,18.84117602,1665.46357,6.030688167,3.390528046,-78.54895321,8.856529912,-14.90666112,97.84436462,157.4973245,134.1896929,-102.4037804,129.8038618,175.4131261,168.6948643,-73.07246615,-748.5475967,,,,
117.3359999,458,-175.6249034,1919.392824,-191.3250803,-183.855758,249.2580739,-195.8746417,74.8963502,185.0582763,-171.5707322,-187.9824849,-103.6333885,-179.028682,-157.5845402,-151.2168845,-73.50876213,-127.0515739,,,,
117.3439999,458,101.4887376,1662.148456,95.18669076,107.9463037,-255.2045829,104.5176503,-157.6107476,-7.980201147,10.73031569,-5.693013872,-104.8556688,-26.04526768,20.73289158,20.31833025,-73.94153112,-519.3644142,,,,
117.3519999,458,-141.6650222,1783.12234,-154.5353047,-155.2759747,284.3654573,-151.8980674,114.7212698,211.8855378,-6.666632632,-29.34877095,-106.0706184,-21.24339514,5.83929202,27.10652502,-74.37077572,-407.0599804,,,,
117.3599999,458,11.79733181,1783.969977,0.096628307,12.05799205,-18.99784224,-9.116296074,-98.87156587,35.68116719,-129.1932408,-145.4907198,-107.278235,-154.5975187,-118.8325975,-117.9653162,-74.79649862,-109.35709,,,,
117.3679999,458,-19.09274871,1621.143655,-27.11419706,-28.2102271,-77.54536109,-22.32999394,-28.35071895,104.2285422,91.81932621,81.32753426,-108.478516,71.88971535,111.9841164,118.1979564,-75.21870257,-608.8385787,,,,
117.3759999,458,-116.5667896,1853.719197,-127.0869767,-122.797298,144.8773515,-138.5286046,81.0508748,183.2397701,-182.6766031,-204.3240841,-109.6714593,-191.7641685,-165.9031302,-151.7708978,-75.63739041,17.40403015,,,,
117.3839999,458,155.8357936,1585.324545,150.0925101,161.2796955,-436.3497753,155.9430009,-141.5891662,-15.12048929,82.53132698,62.01866184,-110.8570631,48.03768419,88.19019389,96.02301515,-76.05256507,-387.2587462,,,,
117.3919999,458,-158.7284287,1717.57511,-167.8013108,-169.0425335,23.80491816,-163.9881481,132.6224285,210.2578592,21.56647522,-2.531837801,-112.0353254,11.68135447,39.58267455,60.01827314,-76.46422953,-271.4553877,,,,
117.3999999,458,25.05498415,1715.513545,20.59303344,29.26311658,-328.6016759,7.835858408,-80.93301305,27.32340634,-151.8091607,-180.3327342,-113.2062447,-184.4678344,-128.4864345,-143.1812,-76.87238686,50.20991635,,,,
117.4079999,458,12.87053986,1536.345604,11.90651184,6.830923184,-301.9362087,12.08779921,-19.37952309,79.07985148,125.7285928,102.6518137,-114.3698196,94.43814798,150.6227868,147.4196024,-77.27704023,-469.4399331,,,,
117.4159999,458,-165.3403375,1784.563487,-171.6961477,-165.2594909,99.24300874,-180.9925054,82.88515855,165.9685362,-159.395888,-188.2349286,-115.526049,-174.9879316,-140.7329519,-127.9763798,-77.67819283,132.9706139,,,,
117.4239999,458,118.2648329,1529.163852,110.2581902,125.1256141,-380.267406,113.5491927,-153.2262137,-24.18027235,36.99434805,14.15027797,-116.6749317,-4.333218059,44.56440859,43.22683122,-78.07584799,-264.619489,,,,
117.4319999,458,-145.8676993,1651.97535,-155.7468035,-162.2433039,120.6630962,-163.0601103,114.6571874,197.7690706,5.36932351,-18.99060741,-117.816467,-11.20429107,11.86625026,33.84506466,-78.47000908,-169.7393347,,,,
117.4399999,458,4.000394027,1658.20122,-1.067576259,5.203560306,-190.2776408,-16.20715301,-95.25440208,26.34802175,-146.1770284,-175.6703419,-118.9506542,-182.1570123,-140.171402,-141.9584975,-78.86067954,125.4532749,,,,
117.4479999,458,24.37493746,1477.754157,13.78647612,13.67508304,-178.4174321,19.89982823,-35.88126549,87.75517449,123.1196465,104.7020276,-120.077493,87.92696834,144.3659877,134.3507134,-79.2478629,-408.9332142,,,,
117.4559999,458,-113.4997834,1711.838022,-126.9950745,-125.5757278,194.6205727,-138.5975496,74.87959906,168.981776,-129.8219302,-152.5641908,-121.1969829,-151.9356739,-106.5952933,-113.9674121,-79.63156276,171.6951263,,,,
117.4639999,458,108.0041003,1459.240869,103.3313126,108.8041104,-247.392128,98.97111672,-143.7499336,-18.63400221,54.21136053,32.7418468,-122.309124,6.638224381,61.78968449,48.99186372,-80.0117828,-246.1763696,,,,
117.4719999,458,-146.5122766,1577.176324,-158.5714336,-162.5053469,321.7436698,-165.5969917,124.3008857,208.5932947,-7.117512255,-27.15783216,-123.4139164,-27.55104298,0.089174163,21.01324787,-80.38852677,-156.7156485,,,,
117.4799999,458,59.06784668,1569.081146,46.94201561,59.01349658,61.72084569,36.53179874,-87.62362826,24.00385338,-108.0013478,-133.1568857,-124.5113604,-148.0223588,-102.4432247,-95.07500818,-80.76179848,126.8962159,,,,
117.4879999,458,24.56163329,1389.806022,19.32815529,18.09972387,72.13322965,21.20666197,-12.66872173,77.7133132,162.7396932,144.3724322,-125.6014564,125.0156495,174.1067721,181.8498933,-81.13160183,-434.9360391,,,,
117.4959999,458,-139.6898209,1625.073805,-139.9921276,-141.7830158,349.5233632,-165.4258843,102.7245152,158.6380199,-146.9270505,-168.0087812,-126.6842051,-167.6623501,-130.2788101,-120.7726403,-81.4979408,144.7628143,,,,
117.5039999,459,125.8323039,1360.707749,131.8337732,136.5280153,-248.868577,121.2609466,-125.243739,-39.75237236,68.36960957,46.93808445,-127.7596073,21.00946351,80.31841251,74.95954441,-81.86081941,-280.8359098,,,,
117.5119999,459,-157.944649,1482.60414,-162.4585572,-165.6432426,161.9426925,-165.4907683,150.868105,190.423572,10.9019485,-8.233059609,-128.8276642,-7.189753569,23.24347748,46.5356317,-82.22024178,-213.3394096,,,,
117.5199999,459,18.43536093,1483.562116,14.68525178,26.09980732,-227.8975616,3.99995905,-53.77563581,12.55530232,-145.9226562,-164.9496027,-129.8883769,-180.274552,-138.6970635,-129.0519375,-82.5762121,80.54865889,,,,
117.5279999,459,27.02948562,1293.992441,27.80371466,26.01602569,-249.2108448,29.85469647,9.215829064,60.12665077,150.4711095,130.8735785,-130.9417467,115.5056168,168.4308354,170.1914964,-82.92873461,-481.7925245,,,,
117.5359999,459,-122.3319156,1531.16158,-124.2417494,-124.7462012,91.98367416,-143.0792834,121.619417,146.90761,-128.6127941,-155.0695827,-131.9877753,-144.6099058,-104.4120985,-106.9145778,-83.27781364,95.39853288,,,,
117.5439999,459,123.569809,1276.34624,133.2817959,135.6586819,-459.9938879,125.5386221,-105.1348506,-44.40014296,76.09529389,54.13731055,-133.0264645,35.95696969,86.45317099,71.65340497,-83.62345359,-313.7807415,,,,
117.5519999,459,-147.4998784,1392.188052,-139.0451614,-148.6869668,-25.91546171,-147.0888793,163.3450575,180.2651162,34.5856362,8.519053019,-134.0578161,19.24519524,47.628687,55.84059152,-83.96565892,-238.1975564,,,,
117.5599999,459,54.19855803,1390.195134,60.14992226,69.3413112,-387.2889082,47.13344352,-46.53003329,-1.702126316,-116.0276015,-147.2597035,-135.0818322,-149.0794762,-107.4012201,-110.13146,-84.30443416,68.24608286,,,,
117.5679999,459,55.25721065,1203.325902,62.15029936,62.86672986,-397.7008415,70.31790206,18.64611083,45.96006312,178.9378777,159.9106452,-136.0985152,149.4073575,188.7982979,202.4858125,-84.63978392,-483.895748,,,,
117.5759999,459,-101.9462534,1441.02995,-101.9545891,-100.3161886,-18.51159945,-116.0844518,135.3479548,127.2207094,-100.3852195,-123.1112833,-137.1078675,-111.9449697,-74.485408,-67.22621244,-84.97171287,104.8973715,,,,
117.5839999,459,175.3825698,1179.310402,173.2614585,182.6096759,-481.3077162,168.0711145,-99.10671329,-77.7800962,96.38198717,70.65256395,-138.1098917,58.38753629,112.6399065,96.07501773,-85.30022576,-297.5104405,,,,
117.5919999,459,-95.26195385,1289.53824,-106.046562,-103.9895849,56.15773318,-105.57527,167.0021214,145.899648,76.35895938,56.14517212,-139.1045907,66.94883441,82.97443969,102.7872783,-85.62532738,-232.9303739,,,,
117.5999999,459,62.92708282,1295.179087,55.63808615,69.46808754,-270.9115207,45.85205463,-33.23177451,-25.34667758,-82.88652989,-111.6165058,-140.0919674,-113.3822901,-80.4083828,-75.78329248,-85.94702262,83.3643949,,,,
117.6079999,459,46.61870498,1114.034015,47.35952072,44.99151407,-343.925966,43.36572871,32.53815992,31.35989102,172.2662178,141.7297263,-141.072025,136.9656979,173.4427246,180.2669063,-86.26531642,-451.6065614,,,,
117.6159999,459,-104.7349168,1344.458792,-104.1878573,-107.3028528,-46.71742404,-131.6714358,141.3908526,120.855045,-97.85290105,-127.2554427,-142.0447668,-119.141212,-80.50817036,-75.66647187,-86.5802138,141.5711526,,,,
117.6239999,459,145.2116524,1082.136266,150.8297975,152.7561753,-544.6328501,135.9357684,-99.53993409,-77.59101816,96.42377208,61.82172107,-143.0101964,46.04252027,111.911659,96.05580176,-86.89171982,-251.7586272,,,,
117.6319999,459,-169.2546115,1209.596087,-168.0124422,-175.8522856,74.87439326,-182.3593386,167.6684459,160.6675053,26.14435869,-7.327474707,-143.9683174,6.6221572,31.97358567,44.20317472,-87.19983963,-163.998299,,,,
117.6399999,459,7.497581323,1218.907931,11.2016849,18.99239356,-82.57016173,-8.625524064,-35.94889106,-3.13165886,-140.1211186,-167.5704473,-144.9191336,-175.4147008,-133.6115357,-137.4378534,-87.50457844,178.0709155,,,,
117.6479999,459,-4.173856164,1027.988559,3.878697347,0.89888562,-2.706170159,1.559621887,19.53762876,48.17821517,130.2272041,109.4343388,-145.8626491,95.65054131,136.4294155,148.950423,-87.80594152,-359.6080821,,,,
117.6559999,459,-182.0546185,1264.728289,-177.9972445,-176.3483496,375.7185929,-199.0020181,114.8453554,141.8581374,-174.4058449,-196.4088246,-146.798868,-186.6311008,-164.8501059,-138.6537865,-88.10393422,233.7754818,,,,
117.6639999,459,112.5951563,998.1116091,117.2667697,128.0229035,-180.5080075,113.4700761,-142.7510803,-56.63703634,38.27793873,13.93728898,-147.7277947,-1.380873367,50.10218025,50.62010782,-88.39856193,-159.2595431,,,,
117.6719999,459,-152.4983365,1104.121289,-147.6243145,-152.8994666,251.1385504,-157.0124953,123.4449454,171.957193,28.87360349,0.299270899,-148.6494338,13.74796462,45.37568143,55.40835132,-88.68983013,-97.60145719,,,,
117.6799999,459,14.26200001,1106.848486,30.53446951,38.14810121,-125.8483464,6.968971927,-76.00183853,4.019635774,-137.2840153,-170.4280022,-149.5637898,-166.052564,-123.0456821,-130.2209024,-88.97774435,227.6920505,,,,
117.6879999,459,3.554653097,915.0616998,21.43000643,24.92577796,-233.3783737,21.62807855,-20.95520722,52.5770676,137.7113003,109.8283694,-150.4708678,114.6046411,149.0608138,161.1573637,-89.26231017,-320.0657798,,,,
117.6959999,459,-143.5132796,1151.197315,-134.5496298,-129.4271012,31.43876116,-156.3794723,87.51450916,140.7990665,-144.920406,-177.6242861,-151.3706725,-153.7218257,-138.1756354,-117.3217878,-89.54353327,271.0122617,,,,
117.7039999,459,167.5027613,883.02698,177.8319032,185.7923088,-556.9039575,162.5983964,-153.1601001,-65.5870682,84.12282887,43.65469903,-152.2632094,39.7122986,84.63409089,81.0112921,-89.82141936,-127.7370673,,,,
117.7119999,459,-110.9487458,986.5631716,-103.6167744,-106.1196487,-103.8640033,-118.3471278,124.8721073,159.0316928,84.20887583,38.69708968,-153.1484836,65.10311572,101.1976698,111.7625869,-90.09597422,-85.53500278,,,,
117.7199999,459,18.77066052,996.6864232,30.70610227,44.04990891,-438.1271868,6.197339861,-70.21904877,-9.765023459,-111.3023174,-159.146483,-154.0265008,-146.4848117,-95.97515386,-98.80621559,-90.3672037,237.8840336,,,,
117.7279999,459,17.66355166,803.9988414,32.9940287,37.88073296,-500.2482494,29.62587017,-14.42178539,32.92141417,147.5095446,111.9946438,-154.8972665,116.0520514,153.5289358,164.0035694,-90.63511371,-315.0412239,,,,
117.7359999,459,-123.0687107,1040.829015,-109.2631839,-98.63982181,-189.904037,-125.2638647,107.2436103,125.1094777,-126.1069472,-159.8191307,-155.7607866,-132.2418817,-112.4246516,-100.4572388,-90.89971021,261.7736525,,,,
117.7439999,459,135.8674805,783.3938569,149.2501692,166.1461595,-770.6170459,144.4537851,-133.1356907,-73.31299398,74.66184073,37.70390402,-156.6170671,41.7074602,86.29808736,83.1200198,-91.16099923,-141.0351775,,,,
117.7519999,459,-125.9020493,878.7793246,-116.8538433,-115.2871917,-332.9326366,-127.228763,131.4281768,147.1259477,62.11240549,23.71970537,-157.4661142,49.46274355,75.73889346,91.544499,-91.41898687,-113.4913804,,,,
117.7599999,460,54.17925452,873.0394691,70.97968127,86.4285589,-632.9997559,49.33387219,-69.97592698,-26.81860198,-90.699552,-133.391393,-158.3079341,-122.4059552,-81.65474508,-88.24111845,-91.67367926,185.5746458,,,,
117.7679999,460,20.21929643,679.6142801,33.53538591,42.83351431,-553.4287507,32.5054717,-22.07530083,21.37352014,176.5241951,142.9420051,-159.1425334,148.4195683,182.6827476,193.0252007,-91.92508262,-383.1468106,,,,
117.7759999,460,-169.7092983,924.2654439,-164.3318871,-147.5712158,41.91642163,-179.7303072,99.85519615,126.755199,-145.8302236,-180.1868542,-159.9699186,-153.6814587,-139.2441868,-117.0938072,-92.17320321,192.5588156,,,,
117.7839999,460,102.3056391,665.2353721,107.2684775,130.216926,-199.3491885,99.85576655,-136.2372896,-69.1564492,29.15118204,-7.578715682,-160.7900965,-4.718273961,22.69516498,28.32957683,-92.41804737,-207.5415508,,,,
117.7919999,460,-154.6633017,758.4600184,-157.4703359,-149.7329543,547.9106415,-170.6561544,128.5988526,150.8002421,33.44311441,2.933531225,-161.6030741,24.91279244,33.90726305,54.10386934,-92.65962147,-185.0385822,,,,
117.7999999,460,25.51884274,755.2079433,31.26495586,49.71861718,522.5548061,5.101377094,-70.64655669,-20.26221186,-123.3923114,-163.4363025,-162.4088584,-154.2019099,-111.7202912,-123.6680687,-92.89793196,113.839879,,,,
117.8079999,460,36.22569546,551.9951242,47.065654,52.96243936,758.2400877,36.38988442,-20.64137334,19.42995849,154.2959944,113.8846431,-163.2074568,122.6552132,161.4252455,165.7809316,-93.13298534,-465.8130015,,,,
117.8159999,460,-154.1093677,789.1072006,-141.6588124,-132.0314443,1308.731415,-166.5840876,103.0225003,116.9238743,-116.4030717,-145.7610997,-163.9988766,-127.2851531,-112.5202904,-86.7482942,-93.36478817,87.78121077,,,,
117.8239999,460,91.24751524,533.7630365,112.3819842,127.2825418,873.0069371,96.44788921,-134.6474276,-75.49320557,45.2816683,17.24112828,-164.7831253,8.036534858,49.25090527,54.84361188,-93.59334706,-315.3824742,,,,
117.8319999,460,-136.963594,623.4361055,-124.0193449,-121.4871908,1350.113888,-139.431561,126.3092679,147.0533589,27.93264893,-7.593705544,-165.5602107,13.40234807,35.53738119,58.24771401,-93.81866868,-283.875061,,,,
117.8399999,460,42.92218919,621.3056525,56.95927312,74.8338729,985.9223312,37.08099669,-74.4350729,-22.91597144,-97.19728668,-136.0585419,-166.3301406,-128.2251381,-91.43025516,-91.66371152,-94.04075976,17.30338403,,,,
117.8479999,460,12.10174991,430.0642834,30.24650435,34.82305083,847.3269962,24.9145208,-22.30279066,27.05339754,160.8432423,127.1146411,-167.0929231,138.3940805,166.107543,175.8219092,-94.25962709,-560.5733791,,,,
117.8559999,460,-134.7055739,661.4586639,-115.8298075,-110.452657,1070.149187,-138.0153639,98.04992756,124.8933422,-123.2617976,-163.2552936,-167.8485663,-130.5497291,-114.8531645,-96.54472781,-94.47527749,12.42850699,,,,
117.8639999,460,170.3377579,384.1408681,195.0340766,208.9542913,431.2565856,183.5637092,-143.766808,-81.981139,106.2243559,65.24350123,-168.5970784,67.11794271,107.784326,109.7963926,-94.68771787,-392.3500058,,,,
117.8719999,460,-89.21234156,467.1192273,-73.87264697,-69.34038136,845.016838,-88.00775041,125.9950022,139.2787291,101.4143163,62.75475497,-169.338468,93.477248,100.7221572,131.0981383,-94.89695517,-378.8801446,,,,
117.8799999,460,78.55873889,463.1925123,95.20798534,113.6674107,494.9666291,72.48210152,-66.7693309,-32.54339416,-60.6672688,-103.2708505,-170.0727437,-84.08009119,-54.42898695,-55.72314886,-95.10299639,-65.80658478,,,,
117.8879999,460,86.44380042,252.71008,107.367816,114.466115,420.2727785,103.9161084,-14.28328868,5.327880606,226.9445515,192.0780754,-170.7999141,203.7905968,236.3761476,237.2146306,-95.30584859,-646.3601578,,,,
117.8959999,460,-90.4452455,480.2056052,-71.47135844,-60.23321093,793.7308007,-85.1197739,115.7452129,105.6987972,-55.32695693,-91.30209337,-171.5199882,-59.97556317,-48.08122295,-29.40308294,-95.50551888,-81.33780283,,,,
117.9039999,460,147.6716894,221.8070473,174.5497551,194.3858081,383.0940798,175.2347588,-116.285619,-89.15310637,103.6395103,67.4725233,-172.2329751,74.03751456,110.1795136,117.1277292,-95.70201442,-464.4410568,,,,
117.9119999,460,-128.3822329,321.4775916,-109.4822716,-99.54671836,1049.92526,-111.8102349,143.503167,143.3409436,64.69265712,32.56412181,-172.9388839,63.97952068,71.5166359,107.3563991,-95.89534243,-427.0551791,,,,
117.9199999,460,43.66614687,328.6116738,57.49610548,80.27668707,910.017138,43.92311424,-63.53007746,-22.83397979,-94.45244003,-129.5643309,-173.6377239,-113.692927,-90.55891789,-79.90078269,-96.08551017,-93.01398737,,,,
117.9279999,460,39.95373419,127.1926669,57.82271294,63.95890258,913.829465,58.42129264,-14.48913972,16.00302041,179.6050352,148.6907633,-174.3295047,157.0339546,183.4355331,197.4101934,-96.27252496,-657.5642661,,,,
117.9359999,460,-154.410766,367.0935542,-140.7665446,-132.1536747,1213.991881,-155.6962018,98.16201817,121.1387866,-115.3893328,-153.1816482,-175.0142357,-123.0097632,-112.6917552,-89.0496159,-96.45639417,-75.12281412,,,,
117.9439999,460,128.7115464,100.1022065,139.4839281,159.3717896,602.7018308,136.8440707,-162.6417084,-86.62058628,62.91570945,21.1252831,-175.6919268,28.66068195,62.56518367,59.22556531,-96.63712523,-448.4210384,,,,
117.9519999,460,-103.5608771,167.6594184,-93.77980181,-89.69972882,1018.533602,-100.778308,106.546028,126.7225541,70.14672422,29.71461625,-176.3625879,64.04744251,71.02587042,88.79819379,-96.8147256,-420.1844802,,,,
117.9599999,460,40.85398828,148.647764,60.3355805,75.30725224,645.4402438,45.7747548,-83.603726,-36.37022026,-83.86255418,-126.0566608,-177.026229,-104.8853814,-78.33415273,-78.05507853,-96.98920281,-83.06977135,,,,
117.9679999,460,67.87235852,-84.78016866,88.8741866,95.13592686,376.5445854,93.7518192,-35.18152291,1.692988795,186.4718292,151.7293759,-177.6828603,163.39978,197.3089679,202.0001786,-97.16056443,-643.8341183,,,,
117.9759999,460,-72.05636935,119.1486741,-54.38880809,-46.11174302,493.9830364,-65.63276767,105.851479,99.56175583,-51.61256714,-94.0001329,-178.332492,-61.76013755,-43.19702152,-23.1521191,-97.32881808,-78.42164274,,,,
117.9839999,460,165.1803669,-170.530377,185.971805,203.3852449,-57.56606388,187.2125414,-136.7265383,-95.55145259,131.4281489,85.52559215,-178.9751346,95.55271339,138.5790922,141.4848659,-97.49397144,-475.0659658,,,,
117.9919999,460,-95.91629167,-119.0553439,-83.25221364,-75.90147227,441.9354252,-85.03512387,118.7651712,134.7043829,81.2299528,42.29406258,-179.6107988,72.18442074,95.78779647,111.399608,-97.65603222,-470.572972,,,,
117.9999999,460,73.88143541,-154.0768478,90.92288204,110.2769349,179.1405122,78.67509922,-73.91040524,-26.18828708,-60.39372536,-100.4075136,-180.2394951,-90.06796053,-56.50414921,-50.43961552,-97.8150082,-164.7904641,,,,
118.0079999,460,55.65942001,-397.792625,72.41574556,80.89101545,250.5559703,75.11203372,-35.78475643,20.32614862,208.3498632,168.3485516,-180.8612345,177.4637129,203.1701618,222.4413749,-97.97090719,-757.620125,,,,
118.0159999,461,-133.1118596,-195.3842748,-124.5757465,-111.1136904,692.4170576,-140.0943738,85.33075443,138.0070716,-114.2935693,-159.2782291,-181.476028,-125.5307003,-112.9005222,-96.57883135,-98.12373705,-186.6359476,,,,
118.0239999,461,132.7807358,-494.7983015,146.1249456,168.6512872,142.6423415,145.2463767,-161.3650818,-54.71488066,74.24436157,32.11953356,-182.0838867,36.36972203,67.81052133,66.19747405,-98.2735057,-564.7538711,,,,
118.0319999,461,-86.78553662,-459.9665048,-78.78415052,-71.95420556,470.0432032,-85.16630848,93.58486043,161.1406734,84.7425138,46.12974571,-182.6848217,72.17688696,84.84890842,97.5589478,-98.42022109,-557.7773152,,,,
118.0399999,461,109.2096881,-500.4344931,119.8581737,136.9430748,154.937758,100.1362593,-102.7275894,-11.56240154,-52.06918898,-97.63335797,-183.2788446,-84.3574347,-47.49532382,-56.59926207,-98.56389124,-238.5963018,,,,
118.0479999,461,81.80331669,-741.4970798,93.45054935,102.5798467,26.08515394,99.60267878,-62.30343273,29.22837057,239.0731781,192.0839432,-183.8659668,203.8019843,233.97619,243.2757627,-98.70452418,-823.9932094,,,,
118.0559999,461,-121.4277419,-526.6323098,-114.3990452,-100.7962756,9.551068188,-123.1280877,61.07478797,140.0660334,-94.99108926,-138.7584764,-184.4462,-105.4132596,-94.4575035,-75.08676512,-98.84212803,-248.1503759,,,,
118.0639999,461,168.908542,-809.6200554,183.0853712,202.3162605,-669.1108885,179.5786172,-185.7287057,-63.01035178,77.64075224,40.29045649,-185.0195559,43.62804858,75.82061974,75.74663849,-98.97671091,-628.5189442,,,,
118.0719999,461,-62.26612371,-759.0188283,-47.1212093,-41.8674337,-220.2639672,-51.04993666,83.42919545,154.9217128,124.7895391,93.14487428,-185.5860464,115.0310594,127.8259642,147.4060629,-99.10828102,-634.8036373,,,,
118.0799999,461,87.72361601,-777.6327623,107.8296462,125.0138254,-446.0729443,91.17590659,-101.5143708,-10.75834714,-49.68541948,-76.22813723,-186.1456836,-70.64694976,-40.82027506,-30.93810928,-99.2368466,-302.8746927,,,,
118.0879999,461,76.27165738,-1009.196673,94.17961631,96.9043501,-255.0279253,84.34242603,-58.25411842,26.03025818,196.9880059,163.4795916,-186.6984797,169.9483503,201.450001,213.2191517,-99.36241591,-876.2112373,,,,
118.0959999,461,-72.94602504,-803.0236465,-57.8157152,-56.07342358,120.2745786,-87.48774162,83.70549892,124.8989878,-62.74529878,-103.0968466,-187.2444468,-80.00625518,-55.01646717,-57.63357638,-99.48499727,-301.8880992,,,,
118.1039999,461,185.9437333,-1083.63081,208.5082949,216.0915166,-317.9202395,189.5548188,-146.3808541,-84.19412556,130.3841562,108.6627616,-187.7835975,93.13169125,135.9908822,114.6790542,-99.60459906,-675.7255152,,,,
118.1119999,461,-94.19362352,-1013.350609,-74.98407518,-81.07998734,242.0039867,-97.15943014,129.1326991,144.4630644,91.24298186,67.46028144,-188.3159441,80.90044216,96.10651781,103.8823564,-99.72122967,-658.6667044,,,,
118.1199999,461,105.9074633,-1025.231267,125.2333038,133.986808,-143.7789131,98.39730954,-52.61613064,-19.46949163,-64.43827474,-98.71379933,-188.8414995,-95.6284909,-57.8669978,-69.49541077,-99.83489756,-302.4816547,,,,
118.1279999,461,106.7175676,-1258.690352,122.1201306,121.5586565,-214.2785136,117.3436497,-10.75135131,12.69305626,234.7002196,217.5643946,-189.3602764,206.3852831,247.2828992,237.2590884,-99.94561121,-882.4665884,,,,
118.1359999,461,-72.06870219,-1045.128232,-60.21694489,-60.51510492,43.34091492,-85.79841339,126.0932793,120.1923646,-58.0047525,-77.77709827,-189.8722876,-71.54612054,-39.35657641,-44.0094553,-100.0533792,-310.8839289,,,,
118.1439999,461,237.8486382,-1328.278912,253.6500682,257.8267924,-555.5060188,235.2883919,-114.1639618,-89.5578717,141.9916124,113.6416311,-190.3775463,92.3538939,153.0297253,133.0456416,-100.15821,-676.5926833,,,,
118.1519999,461,-25.99225397,-1260.768723,-14.99919788,-27.46586682,-146.1126645,-32.79571145,161.0891387,133.8287602,151.2301537,131.1292102,-190.8760654,129.9066621,160.425471,157.2086521,-100.2601123,-665.3953389,,,,
118.1599999,461,137.7786409,-1261.265992,149.6951185,147.8852367,-533.033442,118.461208,-22.12084221,-32.76277094,-14.10438194,-32.29393537,-191.3678584,-51.47543497,3.114207748,-32.43581841,-100.3590948,-292.9850968,,,,
118.1679999,461,158.7766345,-1491.595944,167.4887209,156.8671059,-585.0906855,148.6163673,9.125023014,-9.189470174,258.8894557,239.1054982,-191.8529386,215.7558843,276.6638477,249.3263848,-100.4551662,-858.7471428,,,,
118.1759999,461,-54.41626429,-1261.008394,-50.17762872,-56.23102267,-259.761738,-79.22810872,150.4670152,107.8244675,-34.54662838,-55.09027977,-192.3313194,-54.20803584,-21.69083305,-30.84252596,-100.5483351,-286.6913625,,,,
118.1839999,461,211.6334982,-1521.940877,218.1032307,219.4571931,-777.240665,202.9045578,-97.35550589,-92.8058894,131.6454732,111.0809365,-192.8030145,81.87193964,145.823973,112.9042589,-100.6386104,-622.7935235,,,,
118.1919999,461,-13.11311424,-1460.23601,-11.14788412,-25.15970387,-317.9317108,-33.78908048,159.4282717,119.9259091,129.2698508,103.1363581,-193.2680377,97.99022817,140.3132743,129.8879722,-100.7260008,-603.8252196,,,,
118.1999999,461,115.9292351,-1452.639552,122.5814977,119.4935017,-654.092524,90.51262646,-10.38062545,-35.47022133,-22.69368184,-47.02216585,-193.7264027,-62.55261043,-14.09325373,-36.55295614,-100.8105153,-252.7667039,,,,
118.2079999,461,96.55141183,-1657.707976,101.3393193,90.60288679,-710.1877309,93.14899303,28.09272811,10.54168929,215.1100083,199.0745697,-194.1781235,176.5715705,233.790305,215.4056102,-100.8921628,-810.4256438,,,,
118.2159999,461,-69.54590685,-1419.449042,-71.97815138,-79.26399898,-380.5007912,-94.51477809,161.6932861,125.060768,-83.87626484,-105.2983543,-194.6232143,-105.7488328,-66.92868764,-72.39875134,-100.9709521,-221.2589057,,,,
118.2239999,461,192.7408889,-1672.709156,193.9332386,190.2429959,-846.1981412,178.0294617,-70.90152629,-79.56198021,114.1198757,93.59344168,-195.0616892,66.05244486,130.689707,102.3372049,-101.0468923,-565.7942768,,,,
118.2319999,461,-75.89863148,-1584.408227,-80.43954219,-97.55631764,-342.9995629,-98.63603566,194.9980968,144.5618973,87.03352157,68.32053979,-195.4935625,62.21420889,104.6135599,96.79427748,-101.1199922,-549.9521683,,,,
118.2399999,461,88.77119591,-1558.608599,86.38762502,82.75593834,-649.8037114,60.62783587,16.93316403,-11.51893811,-89.61384142,-109.5907889,-195.9188486,-127.1315319,-76.61085277,-94.27465746,-101.1902611,-179.5181413,,,,
118.2479999,461,128.2359954,-1769.329757,129.7156929,114.4016782,-676.3461337,120.363422,58.51756297,19.5386063,212.4345658,199.3104888,-196.337562,173.2556757,239.8055939,220.8394443,-101.257708,-738.2770232,,,,
118.2559999,461,-37.67126909,-1528.459201,-40.54015543,-54.12637155,-329.8223641,-66.14503858,193.590112,125.7503607,-39.89479088,-61.16817595,-196.7497174,-66.12707858,-18.50306232,-24.96112864,-101.322342,-158.3183579,,,,
118.2639999,461,248.6033468,-1776.69842,245.1164288,239.2925534,-826.3987019,229.2507768,-50.90365712,-87.96129742,152.426031,128.6642313,-197.1553296,97.54460284,165.6263797,139.5295359,-101.3841722,-498.0416483,,,,
118.2719999,462,-7.276830608,-1688.239083,-14.57395472,-31.74205041,-373.9265359,-31.38344438,218.9561338,132.5203582,149.7078767,135.2991194,-197.5544133,120.3979021,179.6754205,161.4786888,-101.4432078,-474.1810283,,,,
118.2799999,462,89.00648082,-1643.871548,87.90788128,85.25125061,-740.3294433,66.93499364,49.76229929,-17.14645283,-47.45099884,-69.30353095,-197.9469836,-89.7733353,-19.74698436,-54.04135535,-101.4994581,-75.87632435,,,,
118.2879999,462,100.7338175,-1842.833872,96.27664193,86.47253108,-887.6083253,95.74425631,81.71413009,11.36950641,199.5866715,174.5435167,-198.3330555,151.0980855,221.8541564,199.5205235,-101.5529323,-614.1995309,,,,
118.2959999,462,-58.05465964,-1602.595688,-69.56259452,-74.21290064,-554.2094538,-86.73882744,205.9504198,119.6319163,-66.31157993,-87.7420399,-198.7126442,-102.2843795,-50.7680296,-50.53257899,-101.6036398,-27.19176447,,,,
118.3039999,462,201.5628876,-1849.076906,198.7375975,198.5603756,-920.8421596,187.8685024,-45.48606306,-83.75064098,111.1498614,90.36042196,-199.0857649,50.4849846,121.8389841,111.1952538,-101.6515898,-354.4959982,,,,
118.3119999,462,-44.1598358,-1768.449657,-50.04668363,-65.79456537,-460.1534242,-65.97456142,209.8478015,137.4881219,103.990749,80.73417346,-199.4524331,66.52541225,126.5982906,130.1502789,-101.6967917,-335.6039399,,,,
118.3199999,462,86.74223951,-1737.502848,84.61269581,84.02494195,-756.6298646,62.46428688,21.63058868,-14.92819839,-60.16203644,-92.01668276,-199.8126642,-114.6014006,-38.90134832,-55.90938735,-101.7392549,49.2174123,,,,
118.3279999,462,74.41986141,-1940.116264,77.48982142,65.61244673,-767.6574852,71.0156939,60.60637251,18.87687815,190.5820736,167.4189258,-200.1664738,139.5564658,202.6929199,198.0083425,-101.7789888,-492.7934209,,,,
118.3359999,462,-89.34973736,-1698.970731,-89.35172098,-101.049295,-574.2730345,-120.3983119,196.13724,128.8288013,-108.3635449,-120.7489683,-200.5138777,-141.4156388,-93.91443419,-92.35626585,-101.816003,104.5437631,,,,
118.3439999,462,200.3249533,-1951.086717,204.5182688,200.8342336,-1083.146097,187.5981272,-60.05775523,-85.47132555,104.9623583,83.29951906,-200.8548916,42.63665656,131.8980937,93.70536749,-101.8503068,-222.7355165,,,,
118.3519999,462,-77.06771548,-1865.634761,-78.14233648,-94.19035861,-632.4469492,-87.89928474,211.5103538,134.2241523,105.4911105,83.84770042,-201.1895314,75.78174617,134.8798623,120.4816525,-101.8819099,-204.8488375,,,,
118.3599999,462,44.63877081,-1826.360725,44.30124351,43.18981387,-954.7229789,22.21656155,34.48454688,-20.20105003,-115.3674539,-128.0119728,-201.5178131,-156.6015669,-98.59488196,-110.6513981,-101.9108217,201.5617927,,,,
118.3679999,462,94.79324509,-2036.860686,95.07473952,85.53493369,-941.5944561,87.38276264,61.20191113,-0.997278181,171.6009415,160.0632387,-201.8397528,124.1956071,197.1304589,189.5872992,-101.9370519,-343.0761736,,,,
118.3759999,462,-52.69676055,-1795.210283,-56.11309441,-62.20557723,-692.1121191,-79.75883312,203.4362221,102.4985988,-69.47829689,-84.00354908,-202.1553667,-99.44169996,-33.5710806,-35.32090726,-101.9606101,232.6973501,,,,
118.3839999,462,180.7319955,-2031.520399,184.7462049,186.4095721,-1066.272676,169.9842861,-35.71838157,-105.0747552,110.1639111,92.10596526,-202.4646711,52.96295889,135.8636055,114.0320297,-101.981506,-95.93801973,,,,
118.3919999,462,-86.10706731,-1940.545262,-82.53871105,-91.81614602,-493.8251255,-95.7183721,228.2110671,125.7009299,77.45833559,60.82016707,-202.7676824,48.4799084,102.2135146,101.6507242,-101.9997491,-72.24023407,,,,
118.3999999,462,91.88442022,-1907.282413,97.72001688,104.1754827,-842.6953805,80.29180659,44.62223105,-23.64539993,-85.77658848,-94.62701358,-203.064417,-124.4549567,-64.59515283,-68.17138161,-102.0153493,322.0147849,,,,
118.4079999,462,92.46200764,-2105.436299,93.78122368,90.76085909,-835.3602263,94.3158895,81.54861604,12.03884122,202.387855,196.098157,-203.3548916,161.6765574,221.8845179,220.1072992,-102.0283163,-229.0318945,,,,
118.4159999,462,-75.87725015,-1848.956396,-82.11692061,-81.35395392,-595.7342194,-97.65141253,219.3018083,140.0913633,-94.29669292,-102.6432727,-203.6391228,-115.9424631,-67.65627824,-76.63494051,-102.0386598,373.9735172,,,,
118.4239999,462,216.126432,-2094.411763,217.6117689,222.9531114,-1142.501115,214.6074523,-32.75334607,-64.12627079,123.4240831,116.6814997,-203.9171273,76.4581777,141.7074998,125.6501558,-102.0463896,50.04981556,,,,
118.4319999,462,-90.9393346,-1996.700806,-89.89639174,-101.6310838,-710.8858448,-97.86681126,235.7013083,167.7042025,96.65766342,82.30096814,-204.1889221,72.05142657,113.8249487,119.9855348,-102.0515156,57.00102071,,,,
118.4399999,462,46.30531965,-1945.068351,50.14458544,54.04771131,-1037.027079,32.17386224,48.09703368,20.51044773,-120.0859006,-135.6964003,-204.4545241,-161.1684973,-105.7691967,-118.8846304,-102.0540477,469.4629514,,,,
118.4479999,462,90.74505685,-2156.017963,97.55365231,91.4906328,-1025.258059,101.1052623,62.28433059,37.12779714,197.2758156,189.2707942,-204.7139503,151.6817433,207.9261929,208.8509643,-102.0539956,-79.07451713,,,,
118.4559999,462,-103.0594829,-1902.579049,-93.87389222,-102.064083,-768.0547099,-109.7163731,194.4056727,145.9788437,-77.15037729,-90.63600167,-204.9672179,-110.4655968,-53.32536718,-60.93588727,-102.0513693,501.7447381,,,,
118.4639999,462,167.2182657,-2131.325114,183.9260188,184.6849738,-1183.696324,178.5720826,-62.48927887,-68.2732041,91.09657858,80.1285158,-205.214344,29.86253035,106.0055324,83.53963198,-102.0461788,185.0515057,,,,
118.4719999,462,-62.47623561,-2044.675513,-51.93777924,-62.12283611,-657.1226372,-57.70795424,194.2693154,145.3363669,100.6690845,91.96875004,-205.4553461,70.89413709,111.9789767,123.0868863,-102.038434,192.9426787,,,,
118.4799999,462,83.15525189,-2002.31104,94.03043188,95.47250082,-924.3072189,78.56312833,10.21809532,-14.67601814,-68.22728992,-83.20990602,-205.6902414,-109.5017594,-52.81165425,-65.07373928,-102.0281449,585.4251535,,,,
118.4879999,462,79.03226675,-2198.341348,93.83894013,83.79743852,-789.1046861,95.36350492,35.9882164,6.278489916,198.7445385,185.2568373,-205.9190476,150.6528929,202.6167982,206.1337608,-102.0153215,32.38769011,,,,
118.4959999,462,-108.7701924,-1933.579136,-92.69997633,-103.3246925,-453.6513285,-112.4718725,190.533138,122.1624633,-85.69642011,-96.84766024,-206.1417821,-115.5415252,-76.92472792,-64.02935112,-101.9999739,622.5996854,,,,
118.5039999,462,144.6225656,-2155.310278,163.5501444,162.4167044,-872.7498134,159.7549668,-51.95253892,-89.38603166,90.60434643,85.03158762,-206.3584626,37.09739699,103.7789417,88.96027798,-101.9821121,314.1796194,,,,
118.5119999,462,-132.917486,-2046.648088,-118.061594,-129.0261958,-359.6750231,-118.98882,201.4670175,131.9055032,51.27065903,45.34619302,-206.5691069,24.72999304,64.47831283,71.24051257,-101.9617462,333.9992912,,,,
118.5199999,462,29.51018512,-1965.611355,50.36589237,51.6232768,-731.6802161,33.16279435,15.61964525,-28.64808476,-129.0399451,-141.8421484,-206.7737327,-170.3054889,-114.9757222,-123.0522771,-101.9388863,740.5007928,,,,
118.5279999,463,69.79396628,-2123.075294,90.96648931,81.83664496,-764.6074444,90.23076361,36.35082748,-25.04562411,189.2284227,172.6791982,-206.9723581,141.1714987,201.4338001,200.8151758,-101.9135426,183.1714157,,,,
118.5359999,463,-120.8116856,-1820.148365,-101.3920462,-105.7073375,-533.5586769,-111.0976875,181.5077402,85.85687726,-91.16703592,-110.7948509,-207.165001,-119.9312506,-72.0480576,-69.8547202,-101.8857252,771.0565609,,,,
118.5439999,463,137.3108227,-2003.144011,163.1767058,172.0337162,-1053.319806,171.2706364,-66.88843735,-122.7849667,71.58140125,58.74796073,-207.3516795,20.06036977,87.8540055,76.91568928,-101.8554444,463.1132906,,,,
118.5519999,463,-133.4189732,-1864.445551,-113.1208596,-116.0911774,-614.3376159,-109.1181832,186.1560682,99.60554673,63.35756685,54.86730378,-207.5324117,42.38642496,71.09609985,96.0695452,-101.8227103,474.4075455,,,,
118.5599999,463,2.138712956,-1768.245348,28.51883052,37.59681669,-958.5765175,19.06384889,4.859673468,-44.69622626,-133.6782973,-141.8988544,-207.7072158,-166.3883182,-127.6401906,-117.5707121,-101.7875331,891.0126311,,,,
118.5679999,463,35.71303324,-1934.1085,67.70134884,66.05391031,-944.2644987,75.07364062,33.66033372,-20.2801043,147.4363805,140.2779306,-207.8761103,107.5779018,162.4100509,171.3191967,-101.7499232,334.3162383,,,,
118.5759999,463,-128.653457,-1662.857808,-100.7037332,-104.4096405,-674.5938225,-115.540286,175.2690802,93.55159306,-111.2686479,-125.9340379,-208.0391135,-136.7768748,-83.74658519,-81.78875928,-101.7098907,898.1117633,,,,
118.5839999,463,145.2302772,-1895.370442,177.1052981,178.4751467,-1143.739304,171.6061671,-83.03513424,-122.902866,79.42366822,59.19949394,-208.1962438,22.00083254,96.78375933,82.71107087,-101.667446,563.131503,,,,
118.5919999,463,-135.9811357,-1808.039814,-107.1560747,-119.443424,-672.0579603,-112.1433081,176.6272493,98.37101522,72.4646202,52.44988208,-208.3475199,38.77293402,80.25622751,97.16101008,-101.6225995,546.4264181,,,,
118.5999999,463,-19.4252058,-1748.265601,14.20998525,13.54352693,-1022.98047,-7.217211338,-4.102869549,-45.81183036,-143.8357319,-157.2718326,-208.4929603,-190.8351577,-131.1220739,-142.8092286,-101.5753614,947.5583579,,,,
118.6079999,463,9.653364565,-1943.869909,44.09618748,36.00459785,-1102.912217,41.36749184,10.55810272,-25.61979546,127.5900255,109.8733009,-208.6325837,72.12348697,145.0889051,135.5977423,-101.5257421,381.8315593,,,,
118.6159999,463,-148.7824767,-1691.170116,-122.9800298,-124.4933684,-859.6027474,-132.8485,148.0095937,85.84494991,-116.0760558,-140.004403,-208.766409,-157.381246,-104.4974521,-94.78309673,-101.473752,940.8716068,,,,
118.6239999,463,109.6510615,-1912.514095,137.9437923,144.7249137,-1209.865841,139.7248514,-110.7681306,-126.1704604,48.07532911,33.92825692,-208.894455,-16.06029898,53.04368778,45.34023581,-101.4194015,608.6255574,,,,
118.6319999,463,-139.6295873,-1817.263062,-113.5998261,-117.1391227,-752.8600016,-107.2256511,146.7145605,93.93211305,42.89270025,29.47376934,-209.0167406,8.664916291,55.67928831,66.88840565,-101.362701,581.7508591,,,,
118.6399999,463,28.2210223,-1766.392647,61.50193573,71.66578563,-1007.915075,60.23279246,-26.84779013,-60.67882475,-109.3400372,-117.8891882,-209.1332848,-155.582574,-106.2413857,-94.67698079,-101.303661,960.7048268,,,,
118.6479999,463,-1.054832074,-1951.694856,34.87821128,28.89445002,-729.3187525,43.58772768,-5.370152668,-37.00426136,144.053007,137.3235817,-209.2441067,95.13567918,145.5247892,165.4122863,-101.2422919,381.4198287,,,,
118.6559999,463,-203.7598374,-1683.119008,-173.4519621,-177.590596,-416.3641529,-181.4196548,130.9247356,82.74692672,-158.9291936,-178.28013,-209.3492255,-196.933308,-141.2994479,-138.801093,-101.1786042,948.5936856,,,,
118.6639999,463,85.49533765,-1909.929882,126.4047575,132.0409558,-892.3589029,129.1751619,-123.1238846,-134.3142186,22.40509258,7.337585481,-209.4486603,-43.2380453,34.45069453,24.99348072,-101.1126083,619.3522513,,,,
118.6719999,463,-187.7215403,-1816.33289,-150.2110361,-157.3256145,-390.9079246,-145.2964161,141.7777583,83.77015343,16.64709082,6.344228166,-209.5424304,-15.50056554,24.35181373,59.1275138,-101.0443149,590.1153351,,,,
118.6799999,463,-33.28489239,-1763.482509,1.575652229,12.42958251,-756.7554082,2.746381565,-45.84953809,-74.62805108,-177.1258145,-189.9681308,-209.6305552,-223.1322302,-170.3714156,-160.6792289,-100.9737345,982.4342915,,,,
118.6879999,463,-7.567614021,-1963.746063,28.52238577,28.5879373,-703.0579325,41.76332268,-34.99004905,-62.47375068,117.9125787,108.1003026,-209.7130542,68.92848537,128.4238125,134.3990369,-100.9008775,397.6989565,,,,
118.6959999,463,-194.5955732,-1696.8909,-164.1396737,-164.2491041,-354.1711706,-172.2857972,114.9293817,55.1338142,-148.9619752,-161.1761004,-209.7899467,-182.1298801,-132.1967054,-115.292363,-100.8257546,967.3114753,,,,
118.7039999,463,91.04075613,-1920.445015,130.5540072,138.474396,-720.0784025,134.5434782,-140.703162,-165.7517724,25.64706372,12.94866332,-209.8612524,-40.69996972,33.72601203,33.1713331,-100.7483764,657.3084227,,,,
118.7119999,463,-174.62028,-1830.805116,-133.8813688,-143.2687756,-120.7877853,-134.0011654,123.2975748,52.76157471,37.1145794,20.67716018,-209.9269909,-1.713025263,46.75847782,65.96855704,-100.6687534,622.4054332,,,,
118.7199999,463,-32.1927983,-1765.976497,8.02749485,14.09110856,-408.0981455,-1.213023953,-47.04760085,-93.64117832,-164.4487062,-185.2272777,-209.9871818,-214.2354623,-152.4479812,-150.6384841,-100.5868962,1024.603204,,,,
118.7279999,463,-16.86000132,-1959.125784,24.41259961,21.31903732,-326.9708551,33.70077466,-30.65240794,-78.51977276,118.0708615,98.77565999,-210.0418449,61.9216295,130.0957475,135.6939947,-100.5028156,460.4910493,,,,
118.7359999,463,-234.4174105,-1687.513236,-198.4697568,-202.6330248,7.096069153,-211.3827351,121.317659,44.01591648,-173.1404079,-201.0459751,-210.0910001,-213.6673307,-151.4377921,-147.2274055,-100.416522,1031.548539,,,,
118.7439999,463,55.21096442,-1906.425223,94.20460733,97.59558925,-590.9573814,89.74960773,-129.8866559,-174.6633191,-12.83536068,-37.95638506,-210.1346672,-81.73726299,5.837632945,-12.70130488,-100.3280263,722.0831043,,,,
118.7519999,463,-195.718148,-1820.021346,-162.2310509,-175.4005182,-153.3018254,-171.1837567,139.0046951,41.19789542,18.24635896,-8.143983222,-210.1728662,-30.92394228,29.36452382,35.75067933,-100.2373391,692.3514222,,,,
118.7599999,463,-78.19031681,-1752.30986,-46.68982583,-43.46306344,-425.8757762,-65.8910178,-41.44903223,-103.4957716,-201.1027323,-237.357377,-210.205617,-268.3575961,-193.236809,-202.612982,-100.144471,1105.985602,,,,
118.7679999,463,-15.3691322,-1957.229154,19.17360726,13.4369009,-402.1656615,20.81814436,-44.24215514,-97.16890042,96.51811223,68.50025769,-210.2329397,27.27530978,104.8742589,103.1839388,-100.0494328,535.9840249,,,,
118.7759999,463,-211.2999159,-1696.442979,-177.1485453,-184.2123873,-56.82647265,-194.0791645,116.2999653,24.69369156,-155.7052728,-184.7423961,-210.2548544,-201.2249412,-140.3106261,-132.3309027,-99.95223522,1093.436424,,,,
118.7839999,464,52.44856643,-1915.137453,91.13513975,94.05709601,-542.2619218,84.9739144,-138.5440388,-186.4593152,-8.698102862,-35.15045367,-210.2713814,-79.95069771,11.16125603,-9.900947059,-99.85288894,785.5151411,,,,
118.7919999,464,-182.0813305,-1829.887434,-149.873628,-160.3203269,33.3417518,-152.0474378,113.7710307,34.804429,22.43960151,-1.943738833,-210.2825409,-27.10523959,37.29857702,41.19587854,-99.75140473,754.4266106,,,,
118.7999999,464,-105.5709624,-1744.780718,-72.25456252,-66.77107685,-197.4795048,-80.04044367,-50.42432543,-92.69452086,-210.791192,-241.796227,-210.2883531,-269.7049863,-200.5602584,-196.6728843,-99.64779335,1174.970503,,,,
118.8079999,464,-74.01987166,-1934.503639,-39.07289227,-43.49518199,-293.8887714,-33.21741944,-48.85819928,-75.12065964,45.32174056,23.94152334,-210.2888384,-16.59999357,56.42829176,62.90043535,-99.54206557,620.9078073,,,,
118.8159999,464,-224.5914309,-1672.459618,-193.4761829,-197.6969604,-4.200336093,-205.7158694,96.85710111,46.82509696,-193.7812207,-215.2795372,-210.2840172,-240.6438737,-185.7895325,-174.9064718,-99.43423217,1193.993034,,,,
118.8239999,464,49.03240585,-1882.633047,85.25927523,92.3382322,-495.6070249,88.92519176,-157.9747913,-162.7185863,-20.25981266,-41.65153115,-210.2739101,-88.12802212,-2.737243466,-14.94058959,-99.32430394,898.3115082,,,,
118.8319999,464,-170.409218,-1798.692682,-143.1446697,-149.110081,-8.910187803,-142.191933,83.82835125,47.72623055,14.93318198,-2.216041051,-210.2585374,-23.61911676,31.13698126,41.91852448,-99.2122917,864.2075623,,,,
118.8399999,464,-35.44400326,-1731.934959,-7.51002017,2.8873591,-281.687526,-17.13054241,-92.60274407,-102.6592959,-171.0268809,-198.8951435,-210.2379199,-224.7214927,-173.4206046,-170.3947429,-99.09820625,1272.07965,,,,
118.8479999,464,-29.41013453,-1922.489988,6.03545294,10.08009926,-342.710755,18.15389553,-76.01838303,-84.07307726,98.64228569,75.8566867,-210.2120781,43.32832631,103.7622653,112.0795737,-98.98205843,705.7721826,,,,
118.8559999,464,-213.7743261,-1651.947323,-180.4375918,-173.9166587,-12.51494961,-185.6014039,80.71625748,48.00227077,-182.1276275,-198.6080807,-210.1810327,-216.7153582,-169.0091169,-153.1078487,-98.86385908,1277.946934,,,,
118.8639999,464,90.34898463,-1874.127848,126.6934468,142.2494558,-429.8748707,129.2330603,-175.8716812,-172.2267701,7.518518119,-19.63997463,-210.1448044,-61.24621775,23.33612481,6.595833912,-98.74361903,976.5222989,,,,
118.8719999,464,-153.6594774,-1797.717671,-125.0321704,-123.7818318,134.0145604,-121.2109784,80.81301678,39.04302716,51.93705861,22.72564605,-210.1034141,6.252287213,68.13824936,74.74619594,-98.62134916,931.1006165,,,,
118.8799999,464,-29.70358966,-1728.203206,-5.054658548,12.18733421,-101.1977773,-8.045878906,-79.9039485,-103.5040304,-161.7679448,-196.9610352,-210.0568825,-220.12087,-153.7639415,-158.20833,-98.49706032,1347.602673,,,,
118.8879999,464,-27.8380166,-1917.142003,-5.655615059,2.684426232,-110.363997,7.35843243,-65.98435088,-89.36131301,101.8225256,63.01342733,-210.0052306,36.92653575,111.5370798,107.4207838,-98.3707634,785.0961559,,,,
118.8959999,464,-258.1279783,-1636.965172,-238.3822635,-230.8357076,236.2525662,-243.4150903,83.87158414,40.29831284,-203.7442045,-239.1310536,-209.9484793,-248.4517034,-194.14944,-179.6212283,-98.24246928,1359.595889,,,,
118.9039999,464,54.34067485,-1853.78246,81.58691988,99.55795557,-286.315267,87.91457997,-179.0291272,-182.4363639,-40.36573487,-83.16080832,-209.8866495,-118.9948361,-20.55675453,-46.6409013,-98.11218886,1071.033518,,,,
118.9119999,464,-185.0976896,-1772.40064,-165.4337398,-157.7929065,171.3061901,-156.1980134,69.66417234,27.85157193,10.84486228,-31.49238958,-209.8197624,-46.14908768,32.51750213,22.90013189,-97.97993304,1028.189572,,,,
118.9199999,464,-69.40300893,-1695.399265,-48.05030427,-25.77060407,-165.0372639,-46.09784614,-98.19166477,-118.5418311,-199.0516716,-240.332671,-209.7478389,-266.4777065,-192.2171422,-194.8021809,-97.84571272,1446.733807,,,,
118.9279999,464,-21.63146326,-1896.887633,3.454837197,11.38863558,-310.8578893,19.14918802,-83.1361286,-119.2140538,96.8471251,55.57241041,-209.6709003,24.11194735,113.4466678,106.8273387,-97.70953884,877.7918754,,,,
118.9359999,464,-222.1697612,-1629.107117,-204.8155765,-199.9311859,-1.913436727,-211.0961857,73.35205814,3.300695683,-179.2896674,-219.7758677,-209.5889676,-233.6660236,-159.3138327,-161.6691389,-97.57142232,1442.104526,,,,
118.9439999,464,72.94985525,-1840.740047,98.93455516,114.8661664,-512.0288854,104.4888748,-182.6661597,-212.4819818,-27.14943399,-71.19597968,-209.5020621,-111.4738563,-18.18530782,-36.53292265,-97.43137408,1148.319857,,,,
118.9519999,464,-168.004171,-1761.699555,-144.5260803,-141.8553614,-52.52810384,-136.318941,79.29527378,3.581597801,39.71468787,1.712065996,-209.4102051,-15.46312971,51.96807025,59.88419564,-97.28940507,1096.093693,,,,
118.9599999,464,-56.86183951,-1685.498329,-39.24465597,-22.1703598,-317.9190711,-40.87055917,-90.17733904,-138.595,-181.3849502,-216.6508502,-209.3134178,-244.1888023,-165.6162826,-176.3540237,-97.14552624,1520.377173,,,,
118.9679999,464,-16.11246392,-1882.248643,2.987120018,12.76747788,-354.9847786,26.33966373,-94.35929934,-132.4708602,81.5357857,44.41048036,-209.2117217,11.18141303,98.47185126,82.2522827,-96.99974854,956.1999861,,,,
118.9759999,464,-208.2714941,-1613.853109,-191.7818274,-183.2100136,13.6060751,-180.1896627,58.6188703,-3.957802978,-170.6963776,-212.7988869,-209.105138,-225.1727138,-152.0439597,-151.0691357,-96.85208292,1515.315106,,,,
118.9839999,464,56.19362976,-1814.269563,76.23843823,93.8321959,-479.2349125,95.89169245,-191.7447294,-214.2623673,-24.77228697,-69.10000294,-208.9936882,-108.6211694,-17.63574244,-25.25088358,-96.70254036,1230.150851,,,,
118.9919999,464,-198.8054729,-1723.727767,-182.6739423,-177.754695,-19.20002067,-164.4847143,69.11848654,6.857021569,6.188548562,-32.97943104,-208.8773939,-51.48547442,10.33481537,25.37788,-96.55113182,1193.919547,,,,
118.9999999,464,-51.82861377,-1652.231581,-32.18067431,-14.8270215,-259.6427462,-25.83027153,-104.154212,-135.6020837,-192.0306587,-233.2834514,-208.7562764,-263.2608395,-171.8246894,-186.8946622,-96.39786828,1625.937306,,,,
119.0079999,464,-4.22765153,-1856.325038,21.17303734,30.08702778,-161.335195,49.63045618,-103.5896998,-131.5603077,98.75987508,60.04155879,-208.6303574,21.53232294,116.9311184,104.4883023,-96.24276071,1053.205503,,,,
119.0159999,464,-228.8447308,-1584.824818,-206.866675,-198.9091584,362.0353054,-194.7130259,51.57268941,-0.985792314,-165.74798,-201.1019397,-208.4996584,-219.0375677,-158.1844422,-143.7155583,-96.08582011,1610.231716,,,,
119.0239999,464,22.13590822,-1782.931629,47.00137575,60.33460889,-83.5358794,62.5188945,-217.7857553,-209.8137035,-47.08863298,-84.68336578,-208.3642011,-128.2802386,-40.2320079,-46.04358203,-95.92705745,1336.550905,,,,
119.0319999,464,-213.6675365,-1696.172261,-190.7614142,-193.4789617,364.9709306,-178.9067383,34.15953899,13.92788896,-32.29416001,-71.54386174,-208.224007,-89.64950268,-25.74018283,-14.21454976,-95.76648373,1297.690522,,,,
119.0399999,465,-67.75853104,-1619.558376,-40.11991066,-33.43147879,17.50414071,-43.18186824,-123.8817448,-124.2052924,-211.11192,-258.1828736,-208.0790981,-283.2941243,-206.0264279,-212.7863254,-95.60410995,1719.71666,,,,
119.0479999,465,-30.45127142,-1815.466739,0.828990063,-6.073623724,-122.061064,10.63186621,-107.7055404,-116.4518342,83.55509679,35.35144522,-207.9294958,0.429484835,90.87273984,78.48828063,-95.43994711,1149.018269,,,,
119.0559999,465,-221.944219,-1545.696636,-191.5294802,-199.8899818,220.4752519,-203.3329666,59.12931523,11.96593218,-181.2960043,-224.4506673,-207.7752221,-245.0983483,-167.6128799,-181.7959104,-95.2740062,1709.461742,,,,
119.0639999,465,56.5035758,-1749.561048,92.63370784,93.66658251,-228.9493365,90.95939385,-199.5311038,-209.7737541,-16.36272718,-56.53427992,-207.6162987,-107.0937792,-6.64257141,-37.16349304,-95.10629823,1420.231565,,,,
119.0719999,465,-196.0188158,-1661.625016,-167.3329627,-178.8131279,317.6837628,-164.8317521,58.33199641,1.828279317,-0.156607529,-38.69543563,-207.4527475,-62.66796868,9.749457,17.06298872,-94.9368342,1371.396645,,,,
119.0799999,465,-34.15344686,-1582.300379,-8.730790762,-7.836002601,53.10164644,-21.58270451,-105.3019795,-152.155224,-195.335106,-235.3766996,-207.2845903,-270.9628143,-186.7955341,-203.0866623,-94.76562514,1799.639539,,,,
119.0879999,465,20.26637693,-1776.939751,44.70143733,31.42610744,-84.40811193,40.91595094,-101.5922499,-159.0918456,128.3041435,94.22000206,-207.1118491,42.03534965,134.1732534,113.0240453,-94.59268204,1221.455489,,,,
119.0959999,465,-209.4251432,-1494.179163,-186.6865028,-203.0505984,198.8295202,-207.995755,66.52261488,-25.64603894,-158.6122272,-189.2516197,-206.9345457,-224.5154935,-139.1908811,-149.3909805,-94.41801592,1782.740329,,,,
119.1039999,465,86.56354647,-1689.513935,114.6964967,110.1996091,-369.9062496,108.9157303,-184.4846919,-243.0936526,-15.96150076,-42.9057287,-206.7527022,-110.3506845,-7.327557802,-36.24590323,-94.24163779,1503.58222,,,,
119.1119999,465,-139.7396929,-1596.655347,-120.9355756,-137.5652848,21.5909384,-129.064849,72.82113025,-27.48922936,38.14287119,19.27607432,-206.5663405,-27.62443122,41.30111495,37.81061248,-94.06355867,1454.820844,,,,
119.1199999,465,-22.42414121,-1500.4437,-5.76507883,-9.562426501,-281.7035539,-30.04252705,-92.19062506,-165.491071,-168.957752,-186.5031338,-206.3754826,-242.0836707,-152.5243336,-173.9246969,-93.88378957,1900.628997,,,,
119.1279999,465,11.61026185,-1687.02568,29.50115749,17.32684546,-354.0071175,25.77924098,-89.28108536,-163.1883571,121.0781607,105.6044307,-206.1801507,35.11392862,125.2824294,117.1876702,-93.70234151,1332.624303,,,,
119.1359999,465,-214.9296504,-1400.288435,-197.2460048,-210.1888777,-50.36532317,-220.2731226,83.57780157,-25.27576603,-173.6525909,-187.222184,-205.9803668,-242.4175234,-168.6158284,-167.7808391,-93.5192255,1892.338302,,,,
119.1439999,465,72.68915433,-1587.743594,100.4630989,98.14437981,-602.409114,90.27716968,-165.2250326,-239.7241047,-35.89834518,-35.63369661,-205.776153,-125.137304,-26.61876682,-48.50723403,-93.33445257,1623.388032,,,,
119.1519999,465,-162.305888,-1497.340496,-138.934789,-155.8939095,-182.9170136,-145.3645394,93.89827324,-23.90798201,27.52926661,31.39658243,-205.5675314,-36.96616056,32.008103,41.01238336,-93.14803371,1563.871627,,,,
119.1599999,465,-47.93380232,-1404.059046,-25.99995515,-33.83984798,-464.6395373,-52.93826287,-53.92067061,-157.3133496,-192.5855114,-206.1335662,-205.3545242,-274.4581217,-176.1981602,-199.1264042,-92.95997995,1994.574603,,,,
119.1679999,465,7.404121793,-1592.655963,27.44917629,12.27041061,-484.0318072,20.81829244,-45.23558769,-152.115319,98.34066593,89.64068889,-205.1371537,10.31863003,107.6354675,82.27649317,-92.7703023,1428.330505,,,,
119.1759999,465,-191.2201758,-1314.270037,-176.3295436,-191.9891166,-117.0762123,-199.6484122,113.0810971,-17.98411722,-167.5040117,-167.7040093,-204.9154419,-233.6312644,-166.9399589,-173.2197312,-92.57901178,1985.254093,,,,
119.1839999,465,84.54288355,-1506.956463,102.3707407,94.5496288,-494.5924867,86.53045686,-136.876044,-237.3242769,-21.36087623,-26.91635818,-204.6894112,-114.4102348,-9.563695807,-45.18563212,-92.38611939,1701.319002,,,,
119.1919999,465,-177.6366041,-1407.889983,-169.3874242,-187.683556,232.9852616,-172.9045986,129.4536822,-15.66316639,29.15320556,19.96611594,-204.4590838,-41.11188056,39.77921076,28.66220188,-92.19163614,1637.556699,,,,
119.1999999,465,-68.25774694,-1300.250857,-57.61206906,-62.64072162,111.3666341,-72.62776883,-30.05597317,-139.622495,-219.6316662,-223.7232146,-204.224482,-304.6434981,-211.0042964,-225.2043949,-91.99557304,2082.190968,,,,
119.2079999,465,-12.14591036,-1486.240438,2.152483649,-10.73360008,146.6683617,4.419527848,-31.38563093,-136.0702577,69.01908502,71.59882825,-203.9856282,-21.68350012,75.72842484,71.56621568,-91.79794109,1513.139561,,,,
119.2159999,465,-203.8462664,-1209.702353,-191.3953046,-200.6858192,624.598671,-199.0526027,129.8593691,-2.191008873,-173.293754,-173.2497786,-203.7425445,-239.3582846,-166.8024882,-159.1274094,-91.5987513,2064.649063,,,,
119.2239999,465,72.45857632,-1395.832592,95.76788906,95.25292774,119.3283076,93.62425855,-125.1222352,-218.2667317,-33.89229426,-27.76936922,-203.4952535,-121.1779601,-10.23489624,-38.77093007,-91.39801466,1787.038902,,,,
119.2319999,465,-181.5014572,-1293.71912,-164.2293901,-177.1655568,566.3090042,-167.382825,137.6646558,-4.569814456,1.068822635,8.930501651,-203.2437774,-60.49438487,23.30223086,22.76660893,-91.19574217,1724.621042,,,,
119.2399999,465,-39.81205287,-1192.574881,-24.44688285,-22.63565158,267.0041959,-34.0586095,-18.82552477,-145.0473623,-213.1345472,-207.0436939,-202.9881387,-287.6828625,-207.8115719,-202.2891662,-90.99194482,2170.165951,,,,
119.2479999,465,-9.403755601,-1370.127552,6.394823286,-3.001293135,159.9505184,16.20001899,-21.11137665,-145.583736,83.67545691,97.91201815,-202.7283597,4.0080011,90.29192071,91.18566856,-90.78663361,1604.48616,,,,
119.2559999,465,-253.8517086,-1064.598938,-245.2800564,-254.0863772,641.0235732,-254.4851725,137.2200114,-3.677377118,-212.9599212,-204.650335,-202.4644629,-270.9055676,-196.3303931,-192.5785668,-90.57981951,2178.898834,,,,
119.2639999,465,45.58760795,-1240.712249,62.72367733,64.36536484,250.9777815,61.5595881,-128.2820872,-222.4070528,-85.29565595,-74.72722936,-202.1964708,-165.9608171,-60.70219157,-76.96070226,-90.3715135,1930.506006,,,,
119.2719999,465,-210.5768155,-1143.636094,-196.4218028,-209.1442043,836.0446241,-199.7993946,123.3172762,-10.10291709,-26.9154354,-10.44523216,-201.9244058,-81.37333686,-9.454368929,0.391895152,-90.16172656,1867.648276,,,,
119.2799999,465,-113.7579544,-1037.184416,-102.9108582,-99.66272158,642.29651,-116.4462557,-42.14779489,-144.1132445,-256.6955126,-250.4702297,-201.6482903,-327.379191,-250.2384341,-249.9523008,-89.95046967,2309.703164,,,,
119.2879999,465,-26.20987794,-1227.526485,-13.47963296,-17.58697981,514.7569067,1.06297013,-57.45514941,-150.3292802,33.90527181,40.47316842,-201.368147,-46.07278894,45.42219706,45.75982374,-89.73775378,1743.460908,,,,
119.2959999,466,-197.1328818,-951.6672982,-188.2383556,-196.9716369,919.7511654,-193.8345215,99.08904376,-22.726159,-183.8855819,-178.2673539,-201.0839982,-247.7080158,-167.9424768,-169.9016296,-89.52358986,2285.838309,,,,
119.3039999,466,81.55909535,-1141.717497,96.70556854,97.60123131,365.0322629,95.98390913,-161.5163234,-246.621566,-22.03823612,-14.92643466,-200.7958665,-113.3509867,-8.537981289,-33.63493863,-89.30798887,2003.831525,,,,
119.3119999,466,-158.0690642,-1054.052282,-145.181996,-156.8825087,770.9354318,-138.7370806,97.49061457,-32.75961456,16.74530287,26.18501396,-200.5037745,-46.8069623,25.48121123,37.93051475,-89.09096175,1930.769021,,,,
119.3199999,466,-28.2800313,-957.1693422,-17.66521374,-19.4674621,459.0371518,-24.07864253,-53.76087879,-165.302905,-176.4115476,-174.6693383,-200.2077447,-254.480389,-167.918439,-175.5024247,-88.87251946,2360.735272,,,,
119.3279999,466,-2.278650401,-1140.695809,7.140242137,-1.689790342,172.2253108,17.6978734,-50.94956994,-159.29442,85.5382229,90.91530031,-199.9077997,1.952916894,101.6300246,97.18286844,-88.65267291,1787.105453,,,,
119.3359999,466,-213.0846745,-858.2652859,-208.3301406,-216.6393165,436.5861543,-213.8285502,121.7318339,-20.96573223,-193.3944381,-193.8466449,-199.6039621,-258.2808883,-176.8688385,-168.0531424,-88.43143306,2338.871738,,,,
119.3439999,466,85.94921787,-1052.214224,96.39081012,97.67126638,-198.2764652,100.420201,-140.5659906,-250.533373,-21.46493157,-29.72094741,-199.2962544,-117.8085263,-5.54625232,-31.16412815,-88.20881081,2059.190735,,,,
119.3519999,466,-154.8526818,-966.272552,-147.982937,-161.3733596,148.0947855,-146.5529162,114.6656777,-43.95776001,28.66482599,26.52563317,-198.9846992,-41.49266808,45.44175656,53.33245879,-87.9848171,1978.794565,,,,
119.3599999,466,-46.65930874,-861.6203065,-41.74581958,-44.65280288,-132.4874463,-59.58512458,-34.09678958,-176.8935897,-193.6013177,-194.1969913,-198.6693193,-273.2208074,-182.7553345,-184.2386378,-87.75946282,2415.928562,,,,
119.3679999,466,10.98241173,-1044.6231,14.0867553,6.84603603,-309.6942571,18.18237606,-39.18293748,-176.0755729,72.48098396,73.14165598,-198.3501371,-8.691997258,89.14427195,70.37562663,-87.53275888,1846.89931,,,,
119.3759999,466,-162.0054036,-771.5209394,-162.9444309,-168.6593962,29.02995451,-170.1261184,129.5960158,-42.66366211,-158.598783,-157.9668236,-198.0271753,-217.3389061,-140.6641982,-147.8497132,-87.30471618,2395.350516,,,,
119.3839999,466,102.9588623,-966.3949784,114.006071,113.7998623,-536.928148,112.8899434,-127.2789533,-263.3629635,0.70917266,6.615780829,-197.7004566,-84.38953405,10.0389889,4.158641521,-87.0753456,2121.392752,,,,
119.3919999,466,-159.1574822,-878.7941854,-147.1154571,-162.9773488,-113.5809213,-148.0484648,124.8359591,-44.3730113,20.13690845,26.96432289,-197.3700036,-40.32586016,38.25833946,56.40382207,-86.84465802,2040.414236,,,,
119.3999999,466,-36.95923792,-782.5626714,-28.79625851,-31.03132075,-308.4248751,-37.74138533,-37.29546378,-175.0000358,-185.2694854,-184.8034472,-197.035839,-258.6497014,-170.3030464,-176.4678317,-86.6126643,2476.965467,,,,
119.4079999,466,15.75853526,-976.1069927,20.09794477,9.066236848,-372.3560108,27.13366483,-53.53448719,-179.6801967,92.53052828,98.89142707,-196.6979854,13.87133377,100.9922573,96.37227179,-86.37937533,1908.894436,,,,
119.4159999,466,-183.0164016,-686.3462407,-188.8623507,-202.269559,37.61972364,-204.4719528,113.2987944,-45.08451321,-173.4880083,-167.6629634,-196.3564655,-234.7027413,-152.6587758,-150.1370509,-86.14480193,2456.324571,,,,
119.4239999,466,104.0398576,-852.4887339,101.6258469,95.50016278,-482.4543273,98.01406004,-142.3093091,-271.2203332,-20.43829231,-17.67864813,-196.0113019,-113.237096,-3.313540536,-24.84922737,-85.90895496,2185.72315,,,,
119.4319999,466,-112.0665939,-746.9125864,-113.3144784,-135.6936779,-18.61345341,-115.7351052,122.2902906,-63.98590526,37.48036341,39.54147719,-195.6625174,-31.46495577,52.00695292,48.59018817,-85.67184526,2107.189125,,,,
119.4399999,466,-3.831560131,-621.7260791,-7.217888891,-17.11716644,-207.8343232,-27.81811519,-15.18430953,-196.5293821,-164.0277351,-169.9695518,-195.3101347,-244.6409851,-147.2175228,-164.7447645,-85.43348363,2546.72316,,,,
119.4479999,466,10.30106863,-782.437825,2.84863081,-12.48917125,-290.5378079,2.638552205,-17.03817346,-199.63372,94.19787215,91.43637471,-194.9541763,6.478270687,104.4053228,92.96798915,-85.19388091,1978.692739,,,,
119.4559999,466,-197.8306668,-474.4619689,-210.8905404,-224.7560389,80.61288226,-224.3149556,150.5990125,-56.67518362,-188.1171882,-188.0121203,-194.5946651,-254.4465553,-173.2755677,-180.4917031,-84.95304789,2534.929533,,,,
119.4639999,466,91.99784708,-633.5220051,84.95500776,79.31238922,-480.7359994,80.95133644,-113.6402654,-273.5242429,-32.34036653,-35.5974684,-194.2316236,-126.1578236,-22.63048599,-46.21974528,-84.71099536,2272.284604,,,,
119.4719999,466,-153.0311186,-524.6056602,-161.1393267,-182.7222109,-49.451093,-166.4587504,132.9822953,-58.6443541,13.65248263,11.36822572,-193.8650747,-56.55317006,20.4774903,26.85756969,-84.46773411,2192.48993,,,,
119.4799999,466,-28.01162846,-406.8578137,-36.52341692,-45.87403225,-257.2794162,-55.15122962,-25.47428644,-187.5848532,-202.8521337,-206.8390459,-193.4950409,-286.367666,-186.5888114,-205.1959464,-84.22327491,2633.504455,,,,
119.4879999,466,50.97698507,-584.5087113,41.2832116,26.54075806,-250.6693222,46.98993349,-34.01134708,-189.8869552,100.7849876,99.2146317,-193.1215451,10.54552062,111.2818688,97.19070498,-83.97762852,2045.870861,,,,
119.4959999,466,-163.0770829,-288.0378641,-179.7705917,-194.3047758,306.2987754,-190.6850969,141.0111779,-38.27316071,-142.9375821,-144.0694393,-192.7446098,-210.3872835,-135.3321543,-130.8525607,-83.7308057,2584.067748,,,,
119.5039999,466,92.77854153,-458.8958023,79.8882012,73.87070785,-126.3135463,76.82676863,-127.6159561,-248.3592884,-20.923161,-24.71988409,-192.3642578,-117.0401981,-11.68729835,-31.25509272,-83.48281717,2324.720233,,,,
119.5119999,466,-172.1523871,-344.801609,-183.7154052,-201.5540873,415.6451991,-180.1755703,123.2124642,-25.97025142,-14.52193471,-15.49142555,-191.9805118,-82.53258557,-7.126605946,1.570547269,-83.23367367,2238.334998,,,,
119.5199999,466,-69.40808881,-203.173973,-78.90679514,-81.22809176,231.6617113,-83.91687935,-21.86784086,-147.5972062,-232.8388771,-231.9191852,-191.5933945,-309.1925698,-223.9627724,-229.3078817,-82.9833859,2681.058111,,,,
119.5279999,466,12.16690509,-370.7439967,0.394158294,-4.70204594,77.38198754,16.17045181,-43.26477677,-153.8877974,61.78554278,69.1389954,-191.2029286,-21.28069803,71.60938059,69.56808427,-82.73196458,2103.367106,,,,
119.5359999,466,-198.7868338,-65.8647988,-212.6097006,-217.1281337,539.297243,-213.0907402,117.4205068,-10.85467295,-190.5500279,-183.2602256,-190.8091367,-247.3859835,-183.4271172,-162.9404652,-82.47942039,2636.549454,,,,
119.5439999,466,78.04314213,-232.1296716,69.12634746,72.85507999,67.60895555,80.10329007,-155.9258115,-230.7229288,-49.59417349,-45.06807829,-190.4120415,-129.7808354,-47.9203453,-42.9550458,-82.22576401,2371.238728,,,,
119.5519999,467,-131.710808,-140.2004108,-147.2963495,-154.7043459,500.8002383,-130.3355774,86.6437197,-17.02943361,0.146526957,10.1306517,-190.0116658,-52.99352019,1.720266677,28.60019249,-81.9710061,2279.362741,,,,
119.5599999,467,-19.60151029,-22.07186725,-30.4008937,-26.05049724,275.9220261,-28.19372265,-61.58732001,-142.1565126,-185.5566572,-177.9556749,-189.6080322,-251.5928281,-181.3002122,-179.277148,-81.71515731,2716.639228,,,,
119.5679999,467,39.85816968,-202.8228293,33.47513802,26.9596607,130.6647782,49.09959903,-77.63430668,-150.4770618,97.14383213,107.4092512,-189.2011634,24.46074281,103.4403829,108.7573033,-81.45822828,2137.328839,,,,
119.5759999,467,-172.4665025,94.63569133,-183.3258295,-192.7735711,568.5422115,-186.2418087,92.49093289,-10.10206048,-172.9187071,-161.7504191,-188.7910821,-219.1439738,-166.3148327,-143.019745,-81.20022964,2674.948687,,,,
119.5839999,467,102.3509786,-64.48572708,93.43276809,95.27425424,94.60884304,102.0423233,-174.0581094,-233.965279,-22.61013761,-17.22032961,-188.3778109,-99.48024723,-14.85829721,-25.4722209,-80.94117199,2416.163396,,,,
119.5919999,467,-136.921267,46.32105171,-154.0241729,-160.8808119,615.7512119,-137.2677828,67.79536384,-24.23223995,23.49164835,29.06575468,-187.9613724,-32.11615508,31.12512782,49.39125197,-80.68106594,2327.650851,,,,
119.5999999,467,-74.44309101,194.80794,-87.69803094,-79.57115679,489.7089725,-81.17341048,-85.69406501,-149.7923759,-219.0429108,-214.5418302,-187.5417894,-283.2807023,-217.5042389,-202.5746514,-80.41992206,2778.226221,,,,
119.6079999,467,-11.62365555,40.17842113,-20.59475578,-21.25974648,362.172347,-1.722921817,-105.064516,-163.4065001,37.73684393,46.58112058,-187.1190845,-34.87704281,39.14230915,47.51503791,-80.15775092,2210.925259,,,,
119.6159999,467,-179.6829024,343.6152681,-192.083257,-194.3293953,768.3231493,-189.5111653,63.86403755,-32.55731114,-187.352805,-185.5076326,-186.6932802,-242.6853858,-185.5650824,-164.6478379,-79.89456307,2743.868083,,,,
119.6239999,467,87.60385024,187.0578985,82.44518714,94.23177582,191.1777787,101.3491671,-192.6765267,-256.0821698,-22.33149416,-26.26072569,-186.2643993,-107.038856,-13.47495976,-22.57878527,-79.63036906,2475.333263,,,,
119.6319999,467,-145.4356848,288.4459088,-152.0530272,-153.2331287,568.0657485,-135.8348445,66.30086557,-41.52070594,8.20747037,14.42516503,-185.8324644,-48.32778508,19.34936897,32.52054103,-79.36517941,2387.729257,,,,
119.6399999,467,-7.25787437,397.2850827,-6.690480322,2.147945326,317.4112022,-5.203022012,-88.80870905,-174.6915483,-186.6656884,-183.2001057,-185.397498,-249.3150046,-185.8206275,-167.6027874,-79.09900462,2836.021606,,,,
119.6479999,467,50.25217129,202.5200469,52.8131858,54.26475671,118.8229999,77.80897782,-115.0394566,-191.9801187,121.0259306,125.6529567,-184.9595228,53.39047333,129.3643341,148.5029335,-78.83185518,2241.698021,,,,
119.6559999,467,-195.7237407,490.5995674,-199.1893423,-199.8717732,543.6437905,-191.728774,60.5295147,-44.66426311,-158.1594631,-157.7657521,-184.5185613,-206.0634961,-152.1880017,-129.442479,-78.56374159,2769.118499,,,,
119.6639999,467,82.55817893,313.2524774,88.71455897,96.35010667,-24.93628592,103.1294169,-198.8922167,-264.0425284,-33.73565925,-46.68906534,-184.0746361,-117.2507113,-33.60854825,-33.78533264,-78.29467428,2514.388849,,,,
119.6719999,467,-127.6387805,386.4109053,-125.5468236,-131.2103459,330.4261669,-111.0412193,52.58211687,-54.98712811,30.37219318,23.77071818,-183.6277698,-28.55612235,46.85256155,63.65910265,-78.02466372,2407.899166,,,,
119.6799999,467,-15.51670913,489.2678253,-15.70467387,-4.997939537,99.69597616,-10.49564633,-97.40704509,-178.9533383,-169.5474952,-175.3407259,-183.177985,-234.0507461,-156.13193,-160.6853876,-77.75372033,2841.407479,,,,
119.6879999,467,15.49005724,301.2812008,14.92716199,19.02244173,-53.94870874,39.30492409,-114.970282,-183.4228578,99.60572055,88.12070661,-182.7253041,27.00766137,104.0324813,110.1457027,-77.48185452,2256.552493,,,,
119.6959999,467,-238.3605082,595.9748018,-244.0204703,-242.4253472,430.6976519,-238.1960196,63.82604582,-26.95682391,-204.717913,-213.0092833,-182.2697497,-254.3131591,-197.626854,-171.8919631,-77.20907669,2799.674354,,,,
119.7039999,467,61.96071331,413.8663265,65.46499325,77.75375263,-10.55529339,79.05441579,-204.0233155,-249.6271372,-66.76749726,-75.40228038,-181.8113443,-148.2816724,-61.95905273,-61.86337178,-76.93539722,2550.862447,,,,
119.7119999,467,-179.8808783,489.5332052,-179.718378,-180.0698433,559.8040928,-171.2201996,45.13047091,-42.54809458,-3.189403275,-16.86301612,-181.3501104,-63.44978733,10.45547028,23.50638333,-76.66082646,2442.613299,,,,
119.7199999,467,-106.9435136,609.5459869,-111.6785943,-94.23254169,488.8839278,-112.3488645,-106.2801521,-159.1747393,-258.2565492,-269.0829389,-180.8860706,-319.88502,-243.9324872,-249.0458032,-76.38537477,2897.558452,,,,
119.7279999,467,-18.19611261,409.6038317,-23.0363203,-12.59034172,376.5429778,-1.721785007,-135.3328405,-173.846375,32.3751385,29.04792522,-180.4192471,-32.22472288,38.91178793,49.85148946,-76.10905247,2322.208114,,,,
119.7359999,467,-217.7185347,681.8727426,-226.4608157,-221.1020346,858.5578167,-226.9438522,43.17978619,-37.5013704,-207.9427443,-214.7056474,-179.9496626,-253.5790967,-198.2282278,-177.5857654,-75.83186987,2854.544949,,,,
119.7439999,467,91.6426404,496.026706,87.77418145,105.7080551,317.9298699,100.8878639,-225.4936516,-272.3072099,-51.38686761,-56.34706263,-179.4773394,-126.4520893,-48.32475846,-53.06300207,-75.55383726,2602.224208,,,,
119.7519999,467,-126.275063,565.5238268,-132.0026694,-126.4148754,704.7471564,-113.7105579,26.9421638,-73.37512669,39.94259251,35.98516242,-179.0023,-8.328447587,44.85757274,67.6621688,-75.27496491,2479.593893,,,,
119.7599999,467,-30.0195774,677.0840445,-36.05579204,-17.70872088,477.0001441,-33.99439228,-109.6520588,-200.3137473,-193.0239782,-204.9924611,-178.5245667,-248.9424854,-180.518393,-179.0533173,-74.99526309,2923.806347,,,,
119.7679999,467,52.58649465,470.1787929,47.22260798,59.61083792,232.6536222,70.28969752,-129.5752939,-223.8409171,117.9662694,111.3221835,-178.0441619,51.39395981,127.68934,132.4510901,-74.71474203,2332.337234,,,,
119.7759999,467,-201.9630308,749.3554042,-208.9059744,-199.6935252,616.3537083,-200.115854,64.60136001,-74.68725098,-151.2680018,-158.7631345,-177.5611081,-194.4366294,-138.8464736,-121.0198295,-74.43341194,2845.790717,,,,
119.7839999,467,63.14088203,577.2847569,60.37792259,77.1859213,14.81647333,76.72530657,-194.3364874,-285.9080646,-74.75707468,-83.09581133,-177.0754275,-141.4646486,-63.26390234,-66.67564672,-74.15128303,2608.08608,,,,
119.7919999,467,-161.6016748,644.7756624,-166.1536719,-166.4092973,351.2404933,-147.9202674,53.85394577,-73.367275,8.520842952,5.88836375,-176.5871424,-37.52209098,21.68172189,45.81537271,-73.86836547,2494.821654,,,,
119.7999999,467,-108.7701312,760.6462478,-109.5133307,-99.54391476,156.5436962,-104.4299623,-87.43252613,-185.0303711,-236.223078,-248.3407856,-176.0962752,-294.9493111,-220.7157344,-219.160903,-73.58466944,2939.106501,,,,
119.8079999,468,-19.57141377,557.6925081,-21.56256522,-19.32559867,21.81824028,-0.462403808,-127.9309157,-198.0102779,33.13139703,20.3483793,-175.6028482,-36.25899274,40.4581094,36.20427813,-73.30020506,2362.541868,,,,
119.8159999,468,-213.3880983,823.0555824,-217.4520308,-219.1655122,478.7855711,-217.1057359,47.34631698,-52.73141142,-188.9200983,-205.3893767,-175.1068836,-241.9811685,-190.2633962,-171.805893,-73.01498247,2871.854118,,,,
119.8239999,468,50.2691269,641.0026332,55.15639717,63.24625409,-57.15475639,67.48953707,-214.65439,-269.3864827,-63.86015923,-86.28975678,-174.6084037,-143.1930107,-66.52589595,-64.19169752,-72.72901177,2612.090094,,,,
119.8319999,468,-167.1528062,695.5959417,-167.1592548,-170.6709836,351.8131811,-146.4903664,24.16065476,-59.03705049,2.460811922,-6.350216433,-174.1074307,-46.99513671,10.32293917,29.44075511,-72.44230304,2497.49321,,,,
119.8399999,468,-57.3267131,780.4723162,-58.24190148,-49.06076922,140.7307025,-54.86445382,-115.4019026,-179.7718476,-228.6829843,-236.7881157,-173.6039867,-287.7077522,-216.4717377,-208.861132,-72.15486634,2948.046916,,,,
119.8479999,468,52.66393786,541.8337521,52.82001287,53.45753722,-79.87989184,73.11746111,-138.9129804,-207.1732259,97.01399108,84.00704125,-173.098094,23.47003145,103.3307827,109.8615405,-71.86671172,2347.03502,,,,
119.8559999,468,-187.7308398,787.6784329,-190.9997863,-192.5702541,304.1807962,-183.6343942,38.29607379,-62.61899495,-127.6552226,-140.7348115,-172.5897748,-180.3221488,-126.8272092,-106.7407406,-71.57784919,2841.2905,,,,
119.8639999,468,45.55799829,592.2550736,48.54369617,57.86541716,-298.3666395,62.38649751,-228.6238813,-279.3898058,-63.38914901,-78.85644982,-172.079051,-142.5398059,-57.53570592,-53.70967362,-71.28828877,2596.520655,,,,
119.8719999,468,-140.0202944,624.0590017,-140.4388381,-144.43003,55.08861846,-124.1371918,15.88297594,-81.3418469,18.29291659,-0.084619937,-171.5659449,-42.14326718,32.03028401,52.28720217,-70.99804043,2474.736467,,,,
119.8799999,468,-32.04232484,700.6532222,-32.80559005,-23.01958157,-150.9587602,-29.58073436,-115.4212643,-200.8481781,-183.2111353,-206.5493322,-171.0504786,-251.5152076,-179.7134004,-167.0332362,-70.70711413,2913.026594,,,,
119.8879999,468,47.23567284,460.1464076,48.70252112,54.14136179,-317.0861464,70.69910824,-134.7174468,-222.6001044,98.51447813,85.58282154,-170.532674,25.14577144,100.5668118,114.9465698,-70.41551981,2323.805847,,,,
119.8959999,468,-170.9790693,684.862324,-173.2431332,-168.5168555,180.1572517,-162.4376782,45.78596163,-85.92588996,-118.9920919,-129.9030181,-170.0125532,-172.1629777,-113.4161591,-96.11106449,-70.1232674,2823.417285,,,,
119.9039999,468,80.49930472,469.4902098,80.00746895,95.64301073,-271.1741557,100.4775884,-219.2111762,-301.1428006,-36.21585244,-53.65876311,-169.4901382,-114.6008483,-30.6937388,-35.08518448,-69.83036678,2574.534651,,,,
119.9119999,468,-101.9243079,485.8998854,-109.0697946,-104.8318446,210.5476463,-85.20746042,19.85532548,-101.4602902,36.6269991,29.0950519,-168.9654511,-14.92226971,47.83190711,63.87664958,-69.53682783,2451.673408,,,,
119.9199999,468,-8.633105265,551.0401829,-14.39766268,1.123288489,170.2560513,-3.084980509,-119.2530136,-228.9271961,-139.0543782,-150.0187786,-168.4385136,-196.4583468,-142.6879999,-130.9526379,-69.2426604,2881.745447,,,,
119.9279999,468,13.32980516,323.5258363,13.86332339,20.44880666,135.2747388,42.64974463,-140.495644,-241.6946187,96.38491226,80.85277806,-167.9093478,31.99769147,91.30408039,111.4951152,-68.94787434,2295.11879,,,,
119.9359999,468,-193.8558415,557.0821366,-195.2380306,-186.4798041,637.5386867,-177.3221951,33.6052886,-101.2923492,-166.4602912,-176.3372458,-167.3779756,-209.6876175,-158.7890913,-133.4808771,-68.65247943,2813.748212,,,,
119.9439999,468,73.22357112,342.890831,76.64553414,97.27041309,213.0198212,104.8558662,-234.6592503,-319.6304754,-39.83039336,-49.91543376,-166.8444188,-106.984428,-43.59764547,-34.34391279,-68.35648548,2564.977121,,,,
119.9519999,468,-172.4029361,381.14273,-173.7433345,-170.1018602,660.1925061,-145.3072275,12.99457986,-100.0657322,9.03365053,-1.297506121,-166.3086993,-34.14649088,5.584065873,40.34758752,-68.05990224,2446.142415,,,,
119.9599999,468,-58.34600374,453.6870917,-61.27948625,-46.70385166,361.7232985,-45.78190586,-137.5602615,-222.723699,-215.1957171,-227.5198731,-165.7708388,-270.6696674,-211.6959044,-206.1527463,-67.76273947,2897.499252,,,,
119.9679999,468,29.08087516,215.0378056,33.73875082,41.05159081,-77.58900227,68.22346987,-177.4074203,-241.6982984,76.14579454,69.52666854,-165.2308592,12.74271914,72.66923849,82.88407451,-67.46500687,2299.739454,,,,
119.9759999,468,-166.8749634,456.0095189,-161.7037143,-156.6445874,111.1391573,-146.2921743,7.640241648,-89.02710649,-140.2913811,-145.2555628,-164.6887821,-179.4616108,-145.5346962,-105.4337355,-67.16671414,2800.392692,,,,
119.9839999,468,133.9934089,241.8867625,142.4264969,152.7830814,-312.0287185,154.6489649,-242.5650316,-315.7795051,6.437528271,-4.426945271,-164.1446294,-60.81456347,8.09341584,16.35271779,-66.86787096,2540.168562,,,,
119.9919999,468,-114.0069069,276.4349368,-108.3900331,-115.4147322,206.8522644,-93.61821386,14.9947695,-107.2184466,84.84606991,76.32209613,-163.5984227,36.04231915,93.24655717,113.9944432,-66.56848698,2394.914675,,,,
119.9999999,468,-53.56810624,371.5359528,-46.99863152,-40.11017047,78.50040949,-40.17887944,-119.5304787,-212.4125291,-186.2265407,-197.3552789,-163.0501836,-244.6893156,-185.346031,-179.2486035,-66.26857182,2847.849245,,,,
120.0079999,468,33.73098665,142.7328232,40.79934591,36.81445347,163.8373782,58.27780266,-141.4724535,-225.9654277,76.04700559,64.35961681,-162.4999338,7.763084662,71.71348396,69.18814601,-65.96813509,2263.587727,,,,
120.0159999,468,-183.137678,385.2184013,-186.13323,-190.2906204,700.0999107,-178.6979056,42.31281182,-73.36706563,-137.8833538,-146.1901139,-161.9476949,-188.1256833,-137.621945,-122.418537,-65.66718637,2771.190423,,,,
120.0239999,468,86.22486587,186.4438382,86.63788766,95.09281489,213.1421737,106.0554717,-221.1381613,-290.0354362,-41.7531495,-48.50864739,-161.3934884,-117.8742547,-42.28578723,-44.66373962,-65.3657352,2536.535044,,,,
120.0319999,468,-104.8940564,217.9657646,-105.8100639,-118.4903752,727.6550205,-96.7619068,36.95698789,-82.32746005,42.20485844,39.29272929,-160.8373358,-14.00389701,44.83825179,58.78611948,-65.06379114,2401.782049,,,,
120.0399999,468,-13.00310128,305.0840933,-19.60090756,-16.41209112,547.5987156,-21.05183772,-98.7829731,-190.1870017,-159.6170795,-155.9198701,-160.2792587,-223.4890114,-158.1477799,-148.1002278,-64.76136367,2841.907087,,,,
120.0479999,468,56.08343127,85.31442273,54.14430455,51.70481761,351.8206944,74.55972738,-131.4960809,-206.1248126,103.0120772,113.1743056,-159.7192786,34.52590847,103.4034058,117.2873944,-64.45846228,2252.231575,,,,
120.0559999,468,-155.2963689,351.6487753,-155.068959,-164.0807724,757.175682,-156.2918475,58.52519635,-59.38936967,-134.054008,-130.8769132,-159.1574167,-188.5957625,-130.1313372,-115.2235271,-64.15509645,2751.458333,,,,
120.0639999,469,113.442349,189.394883,116.3459009,119.4333441,240.1422714,120.3233,-194.7253693,-276.5851758,-9.462029034,-4.239754776,-158.5936946,-92.55479816,-4.232891741,-15.61436799,-63.85127559,2501.401409,,,,
120.0719999,469,-100.0278546,259.1061784,-100.011534,-115.843702,695.1696716,-100.1939542,61.48703634,-73.65330285,61.73512127,71.29396462,-158.0281336,3.668315144,72.98756702,76.51166618,-63.54700911,2371.373108,,,,
120.0799999,469,-19.71632166,386.68484,-23.40445908,-28.63200947,555.6904912,-35.26704579,-73.91825398,-198.2543285,-173.2347915,-171.847654,-157.4607549,-242.187847,-169.1532309,-177.8381004,-63.24230641,2825.21735,,,,
120.0879999,469,58.75582094,205.4609181,50.26782372,38.53016676,447.1370949,61.6892855,-102.2351686,-222.5786003,96.99429376,107.0893349,-156.8915799,22.26349311,97.23851329,99.34523079,-62.93717684,2236.968989,,,,
120.0959999,469,-145.625399,495.7112319,-160.0321439,-178.7222789,958.3392116,-170.2138184,91.21719812,-72.70093864,-145.9376561,-136.3588045,-156.3206299,-201.1679697,-140.5047954,-129.2089882,-62.63162974,2754.187585,,,,
120.1039999,469,131.1869924,336.8049517,120.5233186,111.0183763,479.2755508,113.9175739,-168.7160739,-298.4700623,-12.62127849,-13.92760847,-155.747926,-102.3163495,-6.840741889,-25.64695785,-62.32567441,2521.432958,,,,
120.1119999,469,-72.9048398,404.1777129,-87.65670416,-112.141846,943.3003769,-94.25053392,76.89799377,-100.9807519,82.83736724,82.00904939,-155.1734894,14.92670198,97.68481251,88.65940886,-62.01932015,2374.082237,,,,
120.1199999,469,29.87922673,528.640556,14.34870703,6.821115119,797.0400771,-3.511266683,-61.71893799,-217.7495454,-151.4556503,-149.899388,-154.5973413,-222.5413611,-139.5617172,-160.8379512,-61.7125762,2814.70131,,,,
120.1279999,469,124.369195,334.0173153,112.4815441,101.8718199,577.5855419,117.1603423,-92.939282,-237.9017046,143.0937105,153.4431962,-154.0195027,70.71370239,152.9706121,145.6240787,-61.40545181,2215.051467,,,,
120.1359999,469,-110.6107738,616.5685045,-125.9702565,-145.3056805,982.8155292,-142.2740128,98.05756485,-80.67762735,-75.32534866,-67.23826462,-153.4399947,-127.3706074,-64.50779975,-57.35716492,-61.09795617,2707.24701,,,,
120.1439999,469,97.11736667,477.9497119,81.65191789,71.73406077,387.8772823,75.2870656,-169.529242,-280.4791138,-18.94868754,-17.01784617,-152.8588383,-105.5888979,-10.44958709,-29.82231042,-60.79009848,2475.134774,,,,
120.1519999,469,-160.0574028,570.824275,-180.0664148,-198.896898,715.1377942,-175.4702996,62.49784802,-55.22628487,-22.31891215,-20.19530719,-152.2760546,-85.19990899,-0.767702978,-7.271073218,-60.48188788,2354.091578,,,,
120.1599999,469,-14.45372259,685.0928194,-34.36942966,-39.1468949,473.7318227,-44.55439159,-84.68980124,-176.0320466,-220.1210711,-221.0648,-151.6916644,-293.1850134,-213.1490514,-220.1826297,-60.1733335,2803.576345,,,,
120.1679999,469,117.5321279,471.732513,93.78610997,82.86371646,216.7886674,101.1071128,-121.740589,-208.4493419,131.6701129,136.480057,-151.1056886,45.26796705,125.7380956,134.5592759,-59.86444445,2189.386057,,,,
120.1759999,469,-136.7172621,749.2048054,-163.5378352,-179.2447054,697.5681463,-171.566194,68.43866896,-50.54088799,-109.4834754,-102.2973641,-150.5181482,-166.5385919,-107.3859688,-88.51804666,-59.55522981,2676.565052,,,,
120.1839999,469,122.6978371,587.7434945,105.0322277,95.36960012,324.4132838,100.4600183,-186.2779902,-266.4338707,-24.42567658,-18.80731414,-149.9290639,-103.3194046,-21.06674088,-26.93230954,-59.24569861,2436.467942,,,,
120.1919999,469,-116.6234532,664.2474724,-140.1912821,-162.4725863,977.5579801,-144.6450925,71.98621498,-55.16221831,27.47960253,31.25402995,-149.3384565,-31.6817836,47.01770505,46.18591655,-58.93585989,2293.160343,,,,
120.1999999,469,-48.78929145,788.5612177,-72.61036634,-79.2970901,984.0201787,-87.80648342,-58.28121438,-167.1729236,-213.3101206,-215.2811395,-148.7463468,-285.0002973,-202.0734854,-217.1917954,-58.62572264,2748.416127,,,,
120.2079999,469,76.92079096,573.6689019,59.14268529,43.88916532,890.1482821,64.33902217,-98.24310492,-200.082894,84.84130499,89.49790015,-148.1527555,6.410028005,87.44396058,83.14067078,-58.31529583,2155.890041,,,,
120.2159999,469,-153.3882654,844.5804305,-171.7176246,-195.3634008,1475.518958,-187.9826149,92.67832795,-50.33805313,-140.5918279,-139.7217714,-147.5577031,-193.4617393,-127.8513537,-121.0396379,-58.0045884,2652.144816,,,,
120.2239999,469,93.26041216,684.2675009,79.05024406,65.42721958,948.9620727,68.4033678,-167.9257911,-269.2832918,-49.61797721,-55.87177142,-146.9612104,-134.7284705,-43.78609899,-58.19682072,-57.69360927,2424.178331,,,,
120.2319999,469,-109.3641365,746.5493269,-123.9019956,-143.8971076,1343.116463,-123.6340428,72.85933053,-64.14743823,8.644622887,16.49629134,-146.3632979,-48.75055888,26.03634799,32.53359789,-57.38236731,2286.238592,,,,
120.2399999,469,-1.90493049,853.9024829,-12.39721805,-16.79564859,1198.012901,-23.08822652,-53.82008389,-183.3046087,-175.2616628,-165.365374,-145.7639862,-234.7210985,-158.0314221,-158.2690639,-57.07087141,2727.004299,,,,
120.2479999,469,109.0949309,635.3101298,96.4455592,83.20152723,908.4160507,99.60977661,-74.84451494,-217.6787066,139.2721417,143.0582366,-145.1632956,67.31872485,142.1483812,153.0124713,-56.75913037,2116.095711,,,,
120.2559999,469,-139.3174319,912.7669343,-157.9259238,-175.3301171,1279.381889,-170.9895526,124.0078449,-57.24410872,-128.3416134,-128.8997387,-144.5612467,-176.97268,-119.7196173,-94.76771758,-56.44715302,2608.549157,,,,
120.2639999,469,108.5946548,758.1528612,96.958811,90.39827705,628.7485278,92.85442723,-136.1303559,-269.4222579,-35.66486243,-35.2063713,-143.9578599,-110.4682241,-24.43562315,-34.47420184,-56.13494812,2382.191909,,,,
120.2719999,469,-80.87755588,812.8311429,-91.03709603,-111.7963738,922.096668,-95.3491544,113.8901961,-71.53747571,49.3475989,62.98033926,-143.3531555,0.280446397,65.81121937,68.34237627,-55.82252443,2240.976032,,,,
120.2799999,469,3.777621466,926.7110319,-5.719934224,-15.76129249,718.7866581,-27.54383159,-9.73127679,-188.5417068,-171.6760093,-160.9685799,-142.7471537,-227.8187428,-158.1936239,-161.0153364,-55.50989067,2690.400642,,,,
120.2879999,469,86.24630041,722.655366,76.68662779,62.20746257,428.4018701,74.49023695,-41.99961906,-216.2660641,108.2930761,117.9700615,-142.139875,42.58639339,113.0516394,115.6845861,-55.19705552,2091.209656,,,,
120.2959999,469,-123.1736737,983.2226198,-133.6785742,-149.7896808,810.7849936,-147.1375184,151.5571957,-70.90955788,-110.1682488,-97.01417544,-141.5313395,-150.200297,-105.4042144,-89.55534632,-54.88402766,2579.59443,,,,
120.3039999,469,119.8517,810.3067991,112.5408128,105.0052183,178.5661438,106.6948838,-114.2377821,-294.2293587,-11.583035,-5.634317601,-140.9215673,-78.59411379,-5.689948745,-12.29605218,-54.57081572,2340.999147,,,,
120.3119999,469,-109.0524678,856.905318,-117.593473,-138.9769424,484.0500292,-123.5285411,126.549937,-84.42022359,21.56426918,29.40563967,-140.3105786,-24.74096245,35.8694958,49.57025992,-54.2574283,2195.005746,,,,
120.3199999,470,1.2523125,938.9044671,-3.437310077,-11.33327917,335.7597219,-21.65682902,-0.653413074,-197.4574331,-174.1254326,-165.1706763,-139.6983935,-232.5643981,-159.7860104,-158.3040188,-53.94387399,2639.675054,,,,
120.3279999,470,79.61804082,705.6839751,69.97832407,56.53573888,164.6862621,71.39782673,-38.80772836,-217.5018647,116.8206228,128.8404143,-139.085032,48.39636628,124.5803258,124.0378591,-53.63016134,2033.386976,,,,
120.3359999,470,-117.5295601,940.4429522,-134.474309,-150.8086684,680.2764254,-150.1964288,148.7296147,-52.27793312,-121.976106,-111.1658692,-138.470514,-170.1471403,-120.3212837,-109.6625351,-53.31629886,2531.376761,,,,
120.3439999,470,181.2716585,724.8347108,172.5912092,166.57488,182.9575323,165.4408237,-114.246307,-270.8513733,28.65659553,36.09998999,-137.8548596,-44.81327742,23.30024938,22.69752291,-53.00229506,2291.232339,,,,
120.3519999,470,-48.96185757,749.6633613,-59.54966564,-80.13314012,561.0366865,-65.64979764,130.4677628,-63.50038182,86.93716104,100.0311225,-137.2380886,40.60085007,85.48683597,120.1971255,-52.68815839,2126.968551,,,,
120.3599999,470,60.82688661,828.363699,49.3567907,41.62545441,394.3106862,28.83083778,6.813494704,-180.0433767,-120.8925236,-116.3086502,-136.6202209,-182.3185226,-119.2321496,-98.18866444,-52.37389729,2572.779966,,,,
120.3679999,470,131.6441367,589.9751737,122.2103609,110.2907324,142.9071197,125.7708033,-19.33635428,-205.1913442,172.9901463,175.7719145,-136.0012762,105.1971935,180.3451317,187.8949011,-52.05952016,1970.37444,,,,
120.3759999,470,-107.2984468,832.210351,-118.8580842,-135.07003,511.126592,-135.4006821,176.6543339,-42.11005132,-94.38301927,-84.77505796,-135.3812743,-133.9574387,-87.19468193,-72.23284716,-51.74503538,2463.572356,,,,
120.3839999,470,190.5138625,623.7234014,185.6746508,178.26161,-107.6826908,170.3937664,-85.18628058,-264.3689307,40.02352336,48.2398228,-134.7602349,-27.03224475,37.94245916,34.89380107,-51.4304513,2222.26262,,,,
120.3919999,470,-23.06110504,652.0156453,-31.63703928,-50.81866818,238.6716111,-40.50406723,169.2893361,-55.40833264,105.5880068,120.7182041,-134.1381777,66.56397716,107.5611284,121.8166974,-51.11577623,2063.071253,,,,
120.3999999,470,84.77118372,736.8520464,74.9406546,67.59372452,116.4899484,49.02387007,51.48723673,-170.2691316,-103.1804939,-84.40641083,-133.5151221,-151.9336198,-96.13870248,-96.92505567,-50.80101847,2515.056311,,,,
120.4079999,470,156.8226577,492.7046062,147.6851379,135.4281348,-27.35617957,139.1133851,14.81875154,-204.4866612,204.6544346,218.4698893,-132.8910878,144.7929245,214.4196207,217.1704509,-50.48618626,1903.703683,,,,
120.4159999,470,-104.161556,739.5923466,-117.0801875,-127.5428627,442.6630147,-134.4081412,198.2689706,-41.7381164,-77.76323167,-66.32997679,-132.2660944,-112.8588881,-74.7460642,-56.48285565,-50.17128784,2395.220623,,,,
120.4239999,470,176.4483256,544.6633268,174.3326436,171.3975475,-100.9658147,164.2722407,-73.20022201,-261.352073,29.93399741,41.63922023,-131.6401611,-37.31066577,26.44810914,30.35933424,-49.85633141,2167.967841,,,,
120.4319999,470,-46.16258554,575.8242183,-52.94108406,-68.47840364,284.0934283,-54.73208994,173.869785,-57.68032105,102.7265816,115.628443,-131.0133074,58.39036171,104.011046,139.7690132,-49.54132513,2012.163242,,,,
120.4399999,470,17.63935633,677.3926642,5.518421486,7.815560077,140.3046056,-3.341393124,42.97043313,-162.5383193,-145.8519626,-129.1323642,-130.3855527,-191.0199228,-147.4585074,-128.7350606,-49.22627714,2477.00142,,,,
120.4479999,470,115.8737356,441.4896088,108.1995008,101.637328,3.399704728,112.2821487,-3.249947729,-189.1643276,145.3675495,161.5634747,-129.7569163,87.33770755,150.3217391,155.3514424,-48.91119555,1883.568523,,,,
120.4559999,470,-73.70231539,680.5664359,-85.43693804,-94.32350457,561.0016869,-98.51552071,195.2613913,-37.27574843,-77.24658756,-68.08256062,-129.1274173,-119.1144632,-70.11225604,-42.16896651,-48.59608844,2380.395988,,,,
120.4639999,470,214.5847833,484.4716414,210.0840644,212.8429029,124.3728029,202.7101498,-65.43650527,-264.5192211,65.95823993,78.50675605,-128.497075,0.033301281,67.33801397,78.9478815,-48.28096385,2152.669716,,,,
120.4719999,470,-10.88287635,507.3302331,-15.81238063,-29.13362112,625.0990713,-25.8489495,182.3425512,-63.8961605,156.2710479,165.6933267,-127.8659085,115.1961056,165.5489588,181.1026524,-47.9658298,1981.50714,,,,
120.4799999,470,71.13967802,604.2074169,64.23767033,66.3695388,525.5461206,42.5322461,64.33718384,-174.8913752,-97.46545481,-97.43279711,-127.233937,-149.690332,-95.38899842,-86.15470867,-47.65069429,2440.045058,,,,
120.4879999,470,151.7306009,372.0363907,150.1544847,147.630862,326.3406673,154.569993,22.82056614,-200.4177321,191.0043244,194.1166061,-126.6011793,123.328045,194.9315352,205.848661,-47.33556525,1842.98493,,,,
120.4959999,470,-99.9898396,617.1169607,-101.4238713,-111.3289234,816.9734358,-112.1076621,217.1671262,-34.52809993,-56.07626299,-53.51068081,-125.9676546,-104.9481916,-34.01155961,-32.21339862,-47.02045063,2329.536728,,,,
120.5039999,470,185.7228202,422.0129681,189.3101882,188.32876,252.9547918,178.7106693,-44.88632536,-257.2455414,32.95816295,34.28002711,-125.3333816,-44.24570363,46.95520642,37.66868404,-46.7053583,2103.07614,,,,
120.5119999,470,-9.610271202,438.7001198,-12.09272813,-21.49873262,611.3398626,-12.2265074,191.3987313,-56.40426013,139.9402142,136.4283029,-124.6983794,81.30711276,145.2220651,177.3762487,-46.39029615,1922.370353,,,,
120.5199999,470,47.03349449,543.2562691,45.08102592,50.69850715,438.6808069,42.00610595,61.40651502,-156.6223812,-92.48164076,-98.58581197,-124.0626667,-156.958329,-89.52502069,-73.5182517,-46.075272,2368.041722,,,,
120.5279999,470,115.4189804,332.5099218,120.2993374,116.7888005,129.8944604,129.1965995,17.0890636,-177.6891772,163.9435848,167.8250377,-123.4262623,95.41513934,169.3037463,181.1720181,-45.76029364,1760.934256,,,,
120.5359999,470,-99.89953831,597.657105,-99.18937562,-106.7530367,536.3502024,-112.2828886,205.9181995,-14.47253798,-83.71672627,-82.94268522,-122.7891849,-132.6679868,-66.71419757,-51.87106883,-45.44536886,2225.707044,,,,
120.5439999,470,201.4977918,420.2422716,206.7818847,206.4765193,-23.28788995,197.6876008,-60.67982294,-237.082832,57.70835841,46.57564363,-122.1514531,-22.2278124,66.70667199,53.21992128,-45.13050539,1968.309019,,,,
120.5519999,470,-23.86702389,464.4466581,-20.05803336,-36.19535453,375.1419125,-32.14061701,181.4507522,-27.66846136,156.7105867,145.5172626,-121.5130855,101.387582,156.0235699,169.0423443,-44.81571094,1767.795618,,,,
120.5599999,470,34.13794696,592.7545739,40.88133596,38.71167695,296.9987782,13.17201702,59.4817195,-124.6847463,-111.2525564,-118.7112373,-120.8741007,-175.2325725,-110.7935965,-109.76977,-44.50099319,2209.097974,,,,
120.5679999,470,138.5904552,382.5838946,153.4934986,143.0098148,86.02447013,144.6706935,22.00261892,-154.5503662,183.0628237,175.3554501,-120.2345172,106.7299854,189.2298555,187.5523395,-44.18635978,1587.430228,,,,
120.5759999,471,-72.69028424,650.9486856,-59.39045441,-73.30480582,523.178607,-81.77031604,220.3124822,7.44287907,-36.75874777,-46.5619747,-119.5943534,-89.1164307,-21.97906278,-12.82901502,-43.87181833,2052.298811,,,,
120.5839999,471,218.4182696,485.4561833,234.9989041,233.3085903,-40.96520895,225.665075,-43.32852179,-216.6059286,81.20207917,73.5795952,-118.9536276,1.768416419,91.42100479,85.63320493,-43.55737641,1815.246834,,,,
120.5919999,471,7.847502024,527.8632286,24.05305401,5.998320067,330.8198348,16.39108876,196.9737543,-18.41094637,185.6344746,182.3308395,-118.3123582,129.0122431,192.2702084,210.2016377,-43.24304159,1613.464265,,,,
120.5999999,471,73.88147425,651.9471332,92.7338658,84.05633564,205.5642258,64.48870796,67.41929195,-121.4073936,-62.56793846,-70.86658718,-117.6705635,-126.1867423,-53.75071842,-54.0119794,-42.92882137,2051.725744,,,,
120.6079999,471,157.510087,445.4161806,173.4465997,161.3081374,-33.29276535,166.1594842,12.14507396,-149.5912271,202.219961,191.5609075,-117.0282617,131.1983648,206.7465148,211.6190182,-42.61472325,1438.473133,,,,
120.6159999,471,-40.81691279,706.85816,-31.15797247,-41.21018893,383.2949789,-48.28900021,202.5959855,7.003975891,-12.36990094,-21.94354904,-116.3854708,-60.36091847,-13.3033584,6.57304381,-42.30075469,1894.011568,,,,
120.6239999,471,247.796785,539.4226835,265.5139316,265.319067,-218.4216313,254.609,-49.50326445,-221.2874533,130.3960299,118.5871961,-115.7422091,52.10361168,135.4474099,128.8641553,-41.9869231,1644.705418,,,,
120.6319999,471,-18.77055019,597.3250155,-3.483430153,-18.9875453,115.1930865,-13.69754265,205.111583,-12.98913497,179.5737898,172.136312,-115.0984945,130.1070328,192.385592,204.9357435,-41.67323588,1460.257233,,,,
120.6399999,471,58.32871504,722.3081643,70.75308019,68.75947047,-42.41523057,43.30625401,78.72044955,-115.4867934,-100.7369957,-107.5723433,-114.454345,-152.6164719,-99.40901612,-95.4116717,-41.35970039,1923.211097,,,,
120.6479999,471,173.2805381,500.8071773,184.5295918,174.6035746,-294.0860181,176.6284518,24.15025488,-156.869811,218.5754283,207.5120718,-113.8097785,152.9250171,217.0733604,220.457058,-41.04632395,1306.167255,,,,
120.6559999,471,-87.62508901,766.1130257,-77.63010673,-90.85533864,160.9035948,-94.82273722,217.0149795,1.281122986,-12.64076201,-21.24300163,-113.1648129,-55.26043611,-3.895554856,-3.499368784,-40.73311387,1767.589917,,,,
120.6639999,471,170.2807556,609.0546844,190.0053572,186.8824474,-361.7658687,173.8801943,-48.62182961,-220.1900053,45.26598865,40.15308512,-112.519466,-23.19624967,46.17128223,27.84015703,-40.4200774,1546.98255,,,,
120.6719999,471,-23.80841066,647.9954837,-6.863904044,-22.46846951,54.42628595,-20.26877166,181.7799485,-22.39184058,130.7390091,121.3823161,-111.8737555,84.3358309,125.1746433,149.651348,-40.10722178,1361.53635,,,,
120.6799999,471,52.96227167,748.4841846,73.39819879,75.05690313,-12.84519306,54.10393095,55.39068334,-129.3651238,-77.68141288,-85.1828663,-111.2276991,-123.4977981,-75.24161278,-64.69134356,-39.79455421,1806.07946,,,,
120.6879999,471,120.2129141,509.0481196,144.3954378,140.0961469,-217.776454,140.3641977,14.22069416,-156.0706251,194.0512225,196.8239015,-110.5813145,141.5475485,200.2819802,203.6816559,-39.48208186,1197.061076,,,,
120.6959999,471,-77.69695653,732.8486559,-65.64431489,-73.49570971,216.3650373,-85.39012793,195.9163842,5.077611525,-49.96984704,-49.58454751,-109.9346192,-90.038245,-53.95848825,-29.17758879,-39.16981185,1675.083881,,,,
120.7039999,471,214.971323,522.0386258,228.6764669,229.6139283,-282.9814979,215.8984781,-83.0226759,-218.8631275,87.79495173,86.29166205,-109.2876307,18.44021245,79.63772119,86.33674747,-38.85775129,1443.569051,,,,
120.7119999,471,-16.09606962,527.4558619,-4.396377377,-16.94100318,136.7848387,-17.07664524,156.597575,-7.742957081,165.4361101,166.2283971,-108.6403665,121.7099393,162.6290522,197.4351366,-38.54590725,1245.524641,,,,
120.7199999,471,69.26213701,610.1692498,82.01301761,85.50978472,-9.249343047,61.84683901,36.1285931,-109.5022141,-77.8273501,-80.18832288,-107.9928439,-127.2771452,-83.64020344,-61.8120389,-38.23428677,1693.855167,,,,
120.7279999,471,130.4162009,363.2443441,148.8219429,146.3921173,-269.9178172,155.7423425,-8.250576043,-137.9234082,202.5089645,204.4524571,-107.3450802,149.3031137,203.3245013,206.6593595,-37.92289685,1081.074187,,,,
120.7359999,471,-83.1932415,590.1384524,-71.77584267,-77.70921924,115.6490226,-86.04434613,181.51154,27.16536079,-57.73045341,-56.10159755,-106.6970928,-90.43995808,-59.84704017,-34.10887979,-37.61174446,1553.088411,,,,
120.7439999,471,244.2008238,377.7010678,256.7901522,259.384539,-392.8498878,244.5734593,-89.04741397,-206.08563,102.4873999,97.75668024,-106.0488989,35.38887175,93.86955796,103.1263348,-37.30083654,1318.063076,,,,
120.7519999,471,16.93571402,380.930298,23.7733737,14.22952511,86.44781187,22.51628061,150.4370648,-7.270322257,206.1047583,201.0178322,-105.4005155,163.6461594,205.5292954,226.0279718,-36.99018,1120.137456,,,,
120.7599999,471,84.0552417,468.962172,87.95257652,94.16747711,14.42306115,72.18348679,30.06986897,-113.7108995,-69.6797553,-74.77080147,-104.7519598,-114.3580192,-82.17578856,-62.76954749,-36.6797817,1581.348661,,,,
120.7679999,471,190.8820224,217.2625413,199.0025231,196.6926192,-110.598433,201.979727,-13.29249486,-157.615775,235.841622,231.2881562,-104.1032488,179.7105967,224.6541894,239.0714707,-36.3696485,969.9289942,,,,
120.7759999,471,-54.45896177,454.1263919,-49.22236706,-55.83807186,419.8193745,-57.04595955,191.0186761,5.493880627,4.612960528,-4.857897121,-103.4543995,-30.07547638,2.620794111,24.64513865,-36.0597872,1439.888893,,,,
120.7839999,471,153.3164413,280.4405507,167.4155339,171.545427,-94.48208995,162.0990926,-66.93788674,-206.5157452,57.07374442,45.69953078,-102.8054287,-2.184176643,51.63187422,54.98801512,-35.75020457,1240.300641,,,,
120.7919999,471,-62.08453532,295.5430614,-46.68132726,-57.39842422,272.5710745,-51.37737942,159.9565764,-7.58828624,113.9920989,100.3166776,-102.1563533,73.64844825,117.1133674,132.6179653,-35.44090736,1072.817926,,,,
120.7999999,471,63.2329851,376.5904815,77.13903876,76.20803586,79.09819613,56.45052064,24.22985256,-124.9455595,-96.51624788,-119.0026855,-101.50719,-148.1105833,-99.24201228,-93.61164886,-35.13190226,1531.053989,,,,
