Time:125Hz,Epoch,FP1,FP2,C3,C4,P7,P8,O1,O2,F7,F8,F3,F4,T7,T8,P3,P4
702.0639995,2742,132.7458647,148.7240255,27.80235665,163.095194,0,241.8556648,-191.154652,83.65335387,-122.5708901,153.6493099,-5.973358616,743.177416,-96.04151448,341.5939171,-16.50579792,0
702.0719995,2742,44.78924897,-10.00457282,44.91091858,-249.1008038,0,-364.9302562,275.9650905,-704.5884591,90.74168437,-27.95662303,104.5997548,-262.5390634,155.4378004,-202.3524231,-81.15611968,0
702.0799995,2742,-24.00179319,27.0272631,-84.43253735,317.144811,0,443.0251467,-141.6265211,697.2511587,-86.07505768,18.04577827,-89.37250503,-55.41118425,-103.8612894,82.98710668,98.22447364,0
702.0879995,2742,177.0692932,113.8610971,91.2436099,-173.8628969,0,-275.3889603,34.69796055,-825.9623925,-39.2176176,103.6946743,89.25886581,622.9618927,42.18873116,87.2977564,-194.1908347,0
702.0959995,2742,-83.05990585,-64.90036547,-79.00318142,49.93324793,0,63.12167771,173.079839,186.0071399,21.97963954,-82.47959479,-43.59880682,-664.0544732,64.00733452,-230.757362,17.88174248,0
702.1039995,2742,119.0332508,124.5973559,-4.360778652,151.1361694,0,207.3584756,-214.1682182,51.68884258,-151.6783452,127.4648275,-32.0542824,754.6563058,-122.0097053,287.1926461,-83.98371862,0
702.1119995,2742,34.24013731,-17.49870787,12.58274208,-272.890738,0,-399.8394231,267.5296818,-750.1061047,60.97054555,-37.13140778,80.5366216,-246.6420973,138.6699305,-226.013717,-141.4302705,0
702.1199995,2742,-42.83733792,10.78700545,-110.4317216,287.9999048,0,408.6851581,-136.9635937,685.4460089,-97.81102351,9.738741997,-107.1481475,-78.71634617,-107.4852796,58.67047157,71.63506223,0
702.1279995,2742,151.9477655,89.34408773,61.80168896,-206.082991,0,-301.9421523,25.46634432,-795.4808825,-43.08392244,78.47195779,81.71927353,594.6190417,31.12727548,54.58096913,-177.3275244,0
702.1359995,2742,-111.3102693,-91.02292875,-111.2399998,8.320743891,0,28.70504678,162.5013784,208.1440741,14.62491252,-103.7871053,-44.75167532,-716.1047036,48.39932086,-268.7925455,55.21869764,0
702.1439995,2742,98.31211953,99.36194825,-22.14867034,126.1576208,0,184.209302,-236.0247976,99.48858794,-165.7339356,111.9628082,-40.33737844,699.0044157,-138.615524,253.9593207,-37.9442254,0
702.1519995,2742,35.48494423,-18.69204135,13.7779825,-290.4129672,0,-429.769671,249.3669303,-717.042788,52.77613945,-63.42057572,76.28662693,-281.1370858,129.0884584,-250.5488581,-89.96809034,0
702.1599995,2742,-37.24498529,16.36120145,-109.6174644,277.0731733,0,382.3935008,-136.761365,715.4053435,-82.12403342,6.184677028,-99.4935146,-125.4366561,-96.97621967,73.99825047,118.0285183,0
702.1679995,2742,151.7769304,78.2937935,54.14591845,-209.605646,0,-317.1160682,10.72712071,-743.3376644,-35.67169711,83.86575685,95.57466319,578.8039126,36.93027142,98.01575803,-133.2132831,0
702.1759995,2742,-110.5667675,-96.81413989,-122.8131991,1.407295087,0,0.753753751,144.0949291,252.2668107,13.33874308,-131.0478624,-31.96687524,-733.5831997,35.75001001,-277.7882769,105.17799,0
702.1839995,2742,89.88122191,93.37536943,-39.35999463,123.3258707,0,167.4933799,-244.4288485,156.7889341,-154.5991896,98.070603,-34.09759239,676.5572998,-136.6106133,233.0333534,0.783621433,0
702.1919995,2742,22.51227321,-31.80431653,1.019023828,-297.2384956,0,-445.8326514,246.9807381,-667.0966927,59.17779006,-59.55514376,85.52679957,-279.4153167,137.0354001,-253.0194114,-57.58356479,0
702.1999995,2742,-33.8191001,22.11473092,-110.5805696,283.0244765,0,364.7723409,-136.5560064,754.4685856,-88.38619523,-4.159354619,-93.39780254,-136.1661091,-106.0798258,57.43044766,150.3492386,0
702.2079995,2743,149.2171754,81.13373999,52.54067303,-200.3526571,0,-328.3246424,-1.619670458,-711.3014473,-41.13757158,85.14720847,94.77838586,579.781007,36.74256832,102.8055169,-119.6366729,0
702.2159995,2743,-134.4397516,-114.4896199,-130.3957192,-7.338465715,0,-12.70163102,125.3628283,279.4957072,9.743681414,-122.3463353,-35.0169734,-738.2915399,36.76799682,-265.4183518,117.2638858,0
702.2239995,2743,84.41357138,91.98869774,-38.37621483,133.0168464,0,171.168762,-255.779522,193.6398403,-163.3786249,98.80344976,-41.61957127,668.698581,-158.0967738,241.1931136,15.40639127,0
702.2319995,2743,14.70648831,-37.21096733,-2.9793002,-289.0133465,0,-441.6955353,234.3241422,-643.0132343,53.67810596,-63.0581833,78.87693378,-278.5587014,128.0075209,-227.3752477,-53.10387458,0
702.2399995,2743,-67.38197866,-11.04539521,-143.2448705,267.1298678,0,369.8353826,-171.0533131,804.4447425,-108.252666,-23.37929474,-113.8193985,-155.1554115,-117.8825085,66.4747498,158.3304048,0
702.2479995,2743,142.7781911,68.3458183,35.00654775,-204.7057375,0,-316.5350486,-21.15068531,-666.4520871,-58.21150454,59.63045664,68.14909861,575.6135799,9.670626627,87.4204202,-115.0371143,0
702.2559995,2743,-138.4006288,-121.2007578,-119.9806142,4.043924618,0,-5.457641809,143.5886154,287.5815427,24.54821682,-136.2283085,-44.13877599,-750.0794954,54.39308891,-257.2757233,115.3332123,0
702.2639995,2743,52.85258582,49.78754064,-34.80090838,143.2560253,0,185.756584,-246.0142791,214.573918,-157.1307667,91.68679507,-51.37507665,652.7613411,-131.8237865,273.3736976,11.51739139,0
702.2719995,2743,-29.90626082,-115.2481071,-0.932083033,-292.9965343,0,-436.2478047,239.1585907,-634.1193589,44.40350364,-84.59543067,65.63871178,-277.7321214,124.0445214,-231.3490942,-57.75228181,0
702.2799995,2743,-155.1786547,-135.0195055,-140.838043,259.7587412,0,376.0927418,-165.7261419,821.9756513,-123.7090741,-67.76388749,-127.2493121,-169.1295358,-117.3232585,46.41117605,162.8968014,0
702.2879995,2743,24.68752059,-95.71160094,42.37863415,-209.8290531,0,-308.4321009,-16.49799923,-654.0838785,-86.25875884,12.36070473,44.60487584,563.8357569,6.021583121,90.55769148,-116.0098681,0
702.2959995,2743,-285.4443932,-333.7894972,-111.9315697,-11.63564389,0,-4.397250897,158.3404368,284.9361634,-9.956545665,-188.0640579,-72.83009566,-783.8664333,46.36684447,-274.7628681,109.3756985,0
702.3039995,2743,-131.5655553,-202.1961477,-49.2903148,120.3861225,0,204.3305282,-262.5654847,251.3623983,-209.4560949,16.54079157,-88.62182922,612.7828163,-149.5814973,240.9432366,15.23601771,0
702.3119995,2743,-194.4558894,-330.6954672,-13.58945107,-312.8520362,0,-424.3473749,218.520575,-617.2869017,-15.96736316,-160.8933411,17.70010018,-318.8050819,85.63430212,-256.7387944,-59.57303333,0
702.3199995,2743,-289.1987106,-283.0014648,-136.486209,257.6215202,0,388.8308626,-161.5021094,829.4072185,-169.3128098,-113.6853545,-175.7009941,-241.1198792,-136.2348762,-0.059798762,153.5119499,0
702.3279995,2743,-70.25886864,-183.1293599,34.13595641,-218.3355112,0,-288.4507606,-35.79802515,-628.4038674,-119.2664419,-16.64310799,1.976192158,521.8485773,2.092693332,44.14605749,-121.9745478,0
702.3359995,2743,-287.8721257,-321.6846885,-120.9673918,-25.26268265,0,-4.085772259,147.9173883,289.9696611,-27.8063651,-208.1148489,-108.9920558,-822.4725111,35.19253183,-280.9939746,103.9997916,0
702.3439995,2743,-63.23148201,-87.23741683,-29.77034806,139.4427254,0,205.5160102,-238.1457195,247.1701521,-199.1869334,45.46963533,-104.5952015,583.1658031,-134.4033282,267.6511665,0.554642732,0
702.3519995,2743,-113.4376,-188.7568579,9.934749441,-299.4748215,0,-428.5029769,241.2354421,-634.8483471,20.39648153,-98.70605095,31.44517249,-304.7085469,126.8742965,-217.7539849,-74.66784147,0
702.3599995,2743,-192.3147081,-149.8034482,-129.9141832,261.966968,0,388.8982198,-153.8177317,835.8367267,-129.1422734,-63.27978305,-150.369085,-231.6471116,-109.8633903,48.01359701,155.9763917,0
702.3679995,2743,50.91303595,-29.91799947,56.68599359,-189.4958739,0,-280.9265716,-25.19008169,-623.1621685,-75.16306665,48.58328735,38.87595421,555.206103,20.98825114,77.44248498,-117.625985,0
702.3759995,2743,-175.9649995,-178.3007835,-93.23771634,-3.120606989,0,-9.159378762,155.9554237,278.0194127,19.05870143,-140.460861,-63.71556639,-780.8233869,43.06959178,-280.8756384,106.7455316,0
702.3839995,2743,32.4152944,11.8219305,-24.73137202,145.5603673,0,205.7112471,-263.6599077,271.8668676,-169.0976897,83.61748895,-73.02954277,622.1503691,-149.6712112,268.6728598,7.040247816,0
702.3919995,2743,-17.74707453,-94.96098612,31.7983201,-294.1595317,0,-439.0318427,226.5893081,-633.7147094,52.31267087,-70.02692644,56.45925582,-256.4659541,141.0972485,-245.007518,-79.43760167,0
702.3999995,2743,-110.290785,-52.1321749,-92.03282668,269.6196599,0,377.9554125,-148.5849128,828.9356885,-89.90539517,-34.82400252,-125.2984616,-202.3206217,-84.34651374,2.021762309,145.509714,0
702.4079995,2743,111.5596245,48.90815388,86.90008991,-188.8799898,0,-282.8896272,-35.28126929,-617.8860882,-52.35353422,68.11595715,61.7054356,600.7194779,21.80367062,81.85464295,-130.5298224,0
702.4159995,2743,-139.1653968,-118.0916891,-65.70082939,-8.934307551,0,-15.05259551,157.1512484,278.227115,36.70903527,-136.4728174,-44.97190054,-747.9693682,59.53567233,-272.008435,97.09993045,0
702.4239995,2743,73.59941471,76.89407083,-2.978408852,154.0964241,0,212.9572388,-252.5662736,289.433031,-151.4532147,91.95106166,-60.93953081,641.8502091,-129.9810093,268.8919104,7.280556897,0
702.4319995,2743,33.30368036,-39.64430484,39.56580365,-288.231589,0,-439.7010615,231.7263826,-635.2332312,62.56198649,-52.25206189,72.590089,-221.9452117,139.1608208,-230.1925295,-80.8572953,0
702.4399995,2743,-101.8929909,-37.0203409,-112.6356101,266.0774611,0,377.0886937,-156.1271965,849.0771274,-88.2443261,-27.43962642,-118.623604,-185.0677781,-100.8411387,18.28061916,150.0324446,0
702.4479995,2743,122.7351356,66.97234823,60.67232814,-192.6525928,0,-285.4580734,-47.70648843,-595.7691534,-62.25514845,67.55970432,49.04552165,626.3448413,4.52053322,87.06265271,-125.0091505,0
702.4559995,2743,-95.47086294,-77.49944986,-67.97524841,-7.738487206,0,-34.71440851,165.5693919,259.350291,40.37179886,-125.0880642,-52.95055558,-741.9282953,61.90395818,-286.1298073,88.22482112,0
702.4639995,2744,79.98244401,103.8787238,1.963391867,162.924081,0,213.8399342,-247.6944413,296.9300041,-134.6164654,114.6979149,-57.40589152,645.3497135,-120.5074069,259.920731,-3.512366463,0
702.4719995,2744,28.69962089,-19.35390306,41.68139948,-295.4774051,0,-438.3361449,226.4285897,-633.9058196,67.61116804,-49.4618575,73.95718198,-196.5160611,137.3668905,-244.5840794,-84.15756125,0
702.4799995,2744,-70.89281125,-3.687094914,-99.34844939,268.9110395,0,377.9751018,-154.8561922,840.7091046,-82.49224515,-26.74418311,-120.3583879,-193.2331978,-95.65913171,4.360675163,146.6623957,0
702.4879995,2744,135.8275274,83.52840241,74.37361117,-182.2844719,0,-268.0274217,-63.54708618,-584.9140862,-53.98163994,85.16574008,59.97068525,633.927722,12.5989549,110.3810062,-132.6468612,0
702.4959995,2744,-107.7158125,-82.28839287,-70.30127526,-22.8877372,0,-21.57141348,126.7641598,284.1483965,29.47559181,-129.8568431,-41.53428544,-725.8081222,36.05891446,-267.2849324,96.82487702,0
702.5039995,2744,82.09271498,101.4261726,-6.923156462,153.2920912,0,234.3007745,-299.4377075,349.2912543,-153.3226761,100.0561826,-57.57558088,649.0790768,-152.1474656,259.5118427,15.09161615,0
702.5119995,2744,41.32135961,-18.859837,27.94411978,-302.9208771,0,-428.8557971,185.956306,-602.585747,59.80797519,-46.75537195,76.85194943,-186.2441896,131.955782,-223.4253166,-86.39860246,0
702.5199995,2744,-57.16609642,4.250286158,-118.074931,260.1372339,0,381.5333778,-176.1153327,867.524943,-91.36102717,-28.15687437,-121.4323085,-198.5150567,-111.2277941,16.23374186,137.0033954,0
702.5279995,2744,146.8316073,94.8960864,68.20037979,-186.3067135,0,-256.7494695,-78.51735454,-558.638698,-54.25979044,83.86794032,57.6181925,641.3056103,-2.172343152,79.70597407,-145.7909508,0
702.5359995,2744,-92.00316569,-65.50833606,-61.86667332,-24.40707367,0,-20.89805102,136.8160948,278.7322173,43.2977334,-124.1265465,-37.31235467,-733.4519368,51.1704751,-300.0493525,72.70365345,0
702.5439995,2744,108.9397572,130.2967008,7.886543298,169.0288261,0,238.9331234,-281.3928547,347.21525,-146.1482849,106.0450757,-53.38348999,636.7328236,-141.4840428,254.5269918,-7.719904723,0
702.5519995,2744,60.08061716,7.220014493,59.62922454,-291.8585446,0,-428.1811928,198.751086,-621.6238977,75.79461895,-32.34297859,88.58122505,-172.3094208,136.2592355,-219.5274067,-107.7962737,0
702.5599995,2744,-41.19001131,34.43585913,-71.92493247,273.3911591,0,384.3844101,-150.8963109,844.9002,-64.74582418,-6.83975211,-106.8322347,-197.0036049,-94.4454288,46.52864267,117.5807468,0
702.5679995,2744,186.5799536,138.2472588,112.3471172,-159.3177718,0,-252.8475957,-46.74180563,-592.2485618,-34.52057552,110.3279691,71.53147669,658.9617972,20.88063027,133.6137282,-163.6673915,0
702.5759995,2744,-64.51807746,-41.48013608,-30.49265295,-2.714678869,0,-22.67699545,163.7083468,228.7280558,65.30805188,-96.90011735,-19.52589297,-715.1419141,88.51267765,-288.6496442,60.27591605,0
702.5839995,2744,109.7574709,138.92347,24.14785105,191.96325,0,252.2199144,-273.5701804,320.0626876,-132.6214362,123.7673138,-41.25564271,652.2867941,-105.3648012,254.3862081,-11.46324496,0
702.5919995,2744,65.68938532,12.24993266,56.24849759,-278.4785504,0,-418.6145582,192.6798435,-655.3583003,78.79617774,-29.47407076,97.21042098,-146.1932581,152.5839744,-216.8444604,-106.5700787,0
702.5999995,2744,-42.10974105,24.22568824,-91.20571258,284.919716,0,401.4203057,-167.5320705,840.5821743,-61.8865745,-14.88995009,-100.6642769,-190.1542931,-99.0377424,16.36014228,135.2979221,0
702.6079995,2744,179.1783908,131.0736963,97.16137148,-148.6817547,0,-235.1583851,-79.03942773,-578.4550655,-40.79806584,103.2534956,73.1655657,682.2813713,0.265303048,126.2872358,-140.5567579,0
702.6159995,2744,-75.33864521,-55.88077564,-44.9108071,-14.80792325,0,-20.9027798,130.7846726,235.1703812,61.93127695,-106.7261404,-21.88573022,-698.6555345,74.2905776,-263.806103,71.47095071,0
702.6239995,2744,91.99712808,115.5690535,9.653649999,178.1701746,0,267.2924286,-301.9070629,355.5744301,-140.2412092,108.6238559,-55.90802512,655.3906581,-132.6299721,275.6799852,-2.498448819,0
702.6319995,2744,49.01793081,-0.913227792,53.8326709,-294.836117,0,-414.4176412,175.4809102,-631.7872557,55.06906369,-43.59229589,79.94466219,-139.8431193,116.4852993,-210.0706583,-99.73579941,0
702.6399995,2744,-47.97322057,19.83599121,-79.38867035,268.957328,0,399.5185954,-169.8092707,866.5273886,-70.56688425,-19.38753553,-112.3990904,-207.3679868,-102.1937631,2.002179467,136.6168634,0
702.6479995,2744,180.5313919,138.3027302,116.3365624,-153.2311475,0,-229.5071237,-70.57417411,-563.6819362,-33.63460978,106.6777968,63.73391204,678.6120113,19.89976352,102.3724572,-144.7428637,0
702.6559995,2744,-84.24247461,-81.82947207,-10.57383548,-183.230195,0,-246.3250329,334.9663323,-152.9828727,145.122351,-154.4501976,42.36035027,-980.7092587,198.0332726,-459.0979651,39.22909518,0
702.6639995,2744,199.8384664,150.595708,122.5407039,-114.4772406,0,-124.3950953,-59.51080306,-531.0048438,-32.31000353,135.7273013,102.3924307,733.2539348,28.56433051,148.8749371,-119.9835288,0
702.6719995,2744,315.8462673,155.8724619,264.4491241,-628.676126,0,-882.2191129,251.6607938,-1934.861789,94.3519829,132.7587891,279.5791205,849.6587867,227.5563803,-44.40319223,-347.231944,0
702.6799995,2744,66.13540975,38.31436839,62.26656886,-158.8250452,0,-198.067187,139.2316187,-387.1400524,56.93244056,-2.635910735,80.42001681,-89.06837595,114.6950909,-147.2991884,-48.1647964,0
702.6879995,2744,134.0685109,102.3210857,89.70000042,-114.4711986,0,-130.9840503,21.35787245,-410.0911593,16.04183514,70.74004196,88.02976404,343.1160006,63.57172408,9.098800006,-75.55474866,0
702.6959995,2744,-49.17820894,9.918180595,-50.65894621,176.2439473,0,284.401413,-16.06697499,610.1838683,17.6803318,-44.86127816,-41.44675935,-396.6712657,4.030463704,-123.8204225,132.4466728,0
702.7039995,2744,118.3484043,118.5986102,47.93304726,64.78989159,0,114.1246003,-140.6297608,49.74395467,-64.82704303,85.12677463,16.90020383,505.0503498,-43.69128859,144.5886998,-14.06287948,0
702.7119995,2744,62.69263549,28.30257013,55.2203172,-181.2817676,0,-254.4495618,169.106363,-421.6193553,60.89822605,-17.35013737,74.34057928,-138.7165609,110.709627,-145.9797154,-50.19505115,0
702.7199995,2745,-45.22375863,28.09344993,-87.73384713,304.8684902,0,448.6072982,-177.8525408,871.8877676,-69.95284435,1.798822803,-101.2138965,-114.4091094,-98.52435739,67.16815921,144.4291914,0
702.7279995,2745,154.1967815,99.11365568,84.80455241,-184.2608097,0,-256.8290908,-17.62918741,-606.6003727,-26.7478145,68.25937626,84.13493374,559.1665765,27.98710183,40.34169483,-124.487627,0
702.7359995,2745,-81.78163955,-43.40354536,-63.77033781,64.96214326,0,98.56319186,88.98047464,410.9660067,27.95404999,-105.2610971,-40.03819535,-614.8722527,19.97349755,-222.8813067,108.3016191,0
702.7439995,2745,68.45971144,90.3922353,2.834489274,159.9606282,0,224.0102684,-222.1460284,296.7828485,-109.6791868,95.01639847,-35.48754607,569.3661235,-127.9703868,239.7024863,7.387673123,0
702.7519995,2745,7.285717269,-39.91603489,34.74390127,-249.3759344,0,-368.0493542,205.547845,-556.1983993,49.72414525,-41.21313284,72.15568124,-141.0801151,105.3564495,-196.3737069,-82.87636781,0
702.7599995,2745,-118.9384618,-54.98954275,-110.9558459,286.6696559,0,396.7973112,-122.2434532,862.8528359,-89.22668148,-40.37432532,-121.0043633,-237.236972,-100.0685461,17.36397694,137.6182973,0
702.7679995,2745,82.46477465,0.494619705,73.71023769,-146.2598185,0,-247.1548468,-15.32380706,-578.0480739,-50.13257789,75.14436794,56.83295557,604.7620465,19.42711491,151.1786575,-144.1662596,0
702.7759995,2745,-233.1361244,-258.9776749,-78.05101198,8.746782748,0,-15.14891063,174.1824475,240.5990495,30.17437352,-137.5947278,-48.09559808,-728.1131342,78.95486016,-225.1789683,63.55019165,0
702.7839995,2745,-135.6269408,-163.7138147,-27.42797383,192.4417706,0,246.0205411,-234.4306171,337.6171015,-171.5350679,41.150581,-85.06950816,530.5033946,-118.6946303,252.8269581,-4.540250675,0
702.7919995,2745,-165.4464016,-282.1291025,32.91249784,-272.3364686,0,-420.6862893,216.2889564,-659.0908194,17.98842243,-110.0098474,41.25710838,-190.8224886,127.860463,-167.825167,-109.8797145,0
702.7999995,2745,-289.8306598,-277.1777849,-113.8719443,265.9115023,0,367.2180684,-114.8211122,808.0920799,-108.6989689,-105.0818923,-154.886713,-337.1934693,-87.76737113,32.92011295,119.4318302,0
702.8079995,2745,-76.82156102,-158.8530242,73.89797922,-144.8099135,0,-227.6359601,-56.15801045,-568.1400409,-99.847583,30.59823124,12.38411656,590.5753459,-1.591241441,148.7709347,-154.7575203,0
702.8159995,2745,-309.0847171,-325.3233325,-72.23380354,-33.92651593,0,-44.89905683,159.5860097,184.2210295,6.969821434,-187.8065137,-73.22121785,-792.1636886,65.05340754,-262.5056763,58.00989075,0
702.8239995,2745,-111.4859195,-117.191331,-28.57195376,187.6686679,0,267.1315474,-272.7967799,372.577707,-189.0817373,27.15753368,-110.4446132,509.8836076,-144.8014476,250.8714271,1.081945881,0
702.8319995,2745,-118.5999546,-196.1407175,37.46720994,-295.1623845,0,-430.9722848,197.7521341,-679.5672945,12.68647511,-86.1860838,33.67733328,-185.223911,119.0961924,-191.1212314,-120.097193,0
702.8399995,2745,-241.7684903,-190.5968734,-128.7452264,244.2960846,0,371.0137865,-144.7577669,835.0724864,-109.452532,-91.01981096,-156.2062744,-337.6102169,-103.8716598,1.213772823,127.9295965,0
702.8479995,2745,20.86251092,-37.59103463,47.37306108,-159.1142972,0,-221.1602576,-93.61631161,-530.214598,-106.5388296,33.26147087,13.82316112,616.860192,-24.02876785,111.7551478,-141.1453492,0
702.8559995,2745,-200.8312659,-193.8162899,-88.84380056,-47.56581637,0,-61.75398458,154.5558536,179.3171383,24.56097135,-164.0116454,-61.29823726,-785.9115608,62.9746001,-302.8371771,53.40053706,0
702.8639995,2745,-26.52818485,-2.759728978,-45.77463888,187.6307519,0,273.8811285,-294.9614622,413.769309,-156.7710229,58.59891114,-97.56811242,530.5042725,-151.6386978,256.6197657,3.156752231,0
702.8719995,2745,-37.20352002,-93.60961441,12.12497292,-315.992892,0,-439.0278928,167.1914918,-656.6775931,28.40109547,-74.30476862,49.03740272,-152.0487666,103.5441427,-195.0687058,-119.4034252,0
702.8799995,2745,-154.8363844,-90.71024273,-150.2815857,240.0457228,0,374.9416921,-157.5213451,873.9375162,-103.6548922,-77.4029147,-145.6530315,-324.3463309,-116.2933495,-18.08522484,124.4978899,0
702.8879995,2745,110.713031,64.39501734,47.59967358,-146.9426718,0,-209.7932794,-93.51489013,-494.8309933,-82.5627612,62.11755133,23.90654418,643.2149926,-24.44185321,123.3258865,-145.862776,0
702.8959995,2745,-135.5709774,-104.993152,-77.91160571,-50.81450613,0,-66.32763906,174.0936002,182.1924067,52.20008598,-135.5926433,-48.14501983,-772.5644332,69.83749018,-286.001261,45.76661971,0
702.9039995,2745,39.90185452,81.05150436,-30.48791076,198.0001009,0,291.7021749,-265.8381829,433.5478583,-148.6854607,82.17246053,-88.81821389,537.7025108,-152.8725032,283.5632949,1.369362969,0
702.9119995,2745,54.78335442,5.802186583,48.99210609,-289.17215,0,-426.2962783,208.4804182,-679.5870058,55.19967384,-37.64684366,65.78597258,-134.7295901,127.7845527,-163.4368163,-127.7364948,0
702.9199995,2745,-88.71573401,-4.01029683,-107.8202115,274.2412646,0,382.4682191,-125.0233642,846.6835596,-56.53239867,-22.96941669,-114.4838025,-313.7301883,-67.07495911,-8.603619995,112.8153664,0
702.9279995,2745,160.1690835,121.7332733,68.16231351,-119.4583356,0,-192.1908087,-102.9751715,-494.5998245,-61.7231337,103.1390388,55.941707,686.594439,-10.50970007,136.6125089,-145.304318,0
702.9359995,2745,-89.45557575,-64.68361138,-76.43549144,-39.6050258,0,-57.72927884,144.8472928,178.0753475,55.63685041,-122.1310358,-29.13321672,-735.0764983,67.78300765,-273.0872566,54.12061965,0
702.9439995,2745,49.86234406,104.8884627,-32.66628788,208.7406754,0,303.5284962,-298.7986246,457.7285881,-140.8440815,94.13814035,-81.2934502,556.6070992,-147.46796,270.1108113,7.754148458,0
702.9519995,2745,63.98694427,29.60079649,49.72683263,-286.4357707,0,-421.566198,190.6443261,-664.2905823,61.06506547,-27.56026406,66.6025751,-103.8058671,119.2272548,-187.1419088,-122.865096,0
702.9599995,2745,-74.41896399,14.40170266,-115.4648208,268.5020211,0,388.7191525,-125.5851355,862.4718226,-60.15953784,-23.63552781,-127.4288555,-305.1190273,-69.12416818,-5.444954258,123.1409432,0
702.9679995,2745,149.3701643,121.5333742,55.86618965,-129.7826373,0,-184.9055288,-101.2930934,-473.5686828,-75.17332183,103.7478325,33.57859615,692.2478543,-7.065503251,153.908435,-144.9118521,0
702.9759995,2746,-87.20918965,-60.45674671,-83.61519795,-52.9543104,0,-64.47765672,157.7880098,182.1376525,48.71758485,-123.9441978,-47.53846304,-738.576354,61.85133923,-263.316024,47.59269806,0
702.9839995,2746,80.39241911,123.5186863,-41.03501018,207.2766946,0,311.1694967,-300.0866329,485.5299727,-145.0165354,90.1613075,-90.29391666,555.943919,-148.1632036,296.5787851,13.99739923,0
702.9919995,2746,93.43359389,54.35444153,54.48301475,-282.9368833,0,-419.4517495,187.7399209,-656.1256951,57.09845733,-20.91603099,67.66673583,-84.55178238,128.4129307,-159.0491652,-121.9269028,0
702.9999995,2746,-68.89075468,34.84361695,-105.5791079,272.6594619,0,383.0987653,-116.6159754,860.9714622,-48.99855283,-12.12369266,-126.0369098,-309.4867167,-71.14689038,13.56037261,115.2212481,0
703.0079995,2746,144.4840886,136.0565164,59.48929114,-126.9843106,0,-178.4581196,-111.4227925,-454.9119971,-60.6953923,109.2087672,39.8858604,700.3884371,-16.8652371,161.5678021,-144.91351,0
703.0159995,2746,-74.8156189,-37.10695675,-56.30749456,-46.43185309,0,-64.94157764,167.5377244,182.581652,65.35560501,-115.0219433,-26.45058864,-727.089355,79.11240515,-299.8112697,53.01774603,0
703.0239995,2746,85.12363614,141.4406937,-14.33992457,218.429211,0,310.4814179,-273.1602843,488.0941309,-128.9731293,103.0972398,-71.53176893,556.6863289,-129.4855517,257.8112203,15.92817427,0
703.0319995,2746,75.64469419,44.56078644,54.02298375,-289.3699756,0,-425.605399,195.7742965,-653.0351773,64.84532588,-25.76771639,80.76292567,-74.49808483,128.9856736,-159.7002902,-123.9441947,0
703.0399995,2746,-71.48581285,26.80292711,-97.83968002,271.8685819,0,376.6164906,-108.4666281,872.8566156,-43.38014227,-29.15644022,-111.0695852,-315.4428996,-69.0406792,16.53727651,119.3463942,0
703.0479995,2746,163.3983589,146.1378176,76.26252661,-117.4433735,0,-178.4115084,-101.8926929,-447.3197862,-58.16665894,105.9883253,53.19425452,712.8397869,-10.16736553,196.6191864,-142.3318839,0
703.0559995,2746,-62.17780778,-27.94217443,-60.82740849,-47.38826561,0,-70.2988066,170.508327,170.3117725,66.3389152,-118.9229973,-18.0939838,-713.3018797,81.75690383,-223.3006483,53.34115615,0
703.0639995,2746,111.8686313,160.8566065,-8.508526117,236.6671065,0,313.443468,-270.3405477,479.5313998,-118.0576869,104.2264819,-64.42629837,550.7566864,-128.0166545,304.1190462,13.58458791,0
703.0719995,2746,102.6053917,60.25802754,88.60720987,-271.5277628,0,-421.723971,195.8620313,-678.5962631,84.89388507,-5.478883016,101.1527466,-71.449147,153.8632816,-148.6635915,-131.1053447,0
703.0799995,2746,-82.25081522,14.02157096,-87.02747275,268.5290376,0,388.4821321,-132.9244187,874.2511183,-40.19367891,-29.49058191,-91.40004988,-319.5003725,-56.59817603,19.9161161,133.9388954,0
703.0879995,2746,164.81409,140.7395874,79.43359303,-110.3769254,0,-163.3200865,-125.1664612,-439.6856765,-63.02420912,92.8853876,57.11285481,711.4661397,-23.60192507,181.6645962,-125.9568737,0
703.0959995,2746,-58.41945451,-32.84195176,-44.87077716,-39.20262914,0,-68.47789376,168.6581227,152.9238158,71.26820822,-119.9933805,-17.21982566,-726.674813,80.95687923,-262.8487913,55.51132281,0
703.1039995,2746,83.74020905,138.7941428,-21.65116516,234.6666139,0,326.7265364,-290.6047417,498.4745943,-125.3896507,97.62665875,-68.62935793,542.4752406,-137.4175278,287.1995402,30.17718046,0
703.1119995,2746,112.7533967,67.16684797,71.16204251,-270.1260884,0,-417.6195536,188.4780704,-679.9737744,74.22623883,-12.51015059,89.98464081,-58.48822978,136.4959887,-131.0805878,-111.641525,0
703.1199995,2746,-35.46703849,46.59027813,-71.54905279,288.9884516,0,382.5794695,-93.63066276,842.3218822,-18.42345489,-8.952007875,-100.6180667,-329.1512175,-42.14361806,48.69782834,137.46162,0
703.1279995,2746,176.2267731,154.8917199,97.57130186,-94.20675373,0,-160.7582492,-90.02104342,-464.6005137,-28.07872723,129.4265972,59.99587178,718.6930781,5.986736321,212.9241925,-126.1510869,0
703.1359995,2746,-46.57224237,-55.93502467,6.271036386,-232.6898913,0,-351.7325617,366.1678911,-324.3099798,165.6270487,-144.2304781,48.12376754,-926.1008472,198.6623516,-410.925071,6.867778556,0
703.1439995,2746,206.5300128,172.9284077,114.0479885,-79.62464325,0,-145.2580011,-93.70267141,-445.4248001,-36.38311469,122.5219473,46.38602733,732.8348604,5.301284282,224.5259492,-120.556547,0
703.1519995,2746,345.5550101,196.9488233,258.8487792,-583.5517962,0,-874.641321,158.4302063,-1866.484395,57.78835938,143.5784003,229.082083,1045.973503,180.4026724,103.2000222,-359.2916155,0
703.1599995,2746,88.00954563,62.64787103,66.15929768,-165.8117503,0,-263.2786362,133.3547587,-426.2696247,62.12728203,-6.944497775,52.05001579,-59.75862566,103.6584915,-84.66723007,-65.26086181,0
703.1679995,2746,128.779754,104.2972446,75.70225373,-100.8439872,0,-165.6893676,-6.476598293,-370.776227,4.239217741,61.60795169,41.92782352,348.5464956,39.92107398,87.56365105,-84.87057542,0
703.1759995,2746,-69.2837869,-9.989959254,-67.08417138,151.7137237,0,214.2866765,8.103386372,568.602432,11.12813893,-67.22815825,-73.03023785,-496.4108633,-8.314888038,-84.04399154,119.7722028,0
703.1839995,2746,98.40166802,118.9227905,31.45768089,92.17149998,0,126.1857183,-160.4555907,135.3409997,-73.9643871,65.38257561,-26.65031894,431.5496304,-71.30318751,208.3664234,-2.785864072,0
703.1919995,2746,42.42454305,14.16105109,49.6230812,-208.9274788,0,-288.6720045,121.9710219,-426.4071831,52.00079397,-33.62237693,52.64588066,-109.1263162,96.72047797,-93.75115969,-57.17866437,0
703.1999995,2746,-73.54447135,7.17945666,-89.62138811,276.7143582,0,416.6366796,-171.4599353,908.2539794,-70.25801704,-43.11498239,-128.0767374,-264.2484927,-103.6464022,37.63117502,160.1212862,0
703.2079995,2746,192.9920438,154.0696769,120.2857428,-136.6326747,0,-229.3681626,-36.05203595,-553.4270917,-27.43365526,78.9689388,51.96662185,581.0959144,14.92738739,115.2907445,-124.6291933,0
703.2159995,2746,-52.7893418,-14.99031392,-18.48398682,55.0671976,0,45.54702983,137.4369244,311.3304424,76.97738917,-79.75849888,-28.975556,-660.2161586,68.70680103,-180.5540282,87.81455028,0
703.2239995,2746,90.55679419,132.5964635,25.57445583,209.3628243,0,275.8302534,-234.1379834,396.8029077,-92.92444625,95.35923882,-46.6499236,483.062272,-106.2421651,283.1489885,35.43447567,0
703.2319995,2747,95.46121901,64.76072544,96.10718541,-232.2740717,0,-366.0640864,175.5245659,-603.2601211,70.84044731,-11.7961731,83.23392129,-63.03883735,128.4439599,-100.1907309,-91.33327638,0
703.2399995,2747,-50.53160306,37.19723085,-59.66705353,288.5427862,0,394.5645645,-105.7222448,862.6142061,-31.94262457,-14.85143257,-100.025159,-331.8133989,-54.42023969,45.64754056,151.3521358,0
703.2479995,2747,184.9532017,153.5421269,111.0323046,-92.71342832,0,-160.6114533,-91.36158448,-463.624213,-42.36298949,119.4699081,63.83613492,674.2013521,9.991401753,204.7126523,-110.576857,0
703.2559995,2747,-82.75278113,-50.9832631,-38.42323569,-17.53688399,0,-26.19448286,141.7799425,194.9402538,67.82935204,-104.9109085,-6.323988199,-689.8621022,80.48057944,-236.4681574,83.6383907,0
703.2639995,2747,65.52553901,114.5584743,-3.044222722,230.1216199,0,333.7031503,-286.320988,505.1650124,-122.9766438,81.8784486,-62.22820568,496.5471836,-137.3640932,241.3042322,60.74579349,0
703.2719995,2747,104.3201554,59.14245201,103.1758723,-248.5044104,0,-382.0227927,170.5294332,-645.2329869,67.03149837,-12.4188304,87.85844147,-39.79416487,123.5085073,-147.4737624,-89.74451746,0
703.2799995,2747,-50.02279587,35.77931589,-47.09802212,281.8172518,0,385.0294336,-91.7554609,834.8955688,-26.98716593,-27.60448197,-96.24383253,-362.9618272,-56.70361612,11.82264204,152.1120128,0
703.2879995,2747,182.4776905,161.1945327,133.1061078,-73.74944119,0,-134.4333865,-98.03697709,-447.6953123,-41.26779219,125.9583412,61.98304688,699.8924493,2.00266312,215.8697536,-115.6510507,0
703.2959995,2747,-78.84428022,-56.13919751,-6.752993828,-43.32109408,0,-60.66931636,166.2925371,122.8132446,77.79946392,-105.9321936,4.287211998,-707.4500414,96.92382971,-247.2178988,70.6099721,0
703.3039995,2747,67.81714236,117.0944865,8.10653036,228.2784055,0,349.2407423,-293.4891581,529.5097145,-132.2395104,80.67440711,-67.72716891,500.3432618,-140.3045522,284.7747186,59.18788948,0
703.3119995,2747,91.03298574,49.22799752,96.20531992,-283.4964448,0,-400.4823013,171.286942,-671.0100888,71.28791528,-11.23106127,88.92430919,-34.98892845,120.7648615,-93.8572193,-103.8202305,0
703.3199995,2747,-79.39710739,-11.06106465,-82.59646078,253.6475094,0,384.1125716,-119.0571754,868.2105113,-36.29162049,-47.75531464,-100.9863549,-378.1254738,-82.22460729,22.5690585,155.4402264,0
703.3279995,2747,182.0170064,138.9108891,105.7782028,-86.02811527,0,-123.2224607,-132.5789287,-397.6197891,-68.94653088,93.64884921,43.41754684,710.3646084,-35.04804771,187.7751879,-107.5341142,0
703.3359995,2747,-63.78840427,-41.31750136,-17.91742184,-57.2038778,0,-78.58334465,180.2133915,110.2297402,86.04350248,-119.3207054,-9.32812408,-724.2689412,88.80337417,-280.2194122,64.55736164,0
703.3439995,2747,56.98221058,106.9640119,-20.10025057,234.5637211,0,355.9276217,-293.4834431,553.8118385,-122.5677521,78.98887904,-75.44322249,486.3664424,-146.6722791,274.8882267,56.20248572,0
703.3519995,2747,80.97742915,32.58696281,77.63415645,-283.7491206,0,-391.5106547,166.6253995,-672.5678165,58.26211607,-23.00030736,78.56740351,-31.78872006,109.5204178,-132.0494111,-113.1490147,0
703.3599995,2747,-80.60486198,0.776141694,-86.52617517,262.934676,0,421.9433439,-99.80005637,871.1481729,-34.27074625,-49.54835737,-114.533077,-389.7771896,-88.69509596,-10.6930579,147.4502285,0
703.3679995,2747,196.5802869,168.1774425,109.0638533,-68.22377764,0,-49.81083336,-104.8891354,-388.2911526,-48.38745229,114.5135866,48.6587548,720.365564,-27.82629525,221.9650776,-106.1491376,0
703.3759995,2747,-6.51182106,6.31713985,23.34918776,-33.6932512,0,-2.46717947,230.2174113,78.94276813,130.1875227,-75.32628129,14.42128265,-719.2855935,133.8113976,-226.7951237,60.08950847,0
703.3839995,2747,105.9316457,142.0354731,32.31486918,270.430643,0,436.8669007,-250.5717123,542.5159648,-70.36226122,127.2598639,-51.04104684,486.7866577,-96.74389575,318.6737077,55.58073179,0
703.3919995,2747,109.2215417,58.99710009,121.6993141,-261.7180061,0,-345.1516919,197.4499064,-696.0364444,89.89872574,0.90572573,106.4948591,-11.73096936,145.566544,-90.84068274,-101.9263184,0
703.3999995,2747,-45.60813943,36.72547237,-36.44704614,285.76989,0,428.0936021,-58.83853232,828.599445,6.330891031,-24.37779932,-81.41728316,-383.9151241,-39.8059495,18.96525272,153.6300706,0
703.4079995,2747,187.4231297,155.5185591,116.0412046,-56.0588463,0,-71.13286145,-103.6219621,-405.4284834,-25.86679226,127.7868599,74.78707738,743.9676788,-7.94823511,217.324792,-103.0418884,0
703.4159995,2747,-54.398762,-34.24948264,-5.730343627,-43.17784432,0,-52.70991088,206.8690085,67.11378872,99.26242592,-104.0264122,16.81608068,-697.2036883,103.9929453,-260.6662323,70.06696877,0
703.4239995,2747,86.31532137,136.6363484,23.50311339,274.9839702,0,396.2208888,-256.2011123,532.4124115,-98.27386032,110.1546737,-62.9818952,490.2474842,-131.7493177,297.9556245,60.56595389,0
703.4319995,2747,104.9237106,49.93047698,108.5703997,-262.2564949,0,-375.888564,190.3105484,-711.9941992,72.46706906,6.488989832,99.39784453,3.558674012,120.0632655,-120.5431269,-105.3802951,0
703.4399995,2747,-60.78660901,19.8944619,-53.43615762,281.0527321,0,402.9801216,-64.02303363,822.4903314,-19.317159,-24.27401789,-94.1044971,-389.9927299,-55.63382387,-7.631256595,158.3523681,0
703.4479995,2747,183.8276102,163.3980626,128.8053678,-51.54537279,0,-88.20999135,-99.30790395,-412.8556268,-33.50000997,136.8358934,60.01388875,735.0648177,-9.93686096,239.600563,-97.59571418,0
703.4559995,2747,-56.81589778,-35.69230759,-1.283535278,-54.63942391,0,-76.065893,204.1961902,50.52929895,96.7782685,-100.954037,11.58489281,-705.3572984,94.5479034,-259.4711012,68.94002336,0
703.4639995,2747,67.6777052,123.1440695,6.000657774,265.5317448,0,386.6306461,-268.9102999,548.7703847,-104.5265198,99.05632791,-64.74221997,479.7543769,-146.6687195,269.2083959,65.39996368,0
703.4719995,2747,72.84509509,26.9961531,91.32101013,-275.8927304,0,-381.7749199,175.6875609,-686.3313283,69.58561646,-8.630837074,101.5612903,12.02200365,114.502631,-115.3592081,-96.2861085,0
703.4799995,2747,-91.23248467,-21.48367265,-90.77167384,247.2365397,0,386.9858779,-93.95088448,864.3846426,-46.9142401,-68.55009415,-97.4476615,-392.6741676,-91.04935783,-11.85980103,174.1758048,0
703.4879995,2748,180.3769213,143.8269706,86.91736695,-76.97067207,0,-108.9974247,-128.4203207,-377.1151836,-60.54475653,93.6724912,48.81386542,728.2440838,-53.31733491,207.822274,-90.52849502,0
703.4959995,2748,-59.22088483,-40.43957777,-22.79404706,-68.74622582,0,-101.5229024,202.4662634,53.82152198,94.1842072,-116.0946594,5.689856501,-722.3004186,92.77663601,-276.5491947,62.42024182,0
703.5039995,2748,60.50063825,113.8662708,-6.190101451,254.8152115,0,369.9285254,-270.8411164,569.6232673,-118.8122159,81.15339477,-68.70863859,457.0272693,-151.7900495,270.8455229,64.56928061,0
703.5119995,2748,91.9372519,43.13878838,94.67316499,-279.4894565,0,-408.6620416,179.7684874,-696.1576479,69.19487603,-10.66989754,100.8959235,1.487434133,101.5419888,-99.77022943,-108.1777115,0
703.5199995,2748,-79.76521434,0.785897278,-88.38536744,255.1497588,0,358.4360343,-77.58884437,834.5595011,-16.84293348,-45.50247542,-89.80638952,-412.4798005,-71.97359138,-2.058478434,152.812726,0
703.5279995,2748,164.0725575,135.626255,68.00477096,-72.57869122,0,-121.6716785,-132.9707788,-373.3505593,-55.22974075,109.0110987,57.75778815,725.2138488,-35.50129225,198.0244346,-104.533455,0
703.5359995,2748,-60.19409301,-42.68202853,-40.49618337,-69.23914233,0,-121.7274557,204.5347898,50.23976763,83.87048193,-111.5545712,10.57483596,-724.1463797,89.26813948,-284.8120912,51.1164388,0
703.5439995,2748,73.91857516,134.0731123,-22.61711816,262.733034,0,348.6779606,-252.5753319,555.8071154,-106.5547034,91.09983366,-66.1082787,447.6333246,-138.7853877,289.64452,51.79434197,0
703.5519995,2748,84.76434897,42.58985542,61.8172189,-284.9363608,0,-429.4482557,183.0536258,-711.4867581,84.0038168,1.111607316,106.3699395,3.082643455,131.6237764,-80.32650298,-124.5754023,0
703.5599995,2748,-94.84446089,-5.702922358,-114.7594273,249.6047836,0,347.1104203,-73.9173193,834.1041758,-19.37898904,-40.43933339,-88.50377311,-424.9533195,-62.1127145,-11.70538321,143.4810284,0
703.5679995,2748,162.9624559,148.1307492,70.32300265,-69.31816335,0,-120.6421869,-125.2366273,-374.4290012,-57.05811572,114.6505847,54.37031412,735.1036807,-37.79452698,208.3229152,-105.6749938,0
703.5759995,2748,-72.5263952,-60.36471041,-40.75203011,-85.20345937,0,-124.8356531,188.2363927,51.9895547,88.35883372,-113.014836,12.19514099,-704.4429718,98.52735242,-253.3674326,57.03980357,0
703.5839995,2748,63.70056516,105.8260869,-34.54128213,249.0909936,0,349.7257045,-286.8804681,588.239076,-117.5085132,76.49604562,-67.82867573,454.5464812,-143.2640422,269.9998673,68.68204329,0
703.5919995,2748,91.09838039,40.33004612,67.84736161,-290.9225815,0,-439.6422264,164.7050471,-704.4727143,73.14633914,-13.64078407,101.8888828,17.9773371,108.9140875,-137.1099076,-114.2102503,0
703.5999995,2748,-107.4966851,-23.51649051,-98.93451431,239.898721,0,331.7626518,-81.68615978,843.1577092,-22.88315956,-58.18385427,-83.00182488,-427.9386954,-81.87356906,-37.86559519,152.5334345,0
703.6079995,2748,174.8055171,156.0996346,98.62786678,-63.78590327,0,-139.2115035,-114.6960183,-376.3643833,-53.0233989,103.9053117,68.8174957,731.8033249,-31.95912985,194.2023001,-97.19731787,0
703.6159995,2748,-41.76415514,-20.054141,-1.189652876,-67.01162708,0,-155.7041591,233.863579,-0.962068636,120.6308911,-91.97652102,30.95730844,-710.8991659,140.5478501,-277.3318449,45.84822936,0
703.6239995,2748,138.08591,174.365972,22.9985877,276.1168299,0,355.9760725,-388.5613989,436.359257,-156.5995043,182.7731418,-33.79368334,997.1280358,-171.3618664,464.1773111,5.904785856,0
703.6319995,2748,337.2674699,180.5594673,245.7558152,-580.8759154,0,-880.067048,106.0124783,-1863.364744,23.03773065,146.6114216,257.8600205,1206.894677,139.3308938,143.5233443,-360.9335144,0
703.6399995,2748,69.50884121,23.76038537,69.69725193,-262.9411148,0,-419.2759831,189.8709885,-654.5366103,78.95128442,-23.63738101,110.3328917,-68.12359732,134.2258827,-128.7943679,-99.87296471,0
703.6479995,2748,101.343748,96.22850157,41.7349325,3.338195937,0,-36.97251508,-97.80073012,-120.2967792,-36.92773047,70.0405423,36.16571904,446.056152,-22.57631674,141.7916697,-47.51942025,0
703.6559995,2748,-68.77992616,-30.50353871,-56.04716534,65.478318,0,52.09707242,95.20019572,338.5479145,56.89666518,-88.79084768,-19.72570828,-594.0311443,45.03697662,-190.0170683,87.2368993,0
703.6639995,2748,73.46034527,88.06178781,2.889755231,120.6216686,0,137.948004,-164.8280622,201.5917109,-61.54599053,73.12663452,-5.053062101,397.4736332,-62.42236023,194.4391996,8.882797961,0
703.6719995,2748,43.35680769,9.724904072,31.09981112,-182.0437711,0,-289.5910702,115.1515238,-436.0325964,57.195275,-19.86731067,77.08918472,-39.97191848,91.06953921,-89.57191407,-63.83479503,0
703.6799995,2748,-103.7564227,-25.25561282,-109.7711479,232.9695818,0,317.6399462,-86.86498578,767.8200867,-20.29097176,-58.57054403,-84.00566551,-383.8785494,-59.4424969,-39.95702953,133.8119911,0
703.6879995,2748,132.6114788,112.6729384,53.21168366,-95.0702587,0,-158.9844485,-106.7703859,-422.5109781,-52.8519898,93.33275306,59.32269054,658.1211353,-18.24836643,177.2327124,-111.7874982,0
703.6959995,2748,-94.22246321,-67.51968791,-66.86241573,-27.12047697,0,-51.86220237,148.4096425,163.7164618,67.10930579,-106.4585403,-4.667285772,-692.6082295,80.93724211,-230.6404935,65.02890995,0
703.7039995,2748,34.14585117,68.06114856,-45.45260712,209.1450924,0,293.5913551,-256.9723221,475.8878895,-104.3147127,65.55315639,-45.70714743,400.5699896,-114.5828371,225.8322956,47.30483277,0
703.7119995,2748,59.92441205,13.572693,34.93367501,-249.6212632,0,-379.4564855,133.0716849,-618.7134788,62.59911728,-18.48342142,92.90988155,-4.456758152,104.4538513,-97.045388,-99.37803758,0
703.7199995,2748,-108.9132428,-31.73610407,-104.591285,237.6900403,0,326.860974,-76.07915504,796.7168336,-16.21233301,-56.14716515,-94.02570205,-452.0768652,-56.20057433,-16.50231006,138.4831658,0
703.7279995,2748,137.4273239,108.2292196,64.23404536,-62.94025097,0,-114.5764965,-138.7288906,-357.2539535,-63.16048633,101.1961631,50.94548181,698.0993853,-29.28896449,200.1268138,-104.1762132,0
703.7359995,2748,-89.84583113,-73.59798253,-57.98552092,-58.65902344,0,-111.6429842,166.9572277,61.92975186,79.2898129,-117.1281061,8.165222422,-710.4860696,93.13398471,-283.9824959,55.63333611,0
703.7439995,2749,11.12661074,71.20833755,-41.72785906,251.6140331,0,347.1660246,-284.6484384,573.2670294,-112.9670905,70.49367191,-63.61454807,398.6217357,-133.522742,243.7808335,60.22678195,0
703.7519995,2749,62.5925356,18.01056089,67.2510075,-261.3165865,0,-393.8592238,144.1355318,-659.6401083,64.67394065,-14.711278,102.224867,26.84058049,120.1313184,-106.9214379,-109.5259224,0
703.7599995,2749,-95.88468604,-23.89348819,-82.5253727,251.9082952,0,339.5830311,-55.81325934,809.8899036,-10.51118935,-57.35592061,-84.58881969,-462.7759108,-39.87601761,-59.55595629,146.3999429,0
703.7679995,2749,132.568026,111.9829122,83.26011729,-42.70467596,0,-88.40458486,-133.7718437,-332.0324441,-52.89695822,115.0024018,55.38956392,723.4113904,-25.28191095,206.1714694,-100.8728776,0
703.7759995,2749,-103.9832058,-92.27389645,-49.11168853,-82.65640593,0,-125.6733536,181.7090294,35.34032639,89.55285058,-131.4789857,16.83825027,-708.1609017,94.17620013,-292.3679668,54.40652359,0
703.7839995,2749,27.21083548,71.95448709,-38.13501679,269.3764668,0,376.9108537,-279.7133393,620.7471088,-118.4420721,49.07904495,-73.51626973,396.2477774,-154.9228297,234.3821639,75.88899795,0
703.7919995,2749,79.28815883,27.34312258,83.46183999,-255.7522506,0,-400.9743037,169.523821,-694.5651376,76.1924825,-14.96464051,101.3830803,31.73992508,129.7241909,-106.3939509,-111.0153585,0
703.7999995,2749,-122.5517265,-39.81262343,-97.90856143,251.2484488,0,343.2646139,-54.94619622,813.4567908,-3.099211837,-65.40828279,-88.43473597,-479.8966092,-28.07067499,-60.97372945,148.4703705,0
703.8079995,2749,134.7876816,117.2773428,75.07375478,-40.15065296,0,-83.09900898,-138.0386521,-328.7493818,-65.63761333,101.0794366,42.38344624,722.9187735,-38.97409499,203.384559,-96.88939148,0
703.8159995,2749,-80.99890764,-65.54943914,-25.62645198,-76.43022847,0,-139.0649253,207.1721042,-7.396117643,87.25097302,-126.7331553,13.32586342,-718.1120127,105.1744485,-285.9604262,48.40411067,0
703.8239995,2749,20.79328807,77.33390322,-25.82357939,279.987027,0,379.7036612,-265.3527461,607.4598752,-102.593192,73.9977133,-71.85665377,378.688797,-121.1202431,262.8208281,64.84756541,0
703.8319995,2749,64.0604031,14.00855783,85.79216048,-274.6810143,0,-412.0294559,168.4592728,-720.4138416,77.02159669,-4.370139702,96.54147968,28.52159262,129.3012833,-83.28640298,-122.2575953,0
703.8399995,2749,-142.2341855,-64.18876543,-107.7083981,229.5205681,0,335.7587632,-74.07495341,819.3690966,-32.64977203,-86.68161636,-101.2140072,-494.4760464,-71.6201168,-57.92657413,151.5980083,0
703.8479995,2749,133.4390405,109.7275864,76.92232521,-39.29463346,0,-83.01497476,-149.8616324,-324.3560699,-75.27501812,94.09032996,34.03195159,715.227801,-50.77750237,203.8538075,-98.78743918,0
703.8559995,2749,-76.75250208,-58.07327842,-4.852047883,-76.17465901,0,-148.3818548,220.7153861,-40.39338735,107.1100611,-111.2767554,8.126777053,-724.6299346,136.7146996,-283.3222791,36.08289692,0
703.8639995,2749,-2.539125925,60.27409233,-33.36438478,269.149522,0,379.5858304,-288.4043308,610.7795927,-118.3249619,63.73579042,-81.43891097,377.4900614,-127.5183823,234.1664597,66.56703657,0
703.8719995,2749,62.67622115,8.995988163,82.86242985,-278.8440896,0,-409.5990013,135.9152774,-720.7827636,54.99846602,-14.31315819,90.6928951,40.03019681,107.5581928,-123.0647748,-120.9216965,0
703.8799995,2749,-121.4894575,-39.30982996,-82.70525583,242.5362576,0,344.1772961,-72.87696611,805.2906403,-15.88200201,-55.04074741,-98.84009598,-496.4712515,-53.06520697,-42.02820011,145.5903392,0
703.8879995,2749,124.7433058,111.0204183,79.22763496,-41.53216043,0,-68.88930842,-172.8833127,-313.6101292,-77.18228099,116.0344665,40.89502606,731.4380491,-48.21600292,221.0753603,-96.46798282,0
703.8959995,2749,-101.5235751,-82.29080729,-21.04664026,-98.45990631,0,-140.7867077,180.8703372,-11.36913716,84.46763637,-121.6499098,12.91372112,-708.5230845,102.5448527,-293.2630044,49.23639117,0
703.9039995,2749,-25.74188246,44.23237878,-35.60339124,262.8099569,0,396.0759575,-309.4035858,661.280412,-130.459876,54.72116667,-84.74373409,376.4287023,-159.8444372,232.8332866,87.41897107,0
703.9119995,2749,37.53011428,-10.27908161,86.33714557,-289.7002097,0,-398.7024114,123.1616296,-679.9982465,45.8421268,-35.16593168,86.73584237,45.42515563,91.47302866,-155.4539702,-102.636566,0
703.9199995,2749,-139.5217878,-67.14923923,-84.40030511,218.9507288,0,341.6451586,-73.94787076,837.4102791,-23.03965044,-94.02900241,-105.9212284,-512.3504712,-58.46506945,-86.12299837,158.9738797,0
703.9279995,2749,117.0613106,95.55264715,81.00293631,-55.45388474,0,-73.03005067,-164.9691635,-287.3967862,-84.78403089,84.28944439,24.51056689,711.8085491,-57.39163322,202.1802087,-88.94574562,0
703.9359995,2749,-97.62269629,-90.68218507,-15.59894668,-105.4116377,0,-147.096608,195.7292507,-4.782528529,93.52196759,-137.5521629,3.951003284,-727.1338675,112.3054223,-323.0399053,48.52371863,0
703.9439995,2749,-9.605226297,38.45871175,-42.45026659,261.8085251,0,396.7608364,-294.8418977,677.9218812,-118.4765064,47.49440002,-85.28902422,360.2764304,-141.5033658,224.3059917,87.22338898,0
703.9519995,2749,58.60272125,5.067685063,82.33954835,-290.7317459,0,-406.8225141,140.2212483,-684.94903,40.63633774,-29.99388456,85.93684349,45.18317925,90.76342066,-112.250324,-106.0313859,0
703.9599995,2749,-116.3588487,-33.75756426,-62.63369104,231.5101917,0,332.6615269,-41.89325399,808.7047914,-8.130977037,-58.87753128,-97.94004318,-528.2214359,-43.9113496,-41.3788359,147.8041283,0
703.9679995,2749,129.0274937,106.2047784,96.25845107,-36.50631203,0,-64.94926846,-151.3013817,-297.3613646,-59.78792603,127.5743786,41.97711924,711.9198164,-35.43353728,239.1820882,-100.2184714,0
703.9759995,2749,-95.0740345,-89.43885719,-12.14771066,-100.8395445,0,-142.5806569,194.6551458,-17.31527907,99.41808933,-119.7238025,16.20011975,-718.1452081,109.1652642,-307.7370257,46.35100849,0
703.9839995,2749,8.1202679,64.7216486,-16.42643026,276.4249205,0,402.9596191,-281.6570683,656.8378658,-110.8605561,64.46997502,-80.18141238,349.6853996,-135.6814579,216.2501866,84.64543678,0
703.9919995,2749,74.00577453,9.81475712,104.1988524,-276.7850658,0,-399.529816,143.8573628,-704.7527808,50.68729735,-5.741908358,92.16533658,49.33485511,117.2411542,-116.4903239,-117.1761638,0
703.9999995,2750,-124.3364649,-57.50061945,-75.22378404,228.1395853,0,340.9593579,-60.32281669,812.1148375,-12.69881197,-64.71562123,-102.4600438,-522.1047043,-47.85922694,-69.65358821,146.820225,0
704.0079995,2750,119.3246387,101.199407,83.56545377,-46.86849825,0,-56.53544998,-165.4970445,-289.8250155,-79.58668973,109.2712935,27.5139153,715.3098022,-55.76101241,211.8427684,-100.5699444,0
704.0159995,2750,-98.23871861,-83.86528918,-11.85661543,-117.6494682,0,-147.9104015,194.0313266,-33.71442803,76.97047977,-125.1201872,6.763019877,-724.6125529,101.7982943,-286.0784127,36.73887176,0
704.0239995,2750,2.452004528,71.03538651,-18.12021239,275.1260959,0,403.4847833,-281.0190487,646.9584877,-114.5762206,66.2136448,-92.36306511,338.9527022,-148.2179394,267.3970692,70.3245998,0
704.0319995,2750,65.40422255,18.95483643,104.1359287,-269.6139526,0,-399.0175037,149.9718419,-719.007372,52.17127857,-0.842463991,83.49099935,55.36991468,113.9198303,-93.08674825,-134.8917227,0
704.0399995,2750,-125.5605902,-51.7171172,-75.92807162,231.8346572,0,340.6852214,-48.01207195,806.4028445,-21.68288044,-71.7678355,-101.4835325,-524.9976564,-45.03142385,-78.22236013,145.3976933,0
704.0479995,2750,115.5041392,93.742607,76.90034429,-37.32478916,0,-44.88752709,-160.021783,-276.4136197,-78.69558566,100.396471,28.59406991,722.9246148,-65.88002164,214.7432378,-95.99052408,0
704.0559995,2750,-115.1790923,-107.5798254,-22.71241634,-115.8032617,0,-125.8310491,190.9966385,-12.78504008,76.77451642,-138.3484419,7.939349502,-713.3591167,81.17861094,-323.6746256,43.01454482,0
704.0639995,2750,17.03487299,80.87010831,-8.290517326,282.8766035,0,463.6151728,-272.834573,686.5620713,-120.245028,48.68916099,-87.45624906,348.2516168,-164.359736,218.8331245,93.78258873,0
704.0719995,2750,103.472037,58.52919105,141.6601698,-251.4514557,0,-315.5464125,179.5179481,-697.8750668,75.94032961,14.70225722,106.7507837,85.98636355,127.090035,-58.12997169,-111.6315303,0
704.0799995,2750,-90.66783899,-11.76117859,-25.28031975,259.5419566,0,421.1952988,-10.85919732,813.2097829,23.29330294,-31.47302674,-65.03197747,-508.8715371,-1.686771881,-18.51302731,160.2439411,0
704.0879995,2750,175.660158,159.4237045,151.5655122,6.049702986,0,22.36954791,-113.3530543,-286.2503831,-34.82254253,150.4255148,69.5722858,746.6736791,-2.938429632,273.6720291,-85.63246997,0
704.0959995,2750,-68.18538696,-61.58569151,41.46016962,-84.00911534,0,-98.35095035,238.6202408,-49.78333799,124.9702757,-83.63128366,58.46444741,-685.8680874,141.3396621,-255.7413842,49.25158462,0
704.1039995,2750,35.9971624,90.87831531,19.60930907,303.811758,0,457.2164857,-245.9079237,658.0835175,-76.41810781,86.34174329,-46.33396599,350.3983961,-129.1948062,265.8507194,95.48382933,0
704.1119995,2750,92.0829263,21.5304221,173.4603011,-381.7596396,0,-577.1781481,379.3787807,-1033.534121,182.924109,-31.4009377,172.9032873,-297.7391619,246.9295642,-237.9604617,-139.0839703,0
704.1199995,2750,-172.7040458,-82.47290222,-54.85709838,237.1058011,0,302.1861526,132.1823371,817.7619884,108.1490156,-111.421967,-48.39329492,-1053.489758,74.32264479,-246.1515687,200.2164444,0
704.1279995,2750,216.7856272,220.538136,128.8796556,192.6236478,0,226.7953899,-338.6127695,2.500801791,-104.8534063,228.8561767,32.64284591,1207.340842,-123.0574355,482.2441124,-66.46065837,0
704.1359995,2750,0.859969484,-44.04447625,93.97386667,-267.3073228,0,-420.8216334,361.5355397,-623.3238654,186.6867026,-71.44343264,124.4501035,-617.9647773,221.7530945,-292.2771092,-60.92463921,0
704.1439995,2750,-195.5977445,-28.25387732,-161.6103376,674.4173766,0,950.0203709,-294.4349324,1867.113308,-77.04451615,-19.45134455,-197.5478785,-522.8071253,-184.1295704,147.634743,317.810822,0
704.1519995,2750,16.34632539,116.8908335,-26.59713938,498.8878108,0,687.0571565,-396.4470952,1074.044879,-129.3801088,128.3251333,-106.1199638,500.4198414,-200.6732814,408.4151401,132.1542089,0
704.1599995,2750,-14.87995594,-9.027035919,32.14820092,-16.36685655,0,-46.25331425,92.1423647,-25.30048851,62.53603171,-22.37237611,39.67872812,-264.6629406,64.92621754,-72.98274181,11.64024851,0
704.1679995,2750,94.8223535,75.41160697,81.55315106,-62.51438744,0,-113.8333876,-38.70993911,-326.7376884,-7.790102938,59.35886214,66.36760642,386.0339875,7.272498769,113.8234636,-68.59451463,0
704.1759995,2750,-52.93182107,-21.52558234,4.475511115,64.0057708,0,70.32408162,47.6636841,230.7803276,49.23058727,-39.0788521,4.850193883,-365.1429491,39.73879728,-60.34585159,67.58827778,0
704.1839995,2750,11.57526614,33.45061898,30.86264666,102.3891493,0,145.0924241,-142.8242057,205.2951234,-37.33512319,43.34880014,1.291622112,238.7206372,-39.97467916,149.2224537,24.72995744,0
704.1919995,2750,37.54484336,6.25970109,85.73389697,-180.0888057,0,-254.6929687,57.90952562,-451.5715936,27.00839507,-15.21000109,71.41767004,85.392681,58.32136089,-67.50550131,-69.66738449,0
704.1999995,2750,-101.1045476,-42.29533396,-34.76910077,177.4663473,0,252.5673091,-58.29049491,626.2190875,-11.84385841,-61.93666911,-74.41758305,-403.5676145,-39.06969362,-76.46480536,121.1437767,0
704.2079995,2750,118.0657914,89.8618921,101.613225,-64.35769624,0,-107.3669744,-122.2891559,-335.0334138,-47.03701934,86.93551393,33.12759113,607.7697253,-29.7168311,183.3549071,-93.31892281,0
704.2159995,2750,-93.24927597,-86.05362766,-5.490356161,-79.8617386,0,-117.486138,138.9794694,6.943797803,78.02137197,-103.6180886,1.607154003,-594.164113,67.67075193,-214.5025268,38.60092502,0
704.2239995,2750,-38.1212512,12.40568767,-24.62230099,193.5787071,0,297.4050277,-259.2416418,526.6749901,-107.5105215,22.96721779,-73.54099993,272.7650115,-130.9427702,178.0438974,64.17266387,0
704.2319995,2750,40.30692758,0.820856156,97.90305202,-267.3440022,0,-374.2514758,103.7274611,-631.4422549,25.00811407,-32.22589674,67.90891809,85.06428098,81.50372563,-93.06000746,-112.8526587,0
704.2399995,2750,-136.4282703,-65.77506081,-53.36067708,176.8853318,0,263.9414625,-33.51794389,714.6824433,-6.010026045,-84.48457209,-88.91515106,-520.5966205,-42.91484727,-97.39634285,130.5454903,0
704.2479995,2750,101.3561908,79.98270024,87.40654679,-61.33197845,0,-80.69629078,-158.1796618,-264.0299616,-78.70184018,84.2211765,33.06450212,684.5653248,-64.60197053,198.0624411,-90.16212817,0
704.2559995,2751,-90.87081622,-76.52146973,11.06339308,-124.3244092,0,-193.6368724,204.4786062,-80.19021989,81.90868764,-124.2274092,11.86519645,-672.7770196,98.67466157,-287.1993997,26.07878674,0
704.2639995,2751,-17.60923591,56.37089411,-5.897679105,256.4850703,0,343.8371818,-244.6372701,607.4567998,-94.48432955,54.92827056,-84.77167404,279.1211491,-127.7851866,200.030097,72.28491749,0
704.2719995,2751,55.21145912,8.419875812,110.5528749,-276.5852672,0,-416.9368269,132.7157936,-713.2372486,50.23114993,-2.452673727,84.55578324,99.38073813,95.15621906,-69.03312259,-130.8211055,0
704.2799995,2751,-142.7743601,-72.06534755,-68.38032295,189.5385374,0,267.0545755,-33.0571181,734.5799834,-9.287384647,-85.02811721,-93.61952858,-556.8563598,-41.2262938,-80.79569756,133.5913443,0
704.2879995,2751,113.647864,93.97909457,82.66580632,-46.55102566,0,-74.75246842,-166.824314,-270.94576,-72.50901929,97.86207272,27.44468966,722.0862338,-58.43951002,226.9853893,-91.95818142,0
704.2959995,2751,-87.35075609,-88.67444216,7.103124371,-145.7840587,0,-216.2230618,213.8944039,-116.5507849,97.50125668,-127.0876085,18.73758266,-687.5954366,115.7923522,-289.9511034,20.47161731,0
704.3039995,2751,-37.47536462,27.22825139,-31.20243759,247.4980749,0,366.6158373,-279.4512696,664.1630997,-112.0860172,36.56291349,-81.2043124,289.0405823,-137.2160481,188.033598,83.57607506,0
704.3119995,2751,36.22683554,-17.71877626,76.10618871,-309.3944229,0,-432.8016321,110.9158646,-713.4482277,37.72669792,-27.84494802,90.9690078,106.6652829,85.88961232,-115.2174021,-119.686809,0
704.3199995,2751,-138.6888321,-74.55408466,-89.02354433,183.6152782,0,257.7420981,-32.52129452,750.775094,-11.39091189,-97.97914636,-99.46756818,-578.9152346,-44.80121174,-111.5539124,139.5289623,0
704.3279995,2751,109.8441153,95.01298683,79.18033797,-41.05878483,0,-80.5454545,-165.6794307,-262.272482,-58.77564409,105.436581,26.76014637,716.9110769,-45.73429217,218.6488292,-100.1136159,0
704.3359995,2751,-107.6734348,-106.1204323,-13.05634243,-153.1878467,0,-231.5592378,200.1222803,-114.3756106,108.3940307,-132.1901278,17.73782476,-703.2859616,120.5651714,-300.6690619,16.06984392,0
704.3439995,2751,-26.77290867,34.1170986,-45.44515352,258.7725497,0,362.7806025,-289.68207,677.5172147,-116.8659461,30.33532425,-93.03309884,279.8831899,-138.6321952,191.6597523,81.0750508,0
704.3519995,2751,34.28844579,-14.38977883,83.23559297,-304.5673151,0,-440.9632251,122.4885319,-732.3358866,49.32852642,-21.15520885,93.82468975,106.5803318,111.4197888,-94.44296438,-132.7936064,0
704.3599995,2751,-180.7246421,-111.9645758,-93.85000086,182.0910258,0,262.0305495,-30.50918962,755.0293316,-10.87875716,-111.9195395,-89.10454567,-586.4118445,-38.03976983,-77.14864537,139.4973616,0
704.3679995,2751,98.23679259,74.77612077,86.10151226,-19.85379816,0,-78.98576199,-142.9308884,-280.3007489,-81.06948116,89.27734492,37.37218841,721.3724953,-45.39985029,248.7876673,-95.40146413,0
704.3759995,2751,-128.293135,-140.2612721,7.135622938,-125.8068373,0,-239.7486008,253.7635312,-173.0127111,108.51599,-124.5588362,41.53242417,-700.4363806,154.9397914,-263.5713925,8.189810813,0
704.3839995,2751,-96.33101062,-67.79988485,-43.7501942,274.9954854,0,370.0325107,-257.2176548,649.5772033,-120.2414073,15.97637342,-73.74900819,277.2197309,-130.9579906,237.8515805,80.20148589,0
704.3919995,2751,-28.88582383,-140.9018606,95.91399718,-284.4288534,0,-445.033324,164.8649018,-788.7563221,28.80899907,-46.12949716,96.74324881,98.28172935,109.5014234,-80.20257395,-138.8748266,0
704.3999995,2751,-301.4475941,-300.921369,-86.87000777,200.1854453,0,253.6518107,15.8642812,689.0487435,-24.12767992,-128.1801773,-96.62385376,-618.353222,-7.732433231,-70.98676779,117.3188059,0
704.4079995,2751,-107.1238064,-185.8552673,46.59898767,-41.0867808,0,-71.25054399,-153.9125824,-295.2413742,-132.9251947,28.70018182,8.854638624,694.3601917,-61.52173628,277.7850573,-109.5437772,0
704.4159995,2751,-299.2410979,-360.6043891,-34.19282252,-162.4400882,0,-241.8593001,238.0900636,-192.6618711,32.26352493,-204.096233,-3.588365631,-742.3621272,109.8603358,-258.6076435,0.158993427,0
704.4239995,2751,-216.5136524,-219.0384736,-72.33274319,263.7208993,0,369.39149,-255.4847026,633.8188004,-166.3898988,-26.55883956,-117.7941925,223.1732935,-137.267163,221.7748787,67.13418756,0
704.4319995,2751,-124.4173719,-224.5394161,56.97279412,-308.7683284,0,-445.6518691,145.7084168,-793.9091313,-8.012719244,-78.56452154,57.43974569,75.24639635,98.66379109,-76.53824007,-149.1777919,0
704.4399995,2751,-308.69169,-276.0741796,-110.7070112,170.2822021,0,245.6238957,-3.515869194,683.3258973,-49.63649456,-145.8165751,-127.7337397,-642.0927406,-32.38869728,-78.94307296,114.5128633,0
704.4479995,2751,-24.7180178,-75.66725287,45.62693345,-40.31214437,0,-75.28608269,-165.8931908,-299.5722438,-124.4568479,58.65334312,-10.49654827,689.9206839,-66.13558621,242.6055942,-115.8825212,0
704.4559995,2751,-212.0496682,-232.3398894,-34.13430213,-162.002458,0,-246.9134202,220.9785422,-196.2339539,61.36686124,-159.6383914,-8.990131958,-716.9586558,117.1450393,-287.7916878,-3.584129656,0
704.4639995,2751,-131.3531583,-96.36875665,-66.72911994,264.8059798,0,373.9576284,-281.5704832,655.2777142,-134.7127467,10.65600618,-106.2345889,255.9150864,-138.8806473,202.5624973,77.37462004,0
704.4719995,2751,-12.63604423,-98.49448812,75.46271051,-298.6839894,0,-443.1619808,116.3871192,-781.5379657,22.80708878,-43.69530334,79.29047651,123.0226475,95.06284262,-96.2261745,-140.2388593,0
704.4799995,2751,-215.108969,-156.2091395,-93.99221118,175.6564949,0,249.2039595,-33.9048948,705.2639268,-22.7411891,-116.2806009,-101.9191301,-599.7853843,-28.11114089,-78.54902832,126.6006334,0
704.4879995,2751,43.44098531,22.328511,52.2398805,-43.8808561,0,-64.6148023,-206.6686908,-251.0934128,-105.6891439,82.34321212,20.30851165,741.8115154,-70.61395462,256.9557256,-92.57949862,0
704.4959995,2751,-119.3678771,-126.0472347,-14.95029029,-164.3172129,0,-254.2804725,204.2383923,-184.1758655,86.80990207,-140.8573421,17.66825087,-676.3272014,118.1860111,-293.5477444,11.48900239,0
704.5039995,2751,-30.89267266,26.14066611,-35.4044088,280.241026,0,372.0313133,-269.4532584,655.4290305,-100.5761866,53.77941941,-86.85042201,273.3048546,-117.8032568,234.148883,75.06514229,0
704.5119995,2752,51.99711022,-17.87388538,73.15003135,-297.1159108,0,-437.1903344,110.3558703,-764.1646644,42.27474157,5.380693353,98.933323,160.7240683,98.21192692,-35.83356371,-142.0336098,0
704.5199995,2752,-162.3007442,-96.70869653,-105.2418058,176.1679664,0,252.4182158,-37.1316203,724.325785,-6.959902001,-98.31619967,-89.45134847,-573.3820548,-37.98962237,-79.52298213,132.9255285,0
704.5279995,2752,103.5487725,99.27552936,79.85069201,-18.05299296,0,-50.29414598,-179.762778,-253.7889237,-75.74895828,110.6587764,31.59452987,761.3758887,-57.60044733,241.5112387,-100.1824128,0
704.5359995,2752,-91.38589075,-86.09571947,-1.602949103,-159.6319707,0,-242.0034049,220.9770246,-194.5049693,107.2096285,-112.7599453,36.54352427,-653.1964517,128.3444724,-284.7138774,2.68030715,0
704.5439995,2752,-40.45330307,29.5536786,-55.21261807,266.2094469,0,387.1728559,-286.8922456,682.8776564,-105.6271668,42.00027171,-79.38232462,283.9086427,-124.9053402,218.510388,84.41784696,0
704.5519995,2752,65.28802768,14.27955624,78.15215901,-297.8650325,0,-424.1002586,105.0227395,-761.880299,42.36123175,-5.518708198,94.61473784,170.6803203,100.0537316,-63.88409461,-138.6789328,0
704.5599995,2752,-122.76284,-54.70655053,-93.4992926,182.7729957,0,259.6136589,-20.0051279,703.1043637,19.63825076,-88.72152267,-92.30084363,-580.0447452,-24.91310698,-64.6950185,129.3085398,0
704.5679995,2752,105.5473183,94.1492565,51.27819023,-22.0428368,0,-33.79609793,-198.4684612,-228.7290614,-69.00460637,109.8562131,26.7869663,761.735074,-51.30027224,272.3065303,-93.82864338,0
704.5759995,2752,-106.3544312,-101.732432,-29.28496853,-170.3151191,0,-227.5322947,185.1051986,-159.5797948,78.99792698,-129.9561729,23.86930361,-649.4132208,103.582672,-279.4177009,18.25447104,0
704.5839995,2752,-98.39105995,21.06170716,-112.4208361,444.57583,0,648.027446,-348.3314105,1250.365403,-127.8480489,5.481630743,-158.880372,-8.751667373,-198.5468529,206.6686468,195.0732261,0
704.5919995,2752,-71.25058909,-68.01631561,-3.428432191,-180.7332512,0,-254.1073445,190.987061,-197.4379156,108.1891635,-101.8380752,36.95233143,-625.6098611,138.0429243,-282.8662674,-9.773357419,0
704.5999995,2752,-310.4191209,-235.2161746,-149.69759,-13.65209605,0,-4.418585906,358.8006504,630.598728,188.9357097,-291.8775341,-61.80540964,-1889.502568,174.7820614,-614.5982234,199.5825739,0
704.6079995,2752,-89.45874545,-28.67165809,-58.60175105,125.4062518,0,186.763208,-64.20896963,517.2759922,-0.142063666,-52.18544449,-58.30267417,-359.0439407,-19.76507593,-53.79090219,91.70908659,0
704.6159995,2752,-69.17051009,-48.93041377,-25.20207031,-48.34127444,0,-61.09323186,66.99802386,94.31505548,56.88483492,-72.11632017,-1.351700342,-447.3137726,67.81050937,-159.8592168,29.22641144,0
704.6239995,2752,64.01350057,80.95452383,21.07880336,87.47925321,0,134.6868366,-242.7065227,144.5839102,-79.92381356,81.58207854,-15.35801627,574.355645,-80.26489175,237.3351408,-20.68022565,0
704.6319995,2752,-2.291548287,-11.78764442,28.90360171,-193.4306694,0,-258.2373758,80.42567892,-366.0630071,37.28560718,-40.8480359,49.51317641,-74.17489188,71.78878667,-118.199548,-66.44090899,0
704.6399995,2752,-115.1018068,-42.85074236,-88.20918698,130.4285871,0,221.5728514,-66.84386778,604.2224701,-26.49020868,-65.5999107,-73.09524905,-356.5336866,-55.4427216,-36.42131323,96.79800731,0
704.6479995,2752,121.2636992,108.4120921,59.20106237,-79.86727218,0,-89.49397017,-177.9876241,-308.5275938,-68.76663743,104.7163543,36.41720703,773.9155007,-59.7453836,248.401478,-110.9770346,0
704.6559995,2752,-101.5347923,-81.12428856,-45.9531418,-116.2613314,0,-136.8780253,157.0004882,35.29781242,88.24082959,-125.8770992,5.205665446,-683.2797366,88.84913343,-290.0141437,39.46497723,0
704.6639995,2752,22.982924,71.78339316,-29.81879058,192.3138873,0,304.199811,-277.4311728,511.8795213,-109.3178157,52.03576994,-61.97778625,418.239382,-141.1797771,220.530051,46.35777657,0
704.6719995,2752,80.29843573,37.18853148,77.78527837,-265.2450969,0,-364.1570856,106.9330216,-623.6097713,53.32518902,1.120559355,78.9618437,117.1991077,90.96095613,-60.57602757,-130.8580993,0
704.6799995,2752,-109.9063155,-39.04280712,-80.89733612,154.128306,0,242.4452325,-33.73031095,665.0645719,5.272995627,-68.27314682,-77.39540793,-491.2306903,-27.60162664,-86.44197695,106.1172135,0
704.6879995,2752,129.3179166,127.6113737,74.67509619,-32.41839112,0,-43.81461382,-190.6952326,-247.5025398,-83.69727957,109.4307736,30.81568039,791.2513776,-69.60479797,246.9429634,-108.6323231,0
704.6959995,2752,-57.71534521,-49.01781417,5.384104776,-142.679872,0,-213.752236,213.9688573,-151.5985523,118.3770073,-95.79643928,28.81274623,-637.2098958,124.6862119,-267.8769785,-10.24965121,0
704.7039995,2752,0.508894783,67.73548193,-37.20906693,251.1681087,0,365.6285371,-269.7660959,626.2369001,-85.75712749,70.21341186,-68.71849823,338.0915768,-133.0332336,225.5872328,61.32801473,0
704.7119995,2752,76.54316185,39.28804032,82.80037091,-278.2010018,0,-391.2569508,102.3370816,-708.4561451,37.69676561,9.98704838,91.37323098,202.9333188,88.65127219,-61.50597971,-141.7160742,0
704.7199995,2752,-116.067826,-45.61240656,-73.77196881,169.4275207,0,253.4927583,-11.05092086,678.1639686,13.04588726,-62.83175424,-80.44330467,-536.5072929,-10.79426148,-85.68423724,110.926398,0
704.7279995,2752,110.5604437,112.4686526,70.05445047,-12.61059536,0,-9.538727082,-196.9569471,-195.4509204,-87.39425184,121.5041902,26.37288742,804.1368232,-64.94772961,263.734665,-95.02719087,0
704.7359995,2752,-66.60684011,-58.62417213,3.464337923,-160.9926652,0,-229.101602,211.7488498,-195.1447526,88.88761165,-114.6711995,29.18550377,-594.174221,117.1310908,-283.6262615,-1.114166408,0
704.7439995,2752,12.19257736,76.87021152,-19.00379357,283.5545479,0,401.0434811,-261.5556772,676.5471318,-84.50147594,68.20209058,-77.38289319,303.6992531,-129.6604567,242.2284462,79.15981666,0
704.7519995,2752,98.58578463,59.26601784,117.1970105,-271.2375686,0,-398.8891028,122.341946,-749.6232915,54.121988,32.62398917,106.0859385,240.4825502,98.88149435,-12.02373501,-142.3479991,0
704.7599995,2752,-122.2794442,-45.13511033,-79.61901885,172.6325381,0,253.8527715,-5.70648718,684.3855534,11.66701148,-71.92863006,-73.04762597,-538.7292767,-25.95459878,-70.87959119,129.344546,0
704.7679995,2753,127.2490529,122.5504694,70.07317014,-6.377469164,0,-8.428724054,-197.5779481,-203.0118978,-72.24400985,130.4554826,27.73955044,818.0689785,-61.19942308,268.6716841,-88.81031634,0
704.7759995,2753,-63.95548413,-54.54210117,13.46898088,-166.0495934,0,-240.6057967,215.6649907,-222.8610544,106.5226823,-101.3313316,37.77071131,-580.8365287,143.5820988,-298.7283064,-0.013463774,0
704.7839995,2753,-23.81784089,51.404605,-46.55041999,272.642538,0,409.3147237,-292.8592234,716.9029397,-97.26418279,46.2953668,-74.27756359,303.3383055,-140.0481205,201.4577425,102.5205486,0
704.7919995,2753,100.9240909,53.02030712,101.9131594,-289.4960744,0,-411.6182626,102.1224206,-760.3943589,47.18772466,18.63492889,102.452756,258.7955031,87.0583452,-52.90871866,-133.8184241,0
704.7999995,2753,-111.0465423,-43.45693042,-72.65949817,166.4947931,0,242.5921175,-3.627971821,671.8655909,20.28201503,-68.04546953,-77.40184806,-561.2550362,-10.33503721,-113.7574321,126.4127122,0
704.8079995,2753,125.5788595,108.145685,57.39903501,-20.40820862,0,-8.011435414,-222.5878759,-184.471937,-77.39678851,124.8738716,29.44171076,806.9912909,-76.87706035,262.9168918,-86.33771897,0
704.8159995,2753,-37.74518969,-46.06674744,4.825216867,-180.783172,0,-248.9565907,204.871108,-220.9641346,92.137614,-112.7259813,38.28970372,-586.2148231,105.4999307,-280.3869317,5.484805739,0
704.8239995,2753,0.933565169,67.96367255,-38.22795023,275.6050147,0,405.3516285,-284.3741853,720.3782936,-96.20436981,51.09469342,-76.52530967,280.9367839,-141.6588592,176.4156901,104.0238106,0
704.8319995,2753,92.57200729,42.64967357,100.3922348,-301.2011635,0,-408.4649455,92.00317504,-754.877758,52.33959737,22.08701964,98.62499779,250.6356889,89.1918361,-76.77005134,-138.440521,0
704.8399995,2753,-97.37193701,-25.26168655,-57.77998153,168.4636107,0,276.6313737,9.138628791,685.3685592,12.93373332,-75.97820076,-86.0955242,-575.8895693,-25.05228035,-99.24599265,133.1830062,0
704.8479995,2753,185.4879653,169.2202814,116.2287708,22.1469536,0,61.07620947,-165.5789046,-189.2617765,-53.74841623,155.7045664,39.24007993,809.920059,-43.67144737,295.7017693,-75.76064377,0
704.8559995,2753,8.95637209,-8.318290497,61.27924169,-143.6474683,0,-175.804273,273.2800566,-255.1087176,148.4845459,-53.39269677,68.96364342,-575.0186445,168.6801963,-219.6858064,4.407704895,0
704.8639995,2753,26.63912596,91.95555661,-4.452640247,310.526773,0,484.7301543,-226.6554474,703.5627286,-57.90452288,91.81103566,-48.54488926,287.7587439,-105.3866064,268.0160615,108.9609148,0
704.8719995,2753,112.2959545,61.73558748,132.0918277,-265.0424631,0,-347.0799311,126.0209815,-764.6665782,83.20797076,49.56605965,131.6212859,280.7998115,125.1883729,-20.10348138,-123.1549955,0
704.8799995,2753,-107.0455177,-39.76615318,-45.7239816,184.5261582,0,297.5372292,17.84480138,685.8423286,38.54350693,-71.39082391,-57.48012485,-554.1810765,-0.844366513,-106.9701152,150.0032209,0
704.8879995,2753,144.5415155,135.2833667,96.41307336,18.11762373,0,47.88776067,-188.9253894,-169.7117898,-58.41359728,132.0536027,44.52504026,831.6566944,-70.06740424,268.7522886,-58.65148624,0
704.8959995,2753,-34.69302168,-43.22530428,36.66861872,-165.0341231,0,-221.97125,230.5732757,-241.8140462,128.987063,-87.52171985,61.34457616,-562.9141306,135.4162197,-281.390603,16.28478548,0
704.9039995,2753,0.231232147,68.20433438,-15.87984714,294.8545904,0,441.8316371,-256.1459909,724.0844613,-77.34831658,64.56188622,-59.14648331,278.7244767,-124.5492582,202.2491782,117.2999587,0
704.9119995,2753,91.55208822,42.96106495,120.0834105,-280.8337133,0,-381.7087617,107.9925762,-754.5703927,61.12711112,36.45213205,124.9995417,290.8662979,96.34779479,-42.61440179,-116.1536737,0
704.9199995,2753,-124.3800188,-59.14057781,-61.87098,161.4896629,0,257.1990773,5.045757028,678.3248799,22.29971075,-81.23534606,-65.68633476,-562.1997524,-16.50966635,-122.7998972,148.9808039,0
704.9279995,2753,128.3231625,119.9786832,82.01362413,-0.352685646,0,18.03599509,-205.0915751,-171.3775781,-68.48332361,117.3619323,33.79912122,810.0281921,-79.26810064,265.8169185,-64.27730066,0
704.9359995,2753,-57.88573989,-60.81033634,13.88732666,-190.2982077,0,-249.0894737,209.3528076,-242.0866802,115.7040335,-111.1712603,51.8107936,-575.4502127,114.9056494,-275.3213882,16.25437732,0
704.9439995,2753,-3.939006751,59.40249265,-37.71385642,273.7686871,0,414.7869006,-271.9617824,733.4904692,-91.92388962,45.32148365,-80.56522532,254.3603832,-141.6171776,199.2744559,115.9372667,0
704.9519995,2753,98.4081361,45.1667984,112.5456541,-293.2710529,0,-406.2228954,89.34916989,-749.7053872,52.04161409,23.76219795,103.7680271,267.7308685,81.37207695,-47.18102852,-122.8479826,0
704.9599995,2753,-117.3864538,-44.63173945,-55.81328977,158.6550251,0,233.7414748,-3.613633129,675.8070922,25.86079965,-87.78302,-73.1164906,-590.9419149,-15.86329091,-133.4641302,144.945409,0
704.9679995,2753,148.1202614,143.8584084,102.6668746,10.6140594,0,-2.747545225,-192.291482,-181.1929943,-52.9684808,135.2156644,30.16635613,794.5032529,-61.29830304,272.2252526,-76.81683996,0
704.9759995,2753,-64.7640216,-67.37508039,22.49748933,-192.2648016,0,-264.7291648,214.969689,-255.4442881,127.4076086,-97.2005841,50.78291829,-579.1780062,123.6821601,-263.977155,1.389725221,0
704.9839995,2753,-6.651870661,52.41097179,-50.6478836,272.533156,0,412.6266922,-274.6674606,734.6682314,-97.66145117,32.09985791,-84.52702008,244.6121568,-143.4408631,198.1121743,116.783146,0
704.9919995,2753,120.2558713,57.14462697,109.4037424,-283.8220594,0,-411.3759975,102.4636191,-769.3973123,52.14623129,23.77472066,98.40096216,270.9090244,85.4932052,-39.60309445,-130.8578918,0
704.9999995,2753,-151.1853076,-76.68715592,-65.20293196,148.6215125,0,236.2664109,-7.289631601,685.0124866,20.91457116,-86.18767653,-75.2200322,-593.480259,-27.35569837,-121.5643632,138.2274363,0
705.0079995,2753,120.9010111,118.2214579,84.28049245,-0.242917231,0,11.43027213,-210.0720217,-138.2612587,-90.50755646,108.3691943,21.63862343,795.4765682,-86.18100183,278.8866487,-58.15772092,0
705.0159995,2753,-38.49023086,-40.02786047,40.94872989,-177.340226,0,-273.6286693,240.6145152,-269.1450122,117.0418316,-103.942809,40.30021047,-581.6280006,121.0505417,-268.6952406,5.765288809,0
705.0239995,2754,-16.53890991,62.63718878,-15.79707402,296.0498305,0,406.5949811,-241.2547728,727.8450763,-81.51408344,50.87284458,-84.09761647,233.6132401,-142.3259712,208.2646912,105.2604297,0
705.0319995,2754,102.9935397,53.84784644,123.7309762,-273.2024826,0,-410.4359249,121.2655629,-754.3094954,48.23292417,33.32344234,110.5684716,281.0559409,87.18806917,-11.596704,-128.4425178,0
705.0399995,2754,-133.2754629,-58.59855206,-58.21124466,159.6312886,0,219.6221482,28.79299046,669.8524793,23.38698526,-82.95679852,-65.14987052,-588.9463588,-27.8211397,-115.4520227,144.5844812,0
705.0479995,2754,123.3274678,125.2563977,91.25452586,18.01360484,0,-4.725255596,-183.0914434,-153.0705906,-81.76424209,116.0302593,32.19261889,806.0674392,-85.96213875,276.7570976,-56.81231742,0
705.0559995,2754,-43.95414223,-46.14359472,34.01335327,-171.5801425,0,-293.8648543,246.8691121,-276.4668263,117.7764568,-97.61641161,62.09296732,-564.5378422,138.0030966,-249.329202,10.02232316,0
705.0639995,2754,-9.506828229,71.29811368,-30.38839271,304.9943767,0,385.0353622,-240.0845102,722.6274016,-71.77244565,51.94067434,-62.90912995,241.9266282,-134.1329687,233.0366137,112.779933,0
705.0719995,2754,102.3183517,67.44893831,117.966829,-259.6735694,0,-426.7065965,120.3145662,-777.0078059,68.35674904,44.18642252,130.4582147,303.9960997,106.2059573,-7.747612318,-125.9437825,0
705.0799995,2754,-132.5016828,-54.31861615,-73.21272776,162.6978523,0,206.8819893,23.39441232,648.5439707,39.66826582,-69.92759678,-48.07634351,-578.3840856,1.515061766,-105.825182,141.8816115,0
705.0879995,2754,120.1933015,118.5613839,56.65017766,17.52741005,0,-4.405701747,-203.1906677,-147.4918126,-73.41637317,120.9209742,38.20707322,814.5086226,-87.3254622,300.4204351,-64.60754305,0
705.0959995,2754,-171.0648706,-166.2888573,-31.27051339,-312.1461692,0,-473.3369496,490.6508096,-368.708336,230.3134938,-229.0689333,76.23151951,-1364.795773,251.8588509,-576.1044169,38.29653647,0
705.1039995,2754,-285.7428683,-160.442813,-176.3644795,240.9660836,0,330.7325867,138.5003669,1109.356927,92.19107526,-210.0308262,-112.0734305,-1410.968978,22.11919135,-341.5000038,269.1511976,0
705.1119995,2754,75.80863947,75.41532555,38.93487452,-36.27812974,0,-77.52516924,-93.74866893,-188.064543,-30.86107581,58.45364443,41.67909321,455.5243777,-34.82404832,153.5589681,-45.67171188,0
705.1199995,2754,16.11521377,40.00239403,-0.603199054,17.84765045,0,8.306210773,-73.6354173,53.14845072,-16.42428174,15.04855379,11.95037945,165.3036975,-31.78494813,69.23288104,7.726682597,0
705.1279995,2754,-16.52008046,4.961068731,1.046649646,-51.30371202,0,-94.41081201,25.15065996,-55.51769109,40.68725683,-16.67059668,23.8699408,-67.43184838,24.1330248,-40.39200456,-9.617985439,0
705.1359995,2754,-42.2066523,-4.100965961,-24.30920252,31.50386544,0,27.94082785,-25.56392815,174.6547656,12.34346398,-11.55230648,-8.073931846,-74.71118906,-5.995588769,4.088785241,17.00760764,0
705.1439995,2754,46.18360216,63.98462543,10.60704038,14.73743543,0,10.04424171,-129.6832234,-7.255054349,-54.68953156,45.75321678,17.87533673,412.3109776,-56.82778238,152.1821269,-29.02779814,0
705.1519995,2754,-31.09729635,-15.10568659,1.121303134,-125.3342806,0,-204.5942087,147.0086943,-191.8692334,77.14755816,-68.53622713,50.4333623,-343.8547571,88.6280452,-160.1427421,-8.504881082,0
705.1599995,2754,-0.584609798,62.8132625,-26.14909852,202.4781963,0,259.5126355,-170.6493316,473.4645938,-50.92562557,49.54574397,-38.86738731,221.1962472,-79.97231436,188.9830806,53.65854868,0
705.1679995,2754,47.83981471,17.08521221,62.31391014,-201.7549284,0,-308.7512425,85.76533214,-542.1752323,37.122644,10.62250905,89.4291238,204.0329638,68.49851225,1.038504341,-101.0459389,0
705.1759995,2754,-137.0537944,-80.30247912,-65.51294411,100.2263881,0,132.0784316,36.04220355,456.3899945,24.081556,-75.27977151,-42.4493476,-437.418093,2.52765732,-67.06451293,87.33815414,0
705.1839995,2754,46.79563617,41.75569736,39.4445314,26.29770738,0,7.786554439,-153.6164068,-108.4909069,-71.06069426,88.98381486,18.69266085,669.5536074,-61.7523818,264.1902963,-63.75528713,0
705.1919995,2754,-130.3791838,-161.9620053,-14.09778782,-182.745915,0,-282.026138,209.0589453,-300.4243152,82.36757171,-121.5771741,48.38068956,-476.4945929,108.3309202,-221.3279231,-17.22392351,0
705.1999995,2754,-157.8956595,-134.3262212,-73.17603534,238.99327,0,343.9261327,-235.6708719,649.1890055,-112.8763494,-16.08232366,-83.99332022,182.7973943,-136.1852556,192.6163911,79.70736389,0
705.2079995,2754,-89.5200501,-203.2232188,50.85104971,-274.9798468,0,-393.7205922,69.12653487,-697.7057128,-24.72225432,-57.65826625,76.53708159,248.1123188,51.54622932,-6.960279342,-138.1048894,0
705.2159995,2754,-323.9128775,-338.6707218,-108.2494619,115.2335961,0,159.748999,21.17354405,561.9586512,-40.02775419,-173.0296826,-91.34948558,-606.1257922,-27.29186534,-109.9506167,98.55585649,0
705.2239995,2754,-109.3203578,-185.6161699,37.50843116,15.36432425,0,-0.843576788,-187.9992641,-134.365064,-130.2128165,36.49569507,-10.93798031,695.4644999,-85.6040173,250.2191586,-92.56050347,0
705.2319995,2754,-279.2231537,-367.2891918,-12.13861475,-209.4304854,0,-315.2368153,228.3483989,-344.2712948,44.98988353,-185.0448981,20.18362353,-589.5251486,114.9818708,-284.9213585,-41.69401778,0
705.2399995,2754,-260.8463254,-261.0710891,-68.16366655,264.8391971,0,368.9207496,-234.5505259,678.7239519,-149.189758,-53.25480398,-117.6248334,123.0932441,-131.1408823,175.6750463,71.18927805,0
705.2479995,2754,-142.0793363,-256.0928451,79.54429774,-283.7231316,0,-418.949567,93.20730058,-786.3768519,-22.22555517,-56.43798661,72.12096141,230.7811549,80.12803947,-40.0660098,-165.4742293,0
705.2559995,2754,-352.2986948,-354.2180817,-103.9898423,112.443697,0,171.8413926,33.07101432,556.1931554,-37.51577358,-174.3769376,-98.9069986,-681.2779232,-10.32834952,-140.1839321,86.7951884,0
705.2639995,2754,-112.8922653,-179.5980766,6.900645249,-13.54270111,0,7.594644157,-223.3583593,-144.2998591,-151.6589353,25.60602554,-17.66408224,703.3794451,-99.32256014,268.2524765,-100.4937688,0
705.2719995,2754,-268.2215942,-330.7982376,-57.84745224,-237.3845137,0,-302.7699205,182.4145803,-318.787707,31.01755799,-202.8185366,9.676370402,-609.2048676,72.17971626,-293.8634407,-34.03682447,0
705.2799995,2755,-182.2522028,-149.0801419,-87.27544164,257.5513885,0,388.301617,-258.7812244,701.7473051,-144.4315325,-48.32853362,-129.4390785,117.5950606,-162.5182367,164.5159546,73.42766778,0
705.2879995,2755,-47.2515066,-131.9416307,59.24492862,-304.1954461,0,-417.3359186,76.27444907,-792.060114,1.211436006,-30.22803158,69.0698149,239.0295012,74.97021799,-45.53739532,-175.9112248,0
705.2959995,2755,-269.0606088,-230.7808177,-137.9321747,107.4379384,0,189.4716358,-7.143892951,602.4718419,-24.4974385,-154.6009774,-101.6153453,-679.3140798,-42.25653053,-177.6094849,88.49806375,0
705.3039995,2755,43.41661731,15.7699008,29.70044767,9.271993407,0,15.61945865,-220.3802496,-146.1557124,-126.7984468,67.5511129,-13.79124132,734.3211784,-104.3146278,237.9378736,-108.6682656,0
705.3119995,2755,-110.4507653,-139.682445,-9.672526422,-206.3899949,0,-304.4652918,225.7382155,-353.9998947,100.3067476,-118.9121419,32.46493078,-583.9311086,131.7301118,-279.4604966,-54.5662475,0
705.3199995,2755,-88.99690366,-22.23767489,-78.29760442,279.9599629,0,394.8021068,-248.9311927,700.1046481,-87.96328231,24.11390233,-98.74883741,155.7039151,-136.0403744,197.0119797,61.21639202,0
705.3279995,2755,60.43818743,-4.099796016,73.57083506,-289.8162183,0,-417.5953115,89.03199628,-808.4631832,31.83944138,21.8227801,92.24127723,287.8146198,77.1066601,-9.877283447,-183.0939358,0
705.3359995,2755,-177.1499759,-122.4300329,-122.3759285,116.5183028,0,190.4376353,13.71685055,585.7533883,18.06169118,-98.91218217,-76.09649773,-646.6529637,-12.63321412,-137.0623576,86.96361976,0
705.3439995,2755,82.56413666,78.82653641,19.65359028,8.556530222,0,20.13690421,-229.9086427,-141.4084556,-99.50959471,104.3764703,11.71585982,772.1502304,-103.5931117,261.5672656,-104.9530976,0
705.3519995,2755,-68.18567239,-75.38243921,-4.839190499,-211.7683399,0,-306.6085498,218.1717628,-353.6159557,99.0644065,-102.0558757,42.36919024,-555.5241167,112.0089861,-296.9261665,-51.87872441,0
705.3599995,2755,-61.6531271,22.43418799,-80.01236823,277.3025541,0,407.841513,-270.3566598,733.9694642,-100.3784063,32.86770628,-94.61730349,176.1931051,-145.1962809,163.710377,72.73373157,0
705.3679995,2755,70.32591363,24.5781181,54.31388185,-291.3112675,0,-398.9761858,48.48241466,-758.6833588,7.235272933,14.11811395,93.0479905,321.5633162,48.35635366,-33.57492984,-167.9689167,0
705.3759995,2755,-152.8167287,-73.08670407,-119.9323826,121.7895354,0,201.7615458,1.482271802,618.0850102,5.939831211,-99.01168237,-89.07212345,-627.897515,-40.14720779,-147.6174988,90.43387941,0
705.3839995,2755,100.2828379,119.3087415,23.26931932,16.04320919,0,38.88375437,-236.8407869,-103.6700675,-95.03477005,125.3508449,-0.866604627,793.6383902,-100.7857878,280.8930945,-105.3845772,0
705.3919995,2755,-56.83667283,-58.33726281,-18.62711975,-223.6097148,0,-294.5699189,198.9901305,-321.0404142,98.93556751,-91.50026434,39.20340446,-527.3001132,115.8597877,-278.2096296,-44.97243386,0
705.3999995,2755,-23.61114921,52.92865102,-78.39689446,267.0290858,0,417.2749466,-273.2706421,760.095962,-87.6336461,40.45675091,-100.8740166,191.2384366,-155.2749042,174.088605,81.88867586,0
705.4079995,2755,117.0514362,67.52935565,81.41657709,-290.1903776,0,-398.8338352,62.77948259,-759.2777225,38.11708699,42.07141599,91.164169,340.6807346,61.96968109,-4.933724888,-169.0993537,0
705.4159995,2755,-133.6656021,-56.75058651,-101.7824728,113.4834307,0,188.5264827,0.73752803,611.2644338,19.65445109,-88.11663915,-84.05261139,-621.4671183,-21.20476248,-151.2440696,88.49410329,0
705.4239995,2755,127.1544931,145.0422634,42.29971904,21.24452956,0,37.58228674,-243.6568064,-99.66432222,-87.15238498,117.1963341,4.336007105,795.5078228,-106.1577335,261.6675773,-108.4048935,0
705.4319995,2755,-15.21788389,-12.48512435,20.3906677,-198.0039819,0,-292.8425766,206.409121,-332.4054387,127.1286503,-77.48755307,61.45569383,-518.7479318,134.099002,-240.1858486,-56.28715992,0
705.4399995,2755,-6.017060389,76.6922221,-49.86819439,297.2040306,0,423.7747899,-274.3047846,763.6634295,-70.22905531,61.65893547,-70.60231445,197.2837483,-126.7793978,212.074689,77.89191075,0
705.4479995,2755,132.3688819,83.03586118,92.68596749,-261.0559572,0,-383.4326421,63.99312666,-757.9807722,50.44038041,52.43609608,114.7437462,354.0773392,66.29057408,-21.98000019,-165.9148949,0
705.4559995,2755,-115.2633696,-50.20033985,-88.770958,133.7630792,0,209.9714662,16.91806747,613.9941412,41.96152477,-75.77216453,-60.42094062,-616.1847577,-14.55927152,-168.2760212,99.8208374,0
705.4639995,2755,119.1728628,133.7539402,57.66787084,26.83159396,0,58.92511109,-231.1474823,-75.05444285,-82.89707722,129.0249204,16.32547865,803.2926863,-100.211532,264.918358,-86.00635913,0
705.4719995,2755,-18.74223943,-19.65756254,26.15721159,-204.2941966,0,-292.057045,227.1625698,-331.4070956,123.9779869,-81.98034909,56.39121932,-517.0199581,123.6934382,-250.3773131,-35.38816579,0
705.4799995,2755,-4.163968446,67.80277957,-55.06289259,290.2161923,0,418.8445663,-254.6445525,763.9377183,-71.13351223,48.37248688,-81.60052862,179.6892293,-141.4121973,197.9127683,92.32786379,0
705.4879995,2755,108.2354907,64.91968623,78.89432182,-279.2351283,0,-391.4577046,60.38778017,-740.9728399,33.62078427,37.60738071,102.9293832,346.0339439,54.08519284,-20.59347378,-154.751688,0
705.4959995,2755,-108.9132926,-45.41719685,-102.5076004,121.7160095,0,194.4415043,19.79557189,624.8215061,30.29330175,-91.90429921,-71.08631177,-634.7296071,-18.61855998,-151.7495168,110.670181,0
705.5039995,2755,135.743362,133.2807267,38.2749021,23.37736387,0,45.78977303,-235.1660742,-57.91535824,-81.19237817,125.283569,12.80165631,784.2292105,-94.18591126,267.3710301,-79.93218019,0
705.5119995,2755,-45.37904506,-42.69428352,-8.270351842,-228.1997028,0,-301.5944137,204.5397934,-309.1393455,110.0439403,-91.80783107,50.26822726,-535.4426089,113.942246,-292.5166281,-34.93286759,0
705.5199995,2755,24.28198802,107.2657115,-48.21958326,296.8501835,0,446.9933464,-232.8375322,774.4934021,-69.92234121,48.36882765,-90.25893769,147.477797,-141.1964865,188.9952639,86.77115984,0
705.5279995,2755,178.0271883,130.7956134,140.5177213,-235.4151398,0,-324.0992728,116.3517561,-751.0545824,79.79632409,89.37014588,123.4648773,341.2048953,110.8068677,49.52368688,-167.4619981,0
705.5359995,2756,-70.78442034,-10.48098429,-47.32057541,160.9016649,0,267.2569078,62.20182622,608.045291,81.57754039,-34.38003553,-34.75903131,-626.8354779,36.33695994,-92.63482248,103.829898,0
705.5439995,2756,199.3375037,193.4053379,88.16624756,74.48801243,0,117.017602,-183.2793792,-84.62317702,-31.12479489,168.8241901,48.98141114,803.5814222,-59.23292312,316.7561738,-81.91801039,0
705.5519995,2756,-5.789401207,-7.821228673,30.92335483,-188.6546699,0,-246.4466654,251.5882473,-335.2951979,149.5235097,-48.91188695,102.5045748,-500.8791977,155.8648713,-238.4507443,-30.60590518,0
705.5599995,2756,11.31150303,88.55814295,-51.69664784,303.802125,0,472.3793115,-228.7589169,780.016577,-69.3896553,60.54905392,-49.92739244,171.5611125,-136.9516528,200.5833556,107.2592282,0
705.5679995,2756,180.1100595,90.09134207,152.630111,-427.3712151,0,-613.6925685,284.2190006,-1178.171758,143.9236905,23.56660601,190.805335,118.6684857,182.0319905,-119.6816118,-194.8942395,0
705.5759995,2756,-148.3585857,-87.09336075,-71.46162997,53.53195979,0,88.20287399,220.3390699,495.7440101,140.0252222,-140.6720204,-14.08417953,-1101.326903,94.6357114,-312.3554368,143.4361159,0
705.5839995,2756,173.3067021,213.1856436,55.61214848,298.9872048,0,421.127651,-408.0908996,450.1665446,-145.265693,206.1927306,-18.6923059,1091.643459,-195.3936857,490.7787112,7.066512436,0
705.5919995,2756,60.39690467,4.073831064,114.9878223,-355.3954188,0,-523.4500861,325.569386,-845.6070637,167.8431659,-32.41091675,156.2726628,-309.7159894,205.9000009,-244.5967151,-115.7797709,0
705.5999995,2756,-111.0303457,-15.65276776,-82.27697632,290.8723455,0,438.4986446,-129.0577131,955.7727,-32.14997747,-31.88181551,-87.21543362,-366.7595164,-95.97137723,25.94401211,163.0552824,0
705.6079995,2756,190.1382164,161.5130615,116.9442813,-86.40823422,0,-117.2127,-158.4066884,-437.7425924,-70.01323408,140.7784303,77.90617833,896.934969,-57.54059259,280.3476323,-128.2176153,0
705.6159995,2756,-77.00358325,-64.73021453,-12.10783462,-138.1305217,0,-190.2467659,242.2822995,-69.5414978,135.3292783,-122.9337489,42.18962351,-808.0549181,109.3168276,-275.3406404,36.60394505,0
705.6239995,2756,58.40596496,115.3954244,-23.01833611,279.977442,0,406.6354663,-323.3325856,643.860609,-96.33562665,85.04153349,-70.78488693,469.1958743,-189.206669,305.0479223,64.48287584,0
705.6319995,2756,133.2189383,74.51081837,109.5178174,-289.0027922,0,-430.2561568,151.1419704,-782.0721747,89.53195323,18.7442117,108.266796,116.835498,107.3799204,-110.6289579,-146.2006861,0
705.6399995,2756,-212.4030115,-74.19406998,-170.6822283,425.4838443,0,603.3949459,-21.88735422,1483.233306,37.4268828,-141.2101256,-170.1790086,-1164.702688,-64.50831442,-215.4505834,285.131704,0
705.6479995,2756,-46.74322665,85.73946325,-115.4354208,583.2219442,0,826.4811859,-391.0269693,1533.779664,-121.9699923,47.39538172,-185.3965699,31.21248722,-241.1135097,257.3108217,221.5088054,0
705.6559995,2756,-63.53105785,-11.9395065,-47.66575776,109.8469862,0,145.5563673,59.15577861,480.2041669,62.38651313,-71.97569832,-46.95754856,-612.7531247,14.50016719,-173.1909877,95.44334203,0
705.6639995,2756,13.13138354,85.84446849,-34.25638912,296.6656085,0,407.6254158,-210.7726695,746.9363204,-50.1270388,52.05738517,-79.43367636,96.3066714,-115.7661396,146.3353627,95.38105223,0
705.6719995,2756,191.4629136,133.4889397,157.8399096,-265.4908185,0,-413.5874456,64.98386741,-896.9051539,56.18255876,113.6298567,139.0129379,565.5946701,97.11029301,69.97919019,-185.8969689,0
705.6799995,2756,-62.54773081,-19.59715108,-11.23652508,34.06307049,0,26.05553,128.8269357,247.3773986,94.63342087,-66.30593035,2.706113439,-632.5690548,73.23089071,-176.4868825,72.74596246,0
705.6879995,2756,85.08543552,116.5408223,25.75851016,198.3654591,0,266.1028696,-254.0426412,345.2930702,-67.00054779,96.81345554,-17.96105141,521.1721315,-121.3617976,248.7362019,20.99909043,0
705.6959995,2756,81.61132876,20.89488342,100.4911349,-304.5414638,0,-441.5581903,168.2842425,-776.2363617,95.55197289,-6.949602274,128.1396284,31.82913449,115.7509839,-149.2762917,-124.4375367,0
705.7039995,2756,-80.44464538,-8.298150892,-56.33598477,220.4675496,0,324.8435484,-76.54336862,748.724367,-13.93351061,-46.79963325,-75.00395878,-368.6751517,-72.18187927,-16.47870737,136.3181157,0
705.7119995,2756,153.2901479,133.0448783,116.0451538,-80.63220501,0,-120.4518884,-108.55856,-396.014668,-26.99395347,109.6460959,62.91031609,708.7013169,-23.2007077,200.8955536,-109.3832541,0
705.7199995,2756,-38.71235846,-31.5357922,28.91152083,-138.4252706,0,-196.0722334,194.8452352,-181.5884154,117.227065,-76.19802701,49.91897295,-512.8728427,114.6948361,-245.8524248,4.992710368,0
705.7279995,2756,10.45486079,67.5264677,-23.61805115,237.0257554,0,357.8823431,-243.700196,603.2599603,-79.64703446,47.21627658,-55.87022169,272.8786463,-135.3077883,180.6573039,87.4310548,0
705.7359995,2756,112.830646,48.44373964,102.6265448,-291.0125365,0,-397.9655946,94.24350678,-758.4458875,50.38578528,13.08517554,109.3443632,262.5831795,77.32912383,-33.80487123,-128.3729212,0
705.7439995,2756,-67.83187039,-19.20961286,-43.78926207,139.1603003,0,208.43686,20.44208534,578.5175625,31.20035155,-79.22314877,-66.40426372,-554.8784074,-22.77550083,-84.22442255,115.5963058,0
705.7519995,2756,156.5485442,144.8435081,104.0197322,-2.199793372,0,-3.217315739,-173.8993429,-201.1156146,-56.00326037,124.1816679,36.70650928,740.0019677,-69.63795877,265.1478723,-87.69624713,0
705.7599995,2756,-15.45737087,-27.44401891,66.85708732,-193.9659274,0,-278.7952785,218.6970921,-345.8217236,124.0428728,-73.2082053,75.70251514,-480.0802717,134.3630264,-253.151658,-25.19971133,0
705.7679995,2756,30.24273583,92.01266019,25.74198061,286.0805969,0,385.921144,-206.812179,655.845078,-57.49148803,56.98032834,-55.51704815,173.2041502,-109.8114076,171.5636036,92.21465453,0
705.7759995,2756,153.305304,91.9504905,157.1312198,-255.7434417,0,-386.2409069,94.96706819,-798.0204369,64.49072217,66.58319688,131.9883733,363.2728831,91.16852345,3.554466175,-150.6610652,0
705.7839995,2756,-80.30279146,-39.71824657,-41.36036196,110.8885074,0,164.3293675,44.04058255,514.1860166,56.38381767,-79.46625496,-37.08998192,-600.8545114,-4.475380577,-143.0728417,109.6231219,0
705.7919995,2757,149.1671063,139.7985959,90.05542655,29.46261024,0,33.42822417,-203.0511865,-132.2093355,-71.81487888,128.2218953,33.8000903,779.1148639,-103.8252227,288.4254671,-78.62734374,0
705.7999995,2757,-28.15267305,-31.7300589,44.79420102,-217.8482459,0,-318.208576,233.0021792,-409.1293802,121.4807214,-73.78251863,86.40108748,-467.1133925,120.8010128,-227.9949396,-32.30301935,0
705.8079995,2757,1.390988613,75.87144835,-34.1144746,281.6008239,0,387.81608,-222.1324457,689.8456907,-72.7187182,36.92350173,-61.91148165,144.9838453,-133.5639348,201.2647284,110.6577895,0
705.8159995,2757,145.4945232,85.33655901,122.7816481,-260.8289475,0,-402.060373,83.42921294,-808.6588082,42.83651724,59.59904606,121.3354616,385.6142016,74.13584736,51.35214838,-152.8634568,0
705.8239995,2757,-94.67858395,-48.87479309,-61.60554539,105.5646898,0,145.1116034,63.13061168,507.3986709,58.45212279,-80.21239295,-36.91864519,-623.9705489,8.02635094,-124.0370358,114.2727891,0
705.8319995,2757,169.3201792,155.3590405,76.55987356,48.60966288,0,42.15302154,-195.1898947,-115.147204,-72.3075573,135.397168,38.38524268,794.6501431,-88.18064301,301.0723297,-59.77455356,0
705.8399995,2757,-8.773247905,-27.02238725,39.43383658,-217.139018,0,-338.1309935,251.517727,-445.8664722,125.3590248,-65.71788122,94.72591807,-461.4162846,141.9050489,-241.8432115,-30.24995501,0
705.8479995,2757,-16.88919373,52.50091158,-55.43216652,278.0150119,0,390.3154538,-228.1561039,712.1353412,-70.15164732,41.37858335,-61.35982339,145.3617865,-123.2388304,188.5838424,118.7773833,0
705.8559995,2757,147.3703144,79.84875241,110.6959516,-265.382668,0,-406.211526,78.93405333,-806.7106622,32.9402074,61.93682392,121.9883767,407.714498,78.85654833,41.4165327,-142.3692418,0
705.8639995,2757,-100.4946692,-55.79500501,-67.32671125,110.1864347,0,136.3558322,74.79539869,502.8786957,48.81404654,-82.28780632,-35.10002875,-631.8983101,13.07770205,-131.5336403,121.9213228,0
705.8719995,2757,147.8712853,130.8286418,55.45302172,48.15420801,0,45.77460953,-206.3310729,-87.42015911,-80.23759178,126.7158598,37.37298221,796.0149086,-88.56796663,323.4069605,-53.55418174,0
705.8799995,2757,2.896103358,-29.45307448,28.86121098,-227.6318722,0,-349.5383651,250.5561715,-444.4034112,117.6326103,-72.92450884,89.60803135,-469.1231106,140.8550495,-236.0588247,-32.40011346,0
705.8879995,2757,10.73226684,76.13553271,-37.48568479,294.0986763,0,389.8051919,-196.7937388,709.0769863,-56.37641106,50.6322777,-63.95393311,122.5489741,-114.7822873,187.6303663,109.5963799,0
705.8959995,2757,155.9042128,90.92221588,128.7010576,-249.5929867,0,-400.3276551,105.8296199,-814.7958896,54.32576855,72.69217573,133.3629467,406.5634571,95.6910489,60.12964147,-151.6497281,0
705.9039995,2757,-112.5859818,-53.22274508,-59.66768437,112.9397584,0,138.2420475,83.9499427,495.1597246,48.58945735,-78.38347639,-31.88740273,-637.2932771,22.62231355,-146.6463299,118.2283119,0
705.9119995,2757,147.7258584,151.9238292,81.87635639,63.82614901,0,45.24408631,-184.0650962,-107.9897621,-69.04990881,142.1093041,32.24465355,801.079046,-76.32470639,310.3157074,-59.63091427,0
705.9199995,2757,13.62905094,-22.14644657,52.68589985,-215.4823454,0,-359.2032936,275.3424619,-479.6409547,136.8043278,-61.49866456,96.16289203,-452.859135,153.942385,-210.8245485,-37.4620624,0
705.9279995,2757,-3.16660298,60.17762103,-42.63940925,293.0891242,0,389.389403,-204.0722567,704.7233373,-62.68194945,46.84544017,-65.2114778,129.7537492,-121.6865196,199.6022195,115.31148,0
705.9359995,2757,147.9382884,96.27694836,137.9319117,-252.6403133,0,-405.6237358,112.3566436,-839.1741517,55.51009807,75.70849177,122.2004728,413.5846952,99.18074829,61.47764543,-152.7925265,0
705.9439995,2757,-120.9540391,-65.64393973,-58.96910141,103.9763596,0,133.0169327,95.57578292,477.4385018,53.15431853,-80.13670937,-34.57613185,-642.6612164,31.56170974,-141.9047261,114.9131931,0
705.9519995,2757,108.3641814,106.4215152,38.34408838,40.41697312,0,53.88110787,-216.9883804,-74.17315268,-105.9789297,118.1789253,22.50839081,799.6962325,-109.6664561,292.1147343,-50.2323249,0
705.9599995,2757,-4.997477231,-28.35188862,32.39645771,-230.9834224,0,-365.5763142,268.7013611,-479.4956151,105.6130948,-77.27727044,73.61942658,-462.5219356,124.1438492,-238.0351055,-42.61618768,0
705.9679995,2757,-7.862793741,55.8927483,-47.61534821,298.1139131,0,389.6024029,-193.2652851,704.9052092,-64.30779955,47.18740156,-77.46493795,109.6407393,-124.8279215,180.8713522,100.6985475,0
705.9759995,2757,133.9529674,65.81158714,108.3001899,-256.7480388,0,-393.8447087,88.05930208,-813.4443725,35.4737114,60.03026965,115.6558486,411.3327977,79.3609327,41.07567956,-153.2077619,0
705.9839995,2757,-110.9532713,-59.63893432,-56.95915468,107.7690528,0,136.1442562,101.7684154,470.4873111,48.24746604,-83.43534789,-45.67521344,-664.6444359,21.40091876,-117.5279971,104.5219819,0
705.9919995,2757,123.164012,125.9520575,72.77454987,65.09167765,0,69.05832017,-188.5320054,-94.05482392,-80.33798268,144.1003886,21.59314576,779.4801701,-81.11831722,337.5872485,-72.97089434,0
705.9999995,2757,-15.22750573,-40.73862296,44.02928779,-224.0017685,0,-345.4116096,261.8733732,-484.2555917,108.4927055,-74.57731746,79.88630399,-460.0574268,146.8519163,-268.2829129,-45.14676853,0
706.0079995,2757,-21.24189212,40.9701273,-46.75689082,299.6631062,0,402.7841234,-212.6098427,717.3318794,-75.55536921,34.62434162,-77.87330476,106.7714514,-131.3726235,138.6627102,112.0513008,0
706.0159995,2757,135.537278,67.11524811,126.2092353,-246.4748943,0,-385.8572557,85.46236288,-812.2774687,40.51189853,67.55107611,117.1950718,419.4482443,85.17416387,42.38533276,-153.0204972,0
706.0239995,2757,-96.30409882,-49.99035683,-37.20182346,120.4136898,0,138.9464311,105.2964535,463.6037281,58.65776643,-75.18280532,-40.91178127,-656.1118605,30.54359016,-151.779523,106.7008804,0
706.0319995,2757,141.7455695,146.9133878,90.58475927,86.45181989,0,70.00357021,-188.1948993,-97.46784895,-64.75201549,151.2591552,25.18158729,792.9003964,-93.88281013,306.7512535,-66.21493406,0
706.0399995,2757,-19.07424609,-33.35742918,61.45881865,-215.5153508,0,-344.9726053,267.6211434,-495.9343628,135.9437292,-59.58062807,90.93367587,-442.8408584,154.5827789,-223.0158751,-47.39094017,0
706.0479995,2758,-132.25213,-19.75006728,-115.255044,422.9285832,0,602.967606,-208.6293678,1192.629305,-67.98875389,-27.18793141,-138.1267617,-295.5679769,-146.490726,103.7870418,210.4536672,0
706.0559995,2758,-29.8256877,-57.28858782,28.78904026,-248.1164317,0,-356.5270647,248.5823072,-509.2697234,93.05735458,-92.74648616,57.48458803,-428.2553274,110.3513507,-248.0844038,-49.71135173,0
706.0639995,2758,-149.7844321,-115.0748732,-55.04945417,-43.27022318,0,-63.72805478,262.0450904,190.4801083,113.2911579,-170.8448685,-22.85875109,-1031.666098,94.79144347,-357.4895876,98.41849941,0
706.0719995,2758,174.5985448,196.6422202,65.23107431,255.6722072,0,341.6222872,-406.8326406,254.1728041,-163.7124645,199.1027898,-33.20398713,1186.96819,-202.5367425,515.6904322,-23.6109662,0
706.0799995,2758,-1.235341603,-51.94848234,73.55129707,-332.8321238,0,-493.5170191,321.2879764,-781.6710802,144.5402526,-74.46848456,106.596752,-411.4940385,177.60527,-268.1977406,-98.09299402,0
706.0879995,2758,-108.8946118,-41.15416161,-83.47650827,219.9011382,0,332.9447813,-84.04767929,700.8149458,-24.90595037,-50.62906351,-85.88844388,-313.0135187,-74.00311741,11.47196614,125.510507,0
706.0959995,2758,158.4399648,124.1754588,86.11133609,-67.04577943,0,-78.87494739,-164.6584489,-425.4256878,-79.56199648,124.8103756,47.76966729,905.9412317,-69.15163723,288.9073655,-120.8353917,0
706.1039995,2758,-100.7993873,-97.48130265,-17.5069594,-166.7616741,0,-223.689405,281.4860249,-189.4491445,125.403518,-135.314559,30.5555922,-795.1351046,120.9635455,-350.7376299,19.19060269,0
706.1119995,2758,58.34209101,110.1012821,-6.442414281,277.7218598,0,388.6260471,-276.4556774,522.5443545,-95.87870899,91.37678935,-66.20013474,501.8496279,-147.1549407,255.1489585,48.4966416,0
706.1199995,2758,109.8271856,47.01262693,111.0495901,-260.5202248,0,-393.7868512,166.8984424,-804.7499648,95.81021295,27.74623823,110.2974516,147.3440761,125.7790563,-55.74958054,-150.2061652,0
706.1279995,2758,-102.2209757,-48.66528263,-58.00857401,146.587787,0,215.2842361,34.76926131,517.556812,45.07163977,-66.2033104,-48.86516296,-512.5602382,-7.443829551,-83.43891179,97.86329674,0
706.1359995,2758,163.0248565,145.5803526,86.68897372,45.83016085,0,49.75381075,-184.3984355,-191.1490404,-57.34511554,137.1658139,35.5061026,831.4399631,-69.35980156,295.4959864,-87.7026571,0
706.1439995,2758,-18.38430112,-48.38521131,35.09544837,-184.8033674,0,-282.2827411,257.2810916,-393.0892075,146.7323839,-74.34273494,79.4179114,-511.7668187,154.5100881,-241.0145654,-37.02377176,0
706.1519995,2758,-22.91326478,35.53946655,-47.4744584,282.6467537,0,421.8360368,-251.4329882,676.7016575,-71.97061089,40.26300569,-61.06073654,265.8963204,-136.1882752,215.4391165,88.68201137,0
706.1599995,2758,90.12973693,24.45463071,92.6549314,-258.3015508,0,-336.307389,68.21049839,-733.737345,40.79088001,19.26893932,107.66885,375.6275888,51.56655119,-14.53244215,-140.0895427,0
706.1679995,2758,-120.3071462,-76.36183698,-73.45038951,104.5190722,0,187.1912051,50.39838529,509.8121376,32.65863133,-109.6683052,-53.76743109,-565.0717018,-29.78801026,-177.0689655,107.9700415,0
706.1759995,2758,124.213277,120.1983228,50.43849263,63.29915792,0,102.8540253,-206.776879,-55.639859,-90.209547,107.4049572,8.877162927,812.3301823,-107.7270004,255.6425802,-72.8911414,0
706.1839995,2758,-34.29111038,-65.90294332,17.78502882,-226.0784807,0,-299.2537725,239.8136985,-424.4701714,113.5733572,-88.52404533,69.32648611,-418.9898634,131.0968174,-268.9638705,-57.53142946,0
706.1919995,2758,-32.05145851,24.41098013,-67.97644657,277.7132021,0,437.3312527,-231.1635107,745.353147,-73.95953129,23.43710189,-88.29666894,156.1552572,-137.7655132,171.8807641,101.36729,0
706.1999995,2758,132.9377826,67.28111217,110.5833554,-247.1411531,0,-334.0990193,75.37528236,-762.9361638,43.71154835,49.6454907,95.28751611,433.3540482,66.02851081,36.61624076,-154.266576,0
706.2079995,2758,-98.32998715,-52.28473936,-42.07744852,115.6667113,0,198.4896227,97.24248212,483.3662963,60.99115682,-78.22029595,-50.53230989,-611.7911526,16.51573952,-153.2116612,104.0464048,0
706.2159995,2758,150.2860553,138.1424417,89.52942212,96.79661446,0,185.6417644,-185.2341443,-24.51072739,-63.59784497,157.0650126,16.84870152,813.0412253,-78.67142402,303.4894948,-53.57828893,0
706.2239995,2758,9.670519114,-16.87007131,76.67168411,-200.6811803,0,-228.9788189,290.1837728,-464.5798618,149.2846981,-44.91142883,89.70835528,-397.3770971,170.4351182,-233.5239123,-39.21777554,0
706.2319995,2758,-1.393142813,72.47799619,-8.025850296,326.734317,0,524.6271064,-165.8295782,745.8073247,-31.17143523,65.01720402,-61.75938181,125.5081063,-90.90002354,204.2277722,122.8779921,0
706.2399995,2758,149.5890407,77.46696711,144.2215216,-218.2658782,0,-261.9779436,91.54667439,-762.265762,69.29501498,87.49525619,130.0956514,475.0179507,94.62417629,82.364587,-138.4999166,0
706.2479995,2758,-102.7514329,-58.47139524,-46.92621214,120.5861244,0,228.3300885,108.6482063,489.2731295,71.23361857,-82.27523129,-29.52023458,-623.0321543,35.02215506,-155.2196311,125.9758736,0
706.2559995,2758,148.7500549,151.5472062,81.45349534,105.1850235,0,183.5320794,-177.0876077,-21.69809452,-63.18862721,153.3029552,22.58509301,800.4219751,-77.96572697,322.8998232,-40.87522322,0
706.2639995,2758,0.307078263,-29.65004675,59.44113098,-213.2688648,0,-271.7382031,277.996851,-479.4170594,142.1723974,-47.86389607,97.16846525,-407.770828,168.4404951,-218.9481367,-37.78427354,0
706.2719995,2758,-35.46247376,29.22240221,-51.8042876,311.2869892,0,485.367993,-199.8242896,773.1589423,-62.92271692,35.43774705,-65.12922151,97.06366364,-108.758159,139.6149285,133.9041281,0
706.2799995,2758,119.3500315,55.46209952,112.9471688,-236.8708265,0,-298.8545988,63.11207129,-748.6840182,27.95454509,54.39262685,111.5284167,460.8710929,46.66323693,16.61071469,-130.6344263,0
706.2879995,2758,-126.7826896,-83.18996544,-57.01921073,92.20128258,0,189.2467307,92.24719739,493.5793424,48.32370977,-109.6104254,-51.74607683,-668.4271907,-0.792210613,-165.512316,121.5180309,0
706.2959995,2758,118.2650531,112.2237254,70.26630491,85.2750492,0,154.3239521,-206.0727517,3.800707014,-90.63086257,117.5823108,1.170288884,768.335046,-98.77527064,300.3634387,-45.64437953,0
706.3039995,2759,-25.59076803,-54.44908586,57.06486837,-234.929335,0,-308.0537399,263.5509908,-478.6758649,120.1403827,-81.51120915,72.38294922,-436.1740947,141.8040707,-256.2615173,-42.12993224,0
706.3119995,2759,-38.36169933,25.75518811,-37.88588587,294.0652656,0,452.1911921,-191.387956,759.5888254,-62.89903413,19.48599221,-93.0397104,44.02294455,-122.6965305,152.0659438,121.6454022,0
706.3199995,2759,135.7485266,70.98132454,136.8720339,-233.0792672,0,-330.5156598,82.82361673,-779.7082817,34.34306215,54.63270455,93.12677378,426.8226228,64.1950155,34.77801777,-151.7808379,0
706.3279995,2759,-128.8546447,-74.39260657,-38.89834034,102.3901941,0,156.8426678,112.2737864,458.2226933,70.36842565,-99.43531306,-55.70103873,-693.4974574,29.7330888,-187.3168041,105.8250359,0
706.3359995,2759,107.7171441,107.8956504,63.11741326,86.53182592,0,133.2256752,-207.2026827,-10.42251116,-76.46841767,120.0840907,2.491328816,761.4763113,-84.89913218,281.9832822,-48.80676891,0
706.3439995,2759,-32.08389613,-65.97142246,39.64474864,-235.1715857,0,-328.5492096,262.1904059,-493.5558029,112.9808003,-93.91221367,70.67747307,-431.0295667,140.9917976,-270.0219447,-45.16612062,0
706.3519995,2759,-81.8056056,-12.53762805,-55.45165945,299.7349793,0,437.983501,-196.4570281,765.268534,-72.94294569,-1.093426681,-97.13267643,45.27087294,-132.6930081,144.8179529,121.5196176,0
706.3599995,2759,81.83250303,11.34814667,120.040415,-235.3119578,0,-344.2485703,65.74287687,-773.411484,17.07866562,28.95182362,93.00934747,439.3331507,47.89455082,60.85240059,-145.5312731,0
706.3679995,2759,-168.5942969,-149.536488,-41.2774131,98.17772308,0,132.0154674,114.6234222,435.5053219,51.81464221,-126.7553853,-58.52362025,-703.8867796,22.3418969,-155.7082659,106.2460065,0
706.3759995,2759,14.94498872,-35.37413135,63.69279376,84.551064,0,106.7959867,-202.6439191,-44.08837541,-95.06973256,98.28283134,-10.75650943,735.8111229,-87.29336766,331.7513284,-65.19865235,0
706.3839995,2759,-191.7633894,-296.5578903,36.11292088,-246.3434556,0,-357.4206422,259.2273645,-542.7290031,80.65929443,-132.7620996,49.4361464,-463.9393839,130.3445749,-215.4439801,-67.91852281,0
706.3919995,2759,-258.4780006,-274.3455894,-52.29379409,294.114016,0,416.939155,-183.320639,716.249974,-112.624184,-69.56314265,-127.8125858,-15.79418628,-133.5936973,160.0738153,106.9771387,0
706.3999995,2759,-130.8935662,-271.8097847,110.8454392,-245.6226527,0,-362.5959414,79.10309086,-824.1294756,-24.02396361,-40.48785891,54.95895271,372.5062163,66.54504249,58.28337354,-163.1104507,0
706.4079995,2759,-414.6886771,-444.9667466,-76.91249642,71.52514194,0,115.1482057,108.6066141,401.7498931,-21.30310979,-207.9458768,-108.2191177,-785.2283279,15.74439727,-177.4611832,95.04535673,0
706.4159995,2759,-182.418835,-263.9720003,35.2141075,57.29955142,0,102.9806519,-218.126176,-42.59901026,-182.923382,2.25781984,-69.87420701,653.8506223,-122.0161034,292.4786779,-59.90592486,0
706.4239995,2759,-314.5932057,-411.6320331,28.78517653,-277.1585512,0,-371.4163103,251.1454649,-557.3616684,27.0640332,-207.5162687,-5.778809699,-533.6503561,109.0769835,-251.8884035,-66.59958281,0
706.4319995,2759,-324.212699,-304.0997296,-64.32352162,270.109954,0,403.3108282,-199.46511,702.6866586,-152.0395464,-106.8874483,-176.9913143,-80.45956746,-156.6673738,133.1810391,101.2577125,0
706.4399995,2759,-119.1103283,-235.4069919,101.8091301,-261.4100324,0,-369.5880456,60.14327611,-837.635801,-55.49822452,-46.72223336,19.29677791,342.5747661,38.50128064,48.70538107,-172.0574631,0
706.4479995,2759,-331.1977018,-332.1148767,-57.37622789,66.07861945,0,100.0526957,120.9701829,355.8311643,-7.148709789,-190.9123991,-126.1404778,-799.0366343,14.41797259,-163.9931183,80.44865646,0
706.4559995,2759,-82.98212465,-110.3849899,66.07739913,83.40904376,0,98.41616402,-201.2265978,-85.93767818,-135.1536525,52.81393391,-67.3372987,663.7364758,-99.9612879,307.2153829,-74.35928805,0
706.4639995,2759,-220.2170354,-268.1709725,34.99421879,-251.3469833,0,-367.6769559,245.5972911,-578.4233448,65.78081401,-139.8555458,20.29838615,-490.9601974,135.4665431,-268.3645382,-69.99150117,0
706.4719995,2759,-217.7698341,-162.5359183,-75.23934167,277.6320796,0,417.2039894,-218.5295694,721.7769927,-125.2534036,-59.35538163,-146.0792582,-38.09188552,-161.8504625,103.4883393,116.485581,0
706.4799995,2759,-11.43421874,-95.55974706,96.42564228,-262.1192398,0,-349.7208908,27.30676724,-791.6812591,-36.12943818,-19.35678424,45.29594069,396.6540084,0.745675212,7.945987653,-144.2429535,0
706.4879995,2759,-244.3971699,-221.0582626,-78.02902652,44.0376331,0,115.1102674,72.2173597,422.227099,-1.047862278,-177.1230545,-102.7449762,-752.0910784,-14.85104029,-238.1441443,113.733247,0
706.4959995,2759,14.73292473,3.765418567,33.12386732,54.21911431,0,115.8036803,-247.0061036,-4.860062366,-128.1155843,61.54930297,-53.95444771,697.0047321,-134.5956171,254.8263776,-44.88169889,0
706.5039995,2759,-106.8017992,-140.8391646,16.7638568,-271.7905087,0,-364.6955978,227.3838126,-530.5353292,82.22469767,-118.7226596,24.73809164,-457.9820244,101.0356007,-265.2726173,-53.97800797,0
706.5119995,2759,-111.1376251,-41.29370281,-85.67760316,268.5367964,0,411.3428598,-213.8463942,751.8780659,-102.1004785,-24.74921921,-141.6990707,-14.27988217,-154.7267587,117.2555288,122.0241369,0
706.5199995,2759,104.7397143,36.53337155,97.37815665,-254.2908714,0,-355.4291616,54.07449182,-785.2723535,12.8012954,37.86414604,58.90535521,421.7649966,38.92751729,24.88590383,-156.6338482,0
706.5279995,2759,-149.0944441,-104.0038655,-72.59805237,61.30957895,0,109.1075154,109.7004149,409.9668545,45.14165578,-110.8190289,-81.77346452,-730.236589,0.211311466,-212.3100158,93.25739371,0
706.5359995,2759,85.18549989,95.8046138,29.05193826,68.8029847,0,120.2872092,-230.5019348,6.423641974,-119.9508145,98.09093923,-32.1810241,731.7729849,-152.7446217,266.1400343,-43.93569082,0
706.5439995,2759,-23.07351615,-44.08230617,29.60104015,-261.2834089,0,-365.7782335,246.4906834,-527.6979363,111.675726,-89.8336538,53.49726441,-423.5162078,106.83449,-263.2495734,-46.43444662,0
706.5519995,2759,-43.03426099,50.59174068,-51.46170799,288.7191655,0,405.5355653,-173.6483335,741.3421453,-58.90073933,22.54703332,-110.6642954,0.229198156,-131.8058478,128.0893922,122.128612,0
706.5599995,2760,154.3069655,113.3467006,128.2617328,-228.1199656,0,-361.8598608,85.13795346,-800.5425328,25.38871706,75.6072916,90.16999784,454.6530409,53.59613405,36.61960929,-149.7375771,0
706.5679995,2760,-104.5979417,-50.40517091,-53.8435811,84.31481211,0,97.60156441,128.6794201,394.9547195,70.18339325,-82.74959018,-45.59446809,-699.1892665,31.34990854,-193.1722407,99.98604881,0
706.5759995,2760,112.7308788,126.8767238,38.33900983,89.81089021,0,113.4734946,-216.7572228,1.492734453,-92.11892822,126.2190922,-0.779715639,752.4257414,-123.2986388,292.2871653,-45.87583706,0
706.5839995,2760,6.256003308,-19.22617969,29.06569434,-253.66963,0,-375.0833787,246.7278399,-539.6128565,117.5122265,-80.98307869,81.59890668,-400.2950143,118.3245772,-244.818928,-45.84419024,0
706.5919995,2760,-36.06328854,49.85133146,-78.51168908,281.3816928,0,398.9547942,-203.0602251,753.1983114,-58.14910391,19.34804548,-85.04429145,12.33842339,-134.5496456,155.7040658,131.5024974,0
706.5999995,2760,127.8795748,91.90839945,81.07390965,-246.0599824,0,-365.1448038,32.87554741,-768.3330744,13.91924558,64.43233707,101.2647781,464.7075326,26.01059099,57.19847796,-138.2941674,0
706.6079995,2760,-105.6341925,-45.03579485,-83.417321,68.70772037,0,87.70079517,87.84885505,420.396504,64.22266044,-104.3362477,-43.58637251,-705.8826562,10.10264435,-208.3221449,114.0868301,0
706.6159995,2760,129.9442332,151.7983539,31.33549698,85.27259225,0,98.44526867,-243.5778504,16.84839764,-87.28248557,127.5071802,4.328243177,741.5498732,-120.1558126,284.8377358,-36.49523254,0
706.6239995,2760,9.975117912,-5.357462029,26.03275001,-256.0156228,0,-395.3067342,225.1905753,-547.1475413,111.6490789,-65.86609094,88.76933568,-402.5912943,122.5308649,-248.1613295,-50.72144357,0
706.6319995,2760,-18.01849671,68.70106923,-72.34407508,292.0006286,0,385.7504571,-213.1855448,744.7328609,-41.68699072,21.86306307,-75.88636524,5.444646828,-119.790237,125.5203727,121.851978,0
706.6399995,2760,165.1326015,121.3008194,102.2427213,-231.5024341,0,-381.0173477,46.2436587,-793.6259253,45.64934933,75.65655026,114.4241292,466.110437,49.86971906,60.10491856,-154.4451733,0
706.6479995,2760,-90.49394022,-34.60524751,-68.72805978,71.95692768,0,71.69968554,112.264723,395.1040001,65.39787286,-88.62170308,-32.94970737,-706.9115581,13.99036708,-178.0845057,99.31517437,0
706.6559995,2760,119.6092757,145.0311906,30.33169091,84.6848853,0,98.22878867,-232.5757931,26.56599753,-88.92274651,134.1172627,8.196692012,746.8495512,-133.6371481,288.4564018,-43.42175672,0
706.6639995,2760,8.666656563,-9.290622091,20.10126504,-265.6942604,0,-399.1305779,235.0452003,-537.614846,110.2068099,-63.49122436,82.88582605,-397.3359582,104.396888,-266.9600298,-59.18663514,0
706.6719995,2760,-13.39485821,66.19020579,-79.63463081,286.6385963,0,387.5102356,-205.8041886,775.8560931,-65.013662,18.70369278,-87.21278354,2.348895782,-135.167493,88.06691812,125.3855008,0
706.6799995,2760,161.7242162,125.532917,101.5714954,-223.6341189,0,-374.5712588,46.41005215,-760.1765564,36.85998329,80.39267367,114.262311,480.3253337,53.98462061,25.24357868,-145.6801497,0
706.6879995,2760,-81.42456028,-22.31272064,-58.04676798,81.24606452,0,66.65831858,113.9825049,393.5898775,79.70281593,-75.94521581,-27.58036514,-709.6554556,37.27657184,-190.0242273,91.68903428,0
706.6959995,2760,146.6132069,155.6975519,49.10664212,101.0553244,0,95.87649813,-229.1502606,19.2997375,-73.70013533,139.7443852,15.24317699,737.2499825,-98.03353103,291.8703131,-59.31482738,0
706.7039995,2760,17.79345785,-6.507767156,35.97803738,-248.9565845,0,-400.7232343,244.7636606,-548.1381792,126.0344056,-63.81944138,105.2013857,-388.5334334,133.3389783,-268.4383697,-67.97776959,0
706.7119995,2760,-19.31067853,62.09313147,-74.96452068,294.3463837,0,392.9704811,-208.9532833,779.5017978,-57.22863321,16.24002019,-63.63310003,3.820950067,-142.9854554,112.2381402,125.217719,0
706.7199995,2760,163.0584486,115.0163792,99.08970227,-225.7941985,0,-366.8917446,33.70322389,-749.8477047,38.10829482,75.95289158,130.9044826,487.0105133,37.64713322,60.43181325,-145.539466,0
706.7279995,2760,-98.17930066,-39.4720411,-69.32847469,75.21447627,0,66.61543177,116.7741259,403.9675063,80.73546666,-88.04309965,-11.76361237,-704.5978395,35.37515091,-230.4228066,97.2360723,0
706.7359995,2760,125.0203511,147.8966169,35.57695314,102.0661341,0,105.5787401,-232.4679731,47.38423617,-84.02843826,127.3905776,22.39683727,741.9106809,-105.6973915,255.8418032,-48.51607715,0
706.7439995,2760,15.25463755,-6.696938361,27.90988769,-253.8969018,0,-398.6814021,239.0298917,-538.1335758,116.7723761,-67.93465135,102.8665308,-382.8797806,132.8375205,-258.2777862,-66.57607336,0
706.7519995,2760,-26.73139242,59.29442388,-72.47048554,289.7749703,0,382.9548178,-193.0805336,766.1579975,-51.00530241,16.15139555,-77.37930314,-9.466921937,-123.818876,80.82015694,109.9444386,0
706.7599995,2760,158.0466874,112.6585998,112.6836052,-225.4185296,0,-368.2758057,46.25418937,-760.7747555,43.44925369,78.6631884,113.0346058,480.1555174,56.05266149,34.97047418,-166.6120171,0
706.7679995,2760,-83.0113832,-38.87554879,-65.16119074,65.19926623,0,72.4483253,113.5849532,404.949457,76.98546306,-88.91915078,-24.58727844,-706.1760787,30.42534916,-211.4039752,90.80274407,0
706.7759995,2760,143.4798127,163.5999616,43.52736376,99.82993927,0,115.4459069,-222.8682518,42.76772176,-77.90578775,139.9004957,7.360265473,738.0194702,-115.6467423,265.1733496,-54.24430215,0
706.7839995,2760,11.63589118,3.768868695,44.87530065,-250.7971954,0,-391.0891,258.6606574,-559.6866148,140.7344838,-34.74794586,95.22905968,-389.6071013,150.7460593,-254.6254218,-81.91721791,0
706.7919995,2760,-44.6188098,44.05701094,-86.53009175,275.355598,0,397.8918577,-200.2894746,770.2172583,-53.90148588,28.31414959,-79.88014705,-19.65537213,-116.6203218,101.7658325,107.1090392,0
706.7999995,2760,153.9302421,107.0225378,87.76158958,-241.6997456,0,-348.43533,36.61273049,-753.8630096,14.86256292,67.30336487,98.65707102,477.9521417,42.65190302,42.16037161,-167.4846227,0
706.8079995,2760,-99.43333358,-45.60240367,-83.87515512,59.60912907,0,87.14374603,121.1341582,396.8670225,74.6654875,-92.35015189,-39.60851685,-723.8148703,37.28869719,-215.0446141,80.79598283,0
706.8159995,2761,114.9342624,135.8085142,13.74455411,91.4922184,0,134.8743415,-230.5735409,54.07829295,-92.40997246,129.3761735,-5.357956551,723.1688557,-120.2986452,273.5837831,-57.28840051,0
706.8239995,2761,22.95958245,-0.660207608,31.65596051,-251.5849067,0,-374.758876,263.349608,-557.9531872,112.2836327,-55.63063328,79.74706627,-394.005243,136.4709528,-255.2347484,-79.55195186,0
706.8319995,2761,-44.67566068,104.3132919,-148.0909847,629.200472,0,884.8765798,-434.084441,1560.13267,-148.7803939,79.32738053,-188.3300234,190.3120968,-259.8484129,325.0687337,224.8642639,0
706.8399995,2761,200.1953113,253.0128219,19.47496511,328.0402472,0,447.5256834,-506.4852983,405.6510189,-201.8321999,244.1055904,-51.33338698,1382.190675,-254.539485,590.7533598,-28.20076362,0
706.8479995,2761,6.943304495,17.14827398,0.555663453,-106.1787281,0,-173.3243908,155.4638829,-224.2506533,78.36647693,-29.57582328,41.78583513,-309.1294184,82.48447387,-150.268907,-27.62808305,0
706.8559995,2761,24.25917267,41.78953387,7.289766268,-52.24315408,0,-95.08180549,54.62042387,-160.1677876,39.73837539,20.08371359,36.73326913,-36.17517714,36.17926952,-26.95975451,-34.0217968,0
706.8639995,2761,-1.523953139,28.09475284,-10.41790495,49.68852662,0,63.64856768,-22.87402636,137.8296889,5.418679988,18.84087876,-3.618131984,-32.67845291,-23.22890938,-10.49645908,11.8861535,0
706.8719995,2761,55.15990541,68.05928387,25.661056,-1.638087631,0,-6.367309061,-36.8427618,-50.09208725,0.709171874,45.5707318,18.42218102,168.7541037,-18.97403837,34.76038974,-28.59684345,0
706.8799995,2761,36.1390352,41.688978,41.87585803,-140.6370731,0,-217.4125914,129.0762277,-351.2879919,75.86823529,-6.697351074,58.12204152,-147.3537178,81.09518265,-96.19269459,-59.69889192,0
706.8879995,2761,-24.40170671,33.40963621,-45.33578236,180.1342053,0,256.7095558,-124.2609875,476.6275415,-18.94771919,14.45092907,-49.82970471,-30.22085341,-64.97556824,71.86003243,65.33543789,0
706.8959995,2761,103.5836299,67.26225353,65.8804383,-180.7742058,0,-259.0870333,40.75419378,-567.2206192,35.13733211,41.12960294,77.5048279,290.7388782,51.66745425,17.11160316,-115.3600391,0
706.9039995,2761,-76.73188567,-28.52447884,-54.53948663,47.45076258,0,73.27351038,73.27955309,286.3613203,56.23651316,-69.41981728,-29.26228583,-515.8676494,23.94542002,-161.5371293,59.20708923,0
706.9119995,2761,73.68481649,97.77861263,12.08584827,67.67347476,0,110.2645823,-185.3650373,52.33380443,-66.77953497,84.06419764,-9.167584425,518.3669159,-96.98135308,173.2504348,-37.76813485,0
706.9199995,2761,22.07583244,2.483309664,39.15205387,-225.7030949,0,-322.1552889,207.7665946,-504.7891018,102.4860372,-44.14274286,68.39904308,-303.8330415,120.635735,-193.7403847,-70.03111277,0
706.9279995,2761,-54.62012672,24.44816101,-77.55502189,249.685188,0,370.3131572,-174.7415184,694.7917694,-35.02172181,13.86107609,-78.50822979,-61.2396911,-91.430242,75.230342,108.2439967,0
706.9359995,2761,113.4122435,84.40241364,69.00177231,-214.8416952,0,-300.0429206,9.304940354,-671.0426378,8.206399892,55.52152609,81.80686921,432.5892521,28.19121571,-4.578753417,-135.553774,0
706.9439995,2761,-67.75781852,-18.23725902,-44.05048405,64.87978,0,71.62169707,128.415987,320.8165873,66.95757377,-75.57275343,-45.46762276,-671.877875,36.65890769,-217.0112868,75.12924227,0
706.9519995,2761,116.1329719,127.471396,50.03864934,110.4374949,0,143.7367717,-199.8245886,61.77832586,-62.679097,131.2813512,-5.226717926,651.0257864,-85.32619045,248.4209305,-44.37013375,0
706.9599995,2761,7.242360109,-15.57175581,62.06598578,-249.6777747,0,-346.358219,237.7452476,-544.5726311,119.0633767,-60.19441294,90.11819139,-335.4506161,144.9364165,-244.391191,-64.97821893,0
706.9679995,2761,-23.28655898,61.36026269,-20.34761083,292.0470297,0,435.2550037,-147.1950342,741.4752848,-27.49044317,17.24011431,-72.78948045,-50.27109538,-88.93436627,113.8313056,126.5920415,0
706.9759995,2761,183.881964,132.1819277,158.5690733,-193.0181189,0,-255.2902116,76.15431522,-739.4524325,52.75617053,92.67222329,115.1493766,493.0473629,80.68262428,80.9594346,-142.5718234,0
706.9839995,2761,-41.5062613,-3.584121764,-4.041227876,90.00498388,0,155.7965421,185.0550552,340.2064999,110.2348,-57.40054608,-4.154505928,-694.5454725,95.3961594,-201.6887556,99.55401674,0
