Time:125Hz,Epoch,FP1,FP2,C3,C4,P7,P8,O1,O2,F7,F8,F3,F4,T7,T8,P3,P4
713.2079995,2785,197.6666664,27.17695385,17.10478897,-24.27722311,-11.2237906,-3.262729729,-113.2306712,-159.2940768,249.6189586,10.21029188,-20.14785263,131.3040917,0,117.1080573,310.017612,0
713.2159995,2786,-123.7930341,-1.672371778,-30.6404554,33.80347999,20.05141127,34.96259061,0.303389645,-30.04094673,-208.5216762,-29.12086494,16.75099499,-157.7074476,0,-137.0572253,-385.6056811,0
713.2239995,2786,119.1611753,8.929354819,46.43194661,-6.138494399,14.70025463,-33.61083751,151.014996,196.4938901,182.8201494,39.9554575,-36.44556508,127.4925963,0,137.5326064,78.01187407,0
713.2319995,2786,51.93646402,13.4531042,-31.17024546,-3.498636417,-14.44988347,46.25878091,-197.5062849,-299.9291922,17.28911778,-29.40450689,4.395209213,-31.03338566,0,-38.0456686,17.8717594,0
713.2399995,2786,-90.06419751,-24.06004036,16.17235258,22.3833838,28.63286015,-14.94197334,221.2701984,260.0106302,-112.1004872,-0.619011013,-24.61197866,-68.63338945,0,-25.96926492,-325.0892109,0
713.2479995,2786,192.7895936,18.84282035,17.86480202,-24.58056859,-17.84364252,-10.85238919,-105.4285867,-162.9086578,257.8433989,4.472225899,-31.72321268,136.0436445,0,126.7944213,332.2160556,0
713.2559995,2786,-129.2392705,-16.0696328,-33.37520927,29.49449542,8.259971157,28.51345461,-7.473768245,-50.61372107,-209.6468926,-45.84552754,2.500680223,-161.417441,0,-137.9487042,-345.2982197,0
713.2639995,2786,107.0164919,-3.285373063,48.26734559,-3.457783207,14.27881554,-33.64744138,150.7404555,190.4975698,172.8661337,27.06456153,-40.0202791,118.4231566,0,136.7672547,99.04660628,0
713.2719995,2786,48.92230767,9.188231915,-27.51136407,-3.189098856,-14.68925845,39.13919686,-205.3903617,-303.0627387,18.07722459,-41.00686637,3.201158687,-35.22575856,0,-36.61529265,48.35450902,0
713.2799995,2786,-95.38612216,-19.89484421,16.8064485,25.82322091,28.43893566,-21.78603028,209.2372245,266.5205722,-128.2268312,-16.54876052,-28.36152296,-81.17720395,0,-36.63586197,-317.9929044,0
713.2879995,2786,192.0466246,26.62343601,23.57486092,-14.97598802,-13.44246896,-5.270363602,-104.1991842,-144.4341838,249.8951612,7.275654653,-20.1949033,140.4536071,0,137.3301743,311.1729552,0
713.2959995,2786,-131.6644228,-18.32239034,-29.70507137,28.31568508,3.94199525,32.89817971,-8.929936399,-52.09305729,-209.8081807,-41.43735311,15.27667889,-154.3098188,0,-125.0871068,-367.2734962,0
713.3039995,2786,96.92083292,-8.977005651,46.7907509,-6.856642231,5.410807169,-33.99658926,152.6953791,193.9003813,165.695456,16.27240066,-47.66160293,109.0551187,0,129.4988188,90.26661787,0
713.3119995,2786,45.79430456,5.007800646,-26.275272,2.547362559,-20.27086112,40.59603339,-207.7977433,-308.6048477,22.32477197,-41.3473811,3.776411971,-33.99490761,0,-33.27976201,46.88067698,0
713.3199995,2786,-107.4336542,-38.10183963,13.79602344,21.46906905,24.29584382,-27.27330878,207.0551079,258.5649317,-130.3161255,-16.70924924,-22.53293135,-81.4111793,0,-37.00410909,-327.7381095,0
713.3279995,2786,182.0780866,8.692915019,15.06071359,-31.79941422,-18.15843602,-14.19098936,-106.7628448,-140.0442959,250.2007047,-6.467522987,-32.08143301,132.8202433,0,123.4997013,333.197007,0
713.3359995,2786,-135.2653309,-20.47097724,-32.85484486,21.04260878,-0.246103698,32.56125374,-19.44863929,-55.27255663,-209.6389191,-47.38715113,8.621913408,-157.9653599,0,-136.9943789,-347.7991275,0
713.3439995,2786,95.5595386,-7.973120832,51.60800116,-9.360137145,6.200488304,-39.89644952,153.3068049,203.1816912,160.3720429,18.72747391,-40.56501101,115.1180995,0,122.5616451,86.68638808,0
713.3519995,2786,58.57197812,16.17866476,-23.05517006,-5.877782844,-23.04180453,28.34492121,-215.6308718,-312.9691816,23.20734488,-44.29474289,9.298171401,-26.71771788,0,-41.15491918,59.57954703,0
713.3599995,2786,-95.45799235,-16.17333859,20.36098466,21.86186009,15.99457074,-21.81912107,201.72688,246.8249576,-129.1595415,-13.92847932,-15.7838001,-82.03862103,0,-41.44723552,-335.8247719,0
713.3679995,2786,204.9821882,31.07382598,30.83752173,-14.48984392,-16.1827296,3.330517356,-100.5230977,-136.5518715,265.6460048,7.83078791,-13.24997248,144.6100233,0,132.6693224,321.638097,0
713.3759995,2786,-114.2022287,-5.038422289,-26.45861228,31.28851693,5.598321307,31.90901209,-21.43073793,-60.86004591,-200.1310643,-35.22578259,28.61698635,-146.7715856,0,-134.6694969,-356.2787567,0
713.3839995,2786,95.67219987,-2.027705759,47.32657099,-17.09808387,2.714847307,-52.5467001,159.5218659,206.7175702,165.1623315,24.321684,-42.24559505,112.077252,0,122.9754688,84.34740365,0
713.3919995,2786,66.13859887,24.07255882,-28.10451444,-6.880885713,-21.19887569,33.53665421,-219.4267745,-310.7087813,35.84222029,-39.48865724,5.152084639,-30.60753636,0,-38.04665438,78.23441565,0
713.3999995,2786,-97.59917418,-19.78893763,10.13268668,20.54709201,22.07460379,-19.38041608,196.3913422,246.8795044,-141.7020779,-10.93580244,-15.12876562,-88.9944958,0,-51.51551727,-353.750742,0
713.4079995,2786,187.8531818,14.2450761,15.16972694,-33.76412271,-20.25506188,-7.233631971,-97.72730293,-135.3590094,254.2312345,0.142987458,-37.53022134,136.3712476,0,131.4110034,319.2219928,0
713.4159995,2786,-130.9501086,-19.47988393,-42.56902782,16.80128846,2.636428633,34.45106631,-33.21021304,-75.26294779,-209.3301474,-48.04253508,3.509663019,-164.1638423,0,-136.743656,-346.5244144,0
713.4239995,2786,75.72774457,-20.36105697,36.69750872,-22.36539466,0.332543761,-51.26678735,157.8643873,199.8108643,139.0580754,14.0781391,-55.8982852,94.12157331,0,110.9228855,58.93603656,0
713.4319995,2786,48.06479069,8.627215003,-33.62167445,-13.72137408,-24.62945413,35.52235688,-217.083676,-321.2762151,17.33452324,-49.17468139,-16.70230278,-36.49195659,0,-39.09067374,78.1007551,0
713.4399995,2786,-116.5379638,-28.54038498,10.45337363,19.82357841,30.36296164,-11.61100086,199.6220255,241.8033403,-159.3180041,-13.36775217,-21.97264022,-95.29287048,0,-51.44960607,-359.3942306,0
713.4479995,2786,179.9390584,8.53729226,20.26907746,-31.96696682,-16.43968256,-20.85103154,-94.82720025,-136.2243189,244.1092001,-1.135837238,-30.81980156,136.6274866,0,129.9319694,310.7934541,0
713.4559995,2786,-130.9502489,-13.21589491,-41.23648361,21.57707567,-3.643520485,18.94138382,-50.24948803,-91.96633697,-214.7931957,-55.39693634,4.612571179,-161.8678006,0,-139.0205878,-335.8586667,0
713.4639995,2786,83.02940443,-9.048413872,42.37111758,-11.97803922,1.036632404,-52.83778971,147.5526048,203.5866726,144.8415339,19.27989677,-39.76022958,101.7086014,0,117.6928149,48.98327548,0
713.4719995,2787,59.80141105,9.017189596,-30.20141998,-16.96172399,-30.26044896,20.81621312,-231.8184821,-330.0908355,45.66406285,-43.10052619,6.578612842,-26.09985338,0,-31.79774039,65.12073275,0
713.4799995,2787,-125.4127119,-37.40920645,-0.932053257,0.880207732,12.60276142,-39.4741219,179.9981293,218.1959768,-147.7848783,-27.20030085,-21.38276112,-104.5210012,0,-69.29198488,-373.1063332,0
713.4879995,2787,174.0681608,1.167422802,14.22598869,-47.29225458,-26.25298601,-36.40395816,-101.0645506,-142.9388184,253.9184554,-15.57558056,-36.63062852,126.1753478,0,114.1575545,307.4641246,0
713.4959995,2787,-134.8130273,-19.28461187,-38.23736354,16.71480231,-2.42838009,19.00771974,-54.74828024,-106.4332285,-205.1777924,-63.46446771,9.1704624,-175.7130607,0,-145.1475543,-342.6167202,0
713.5039995,2787,72.3223019,-12.91312062,41.91817502,-13.48455517,4.248946275,-50.69628216,161.7390169,204.7704295,140.5587263,10.62163732,-41.70453761,86.53638935,0,109.1396348,37.53392836,0
713.5119995,2787,66.09131456,16.70229383,-31.02285553,-8.123299907,-23.62378541,35.58474305,-216.5144308,-321.4350496,49.69864667,-46.98346829,3.523930436,-28.3174508,0,-33.47264517,77.34341733,0
713.5199995,2787,-120.6145649,-33.4962708,-0.052896102,16.57300054,20.41402137,-22.00954443,192.4415997,229.5713958,-149.4334003,-20.61479485,-15.07785617,-108.0812911,0,-60.81859989,-380.3783821,0
713.5279995,2787,170.0608756,-8.456190445,9.228487338,-49.8687445,-28.03123577,-35.68222787,-85.00795707,-125.1142845,250.2432779,-14.19037206,-47.35977544,126.1862614,0,119.6792128,320.7786636,0
713.5359995,2787,-145.0767637,-24.97073405,-50.00019777,10.42942371,-4.194539083,27.41360811,-54.01157012,-104.2401086,-219.846111,-76.38552958,-9.574638074,-182.6507391,0,-159.2390238,-317.2208148,0
713.5439995,2787,51.24148961,-22.12654948,31.65762317,-15.84737631,6.219537834,-44.14885223,166.7499026,219.3998226,120.5990314,2.124370446,-52.29953321,77.85736945,0,101.4243258,33.22008339,0
713.5519995,2787,42.08460205,1.251849931,-41.09892497,-16.47772692,-25.7429538,31.22627218,-218.8962793,-313.67427,40.59878998,-54.01971581,-15.56796457,-24.12754858,0,-31.99556225,98.23868414,0
713.5599995,2787,-143.1931657,-35.36542118,-5.807524646,21.44511608,23.7679904,-14.44820802,188.7478139,233.6364779,-169.2251798,-28.02658936,-25.39163964,-106.0673118,0,-69.4806541,-375.005871,0
713.5679995,2787,169.1408479,-5.529921811,12.89028914,-38.90125074,-23.93908965,-28.59428274,-75.93722935,-108.3869752,251.8005426,-7.555677888,-39.81754095,141.3881709,0,126.0331032,314.3944158,0
713.5759995,2787,-139.5619079,-25.24594183,-47.12417641,17.1545704,-5.847839132,27.11049694,-55.48749975,-101.4649744,-207.7379255,-65.97787498,-4.384570752,-162.8061349,0,-150.3998567,-301.4902721,0
713.5839995,2787,55.00917298,-12.02978533,38.91972457,-0.266913454,8.061165066,-45.94234759,169.7403686,237.5053047,120.9890761,10.94307689,-43.57502594,90.42556508,0,103.6018545,43.74362645,0
713.5919995,2787,69.62092519,17.06920058,-25.92552848,-0.326663635,-24.70907988,28.03085783,-215.6380497,-298.2827177,53.02268259,-41.94309229,6.460149538,-4.465278203,0,-17.69770626,112.5197874,0
713.5999995,2787,-121.5181515,-22.13751436,3.743346423,30.44089909,26.77430961,-13.28437058,189.8364888,235.6942239,-166.2974215,-21.31986619,-10.16185406,-92.22176922,0,-61.57181983,-363.1708099,0
713.6079995,2787,180.3879758,10.42511206,16.56114374,-30.14732972,-13.65758499,-22.57398672,-77.25191625,-105.0871607,253.4629336,-3.567746,-34.8286597,153.6997405,0,133.1069484,336.4816781,0
713.6159995,2787,-120.6115057,-9.176073013,-41.88149934,28.89570744,2.194873244,39.69514844,-67.5653822,-118.0648239,-207.6652439,-58.4665806,10.03243329,-154.8939052,0,-141.1014313,-293.8729507,0
713.6239995,2787,72.09958979,-1.01479169,49.15606296,10.02339243,20.20006037,-27.89265113,172.1610854,227.1187246,116.4757658,19.69249216,-24.10897954,95.51259923,0,110.7997534,21.84096696,0
713.6319995,2787,77.72237827,21.87957546,-18.47161897,0.564093341,-13.0923517,44.1639416,-217.1046506,-313.358421,59.29813229,-38.15092843,16.08384919,4.073193941,0,-9.189289147,109.5896839,0
713.6399995,2787,-129.4502398,-19.80207335,8.848413817,30.25087048,30.18172553,4.753872914,184.5689395,220.5047476,-177.3919005,-21.57485097,-7.120660773,-101.1494252,0,-60.71980723,-378.3179227,0
713.6479995,2787,178.1913781,17.78087159,30.87175959,-23.72073129,-3.057375699,1.546771601,-68.41380257,-99.1215796,248.7588628,4.331339667,-26.44517299,147.0889709,0,143.9599899,306.0692162,0
713.6559995,2787,-127.2045131,-9.04503367,-31.91214138,25.23351577,11.59835003,50.89795621,-58.19277634,-118.3340162,-202.242164,-51.52729601,15.61575507,-156.0628552,0,-131.2658016,-325.1126281,0
713.6639995,2787,46.50783574,-17.34983437,43.09380172,-12.27373334,16.49528424,-39.79465048,190.2118939,235.8481492,110.8746033,12.96870164,-42.50134458,84.60136681,0,109.0434076,-0.80160477,0
713.6719995,2787,63.4307252,8.210595287,-29.67142276,-18.50037554,-17.11776594,35.55505458,-211.5484253,-308.6557926,64.30913383,-49.63589579,-13.35422347,-9.916426409,0,-16.20568236,119.31578,0
713.6799995,2787,-138.6292614,-26.83771275,2.703128806,28.51547384,30.82277555,7.269010224,187.1118239,224.4951643,-174.1813109,-25.27027113,-22.09729329,-118.1596508,0,-73.77206768,-394.6821097,0
713.6879995,2787,169.7827614,3.61572972,25.4691451,-28.21921207,-8.901780549,-8.829495335,-52.60405161,-82.87409874,259.479,1.674549835,-42.14787685,142.7413709,0,145.5341295,296.1380387,0
713.6959995,2787,-128.7935797,-17.68870806,-40.80336786,20.82272844,4.286239597,39.78803903,-58.41460447,-118.2284626,-191.6445673,-60.49613821,-4.741145388,-160.2381285,0,-133.4771502,-302.6997076,0
713.7039995,2787,57.64329134,-5.697046572,46.23221763,4.590559982,21.28498547,-26.04944921,191.4688524,242.1544134,114.7512697,20.32001616,-42.67724876,80.40476544,0,110.500935,-5.619798496,0
713.7119995,2787,85.28612203,20.06610238,-17.37685642,-0.341476676,-8.028181036,52.44244686,-209.0882188,-307.0213895,83.77340416,-28.46427693,0.802330556,3.632061272,0,10.70204803,111.2336859,0
713.7199995,2787,-130.9622731,-28.53580452,7.344051822,28.9276367,36.2535449,8.632560147,191.1304955,221.977156,-170.2280006,-16.66331157,-15.8102386,-113.5550388,0,-57.76747795,-401.8966548,0
713.7279995,2788,184.7586918,4.800951714,27.8850102,-32.74032865,-6.836063211,-4.33455746,-40.63182933,-75.63445486,258.9218918,10.358667,-36.39165067,142.7750261,0,154.4263659,294.7896416,0
713.7359995,2788,-119.0064957,-20.66632646,-43.2515622,13.72679945,1.829551658,40.2963166,-61.21137833,-129.7004948,-192.1516342,-52.38311983,1.126022775,-163.0523335,0,-127.6481317,-297.3698296,0
713.7439995,2788,38.61680466,-28.62850134,36.56709182,-14.68832129,11.57485013,-47.84403281,192.8218356,236.4174167,99.983995,8.888427946,-53.17063676,64.89549721,0,102.7735592,-0.525006954,0
713.7519995,2788,74.55218004,2.797343618,-26.20358195,-16.52418527,-23.53208798,36.90142852,-209.3575784,-311.5177043,72.69569996,-46.56044894,-12.00480655,-12.28760568,0,0.184053573,143.1490043,0
713.7599995,2788,-137.1716739,-29.84376927,1.402280641,31.60722246,25.14360306,9.135396688,182.8611562,215.5126763,-188.7479495,-27.30300385,-20.2531505,-130.0635057,0,-72.33437901,-383.1138477,0
713.7679995,2788,180.9217763,-1.767375682,28.82373242,-25.45310226,-12.62527251,-8.571679366,-42.80099683,-71.68875376,255.3575965,6.839162485,-35.41510208,142.8615094,0,152.3320388,298.1715488,0
713.7759995,2788,-118.1289537,-25.89365061,-39.59263686,21.70162335,-5.468616135,43.88872737,-69.23231915,-132.4424632,-185.7007701,-59.74062711,6.315103906,-158.9474535,0,-124.7672844,-291.8904367,0
713.7839995,2788,39.26918968,-22.47223299,42.555552,0.105807943,7.509309618,-35.44162683,191.91458,248.4877791,100.1370534,8.266409457,-44.34926079,67.22893459,0,104.0759415,-11.0169888,0
713.7919995,2788,76.54316383,-2.061585406,-21.65245681,-13.4807409,-27.60993794,34.36162487,-212.3619315,-309.2495579,89.92778051,-38.31348466,-1.689074102,4.844869359,0,10.51606434,144.6712994,0
713.7999995,2788,-148.5055263,-35.53596112,-1.879470397,28.97134306,19.45491567,1.461773328,173.1373885,211.0178477,-182.1572839,-32.65149619,-18.47223916,-125.981815,0,-73.53403699,-373.1072922,0
713.8079995,2788,183.821212,16.92423628,28.26190485,-16.07344641,-10.59370416,-5.724897022,-45.5994821,-57.64301625,258.5341456,7.073633761,-30.7851152,144.7653026,0,148.7816883,304.9360586,0
713.8159995,2788,-105.980097,-11.53829274,-38.57238203,25.44896197,-2.302590212,46.97147328,-71.99520206,-132.6871961,-174.1885685,-47.36050265,18.62488103,-153.7233101,0,-125.124046,-296.5682201,0
713.8239995,2788,42.81993621,-15.45425722,43.44191015,0.342868056,12.03255539,-34.17722385,200.3867067,257.8022786,102.93581,14.49563762,-42.63160803,62.93575777,0,96.54465762,-13.61582854,0
713.8319995,2788,97.98871812,21.15776017,-17.94017118,-3.496827403,-13.44170724,44.01540872,-207.3083077,-296.0447964,94.81596709,-28.64116294,-0.506512335,9.30211193,0,8.245051579,155.3296051,0
713.8399995,2788,-131.7187517,-21.25816614,1.92175792,34.06562115,32.42754543,2.678959187,176.8167672,212.7820188,-182.6519993,-16.9773824,-9.341680179,-121.0737766,0,-69.61863532,-393.1764651,0
713.8479995,2788,189.7668317,20.04166367,33.83203539,-19.48817195,-4.200112375,-14.62920961,-40.23210899,-50.49442847,259.387635,15.72560398,-30.91348608,150.7541811,0,151.4083619,300.6463164,0
713.8559995,2788,-99.78703571,-0.082299795,-36.98263043,25.96699229,8.838775476,50.61989527,-80.66237242,-125.8867086,-180.2153029,-40.46896891,21.43341452,-143.2134504,0,-125.6705499,-299.3396564,0
713.8639995,2788,44.42260808,-8.812742197,39.67529293,1.846809289,20.98144298,-35.72253343,202.619839,273.5641048,87.48829488,21.27528201,-36.99212914,71.36739597,0,98.94966941,-51.24023124,0
713.8719995,2788,106.3493728,21.50720042,-21.5807453,-5.398967559,-14.11039969,33.46507778,-207.6687669,-298.8966086,90.43666965,-28.95128721,-5.926838173,15.94343784,0,7.852499679,146.3866996,0
713.8799995,2788,-135.8479179,-33.13300398,-6.36325982,23.65986333,27.18614096,-2.949881387,175.3494218,202.2276102,-196.3748505,-20.14160682,-15.55570898,-125.1895629,0,-77.71851176,-402.5455462,0
713.8879995,2788,186.6396096,5.578917004,22.10003203,-33.13285817,-16.0227023,-16.59159165,-35.48488873,-52.9316721,245.7543906,2.716180243,-45.18657893,140.7429404,0,147.3731933,302.064327,0
713.8959995,2788,-90.22069518,5.304374891,-41.50768905,28.21955989,1.883625651,57.38636043,-87.31494285,-147.4705217,-189.3984226,-50.21030413,11.48177731,-156.9492628,0,-130.1238772,-286.1987836,0
713.9039995,2788,39.4929074,-6.103959579,42.3383021,5.624665808,16.50096327,-27.1565378,206.2908758,265.1521444,77.40586942,30.45352003,-33.73277878,63.90577452,0,99.53634599,-60.54567419,0
713.9119995,2788,103.5244859,23.03985285,-20.51623356,-7.120825776,-29.5772138,39.06541282,-214.9569828,-308.7421076,92.02171036,-24.61574395,-6.850609961,16.89001139,0,10.36132377,157.0933973,0
713.9199995,2788,-137.3001495,-16.34283247,-2.529854871,33.6973576,18.46596749,-0.804439716,163.8118729,193.3904857,-202.3265954,-15.62677213,-8.399812309,-128.2198055,0,-82.87829993,-402.9432391,0
713.9279995,2788,178.1280388,11.77762003,28.09932621,-33.40008649,-22.60166151,-29.53528481,-29.52928149,-45.07290902,248.3090745,20.44032526,-33.43454267,150.8998237,0,157.1412555,306.6963994,0
713.9359995,2788,-102.4295015,-3.322783078,-47.46258319,10.29517577,-17.91190866,35.88571115,-102.2647813,-169.7827588,-183.758133,-50.27474279,5.650746923,-156.4975785,0,-131.2823484,-245.2341223,0
713.9439995,2788,29.2267865,-3.832116917,36.20184826,-0.735173052,5.514384044,-35.6458123,189.6639732,253.3689609,70.75849611,13.34562068,-40.94178488,45.8289666,0,82.20837137,-26.87304068,0
713.9519995,2788,107.3730966,32.88588642,-17.59073254,-5.106176805,-29.53354224,44.35089701,-221.8275165,-301.5394665,95.45527661,-30.76131419,0.948962614,13.43342645,0,16.2197536,179.9102819,0
713.9599995,2788,-136.8057026,-11.21349074,-0.641413802,37.25131818,19.40329253,10.09160166,157.429855,191.3947251,-208.9524835,-17.8558666,-5.589700512,-133.6022127,0,-79.83548762,-406.5856829,0
713.9679995,2788,185.9529494,20.24627965,32.88682816,-20.16405956,-14.68001138,-16.90904782,-28.48693074,-36.21598833,246.8719813,16.30606193,-36.71044288,150.23313,0,154.9500675,301.5215838,0
713.9759995,2788,-82.35232558,11.40424587,-39.46442666,27.15729948,-7.441441862,41.85867604,-105.1532871,-156.7008674,-180.34843,-49.02680968,15.24016393,-144.3925081,0,-126.0970976,-254.2025983,0
713.9839995,2789,44.16310205,1.414845719,39.14713257,2.549660137,12.60579999,-45.35753095,197.0495115,273.9057771,65.27759061,20.93896831,-34.1496992,57.32635515,0,86.46102897,-57.93174649,0
713.9919995,2789,123.4563649,23.65308774,-23.68832324,-16.71932411,-28.25512166,27.58196638,-220.6707122,-300.1641827,106.4384376,-28.19954688,-7.264834639,27.09778457,0,18.97294235,183.9565955,0
713.9999995,2789,-130.2865132,-15.29437988,-9.195395968,30.75805997,19.86496055,4.774820456,149.0274688,184.6826922,-211.5056307,-25.02144154,-10.12634998,-130.8787661,0,-89.31739568,-403.9942172,0
714.0079995,2789,191.6045448,24.0054775,33.07135839,-20.85567573,-8.353668881,-14.29081078,-23.37907373,-27.26630708,242.2773592,17.79223197,-29.82734537,154.4683478,0,157.0799233,287.2196815,0
714.0159995,2789,-81.75153344,2.577791211,-39.27279887,20.27254414,-6.717473772,42.44243137,-102.3887636,-169.3973676,-174.7706274,-45.29322888,18.81280915,-140.5364979,0,-120.4714204,-253.0789676,0
714.0239995,2789,26.84333761,-9.329586278,36.73129942,-0.42340436,5.233787722,-45.83130086,203.947077,268.5568505,54.76469307,15.63899832,-37.07416763,51.62063396,0,79.88277617,-56.61965064,0
714.0319995,2789,118.2338701,27.21376072,-20.28601216,-11.6265753,-35.84485152,25.76768143,-219.9053038,-299.8570406,101.253245,-30.72227215,-2.247791995,28.5180353,0,20.0701061,195.3257314,0
714.0399995,2789,-131.7769949,-17.77001644,-8.301291201,30.67899605,8.564746068,-2.579125942,144.6866528,177.0014934,-212.900038,-27.46338848,-3.20628571,-133.5377359,0,-95.08134813,-394.1711577,0
714.0479995,2789,189.1144795,20.91062668,30.71912033,-19.18862674,-15.83450617,-16.50453084,-23.68617774,-20.21958705,241.5449865,12.56800547,-26.17520455,154.5838756,0,152.3235547,302.8245162,0
714.0559995,2789,-77.75248628,11.87165477,-40.34630017,30.23139044,-3.77117435,51.87413634,-114.8958869,-170.6363267,-178.8919569,-48.40321765,32.08138754,-136.8317019,0,-118.5513599,-250.5750299,0
714.0639995,2789,29.79752335,-6.944527493,37.84132638,4.517295754,12.79368825,-39.86919232,205.0937259,272.2353992,54.30908258,16.26600389,-21.4945117,53.17319961,0,84.03923381,-83.30105584,0
714.0719995,2789,124.1005168,21.81482066,-16.42470076,-13.59133297,-23.28336951,25.87804214,-216.3233265,-296.6176814,118.454384,-33.1798051,6.471428388,33.58394539,0,28.47492088,186.8875463,0
714.0799995,2789,-137.3496778,-25.57302245,-7.005152379,24.95674678,20.75796075,-10.12195819,146.6653301,173.7850727,-211.1735965,-37.82230451,3.749042773,-145.2455762,0,-97.32992593,-415.9632789,0
714.0879995,2789,183.5382771,7.766792552,31.45146263,-32.12268222,-13.65604136,-30.78794483,-8.799251534,-16.14551948,247.7464548,0.409843539,-27.74873221,138.928535,0,148.3570753,286.8877442,0
714.0959995,2789,-84.48646638,-1.967206507,-38.71364392,20.6736366,-6.343271543,45.29924649,-115.7061443,-174.6739047,-173.5147887,-64.31333515,22.86878186,-150.6083855,0,-132.9760089,-246.6881483,0
714.1039995,2789,14.40852458,-17.41816441,41.95429864,4.625169573,12.31100821,-47.2008596,211.2844022,285.495933,35.8481526,3.576579979,-25.51539984,36.63576074,0,65.22513161,-101.563326,0
714.1119995,2789,126.5019038,20.9659772,-12.72908504,-10.21204265,-27.63086672,23.72893019,-205.9586945,-287.538373,118.326117,-34.83825874,9.192364257,33.82487809,0,25.98135699,192.6327498,0
714.1199995,2789,-139.4622238,-23.54191277,-7.882491677,31.33492394,10.32471968,4.489504214,143.0415306,174.4931238,-212.1001885,-40.41238257,5.375274443,-140.9251473,0,-105.6591468,-412.5495944,0
714.1279995,2789,178.5642062,6.16667577,31.50171309,-31.17969311,-28.93865512,-27.89772366,-11.21174159,-1.237798682,241.5068108,-4.205829046,-31.47520544,146.363881,0,140.4084859,278.8662458,0
714.1359995,2789,-76.7546547,0.816791661,-44.19079722,17.96297004,-24.67275447,40.33848103,-127.9696373,-181.5894814,-171.0249082,-62.98499542,24.30537793,-141.3805485,0,-136.3345466,-243.6241447,0
714.1439995,2789,12.21768553,-17.95295649,33.30068004,1.848616332,-3.990510064,-46.28663084,205.0868159,288.1787569,37.53872143,1.679353109,-27.43220627,39.83106495,0,61.16991507,-108.2674028,0
714.1519995,2789,123.063591,15.70233258,-17.88217287,-19.48251603,-39.98665053,17.67946502,-211.601651,-279.330475,124.7235946,-46.45926812,-4.931175326,37.79907673,0,26.74034218,205.7598404,0
714.1599995,2789,-144.6461678,-23.68293303,-14.4664025,30.37319555,6.055422339,0.221442406,136.6319922,170.0269388,-225.3759919,-46.78163898,-2.658717957,-146.4595544,0,-107.2596506,-408.576238,0
714.1679995,2789,176.1807322,10.71540634,28.96462316,-19.74649505,-25.46711892,-17.73667972,-2.404477782,12.08115344,228.2809429,0.993156656,-36.3627424,147.6501909,0,155.0315643,286.9885229,0
714.1759995,2789,-73.65402464,2.624770807,-43.33595711,24.76963478,-15.65516978,52.84075493,-125.8698493,-179.7025933,-175.0964615,-57.41281053,20.55732719,-135.6949605,0,-116.7160575,-222.6339595,0
714.1839995,2789,3.141981949,-24.61999484,31.91319728,0.643833323,4.450475568,-50.21187337,212.7770946,285.3035378,23.28895947,1.254185621,-29.96675809,32.30763229,0,65.7781826,-116.0270273,0
714.1919995,2789,115.5590161,10.01032501,-21.82240483,-18.97930412,-40.07914563,17.42265751,-207.7657431,-279.8282256,115.9364152,-48.51834378,-13.6467998,33.0921518,0,33.77719638,211.7389627,0
714.1999995,2789,-149.4625925,-24.09951012,-18.33038351,35.71801033,11.65479238,8.008742108,134.462113,174.1479727,-236.1592677,-44.03524561,-1.281088095,-150.9750093,0,-102.5996901,-423.0127273,0
714.2079995,2789,170.3178671,5.206990805,24.20398571,-22.49052018,-15.17519425,-28.04976422,6.85543614,29.63397238,231.772737,-1.925923696,-34.25766686,143.417804,0,158.3981491,256.5969674,0
714.2159995,2789,-82.59819319,-6.140774347,-54.55269611,17.62489682,-15.17487286,46.43492665,-128.0454131,-179.9775404,-173.1476863,-69.37276384,10.02748374,-145.815043,0,-116.226887,-232.4523177,0
714.2239995,2789,-4.753578804,-26.15473985,25.61025712,2.228974437,6.93167471,-44.19009864,215.7648235,290.2989513,8.262919832,0.053534298,-32.03751282,21.73071151,0,65.30985171,-139.9244118,0
714.2319995,2789,119.7163504,8.714159554,-22.06362461,-21.63658766,-38.24402069,13.00978416,-207.9281559,-281.780699,119.8364515,-45.04825223,-9.000269517,34.23970899,0,42.42407915,204.2772872,0
714.2399995,2790,-156.7964807,-34.73517234,-21.61089096,26.17356442,0.414940305,-1.979784686,121.3796292,154.3927522,-243.1077778,-48.9459315,-3.983336308,-160.292125,0,-108.4019582,-424.2135164,0
714.2479995,2790,161.2324345,-7.392652946,23.30866047,-31.69075142,-35.91812793,-38.17275371,-3.672090366,17.81525561,223.1846143,-5.385692476,-38.24164103,137.7626931,0,149.0182218,271.4423439,0
714.2559995,2790,-81.6132206,-6.058143926,-56.48022403,13.15966504,-37.01671575,41.76074865,-154.7720926,-201.8042433,-169.7011889,-71.6954565,12.74332507,-146.7499394,0,-116.8144803,-200.1831527,0
714.2639995,2790,-6.875779494,-20.95697776,22.01776202,3.950036903,-5.617835398,-49.80457341,195.892828,280.4008425,-1.120900944,1.00861167,-27.15729384,17.35434124,0,61.39958747,-143.0070712,0
714.2719995,2790,119.5454103,0.510378537,-25.16930584,-26.28666386,-45.78643881,-2.298768898,-220.0540122,-293.3382192,122.6057792,-46.29204975,-12.90217921,38.91591039,0,38.65733489,207.8120366,0
714.2799995,2790,-162.7356644,-40.18441827,-27.12736877,23.04295793,-2.108606007,-8.941168108,111.3054001,138.683327,-247.3341866,-60.77739632,-13.14664732,-169.0486033,0,-119.2379543,-425.2417314,0
714.2879995,2790,164.2874421,-5.044224428,22.30243464,-30.09195325,-27.79644226,-47.17318893,8.886160075,25.51243612,211.7802042,-7.530888068,-41.46938617,131.7523218,0,145.0665602,247.5913255,0
714.2959995,2790,-75.74092378,-11.94061869,-53.55797882,9.189785537,-27.64190314,28.96789215,-143.0822941,-203.8609305,-170.8057782,-73.79828204,6.226281846,-144.1597823,0,-120.8779177,-207.1962844,0
714.3039995,2790,-11.58437972,-11.0156038,30.06887276,12.4982816,6.066706555,-34.33446363,211.0964255,293.5439235,-5.137574837,-4.627482895,-32.6360911,15.29484045,0,51.41586757,-140.386747,0
714.3119995,2790,128.4892504,27.04012139,-12.92183225,-8.972053844,-32.26650618,24.21624493,-203.1070499,-267.2291493,130.8642081,-27.50549694,4.580215819,55.61069214,0,49.79015433,199.9434175,0
714.3199995,2790,-164.3485511,-30.63653946,-22.05706056,26.19046955,6.235258249,-3.389160549,119.203576,149.0836582,-241.4137924,-39.90440958,3.871020336,-152.1804266,0,-110.7779012,-456.3859808,0
714.3279995,2790,150.9995267,3.346935493,25.47999228,-27.18208034,-20.65592437,-44.5478882,14.76248367,37.94098867,220.3804436,-1.096170607,-42.15103292,142.9639763,0,146.1428227,240.5503944,0
714.3359995,2790,-82.89260448,2.690411141,-51.89239875,22.02717854,-20.79034558,41.1087809,-147.1429841,-201.534471,-162.5460859,-65.97417424,11.01181537,-132.1954191,0,-112.0916922,-205.2761148,0
714.3439995,2790,-25.60814987,-14.74212895,25.80188506,15.19420992,8.435646667,-36.20743529,215.659354,304.035201,-12.40136589,-1.462860005,-29.11587772,19.02378752,0,55.83089258,-165.9236552,0
714.3519995,2790,117.45869,18.08170515,-19.58526464,-16.84185597,-34.42881957,14.77938857,-205.7642381,-260.6666944,130.6869506,-35.52680063,-3.499032115,58.13247313,0,52.40045876,209.7166975,0
714.3599995,2790,-172.1870798,-29.17770452,-26.08872894,30.68466557,7.622621433,1.991844521,111.5833773,145.9400758,-253.7951495,-43.40670485,2.055826294,-155.5650075,0,-104.1844023,-446.5344306,0
714.3679995,2790,152.2865114,0.80186725,28.84924809,-23.78158686,-21.75063663,-42.86793331,26.24069318,47.34203665,214.7897602,3.393868938,-36.76689462,147.9659281,0,154.4881503,241.9604026,0
714.3759995,2790,-81.33320393,-3.871248443,-50.73770385,16.39441043,-27.01417878,34.90530054,-150.7528479,-212.3329913,-157.6097462,-68.43888357,15.80118167,-126.9590875,0,-112.4826637,-190.2462763,0
714.3839995,2790,-34.6958,-19.2006961,24.84802356,19.73987697,6.772855862,-42.44673008,216.8593536,299.2564247,-21.58080383,-1.704670223,-26.90071765,13.97115313,0,59.38571094,-173.638405,0
714.3919995,2790,120.7867776,17.34842822,-18.50707271,-10.9869135,-39.12230519,5.365437223,-201.9039147,-263.9951709,138.1178241,-33.48782925,-6.285816136,63.11196949,0,59.44570332,230.0820954,0
714.3999995,2790,-172.7485522,-22.94247421,-28.17519417,35.47808095,1.208933723,3.164434436,99.63349043,126.4714512,-252.7819086,-46.49076631,2.402365391,-154.3877957,0,-106.0438583,-423.5933972,0
714.4079995,2790,151.6902481,13.12585918,30.05299312,-12.65217985,-20.78690202,-30.23571333,27.41339813,45.08353783,209.9241957,10.12235652,-28.16884123,153.4193663,0,171.5698686,238.2302127,0
714.4159995,2790,-72.66294101,12.80704028,-47.24058558,24.37200418,-21.01336146,48.16831284,-156.6236299,-218.848966,-152.7207428,-60.07986027,26.70420176,-117.8729433,0,-96.91855335,-187.8124154,0
714.4239995,2790,-34.71739012,-7.166685783,31.17706014,24.09098391,19.13783275,-28.55779944,214.370879,300.3677859,-25.57627873,3.894795577,-15.17258527,13.59316331,0,62.12226391,-192.2780972,0
714.4319995,2790,130.8455918,24.45682986,-4.69992554,-5.318383574,-22.10638647,20.29677918,-190.3717384,-258.2892212,146.7088653,-17.92804641,10.21576228,75.27729091,0,78.28541109,203.1663343,0
714.4399995,2790,-169.0616382,-21.51191424,-20.4395171,32.68929392,14.25899731,6.285237971,105.108132,129.5071786,-242.309477,-37.97206075,7.560016706,-147.9845243,0,-98.4246776,-447.9326542,0
714.4479995,2790,149.5334057,-4.348903398,59.02381629,-26.28017758,0.072015229,-62.74128187,170.3140318,257.8957565,258.4484433,28.41719446,-59.98158066,192.2125479,0,226.2665734,221.6288311,0
714.4559995,2790,-182.5197289,-28.4402437,-20.16899108,29.88103846,7.930698189,24.9117907,88.08742571,108.6185186,-249.8190986,-43.1571962,1.939180047,-161.6506109,0,-99.67031112,-448.1738539,0
714.4639995,2790,-342.8104613,-63.89579134,12.59283786,58.0322746,48.58600041,-22.7699946,466.2693934,614.9555185,-423.8549755,-18.81663334,-14.57319669,-226.1089842,0,-123.5314111,-852.5794898,0
714.4719995,2790,-27.40027105,-18.03493599,18.97796077,4.034045315,4.584312454,-17.57042904,136.4488134,192.6606708,-10.74774296,-7.706301529,-27.60443948,6.962836423,0,56.31235347,-137.643935,0
714.4799995,2790,-101.6079026,-19.28163909,-1.321652742,20.01015252,5.479844354,5.750507003,99.88110734,133.2890023,-131.911494,-26.38144655,-11.84839195,-76.68642334,0,-27.81123719,-285.9315881,0
714.4879995,2790,133.4612869,17.1762877,11.32932568,-11.48581119,-21.56993341,-1.066608079,-98.92864392,-123.7450406,175.9818346,-6.742658382,-23.87901929,109.1918271,0,115.5700906,226.3469812,0
714.4959995,2791,-75.67087612,-1.665340903,-24.86173293,27.65785497,-7.370268973,31.94655137,-46.15353881,-73.83975369,-129.0965314,-29.59746295,5.096619531,-85.93423992,0,-54.29044778,-230.1589185,0
714.5039995,2791,-16.26663078,-14.72942305,24.17782974,11.79520048,1.530248834,-10.81424246,156.9727035,209.4022327,5.244538634,12.5995228,-28.66328156,26.22261714,0,73.18909226,-150.0386449,0
714.5119995,2791,112.9560103,15.18051588,-16.45958398,-21.04862372,-38.80578169,27.6798369,-210.6841708,-287.6657287,138.3282778,-23.18057268,-15.10593539,56.2485073,0,68.87255198,196.8581371,0
714.5199995,2791,-153.0456839,-19.86922229,-13.75197482,26.77155283,6.976116948,3.481130491,127.4511708,159.4067595,-210.0148066,-25.50067169,-11.26932631,-130.1975626,0,-65.0282217,-420.5962746,0
714.5279995,2791,149.678614,11.96000481,22.37134555,-26.28177435,-19.33878353,-17.69731559,-20.87983186,-12.69897113,212.4900042,11.504578,-38.86755037,140.4044652,0,161.957261,224.2916024,0
714.5359995,2791,-72.80407684,-16.15236322,-47.28132772,-4.138566288,-22.99302866,29.08468403,-129.3654191,-188.7181738,-120.7619186,-56.98465158,-8.809940241,-106.6118128,0,-79.94088834,-172.3617032,0
714.5439995,2791,-47.12330797,-35.48523359,15.20677889,-2.641259774,3.030762419,-44.60617902,191.061079,257.012476,-24.91663513,-9.903276559,-50.69087701,-0.924479005,0,42.01328928,-160.9168473,0
714.5519995,2791,132.5862975,10.76729952,-17.70031389,-24.72156349,-29.03436416,16.41583022,-202.726415,-265.2019448,156.4352804,-25.5487221,-17.21775688,75.24643664,0,70.48124295,250.9483427,0
714.5599995,2791,-164.8312669,-33.6256962,-28.0811679,20.84642558,10.11314763,9.903295129,94.22778362,116.6331138,-228.1680759,-42.61735326,-9.659076529,-147.0395714,0,-102.4493082,-408.945982,0
714.5679995,2791,136.9887697,-8.721665943,24.75605597,-30.63267749,-17.44708987,-40.1045664,24.44294482,45.69022697,214.8151128,2.683421104,-53.0073414,140.2313723,0,149.8646597,237.9041885,0
714.5759995,2791,-57.75349745,-9.043571575,-50.29830567,3.529887478,-16.27607331,33.96954508,-157.6087734,-220.0391959,-116.8768218,-57.6933491,0.185322536,-107.0738928,0,-91.94083089,-139.5149247,0
714.5839995,2791,-50.89909343,-28.02586794,16.56713176,4.422519222,12.16816986,-34.09545112,198.7298631,279.705426,-33.99606283,-2.005539051,-40.4439905,-7.584407167,0,38.17567505,-190.5005446,0
714.5919995,2791,135.0813064,10.19974788,-12.50955342,-24.50391531,-37.25845043,14.96911671,-200.9503279,-257.1650192,173.1699053,-22.61406456,-19.97620401,75.66014596,0,78.26940197,255.6211009,0
714.5999995,2791,-160.665117,-20.20689237,-26.01395692,30.3777891,6.681065558,17.87313211,73.5761822,95.78300082,-227.8543462,-37.26639976,0.691676587,-158.4773177,0,-110.1838051,-422.1841834,0
714.6079995,2791,142.73147,4.494237342,33.01827587,-24.09477764,-9.805057972,-32.18785031,38.98066189,75.65688339,225.9830468,22.39644123,-35.62424852,144.2670545,0,160.2508622,200.5364897,0
714.6159995,2791,-49.8191129,-5.244265181,-44.49480202,6.275003276,-17.93339541,44.8558306,-171.0307708,-239.7928547,-102.2000506,-49.48322788,12.68082205,-106.3337563,0,-84.5526461,-156.3797395,0
714.6239995,2791,-48.29968243,-24.07143213,23.42881192,11.96287845,10.64604412,-34.6686043,211.651338,291.4454445,-32.10316178,0.420233905,-36.57284397,-7.771916032,0,37.36704844,-205.9833754,0
714.6319995,2791,139.7084171,12.58310953,-13.66127023,-25.37380716,-36.8097585,6.051936305,-197.3812763,-249.078071,179.366422,-20.25435358,-23.19656179,89.09178835,0,80.82980608,271.3412691,0
714.6399995,2791,-166.3661994,-25.26984868,-31.20674197,28.36469962,8.657827548,11.65728554,65.89942203,87.68351557,-243.1699719,-36.78500114,0.232738716,-155.7689992,0,-112.5525586,-428.7031949,0
714.6479995,2791,143.6599606,0.667698933,35.58083345,-21.48291032,-7.846464027,-44.40855716,52.27354002,95.28656834,217.42348,20.21721073,-37.79786203,150.1525382,0,161.7485466,206.2249185,0
714.6559995,2791,-39.57108642,-0.119731192,-46.28414557,10.69409062,-14.18978156,39.18394735,-178.6355389,-243.0558839,-99.30172979,-53.6183503,13.54454042,-96.65360307,0,-83.99499073,-125.4227756,0
714.6639995,2791,-45.31245697,-19.47461943,20.40363809,19.51742431,25.04643012,-28.51015961,215.84618,295.0565092,-39.33077252,9.054002377,-21.37898888,-4.970810349,0,43.70179306,-226.6587025,0
714.6719995,2791,147.6794475,14.35211615,-11.65814676,-22.10701392,-24.16746787,16.01017934,-186.3543146,-246.1717826,190.4823571,-11.06980759,-12.14014629,96.36145049,0,92.15532845,267.4013411,0
714.6799995,2791,-167.6455233,-20.99952366,-29.51191641,35.39088523,15.43960436,25.39928576,68.99583628,80.92207136,-236.406199,-41.61418224,2.328106323,-157.6917065,0,-115.915596,-418.2075517,0
714.6879995,2791,140.7373514,0.479199013,36.08716849,-12.32134204,-3.135023028,-35.19016754,68.29202461,101.9900806,217.9964091,21.56420144,-30.90852206,152.086961,0,168.4522459,196.5293724,0
714.6959995,2791,-33.67169988,-3.310788018,-49.5471092,10.69958839,-21.46402626,42.68428817,-174.512853,-252.519481,-97.40185395,-50.4866179,16.8916721,-88.73399671,0,-80.97154956,-120.4869294,0
714.7039995,2791,-47.97344001,-16.66284733,19.85092066,20.94914458,13.1070376,-24.08116616,220.7095164,296.4827015,-52.68805052,1.0663635,-24.06706424,-5.900362212,0,24.84817449,-220.6351153,0
714.7119995,2791,157.9122959,19.94195355,-8.656808181,-19.61628202,-31.71676449,14.85214187,-184.7278244,-245.0524391,183.4890905,-13.8975999,-4.080739118,104.8100093,0,87.10828482,276.4394183,0
714.7199995,2791,-148.7083896,-13.48678015,-31.18420202,33.12661567,6.964519759,15.55193339,60.38681605,66.55752753,-247.2157064,-37.48411531,15.59172042,-150.6536803,0,-117.3662869,-422.3093469,0
714.7279995,2791,151.3119798,7.336971706,35.42800677,-23.17373151,-16.51213582,-51.00888478,74.1498327,101.4276144,212.1379919,22.60166072,-31.05875164,156.17443,0,157.7602313,199.7211549,0
714.7359995,2791,-29.73129688,-3.25062488,-51.64970255,-8.243431682,-38.00185758,24.87310698,-183.0781723,-273.5498227,-99.5288365,-58.79918301,7.976657969,-89.70900915,0,-92.05218488,-93.72498916,0
714.7439995,2791,-48.01467949,-12.05097919,17.13562298,11.82546854,8.964530043,-35.71129277,210.5861205,287.2223795,-67.90853608,-5.989981232,-27.67772013,-16.49238974,0,20.0451348,-218.9026183,0
714.7519995,2792,163.1221315,25.82152593,-5.085030346,-21.96285779,-24.84745161,8.200992913,-177.2404584,-231.1157938,190.337432,-8.753818645,-1.670854691,106.840568,0,90.79664732,277.1103132,0
714.7599995,2792,-161.6158295,-24.55706897,-32.41032442,26.00497589,4.145914316,8.983757719,61.88278336,64.62037306,-244.2990239,-41.96302914,6.938514644,-155.5846049,0,-126.3929043,-417.2646144,0
714.7679995,2792,139.9927852,5.082580374,33.1869643,-19.00482751,-15.43674693,-46.6217425,71.34217799,116.2446173,204.648867,11.44360452,-45.14489113,149.4867101,0,154.2240789,203.3895013,0
714.7759995,2792,-22.59263726,9.849235424,-47.68889019,5.166993991,-21.36465897,40.46505143,-188.1263812,-252.0950809,-95.70908855,-52.20420107,14.14791574,-80.11281058,0,-83.98104142,-102.4437721,0
714.7839995,2792,-61.18194729,-17.77225656,15.96836292,12.39106667,12.9666054,-35.41921514,215.2063365,301.8844805,-77.89324426,-1.428050302,-25.54731868,-11.67245575,0,16.00383444,-256.5625625,0
714.7919995,2792,151.3217934,15.5562524,-10.99091417,-27.13877056,-34.44071716,1.108145746,-179.0356614,-231.2417371,179.4343632,-19.0769513,-16.47205326,110.873515,0,96.31079082,265.1741207,0
714.7999995,2792,-168.2270621,-27.85366057,-35.94260639,23.9275373,3.860348502,12.3079893,53.439005,50.88436763,-257.8889947,-47.27335081,1.776818774,-157.5544564,0,-121.4332546,-430.2473424,0
714.8079995,2792,124.225262,-6.64825234,31.91991164,-22.63536383,-14.75571022,-47.21441077,79.2728413,117.1744235,197.7943212,12.23620388,-47.19491562,144.5111177,0,145.333951,191.4841,0
714.8159995,2792,-33.37341837,-1.171699753,-50.8235787,6.567772621,-23.87214286,42.12124225,-188.9218815,-261.7832493,-92.85500421,-54.99533597,7.355010216,-83.41496315,0,-90.91515827,-79.79601171,0
714.8239995,2792,-69.23084896,-18.22202569,15.57112199,20.25777761,16.26726742,-27.92398921,222.037612,300.635062,-89.95944992,2.208075184,-26.942047,-22.62896725,0,9.239240763,-250.073958,0
714.8319995,2792,155.7481978,21.90263932,-4.837693953,-18.93385879,-34.33151197,6.729452525,-166.2407329,-218.3391843,184.2831359,-3.281180415,-8.078085746,112.1002715,0,91.23329948,277.516736,0
714.8399995,2792,-164.2089481,-19.1435861,-29.87668231,36.41871586,5.093952952,23.36539166,54.34453364,61.3183308,-256.3003093,-35.65010133,16.53321703,-156.0500347,0,-127.9311595,-424.7535329,0
714.8479995,2792,133.2132988,10.34728577,41.02514552,-6.707427571,-4.237967143,-39.34575141,92.70386196,142.2136236,185.5112,22.87382251,-30.61968487,145.8586329,0,153.4272589,175.547204,0
714.8559995,2792,-16.90555404,11.16990841,-47.31792634,10.31514284,-22.96365708,37.1175059,-181.6935374,-260.2611219,-90.43823238,-38.82452799,28.61038238,-71.38277883,0,-75.11508271,-93.03541051,0
714.8639995,2792,-70.72038833,-21.83719288,10.58125746,15.30538113,8.059533284,-37.50400096,227.3218732,299.7190807,-92.05889618,7.497645608,-12.71012576,-20.13878847,0,7.820700747,-275.680594,0
714.8719995,2792,162.2748495,27.9948879,-6.398946952,-15.69437794,-34.97908364,2.177226615,-160.9669272,-211.5239018,187.3504361,-5.677017988,-7.508137577,118.4409675,0,88.89670718,286.3561548,0
714.8799995,2792,-162.306363,-18.58473831,-37.25263448,35.43949845,3.054108028,22.11201692,48.04289021,45.4789618,-253.2237347,-34.80416826,19.700701,-146.5202917,0,-130.5608967,-415.9971536,0
714.8879995,2792,120.7624405,-5.797926482,33.79578125,-13.64231729,-15.26534513,-43.40876038,92.87869816,139.8778499,185.4146205,17.39049756,-31.65270985,149.4612571,0,153.1469714,165.0835953,0
714.8959995,2792,-17.2491003,11.64894011,-44.2492823,19.47039805,-30.41925798,44.30669855,-192.9217589,-258.9143587,-87.60640376,-49.2146695,19.22843792,-69.81724605,0,-74.17569032,-75.08728833,0
714.9039995,2792,-75.54680589,-18.47419,17.29163452,30.43643113,15.12092539,-17.06797001,218.287426,306.993792,-97.72550886,6.576702012,-14.88641437,-22.06657101,0,8.554731756,-279.586192,0
714.9119995,2792,153.669064,18.35671664,0.527374881,-14.10573654,-28.17593568,6.636251008,-159.262198,-200.4973022,193.9931095,-6.422292786,-7.132289043,121.9908997,0,106.7821782,275.2903258,0
714.9199995,2792,-177.4995545,-25.86850302,-36.65456598,33.14199372,-1.066420667,9.773981086,43.67247157,39.63070553,-256.7686831,-44.43222266,11.59582712,-149.8719876,0,-124.690072,-417.9776305,0
714.9279995,2792,102.3702907,-9.853117904,33.73195575,-15.66606482,-16.60909198,-46.63031267,95.33552454,141.5917004,171.4094831,11.17176255,-48.46898905,142.6433806,0,141.0165186,167.7904913,0
714.9359995,2792,58.32062157,19.50781242,-49.03535205,-10.17069595,-50.20264241,52.83953707,-331.8776817,-448.8785142,23.44282848,-58.12644713,6.511330384,-12.28400304,0,-38.04961478,172.0604395,0
714.9439995,2792,-72.23740868,-15.69024791,-11.989864,4.029307039,-9.746521969,-8.175145871,63.53310566,84.45502777,-96.8823645,-27.08183382,-13.55848675,-38.36754858,0,-16.93856473,-150.9913458,0
714.9519995,2792,33.7655075,-5.685354144,0.086472922,-11.90452291,-17.25077724,-17.16602312,4.886246282,13.00973027,41.57495751,-21.61844738,-22.7378629,39.26516263,0,48.87507543,62.08345673,0
714.9599995,2792,-73.59580211,-17.26804891,-19.36058407,6.64267506,-14.16822633,-4.721961796,18.33174691,14.63234694,-119.6278359,-35.60749034,-1.778784344,-67.44412967,0,-54.59601542,-168.4496522,0
714.9679995,2792,223.2171024,24.39098412,-5.283315982,-41.34852252,-54.42925517,-6.199273669,-239.9579152,-316.7534345,284.1722145,-16.34898811,-16.72501162,170.0182892,0,134.6929217,504.4812765,0
714.9759995,2792,105.8572831,32.09340261,-69.98357238,-18.78311948,-64.97749345,64.89500248,-469.8693137,-642.1969107,59.52443415,-74.73727113,24.15267733,-14.47135275,0,-51.13888897,295.1538324,0
714.9839995,2792,59.3283516,4.301383889,-19.68533265,-14.3265404,-35.59255258,1.839678586,-132.462006,-181.0505563,54.89451392,-31.51608957,-4.253131144,30.60200584,0,19.17406303,139.423098,0
714.9919995,2792,35.79227719,11.02775225,-25.55637674,-7.006379821,-31.37852991,11.62958097,-143.3348924,-194.3104137,19.72003468,-37.38497815,-1.171343297,5.076018207,0,-3.736046328,97.62288302,0
714.9999995,2792,-157.7126387,-14.9948436,-3.41800803,31.34862529,10.82587913,-11.42688471,176.6799498,230.3032438,-211.8740749,-23.09129623,-2.857968263,-107.6018625,0,-72.36854039,-371.1661048,0
715.0079995,2793,127.4099422,14.13300634,28.58040292,-13.61733447,-23.70450163,-27.05967039,-10.98259094,-11.55251212,185.0750683,6.508296644,-13.53324894,131.7722432,0,131.7446669,235.4448979,0
715.0159995,2793,-82.03240527,-0.118989941,-32.91629081,21.08116318,-21.44361045,22.47728402,-105.6260827,-159.102044,-149.5007022,-54.11023108,27.65236139,-110.9234721,0,-93.46829331,-185.1117396,0
715.0239995,2793,-47.78362678,-10.8873581,31.75978656,21.58650658,11.27492614,-40.28561259,226.8984746,308.7788025,-42.44383455,1.505187621,-12.71092663,12.15100349,0,40.74646284,-183.4372684,0
715.0319995,2793,123.209069,30.71629787,-1.030804468,-0.199519988,-29.25323485,24.84340267,-170.4909839,-228.6662497,145.0962806,-13.59833962,17.65582978,90.40253902,0,69.64587548,227.6858034,0
715.0399995,2793,-164.0687291,-3.132276172,-14.67931044,43.66177074,1.72485459,9.5720917,93.52832412,112.1227655,-224.7146718,-26.62280897,30.73322852,-124.1339038,0,-96.89529723,-400.6708433,0
715.0479995,2793,108.324122,17.13903319,33.00757773,-11.62101658,-23.72848884,-56.6616858,64.80350679,100.1005075,179.8013237,20.2852038,-14.95146986,144.8526643,0,142.5962292,169.8739591,0
715.0559995,2793,-45.33369669,0.438769819,-46.23387107,-3.387354381,-38.83465865,6.299272006,-175.1359856,-244.1586612,-91.068149,-49.79486919,23.76769852,-73.45853917,0,-80.86140905,-82.12126121,0
715.0639995,2793,-106.6499149,-27.2514564,12.50993099,8.198038888,5.987842885,-56.30703975,218.5681152,296.5313421,-109.1841396,-12.55892717,-18.0479733,-34.586362,0,-8.170967151,-247.2337725,0
715.0719995,2793,127.3381136,27.43568094,-1.102564026,-11.38932525,-26.8214168,-3.04923749,-149.0776573,-191.2138533,165.4252842,-15.87090316,-1.596977795,106.5529548,0,83.50467373,280.5755235,0
715.0799995,2793,-170.2832494,-2.495828853,-29.56268591,44.12488745,5.469784095,26.48136291,48.93329246,52.46561675,-243.1286393,-34.41176821,31.98466068,-140.2055554,0,-126.6215514,-395.0633981,0
715.0879995,2793,95.44363466,13.11783819,40.27407927,-5.311258846,-9.51145065,-34.07187683,115.2452039,164.1317235,168.726091,29.11523009,-14.01435079,144.6993764,0,140.1097978,130.5798965,0
715.0959995,2793,-17.73400851,15.07787738,-36.2751744,9.652629639,-28.75072812,37.07827902,-181.1045513,-251.658744,-57.27381452,-42.15458149,31.27512888,-50.74062096,0,-62.18761765,-44.58216041,0
715.1039995,2793,-110.3251711,-18.47067669,15.55864635,28.07544139,14.47738266,-28.9193456,229.5486306,301.837224,-119.8641706,-5.945893257,-1.804683112,-39.79938998,0,-13.49648747,-299.4492737,0
715.1119995,2793,136.5512169,17.88777551,3.72398827,-20.40068861,-35.99877564,-12.03315624,-124.6823859,-175.0930838,196.2134847,-10.09642776,-3.945992429,126.4906976,0,105.7212612,292.5446307,0
715.1199995,2793,-186.4666587,-14.5662176,-37.81562462,30.10566987,-12.35671829,13.19438011,25.90997868,13.99107615,-249.9480359,-54.21550466,22.02594591,-156.9558845,0,-137.0132973,-374.7080445,0
715.1279995,2793,74.31907258,6.369043684,41.58665167,-2.052666545,-9.719061771,-35.67116628,129.4169347,185.1670896,157.3970486,14.20100818,-16.87822425,132.3391142,0,135.7903273,130.2883195,0
715.1359995,2793,-20.59766188,14.25099405,-33.10783478,13.26997785,-26.96240206,36.71868986,-182.1352634,-255.6602862,-49.00882159,-47.59227665,35.50077066,-43.89581952,0,-53.40669767,-21.84521652,0
715.1439995,2793,-121.9153006,-13.42551625,17.13665916,32.27761295,14.59363124,-37.85175442,235.5940532,311.0732747,-133.4960569,-7.816976611,2.526274038,-43.7003602,0,-15.52295959,-313.505821,0
715.1519995,2793,141.654436,31.69623333,11.4203252,-9.885297786,-28.5484425,-13.84134854,-111.8577057,-150.8341088,204.4323913,-2.544479535,4.782080869,139.6219785,0,110.8408172,290.1653244,0
715.1599995,2793,-179.4787944,2.211819318,-32.70749809,44.44212861,0.99028331,18.96460593,26.53331597,15.20687982,-249.8681701,-42.45181144,35.70292446,-142.2912118,0,-136.7208804,-388.4408114,0
715.1679995,2793,82.23676599,23.43911039,47.0426601,10.11597166,6.470665288,-34.60714214,142.4209122,199.7572771,153.4590007,30.90353137,-5.204346749,150.408919,0,142.9465171,101.9556045,0
715.1759995,2793,-13.69374777,21.96207722,-29.17957587,15.40090352,-19.48846959,38.36297584,-189.6736265,-271.393598,-40.89849164,-36.70986386,42.01882428,-25.94937354,0,-45.90102195,-30.11976385,0
715.1839995,2793,-137.5931337,-23.75318186,16.69176467,22.30024226,10.30935851,-43.66113622,223.0465793,293.1669601,-142.6735645,-12.73016723,-5.722725662,-43.91085572,0,-20.41686587,-317.721591,0
715.1919995,2793,140.1078619,29.01593047,14.61656699,-14.00721786,-27.51061447,-9.510021767,-123.2935752,-157.9931006,202.359571,-5.92449625,-2.94321887,145.0922599,0,118.3085911,312.4657115,0
715.1999995,2793,-176.5827151,3.600563583,-28.67879947,48.82086349,5.757070288,34.79935479,9.76568498,-3.899258979,-254.1791663,-38.9114188,39.69921653,-138.5096092,0,-126.1880502,-384.5095129,0
715.2079995,2793,71.80419368,12.52653945,46.81148935,1.912318981,-2.312176647,-43.30527052,141.3257623,205.0268946,145.9873836,27.84322682,-15.02359765,145.5793611,0,146.6715724,103.642964,0
715.2159995,2793,-6.509842935,27.44367549,-31.05632829,10.34449951,-29.23855492,39.79319135,-197.7026517,-268.5242469,-41.82187644,-36.60685518,31.28445087,-26.97403031,0,-39.64521329,-0.053460893,0
715.2239995,2793,-125.7867403,-2.689770777,16.88946767,34.6620041,13.55154522,-10.94405306,221.5217598,297.0567778,-151.673958,3.921162231,3.178765661,-44.94052945,0,-15.52980015,-326.0178429,0
715.2319995,2793,143.2835178,33.86776102,15.08696962,-11.16337673,-27.17042036,5.1935832,-113.7585915,-145.452783,208.5743689,12.75279189,3.253648296,148.7389865,0,127.1649285,305.952005,0
715.2399995,2793,-185.5182556,-8.956015263,-38.28120491,33.40943231,-4.737260591,26.49928722,10.56051883,-7.753682869,-258.9284475,-38.29923387,27.9164386,-144.9007338,0,-128.2499408,-376.9909773,0
715.2479995,2793,65.54695471,4.462472746,35.55386574,-12.59878141,-10.48335001,-43.18581806,147.137485,210.532725,133.3319734,21.37381038,-34.18349109,132.8991457,0,134.2135342,105.8077102,0
715.2559995,2793,2.4108251,26.16357561,-33.51787126,5.865043924,-29.02313045,48.38328584,-201.2003678,-265.8069659,-32.79734947,-36.62717843,20.03752607,-34.75102212,0,-43.80787593,10.85891967,0
715.2639995,2794,-124.593261,-7.722462229,17.24455955,33.74297205,17.11940611,-18.74318975,224.5095584,307.0384254,-153.2367864,2.823435066,-9.396898243,-56.0782575,0,-19.88435116,-340.4609287,0
715.2719995,2794,151.7343564,33.60160148,15.88004514,-13.85137857,-24.73497428,-9.098706494,-103.6464698,-128.3653618,217.6778509,13.51138968,-14.68561284,151.7732472,0,127.404938,293.7626924,0
715.2799995,2794,-178.0877541,-11.2216427,-36.33927054,32.58200321,-2.071451547,31.66961973,4.934097748,-12.67350954,-241.0228353,-35.53439246,16.93249283,-143.5558358,0,-127.844994,-388.7334868,0
715.2879995,2794,62.71197565,-7.816690813,42.31968908,-10.58987596,-8.386404319,-39.53152686,153.4743459,210.8918288,141.3521258,19.78479724,-47.06885101,126.7752497,0,137.9744656,92.62512496,0
715.2959995,2794,4.372458305,15.80595052,-32.44489749,3.980523304,-33.21627147,41.08779599,-200.722401,-280.0190212,-24.63239467,-43.52797698,4.484786265,-35.20322885,0,-38.99379346,32.29661891,0
715.3039995,2794,-136.1785679,-20.21840931,8.296696706,26.98373811,10.36611242,-18.61867414,216.7429354,289.1225669,-163.5105673,-7.398136286,-16.68366288,-67.55542692,0,-28.49856513,-327.0911933,0
715.3119995,2794,147.7823965,25.71184593,11.39436523,-18.39180043,-29.21099805,-4.88672069,-107.7327234,-131.2040225,208.453984,3.551800906,-19.4585965,142.2460796,0,127.150704,316.2887546,0
715.3199995,2794,-168.2003338,2.407554019,-36.32115987,38.0260363,2.355712242,37.32098077,-8.802332046,-17.6205127,-252.0773497,-34.63637991,23.46380663,-145.3382905,0,-125.3371123,-367.208808,0
715.3279995,2794,69.71176892,10.34970295,43.85729487,-2.720319193,7.097612881,-31.19625393,151.4065052,226.6216471,130.5860571,39.76887315,-24.69768803,140.2256367,0,141.2511619,83.37468713,0
715.3359995,2794,15.31221981,22.95585728,-31.16821503,4.203095699,-17.79287006,42.72080877,-199.9714237,-275.443625,-16.93907646,-28.37924516,22.38878414,-11.30791739,0,-34.13255161,28.80254306,0
715.3439995,2794,-128.7449464,-13.97004842,10.29224735,27.59103017,22.84423471,-21.53831694,220.5425017,289.0991828,-163.7355621,-3.870574615,-6.017116946,-57.23970569,0,-36.59409644,-344.2232837,0
715.3519995,2794,159.7265071,31.63879573,15.84861651,-15.7675225,-17.30067648,-1.169556505,-103.3641907,-123.1833984,217.7840246,12.50672073,-8.628916926,157.6390725,0,123.5664052,305.2666798,0
715.3599995,2794,-168.0899244,-8.304886325,-39.58893266,34.25251174,11.51126629,31.13686115,-10.69099371,-29.23311353,-243.4939608,-36.83123939,28.48362559,-141.9969435,0,-136.4034928,-382.7935385,0
715.3679995,2794,52.04864669,-12.66977888,34.67777913,-15.41723955,5.595339245,-56.6283862,164.3403392,226.1312698,126.2913513,19.49089088,-39.42301112,122.6916135,0,125.051821,69.86461757,0
715.3759995,2794,10.75926473,21.65340863,-36.02038784,2.400923132,-21.46699923,39.23779325,-205.6247403,-280.483866,-14.40328217,-37.91428112,4.923498145,-21.09548395,0,-35.95087107,56.6734172,0
715.3839995,2794,-132.7514332,-3.486348985,9.179386475,37.31357809,30.09408831,-9.991623205,212.4431298,285.1377844,-169.1110323,4.992112203,-4.05364178,-60.54818966,0,-34.7671858,-349.9877862,0
715.3919995,2794,150.4802401,21.29604211,11.98350233,-24.93748111,-19.92175838,-14.06572112,-93.46203866,-121.8673309,220.9210312,13.69613101,-11.96744094,160.8914044,0,129.7316037,304.1386196,0
715.3999995,2794,-171.301383,-7.363839354,-44.49276177,29.96449794,0.165842307,30.74310521,-19.19504973,-48.47833217,-243.3826147,-42.60169415,19.48026854,-146.1026972,0,-138.6992732,-354.846062,0
715.4079995,2794,67.24453302,11.49953489,39.56567137,2.943642572,7.589174623,-34.83708716,160.0147211,227.8311995,124.0607287,34.19434405,-25.13524895,123.565007,0,126.3415135,55.44490199,0
715.4159995,2794,135.4991616,39.14477238,-28.47758099,-13.43288585,-35.5956919,39.28965434,-314.8850041,-421.4201103,153.0427445,-16.50447207,19.05638083,76.80650755,0,40.30798365,279.869565,0
715.4239995,2794,-81.06237918,-1.215264751,-8.514893007,17.09220636,10.0937013,0.741676432,54.27081423,65.39663286,-85.00027901,-8.860716745,0.827061364,-40.62784214,0,-31.99151854,-209.5811148,0
715.4319995,2794,14.75026579,21.28931844,-30.12709533,0.862094238,-15.33895046,45.62866471,-192.2268412,-265.2162712,3.680752703,-25.01971383,18.03269123,-15.9557608,0,-35.34626453,9.099421308,0
715.4399995,2794,-202.3537422,11.56530548,-104.4780236,37.24838227,-18.05581463,113.9395657,-352.3325794,-503.6231976,-353.6006306,-88.62194995,68.51804491,-274.669051,0,-283.4763354,-406.3577974,0
715.4479995,2794,-60.16275155,7.020123309,-22.60526736,13.49461829,-0.146742924,25.98725578,-54.93651335,-81.17790465,-81.11811572,-20.27413339,11.88152259,-52.93446482,0,-54.91037557,-159.9558763,0
715.4559995,2794,-61.04132995,-0.035386157,-26.25076518,10.76877538,-2.819006256,25.36176563,-72.8539264,-107.5848741,-92.68559019,-25.98890689,16.18547634,-63.6900364,0,-64.60964604,-166.9507953,0
715.4639995,2794,-23.36167003,-21.97102025,22.98276252,-1.500415765,14.69108476,-48.81080672,180.3950564,243.5836118,9.624445798,7.810752641,-23.83233055,36.98400906,0,53.4504574,-120.0477132,0
715.4719995,2794,80.02456579,4.084314538,-8.996709278,-23.95109615,-19.15002906,-7.373464467,-105.046193,-140.5809736,117.8104004,-14.67280976,-14.35076504,68.97033179,0,52.51551102,156.6398003,0
715.4799995,2794,-155.6280683,-19.11301703,-36.8500664,16.84704359,0.864498269,12.67294208,22.18119385,15.14296939,-213.3989654,-38.00628364,5.002532214,-136.6773201,0,-119.2884526,-345.8609139,0
715.4879995,2794,92.69173771,5.153990869,35.60555234,-16.120071,1.133783137,-56.70951596,127.5950465,186.4875667,167.9274697,27.36767123,-36.67412275,135.4708211,0,140.4289193,131.7904871,0
715.4959995,2794,-20.92405217,18.45765152,-41.57866621,4.208864808,-13.68627493,35.2152861,-176.0364108,-245.6073462,-61.27380218,-27.11720436,23.55406897,-54.9275365,0,-67.36280011,-67.26481045,0
715.5039995,2794,-100.1867146,-18.30486563,7.311186597,11.67935726,21.0953599,-21.69061116,207.234536,268.9683843,-104.3735345,10.85934897,-14.56812376,-35.55192799,0,-18.03223246,-288.6578113,0
715.5119995,2794,134.4822112,23.40078868,7.262991986,-22.92016507,-11.99724519,-1.996041276,-79.92750268,-101.9901,191.0090318,11.79330083,-17.64643774,125.6206126,0,102.6287389,241.9351428,0
715.5199995,2795,-156.7061912,-8.781989525,-39.82268789,23.0085603,6.486962392,32.58080955,-9.338648819,-30.62501056,-218.598216,-27.3769641,25.72334918,-138.2192322,0,-123.1171539,-366.4180182,0
715.5279995,2795,49.2159601,-9.556253655,31.49076201,-20.08130923,-0.343617771,-50.83026462,165.3606933,233.2338883,133.6474003,31.49205515,-35.2638518,114.4852962,0,126.3648733,46.69995181,0
715.5359995,2795,14.90221034,24.44368219,-41.1202828,-2.134105164,-22.67252441,34.67469337,-195.9835596,-260.390917,-8.702271318,-29.28452687,8.034695184,-25.68756911,0,-40.21985913,19.62770571,0
715.5439995,2795,-127.4425172,-6.828337211,1.21767965,31.95436107,23.79422579,-14.11927201,205.3055623,278.0397076,-155.4614622,4.332818281,-2.231676186,-66.6543798,0,-43.82283255,-373.8767345,0
715.5519995,2795,144.4762935,21.91543568,8.777889679,-24.15743051,-19.2759367,-15.70580823,-69.08698236,-75.72887427,221.82598,17.73731687,-11.01921665,147.5883418,0,120.8913497,235.5878652,0
715.5599995,2795,-155.5488106,-11.26641819,-47.84519268,18.0931269,2.748914692,23.81537105,-26.45325258,-48.32732364,-217.2186587,-37.47203248,19.30934226,-140.2821411,0,-136.505676,-369.5628723,0
715.5679995,2795,43.72292672,-4.547731564,34.81149775,-8.396394426,15.17434107,-50.6931522,180.8617405,254.158743,108.6133046,26.03820501,-32.7069925,105.1572006,0,107.9000527,5.652312822,0
715.5759995,2795,39.09372276,23.39583767,-29.99436268,-0.172281139,-17.18830239,32.39921007,-202.8072076,-274.0744911,21.40701578,-28.19627724,15.58143301,-8.208017759,0,-30.09987865,45.83702842,0
715.5839995,2795,-136.4886321,-15.71136775,7.873102679,32.14838705,26.7574224,-13.66316721,201.31316,261.3954811,-172.6911613,-2.240151527,-1.279432652,-89.072492,0,-64.18410971,-401.4782176,0
715.5919995,2795,159.619689,19.26300308,23.79362324,-22.82548781,-11.90938179,-21.61671198,-68.32517281,-83.64416832,234.9308733,22.85144577,-6.551767779,150.4455663,0,126.9084302,247.3518683,0
715.5999995,2795,-147.4388463,-14.76128557,-41.98281008,18.38869379,-4.524899508,17.06798024,-44.56650817,-77.71382613,-213.1610179,-38.13690733,29.64749211,-146.1714568,0,-138.8913389,-371.9014213,0
715.6079995,2795,40.99338788,-11.44482439,35.11979189,-12.81869197,0.645349684,-52.32607117,184.5918791,252.8678648,104.1993743,20.24174148,-33.7750304,91.27096586,0,95.30084953,-4.017040508,0
715.6159995,2795,38.36243035,10.61962541,-34.3661147,-13.42934695,-25.18448492,28.57872631,-200.2596214,-276.5529993,32.39374452,-29.64551306,12.77740614,-6.466066734,0,-27.31199495,68.2526587,0
715.6239995,2795,-160.3997985,-36.31922526,-7.171826818,14.15475477,17.17839055,-28.73025044,200.4089719,263.1308616,-191.6182468,-14.46281192,-8.218853892,-100.9924063,0,-70.75486274,-395.3387991,0
715.6319995,2795,147.4745826,10.36216266,8.921672333,-34.72540278,-21.11153809,-27.92620618,-64.93845844,-74.08841895,223.9773988,2.40827617,-26.71878018,142.8859305,0,119.5059271,303.1387751,0
715.6399995,2795,-159.8168763,-16.42199818,-57.17836895,13.77577037,-3.206505158,27.41846483,-49.72252605,-89.76920506,-226.3594918,-51.86265991,16.5857773,-153.4206853,0,-146.8122118,-319.4887462,0
715.6479995,2795,20.53758808,-21.70397229,22.88791916,-22.42007211,2.554237612,-59.634784,183.6098837,247.5771713,84.54448798,7.514188425,-46.2869069,83.44141182,0,90.4970291,14.53172582,0
715.6559995,2795,36.77110732,12.91507102,-41.47325185,-15.14419997,-26.05157282,19.64255783,-216.4400899,-292.3882965,30.29963788,-48.57341895,1.426726683,-9.961158039,0,-35.81963947,108.5103904,0
715.6639995,2795,-161.0722535,-24.77208374,-8.878714355,23.66261566,23.06871916,-22.49444198,194.564508,253.819514,-191.6187745,-19.97484407,3.873807569,-106.2688932,0,-82.63322696,-394.4560923,0
715.6719995,2795,148.6255954,15.16062136,15.75298141,-30.24364194,-11.75701125,-25.8406706,-55.07150797,-62.71602264,239.1898107,8.562301031,-14.46495065,149.3211062,0,127.2410665,295.6055971,0
715.6799995,2795,-156.499651,-0.238707413,-48.39016208,30.90864922,9.114475077,37.27478337,-55.71532961,-85.1696426,-216.1810918,-42.70708156,26.52891254,-149.3005313,0,-140.9777261,-323.7827674,0
715.6879995,2795,26.55842219,-2.782803752,33.90848591,-0.564985535,13.84733034,-54.11556291,199.3184706,273.9105247,91.9818149,30.37173505,-23.51796135,91.07925457,0,100.7358477,-17.09118607,0
715.6959995,2795,50.76217172,16.32833445,-31.87953798,-15.82648029,-25.58200152,16.29876603,-202.5844988,-279.3829805,50.31074873,-29.88045469,10.07469032,5.437584947,0,-18.2991942,113.8286384,0
715.7039995,2795,-159.3383362,-21.79669974,-6.138893862,21.54235938,18.27493476,-20.99248281,188.3762629,248.0802425,-197.7887572,-15.73782086,-6.969149898,-105.8289922,0,-90.95037712,-379.9731447,0
715.7119995,2795,155.0279292,16.454609,17.66709395,-31.85347732,-21.51698498,-39.60091798,-54.12090471,-59.30457818,235.5809831,5.531621177,-25.69236879,154.4651318,0,114.8402554,312.7022706,0
715.7199995,2795,-152.3456958,-6.505372296,-49.09995923,20.93968321,0.107693737,24.22219236,-62.56941737,-96.28903149,-216.3868986,-56.86772031,17.92192877,-147.4865092,0,-153.1777432,-291.5826028,0
715.7279995,2795,21.46347948,4.014991324,34.58014379,3.922937204,18.48762493,-43.68310406,196.4645784,274.8010661,81.16446231,20.0705772,-27.34184705,88.1901885,0,85.80731785,-2.927156667,0
715.7359995,2795,66.39278056,39.49918813,-24.8086025,3.087390296,-14.14907788,36.74789702,-201.8129231,-278.8388205,61.75668117,-26.3218781,22.85414874,22.48938141,0,-18.25237262,117.6862418,0
715.7439995,2795,-147.5344006,-2.109070107,3.68348371,40.12355791,32.05912656,-2.829502945,199.3930076,247.3154234,-191.6674595,-3.69014963,17.30887463,-86.90636165,0,-78.90330307,-405.7726996,0
715.7519995,2795,162.9907918,25.19301216,28.57793168,-20.91740954,-13.16386298,-29.64557353,-31.19209326,-50.97764385,240.8164179,23.7269249,-7.062161132,175.6893078,0,138.259228,293.5485547,0
715.7599995,2795,-141.2824938,-2.876850773,-44.60991679,21.90629598,-7.513907319,26.21432028,-58.51443811,-110.1040263,-210.1923047,-50.80945642,27.79813764,-135.9303891,0,-145.6403593,-291.8580306,0
715.7679995,2795,22.40249514,4.452352705,36.66225117,-0.266082777,4.891367167,-51.77977805,206.1858776,271.4187825,75.92433703,18.94498397,-23.01024668,89.52901922,0,88.50646673,-9.376313826,0
715.7759995,2796,65.01601426,29.39105275,-27.55133061,-8.563001037,-35.11783581,15.31473326,-195.7788338,-284.6890958,58.3027945,-24.33075349,20.21748539,28.68172647,0,-8.274134647,147.2026481,0
715.7839995,2796,-160.317197,-14.69145169,-5.247634035,31.10226225,7.059252533,-15.51089432,192.7669637,235.5238623,-216.1909326,-15.16287162,6.328438344,-102.0657713,0,-95.82187567,-372.2451771,0
715.7919995,2796,162.9633857,28.83017803,32.17914406,-17.21391086,-24.69506881,-22.08887354,-27.87470251,-46.90924906,228.8306422,23.49055008,-6.7449852,169.1635962,0,134.0999752,316.0951177,0
715.7999995,2796,-134.1561208,-3.33260953,-41.01565336,23.47232099,-18.47630577,26.14709585,-65.48270704,-121.8431351,-209.8941789,-34.1885858,38.77760656,-128.3738872,0,-130.8227117,-266.5458173,0
715.8079995,2796,10.23689771,-16.70640927,31.73009466,-6.57564662,-8.316298053,-62.65044545,196.6486405,261.8477972,59.98368042,19.1122765,-28.51117697,78.71614581,0,82.50885058,13.87410904,0
715.8159995,2796,48.61597242,6.458866687,-31.33234916,-17.29998957,-37.19024006,7.498003949,-209.2006039,-305.9153206,54.27784965,-34.36041403,7.644839845,17.80797188,0,-16.15626856,183.6702929,0
715.8239995,2796,-189.1115892,-35.3641798,-13.53384663,24.01500575,11.71450542,-20.94400518,181.6348525,212.1997126,-231.1165714,-32.92493579,-5.62661102,-118.1540958,0,-99.41646242,-355.5103408,0
715.8319995,2796,138.2943,15.02857682,22.66569715,-17.63713535,-11.12242014,-21.19894151,-27.39346903,-44.36661454,214.3680789,-2.445440635,-22.93275436,155.72984,0,130.4062173,335.8206615,0
715.8399995,2796,-151.1559858,-2.203678267,-45.68268367,33.88227487,9.274102201,41.24471925,-70.29827135,-125.2065044,-216.7347437,-48.5025995,36.85565003,-130.0128017,0,-136.3142202,-262.6195868,0
715.8479995,2796,-6.079452595,-5.645568398,36.47110147,11.25574195,23.20268167,-36.0116029,209.9244084,289.832702,44.58491876,17.76757175,-17.8248925,81.83102379,0,82.71786404,-33.07185142,0
715.8559995,2796,51.99252192,20.62259683,-24.05533241,-6.611726403,-17.94594745,23.093278,-194.6358079,-261.9932819,58.69947612,-31.14251373,19.58532257,30.43185721,0,-4.830101461,150.117643,0
715.8639995,2796,-189.6214443,-33.16885348,-15.43239337,21.59547275,16.78684278,-27.00875253,182.6894045,232.344975,-225.1376647,-27.08605223,5.954941402,-113.9029454,0,-95.81797074,-391.7514419,0
715.8719995,2796,137.7187886,5.847216337,18.88286915,-30.77941267,-17.48031838,-33.39679102,-27.96697175,-29.12555531,222.0465606,-2.666023791,-26.48583608,151.8016556,0,131.4387439,315.6942098,0
715.8799995,2796,-148.5339227,-16.2504717,-52.66670023,10.80141942,-8.759545422,17.60533063,-80.77098761,-130.9914818,-209.7569075,-59.87058315,21.48670832,-142.7689136,0,-141.6227032,-248.1191139,0
715.8879995,2796,-11.33888862,-21.53636959,26.91555881,-8.613926801,3.570720996,-74.46136806,206.3682803,275.8441065,39.57267967,2.865999691,-36.2696129,62.22695411,0,69.63996021,-9.14545236,0
715.8959995,2796,66.53029071,24.34296457,-23.12846138,-3.817358903,-24.30892836,14.28073219,-204.0431107,-283.2034892,66.57195046,-35.67512199,9.883603603,24.42335247,0,-4.853158515,195.2032349,0
715.9039995,2796,-174.3288484,-22.15614867,-10.21226264,33.25467693,21.92348564,-12.19281719,177.2468803,216.6979495,-223.5504673,-15.35208442,15.05508749,-112.4223919,0,-91.8699106,-382.2073436,0
715.9119995,2796,146.5380539,9.422239259,20.44886625,-25.25491223,-17.09527515,-29.54355204,-22.048075,-24.54001726,223.3870633,7.220094977,-24.56219217,158.4308124,0,129.1783857,320.3241945,0
715.9199995,2796,-130.318369,3.447922119,-48.72364229,29.31138086,-8.259706129,37.61374984,-88.07270785,-134.2632846,-206.3425583,-52.52317463,25.28407304,-135.1200346,0,-144.4132718,-240.7032121,0
715.9279995,2796,4.476967134,-0.322508717,34.19895717,10.33295647,9.74038503,-49.72852068,217.5291272,283.5980467,42.08865983,22.02817,-13.81375661,78.05873911,0,81.95928902,-44.37541915,0
715.9359995,2796,79.6490272,32.96715139,-19.50633768,0.942603588,-24.52537057,22.13607384,-196.2179791,-285.8791556,88.33017779,-25.21879438,19.88110556,47.5584118,0,12.17868423,192.453207,0
715.9439995,2796,-169.3747577,-3.651511027,-5.071078295,48.1812894,22.72550217,2.740342935,172.7204698,209.870412,-216.5747065,-8.967111153,21.58215765,-102.5012303,0,-84.40016078,-387.5224609,0
715.9519995,2796,153.8851112,25.63655816,34.71497178,-12.6921077,-13.95315648,-19.2428201,-9.32649992,-12.53976383,229.1026574,27.47160997,-3.72283304,177.2348695,0,149.3559961,298.2716478,0
715.9599995,2796,-127.7779372,4.384595872,-37.96161822,30.14134333,-6.714424427,39.47585789,-86.27175861,-139.3129385,-195.5809397,-44.22178471,38.68665855,-123.9795871,0,-130.0518695,-233.5146425,0
715.9679995,2796,-1.19186296,3.576550017,41.03645843,19.42291787,18.48236402,-33.28456708,218.4885094,292.9026117,40.57179754,30.17237804,-2.103809586,72.65573746,0,90.68679301,-56.27698465,0
715.9759995,2796,89.23411759,32.29923022,-14.22291125,-1.481367108,-28.25791478,32.37945619,-200.1447147,-281.5250835,97.86264685,-12.15351503,31.30263941,50.59992705,0,25.10433526,185.3211764,0
715.9839995,2796,-164.9022401,-11.64060105,-9.721190552,35.25815864,4.367344759,-7.272205124,160.0950371,198.1626058,-217.9877763,-15.64003916,17.8628294,-115.2003679,0,-86.35359796,-380.2308333,0
715.9919995,2796,162.7975719,31.65086658,28.42777557,-9.059312673,-22.16893085,-21.15325201,-13.22659522,-9.50750479,230.7650139,29.50153438,-4.465449197,168.8836137,0,163.400013,298.7903544,0
715.9999995,2796,-110.9962826,10.65270233,-44.2687246,32.0545516,-15.98128997,44.73555279,-99.6331124,-154.4227639,-185.0008837,-30.15864351,44.09499204,-119.9770266,0,-116.7949196,-242.5922615,0
716.0079995,2796,3.605405746,-2.38475779,33.98975329,9.128746576,2.074261534,-43.4522719,213.1722143,286.450636,36.95400438,33.30569617,-9.79604533,66.69833905,0,85.38640229,-69.65459999,0
716.0159995,2796,106.1817156,40.35853571,-13.48317915,1.790292151,-27.00939367,33.87663326,-202.2382179,-282.5000247,98.71152834,-6.346706431,25.55939903,53.39286462,0,34.61738636,187.7950304,0
716.0239995,2796,-150.0008291,4.801574916,0.353593353,48.29454423,23.96032354,13.41378383,159.8476666,191.756851,-221.8696157,1.000303281,29.20660948,-105.8850222,0,-80.10434002,-405.624696,0
716.0319995,2797,168.1456154,30.39888576,42.25029704,-13.68709752,-10.77832661,-21.37575399,-0.955165713,-2.100989487,236.2134603,40.40757159,0.168711984,178.9701828,0,164.6330883,282.6918991,0
716.0399995,2797,-105.3303039,4.483772922,-37.97090032,21.31324105,-10.36630987,34.54377323,-101.0058005,-161.3056588,-181.3387201,-32.63335853,33.93906429,-121.022648,0,-115.0579318,-230.1224006,0
716.0479995,2797,3.067026746,-0.930572309,37.00466373,6.214532205,13.087661,-46.11954417,217.7800889,286.1804786,20.27160167,33.12294789,-20.13581743,59.81214033,0,81.43104928,-74.50820178,0
716.0559995,2797,106.6827002,39.20775458,-12.16046027,-6.07702919,-26.9181887,27.34854766,-198.3596653,-284.9264296,95.00429723,-4.348302066,16.94633617,57.92808863,0,33.09040675,203.4496183,0
716.0639995,2797,-160.7180502,-4.83145311,-9.158154999,36.30376485,12.48762291,4.290873516,152.4680457,183.217674,-232.98096,-5.924668497,13.21425994,-115.0458,0,-91.41105057,-388.2283971,0
716.0719995,2797,168.0055424,30.73239127,34.32194589,-18.41376473,-13.22511563,-20.76054866,-5.247809868,1.729592849,223.7195185,39.36346038,-12.0707866,171.4822313,0,161.8402907,297.32113,0
716.0799995,2797,-95.98731782,15.63442537,-40.6749014,22.77278578,-8.130060116,44.99465802,-112.8591682,-172.0610591,-182.7548953,-23.66383751,42.69471318,-115.1457545,0,-112.2464208,-221.8244732,0
716.0879995,2797,-6.323650381,1.736800086,34.91705011,7.145866447,6.028671663,-41.69230153,214.1914636,291.1728701,17.77467375,36.68861981,-11.76345486,62.71553622,0,72.15168159,-88.38670422,0
716.0959995,2797,106.5709469,43.32090063,-10.08526059,-4.215473258,-29.77185485,33.93103689,-208.2275563,-274.6575779,101.8078187,0.915768027,21.44144708,66.91345211,0,37.03838609,202.4706716,0
716.1039995,2797,-161.975098,1.045752042,-8.702078318,41.04327186,17.11734151,14.21138557,144.3925585,181.9880036,-238.3376418,6.022677522,22.79573441,-109.0323142,0,-89.24177523,-414.4049807,0
716.1119995,2797,157.8251559,26.3833053,31.61681711,-18.48011404,-17.28593343,-24.3365371,6.540270857,8.091364393,222.0970302,46.80431278,-11.07554511,181.0343113,0,158.8727484,270.5538237,0
716.1199995,2797,-104.6035616,8.764252494,-42.59209949,19.17602515,-14.85106127,42.60354949,-117.9948569,-181.4419099,-182.629297,-28.07858364,36.00965113,-110.6015646,0,-109.4357766,-220.3582316,0
716.1279995,2797,-13.59997258,-1.562219918,37.26311532,11.15499649,13.69620223,-33.96917398,214.6123773,293.4789822,10.19702132,34.36500898,-15.4439839,55.03574605,0,75.05052578,-102.0015415,0
716.1359995,2797,108.2282773,29.39442409,-8.853338217,-5.646267177,-19.29274832,28.47480408,-200.9224111,-275.2160791,115.7362796,3.407318261,20.98053652,64.30287985,0,40.97313673,196.1170481,0
716.1439995,2797,-174.0442734,-21.19175784,-10.3489196,31.42040733,19.24039871,0.024157602,137.2565733,167.7384631,-236.3014689,-12.47762798,14.63596589,-128.3235961,0,-100.2118527,-412.9774778,0
716.1519995,2797,154.0233264,23.07100987,36.92914646,-16.52690109,-3.44563081,-23.00096355,3.583614529,18.94409933,224.8048888,28.75256947,-16.16195806,164.0534635,0,153.2879417,278.7711747,0
716.1599995,2797,-101.4797042,0.436596971,-41.82745534,15.91825924,1.182945587,37.43866573,-119.7438364,-182.3024546,-171.3094493,-30.26960976,38.64364415,-115.1624327,0,-110.1674078,-218.9370248,0
716.1679995,2797,-37.20998571,-34.0412399,26.77745287,-7.884402917,9.54482069,-55.00171802,219.0738921,288.020427,-3.788687317,17.20440772,-32.50616841,38.22790483,0,55.73281095,-104.9065708,0
716.1759995,2797,103.2530181,19.11950477,-17.91509642,-9.918917447,-22.90638123,30.62713775,-203.178298,-274.8853319,104.5020398,-12.72390214,2.484418304,53.96415935,0,32.59333738,224.9096876,0
716.1839995,2797,-167.8877163,-23.39636193,-21.12001505,31.83098735,20.68061059,3.922333218,138.6608249,166.222184,-246.7860181,-4.355214287,13.62236584,-131.3115939,0,-93.93330688,-413.4016034,0
716.1919995,2797,142.4887933,-7.149413707,19.50397429,-38.85655403,-20.95959985,-46.99664687,15.48794606,20.07645695,210.2178828,25.77457868,-39.26164827,154.8326259,0,151.2989442,287.7595896,0
716.1999995,2797,-105.8365048,-9.397606121,-55.1205225,11.66455915,-14.66615976,34.26223786,-132.2743126,-195.6465038,-189.3883573,-49.2101091,12.63654335,-138.4476922,0,-123.1334626,-176.361436,0
716.2079995,2797,-30.97172112,-14.95564907,25.15452632,13.4296586,16.35764933,-41.2563242,218.8270827,295.9887562,-17.94931017,25.43848744,-23.41967927,23.61820305,0,61.56660489,-109.2391725,0
716.2159995,2797,112.111565,26.62860607,-19.52086304,-8.9572563,-22.33211373,27.2832428,-194.8118058,-270.7262505,113.7087131,2.976042568,11.83111184,65.19386813,0,52.29531496,227.5238126,0
716.2239995,2797,-163.5516669,-8.631186277,-22.18663308,35.92698329,19.1281766,12.09184557,131.6925042,159.2798282,-249.897353,-6.377074696,18.35363916,-130.2909239,0,-96.90311865,-408.929043,0
716.2319995,2797,160.9737262,26.14433226,30.2549971,-16.17763323,-13.32614071,-22.09493438,17.47818093,36.65367727,216.203058,40.18625583,-17.80007845,163.3523661,0,159.3371922,271.9051206,0
716.2399995,2797,-76.27652607,12.18623917,-48.34167321,18.57427839,-18.49949583,54.53635452,-137.2900347,-198.9673001,-169.357901,-21.09460344,37.29984839,-113.018424,0,-104.3941051,-191.0041817,0
716.2479995,2797,-17.75916883,-8.213548901,25.02185911,4.920971549,5.750484209,-38.25864196,214.9806579,290.9341028,-15.58815436,34.57077122,-13.35896998,32.04547644,0,59.76783174,-130.794094,0
716.2559995,2797,118.8491638,30.33445286,-17.20493687,-15.51199443,-31.13893497,18.42393913,-201.4361816,-281.8956414,126.9291778,-4.352473813,10.51001325,64.75401647,0,44.19163328,242.7288412,0
716.2639995,2797,-161.7141127,-9.171406163,-22.63520924,35.99428225,15.87489279,8.525224763,123.3887144,138.6645078,-247.3063391,-6.087005124,23.07539439,-133.0911507,0,-102.4902355,-399.8910015,0
716.2719995,2797,162.1187061,22.19981789,28.16006834,-21.1785157,-11.07597979,-31.90165004,23.93541792,36.79341808,218.4258057,44.96517472,-16.30305701,166.2417342,0,162.5220168,275.0274033,0
716.2799995,2797,-79.06200486,9.840976124,-50.25602092,9.817461112,-11.19190568,40.50433731,-136.5892782,-209.6974742,-154.6428812,-23.67315401,35.20114462,-111.6824364,0,-104.2604269,-168.6348204,0
716.2879995,2798,-25.6768711,-9.015466201,26.30485488,4.062412692,21.25093674,-42.08888327,227.3976624,297.1096284,-16.78426823,37.69501528,-6.841565162,25.87827853,0,59.58209676,-132.6948102,0
716.2959995,2798,120.730294,30.51653421,-15.26167117,-18.26357163,-24.68713489,24.27165734,-196.0134311,-268.2364716,131.6173538,-1.501445516,10.2966423,65.02005928,0,48.07783088,251.242026,0
716.3039995,2798,-172.9857254,-16.96515241,-24.12254323,25.21148712,14.56655315,5.462201818,118.5018348,139.3956488,-252.4804734,-14.08176746,18.38139722,-142.4577203,0,-114.0199296,-405.179343,0
716.3119995,2798,148.4550931,1.38592284,28.05909715,-34.02189081,-9.774130734,-56.12768392,36.6640427,51.8833255,208.1462806,29.80811985,-22.43939603,152.9950381,0,150.6247931,264.6453327,0
716.3199995,2798,-80.42782375,-1.393064171,-53.13811126,10.56693781,-14.4465383,36.60634085,-143.4268404,-210.0494215,-161.002422,-43.30709926,25.29995826,-125.120486,0,-116.3908289,-163.2204103,0
716.3279995,2798,-32.06121355,-14.46431851,18.80187007,7.924633681,14.44952518,-30.93308912,219.4502063,297.2373079,-29.40360992,27.2874549,-13.40611781,13.3815862,0,49.37401384,-156.7477525,0
716.3359995,2798,127.6872434,18.71089135,-23.26421892,-24.57610662,-30.30678993,18.11284716,-193.5766921,-268.6650183,139.142102,-1.914765123,6.749026435,65.44837465,0,53.26646445,236.0276452,0
716.3439995,2798,-164.7739005,-13.6695684,-29.66821032,33.11315259,15.10329347,18.28828084,112.6772003,127.0000543,-251.4265851,-14.27020124,19.85068602,-150.2520213,0,-115.4013042,-423.2714821,0
716.3519995,2798,147.8800477,12.16497982,27.42857666,-24.27039179,-5.719097152,-30.42334909,39.9867203,53.37432242,208.1949328,35.27624527,-17.20347603,151.0848151,0,157.1881744,242.6495815,0
716.3599995,2798,-77.93648916,-1.608290795,-56.30410624,2.316781964,-20.30847195,33.05228266,-143.4642574,-220.9868811,-150.3994867,-38.92228071,25.23197957,-118.7632718,0,-106.8352732,-163.0305151,0
716.3679995,2798,-29.29782068,-8.026891509,20.12883059,7.793100447,6.774513289,-43.54791962,220.9605206,294.5161738,-32.37829809,27.04964491,-15.56816411,14.54354378,0,43.75690917,-156.5570546,0
716.3759995,2798,137.5016925,32.33534308,-11.62255767,-15.90353164,-29.27413626,18.37415961,-193.9896346,-260.7962234,146.6340385,3.279562874,17.00432382,78.87552866,0,62.14176319,254.6886806,0
716.3839995,2798,-162.161766,-12.78096725,-24.09471428,28.94262364,7.04556732,15.60357972,107.6430373,125.5852989,-242.7021781,-10.71420605,28.1025494,-143.8104998,0,-110.1908034,-415.3117417,0
716.3919995,2798,162.9018378,20.28344683,33.72353883,-25.40951299,-20.37155981,-33.2445089,43.15916444,65.22849011,221.673534,44.70282891,-12.16957246,158.3902635,0,158.1006308,239.5834829,0
716.3999995,2798,-58.0024771,14.96331106,-45.94072176,11.23724691,-24.45993862,35.21560214,-150.0467846,-220.5549025,-131.8272503,-21.63926797,42.82500605,-103.1518587,0,-96.51105124,-158.4261645,0
716.4079995,2798,-39.91005147,-9.556389102,22.48457791,6.023004112,4.40841575,-49.70554204,224.4306763,296.4937948,-33.39748218,33.03973202,-7.42123427,17.79811115,0,40.30540005,-169.5143256,0
716.4159995,2798,137.2497939,32.63104069,-13.69018081,-20.9565056,-34.60745839,14.39033803,-190.5363143,-258.4615663,147.035094,2.944206922,14.47827772,83.47898765,0,56.56769891,258.6963535,0
716.4239995,2798,-162.5540108,-7.741439256,-27.9906209,30.73943291,6.807782157,18.46630716,103.1012974,118.8712824,-252.0475732,-10.12381814,29.70606648,-143.5793981,0,-113.9296044,-414.4650889,0
716.4319995,2798,150.734977,20.03625413,34.18440228,-20.4072397,-12.41061703,-28.06647972,54.51970702,77.21251714,211.3435703,44.72006481,-12.50678522,161.0877036,0,155.3971439,237.6324481,0
716.4399995,2798,-56.94947452,20.41225422,-44.3047382,16.94411363,-12.60676152,47.24383599,-148.268507,-219.893081,-138.2000566,-20.11072337,42.25383558,-96.20809674,0,-101.1421356,-146.5203261,0
716.4479995,2798,-40.16670695,-5.408680786,21.28399769,6.606479751,12.34100971,-45.55376251,232.526639,299.0280631,-52.35074642,39.26474226,-12.0346238,15.44513656,0,31.84211831,-182.7230125,0
716.4559995,2798,142.4112654,40.42448612,-7.20612457,-16.41111568,-31.3404864,15.05366522,-178.0716078,-254.3149412,145.7913725,10.41453496,7.537392727,93.42433596,0,58.7108421,264.9413101,0
716.4639995,2798,-159.9093326,1.400335384,-19.01491025,43.89459215,10.95824568,25.14411365,105.0753426,112.6199444,-256.3151904,-5.988074565,34.60947742,-131.9442215,0,-114.4100388,-408.6813973,0
716.4719995,2798,152.9807735,19.33188195,39.83466506,-14.85473431,-12.36929155,-29.52690088,64.44710799,83.00305136,207.3445301,43.43906036,-10.90044701,164.6331876,0,155.040115,233.6207513,0
716.4799995,2798,-45.32239623,22.02711415,-37.96277906,18.56439339,-19.442319,48.31269412,-146.8160613,-223.9144121,-124.5988316,-30.88907472,41.62063736,-94.04234449,0,-98.8505639,-127.1061532,0
716.4879995,2798,-39.24225651,-5.885051562,26.37375112,11.81722951,4.311337059,-45.70479911,237.1768275,304.8818289,-44.71512143,26.10648699,0.186814013,14.70118797,0,35.17052836,-177.8715889,0
716.4959995,2798,142.0376838,32.06431498,-10.08931393,-21.88069139,-42.12522567,-3.850412325,-179.0936068,-256.9330477,162.5734445,-3.675705873,9.656101598,93.34004699,0,67.74959421,286.5226068,0
716.5039995,2798,-164.3160544,-4.978987052,-25.31470721,33.94655797,1.741782869,9.28341539,94.26748648,91.65378573,-250.869227,-21.97310011,26.70169747,-143.5835482,0,-119.4449795,-385.6887422,0
716.5119995,2798,145.2159653,14.36333494,36.07063726,-25.27075867,-25.16407585,-38.3536476,62.12418869,79.28630453,202.7714507,34.49893166,-15.31900244,157.4664372,0,149.2153927,252.1798191,0
716.5199995,2798,-52.41565229,20.20098608,-49.28767011,3.616681491,-39.38796942,35.07676915,-171.8139708,-251.7216349,-128.3687089,-33.40567119,35.23844703,-97.98336359,0,-104.0676785,-95.98550662,0
716.5279995,2798,-54.18244232,-5.296414405,11.90225972,1.13735812,-8.323846722,-53.47253841,213.2362214,280.6344129,-64.21390656,25.83101545,-6.678803408,-0.557722644,0,19.03671495,-178.5011377,0
716.5359995,2798,134.3228242,26.49268574,-20.33227455,-34.01870361,-47.15579703,-4.211623461,-189.7356621,-257.3084207,154.4568215,-4.328600844,1.150385902,85.88575071,0,55.16731251,292.4336671,0
716.5439995,2799,-177.2973094,-8.779421714,-35.49206683,30.17970199,8.663788995,15.01868046,79.83460034,91.77602232,-269.4775535,-22.70390722,20.72201763,-156.3790091,0,-136.1145783,-392.9595224,0
716.5519995,2799,130.7091399,10.82477308,31.05471693,-19.2528148,-8.014616689,-37.0195929,64.88023107,100.6363964,180.8132528,35.58009889,-18.47528768,149.4940279,0,143.1852712,220.4367225,0
716.5599995,2799,-57.71400162,10.26790115,-48.41039214,5.389541644,-25.22472551,28.77027625,-165.1250382,-232.0044227,-133.0021468,-41.50581018,22.90180955,-99.90903328,0,-101.4818963,-101.1253588,0
716.5679995,2799,-57.1529501,1.139313792,24.58452495,22.09898366,19.71170666,-37.86713882,224.7056329,307.6326616,-75.33337355,22.31257943,-9.383995058,-9.885482475,0,17.0458469,-191.2167591,0
716.5759995,2799,148.0821547,44.43211696,0.545010879,-3.982606873,-12.15854279,23.91768273,-179.0832953,-234.5609229,165.8834023,11.48364924,20.88271362,96.96954747,0,73.08859574,272.3434525,0
716.5839995,2799,-173.7012137,-6.026269827,-25.38746389,35.18518759,16.45607345,15.50364354,84.21780966,89.69874934,-250.6581165,-15.25005531,29.9568345,-147.7147265,0,-119.6643046,-410.2542312,0
716.5919995,2799,123.9853733,10.19990933,35.3851815,-20.89957394,-17.50832556,-47.90361727,73.30017924,98.56397036,191.1624133,34.24937633,-21.51339465,148.1641084,0,142.0184126,219.6586094,0
716.5999995,2799,-54.15560194,17.31368995,-44.30878023,17.47449111,-37.21845926,38.78920643,-172.170682,-256.178194,-123.2237046,-33.77071939,32.64181054,-93.49174433,0,-105.1140109,-91.01087622,0
716.6079995,2799,-58.83286264,7.050657487,28.05382293,34.0966293,-3.972992624,-26.99241757,230.4104526,292.8510264,-74.4447804,33.71200547,0.735550742,-0.980701755,0,19.79285738,-200.3181901,0
716.6159995,2799,149.5505879,45.05186439,2.771804928,-5.095734282,-51.5380011,17.47768711,-170.8424889,-239.288874,176.9191746,14.50068048,22.70417266,110.4439653,0,76.91484515,287.3827725,0
716.6239995,2799,-173.1569101,-3.622340437,-24.79567321,39.26058673,-19.80659601,12.74722031,74.1089278,70.87458362,-251.801643,-16.80168009,40.70151069,-146.9053351,0,-131.9814096,-399.0271834,0
716.6319995,2799,134.1816582,26.02539382,43.79367511,-6.396183507,-31.17136079,-38.52863769,79.25126594,103.6657669,195.2954652,48.15197668,3.179588165,156.6660396,0,143.6007388,213.8985176,0
716.6399995,2799,-40.20507281,30.91143514,-38.27470595,15.85637449,-44.73622824,46.45825788,-173.2005372,-253.406841,-102.5582987,-22.96314994,54.77851921,-74.68442049,0,-95.8440111,-85.43639663,0
716.6479995,2799,-66.98141823,3.98254482,25.27680974,18.88506388,-15.59635549,-32.81327374,224.0425558,296.2953982,-81.37330601,26.08992522,5.814583723,-2.10850522,0,12.60955304,-205.8346081,0
716.6559995,2799,155.2488267,49.68402201,4.428244464,-10.66125328,-52.92466967,10.9153126,-171.7320739,-231.0797345,170.3531592,16.40573029,27.96355848,114.633785,0,82.03288416,292.5966319,0
716.6639995,2799,-353.2346353,-13.1616844,-39.7000294,70.58269985,7.535037355,21.24305801,205.6653341,239.8407283,-518.4027318,-26.00271111,65.3678377,-295.6178327,0,-253.4477136,-819.5545241,0
716.6719995,2799,-187.9782554,-16.96548275,39.13236384,43.02496308,17.83792467,-59.71808917,453.4216169,596.5988645,-233.3574419,39.85999387,9.471494641,-69.75593474,0,-22.81290736,-525.3229629,0
716.6799995,2799,69.80655151,34.30441431,-2.187617378,-1.316077516,-41.63958147,8.190162738,-104.3859219,-150.4045806,62.46706888,8.361992853,31.69657909,47.43622798,0,27.76687821,107.6995682,0
716.6879995,2799,32.56203404,18.51623598,6.795800771,-2.250334525,-34.9854235,-8.906754397,-13.68403968,-30.29753348,31.30550025,7.19369213,15.08240681,32.57208931,0,28.03959793,33.66141342,0
716.6959995,2799,-32.31606707,16.70587302,-2.386561895,14.16053043,-26.63030327,8.466575139,-0.114883869,-3.685667808,-69.97646205,-4.528083044,19.56022658,-32.47764478,0,-23.65090918,-100.8740337,0
716.7039995,2799,-10.04564547,17.33920825,11.96919644,15.92001261,-20.41023858,-1.310814639,49.71521889,66.45013192,-21.96062081,17.40916317,19.60062466,5.374639968,0,16.32853787,-79.04724981,0
716.7119995,2799,74.26921111,16.81775379,4.139407329,-11.3655113,-43.58638972,-4.896118856,-69.79320754,-104.1387108,96.87880469,13.10385516,9.601414902,61.58327461,0,59.34564749,136.1312762,0
716.7199995,2799,-108.1930618,-5.252994887,-21.13202037,18.23873268,-26.42304891,13.03615837,32.93194327,27.98627806,-175.0756266,-19.3337993,12.62437079,-109.0153321,0,-83.30272854,-246.9997228,0
716.7279995,2799,107.798254,16.30590407,25.48065176,-11.86966385,-30.49098417,-25.4432073,46.77195683,66.20850905,136.3748154,30.18122859,-11.94222319,102.1062589,0,113.6328874,160.7190621,0
716.7359995,2799,-23.00273082,12.61980801,-34.05736755,-1.23146861,-41.00536064,19.61161362,-121.1616482,-183.1859047,-77.43708879,-15.01707344,19.86527982,-65.00228909,0,-50.52908337,-63.37738578,0
716.7439995,2799,-51.38992383,-5.559831934,13.04779254,6.294309541,-17.17239013,-28.87229865,162.8925654,211.2332525,-78.05609295,13.89081723,-19.33324784,-24.76849832,0,0.403191312,-152.6057265,0
716.7519995,2799,145.265471,33.29574457,1.509838292,-18.66332184,-50.4939936,5.709276452,-141.4947681,-186.2982619,159.8015306,14.81713449,-4.954892811,101.886037,0,79.34715082,301.7623231,0
716.7599995,2799,-136.3997943,-1.01777746,-33.79843216,27.44402555,-21.27181617,28.54488455,31.50759161,28.27774068,-230.6509448,-9.078242475,18.63221503,-130.1941332,0,-106.9310834,-310.1299855,0
716.7679995,2799,123.8803853,13.22058119,29.48056084,-13.65743718,-27.19890052,-29.57925505,76.54707585,107.3260492,163.8000871,42.87840941,-29.7514383,135.7249065,0,137.6599866,206.4865068,0
716.7759995,2799,-10.48376197,23.68207973,-44.65023926,8.39076406,-35.91828998,41.65708152,-172.4710612,-249.322011,-79.19691011,-14.38165579,22.11748274,-57.95960797,0,-60.61094616,-16.37905656,0
716.7839995,2799,-57.97769296,1.93395836,6.715566084,19.93739989,-0.304399677,-15.02038275,203.2494978,263.3294099,-100.9673312,32.03585973,-11.02694021,-17.17775948,0,13.35695747,-194.1175019,0
716.7919995,2799,165.2530803,38.43501412,-5.76708351,-15.03164079,-38.59498251,13.97592041,-146.5000458,-208.402823,178.6548845,21.91604838,-1.526060956,119.3527633,0,96.27220856,322.578188,0
716.7999995,2800,-147.3498238,-0.137485905,-35.64108385,38.82282527,-8.219880338,30.38201465,45.33907935,27.29542193,-248.0104551,-4.888021342,32.16220314,-134.4404272,0,-115.7547851,-345.7288495,0
716.8079995,2800,134.1835975,16.44435956,34.1930519,-7.341594569,-26.87924563,-30.50646364,98.22899792,126.5711295,170.2193388,54.61638765,-18.47695143,149.9102869,0,152.6767584,213.1220703,0
716.8159995,2800,-3.257089762,28.01047705,-43.4983184,10.26595805,-41.15524707,47.57254072,-183.642002,-269.8613719,-79.71084529,-15.74615588,24.93491898,-64.18384196,0,-66.3185981,2.73397798,0
716.8239995,2800,-61.7806546,3.922831094,16.11348558,25.63962621,5.340875403,-14.52625877,219.8891757,283.8531737,-106.2477013,37.46953668,2.406627405,-20.58539787,0,8.465654488,-215.0225714,0
716.8319995,2800,182.8237652,44.73022818,1.202902382,-14.13757187,-36.08461379,15.00480777,-146.2950597,-208.8349462,193.127325,30.67759053,18.32620669,132.6937276,0,105.0330797,323.2456746,0
716.8399995,2800,-142.0287926,6.214165721,-38.84235472,31.09768603,-7.013738845,28.88353496,43.89300626,20.97718402,-245.6749979,-4.704964266,40.23149915,-135.9512964,0,-122.7752226,-356.8127726,0
716.8479995,2800,132.6953267,10.17852316,28.85628734,-24.24363918,-22.6569751,-42.97004299,103.4362477,131.0078939,178.2035118,53.55459848,-15.88189143,149.8418444,0,146.5697,198.6143493,0
716.8559995,2800,-3.379839474,6.848546544,-54.09376467,-12.30393036,-43.72585002,26.21424548,-193.3743836,-284.6180098,-75.08606912,-28.66599733,18.2734669,-70.97541245,0,-77.74396333,0.095796384,0
716.8639995,2800,-77.07116265,-16.76508896,1.877426331,6.724735861,-0.075146074,-33.27834329,215.0311497,279.5407371,-113.9383136,19.38547829,-16.26750606,-42.45748212,0,-11.79063858,-221.5594843,0
716.8719995,2800,266.9658128,32.08801064,22.91504211,-40.20665878,-39.93120805,-14.3966439,-119.8950608,-150.0417727,347.7481538,44.12206172,-20.1301713,221.0678551,0,190.3173555,522.7330043,0
716.8799995,2800,-92.63904688,-23.02129978,10.14863687,20.89356488,7.03964777,-24.70071743,222.7624327,291.4273756,-133.3625312,21.39791239,-8.974893511,-48.59966944,0,-21.72682527,-268.4848628,0
716.8879995,2800,12.78794313,-31.37780595,80.77878241,4.489224705,24.68518183,-102.9738966,505.3083961,691.6983062,68.96838724,84.50031002,-53.57914387,128.0825177,0,168.4511963,-109.9157519,0
716.8959995,2800,81.84463513,2.358147019,18.50819375,-8.574220756,-14.75629246,-22.93857411,64.66661018,89.71019205,101.7406067,33.65859849,-15.2833432,85.75111528,0,84.91738915,113.9526668,0
716.9039995,2800,-13.29730881,-8.416565246,10.19154562,7.505344165,-4.078063096,-18.50293679,133.2981982,179.1998703,-28.5800851,22.16535832,-14.22682506,9.988996406,0,20.84692288,-83.21832293,0
716.9119995,2800,64.77735157,23.68631844,-28.48724503,-4.270103426,-30.63360083,36.52285633,-182.7772038,-247.1865032,38.8611395,-7.089437396,9.834524739,10.70915523,0,-13.82248417,132.7517332,0
716.9199995,2800,-90.21199657,-4.157125781,-15.03277332,20.973618,0.046557858,7.342826617,71.44862446,86.72523614,-149.5691147,3.627323488,11.12061975,-80.46509401,0,-72.57754273,-244.3542568,0
716.9279995,2800,101.2006923,4.789780599,21.41107358,-17.67905011,-19.68785755,-37.01613019,62.94000683,92.27553375,133.7544122,33.98597445,-19.67315078,104.5865477,0,97.0351798,154.2234576,0
716.9359995,2800,-30.62195401,10.10045188,-55.7904388,-2.165650317,-40.23617229,36.28116588,-187.4127513,-262.1641302,-101.357733,-34.1292406,14.6034552,-93.72208554,0,-106.4686616,-38.97404151,0
716.9439995,2800,-50.46263241,-13.74242412,8.467472014,6.161421577,-6.583538083,-41.36595071,209.5933591,280.8995509,-71.94846743,27.69170842,-22.73218751,-14.15111788,0,12.03511946,-159.6956642,0
716.9519995,2800,128.1779165,30.68010409,-18.62420599,-19.32469911,-46.9033212,7.716451318,-170.5701024,-226.777525,130.2843318,14.50679555,2.220449604,76.94244291,0,53.38011052,267.2948816,0
716.9599995,2800,-137.4654758,4.289716332,-38.56675304,27.32269901,-13.1705557,17.80813568,25.27690653,23.70539006,-225.2122937,-5.887556396,23.22621554,-127.10129,0,-125.6173446,-309.4931865,0
716.9679995,2800,111.2547683,18.29386717,29.90467106,-9.196410545,-14.20113849,-35.48001712,87.65847598,132.8294649,149.3221228,54.32238722,-14.42425619,134.7688343,0,118.9138058,161.9644378,0
716.9759995,2800,0.821454696,28.21984256,-39.13699478,13.01154263,-24.64873534,56.84764407,-204.6506909,-280.9677969,-64.84236935,-9.234540363,40.12300573,-54.27712531,0,-77.04955866,-15.76382532,0
716.9839995,2800,-80.7584942,-6.80625815,16.40769649,24.48402718,14.11818352,-16.11391125,208.2523322,274.1259079,-105.4997021,25.95751606,3.918582461,-28.17383552,0,-11.2812348,-243.6778616,0
716.9919995,2800,151.1453504,30.38509004,-0.685576688,-20.93150438,-31.95063173,7.653416228,-151.5464191,-208.5767382,184.9633193,15.33236005,6.8951572,119.5612233,0,85.88079298,307.5444767,0
716.9999995,2800,-153.2012345,-2.198856409,-37.08370388,28.85667683,-3.183186884,28.06820815,19.85490349,0.065305969,-238.5287059,-9.03158956,36.27309374,-137.9449422,0,-134.7962359,-337.3166482,0
717.0079995,2800,103.8112403,13.2893279,36.21083787,-11.7296864,-4.967421437,-39.70012694,114.2015446,152.1390831,147.4086697,50.71240004,-16.26715051,130.8427154,0,121.8861825,158.7958367,0
717.0159995,2800,10.83557853,24.93185771,-37.60467534,2.140088657,-19.86621127,41.50573964,-200.0845095,-292.7807877,-57.11035859,-18.0662706,27.57847567,-50.28759352,0,-69.14546549,21.2933036,0
717.0239995,2800,-96.4429652,-14.33254544,10.42018369,15.74117978,11.92254349,-27.28893988,214.5521763,270.4423794,-138.6214211,21.8570915,-5.477457201,-42.91417188,0,-25.67615986,-249.06031,0
717.0319995,2800,159.4085568,28.99890456,3.455883438,-25.93743458,-37.81663577,0.176176005,-147.1746535,-195.7676327,185.5301818,17.27198589,-4.987835149,129.0817637,0,90.63537553,352.5785661,0
717.0399995,2800,-154.0122726,-4.837446845,-37.21762398,27.1415272,-4.687050995,33.44813245,2.882094683,-13.77373074,-259.9199554,-15.6291065,31.94187346,-149.6910566,0,-146.9706553,-331.7133847,0
717.0479995,2800,104.8607016,6.600928198,34.8794045,-19.86688543,-11.69558695,-43.49622343,119.518013,164.8558535,137.7030564,47.24966552,-23.26527379,131.1744249,0,119.8431975,173.0606048,0
717.0559995,2801,15.78333588,23.34011981,-42.65409658,-3.96971303,-32.75808981,35.04089428,-212.5545679,-299.7315508,-62.17337371,-24.70659445,23.48437341,-47.41931695,0,-71.57848177,51.55831202,0
717.0639995,2801,-94.99976268,-13.93360149,8.720099409,18.3710703,10.54980639,-22.74373343,210.9952939,270.3530848,-155.901719,20.36340702,3.553069587,-52.48143202,0,-30.21682766,-272.2019911,0
717.0719995,2801,180.0993682,39.71645609,8.498996968,-19.84561181,-35.1907999,8.97696455,-133.6512514,-183.6773149,197.0611867,30.61116028,4.36503464,139.0422136,0,105.9463584,350.865494,0
717.0799995,2801,-143.8937054,12.6816943,-38.92092419,34.53275305,-6.605704567,45.9755314,1.614191148,-25.5787824,-254.8073607,-5.980176429,42.76884258,-145.4185062,0,-142.6072363,-336.5480697,0
717.0879995,2801,107.3887862,17.69426009,36.49152846,-12.53248943,-13.72384856,-31.20565564,130.6635851,173.2587223,143.290298,55.94094136,-8.505437127,134.8192447,0,124.2105177,142.1211204,0
717.0959995,2801,27.91773017,35.05429559,-38.28425761,3.891937558,-35.5502989,49.81429691,-211.6550759,-299.4554248,-44.81579333,-11.35189465,36.06397542,-36.76720453,0,-65.40641558,33.59575009,0
717.1039995,2801,-98.6250638,-10.53550149,6.577934679,20.94092652,11.2560454,-12.41297767,212.6216937,269.2604101,-153.2715436,28.32069493,10.03210636,-56.51633429,0,-37.55076248,-309.9574405,0
717.1119995,2801,172.4084504,24.64305965,4.256034234,-30.48966627,-35.72774042,-2.069950434,-121.278092,-173.0981695,206.4185789,25.73207924,-0.482779814,132.8981936,0,104.6401915,327.3890035,0
717.1199995,2801,-154.5918758,-4.998189129,-45.77211609,22.55196647,-12.28105057,24.91409733,-3.52417318,-30.81499941,-258.4326241,-21.52457017,28.46699184,-158.0655449,0,-149.3180679,-336.9119068,0
717.1279995,2801,92.74905762,7.801352222,34.88160534,-13.62674445,-11.12492636,-41.28864619,132.1657652,185.6224571,132.6987662,49.37737219,-16.62162725,122.6401588,0,118.2125771,138.1472869,0
717.1359995,2801,22.77315131,29.49783838,-35.76442977,3.380466533,-30.51587295,45.50766395,-210.4010187,-292.0652873,-38.26350038,-11.44963386,38.05556042,-37.13498573,0,-59.04697497,48.36305013,0
717.1439995,2801,-110.3134158,-14.79464668,4.241849904,19.06455845,8.142293162,-18.01232847,211.2090011,268.080364,-161.8788605,21.464007,7.862472966,-60.67183161,0,-37.67890205,-301.3542231,0
717.1519995,2801,162.629633,23.23043535,6.344703127,-24.40635222,-37.30186844,4.121242011,-120.7698104,-167.2688193,203.9007697,21.6611087,-2.738824029,136.6485521,0,108.8487574,336.0202657,0
717.1599995,2801,-165.6538248,-6.259870051,-36.9735727,32.99759516,-9.447786699,30.864564,-6.468248575,-37.74832479,-260.7166012,-20.89555942,35.17460142,-152.9285137,0,-145.5116984,-340.0081997,0
717.1679995,2801,79.39680557,-3.123463856,40.14345767,-15.87624522,-14.21373576,-54.52631916,141.6283885,180.6347544,125.2718769,46.90310366,-17.65847757,127.0691709,0,117.696172,129.7988641,0
717.1759995,2801,17.74001651,17.81392235,-39.42859335,-6.950383757,-43.81091193,38.81353171,-215.5814229,-308.0241087,-30.02872207,-24.62397127,24.4883171,-34.97098116,0,-62.84969699,80.14103365,0
717.1839995,2801,-120.7136604,-15.05839116,0.815022777,18.96102315,-1.758428696,-17.43977378,206.4394351,264.1842854,-166.1408586,10.90695406,2.4579338,-72.7560897,0,-50.50891886,-287.2216339,0
717.1919995,2801,168.931185,26.19119689,7.319303155,-25.47006317,-40.77349838,-0.957769722,-115.9206898,-166.9305968,207.2887221,24.67131174,-0.451953386,139.1272356,0,106.913655,343.4762655,0
717.1999995,2801,-152.108768,-1.5761896,-39.09009582,30.32188137,-10.16703321,41.91352489,-21.66736636,-60.50669169,-251.2827741,-19.65895953,35.82436804,-148.6838252,0,-149.6447472,-324.8533404,0
717.2079995,2801,78.41600676,-3.483372234,37.04608636,-20.51331286,-11.54656886,-49.36688631,134.7738783,179.6405936,127.7361313,43.77378196,-19.07377972,120.6494905,0,109.0979013,129.7864792,0
717.2159995,2801,23.07081329,11.84673314,-42.1663107,-13.87681133,-38.89965156,27.36132321,-225.0868907,-317.5797572,-24.10641588,-32.68226074,20.51969367,-37.95852327,0,-67.6313513,89.41077304,0
717.2239995,2801,-116.2565798,-15.3548184,1.74774941,23.64683098,9.475200072,-19.86738252,194.8045654,254.3360957,-175.2034955,1.692319057,0.287275071,-78.52453453,0,-59.7760681,-295.7965319,0
717.2319995,2801,168.8451711,20.59775179,11.09576433,-28.78903701,-35.31037513,-9.602475457,-116.3032384,-157.6432555,210.0772791,19.54108824,-2.084089833,140.3361274,0,106.8288611,347.7526794,0
717.2399995,2801,-158.7746228,-8.888929011,-40.40616444,24.03979939,-10.84935399,29.07714773,-27.38354428,-62.33891541,-247.3177602,-30.94579766,37.63375213,-158.1324207,0,-152.1822516,-311.7285383,0
717.2479995,2801,75.02129301,-1.099938151,38.4418314,-9.016201697,-8.05671663,-54.45672429,141.8599745,195.1895323,126.6779556,40.39470062,-11.56362635,111.3361612,0,113.5008083,123.4071531,0
717.2559995,2801,27.3949894,9.421182202,-41.89300182,-9.185977131,-42.10257728,26.28882551,-226.3199356,-320.0572174,-9.310404541,-24.25441452,21.71215888,-27.12890792,0,-53.34038803,110.6883566,0
717.2639995,2801,-126.014261,-19.43152112,-5.538474842,19.0730682,7.02042744,-13.61502606,185.603146,238.7976246,-179.7287132,2.008283285,-1.604551857,-82.42840076,0,-57.763841,-278.893006,0
717.2719995,2801,163.3442694,23.97380313,7.016682054,-27.47036575,-26.61996364,-5.556996916,-115.3145561,-151.225782,208.81549,16.08595618,3.731072182,133.9299936,0,111.3830442,358.0526131,0
717.2799995,2801,-167.8635789,-14.81883987,-46.11314293,19.74181239,-6.344580708,28.93560828,-29.29595035,-70.16542321,-249.9095673,-36.78635032,34.46200275,-159.8622616,0,-159.5920297,-295.1148558,0
717.2879995,2801,64.99784453,0.031995209,33.46869302,-9.557934365,-3.959339288,-41.6323923,147.4082439,198.0988881,107.962408,34.94185104,-24.02189146,106.6073909,0,102.9703006,135.9070519,0
717.2959995,2801,38.41582851,30.69421438,-36.42209884,7.176110979,-27.1355078,47.56236788,-222.3826908,-303.8235426,-8.524184752,-15.02644787,33.18026298,-20.04749059,0,-46.44245107,111.4890026,0
717.3039995,2801,-126.6864471,-15.28644518,2.029382918,28.58657563,13.58766337,-10.14947351,196.4316414,257.2786254,-179.0580725,12.06110407,12.02807813,-75.15004513,0,-61.05016037,-309.6223405,0
717.3119995,2802,163.38854,20.99541311,10.71713747,-23.63030374,-30.70192098,-5.268098083,-107.6285055,-137.2355506,212.4572745,19.08309786,-8.495048908,145.3468289,0,108.4389936,362.1365387,0
717.3199995,2802,-153.7482374,2.615159398,-41.93228571,40.43257035,4.800495699,47.4038683,-34.43556205,-67.38697731,-248.7807567,-22.41787378,36.8035149,-148.4267831,0,-149.5455896,-296.3850047,0
717.3279995,2802,71.8323094,7.205469469,42.57014827,3.017867714,16.52470859,-30.36213057,164.8368822,218.7552496,105.5316818,50.77131459,-7.170435919,110.4282082,0,117.6235378,85.1846739,0
717.3359995,2802,33.74524325,14.42516194,-33.82908251,-3.348186687,-21.16413488,43.84562207,-214.6902673,-307.4418965,-1.326733139,-19.47733507,27.84163034,-20.78636632,0,-42.13001831,94.12402459,0
717.3439995,2802,-139.4371496,-22.8307811,-1.98983432,25.35550859,14.47808136,-10.61406145,194.8984315,243.8565265,-190.5458424,3.044069829,-1.768773334,-87.84929795,0,-72.23003384,-323.9417058,0
717.3519995,2802,239.7086351,17.572985,41.7119353,-40.75443721,-24.85739485,-42.83473138,-17.21519463,-17.80967084,334.1521288,39.94022097,-28.58423843,228.5861808,0,199.9569541,472.4098288,0
717.3599995,2802,-152.9623686,-41.7691905,-4.167966818,14.43775208,14.13098764,-27.7504765,192.9521779,234.6091866,-201.0433792,-11.99195364,6.19319854,-104.7835238,0,-86.68317416,-339.104793,0
717.3679995,2802,-140.8174105,-60.14227963,59.68430663,14.99443202,42.0215465,-98.95382255,543.8497193,721.4799077,-132.0843769,40.27221077,-37.08604321,-7.807241576,0,34.37904388,-382.3228612,0
717.3759995,2802,145.2486997,11.18872537,-1.067439639,-29.80979312,-30.22839136,-3.08900809,-145.511303,-203.4885386,183.9092108,-3.335508125,-4.642299698,107.3673798,0,74.62711587,332.1312051,0
717.3839995,2802,-67.74120869,-0.004187149,-39.57204201,13.25648442,-8.376594185,43.98222242,-102.5913089,-160.6282244,-118.7762363,-35.55727782,22.92161345,-85.01495032,0,-98.55923842,-93.75149609,0
717.3919995,2802,-48.22565374,-3.091538947,3.128772201,15.18443864,16.95358408,4.656111816,117.5615088,148.0108677,-55.63274329,14.69245946,7.085793423,-2.651877452,0,-0.78587946,-121.3590876,0
717.3999995,2802,57.49838819,1.303200613,-9.187217564,-18.05197993,-11.03809959,-2.933110522,-68.62803424,-105.8457953,79.17325677,6.052010071,5.099124476,61.22062007,0,37.6312417,151.7676828,0
717.4079995,2802,-43.836898,3.45280076,-29.84070886,9.527900602,-5.29455101,26.55350166,-66.23406473,-106.3614514,-93.67092566,-24.67248655,13.3077993,-57.99295264,0,-68.23053781,-54.84794403,0
717.4159995,2802,-24.21377183,13.33346904,4.788059242,25.04722803,19.45063307,14.21279464,87.95097702,113.4774354,-60.96415257,16.03587312,19.0505044,-5.987212153,0,-6.826569133,-120.428395,0
717.4239995,2802,95.02705661,15.07283468,-2.924235966,-12.79463143,-7.981942532,6.472223163,-98.82367342,-141.8084909,112.5245361,19.79939743,21.96444354,88.49346194,0,52.11883653,174.9872464,0
717.4319995,2802,-113.2433161,-7.63155716,-31.85779441,14.03717074,1.475366938,25.8738234,-11.99909677,-40.37999725,-163.7993768,-16.20957322,20.2754182,-92.08620537,0,-101.5840518,-209.1847494,0
717.4399995,2802,46.82692113,8.829553028,19.09240296,-9.46827132,4.097986256,-14.80079434,81.84278753,106.3272763,77.6512993,26.79507355,-14.99736077,79.905893,0,63.58301437,80.9278,0
717.4479995,2802,26.23222374,25.11779103,-30.44835558,-6.184536726,-10.58426134,39.30264824,-175.5214907,-248.1426707,-4.677764613,-13.02644418,20.44874532,-7.715522736,0,-37.44275485,69.55741904,0
717.4559995,2802,-108.998251,-8.164224943,-0.800077967,19.02681849,22.87695725,3.26009538,145.1574546,177.0306075,-154.1911308,9.253757989,10.23026534,-60.48132851,0,-47.4428729,-285.923969,0
717.4639995,2802,132.0527667,7.250998605,7.529242875,-35.74732071,-18.50239263,-15.23134717,-81.20602274,-113.2775036,184.5270676,21.49378416,-15.60104735,133.8549782,0,93.27575603,275.4854382,0
717.4719995,2802,-144.4720505,-18.82571847,-52.46267833,5.425666075,-3.213693904,23.48440307,-61.79512416,-96.63060937,-210.6250944,-35.75314769,0.370409402,-133.8531308,0,-146.5839403,-240.0557327,0
717.4799995,2802,35.64932478,-7.089690649,22.98401114,-9.366684297,15.89097358,-26.02026815,140.7825536,193.4606782,71.54314181,31.65051028,-32.30658118,82.14554694,0,81.10721048,39.61567824,0
717.4879995,2802,46.52086714,15.71658135,-38.55277133,-13.77394505,-13.60565016,47.00146385,-205.8004367,-292.7125773,26.93576455,-12.23329077,7.055536677,6.518797973,0,-23.51286521,112.4398641,0
717.4959995,2802,-141.4506044,-27.75309526,-19.40862839,10.28886152,19.63928036,-2.382597403,162.5197041,196.1943586,-188.9129242,2.45564473,-17.04272753,-89.35879353,0,-66.82782166,-318.2303538,0
717.5039995,2802,156.3654034,14.1057593,0.997803723,-34.3736183,-10.71008655,-3.352033852,-77.79427794,-112.1183669,208.537153,27.6102233,-24.61246673,143.1860723,0,116.276766,318.8910798,0
717.5119995,2802,-140.2710996,-9.986522518,-62.98403775,11.42957825,6.029293948,45.29174937,-68.65616376,-125.702924,-215.1831074,-24.75602121,18.77871475,-137.7300532,0,-144.7440536,-270.4682869,0
717.5199995,2802,29.11357695,-20.99751928,13.23774916,-23.0539695,10.01023546,-41.77129791,160.6726176,207.8654695,83.46871421,37.84532908,-35.9573766,90.87195199,0,91.44318213,39.25624031,0
717.5279995,2802,48.3041956,13.62936978,-47.17428119,-22.22128976,-20.06172433,35.81541205,-226.1925967,-317.0787435,38.73038216,-24.23984466,0.284266401,3.234220779,0,-29.83971631,155.2459899,0
717.5359995,2802,-147.7442364,-19.2281461,-16.49443235,16.98573027,27.24005831,-2.486631498,168.8911282,200.9919505,-196.8423641,0.130901413,-4.793864655,-98.12931789,0,-80.55253239,-330.1405263,0
717.5439995,2802,165.3099327,14.6673607,11.32370786,-33.33426231,-6.927492946,-5.268138226,-73.94835747,-113.0039551,228.694555,34.61324463,-11.40331168,156.3117888,0,126.0883478,335.1784757,0
717.5519995,2802,-139.6287847,-12.47920728,-56.18317456,8.213760253,5.067102354,44.57639426,-79.84046437,-141.8976556,-211.6826889,-32.40804909,23.66581336,-144.1226749,0,-153.9243086,-265.3877176,0
717.5599995,2802,34.38372069,-15.85496942,23.62231669,-22.24912807,15.04471405,-41.76651462,169.9826495,217.0746787,83.72258595,34.58478958,-32.32827287,84.50093341,0,81.10650318,34.13442772,0
717.5679995,2803,70.72190636,24.88325712,-33.96867858,-15.54203852,-11.71508143,46.72081461,-228.7498063,-321.87223,49.72154518,-12.32091818,18.5569354,8.464007784,0,-24.73514967,156.4520573,0
717.5759995,2803,-140.1329767,-18.54041787,-8.13813392,11.97637486,26.8306118,-5.858763916,169.2102047,205.9071991,-196.5643245,5.933722617,7.462473033,-102.3908103,0,-93.90305787,-357.0350712,0
717.5839995,2803,169.925557,8.872558167,17.38513745,-48.0772045,-15.78280478,-27.70720368,-67.64834959,-96.84945483,236.5582514,31.35355162,-22.93240598,155.3961127,0,108.6666307,334.0296825,0
717.5919995,2803,-125.4933367,-0.428685195,-48.73847028,14.95381099,6.554474907,45.88176686,-89.23100084,-140.6279225,-212.5095291,-26.65160259,21.83655386,-143.9694559,0,-159.3477045,-258.5828888,0
717.5999995,2803,47.72655845,-2.671872606,28.24048229,-11.80641205,18.20580124,-39.14770234,171.4255051,227.0356939,78.20726455,44.62020546,-26.48492792,86.41840647,0,77.22816768,15.72269853,0
717.6079995,2803,77.03693164,14.34068191,-37.76808307,-23.86438695,-23.93156389,23.771081,-225.487929,-326.015491,59.19534436,-13.74112491,4.825738971,13.52836388,0,-26.26726856,161.9452027,0
717.6159995,2803,-142.5911128,-29.16101252,-13.09200199,15.16124914,17.23138717,-16.62412871,164.4327972,197.870043,-203.9606812,-2.065521916,-10.44446115,-112.9283883,0,-97.07821152,-344.3635334,0
717.6239995,2803,183.3038605,13.69041115,19.74613484,-30.72328187,-15.79726183,-21.48564582,-67.33871509,-90.58559476,233.4372481,27.32020332,-29.02085348,149.0847494,0,112.0760925,347.9904854,0
717.6319995,2803,-111.4613767,4.603308861,-45.7892725,24.62168251,6.786439223,43.14429792,-89.61998829,-146.7798466,-207.0131432,-25.28600433,24.5937099,-143.4254416,0,-153.8338181,-252.4679502,0
717.6399995,2803,48.068102,-2.137448132,35.13039468,-6.110354929,22.76636665,-42.73679459,178.745862,238.5798434,74.47942833,52.43164249,-23.66424599,83.64113065,0,82.51451359,6.248909058,0
717.6479995,2803,86.2397137,15.54467751,-29.39022285,-18.5968338,-14.07143662,35.91699968,-228.3606836,-316.6455527,60.81321505,-8.063338993,4.955849791,15.29986933,0,-23.9570005,173.6284727,0
717.6559995,2803,-142.2535821,-26.56650286,-15.41388078,16.86565368,27.79085332,-3.156043114,160.3453267,193.0721501,-217.1256732,-0.735214743,-1.952098058,-117.8535114,0,-103.9129643,-358.9693672,0
717.6639995,2803,179.7117676,12.33000827,15.0142664,-38.97053887,-13.61788366,-21.6428851,-55.45711662,-86.06820102,223.6892294,34.11019342,-20.51798941,151.7693359,0,116.3358072,324.8195712,0
717.6719995,2803,-109.8590373,1.316440368,-49.8369009,16.5242156,6.845804327,53.70737963,-90.54958633,-155.2085038,-213.4743911,-25.9093896,24.75222452,-140.7887072,0,-162.6937991,-244.4068489,0
717.6799995,2803,43.63928602,-2.394795908,28.35412368,-5.621898441,27.39634647,-27.50372665,184.1161897,240.0716916,61.28649497,45.07001726,-15.12118941,77.36551218,0,65.73651218,3.213048107,0
717.6879995,2803,84.40462699,14.13314715,-35.44720556,-24.58769227,-20.87405918,29.60241255,-216.8425957,-318.3200682,65.79417723,-9.392078628,16.82719735,18.36272442,0,-21.92351956,179.0205635,0
717.6959995,2803,-148.2481447,-25.09249124,-15.62416394,14.04106416,25.84420995,0.73516957,165.8675021,189.0836832,-217.8165903,-5.464686938,1.667978904,-122.5865279,0,-112.9415038,-337.3552458,0
717.7039995,2803,178.5180871,15.46137514,20.79720419,-34.35926171,-0.51641897,-12.24761294,-49.34629159,-75.93080191,231.1632207,30.38123063,-9.066000511,150.6467723,0,113.8498136,353.5667966,0
717.7119995,2803,-117.5349596,-7.508401942,-49.02739222,14.23196979,5.769475151,35.79722714,-94.29239387,-169.2989848,-204.513465,-26.32176939,37.28119255,-137.7743973,0,-151.9114097,-225.8552901,0
717.7199995,2803,29.02919587,-6.687721395,29.92261699,-3.118961334,22.33162608,-37.86899617,185.067347,233.8488468,52.60519906,43.80206128,-16.32644755,74.67256426,0,69.61025372,8.631318652,0
717.7279995,2803,95.07750296,25.09673382,-25.38339658,-15.22609013,-12.82085516,38.84374018,-221.9012884,-320.6426717,72.63047883,-6.808816549,21.29763648,28.77205052,0,-11.70391322,187.6924293,0
717.7359995,2803,-139.969366,-18.30552972,-8.025032888,20.14613208,29.17141423,0.465231772,162.4642547,184.3298402,-215.6657985,-0.178556174,10.558682,-113.7861416,0,-102.9679873,-362.517229,0
717.7439995,2803,187.6032237,22.89658226,24.38031997,-29.76979382,-4.229744828,-13.88636736,-39.22004801,-59.70145943,235.119655,39.93777296,-9.307549509,159.0359574,0,121.813356,324.9996733,0
717.7519995,2803,-101.0626792,0.021921492,-45.31081699,15.00973339,1.749141052,39.16653781,-91.85032783,-161.9729445,-191.1042857,-20.5874776,37.97023651,-131.1718978,0,-150.1236791,-251.8236459,0
717.7599995,2803,36.55548859,-6.76787539,33.1447833,-4.324406502,17.05700182,-36.43477711,194.5584988,248.6442354,60.85523237,43.8252875,-17.1047066,75.02987968,0,65.76323324,-23.49544609,0
717.7679995,2803,113.2877243,30.48580645,-27.53060299,-11.81916069,-14.26173568,44.88880351,-218.1494662,-309.6345357,86.69762119,0.191481683,21.88370645,31.99922777,0,-12.00500421,174.8623887,0
717.7759995,2803,-133.4130108,-21.01843986,-13.17110576,18.5068503,27.64717505,-5.895123462,167.3549542,185.3447224,-211.7880712,7.617662292,15.66318502,-120.2454037,0,-110.2530714,-408.4572473,0
717.7839995,2803,176.9418764,0.695188684,20.98990004,-42.56831946,-18.50221789,-30.3368156,-26.17797017,-58.14688472,243.0712672,32.24421941,-21.38064983,151.9822889,0,118.7661771,300.6415111,0
717.7919995,2803,-110.7942765,-17.55121858,-52.1796553,7.095471693,-13.39264883,37.68541122,-96.81969772,-177.6965648,-191.167133,-37.58063397,18.38706513,-145.8474693,0,-154.2651558,-234.8782868,0
717.7999995,2803,17.63058573,-20.07000865,26.90444313,-14.22820583,9.043333658,-52.42480125,201.2026311,245.5423049,46.87036848,31.74703,-28.01707629,56.47315041,0,57.46283304,-19.38972575,0
717.8079995,2803,89.94213071,15.06088278,-32.52226755,-26.18082019,-26.61545492,22.98196426,-216.5706347,-324.2640222,88.86908733,-16.4362181,11.05464047,27.73170291,0,-11.05348014,214.9881869,0
717.8159995,2803,-159.4607833,-28.71608665,-19.6436802,17.7834821,19.44285454,-4.79075391,158.6415307,165.9619732,-224.2562844,-7.657864059,8.395926128,-128.4357228,0,-109.2156817,-369.5203928,0
717.8239995,2804,159.6418799,-1.925513515,16.43818123,-41.05214458,-15.25534615,-32.38995368,-21.88146256,-53.53921691,230.6721797,29.52309802,-26.48231547,149.3307982,0,122.0359285,335.7755772,0
717.8319995,2804,-125.6934486,-18.3238269,-59.57811507,9.542475106,-4.616179984,39.40441861,-106.6949329,-190.7275262,-199.5352972,-40.58447458,14.17308792,-147.1825432,0,-154.0502775,-190.0795817,0
717.8399995,2804,-2.517891537,-21.06396299,24.8120633,-1.883293826,20.68410854,-42.91342785,198.7680052,244.6855489,28.57205396,33.32072338,-28.88706454,49.91776843,0,65.09729616,-9.623337442,0
717.8479995,2804,86.12127557,14.65587629,-28.58030465,-13.17113137,-18.67894376,27.91291772,-215.2383018,-315.3968949,86.85832932,-9.182007176,7.296276397,30.33631366,0,4.381671504,240.8107467,0
717.8559995,2804,-164.898206,-25.86378252,-22.15751773,29.79212345,23.40401855,2.996378599,153.5984718,167.6809086,-237.2824843,-5.022014649,5.671086323,-128.5126245,0,-106.7850429,-347.5063,0
717.8639995,2804,161.2884067,13.08299458,19.94756437,-24.31986899,-7.441111656,-22.99111328,-16.43864216,-36.74911548,225.4507733,37.96655655,-17.59075108,159.047189,0,139.1547665,337.081253,0
717.8719995,2804,-107.9525184,3.788731017,-51.63890242,25.54440126,2.408847112,50.63824071,-106.7734364,-181.2131631,-184.2592297,-25.43684011,33.17744128,-132.0096054,0,-130.7461943,-193.0169144,0
717.8799995,2804,7.254498945,-13.5455462,25.34078927,-0.026381187,18.32117259,-41.03455193,209.5135136,258.5160286,31.57869403,43.05121213,-15.15015963,56.12887641,0,70.4918116,-39.91854335,0
717.8879995,2804,93.3111077,16.55958211,-28.18292175,-21.01241674,-27.4544602,20.47366074,-208.0264462,-315.732295,96.08270734,-7.945837835,11.78253213,35.30673715,0,6.073738866,224.7638561,0
717.8959995,2804,-165.7567271,-23.97546339,-19.66902885,23.59728745,17.5840965,1.352754425,149.800648,151.9927623,-231.603608,-7.358663509,7.615609923,-138.7296701,0,-112.1749734,-364.0991382,0
717.9039995,2804,165.9966258,6.587250052,22.61184605,-33.73239745,-13.81881416,-27.36547978,-13.76564663,-38.62182013,227.8092761,35.94288263,-20.4919567,150.4583258,0,133.6864841,321.0929698,0
717.9119995,2804,-98.81500657,7.999339407,-48.64339208,25.27022652,-4.962439051,60.23228719,-119.0570053,-192.5778857,-189.0670244,-28.42629019,32.15859067,-134.8324474,0,-138.3699457,-199.4694401,0
717.9199995,2804,9.253774746,-1.406092863,33.45538426,12.99848598,21.5087114,-17.97907523,205.6302279,265.592302,19.43459995,50.26217643,-6.323554858,53.69504916,0,68.9041223,-70.7548982,0
717.9279995,2804,106.2733359,17.41834066,-21.06733212,-15.95814266,-24.24956032,20.48275776,-207.1580671,-301.6913457,104.7654964,4.395116992,18.00870152,49.02705828,0,24.26468059,213.8489705,0
717.9359995,2804,-161.2112174,-19.04006293,-19.00190664,33.7564691,18.59010774,-3.592750399,144.4703813,158.2853158,-237.0781601,-3.18448961,8.212328588,-128.7016298,0,-104.3371853,-367.9488445,0
717.9439995,2804,164.4150217,10.78796083,24.93049444,-22.6906438,-10.4060791,-30.03116048,-8.123122882,-23.5050857,223.8344118,41.62725299,-17.93742455,159.0527536,0,134.3857548,320.5328869,0
717.9519995,2804,-98.92619606,-1.738335323,-47.59654782,19.57463804,-6.280895751,45.02421157,-121.1893743,-199.0919073,-180.2635933,-28.6210815,31.29535758,-133.2277312,0,-142.4834539,-186.3272122,0
717.9599995,2804,2.76083773,-9.04315936,33.6011678,10.30100103,20.43139721,-27.01711048,211.2922468,260.8314803,14.55244267,42.47895184,-13.26009358,43.39954991,0,56.69415633,-61.93377763,0
717.9679995,2804,107.2687965,13.77467339,-21.71243807,-16.2729612,-24.41500556,26.76816378,-205.7139779,-311.3993761,114.4101333,1.778941742,16.07911181,47.7977843,0,19.17535751,246.9762618,0
717.9759995,2804,-165.8900415,-22.15333295,-18.59690917,32.73239037,18.70162874,7.619607474,137.6642208,145.0158161,-228.5558321,-2.702152828,16.05259169,-138.3934296,0,-112.0033989,-362.1007241,0
717.9839995,2804,161.8524063,10.28300612,31.63428242,-23.62190118,-11.9585867,-28.12106471,3.614416723,-16.01842845,232.7114386,45.02646458,-12.32970039,150.8291618,0,133.6057935,315.1073768,0
717.9919995,2804,-101.7023214,-4.832110845,-48.06770495,9.831428657,-13.62562936,39.54161731,-119.2260121,-210.3117361,-167.041719,-30.08651218,28.32120012,-138.6015112,0,-146.8883178,-154.7142509,0
717.9999995,2804,-15.07042157,-10.21266848,31.31232394,4.306843012,15.8222804,-33.24039948,212.4121851,256.9479215,16.50851467,37.45117946,-15.87408778,29.77523019,0,44.58847682,-49.42792964,0
718.0079995,2804,100.0967547,12.76355202,-15.82311244,-19.27056862,-23.30591511,16.68154639,-203.7802737,-310.2315859,124.1106537,0.509385942,14.20541026,43.83422091,0,17.57652757,251.5583523,0
718.0159995,2804,-174.8054175,-32.14770035,-20.46207656,20.0097895,16.98545302,-6.400912342,127.9833161,125.7081635,-229.7884689,-12.84124407,2.328088514,-150.8820727,0,-120.3986009,-349.3867171,0
718.0239995,2804,151.6407468,1.236665614,24.5147017,-36.34595803,-13.60008967,-41.65856598,-7.724195804,-32.56815519,232.2372946,29.23174121,-29.91159469,137.0120542,0,129.8860675,332.6349001,0
718.0319995,2804,-107.3939257,-10.38214334,-53.64951774,8.233832348,-3.972431497,35.33219317,-137.6293594,-230.7489149,-166.3231194,-45.26023417,18.81141442,-145.9381727,0,-149.1047571,-153.6553646,0
718.0399995,2804,-21.35569959,-11.7431807,26.9200208,9.720546661,32.03604068,-31.46408047,210.8112135,253.2581309,5.659765435,29.6035319,-19.09055787,22.82237986,0,39.33413775,-77.88924929,0
718.0479995,2804,110.878018,20.15752262,-14.39171324,-12.94441442,-16.16899412,19.96716583,-198.5668365,-310.5267563,134.8029281,1.734656277,16.99658404,50.82325196,0,26.93262166,246.8634791,0
718.0559995,2804,-170.0952559,-22.20334761,-14.54496809,35.06672853,22.45531865,6.443021876,132.9672906,130.5996408,-227.2662684,-15.49300807,7.931243703,-146.1684632,0,-116.2243496,-361.121869,0
718.0639995,2804,160.96573,17.61992809,37.43285255,-13.97025941,5.481193052,-22.18460494,14.24230726,-4.293580671,233.7323935,41.49739827,-15.04080018,155.4700569,0,141.7656717,302.4261675,0
718.0719995,2804,-85.9595579,6.046044161,-41.36116326,19.36446909,8.58041622,46.70422384,-123.8304458,-222.8384919,-147.4747712,-24.15401672,36.60574957,-117.0484204,0,-131.1378112,-171.9754137,0
718.0799995,2805,-15.08375129,-7.93784714,34.10463424,8.503046982,26.22658396,-31.94634129,221.0539221,265.1329228,12.37750878,32.06634982,-17.68710441,33.74257426,0,46.11690505,-93.90154688,0
718.0879995,2805,119.2161096,22.100841,-8.433254084,-16.68426668,-20.13084765,17.68233243,-197.1530183,-306.4308887,145.304677,2.445599479,16.56311977,62.98565484,0,36.93486425,250.5732953,0
718.0959995,2805,-171.1635913,-25.26720344,-17.78315519,25.09934936,19.59541317,-1.777527844,127.7768005,114.7664469,-228.3457943,-15.40328924,14.68396186,-142.3342269,0,-122.3612156,-371.3767381,0
718.1039995,2805,151.9228685,12.37103856,31.77461928,-22.92496543,-10.32619342,-29.35525963,15.61596216,-1.415668827,225.0178833,27.72376981,-20.28775284,148.5379203,0,129.6382799,299.2382388,0
718.1119995,2805,-86.76325488,15.1450844,-37.44938988,28.19812916,-4.538842635,51.3723674,-133.7281218,-226.1208113,-149.4975287,-27.98321334,39.31752173,-119.0956591,0,-128.3188989,-163.7442193,0
718.1199995,2805,-23.03964741,-5.791628157,39.76753651,16.40341833,23.49315281,-44.17468067,223.0734458,274.3669819,1.683202602,42.43148611,-2.21786515,36.32714811,0,48.96068642,-114.5640248,0
