Time:125Hz,Epoch,FP1,FP2,C3,C4,P7,P8,O1,O2,F7,F8,F3,F4,T7,T8,P3,P4,Event Id,,
157.9279999,616,-416.2127012,39.92437252,-11.6624336,114.362244,98.36358953,42.25588397,45.87118419,131.3873006,-520.2199263,87.87783766,144.7948715,-225.0819784,0,-287.4246331,-892.4797394,0,1111,,
157.9359999,616,-45.87872262,42.76850179,122.7567699,-2.589852348,48.63034366,-93.06030269,360.3852416,579.2039456,196.5096858,53.82520554,-3.683526182,155.0775616,0,167.7317489,46.30823485,0,,,
157.9439999,616,251.7503731,166.6691947,-36.86734252,21.65419594,-17.78880784,110.307237,-425.7638878,-422.1036382,217.423194,-30.76844778,2.978572148,99.16199917,0,171.0642486,704.8742153,0,,,
157.9519999,617,-225.1442483,66.7927872,14.73107846,78.15376023,70.15000997,20.54521732,48.27265662,151.7755797,-260.7011835,62.85705484,93.61636113,-91.95549273,0,-119.7304137,-450.6967819,0,,,
157.9599999,617,98.81145747,90.65209305,77.15601583,-4.035402749,18.36570355,-26.32013239,101.7856799,248.8277224,264.0063732,27.21168561,-2.355486979,176.6685263,0,202.4389327,354.9612214,0,,,
157.9679999,617,73.89397293,131.9530568,-31.72606878,44.43657257,8.652213583,107.453719,-300.6425271,-283.7189606,11.42931115,-6.107923635,42.0506403,12.25974062,0,38.28028893,263.9150588,0,,,
157.9759999,617,-151.7396306,63.15989739,47.2370568,49.52134443,59.10482593,0.906547099,143.6237074,274.619132,-103.9033914,53.07350175,59.63737643,-3.834237573,0,-26.21390933,-264.2078299,0,,,
157.9839999,617,173.5379791,116.1397475,39.81631052,-3.867596987,6.309579262,18.3972237,-61.1328507,33.59680585,278.9254145,3.481189646,-7.441888325,172.9204125,0,209.8887172,523.4191945,0,,,
157.9919999,617,-75.31819185,99.15524293,-25.34663439,66.0074991,38.11972606,76.80513084,-169.3973025,-133.0919366,-161.0420322,18.99461644,67.62513421,-57.67017356,0,-61.07952331,-90.7551439,0,,,
157.9999999,617,-36.16540958,62.42824766,73.11809658,23.93822773,40.29760568,-30.39838702,183.1134205,333.6754085,78.84989213,36.45128453,17.60486565,90.10087413,0,88.09664139,35.41788065,0,,,
158.0079999,617,144.285814,121.0983453,-0.781599141,28.70368779,8.38271924,69.45618573,-210.7529144,-161.9490766,154.2574809,-8.918790281,17.93857182,95.73247048,0,122.9307846,458.7637764,0,,,
158.0159999,617,-173.2241957,62.3993181,9.716902529,75.7103904,67.97454568,41.16077075,11.73768454,101.4886649,-203.5486742,40.56843869,76.94664514,-60.69097274,0,-87.7120708,-286.2081684,0,,,
158.0239999,617,137.6896933,97.86515654,74.21797943,9.833492978,34.536215,6.460533317,75.76593147,215.3742705,278.5319041,11.1109288,-11.53072821,186.5215588,0,220.345591,454.2411829,0,,,
158.0319999,617,-7.912770196,121.1134889,-30.53707598,78.66030815,55.12553736,123.3267374,-246.6784337,-223.5830012,-117.9978386,18.09727902,86.66395884,-30.56746628,0,-34.24047373,32.6543659,0,,,
158.0399999,617,-78.99679744,56.96487405,75.47682733,30.37601208,68.42850109,-22.34537694,208.3851335,363.1447509,23.96349357,46.57841584,44.46370059,75.75984424,0,57.79394905,-91.52743915,0,,,
158.0479999,617,175.7035845,129.2622675,14.69937001,21.13686575,10.69632707,74.70519994,-181.8744288,-119.2479343,213.4050488,-8.403364078,13.37232343,130.2905245,0,169.0955442,512.088696,0,,,
158.0559999,617,-172.1564869,71.28805525,-1.731731598,82.49862598,57.41415737,76.71989469,-44.30282512,32.6503679,-226.5230228,49.46541575,103.3432136,-72.05756704,0,-107.2049005,-341.9339802,0,,,
158.0639999,617,121.6568473,76.53735348,81.32464254,-14.36505283,13.03565535,-20.70877763,117.870703,271.6385184,296.4256913,8.761529822,-14.36862599,191.7567255,0,213.0216078,398.1359278,0,,,
158.0719999,617,-7.596793209,104.2187892,-42.5602815,57.82303783,31.12592078,109.5700816,-281.5895823,-271.6140822,-110.9941774,-1.735518929,66.50244008,-51.40284469,0,-47.05587606,63.84234268,0,,,
158.0799999,617,-111.7070564,33.77145248,74.73000585,35.23670061,71.89097739,-20.50575687,223.9913038,373.8928091,-6.005446676,44.70199616,46.37132767,50.26925099,0,32.63627411,-157.6844468,0,,,
158.0879999,617,290.1248038,112.3167069,56.57659262,-15.60469574,3.977919437,34.05930904,-82.19315595,14.78606572,429.0550722,-26.60529837,-34.37740479,240.7773566,0,300.901681,791.6094374,0,,,
158.0959999,617,-40.98057589,79.03606535,6.65956599,53.71906029,50.90379043,70.56524058,-79.06730289,-8.357841617,-67.58117156,17.05520687,60.98952592,-0.433696611,0,-10.77003988,-14.76476778,0,,,
158.1039999,617,-15.08511427,66.77313663,50.21328691,35.91677015,56.49370519,29.95729984,60.1746053,168.8377717,49.74139545,22.00498226,43.43214357,73.05605619,0,63.56545316,63.54363938,0,,,
158.1119999,617,2.594345436,91.95814556,9.177700985,56.56585149,49.3545482,88.74802726,-115.4955074,-64.20524954,-10.19486381,13.05530603,62.25437598,27.83524002,0,21.74859843,89.82443994,0,,,
158.1199999,617,185.3833581,77.28046114,130.3137391,-19.9338703,28.53628589,-31.92526289,244.954889,430.0671512,443.7350203,10.28419467,-31.8242109,284.88072,0,308.7229732,550.631176,0,,,
158.1279999,617,420.9731181,136.6585093,81.51779551,-35.17352889,-14.1417526,39.34068959,-84.92490427,18.71183175,622.2331049,-40.74784357,-60.29591336,343.587794,0,415.5157348,1094.34009,0,,,
158.1359999,617,119.6709037,91.2971904,62.9522463,16.718567,33.06038377,36.77161621,25.81842955,133.7718747,231.5826293,6.692235068,12.33469977,160.091517,0,173.6388712,371.6718094,0,,,
158.1439999,617,129.9948647,93.88613291,54.62797198,13.18644475,26.98955199,45.32794692,-16.58477865,75.96536193,221.5622663,0.529316363,11.67497045,150.0906096,0,165.0916853,387.9428703,0,,,
158.1519999,617,-130.4983749,68.48600641,-24.95276802,69.57246503,51.51256823,101.9654864,-161.5495838,-151.7028499,-247.7942234,18.87751625,92.00684851,-102.597745,0,-128.7794449,-248.3788499,0,,,
158.1599999,617,-11.6747169,35.59721,83.2947755,-2.81254531,37.15270919,-30.55553044,220.0585186,357.5663699,119.0512913,16.26001132,4.209085374,103.2115418,0,108.2659477,93.77623524,0,,,
158.1679999,617,124.8952999,100.6337771,-8.626641889,19.27957285,10.72899757,84.03925238,-204.4581662,-177.8046232,107.6430499,-25.0071586,24.17941004,60.85229058,0,89.34451925,393.350272,0,,,
158.1759999,617,-196.0469018,38.94163653,3.175601719,57.84335395,61.8091288,41.99043638,34.03823657,103.1743784,-240.395329,26.99526153,86.59063218,-87.34198172,0,-128.4671458,-365.3880845,0,,,
158.1839999,617,139.5312741,68.32000012,71.60827932,-23.88353955,9.883119395,-12.83952582,101.3305822,219.4529049,290.9020027,-22.73903728,-25.36720468,176.7349102,0,208.0890867,477.157614,0,,,
158.1919999,617,-43.70586989,98.65704384,-39.04912382,67.52618503,40.52512731,122.6678055,-246.0311688,-250.0816909,-165.2827545,-8.538580063,80.54700768,-78.55625397,0,-76.40052143,-13.60336446,0,,,
158.1999999,617,-81.58343283,54.50717341,79.91831876,37.89617449,65.4780739,-2.218538028,214.5615551,347.2509273,10.89817478,38.90933754,53.03630742,60.95848561,0,43.60878678,-109.9926803,0,,,
158.2079999,618,170.6283227,107.9594091,21.59631183,14.44189308,10.43631687,74.41938049,-160.3996591,-134.2505674,201.2921847,-12.47334493,27.59829419,128.5631329,0,156.8959118,476.3288992,0,,,
158.2159999,618,-192.8117795,41.49381759,-7.349393491,64.27267498,55.75572657,64.65484352,-31.12281716,-3.36869605,-257.9399042,24.22581265,90.47470505,-99.33278421,0,-128.8105911,-349.4839894,0,,,
158.2239999,618,104.4883703,61.57497117,77.39153942,-15.61882742,15.05009578,-11.3644859,151.0807077,273.3329402,265.8084299,-10.2451279,-25.15166572,167.8511417,0,197.3195088,395.9348248,0,,,
158.2319999,618,1.808957279,100.0812262,-45.03266429,57.91481716,30.61203062,130.1458321,-270.5456017,-285.774657,-122.3930977,-2.955703562,76.52720138,-55.0151852,0,-53.70186161,68.52515275,0,,,
158.2399999,618,-114.5929446,38.62068712,65.89709885,32.43577519,63.78534302,-3.386936002,219.3115545,346.7557694,-41.50813997,42.3393604,52.14204475,29.25567113,0,2.548428918,-182.580072,0,,,
158.2479999,618,190.8507498,117.4595499,19.91861395,13.51181485,10.78830723,85.01090996,-134.9178114,-82.97442281,229.9368794,-6.456128546,12.96658828,140.3715679,0,168.9118796,524.3154403,0,,,
158.2559999,618,-172.7346355,61.52075242,-18.9568567,79.02088811,69.98428857,94.07105752,-58.14932481,-19.02353604,-266.769216,50.01409974,103.1240444,-94.66594842,0,-135.2410906,-357.5487324,0,,,
158.2639999,618,94.84102936,55.32736197,80.49009527,-17.69312034,32.14831613,-25.32188451,187.779069,323.4455841,259.0385315,11.57818508,-26.15774591,172.5823093,0,191.0808939,336.9251642,0,,,
158.2719999,618,32.02079863,110.3728764,-46.56242762,57.68525284,36.85358704,126.9869312,-270.7641061,-287.5870984,-92.7381723,3.000529791,60.50850845,-45.93339628,0,-36.7691972,114.7730444,0,,,
158.2799999,618,-111.498197,53.27201105,61.78834723,49.39303262,79.86923786,-4.155602635,231.3110989,353.8961113,-49.50652915,69.58087809,56.63609082,25.47328301,0,-3.590919273,-232.1783921,0,,,
158.2879999,618,200.0688658,114.4049552,15.68373396,0.669653378,13.10095472,53.01351294,-112.8490292,-67.87864653,259.3493254,16.19632492,-5.372354187,146.4369965,0,178.5662336,520.4482168,0,,,
158.2959999,618,-164.3624734,69.43092405,-28.32854912,71.92504118,65.75004454,82.20433809,-70.52281316,-36.24544378,-256.4414363,60.09965161,79.62279116,-110.6999046,0,-140.5639072,-344.6533412,0,,,
158.3039999,618,116.9801216,87.96001069,91.80915389,9.869115362,43.0045933,-10.11723714,185.0198971,342.927119,277.9355212,39.48258573,-11.52556415,183.3160808,0,187.5747558,314.7629805,0,,,
158.3119999,618,68.50317371,130.4874124,-34.70824633,63.46383481,38.26030874,126.8465976,-291.1249356,-288.4847457,-47.65985938,32.96408759,85.02699886,-10.43206134,0,-31.26495702,108.8851244,0,,,
158.3199999,618,-97.19768642,57.08904427,66.81777992,37.71797196,72.66106581,-20.90376662,212.6783735,352.17554,-35.67239682,77.2573359,67.00806115,33.53399734,0,-16.54533005,-254.8519673,0,,,
158.3279999,618,241.0022954,140.8558513,36.27883813,16.59201369,17.11415284,48.64251419,-123.8052328,-52.03862757,284.5682965,9.499023637,19.26449029,164.9093811,0,173.6403529,529.0951071,0,,,
158.3359999,618,-118.9790701,95.70065199,-8.109743701,84.51262884,72.69250582,70.00440013,-86.78708853,-43.121383,-226.9875125,61.97324841,129.8546952,-80.03550037,0,-144.3730207,-358.0877793,0,,,
158.3439999,618,137.6404276,86.82377585,103.252546,-6.438687135,40.20480869,-49.5740519,187.9672269,344.5997276,308.0756621,37.75127609,17.13358233,198.4900049,0,186.2616204,290.2168803,0,,,
158.3519999,618,85.31328237,121.3454234,-26.35567304,53.79052252,30.60732191,102.1563504,-297.2121401,-294.6699172,-24.30834865,3.325961622,80.38422832,-17.02128083,0,-37.46364556,138.4947388,0,,,
158.3599999,618,-99.1261371,42.20212266,73.3277469,36.31446339,69.5619001,-27.23379974,210.1228805,351.0474486,-39.04256917,44.74748354,65.28180526,20.24182703,0,-34.27407176,-238.2333881,0,,,
158.3679999,618,238.8991481,124.7176296,38.88493942,9.545694763,19.7017535,42.51688453,-123.5528125,-42.52430181,294.5112814,-5.122160416,16.5689724,162.3176296,0,174.1818584,554.6386154,0,,,
158.3759999,618,-128.0370581,80.66163851,-14.42492052,84.20588825,76.85676835,81.9056723,-104.1292151,-50.63515141,-232.7416341,51.27215676,114.5604503,-93.12874129,0,-154.0721225,-334.3545039,0,,,
158.3839999,618,121.3191997,78.48777717,94.40855234,-2.333528919,41.4992124,-27.17089281,185.7960239,358.0877678,291.1169862,27.3866749,2.645743334,188.7154137,0,175.980535,297.7404776,0,,,
158.3919999,618,97.59659469,145.3310824,-33.84245657,73.58668838,38.94278064,132.6038728,-312.7984799,-287.6387598,-20.72157272,16.49715298,88.26508474,-8.878327327,0,-18.65652085,143.4016454,0,,,
158.3999999,618,-86.52875413,67.34394153,71.80564893,60.47679136,81.89906878,-2.92384203,196.4520654,353.786947,-34.72657546,80.64413467,87.13029784,29.68184728,0,-16.73558177,-285.3602197,0,,,
158.4079999,618,244.644657,125.9476163,37.97566222,4.318675241,9.283132605,40.89175793,-119.1759418,-30.10135993,312.8943676,10.62252626,19.54672785,173.4342205,0,186.9880844,526.6927815,0,,,
158.4159999,618,-120.9347459,90.11471169,-21.11776574,81.91996466,58.64320458,81.98319853,-121.3706033,-63.66352555,-229.9760036,54.95422183,118.3594012,-93.86017814,0,-145.5431475,-351.2539796,0,,,
158.4239999,618,128.6515716,85.71927553,96.14220996,2.482940848,34.88900338,-39.1126659,182.1821114,358.5489619,285.8586352,46.76323696,14.92291044,189.4853208,0,191.589046,260.868377,0,,,
158.4319999,618,105.9270073,131.1037914,-35.6529695,48.5889418,23.30256849,97.72954108,-314.9650819,-295.7187438,-16.21167346,15.21445591,76.99861832,-8.319171945,0,-13.90986752,155.1414885,0,,,
158.4399999,618,-95.89896852,56.46007879,59.86845079,34.43753124,62.98677131,-27.05737895,184.6882865,334.9538069,-57.78433692,53.05410922,60.65282778,7.622404264,0,-37.17765634,-264.0065564,0,,,
158.4479999,618,245.5317545,129.8437807,34.3122065,3.406472059,9.269447594,32.90988114,-121.591413,-30.67468728,298.1298018,-2.111812182,8.34916643,163.9831483,0,201.1213906,551.2887902,0,,,
158.4559999,618,-111.2615225,98.27307475,-22.51709672,86.98043776,68.68441685,82.38123732,-131.5963166,-77.20488894,-236.6735596,53.4196589,119.7026936,-93.9442065,0,-128.3820274,-330.2779186,0,,,
158.4639999,619,124.9594268,95.40822608,95.59562728,3.830069426,39.96657564,-32.13916459,188.6858316,357.870828,278.6261691,43.19027413,8.938453585,188.2342208,0,174.5922119,273.9513061,0,,,
158.4719999,619,101.3426757,136.2895483,-39.15275672,50.11283947,24.49450815,107.6577016,-311.1085891,-306.9271449,-11.11153893,18.30550677,76.28739824,-2.462329626,0,-13.43332723,180.79465,0,,,
158.4799999,619,-103.1307234,64.11022614,52.30785315,44.96623172,70.18708337,-13.79614927,175.1306625,316.7426955,-64.20274265,62.69448484,71.5422299,5.725732613,0,-28.57869589,-274.3575012,0,,,
158.4879999,619,250.0595952,145.5292411,37.25918072,16.81413217,19.80228206,47.38327057,-119.4728573,-25.46834489,307.5740089,11.81111056,17.22305905,172.9637064,0,199.1011738,541.7892761,0,,,
158.4959999,619,-117.7841274,93.3517435,-21.64404284,82.06475194,69.35818916,79.64192416,-130.0884062,-87.85676174,-229.5587521,58.39309457,121.0523694,-87.43476519,0,-129.6646223,-330.4597631,0,,,
158.5039999,619,105.0377109,80.99317532,92.90712755,-6.896560023,37.13550871,-43.79459476,195.6545252,358.2373509,271.5837458,27.48669794,-3.629742433,175.609852,0,181.4018435,277.4314153,0,,,
158.5119999,619,99.15254393,135.404269,-34.97144838,53.55585151,29.33051236,108.0978838,-311.8500192,-306.3213147,-8.114675228,2.251447795,65.80948098,-12.18753775,0,-10.27471554,207.0964244,0,,,
158.5199999,619,-117.3047448,55.28041126,58.4144693,49.06749045,76.46024476,-17.30481369,178.3529566,309.3506743,-71.33247043,56.89535396,70.36746661,-2.943487549,0,-41.58251886,-271.7917464,0,,,
158.5279999,619,239.8301334,138.9986266,42.38010515,20.75850075,22.01763601,48.84929708,-115.5443726,-28.75280758,311.47548,3.344638716,11.02854095,163.5328482,0,199.0682836,557.8600757,0,,,
158.5359999,619,-115.7144812,96.07478016,-19.29953619,94.07869083,74.69453747,96.5053292,-149.1636161,-110.8908422,-224.6052836,55.97326078,124.885958,-100.2730987,0,-131.7613191,-331.7474574,0,,,
158.5439999,619,95.03072653,65.99678779,97.18621217,-6.727384164,40.14948664,-46.19074835,197.6092371,353.1977367,276.7894686,31.4115751,3.870741572,170.8521331,0,172.1291778,249.0864752,0,,,
158.5519999,619,94.03055104,125.9946612,-33.33211367,50.27718066,26.89385584,113.1914552,-315.4582924,-312.9044959,0.896462553,-5.738446494,57.86552131,-14.43240906,0,-5.782142134,224.1430691,0,,,
158.5599999,619,-123.9387062,61.88270048,57.56986926,53.70231943,86.07234778,0.308716227,165.5310341,301.3773013,-83.56244042,57.97559677,70.8887279,-7.964371231,0,-38.47627131,-282.6724576,0,,,
158.5679999,619,311.5499634,122.0119813,87.48987647,-27.52226501,15.02776555,-26.3668585,20.59837682,160.5311974,493.7930703,0.588824185,-28.32790129,270.8888378,0,305.5391031,750.2010665,0,,,
158.5759999,619,15.15852401,99.68486085,3.182054511,45.75768306,39.78286976,44.72817154,-144.6238626,-74.6769129,-28.22688332,14.65419759,68.37546437,-7.643745217,0,-33.80301793,26.71640631,0,,,
158.5839999,619,225.9839882,129.1594692,43.60045977,11.08011656,16.46290908,27.57945776,-126.0808672,-26.2352817,290.1378455,-9.908404593,4.336496837,152.5619942,0,171.5915141,545.1830269,0,,,
158.5919999,619,427.8561194,200.0070242,-44.11470346,18.96154319,-22.35981746,138.3410848,-586.437245,-612.9251844,351.3251541,-53.05617398,7.133227002,146.8993682,0,203.3856275,986.6131801,0,,,
158.5999999,619,113.1636343,116.9396024,12.00073267,34.71375754,28.19864859,49.04039416,-173.0834189,-102.4943072,97.27262083,1.17240302,41.45260607,53.07026685,0,49.33427373,261.5953294,0,,,
158.6079999,619,135.0610964,130.3050609,14.76365556,41.80495014,35.83855333,64.45312049,-187.9551967,-116.0859577,117.3880973,9.412538525,47.50747754,71.69962587,0,70.4901188,303.0518379,0,,,
158.6159999,619,-113.9284592,82.74192516,33.61367591,70.78897102,84.71740471,38.30935426,29.1369851,148.448341,-138.3891595,65.39094575,104.3616574,-24.69122479,0,-71.60611629,-290.0991748,0,,,
158.6239999,619,119.3946149,97.2140716,73.895557,5.577655273,44.17186278,-11.07344112,63.68862861,215.6217264,231.5439189,28.57802547,22.87491497,153.1438195,0,161.4995746,299.6907736,0,,,
158.6319999,619,58.45966856,124.1404005,-24.25139366,54.74076,42.3193397,82.01436603,-277.6636475,-241.6566059,-48.35954523,6.1377716,73.03611794,-27.23546868,0,-20.53973279,119.4366362,0,,,
158.6399999,619,-92.4207644,63.0046458,77.00906467,45.00589466,82.9543964,-21.44864831,193.289283,365.3746804,-37.19665097,59.1441585,71.27305601,20.91034301,0,1.184625393,-232.4844253,0,,,
158.6479999,619,223.7050633,142.4034756,31.33023515,18.38221129,27.71606009,61.73163578,-183.2067453,-86.44580912,247.8375692,7.673130484,28.25410859,135.3949343,0,161.8192561,497.2092812,0,,,
158.6559999,619,-114.9412504,98.66111398,1.898493432,81.18209251,79.17456802,66.68378467,-103.8111424,-16.50963539,-212.9209199,51.93546917,111.8479961,-81.80713125,0,-124.2237873,-314.7662355,0,,,
158.6639999,619,92.98688862,90.73986753,99.39581551,10.40094989,53.9723771,-32.73018419,148.453414,325.0307397,236.0499873,37.61322661,27.17012559,165.8479462,0,177.3246865,222.0620114,0,,,
158.6719999,619,91.37012217,135.0980751,-20.51589546,53.16920968,36.21948334,101.4794768,-311.5053661,-278.5639953,1.396752089,3.816337104,72.43722701,0.609887402,0,14.42512121,188.7964136,0,,,
158.6799999,619,-125.0004241,64.39339332,68.12490446,52.68765967,83.76445223,-3.498326747,154.4816024,304.9188126,-87.56206922,61.81544029,81.03436623,-10.28315425,0,-34.4458148,-316.6492583,0,,,
158.6879999,619,220.8033688,127.5791593,54.89241193,6.066959061,22.01032604,32.7093289,-116.3592309,-22.79298897,297.9089629,5.770304732,17.90319235,164.3581334,0,202.4658172,506.8925639,0,,,
158.6959999,619,-117.7311883,99.58816944,-11.51898212,82.29865722,62.01113405,85.89929803,-158.8288652,-100.597377,-223.6432942,35.78959569,107.4311359,-95.69316665,0,-136.6069864,-300.2463991,0,,,
158.7039999,619,81.29627343,94.83537818,101.635257,16.65653773,49.91792268,-26.04260903,168.6575629,357.1815906,233.5976703,43.83902275,28.51194447,161.2070126,0,155.8969604,169.9984436,0,,,
158.7119999,619,109.1518872,136.0488253,-15.40808795,50.16177738,34.52433409,88.08738469,-318.3432822,-282.9704227,29.44380364,7.636876164,73.28276309,16.2045528,0,28.30160801,202.7784215,0,,,
158.7199999,620,-146.0844103,55.69330525,63.4674368,47.50824737,79.76415163,-10.98126634,137.731493,287.1880985,-111.570643,41.58284542,68.35328408,-22.63702996,0,-55.75703489,-329.510209,0,,,
158.7279999,620,212.1396928,119.72983,59.40018762,0.449797792,24.52461981,31.22079332,-94.36501649,19.08092878,303.1132975,-6.268387659,5.508914257,172.1821356,0,197.835489,512.1587749,0,,,
158.7359999,620,-129.4542183,81.80255108,-17.18557723,72.63029834,65.98137579,76.22288793,-175.5225194,-132.8864889,-243.9017761,26.92431571,100.8244955,-104.396516,0,-136.6817014,-302.9668681,0,,,
158.7439999,620,49.41714347,67.49279921,106.7406623,-4.796144455,43.52206443,-52.27674725,202.7130461,375.2616734,210.203764,15.56821516,-3.318580869,144.6762248,0,150.2091129,186.6301483,0,,,
158.7519999,620,106.9660781,135.8185599,-12.66886473,45.9253559,27.14157084,101.9642935,-311.5300971,-286.4137671,18.76784152,-10.08253299,57.61446461,9.056639961,0,21.78436718,256.2335557,0,,,
158.7599999,620,-149.7411294,61.71533987,59.05730786,54.17089524,73.97162522,3.966934488,139.5632517,276.203604,-132.8759655,47.61401132,72.51937649,-27.43076457,0,-60.93319147,-332.7520317,0,,,
158.7679999,620,214.9831746,126.9014921,59.42611585,2.746440015,14.11114919,29.44193975,-78.19172918,32.11182339,306.8932184,-2.2139703,-1.634552065,176.9388485,0,205.5577932,528.9100431,0,,,
158.7759999,620,-112.9646726,111.6550589,-16.12820142,89.92388629,74.85445676,96.11459843,-195.6046341,-145.3617658,-239.9794568,41.40199116,113.6204803,-91.00210215,0,-132.8045836,-296.0193622,0,,,
158.7839999,620,59.04412332,88.76724076,112.0985458,4.169254865,59.06894246,-46.99003435,204.0237856,392.3112016,215.8112687,41.9827729,19.22155924,173.462887,0,165.2157003,144.0804497,0,,,
158.7919999,620,114.5882073,134.8311937,-14.97718743,34.18139113,17.88626701,86.97120331,-316.7427368,-286.2415316,29.30327899,-6.098322972,57.98521622,27.41873281,0,35.6352548,247.0189719,0,,,
158.7999999,620,-151.6116118,63.35270327,53.68367123,51.24838113,69.47222532,-0.185585811,120.2064923,262.8761001,-146.3864295,42.87805631,72.64102603,-27.63196383,0,-68.99025707,-354.66904,0,,,
158.8079999,620,214.9224936,123.9433837,58.45160536,-4.771425514,15.48309814,25.57521036,-80.44784057,39.80359095,304.8400661,-2.012024546,-0.218041063,185.9567001,0,210.608751,509.8923299,0,,,
158.8159999,620,-122.0205737,87.2233261,-28.21252198,67.03972915,53.5662485,79.93826551,-207.96541,-166.0117735,-248.9950945,23.48718056,99.05767064,-100.7808823,0,-136.0945007,-292.9854262,0,,,
158.8239999,620,43.897204,68.71296446,101.1618594,-3.909722568,40.82995807,-50.89228317,194.0624825,376.5606444,194.9018074,20.71087145,-1.215693867,148.5561036,0,148.0341305,134.0640342,0,,,
158.8319999,620,105.6089224,116.4629126,-19.47129911,24.85001193,8.71147505,88.4918683,-326.9238279,-300.3175791,31.90656756,-15.59758347,41.75138231,22.28008772,0,33.59012715,251.8489123,0,,,
158.8399999,620,-181.0159985,31.72761021,46.23850564,24.97717794,51.18701176,-22.8077987,114.5732523,246.3542654,-159.142291,18.83016058,46.29279697,-43.22552415,0,-82.42129279,-343.6924297,0,,,
158.8479999,620,201.3490938,116.385976,58.13160927,-14.2221011,5.350967773,8.497369162,-80.97401963,42.57993419,292.3010606,-27.43029935,-24.12760299,164.5372245,0,194.182927,536.1638127,0,,,
158.8559999,620,-124.0372303,90.91476576,-24.68943682,68.36423607,54.09538756,76.35938038,-220.0555653,-180.893509,-245.9060769,20.29790352,101.7146438,-107.2682489,0,-134.9776491,-286.2951629,0,,,
158.8639999,620,23.55291628,57.40125599,102.3076709,-13.01975449,35.33316331,-67.08015094,197.3173323,366.2471346,193.9647036,9.474284058,-6.039962972,139.494805,0,146.7047587,131.761168,0,,,
158.8719999,620,107.1369415,123.9416757,-22.83343076,27.4457189,8.719284384,87.57973575,-341.4896767,-314.7360134,29.81879192,-27.6079857,32.5052527,10.98541037,0,12.39216626,281.4700595,0,,,
158.8799999,620,-173.9185487,50.29302594,42.7060749,40.90062917,64.9143325,-9.088135376,89.23941936,228.7443608,-165.6636339,31.20923465,62.66654813,-45.60797917,0,-97.63203639,-363.7666102,0,,,
158.8879999,620,204.2287297,113.978009,64.51651769,-11.15161094,12.95594512,6.47150497,-75.61043795,47.92157201,303.4049524,-21.89420694,-13.70643348,176.2546484,0,206.709391,514.5810029,0,,,
158.8959999,620,-111.4443788,87.63125213,-21.3232061,69.58675493,53.22534017,84.65571442,-229.6533178,-189.6215808,-244.1916206,11.68138657,99.13364573,-101.7032958,0,-146.2946802,-272.9387187,0,,,
158.9039999,620,38.72307346,73.08481911,105.4156021,0.307531158,41.419009,-50.46086155,181.5419909,372.8986191,187.4682724,16.70521825,5.812930979,146.8692436,0,131.2108822,120.6744683,0,,,
158.9119999,620,135.3352065,142.3358051,-11.77416861,41.35386994,18.68676721,89.27438614,-349.1998323,-306.1868494,48.68290897,-10.37530757,56.74495722,32.81737838,0,37.19998683,266.5474294,0,,,
158.9199999,620,-158.4724744,45.37251457,48.99349099,39.38204429,63.15005964,-22.84134507,88.90457641,218.143086,-157.1287006,35.05673246,77.48050566,-36.63181345,0,-87.72085336,-388.5409934,0,,,
158.9279999,620,204.3372882,95.52855941,63.93240946,-27.50028605,-0.03236598,-11.37039215,-66.69368038,50.45665456,306.447767,-33.80144778,-20.46525073,173.7964201,0,194.7659255,518.6125716,0,,,
158.9359999,620,-112.2453076,78.75599943,-22.89337862,62.66277281,48.98665218,78.25565585,-230.813464,-193.5767987,-250.06266,-2.201545079,88.7076874,-116.6926132,0,-156.9552727,-252.3440797,0,,,
158.9439999,620,27.86160853,64.91237022,108.5036638,-2.381677839,45.93699777,-55.65926755,198.8459885,380.6043036,175.1204616,2.823868139,-3.913416802,131.7904861,0,118.9174718,125.9298065,0,,,
158.9519999,620,129.7966744,140.6440103,-7.830176791,41.19993369,28.95160458,99.90982824,-340.4445659,-303.2421049,43.66284131,-25.35431773,45.77332439,33.45872805,0,30.22262085,293.2480022,0,,,
158.9599999,620,-163.0420058,48.28288944,55.27077576,50.62934836,81.37953957,-6.410634231,83.97267633,210.9688393,-175.5666834,35.79578668,79.03666315,-34.96716581,0,-93.18782719,-400.2859464,0,,,
158.9679999,620,206.748841,96.12957678,71.99092775,-23.17146966,9.430537516,-16.85183237,-61.84999473,53.12527837,306.1874825,-29.66227625,-22.52000399,183.0327452,0,198.8187464,510.1629759,0,,,
158.9759999,621,-105.9545345,85.67397833,-23.46778862,67.65216047,53.96589239,75.26074306,-248.2821732,-211.7505089,-248.1215224,1.3044602,90.57151285,-107.2916936,0,-151.8288346,-246.6250148,0,,,
158.9839999,621,23.37214937,58.50416549,108.6061025,4.262961142,47.7439159,-57.81783325,197.0024494,379.6455428,167.0034941,12.95719758,6.809041311,138.1391998,0,116.0327062,97.31966621,0,,,
158.9919999,621,133.1388854,128.6402342,-5.141702959,41.40234692,19.99686023,98.78599812,-330.521409,-297.6555687,48.8327319,-28.65339985,44.15294001,41.62513174,0,26.68129319,302.8054159,0,,,
158.9999999,621,-168.6271478,50.33827189,57.68009473,61.16015652,78.07289027,4.953525471,86.49459723,204.7135483,-186.775518,37.25126647,87.15044313,-32.61243335,0,-97.8821206,-395.0084074,0,,,
159.0079999,621,201.3387439,100.9311628,78.44028863,-8.433882668,6.838305739,-5.437381772,-45.92993813,56.23433266,297.0334983,-16.58952243,-7.55914653,191.2605368,0,203.184151,500.3161256,0,,,
159.0159999,621,-97.73294617,90.30720646,-21.20842867,75.86803966,46.29947757,87.72373874,-243.4734908,-230.3945633,-259.5641577,4.951227862,92.7086924,-104.2268674,0,-157.9203073,-254.6278975,0,,,
159.0239999,621,21.6728818,54.49025689,106.52082,0.055824879,42.59152534,-62.24938322,210.4568826,367.3396292,151.1155738,15.25285006,2.232956089,135.9078525,0,115.9816448,69.09321013,0,,,
159.0319999,621,130.0858102,108.5199748,-16.84043394,15.64636079,-0.698751642,67.67348975,-319.4503764,-314.0766021,47.98236195,-39.28211777,22.9034985,35.78265991,0,53.00074665,311.9340052,0,,,
159.0399999,621,-169.2669031,45.00194711,37.53179264,46.05816268,61.7149279,-3.407904971,76.73716361,184.4572322,-205.7820405,15.32786262,57.42209761,-57.95914314,0,-95.65202882,-383.2242971,0,,,
159.0479999,621,242.2880103,100.8158747,113.1755609,-28.42018176,19.90362731,-46.88036729,122.5152553,287.595795,437.205109,-17.33899173,-51.43771383,264.9884523,0,286.2036876,611.4824709,0,,,
159.0559999,621,3.627630732,86.41652755,-2.28496373,36.07045437,40.87161994,41.13338001,-172.6414908,-134.633048,-45.59907805,-11.96006546,47.32956433,1.559617367,0,-24.1669691,41.76398794,0,,,
159.0639999,621,-35.7612757,63.91671585,29.94911518,25.16114898,50.91509194,1.147737934,-11.42458845,76.95383576,-26.58944019,0.813897734,36.40432115,24.57934441,0,13.87275172,-41.69727134,0,,,
159.0719999,621,58.30900719,99.22479594,5.754294417,33.93196333,43.36687721,56.02006277,-176.0973238,-117.9411812,22.69558147,0.342209757,36.21482734,36.86180564,0,43.30194002,148.6437416,0,,,
159.0799999,621,-41.24237747,63.31137048,50.41787085,34.22697074,60.90703255,-5.203145992,50.52433956,166.2271945,-4.153043538,28.26362853,33.067119,41.6445497,0,28.73566688,-72.75117694,0,,,
159.0879999,621,93.37412742,106.9780333,3.330984021,28.91259109,28.33765234,56.88057016,-210.7984999,-151.4782446,69.54879048,0.166973101,24.56918522,52.70385352,0,69.18568417,224.7325356,0,,,
159.0959999,621,-97.57065307,55.4994634,20.03313766,37.27240558,55.6003713,17.67598214,-17.19906184,77.84787986,-118.8470908,32.11977712,49.29599722,-29.25362128,0,-50.92996614,-224.0429906,0,,,
159.1039999,621,117.1939945,82.93103183,53.02838605,3.643901546,28.30901516,-2.575786397,-16.29302596,94.20288166,185.7606178,10.07133662,-9.338006868,119.5271745,0,139.7601519,282.9146202,0,,,
159.1119999,621,-32.17677897,96.52473714,-27.98751625,65.27657602,53.22543589,79.43177404,-238.5392716,-203.8266395,-143.9952361,27.22416619,64.06501554,-57.72653617,0,-68.73278762,-98.32792889,0,,,
159.1199999,621,-19.67198369,53.67707417,72.61709212,14.93643515,59.86221368,-34.202336,156.9671429,314.8370246,82.18997489,40.63375295,4.965260577,83.05804961,0,82.4458815,-27.9953936,0,,,
159.1279999,621,135.0909605,115.5779288,-11.27771569,27.91353641,25.66478843,83.77082194,-279.6347011,-235.1359525,84.52743298,-1.349890874,19.47924605,41.29557612,0,86.86183335,290.967371,0,,,
159.1359999,621,-150.3198961,52.11218775,21.90909651,50.6802661,73.83820592,17.77285984,27.98484987,136.503803,-182.403079,54.66137838,64.21876901,-60.96356218,0,-72.4561668,-374.1852714,0,,,
159.1439999,621,162.8980676,85.35774639,57.98782053,-22.61836784,13.58980467,-14.62918626,-9.1369284,109.569758,268.8573981,7.192443862,-32.7191507,156.5962253,0,187.3900261,403.981027,0,,,
159.1519999,621,-76.11800773,75.92266875,-44.96842186,47.11839431,33.15518234,74.21037961,-260.1863749,-244.8294418,-209.6752554,13.64633877,54.86770912,-109.2561955,0,-116.7678611,-162.3294815,0,,,
159.1599999,621,-18.4478413,39.3225613,75.69700226,-3.814015756,44.9938187,-59.69342482,190.3645587,358.2446636,92.58200381,37.51742682,-10.95559085,80.50884964,0,90.94125647,8.462696166,0,,,
159.1679999,621,144.8423399,97.55343382,-22.43268026,6.449755865,12.83125493,63.78638713,-300.1588251,-264.2012524,79.81125309,-6.192716355,7.644287469,35.23998571,0,65.27894248,355.1523503,0,,,
159.1759999,621,-181.6376365,19.30557123,11.97874865,32.70010439,67.3584178,-0.798074297,43.56713254,150.7807656,-227.1586619,33.20352512,42.45173797,-95.7706516,0,-115.104018,-362.4623222,0,,,
159.1839999,621,182.5010213,81.82548416,50.51766107,-25.69677964,21.44207547,-4.593844888,-17.28564216,118.4309181,271.957999,-5.089926848,-43.28686186,151.4955723,0,203.7917229,490.5326527,0,,,
159.1919999,621,-75.98824864,70.63353136,-54.36560422,45.41519719,51.86292749,82.05950007,-271.9322881,-248.9436102,-234.1450901,22.73210979,74.92727584,-110.8506971,0,-121.3298067,-185.0643408,0,,,
159.1999999,621,-24.23096538,19.98444363,70.8810421,-23.34218943,44.81157484,-78.75725219,205.8390924,371.4439738,98.72891374,21.16532892,-20.71966603,83.71370878,0,91.93178674,22.92573211,0,,,
159.2079999,621,144.8375964,101.4319387,-34.67276606,5.987671346,9.964777996,65.33625893,-313.8275755,-278.975939,73.6682546,-19.59767622,-2.189679962,30.09982774,0,69.32781417,380.6042873,0,,,
159.2159999,621,-181.3424132,26.95690245,2.665766134,39.1259706,71.16614094,1.567386069,37.51449523,147.845606,-238.2298355,50.08465849,61.12167636,-85.88939823,0,-109.4146504,-403.9404708,0,,,
159.2239999,621,183.3656495,71.64659261,46.80791732,-32.21010762,15.99391299,-27.36298025,-7.124541179,128.511718,281.4033506,-5.566801272,-43.49811604,164.8768533,0,212.4057505,479.9820812,0,,,
159.2319999,622,-83.71566898,64.92413709,-60.9915575,46.8881803,46.05078412,69.18735602,-278.9539934,-248.8642826,-246.2120788,16.1027631,65.26938624,-113.9501333,0,-130.3827549,-183.4497934,0,,,
159.2399999,622,-29.94218279,14.93143727,65.64761787,-24.72533719,45.29669319,-78.48949851,204.4730807,385.2697123,93.43464201,32.33473519,-16.84542967,87.53549804,0,88.79061816,3.602796129,0,,,
159.2479999,622,144.2193968,89.84203164,-36.62023156,-6.145964534,2.249303206,59.91610354,-309.0024434,-270.2766256,82.71211066,-25.119694,-9.718216839,28.68616526,0,75.9029745,382.3951424,0,,,
159.2559999,622,-192.006306,15.85110328,0.765843423,27.78889133,51.87168001,-11.27635102,35.3557407,138.2212281,-246.3530751,35.22539287,46.46903638,-96.74059568,0,-117.3493801,-391.2514958,0,,,
159.2639999,622,174.4056448,63.83275558,47.07014563,-40.19678714,-2.296974978,-37.50697436,-0.086063792,127.3898809,278.4883164,-9.138566026,-51.3812915,162.5780534,0,202.7126542,492.9598401,0,,,
159.2719999,622,-80.4530952,60.29603899,-58.99875516,41.32203739,25.39236158,67.29368724,-274.7075664,-258.7117227,-248.0352493,5.046606163,57.79835372,-121.5929634,0,-131.9948878,-164.4850442,0,,,
159.2799999,622,-25.69065424,16.00073694,71.60123756,-20.28287388,28.5316774,-81.94592423,217.6503413,385.4918741,81.22920243,23.19443384,-15.34681691,86.05635207,0,84.26867611,10.71439708,0,,,
159.2879999,622,155.877179,94.23994543,-33.30244961,3.529791456,2.257101347,57.27129695,-288.3374956,-262.6429363,84.48502595,-24.6047322,-6.256885582,45.7405299,0,66.12123794,395.4897674,0,,,
159.2959999,622,-186.7370212,13.51694784,-2.438113833,30.2939935,55.99593659,-10.41666571,57.02804244,140.1168006,-249.8957905,30.78445531,40.56547939,-91.28568452,0,-132.3339796,-391.1101123,0,,,
159.3039999,622,180.8494344,68.33550537,47.59085865,-34.0895554,-2.766118572,-35.57509528,30.78843285,143.5049316,278.5236089,-9.882470093,-52.44870861,168.5357097,0,204.8053296,498.1046321,0,,,
159.3119999,622,-66.88125712,78.35365159,-59.35758038,62.03630085,35.61222059,85.35034811,-259.8514183,-260.6707217,-244.1586921,19.63185136,70.30023144,-107.124903,0,-124.6718385,-157.5975728,0,,,
159.3199999,622,-25.50264044,26.83480237,72.64874944,-3.036421042,39.6838569,-59.30912833,240.2182865,388.8047223,78.25989087,43.71068513,-1.991804582,94.51399659,0,84.69470934,-13.85374505,0,,,
159.3279999,622,163.1952689,100.9736206,-28.50877439,9.194818043,-6.115450301,68.4979223,-271.2723408,-255.7165472,95.36087319,-10.59192848,5.676435422,50.66337026,0,81.3171878,393.2244083,0,,,
159.3359999,622,-172.2059143,29.76353908,3.091619653,48.06172297,56.78503642,3.283294766,46.26021788,136.208622,-242.6454953,51.90890079,68.61584955,-89.45475406,0,-122.6188621,-414.1190988,0,,,
159.3439999,622,191.9264366,72.35409031,55.79383915,-23.63230769,3.802422367,-34.01417326,27.47678256,159.3353843,296.8077804,14.47775742,-31.38160147,176.7606705,0,214.145054,462.2305768,0,,,
159.3519999,622,-59.69378682,71.2404884,-55.8329214,55.22853299,23.50081514,77.9685894,-274.2500675,-256.0105428,-230.9493638,19.9981419,65.26443987,-113.6667956,0,-119.2883091,-157.7264809,0,,,
159.3599999,622,-24.75394266,24.18390766,79.38293443,-4.547594253,29.36516837,-65.07941237,229.0036305,406.2807883,77.30304698,42.07874864,-3.778846378,84.30369258,0,80.56660242,-22.72090222,0,,,
159.3679999,622,164.7702924,93.77097354,-21.33049404,5.1561099,-11.3316345,58.12385399,-280.5882469,-235.0406577,109.3441635,-5.57375865,1.175848016,55.27099265,0,85.3821875,405.8171589,0,,,
159.3759999,622,-185.1574583,19.25632782,4.546889246,42.74739126,51.67298815,2.948825419,29.91846259,132.4584772,-252.8172512,39.18948309,47.17261997,-103.84885,0,-135.3770365,-395.7532198,0,,,
159.3839999,622,183.8658206,66.23793769,65.15073849,-27.0903144,8.323320761,-28.87125493,35.64839333,170.366074,290.8487517,1.941533474,-43.05461919,170.1148606,0,204.5267855,476.8044536,0,,,
159.3919999,622,-56.21660907,75.6483949,-49.75200629,58.68650993,37.01808574,83.60734521,-278.0675987,-259.4449215,-223.4691416,23.27942256,69.14549719,-105.6223704,0,-118.9878191,-145.2568063,0,,,
159.3999999,622,-35.16463795,24.03869364,79.78860867,-0.843594351,40.64297269,-69.40353971,229.5539676,403.894465,69.71815767,44.99989792,-7.074805264,87.20445911,0,75.13261183,-35.49687747,0,,,
159.4079999,622,168.1943722,91.71137645,-17.73131167,5.085248045,-4.547499434,50.97796858,-266.5524776,-229.2048309,113.9533212,-7.312823263,-2.0618995,70.20074205,0,101.5308249,419.2125695,0,,,
159.4159999,622,-180.7432805,21.94037494,5.200829487,47.64496162,53.22349936,3.391814324,34.91943148,128.6653122,-256.4297449,44.19724812,56.7681842,-88.95279696,0,-125.6391395,-397.6951998,0,,,
159.4239999,622,178.158257,57.38501226,67.47617561,-29.63325234,-2.137217622,-39.27789543,55.24065002,185.8971033,289.3370057,6.016324453,-43.98585022,183.8655539,0,188.2968707,475.28856,0,,,
159.4319999,622,-53.63806122,64.9963189,-45.32063088,56.53668461,26.69497659,74.55870613,-268.4821189,-257.1161269,-221.8957991,15.84201785,59.50394297,-98.45274868,0,-130.4577163,-106.5380197,0,,,
159.4399999,622,-38.89638748,15.31820649,84.90298783,2.311807356,40.30399844,-72.18720798,234.8769071,408.4338338,57.96705327,38.71007905,-4.759459964,83.72268946,0,66.79535577,-22.39745937,0,,,
159.4479999,622,166.8788101,79.8568236,-11.74405971,4.080612244,-2.063832511,52.12143286,-262.3082569,-217.7773248,116.6488137,-11.94924512,1.340935253,70.92772629,0,83.36828655,436.3249647,0,,,
159.4559999,622,-186.8843342,6.619380132,9.525248803,44.49974653,52.77453237,2.517698283,31.17475364,124.48661,-259.8939823,32.57512638,54.20847117,-99.88150144,0,-138.700414,-377.1356346,0,,,
159.4639999,622,173.9422221,53.67549039,72.81390269,-27.75080954,-1.450732952,-37.24495652,59.75865012,195.9298587,286.4771421,-4.096404507,-44.2513786,172.0808806,0,202.7658992,493.9824185,0,,,
159.4719999,622,-44.92905929,79.79970668,-44.96483774,68.78674822,37.11462698,97.67564765,-278.3569093,-263.4409798,-218.0866015,23.44044002,77.01712244,-96.17955858,0,-116.9252611,-105.052147,0,,,
159.4799999,622,-35.61304231,27.39899023,83.3151921,7.086274877,48.9123809,-65.00655169,236.5607956,397.5600714,56.76192495,49.93814618,15.02937819,89.99661797,0,65.32417214,-60.10105643,0,,,
159.4879999,623,185.1190067,104.4396236,-9.488906171,8.534051819,-1.09856961,49.85162464,-256.6642242,-223.6131341,125.9536098,-11.58105413,8.756470543,81.88051325,0,90.48301427,428.1078508,0,,,
159.4959999,623,-153.4910127,52.29802194,15.52918882,75.3974613,71.26583983,32.90455628,19.45687448,110.7197184,-258.4732575,58.08377114,88.02683814,-79.58908615,0,-132.6771561,-420.2366319,0,,,
159.5039999,623,206.0336355,77.03389759,82.29986221,-13.05752946,15.94846814,-28.56216576,69.03205127,198.7505124,300.1688854,28.34057725,-8.652591712,207.8572475,0,215.1449264,426.3155733,0,,,
159.5119999,623,-30.52022017,70.00426484,-44.54296738,48.38004699,21.13509833,64.12744868,-269.5744,-274.6468073,-212.8159038,10.78591001,65.71639155,-83.421693,0,-117.6257315,-117.009874,0,,,
159.5199999,623,40.4919638,14.7392082,132.8761523,-25.31309234,30.95415824,-123.6166917,380.2963338,583.2641731,215.926822,28.26914586,-42.45774431,179.8083967,0,168.8491216,134.1651353,0,,,
159.5279999,623,325.5272587,107.9097988,28.55063176,-20.24208379,-17.7379694,27.53917943,-219.5208138,-165.3194599,336.2282508,-24.22670258,-32.62518954,196.4962596,0,226.385501,771.7897266,0,,,
159.5359999,623,-256.8855549,38.02093587,-37.58847114,94.70821428,61.06709318,69.32095853,-143.0864164,-119.7113807,-490.9732967,45.80526858,119.8969407,-205.3218481,0,-289.164423,-626.1617712,0,,,
159.5439999,623,149.9229278,52.80687137,128.1061772,-19.24349992,10.40543637,-74.3320141,250.9510762,434.9609023,308.5664793,21.58391933,-34.02184707,226.7906098,0,225.0832371,367.0376327,0,,,
159.5519999,623,114.7195951,99.54608677,-27.48912437,38.88007038,-1.079840108,87.10264001,-346.4041768,-358.4462365,-28.02789401,-6.536940743,53.13317061,11.07977571,0,-3.20298239,243.4376144,0,,,
159.5599999,623,-188.688882,6.524164517,49.10553391,42.47438878,46.3534081,-35.82373566,158.2094132,253.2334043,-221.2330337,37.1476691,59.5646055,-57.71352612,0,-122.7907802,-418.7713705,0,,,
159.5679999,623,258.4947619,87.94546554,72.73807926,-17.82104356,-14.23242009,-14.5316694,-7.380899897,82.45925351,341.0762508,-17.65659083,-38.40283612,203.984708,0,235.5497202,624.3121731,0,,,
159.5759999,623,-95.45109665,72.07679735,-35.38672256,80.89013987,38.05985595,83.14036298,-220.6546755,-229.833612,-294.3340568,31.40451685,103.6000609,-117.7971372,0,-156.0541132,-277.4621809,0,,,
159.5839999,623,24.62146501,29.81151148,98.32314701,0.758379832,20.94800946,-73.06789701,249.2760159,392.1699031,126.0383213,33.47240281,4.246856127,123.7733677,0,111.2076027,55.52877319,0,,,
159.5919999,623,171.3679533,101.3707928,-6.185446018,25.96070784,-10.20463452,73.4959234,-263.3360271,-250.8679627,85.89633923,-11.87302378,25.30421794,58.32663805,0,79.13583139,366.4613907,0,,,
159.5999999,623,-163.9715986,30.39119976,29.17330325,62.4783478,50.2001031,19.90872979,60.5496446,133.4429548,-247.1744662,48.78212827,86.15321915,-73.05714923,0,-121.4420946,-424.9970922,0,,,
159.6079999,623,206.7900608,71.93223928,87.86623372,-13.99127633,-6.565190848,-34.90993814,69.22458834,173.925555,305.3263148,-0.492556138,-19.9624745,199.6522865,0,218.6388097,463.2148054,0,,,
159.6159999,623,-38.94926474,78.73467463,-32.76932802,71.61794439,22.55633191,78.64812663,-261.001559,-266.3006679,-218.0147617,15.733328,90.14431693,-87.62648467,0,-109.5909004,-156.0283544,0,,,
159.6239999,623,-54.80984103,-13.01322302,168.5403685,-14.38999964,41.50676136,-150.8043557,549.8913264,788.0628468,176.3379896,65.69464999,-2.190163027,177.2737597,0,155.5216894,-126.0738197,0,,,
159.6319999,623,270.9227637,49.25362156,159.2055475,-55.32198252,-10.30751205,-116.2565436,317.973992,512.2349408,534.9411835,13.50688319,-64.98542226,334.0477712,0,372.2647462,632.2340666,0,,,
159.6399999,623,-25.85400065,55.49998234,-0.68953888,45.66246205,15.25152057,35.76398395,-129.0782982,-98.00536274,-124.942191,15.48714933,60.33663327,-33.483878,0,-50.32409079,-99.54779657,0,,,
159.6479999,623,20.92648042,47.61056333,14.43063615,23.05424933,0.942161814,13.85665497,-93.37212315,-48.25338985,-22.80400597,-2.493670365,24.16184555,14.75104245,0,13.55299261,57.39033539,0,,,
159.6559999,623,-19.78053227,45.96032543,41.70695058,33.4678128,25.60323001,-1.744297578,17.71157979,107.4913554,-28.66477919,14.56711268,25.60251557,24.85272942,0,11.84344238,-37.29155751,0,,,
159.6639999,623,67.1717392,65.18123553,46.17310706,22.27597733,20.07527281,12.90998666,-24.64273392,65.73279019,66.74969421,16.65669557,22.95584101,79.40436374,0,60.31632905,113.9884001,0,,,
159.6719999,623,13.81474664,60.84586986,-3.85496258,31.41127716,12.54893673,48.08132336,-162.0944658,-130.7573251,-87.39234914,7.822030891,46.19955856,-8.486413461,0,-40.91020106,-36.50469208,0,,,
159.6799999,623,-30.57391874,25.63096962,64.73860334,11.60500363,23.32779761,-41.11724734,151.6969127,271.3171274,6.248838758,20.49223287,8.952339408,58.53237463,0,25.47985405,-94.38698941,0,,,
159.6879999,623,135.8242292,79.91277647,9.331961993,17.11268534,-4.974209063,41.22100445,-174.348338,-145.8346942,97.73750832,-14.19446454,8.102743111,79.7965016,0,69.18986844,289.6072813,0,,,
159.6959999,623,-126.5112011,28.11828203,14.72463207,48.55068836,35.09378709,12.81434124,11.19380888,68.36678961,-189.0060733,21.68032424,53.63101787,-44.5463993,0,-99.86296619,-304.3033341,0,,,
159.7039999,623,131.3238376,57.93519513,70.68794539,-1.703244182,0.785472133,-31.66918672,74.05819198,189.5095911,207.4760016,-3.014772529,-23.30182532,151.7423834,0,154.2619808,303.849575,0,,,
159.7119999,623,3.140476832,68.05993841,-32.95290742,48.76071636,13.39926995,58.27860438,-249.5831793,-248.1908897,-145.3187654,1.443928488,59.59989447,-53.01790378,0,-71.50211305,-44.30236652,0,,,
159.7199999,623,-70.88674674,-1.150540652,64.85993632,-0.277559559,28.16354155,-81.0202631,209.4368755,335.3214208,-5.089867055,16.22281171,4.395773302,45.6985274,0,19.01089767,-138.8137251,0,,,
159.7279999,623,166.1686243,71.89753768,0.811415002,2.339158549,-13.17112519,25.00397125,-198.991914,-172.3241965,140.5706754,-38.23293081,-12.04680062,81.46714328,0,92.724868,409.6796507,0,,,
159.7359999,623,-169.8525128,13.5944561,1.705545439,48.8907919,46.38694461,9.350769429,-1.226788451,42.83519086,-256.1992402,20.56077435,68.08791904,-90.62522709,0,-144.9503065,-385.9188852,0,,,
159.7439999,624,142.4084132,40.41450139,79.2735922,-22.83778664,4.90193269,-45.22170895,119.6121574,220.8730478,251.6458596,-14.45520568,-36.08382178,166.3746618,0,171.530067,360.9729888,0,,,
159.7519999,624,-3.404177866,64.83146305,-34.85626799,57.60362265,17.12295732,86.49838818,-259.2319126,-289.4052867,-163.7350049,-7.672854062,65.15359285,-68.23859177,0,-92.09965614,-42.19493295,0,,,
159.7599999,624,-83.90164471,-1.014781658,79.23304966,11.42172084,37.18943263,-62.53286922,246.8544528,365.7932508,-13.79556268,30.01134846,22.37699332,51.04425159,0,36.38282604,-168.3792987,0,,,
159.7679999,624,176.6764174,74.28917857,8.142924629,0.55029249,-11.42968486,30.10160057,-190.4188953,-172.0912296,157.1396703,-32.67046285,-10.65383552,91.98328431,0,131.8143825,437.8500824,0,,,
159.7759999,624,-188.4882736,6.843753677,1.164304638,52.96219176,46.59646593,4.743401505,-0.494435181,39.58726252,-280.1466013,24.21306379,69.47121597,-104.71889,0,-169.3560281,-413.2538089,0,,,
159.7839999,624,135.3375582,30.34385139,80.95469363,-27.79447013,9.555910164,-56.19132333,134.2485242,245.6547084,252.7090581,-7.908759852,-35.1540844,173.6593941,0,171.6613196,369.0725886,0,,,
159.7919999,624,-14.95585828,51.48462757,-48.5040961,43.55454204,23.78710873,80.34850433,-269.0454282,-304.6073206,-184.2912928,-21.09244051,50.72102494,-82.64458441,0,-96.9176492,-40.34963561,0,,,
159.7999999,624,-98.47018961,-20.95433977,65.99439072,-1.730474194,37.48655819,-73.90339725,256.0526765,362.2045773,-25.16741925,9.251136065,0.982060167,32.02134915,0,-6.272428263,-170.4976921,0,,,
159.8079999,624,176.6012049,64.7204385,-1.468357626,-0.552643242,-11.6236914,42.86773826,-185.85788,-176.2852358,163.8913021,-42.82960584,-20.12499138,87.73371068,0,106.5414346,457.7884268,0,,,
159.8159999,624,-188.3379429,11.31537356,-7.991225911,70.37728851,56.0201714,39.24774344,-6.541728101,32.07489444,-287.0547275,19.86395958,66.9717354,-112.4025574,0,-167.5228032,-422.6341861,0,,,
159.8239999,624,133.2244585,27.48771571,78.43550195,-16.48828733,11.75092309,-52.30542247,145.473736,260.6873026,265.0756815,-4.877178147,-34.39398645,178.7239579,0,174.7503607,347.1566067,0,,,
159.8319999,624,-19.54665812,53.48531563,-49.91216073,48.32749887,19.05279582,82.51693172,-273.1071316,-297.6011445,-175.8467673,-15.41873821,49.31631124,-75.28075467,0,-105.1255856,-49.40389976,0,,,
159.8399999,624,-93.77124506,0.855322419,70.92537089,16.76504611,52.54346882,-51.8478352,250.2094662,380.0175093,-26.38250667,26.92362993,10.66853389,44.88220922,0,-0.634199176,-194.0173543,0,,,
159.8479999,624,188.3826063,67.3460714,3.983167491,-1.164475329,0.710991578,23.61824285,-177.3996594,-165.924463,184.5300287,-27.47577161,-6.002059813,109.2867067,0,125.0804074,440.6178189,0,,,
159.8559999,624,-194.3899039,-8.58128479,-13.61196056,44.89314015,44.03286857,1.894731835,-5.701078855,8.196088862,-285.9259105,1.170726281,56.11851541,-120.8129695,0,-170.652397,-415.6714194,0,,,
159.8639999,624,132.2668646,22.47935091,74.91389336,-30.81993976,0.738884476,-55.87352485,144.3242319,244.8257244,257.6562198,-28.75928945,-51.05186044,162.0752135,0,169.5122825,383.6848655,0,,,
159.8719999,624,-7.553281116,57.62435377,-50.24477411,48.55270707,17.4870394,88.58476521,-287.6977829,-327.8800781,-175.2416268,-14.93276773,53.29961168,-79.12674323,0,-101.8860741,-9.681635134,0,,,
159.8799999,624,-96.88023918,-9.147372756,69.60292829,14.45300593,46.32975625,-54.58981219,241.0099393,350.4765798,-44.40689467,32.91014339,13.30610347,34.3015097,0,3.177828558,-183.3056985,0,,,
159.8879999,624,192.6177423,64.13853699,1.490798321,-3.237646685,-8.383172491,32.94019501,-185.3071378,-178.7580281,169.3442125,-21.00070824,-11.80617299,103.5568292,0,129.7321516,467.801756,0,,,
159.8959999,624,-186.0203788,5.835285223,-16.32352734,55.00006058,48.58886466,28.15264842,-27.04309465,-8.923112103,-300.505357,30.41337494,69.04226095,-116.0227368,0,-181.4806554,-421.4976525,0,,,
159.9039999,624,136.3726933,29.51789765,78.54944521,-21.23008869,13.26824232,-39.83995283,149.029845,256.1331919,260.0871295,14.91933693,-35.41938614,178.5555092,0,179.1458595,349.5229973,0,,,
159.9119999,624,4.948082267,57.58449054,-52.78270112,51.6457005,23.2376252,97.18740283,-278.8595986,-318.9810843,-157.7527551,19.44967334,58.13005925,-64.78232693,0,-76.39631578,-24.59580381,0,,,
159.9199999,624,-98.84473509,-9.788196627,61.22702994,16.23576928,51.1655648,-43.13750205,252.1633331,358.4786104,-38.56289624,52.65336053,11.41099348,31.30809961,0,1.816868413,-219.809475,0,,,
159.9279999,624,186.4797798,56.31613545,-1.798339155,-6.988842524,-2.111957366,44.20107993,-164.3177707,-157.1746713,183.4544444,-7.617078203,-25.95316952,104.1328611,0,141.1088042,455.7878566,0,,,
159.9359999,624,-195.8704543,-12.55513139,-24.56694182,45.61611312,48.02929981,29.57457449,-15.93618506,-4.661903354,-308.5799498,38.40407767,43.85605907,-123.0044319,0,-164.1928287,-410.9862267,0,,,
159.9439999,624,120.5006658,8.919069794,68.60966071,-33.38500359,5.179287229,-61.43917036,165.4024651,263.2768779,237.5274045,6.010167347,-71.07225725,158.9026146,0,175.9549004,372.1676911,0,,,
159.9519999,624,-1.780587687,38.8673977,-61.70508106,41.20527536,16.552672,79.72452232,-277.4357612,-324.647308,-174.5708255,4.739030179,32.85015373,-81.90713457,0,-84.98605143,15.55200657,0,,,
159.9599999,624,-104.8291615,-24.75591399,56.50886847,15.25834946,53.84029903,-44.10305221,254.4595344,356.9587891,-65.81380086,46.35704891,-0.171309111,21.62990611,0,-10.33316392,-203.6834119,0,,,
159.9679999,624,205.0719512,65.55065705,2.55001321,6.388180482,10.55696723,44.28690099,-152.6000068,-145.7211941,183.2724213,-2.579454973,-27.49746182,114.7144193,0,141.3530864,480.2193202,0,,,
159.9759999,624,-170.9303428,4.952539675,-25.17410429,57.97691851,62.76958751,28.403407,-16.00150457,-8.384939569,-297.6506455,54.59518321,63.02475498,-111.613421,0,-157.215753,-412.6913099,0,,,
159.9839999,624,134.155111,12.89278496,67.37211846,-33.78108828,14.82839163,-59.16927336,181.0971175,278.4385613,244.6311035,18.83163646,-56.25408468,168.9707859,0,178.9031984,349.0311735,0,,,
159.9919999,624,19.40335189,45.60404865,-62.53724402,40.17844402,23.87423975,87.03641154,-268.4351005,-316.4983533,-165.9569229,10.58546252,34.3928982,-70.08453872,0,-79.86558072,19.92245746,0,,,
159.9999999,625,-60.68161183,-39.03723845,99.469169,-20.32055882,55.50425948,-104.7189359,431.511484,588.1942817,77.24000941,59.14133525,-27.45031347,108.9198561,0,83.67561679,-113.7181942,0,,,
160.0079999,625,315.2011478,54.95700046,34.99051625,-42.06162204,-7.982203206,-2.498666111,-63.1328892,-13.00025016,401.6007183,-11.72208323,-69.5299466,222.4272485,0,265.1398651,753.3043503,0,,,
160.0159999,625,-219.8484073,12.20379457,-88.52949912,91.29669595,70.10277709,93.62470291,-235.7048846,-282.8832079,-478.709946,43.08498677,99.51850961,-228.3645427,0,-285.7897261,-540.8856867,0,,,
160.0239999,625,56.74260736,-13.21898702,98.17115809,-24.79050556,48.28245622,-96.23849942,346.377528,501.903942,205.3445542,46.0967601,-47.56016485,163.8782819,0,154.3069696,154.3945995,0,,,
160.0319999,625,357.263271,111.8658991,-71.78678118,2.139731254,-19.33493915,130.5442317,-513.8873487,-590.7160424,220.1889529,-31.99715726,-22.99226002,98.01331907,0,138.2132673,788.9322741,0,,,
160.0399999,625,63.10563214,69.09867071,-101.7053049,52.2115489,21.67576544,137.466767,-449.9898453,-537.5612646,-178.8028824,-0.848033957,43.8322595,-97.29696789,0,-108.0352796,102.6803071,0,,,
160.0479999,625,64.63365915,9.093001347,30.096053,-5.790726667,33.07328641,-17.62030242,77.93787656,142.6033358,87.74734037,28.50454497,-17.87432129,80.41745864,0,75.88378843,147.9596603,0,,,
160.0559999,625,-104.2912855,-14.91935892,-1.560353812,23.57560111,49.30403795,1.675521558,58.31785816,92.38098418,-162.9690552,39.15875972,22.41627875,-50.49700519,0,-75.88214524,-236.9344687,0,,,
160.0639999,625,109.3063798,20.77777837,22.32264666,-11.13268167,17.40239335,-10.09384289,15.11121193,62.43717563,113.61568,5.955378634,-42.0435556,83.83624979,0,97.25490878,279.9004225,0,,,
160.0719999,625,-7.163860236,18.89887936,-19.09431957,26.61272007,29.57098929,31.94505219,-97.6230271,-95.05710145,-123.5739325,23.22289615,16.09267919,-35.96097412,0,-56.73425141,-34.10666841,0,,,
160.0799999,625,-69.45515474,-24.46478805,36.72479335,5.841257755,40.31068207,-40.20025932,173.0117916,241.2447455,-67.16638185,44.38807753,0.120317355,11.53595503,0,-17.55455505,-149.6890258,0,,,
160.0879999,625,165.7644946,39.27497741,-0.46238997,-5.31860296,7.866157787,24.52814192,-101.9155649,-85.63377367,140.1288567,3.594221281,-37.26442577,90.25574437,0,105.1178921,396.6432647,0,,,
160.0959999,625,-143.4816053,-2.628866999,-19.02818015,51.7215646,62.41754812,21.25324401,6.673876981,36.15196189,-259.7088253,52.32706749,41.56626864,-97.05940993,0,-146.2522118,-355.3767442,0,,,
160.1039999,625,120.687897,5.19439617,57.37461006,-22.67289127,24.96752471,-56.72875645,144.3032173,246.2176672,203.7575014,29.06879284,-46.6267732,141.080917,0,137.642736,286.3306614,0,,,
160.1119999,625,22.3933154,21.78576903,-51.18663762,21.27493581,22.44645272,45.92154454,-212.0910436,-220.9824528,-129.45146,13.90867389,12.45572533,-56.23798953,0,-80.74206965,37.43158804,0,,,
160.1199999,625,-93.34923012,-34.50620285,33.10230893,-2.542699002,45.61593124,-70.32521657,219.5903571,320.2785801,-96.01075629,45.76077956,-13.3339704,-7.995553069,0,-52.079122,-201.0978519,0,,,
160.1279999,625,198.8990508,36.22875185,-2.254174559,-20.31443606,-3.207849373,12.30121196,-107.8007694,-90.2223004,177.9372837,-0.453134318,-45.68227397,99.75587514,0,112.173299,476.4367787,0,,,
160.1359999,625,-160.7283574,-15.36724435,-33.31610166,44.28431602,56.94058761,37.06723784,-28.95877339,-24.9151189,-300.3705044,51.27106483,48.97252148,-125.2811785,0,-176.9587256,-360.1856591,0,,,
160.1439999,625,116.3890206,-1.64598903,62.54753241,-31.42512152,31.80233253,-50.20549624,187.2264892,284.2987209,208.0253725,30.81671361,-51.75710401,139.083289,0,154.3999211,304.1600378,0,,,
160.1519999,625,37.27600261,33.6525364,-62.04504834,32.54028536,31.36834643,83.94365643,-251.8512084,-298.0834646,-130.9649011,13.5480295,24.43269847,-71.01301329,0,-59.63521507,59.63095435,0,,,
160.1599999,625,-118.9601469,-43.5819473,31.17470224,5.282978186,56.721554,-57.77435213,237.8132858,324.9687428,-102.9845386,59.87372767,2.063214583,-8.973349379,0,-47.18520329,-251.3770726,0,,,
160.1679999,625,193.5124143,23.91689755,-11.2517408,-23.59211949,-1.331403501,12.51837376,-113.733747,-92.2907485,186.1514635,1.061322111,-51.44547816,106.046435,0,123.4728572,488.9409902,0,,,
160.1759999,625,-174.2323204,-25.16418484,-49.19680595,45.64098642,51.54610962,34.62576427,-45.45432042,-44.56429595,-323.2564212,39.93984856,38.30920114,-145.2152909,0,-174.9810699,-380.8080068,0,,,
160.1839999,625,101.5650334,-20.45419171,55.11203177,-45.06167568,11.0807513,-78.07009395,213.5823197,306.1731281,207.1518055,23.74292395,-64.41062227,136.9631468,0,151.01048,301.039393,0,,,
160.1919999,625,30.9596615,17.31060913,-75.75145463,13.51554641,2.030137997,61.95570691,-259.6803762,-317.2281856,-139.1670265,3.183811168,10.27488844,-74.82390104,0,-79.8488703,93.48594107,0,,,
160.1999999,625,-126.6991967,-51.72660103,30.85437706,-0.172509942,38.20090346,-64.18746443,252.470292,331.369688,-118.4328795,49.86290786,-5.776048579,-17.10159093,0,-51.12780986,-250.0124523,0,,,
160.2079999,625,209.8964338,26.29246149,-3.557703926,-25.49756141,-15.87480274,11.38126272,-97.34852772,-92.97119783,197.2106762,-0.438901118,-49.75498999,115.5627316,0,138.8024424,516.7028876,0,,,
160.2159999,625,-161.7193788,-23.34712765,-52.31334405,38.34662638,35.9552524,30.70946659,-56.25202167,-69.61709011,-322.3319847,43.02595533,40.36511588,-135.3884439,0,-180.6978291,-358.9758046,0,,,
160.2239999,625,111.1402125,-15.63871594,57.35866027,-38.21016667,6.748727183,-68.79176927,207.9477094,307.590201,209.9936468,33.0354851,-60.20722136,152.8568547,0,153.4778818,300.6324448,0,,,
160.2319999,625,55.01844697,29.60900608,-67.76399017,34.71028548,5.847368241,82.85742215,-272.2943924,-323.5769038,-124.5017814,18.71265003,22.23902881,-52.87488574,0,-59.93647651,101.7126006,0,,,
160.2399999,625,-121.5421681,-55.05652274,29.66420928,1.601920252,36.30980605,-70.78702309,243.5269438,324.5296876,-117.4969528,50.83145097,-2.57017488,-12.79056411,0,-43.10618946,-258.7181055,0,,,
160.2479999,625,212.4234452,23.06685134,-8.065179941,-27.2521687,-12.33197528,5.288036191,-108.7815616,-91.64357898,199.1173305,-9.404693815,-53.84529652,110.6361591,0,151.4146534,521.5669367,0,,,
160.2559999,626,-158.1770107,-17.96695777,-53.33970177,50.32319754,49.19529666,43.1777206,-72.65934475,-73.13780407,-328.9480638,39.7532073,43.66561149,-147.0204526,0,-174.5991783,-363.5056448,0,,,
160.2639999,626,108.3730263,-21.03894779,57.93627045,-40.42970482,11.85439332,-87.74552011,212.6066545,320.7625987,208.1808575,20.62190435,-59.19977399,137.9184923,0,149.665211,286.7780818,0,,,
160.2719999,626,63.63457467,32.10233935,-67.65676823,31.70645557,10.6387272,72.47474783,-279.557231,-323.6427195,-116.5080744,6.33195394,28.74922802,-66.17043898,0,-63.19192144,103.3511268,0,,,
160.2799999,626,-118.8927371,-45.84611787,39.03297802,10.48376219,45.17626547,-48.05210442,241.4727551,322.6346655,-120.8848486,51.7387291,15.64463502,-26.74946636,0,-59.23642018,-291.4636732,0,,,
160.2879999,626,215.7787048,23.07996085,8.258031035,-28.73399316,-16.04364825,8.288046512,-90.58466366,-82.31656262,218.9777013,-14.19550921,-38.78026071,109.8905057,0,149.9724043,501.0481847,0,,,
160.2959999,626,-156.6273818,-17.27560153,-45.92446347,48.78086179,41.7209661,46.30778289,-68.11543906,-83.30574655,-308.9689637,36.93496071,63.35725495,-144.9787197,0,-171.8085679,-388.8449483,0,,,
160.3039999,626,95.20594535,-32.7736225,60.41695284,-48.91845224,-2.111838137,-81.85308904,228.8314096,320.3126529,211.2805912,17.02442467,-56.27570212,134.8237659,0,125.363162,246.5882587,0,,,
160.3119999,626,54.35988597,13.2678308,-72.69606932,13.0688061,-7.462948667,61.83240489,-271.9206661,-331.5305546,-115.5563617,-16.73125097,4.438629882,-77.26198068,0,-82.34490431,108.4851333,0,,,
160.3199999,626,-123.272463,-43.73751024,27.15612475,12.57645208,48.65475039,-54.29899649,236.550317,313.8161335,-132.1466646,43.00030687,6.774324243,-36.97868437,0,-56.88410167,-308.960881,0,,,
160.3279999,626,215.0882356,23.52065828,-4.070275672,-29.97855218,-19.19352056,-1.74354135,-81.0899826,-78.97435734,220.963117,-13.88338856,-46.32723723,118.4197368,0,150.0159721,486.3015861,0,,,
160.3359999,626,-160.1462075,-24.63087333,-60.86745586,40.82480877,26.50404922,35.7024173,-64.45473992,-99.97224411,-315.3315565,21.8050133,44.93112836,-146.8279794,0,-170.8219595,-377.9707157,0,,,
160.3439999,626,101.1863718,-20.62564938,53.1918976,-34.05200958,0.30298662,-79.55025434,239.9525598,317.7500553,207.3085415,14.80412719,-55.7920639,135.0873414,0,157.5551158,247.4392369,0,,,
160.3519999,626,70.26658373,24.52427539,-76.27745204,26.18479551,-11.56318317,64.96737858,-259.0096888,-339.7763544,-92.44044777,-8.935289827,15.5528273,-57.20025164,0,-55.0699639,121.2327918,0,,,
160.3599999,626,-124.476448,-47.44603669,21.92087474,14.20952345,36.00896707,-53.98554469,252.7822399,300.88427,-127.121231,47.08305632,13.46912339,-27.39465813,0,-60.19564683,-314.0785431,0,,,
160.3679999,626,225.9663688,27.30169368,-3.780473164,-25.62635558,-20.69057626,0.771667814,-61.71008039,-74.37236482,226.6702141,-11.1843168,-43.516029,126.7969784,0,144.8598641,487.9807949,0,,,
160.3759999,626,-144.2738157,-19.42555857,-59.52900015,44.5990125,24.1692384,36.76903915,-61.10136893,-110.5484453,-310.2558541,19.07744957,45.74824952,-140.8374376,0,-192.3805282,-378.5712158,0,,,
160.3839999,626,102.8173125,-18.61307485,58.5500146,-33.65111206,-0.670574732,-79.58628294,259.6691859,323.2705951,206.2310705,19.19133185,-48.40659628,139.8571458,0,147.0957966,224.8671839,0,,,
160.3919999,626,76.89996688,29.8107764,-72.10313724,20.8114837,-8.502412135,72.04023906,-238.5340644,-335.8810568,-92.11308245,-7.463495981,20.91271782,-50.8794712,0,-48.86149219,121.5090796,0,,,
160.3999999,626,-129.4017708,-46.96671772,19.07350152,9.808125475,34.90412001,-47.83000235,262.1066765,295.5154849,-150.0952658,30.87973863,2.575012836,-38.18878888,0,-76.56887847,-317.5121937,0,,,
160.4079999,626,223.5038868,28.23989714,-4.4498954,-22.34143968,-22.24983003,3.053239156,-51.66161517,-70.77604205,219.7625174,-14.01403272,-41.10492683,125.926243,0,147.6843017,482.3350159,0,,,
160.4159999,626,-145.5513346,-19.24440202,-60.96730815,46.24463894,19.94275545,41.50841059,-63.34443763,-126.4495062,-314.1122296,23.10908062,58.91904305,-136.4016021,0,-182.3396502,-388.2425922,0,,,
160.4239999,626,88.22042468,-28.20612259,57.37531868,-37.35170104,-8.881544323,-85.27410054,262.9503988,320.4835946,194.3020177,6.655944881,-60.18918659,136.5113802,0,138.6265261,224.5977019,0,,,
160.4319999,626,66.65848308,11.79754542,-73.34991361,15.46602111,-14.86764445,50.86228775,-243.0400707,-339.6039044,-91.52814522,-17.81828999,8.878153034,-49.27385291,0,-49.2615741,142.4724784,0,,,
160.4399999,626,-146.0915665,-66.35229481,18.04111563,4.993789978,28.12513209,-66.27147328,263.3275253,292.6623312,-163.7079032,17.27393879,-4.798311802,-43.41215356,0,-76.24416057,-308.0245336,0,,,
160.4479999,626,215.570774,21.95738954,-1.86231638,-22.51442821,-30.05232721,-9.218440243,-36.16193573,-54.76491363,220.2958845,-29.44178552,-58.92608689,128.4567557,0,153.0191091,532.6611365,0,,,
160.4559999,626,-145.1368044,-16.91017319,-63.69906777,57.06642226,27.41217784,35.88815727,-66.6157069,-130.2799989,-311.4696122,26.04529124,57.70606382,-128.2438675,0,-183.85761,-348.2406076,0,,,
160.4639999,626,88.61967717,-24.18592969,59.13191809,-19.91214747,9.05577137,-71.33755848,268.9579692,328.0156973,191.2638251,9.054525492,-49.04630273,143.7970697,0,140.2446618,225.8092155,0,,,
160.4719999,626,88.52100148,37.37812323,-63.33851685,48.08061633,-5.588739979,80.28659295,-254.8535274,-341.5785957,-77.35162477,-12.94378272,24.5097776,-32.55195668,0,-28.743519,167.9262863,0,,,
160.4799999,626,-126.4279852,-28.59711047,28.93294554,51.49257631,41.33562938,-43.96789598,228.3608568,273.7909872,-152.829669,49.15453068,29.71707679,-22.812477,0,-59.52084016,-335.8736278,0,,,
160.4879999,626,229.7369249,40.6960444,13.2160947,2.537982713,-17.14609552,0.052148826,-52.2494893,-55.23849837,245.6678829,-1.474809513,-27.45550037,155.6384013,0,179.6806099,481.4432866,0,,,
160.4959999,626,-137.6936068,-10.4816864,-52.83454585,68.40175332,25.8561416,44.05957543,-88.97226381,-141.4377517,-299.2868249,27.48750996,72.44045054,-116.2906791,0,-169.6703763,-377.542244,0,,,
160.5039999,626,83.75504805,-23.07928158,68.88317168,-14.07811266,3.220557393,-79.13600818,258.0168033,327.892941,189.5041971,4.169932735,-47.34805314,145.8066422,0,133.9537591,186.0807801,0,,,
160.5119999,627,89.46623483,32.01002248,-54.96129772,36.58304145,-11.73972746,68.07158824,-256.0594852,-340.618768,-61.76121962,-19.1494855,21.0039289,-24.45901363,0,-31.38976434,151.2091419,0,,,
160.5199999,627,-141.0575215,-45.8146855,27.81580106,31.79547733,26.66836167,-49.28469648,228.4951597,267.4610966,-153.2791814,35.85761881,25.94146779,-31.88735854,0,-73.79047295,-355.3625255,0,,,
160.5279999,627,211.1886643,11.24942243,8.931370811,-22.50625166,-42.00184715,-23.94002429,-44.06943803,-55.84415109,243.1550717,-23.43319579,-53.67639639,133.3391775,0,164.208648,483.7146189,0,,,
160.5359999,627,-149.0883003,-31.91347171,-59.24142973,49.67619523,7.213777576,18.77835905,-96.70902564,-157.8822477,-308.4180189,8.55776632,44.25610639,-146.7389795,0,-181.8341723,-358.1545542,0,,,
160.5439999,627,67.58473667,-37.87993997,62.2704503,-25.08483153,-7.846028245,-93.66835647,260.0439149,328.9352818,176.5341668,-7.541078822,-59.10662594,117.775567,0,124.4725894,188.8548846,0,,,
160.5519999,627,83.2429182,25.8860997,-63.94891638,33.3516209,-18.63201675,65.41363083,-256.8989251,-339.9411222,-65.16887229,-28.90772347,5.577875245,-41.33603033,0,-39.97723834,174.4319616,0,,,
160.5599999,627,-145.5145148,-42.67854324,25.55379274,42.01752757,36.22072467,-39.54753609,225.745287,267.6257775,-168.0501278,40.00699532,26.35959988,-43.01695474,0,-86.13624749,-358.9062086,0,,,
160.5679999,627,218.5636904,17.64184165,21.02687496,-8.777507917,-26.8023762,-9.150975067,-28.90391206,-34.49201926,249.6104649,-17.09478494,-39.83410237,133.9995867,0,179.7649612,477.7719497,0,,,
160.5759999,627,-140.4653431,-18.4824648,-51.17223884,62.99738403,15.13143439,35.63717304,-92.2319325,-151.0234901,-298.5148899,14.31476296,54.5008623,-142.2010822,0,-158.2383853,-355.290684,0,,,
160.5839999,627,62.94064239,-27.50641483,68.0078123,-18.10007884,-0.6433066,-92.41309848,271.37492,345.7974216,176.9085351,7.591555817,-48.1317796,128.3097062,0,123.2335058,175.2653201,0,,,
160.5919999,627,88.05968075,31.65411077,-59.03603532,33.81356409,-14.35200279,63.05512341,-248.936521,-330.5252265,-57.03272067,-25.04785096,12.08512733,-34.63433518,0,-41.9767311,179.4619677,0,,,
160.5999999,627,-147.3429599,-36.84902021,24.36114754,41.82606997,36.38275467,-38.40466047,234.3370293,269.6124989,-174.6080335,38.89634693,29.85692358,-44.4105638,0,-90.73483386,-369.7436138,0,,,
160.6079999,627,216.3174334,27.82594771,21.32403339,-7.580544416,-23.64309252,-9.976116292,-6.512233791,-15.17683355,252.7479122,-9.811191902,-39.21175299,150.2914448,0,158.5160482,487.4578921,0,,,
160.6159999,627,-138.9825237,-4.011132089,-53.62729327,73.62832124,18.11637194,48.95925904,-85.89984752,-151.9129535,-295.3915257,22.38529922,60.58170908,-128.7351544,0,-181.6318694,-340.2660482,0,,,
160.6239999,627,64.44242057,-13.87575148,69.0183767,-1.540494947,-4.547213091,-78.15832697,286.6628778,354.3565024,180.174174,21.64109447,-33.05770486,138.4196762,0,131.8103642,158.038401,0,,,
160.6319999,627,97.84502352,38.4827929,-54.24906255,40.74077988,-21.95798533,59.97477313,-235.8633361,-326.7277852,-33.58204548,-7.161113263,24.94399467,-12.53198866,0,-17.71471794,187.8269627,0,,,
160.6399999,627,-155.8897638,-39.00329673,22.67944941,39.70594366,31.39166149,-44.92643359,237.7574096,260.4823251,-168.7660203,40.94310388,26.53802305,-39.93161091,0,-87.49671707,-365.7984994,0,,,
160.6479999,627,213.0439443,32.79690191,18.35255178,-9.093872417,-23.37183571,-6.541757658,-0.385562147,-5.846244939,255.1855174,-12.06641766,-44.26418628,152.8656277,0,172.0523233,483.5562973,0,,,
160.6559999,627,-132.3366966,-2.952763296,-59.70723719,70.09589142,28.01276791,54.91098398,-93.9143657,-160.1301004,-299.5545386,27.56282876,67.06554743,-124.903665,0,-175.5923298,-360.46893,0,,,
160.6639999,627,61.02521604,-26.3141733,63.32653206,-10.21669638,11.54383671,-72.37734654,296.9663131,352.6762122,166.6232928,14.20772069,-41.58788512,130.6162723,0,117.3262766,124.5170745,0,,,
160.6719999,627,103.5325761,27.05439678,-60.47152601,29.63135316,-14.27617582,69.19954231,-225.4532215,-328.9071207,-39.42018704,-16.59071475,14.37315763,-13.76687446,0,-20.4883666,172.1695954,0,,,
160.6799999,627,-165.1064682,-66.5560686,10.96305524,20.88787123,28.19973362,-54.10070458,240.7418158,241.9887643,-192.4472758,31.10417692,15.92238132,-57.99945209,0,-101.8590287,-390.1120046,0,,,
160.6879999,627,199.0215608,0.05314559,8.604219722,-31.35538053,-31.96839959,-26.87345755,13.94629799,-19.64756983,237.0264715,-35.52445441,-75.52773263,116.1336775,0,150.1996673,503.7982758,0,,,
160.6959999,627,-137.2587136,-16.02734504,-67.50531152,56.09144973,13.96512006,52.5891377,-96.51963912,-191.9985575,-312.9062516,15.9065688,43.94383613,-157.7205199,0,-190.4488071,-323.992344,0,,,
160.7039999,627,48.9676819,-31.1925122,61.18839727,-16.36376258,0.916858334,-71.49851989,298.1183922,333.765588,156.9251667,24.72515429,-50.20255976,107.3937254,0,113.3671209,132.4227964,0,,,
160.7119999,627,100.5142601,29.87650941,-58.85040779,33.1673033,-14.18085988,69.62425171,-229.1103799,-345.186774,-31.11888109,-2.057120088,7.521331432,-30.510635,0,-13.42282414,195.1466206,0,,,
160.7199999,627,-162.3217347,-56.48176895,14.63677547,33.8900562,33.95689939,-39.63656488,236.7092662,223.8815264,-190.3972386,50.64011244,19.56743663,-71.30652171,0,-101.2771353,-402.304584,0,,,
160.7279999,627,215.1819301,9.722825815,17.76882524,-17.25484293,-24.8539759,-5.219149975,32.71928228,-11.04264246,257.5732967,-8.965676246,-68.18416749,123.4094503,0,162.7506801,475.6531209,0,,,
160.7359999,627,-120.3812932,-9.376655208,-59.67182032,70.39347744,25.14607457,67.87085705,-82.26521808,-188.2870141,-289.1405841,41.05404822,52.32609353,-147.8668193,0,-176.1641738,-359.1654659,0,,,
160.7439999,627,55.48520813,-26.25776996,70.69784561,-4.178698261,16.5963016,-67.9184803,328.2894178,351.9500129,170.2306599,50.30178885,-43.88487378,115.6646834,0,120.0370849,79.00862571,0,,,
160.7519999,627,118.9826974,35.66250128,-52.80259856,37.5917595,-2.403572588,74.36276736,-198.1713721,-331.824687,-10.46868916,17.31698073,-1.611498111,-14.37208757,0,0.165116866,180.1359994,0,,,
160.7599999,627,-154.5964685,-51.64530301,14.76154041,37.50036768,42.7541231,-31.13565377,252.0282599,222.8623007,-186.5619795,66.14024265,10.30150684,-65.07578653,0,-96.53658531,-431.7359861,0,,,
160.7679999,628,219.801201,14.74257544,20.29722572,-14.14609538,-20.77313878,-1.980659949,47.18223576,-6.283421764,269.9028424,11.84104268,-69.70092577,137.3456623,0,173.8140392,443.1362046,0,,,
160.7759999,628,-113.1510082,-12.16595072,-63.34972342,65.28868135,16.37553793,61.88437629,-85.19646106,-210.4082181,-282.061225,51.60028867,45.65603573,-138.4498627,0,-151.964504,-374.8125916,0,,,
160.7839999,628,49.17122218,-47.61497699,61.22908807,-22.64901803,-4.215677912,-93.34262451,331.4425414,339.5122577,162.0631566,40.40750141,-61.53327597,103.1693245,0,135.7887904,65.22082065,0,,,
160.7919999,628,123.7672057,18.71248211,-64.81856392,18.95125506,-27.24397829,53.32261535,-206.088074,-342.1154958,-4.786317951,1.734386126,-19.13354424,-32.68415319,0,-9.963530655,207.8550113,0,,,
160.7999999,628,-143.8646375,-51.17716337,4.226914038,33.22958016,27.84681085,-30.62172941,235.6330594,211.2626048,-189.9913215,65.41339817,12.99998403,-83.55633177,0,-115.0099801,-419.6567507,0,,,
160.8079999,628,231.9731865,9.964312304,14.81140061,-23.61046291,-27.59743725,-13.05987911,57.18042191,11.40672707,275.4443009,17.76277627,-60.9256954,135.7788163,0,180.8208577,459.4903563,0,,,
160.8159999,628,-106.2707942,-23.0210493,-74.56727463,50.12296683,11.30259306,45.00593062,-83.24556583,-210.3390885,-281.9605159,47.49462991,44.60250129,-144.6701344,0,-164.5978368,-333.7998475,0,,,
160.8239999,628,44.35750264,-51.77758516,52.86485623,-28.87235394,-2.100832785,-89.4755154,334.0457013,339.8775618,151.5635466,38.83049364,-58.58109298,89.12104771,0,116.1505051,79.54181746,0,,,
160.8319999,628,123.9765641,18.62517745,-68.44421853,16.70690976,-16.62413621,59.12059235,-203.899464,-339.5284752,0.798711771,3.461642938,-11.36189004,-30.78246549,0,12.68259076,220.5016879,0,,,
160.8399999,628,-159.6078345,-56.33177046,-5.046771544,29.10911279,38.89204573,-41.29949889,230.3971002,202.8647052,-198.1276598,58.2633013,13.42593645,-88.56827727,0,-102.7025349,-427.0089604,0,,,
160.8479999,628,211.4619218,1.957169404,5.675295568,-32.77340164,-23.54610416,-17.64421197,51.97631554,8.806213718,274.3147961,5.218912809,-70.64878463,126.0929711,0,180.0545872,453.5188219,0,,,
160.8559999,628,-111.8876116,-18.79147791,-80.26417618,54.54351813,26.15270845,61.86978606,-111.813324,-223.7646323,-280.504101,38.38290018,41.1145147,-151.5393478,0,-165.7304637,-346.3093698,0,,,
160.8639999,628,45.3936511,-36.27479014,57.77064335,-6.659928552,28.20406324,-71.99167967,316.1798186,351.4346562,154.5159774,43.47102165,-45.47720296,95.64921113,0,112.1286283,27.92255277,0,,,
160.8719999,628,132.1330871,26.35958312,-57.98624123,30.37199269,3.383045343,78.98517113,-208.8999926,-323.6270596,26.83592753,18.44845742,5.889528786,-5.009611881,0,27.45189205,181.364052,0,,,
160.8799999,628,-167.06301,-66.52037689,0.58158938,30.84400053,44.64398448,-30.46175036,228.1872032,201.8192079,-194.3001746,64.27586917,18.73830347,-77.10948124,0,-96.39360099,-472.0478845,0,,,
160.8879999,628,202.8955494,-9.10323456,12.0977647,-29.97136003,-21.45586462,-25.71425144,68.55530018,21.28406724,273.7723825,-3.181824602,-80.4841857,129.9830798,0,185.0159206,430.3806315,0,,,
160.8959999,628,-117.2902259,-24.39925365,-80.49493132,58.8401184,29.42049713,65.90599937,-99.47832772,-222.1355325,-275.8394546,36.44264993,35.72626398,-144.5646461,0,-153.417606,-351.5675215,0,,,
160.9039999,628,21.0269382,-54.90418025,45.57444907,-18.34962019,21.2393115,-82.96963201,335.2474148,362.2472816,146.3764716,40.17452672,-58.98339259,93.48428027,0,108.9777934,10.03310962,0,,,
160.9119999,628,117.4801656,10.53628254,-74.97812864,16.77892566,-9.807932644,58.5925167,-195.3376416,-311.189383,19.59364842,-2.719755686,-22.37166121,-14.7102757,0,15.58161152,196.5285009,0,,,
160.9199999,628,-169.3048602,-68.88514227,-12.15549789,30.81648224,48.97958268,-30.84605762,239.5140783,212.4482742,-203.6207376,56.31801028,15.0375858,-82.88685729,0,-113.8110958,-482.7593526,0,,,
160.9279999,628,206.9065593,-11.59350083,7.996719952,-41.84195798,-19.53536905,-44.53802869,95.34104211,53.75233227,280.5764222,-5.200653617,-76.91451975,135.3302366,0,168.5471707,415.7484633,0,,,
160.9359999,628,-112.156771,-20.77578744,-83.33561578,48.75686611,14.49705255,54.18623894,-91.92768233,-208.1901967,-280.1791536,21.15526607,26.93851745,-150.6052628,0,-170.461753,-335.1761256,0,,,
160.9439999,628,23.11363772,-48.74025429,46.2016756,-21.60142405,5.126275114,-72.71365752,347.0263261,369.9875728,132.5379897,35.63723252,-55.06460646,87.26844994,0,95.84481311,6.938154797,0,,,
160.9519999,628,133.062447,20.59395079,-70.02828749,5.473508235,-23.00888407,55.77950461,-187.7625355,-313.2886498,26.42329537,-3.357432326,-11.81238217,-7.83239303,0,9.148152822,201.1658478,0,,,
160.9599999,628,-163.7357588,-53.4959965,-5.157415315,33.51432934,43.29546296,-26.54803031,230.5376294,206.1068967,-210.9572539,55.05839737,24.11989947,-83.72126829,0,-120.9026721,-486.2628764,0,,,
160.9679999,628,212.2167373,-5.669114202,17.11769186,-34.76287394,-22.90958312,-25.7379329,97.98476724,63.47709658,283.7430742,10.44612279,-57.86965839,145.464421,0,177.3365667,404.2433649,0,,,
160.9759999,628,-100.676217,-26.2046455,-80.11782284,40.39987829,9.065217406,57.86976474,-99.1751816,-220.7581171,-267.5077477,37.32479188,48.43719305,-136.1655699,0,-167.0853958,-352.7274327,0,,,
160.9839999,628,18.37692365,-62.29439001,50.65387271,-30.38298893,5.537325055,-93.49008911,348.6478117,374.2554678,130.0467343,31.71478577,-53.35594039,85.41109841,0,91.75191891,-13.59249858,0,,,
160.9919999,628,133.0864248,3.351868008,-63.42162516,-1.590703467,-26.29457,32.63782217,-179.5815668,-301.1464757,27.78721921,-11.67701962,-20.48693749,-10.67335754,0,23.29424788,221.5064393,0,,,
160.9999999,628,-171.7109321,-73.9651113,-5.257577708,16.50929915,29.65821132,-41.147689,230.638455,197.8708699,-220.3778067,51.75858264,18.40647229,-91.94328708,0,-126.4881207,-477.6454788,0,,,
161.0079999,628,201.4347524,-20.90140797,17.91578968,-49.78613938,-31.60400158,-42.48637501,104.9578963,72.06527238,278.8929936,-5.662709763,-77.39212199,132.5086713,0,159.7374272,419.5705468,0,,,
161.0159999,628,-101.0177504,-25.42006028,-78.49506141,40.40349052,10.27808257,44.66500876,-104.8153058,-219.6603884,-271.4203547,21.27188364,32.13850262,-149.8005543,0,-174.347242,-320.7906977,0,,,
161.0239999,629,17.22209625,-49.88573419,55.20670573,-24.10968536,8.343560368,-84.16666812,344.5381878,380.739106,126.4109779,40.24255069,-45.0808184,83.18034393,0,81.49011744,-13.42755529,0,,,
161.0319999,629,146.7970984,23.55878815,-55.77798282,10.91325297,-21.7630911,55.17865383,-191.695525,-293.9951861,49.11304564,2.666927484,-7.645422159,3.233620675,0,24.96028777,229.3425297,0,,,
161.0399999,629,-159.863323,-53.63949085,1.55245801,34.33306013,39.88326699,-32.45059934,213.1633774,192.7660316,-207.2285718,56.94663711,29.38021328,-85.4591864,0,-119.200888,-484.7058782,0,,,
161.0479999,629,217.6825882,3.868090972,29.0058009,-28.82477249,-20.35040692,-25.22676303,98.66558246,77.2648347,291.8500092,8.679547539,-57.33367003,150.8916124,0,177.0621346,404.2889114,0,,,
161.0559999,629,-80.23743709,-5.93893575,-72.46076334,61.95062361,18.7164819,71.12250389,-129.3132965,-234.4497344,-254.1431919,47.56878599,60.93618436,-121.3564367,0,-143.6697368,-348.2047417,0,,,
161.0639999,629,20.18250337,-50.80227686,55.67807232,-18.02221358,12.56993903,-84.28905277,335.3663218,372.7709293,132.8503041,42.47004604,-38.22420941,89.1874885,0,95.79741378,-59.07895503,0,,,
161.0719999,629,152.6710656,25.19293754,-57.31040094,12.61391072,-27.01568062,59.20592617,-196.4048149,-300.3400071,51.38870862,-7.14090954,-15.6299561,0.967204453,0,24.75921814,216.4690536,0,,,
161.0799999,629,-168.2589938,-57.21252728,-5.149203001,37.25136162,28.72386043,-21.4486806,195.291713,171.1309205,-223.0236022,67.53737453,34.65553408,-89.97285777,0,-112.4389512,-518.6397793,0,,,
161.0879999,629,200.2701028,-12.51552525,23.79876578,-42.53585345,-32.26116731,-29.51951631,95.55136589,73.02692713,281.4507565,-2.482353767,-71.64660892,135.1959882,0,182.4901248,387.6462773,0,,,
161.0959999,629,-87.44894167,-15.74563334,-73.71413627,46.49486314,5.31166265,66.09051008,-138.1306574,-250.8450882,-264.0254605,23.16878383,45.7562802,-140.798426,0,-157.4419072,-335.5876967,0,,,
161.1039999,629,6.721280585,-62.0546563,60.40336608,-28.03073726,-3.727725822,-103.8505623,339.5368562,360.4224415,115.4847822,41.97416154,-32.77182006,79.35199411,0,94.82494697,-62.2248947,0,,,
161.1119999,629,148.1909433,18.26619935,-57.1659402,-1.067619236,-43.31213052,40.38388232,-196.7682363,-310.9421063,49.41340853,-18.52060935,-21.58967085,-4.922533751,0,31.84701618,255.0520554,0,,,
161.1199999,629,-163.8943296,-45.3034329,-8.267748162,39.88562286,24.19093022,-16.16279777,176.1027221,156.3364521,-230.4890249,57.43942035,41.73575357,-94.3049868,0,-131.9328055,-501.0289996,0,,,
161.1279999,629,209.4659553,-2.458422175,28.92940441,-34.78420514,-35.45823356,-38.38830109,97.57095068,84.47041201,285.7930624,10.55937485,-53.44908071,150.6056104,0,177.760472,383.0319318,0,,,
161.1359999,629,-82.05816805,-14.04203554,-76.94203086,43.71618653,-5.927336529,51.5382476,-145.4533949,-249.2114418,-263.2889678,21.7062139,41.35070194,-131.3891282,0,-161.338141,-313.3348398,0,,,
161.1439999,629,7.769285008,-51.72009425,55.66289868,-21.73155537,-7.335344288,-92.88168364,323.6782268,370.9047006,104.2643808,40.43827023,-28.92240334,86.28433813,0,74.01237922,-68.40421891,0,,,
161.1519999,629,156.6354662,13.9788138,-56.79674596,-10.81135285,-49.77208735,34.82463441,-199.9199146,-296.1778784,64.27743195,-11.95322839,-13.36551757,18.09413492,0,32.75648698,252.4237461,0,,,
161.1599999,629,-176.4349034,-65.71706371,-15.13589654,15.47274855,11.01611423,-38.30603186,173.9016425,155.4870099,-232.6096737,37.57953963,20.10493423,-99.58243218,0,-138.3291356,-477.7320967,0,,,
161.1679999,629,198.631656,-3.64671554,24.28719187,-36.24681616,-39.89380552,-37.69379956,89.43808765,91.10063002,280.3599627,-5.02730154,-66.46013758,139.0876635,0,174.4396982,414.9760376,0,,,
161.1759999,629,-88.24206125,-17.08123442,-84.98366455,42.23979537,-10.5548895,51.95750588,-164.2172757,-267.6407713,-259.8428268,25.01723305,46.15841365,-132.7020698,0,-152.0028274,-297.4728278,0,,,
161.1839999,629,-20.96128327,-67.64233616,43.18445001,-30.68653914,-11.88291926,-101.7408143,322.8567617,356.6519799,93.21382846,32.1934235,-43.86022656,66.24650186,0,66.35906753,-66.34137328,0,,,
161.1919999,629,147.0090893,14.99574304,-62.28026068,0.487343653,-44.48100424,46.15571444,-202.7429594,-301.1655808,58.26430108,-19.19135392,-23.18064166,1.960922579,0,34.32332364,272.7612222,0,,,
161.1999999,629,-182.2850385,-68.41093731,-19.24107611,25.68964957,14.67150397,-31.82333359,166.7644221,140.1618854,-248.0781,39.27918401,28.70957038,-106.9877202,0,-129.6725635,-488.1191085,0,,,
161.2079999,629,184.6973899,-19.10969862,20.52755677,-43.9875298,-41.56084673,-49.08203203,105.2939713,98.71586689,275.3733938,-11.62355253,-72.00121082,134.8999639,0,183.6176668,415.7057118,0,,,
161.2159999,629,-80.40876287,-8.391621079,-84.55736888,50.41612219,-2.214074857,67.6119596,-167.5823381,-261.1975977,-262.6908917,21.09349041,44.54459864,-132.1258422,0,-146.6257617,-274.3899773,0,,,
161.2239999,629,-14.23432835,-55.21639071,52.51737555,-16.68923761,-1.306359604,-89.90831984,321.8414415,372.1272069,83.44269797,41.70584351,-28.54929243,75.31080319,0,67.14437209,-77.13872228,0,,,
161.2319999,629,144.7019597,13.29798153,-53.04444593,1.406035566,-43.16994228,37.46650759,-197.1959843,-287.1703192,64.08321029,-9.542135112,-20.26385929,16.0231832,0,44.2125594,285.319333,0,,,
161.2399999,629,-185.0988423,-56.82330426,-12.67188234,38.63843824,27.07567572,-13.97999983,155.7028364,140.3465057,-259.0400956,52.90701509,29.37578615,-104.7272062,0,-131.5715347,-486.017998,0,,,
161.2479999,629,191.7106073,-7.12851644,32.90172377,-32.85925699,-25.21724363,-38.32358004,107.5190864,114.6657229,270.8689397,4.652974457,-62.83652147,144.3865937,0,184.4017915,397.918264,0,,,
161.2559999,629,-74.35140935,-10.42270257,-81.24935668,45.03692255,-4.875559316,55.60720981,-168.9659921,-264.4311047,-261.6494913,17.79212778,40.56444532,-127.2504038,0,-147.639357,-272.1338011,0,,,
161.2639999,629,-17.23892957,-46.33632612,53.55902334,-14.59087216,0.059616032,-83.65989484,320.3179023,373.3378037,77.42500433,32.10446309,-35.21769922,67.12131037,0,49.75559219,-91.23029194,0,,,
161.2719999,629,270.0285745,87.15497556,-104.7599518,26.6217172,-50.62680322,132.4931527,-514.8619009,-666.7467683,85.84721574,-34.40333785,1.637591186,1.532772335,0,30.99571511,500.3860584,0,,,
161.2799999,630,-204.6958275,-12.48349798,-87.92169438,81.95482265,29.216403,73.24349539,-158.9004571,-256.6941433,-443.4954924,42.1837921,90.14176234,-212.0152166,0,-266.2031361,-617.9901398,0,,,
161.2879999,630,54.33471212,-63.67509947,113.0311822,-52.33344804,3.39448972,-141.6154311,491.9807821,590.7012742,276.8550263,30.00628353,-70.93251599,174.6606015,0,173.5959015,81.60025602,0,,,
161.2959999,630,134.7845396,29.07628206,-68.86575631,14.13846947,-27.28783575,70.54847703,-275.9039629,-388.0836053,3.182991428,-18.9637674,1.322969926,-18.73422143,0,-17.9668174,200.2285583,0,,,
161.3039999,630,-148.0753636,-51.69602719,-15.72515416,25.24692659,13.27463327,-22.33410933,112.7077886,85.88255854,-224.3141382,30.4793267,29.54946244,-90.02716924,0,-138.3076492,-435.4767824,0,,,
161.3119999,630,116.3241237,-39.84903823,48.48993414,-45.49072859,-30.20717047,-88.37726508,208.7614122,237.5673885,228.9779553,-2.555349213,-59.8415586,129.53342,0,139.7786148,229.4388644,0,,,
161.3199999,630,22.45836961,4.319313432,-81.03106503,26.51695224,-19.40206352,53.87020132,-243.3377831,-341.3948929,-137.7738495,-12.98229731,19.73391708,-82.92739296,0,-98.20110909,-37.14575619,0,,,
161.3279999,630,-99.89155152,-61.90789607,25.30060322,0.748762287,18.81592767,-66.07409334,247.1789038,272.8806553,-70.0671167,23.7524547,-0.566452008,-12.31339741,0,-50.55328953,-296.49503,0,,,
161.3359999,630,151.5785894,-6.407407425,-0.42128667,-21.94775615,-22.15445017,-18.86481417,-15.38321596,-46.05690692,174.2522554,-16.49335539,-31.90858694,88.19867884,0,95.72140993,280.3187739,0,,,
161.3439999,630,-96.10703003,-23.77736588,-56.8634042,37.95777176,10.70071753,28.31312498,-86.42115288,-155.1617179,-233.298753,13.81632536,39.69150318,-100.7587953,0,-139.2695298,-316.643793,0,,,
161.3519999,630,6.512394015,-55.31746428,49.05596312,-22.24866689,-0.222170205,-80.6244321,274.4883381,316.8809208,105.3671206,12.57451038,-35.96197598,80.52668136,0,69.31268131,-36.10503448,0,,,
161.3599999,630,106.2768648,4.761312931,-54.37432059,6.461162016,-33.12382241,33.05803754,-192.1113211,-275.6739538,21.33394762,-28.39823865,-7.515065185,-3.571791682,0,4.816579378,166.2367429,0,,,
161.3679999,630,-157.850703,-58.90937498,-4.119867866,24.95163084,13.36155084,-38.1895996,167.5050253,166.6265983,-192.2508106,26.57361343,21.97446782,-68.31560953,0,-115.1375966,-431.045142,0,,,
161.3759999,630,160.2809371,-10.85967069,21.12986159,-30.30624226,-29.86623026,-40.92878983,80.86448452,92.01134316,236.8202595,-8.72300172,-50.69658278,129.144782,0,130.7494075,323.7656591,0,,,
161.3839999,630,-74.16899669,-7.382527427,-76.98244723,44.48865295,4.029969964,44.72394498,-153.998124,-226.1757799,-233.7131086,5.482203311,37.56193793,-112.5781578,0,-146.67752,-264.7877298,0,,,
161.3919999,630,-29.11968001,-48.27027859,44.01066408,-10.61960894,1.825010166,-86.39041926,301.4759694,356.0362433,66.21403659,23.97536379,-30.94570442,62.80201702,0,45.68084026,-123.8642849,0,,,
161.3999999,630,143.2627771,17.16013276,-53.05883742,-2.888081779,-47.61121068,26.04525965,-183.375117,-263.9837164,81.29305629,-21.44114951,-17.35206091,31.0521322,0,35.16528583,247.0349307,0,,,
161.4079999,630,-177.4344564,-51.24079139,-20.77769108,30.8756167,15.45268045,-23.10312175,135.0611283,114.9483835,-247.763671,19.04746963,27.20582373,-96.49266128,0,-150.9345628,-488.7243845,0,,,
161.4159999,630,181.3207459,4.667168056,34.73208159,-22.50508451,-21.04290006,-37.20568464,117.8065025,133.0587801,270.5532137,-10.21259584,-50.72258581,150.1093711,0,158.6684849,338.4807154,0,,,
161.4239999,630,-58.44718238,-6.140154494,-75.58100807,44.23495781,-0.672160098,44.99799213,-173.0571834,-270.5703298,-218.8716086,9.58606998,49.60114706,-99.51103787,0,-139.9070466,-263.5697734,0,,,
161.4319999,630,-49.83040687,-75.64495389,50.21094871,-33.51867181,-5.244304213,-108.5079488,325.518367,358.9505933,48.99578333,0.842024111,-43.18924294,53.00783213,0,29.30681869,-139.5233755,0,,,
161.4399999,630,289.3264402,28.46928019,-19.38628539,-43.36434431,-61.95202086,14.37650879,-163.7590882,-230.9177124,291.5592598,-65.26315618,-70.02810852,124.3099459,0,165.2960026,634.2606482,0,,,
161.4479999,630,-49.96448752,-24.85510088,-26.13941638,14.86202223,2.560623094,-0.253769246,13.80138735,-23.98158595,-129.6812872,-2.229819936,16.41791392,-46.95347759,0,-84.36517158,-178.0077935,0,,,
161.4559999,630,22.28149521,-14.3879184,14.1034783,6.824940959,1.166256887,-21.95893344,113.2839617,114.6252222,22.65639413,11.91713955,3.650715774,39.75859918,0,16.2119365,-22.94265505,0,,,
161.4639999,630,1.514778683,4.64635258,-26.96934256,33.05980642,1.579725604,26.05102697,-39.49494884,-95.38281101,-88.04183321,22.21746132,40.82991054,-21.48040097,0,-44.89005332,-125.6264097,0,,,
161.4719999,630,273.6996875,-2.312795607,66.94900061,-61.37493978,-38.23904715,-80.50357751,183.1151664,204.3751706,433.7556637,-14.02833906,-81.05075426,231.1744718,0,249.4534914,569.3392798,0,,,
161.4799999,630,431.8450766,69.65125197,-13.49914197,-41.23012718,-70.11112914,31.87218163,-237.2488277,-313.486215,452.9634521,-51.95150037,-70.90219629,204.3003393,0,254.8864585,909.9292381,0,,,
161.4879999,630,-64.31551724,-19.07284347,-30.07865245,29.2455288,6.439693429,9.275454332,1.832236976,-55.92722109,-162.23228,27.53659301,40.42890866,-56.34710693,0,-94.2839802,-267.9725192,0,,,
161.4959999,630,-78.56377094,-51.72205327,4.352776662,3.054487105,7.433631977,-44.7936907,159.4688993,140.8090871,-102.5063389,31.40040623,9.853182365,-19.19982444,0,-58.06158473,-258.9581477,0,,,
161.5039999,630,92.12474951,-18.18199657,-4.474322212,-14.34626656,-20.20487912,-21.65769213,34.01738977,-0.713815087,81.23723861,-2.399983926,-30.21448528,49.97736158,0,47.5724534,158.7883182,0,,,
161.5119999,630,-2.044364093,-27.24652345,-27.89956919,9.519522703,-4.037523763,-0.065106336,11.81964592,-32.02416516,-70.75504398,8.206024469,-4.990425887,-24.24711061,0,-42.85714429,-59.48875166,0,,,
161.5199999,630,-67.91212109,-40.52535681,-14.39840616,19.69871674,18.62465944,-9.795992926,103.7721448,76.79510627,-127.7311766,31.89261757,6.274995756,-41.73700109,0,-65.91526857,-217.1268119,0,,,
161.5279999,630,117.814638,-19.41769316,12.02710823,-19.24053435,-9.516618924,-30.88886083,104.4168932,75.5263612,140.64012,9.505680224,-46.45429012,81.29996501,0,86.7475785,221.1811005,0,,,
161.5359999,631,-52.3106488,-21.24436446,-56.11789486,31.11488961,6.57603466,26.6385988,-51.47776745,-141.4951606,-194.6578709,28.46685534,22.43839128,-85.08813272,0,-115.2932133,-214.1676661,0,,,
161.5439999,631,-2.537576856,-44.53258745,26.19551191,-5.43610456,11.07488716,-54.76996273,244.2048829,244.7360037,29.0494955,35.45972759,-25.70831278,41.082049,0,23.8905182,-76.49425519,0,,,
161.5519999,631,124.6864023,-0.675355072,-36.42086314,-2.032089347,-20.29635559,18.58608932,-71.05939857,-160.4656862,65.20714992,-1.821855867,-26.13663276,23.60390882,0,31.55796022,204.9284309,0,,,
161.5599999,631,-140.0538018,-54.17055152,-30.01085662,31.22165268,26.927363,-13.8888459,119.8171866,58.16765658,-232.3306589,46.38301951,26.5894317,-95.62071271,0,-132.9417499,-418.8136907,0,,,
161.5679999,631,153.1274009,-22.04670586,29.5087897,-29.62934154,-6.492091932,-52.91424315,170.2557552,154.7729552,222.4028975,6.134496002,-63.04411799,123.2557366,0,134.7921024,288.0703084,0,,,
161.5759999,631,-33.72843406,-14.70704619,-75.86810972,37.53496116,11.2302713,48.06646468,-134.3780162,-258.9854489,-212.711509,16.84143606,34.10608916,-100.9259072,0,-122.0663435,-204.1452299,0,,,
161.5839999,631,-42.0752266,-75.33521714,38.60665848,-18.75230952,15.31222433,-86.68978785,327.2093111,319.9818069,12.28750484,36.52082551,-23.80414346,37.7420501,0,18.09721137,-167.8902924,0,,,
161.5919999,631,162.3047458,0.89727458,-41.46805262,-12.802387,-34.98561852,22.46885447,-111.5908451,-213.3911093,103.8336065,-20.79647833,-39.9546495,38.04072933,0,46.81707673,319.5485586,0,,,
161.5999999,631,-169.1493458,-56.73593833,-37.09856279,41.75161256,26.28355128,-5.161500608,104.992899,47.82832071,-277.1353461,40.08973678,35.06615733,-114.2393146,0,-168.7224344,-470.4179107,0,,,
161.6079999,631,163.9577459,-25.70706528,39.84421165,-28.18528149,-13.64129998,-54.87178144,187.0109276,177.5420611,254.0342365,10.57818272,-58.84345036,143.789088,0,149.7417209,314.8575195,0,,,
161.6159999,631,-25.820274,-5.765455079,-75.89628462,49.74810107,5.707214317,71.76808916,-168.038256,-296.3779887,-212.8434722,24.64100504,44.56313067,-94.34414174,0,-125.5447189,-189.8065597,0,,,
161.6239999,631,-58.56054659,-85.19935483,43.81751547,-16.08092944,13.62686357,-95.28116892,349.6294628,348.6707694,3.295674713,39.46282399,-18.61420167,46.51635327,0,9.468221247,-202.1972377,0,,,
161.6319999,631,168.6771172,-10.76588777,-39.10129883,-18.62727348,-40.67252248,8.60217078,-110.1935125,-223.2577467,113.7401606,-30.32753776,-46.53234984,47.50129047,0,58.29262475,350.8902499,0,,,
161.6399999,631,-181.2714199,-55.1488834,-34.24453271,48.68608196,31.42661203,0.204079299,110.1827074,48.98414578,-299.5948693,37.9610407,33.44294858,-118.1207523,0,-169.6725224,-483.3463712,0,,,
161.6479999,631,165.3847142,-25.19064161,40.16328874,-30.13834899,-16.8439481,-60.28534324,195.1240543,187.4529527,257.27835,8.684528822,-61.5649709,152.789238,0,161.1578791,320.1663129,0,,,
161.6559999,631,-29.74474864,-9.49410516,-81.38399948,45.75606336,-9.207638632,66.74328245,-180.4990863,-307.2396617,-214.3170584,16.29933459,35.42545013,-100.1074067,0,-115.7489919,-184.927581,0,,,
161.6639999,631,-65.91926567,-72.65017461,46.21909137,-2.048127358,11.95655261,-86.30244177,340.0170877,365.1010251,-1.38999121,49.72188909,-19.27745263,39.93048229,0,15.72217602,-219.8294676,0,,,
161.6719999,631,182.400951,3.820439472,-36.00180978,-9.695351791,-38.85380652,15.80826038,-126.7702585,-215.047109,130.8366968,-6.711138355,-38.39159417,58.21042284,0,74.84244084,342.378027,0,,,
161.6799999,631,-184.3880944,-62.07538175,-34.49202128,42.82894457,22.03662145,-3.428977605,106.1790124,51.31820657,-296.2461352,49.95497686,34.66214042,-120.0498784,0,-156.3496846,-511.9279341,0,,,
161.6879999,631,163.3224413,-35.61438687,44.20975768,-34.19364302,-19.75177683,-68.82614141,206.5427603,208.136682,265.9898968,9.14365701,-72.34495159,145.1095571,0,166.8732658,326.6221269,0,,,
161.6959999,631,-21.09025854,-14.11530664,-84.94624736,42.34471891,0.697030404,64.01088924,-183.2273825,-302.9700943,-208.0709379,12.57623754,24.44562843,-107.2957613,0,-118.4002875,-154.1589793,0,,,
161.7039999,631,-73.30783571,-83.25465275,37.55581833,-8.336483678,23.58536337,-85.06975004,342.2654063,367.5683913,-6.479899817,39.55547443,-24.92704457,27.57199605,0,16.78286513,-220.9538448,0,,,
161.7119999,631,170.4102688,-24.52949476,-41.0709744,-27.10011712,-39.68448431,-0.935151398,-120.6417682,-210.4387838,142.9924472,-32.53887052,-54.41723299,44.13441756,0,71.6263738,366.1842105,0,,,
161.7199999,631,-201.0564164,-88.92374221,-43.06856674,25.04670428,13.04262531,-20.62770121,98.11236848,40.85075195,-306.2234319,22.26197362,14.47073292,-145.2195176,0,-181.3729612,-479.3670007,0,,,
161.7279999,631,152.7975498,-47.54246058,40.26582768,-41.36850094,-25.95792088,-74.37331703,208.1665737,207.053662,247.319472,-4.655186134,-78.57337605,129.3730643,0,157.2327421,350.1243662,0,,,
161.7359999,631,-26.31136577,-34.54187558,-85.39802507,27.66115153,-15.70934952,47.75709795,-186.3848019,-313.5812324,-217.5401037,-9.076351136,16.58558791,-118.2721631,0,-126.2023641,-107.278228,0,,,
161.7439999,631,-84.55133037,-96.67009621,37.79951796,-16.99893966,4.476989622,-87.44885717,330.8140606,360.8132892,-32.89435674,20.39205796,-32.33395715,9.709425797,0,-8.686622584,-180.5637884,0,,,
161.7519999,631,183.5974402,-10.24927312,-36.68252242,-15.61861357,-43.61477313,15.69523423,-129.8703235,-208.3936424,131.9973946,-24.76251468,-39.48090213,47.8236716,0,76.38778376,398.7271803,0,,,
161.7599999,631,-184.1707848,-74.02505486,-38.64152918,34.59865533,17.65195175,-17.06665373,90.7367542,37.54641209,-308.0261361,30.60608241,35.07377387,-136.6096034,0,-171.6877332,-462.0861262,0,,,
161.7679999,631,158.3040312,-36.08835678,47.21056788,-41.86610836,-23.49676138,-68.50108415,210.9727064,223.282532,251.6800946,-0.778145793,-62.75132684,137.0206265,0,135.7537598,366.2794818,0,,,
161.7759999,631,-13.69011202,-14.66542861,-80.91395345,27.59851481,-15.97403473,63.06720812,-189.4609718,-309.8667954,-205.546841,4.439930609,34.53876824,-107.3546444,0,-153.2924826,-92.14987621,0,,,
161.7839999,631,-81.41940101,-81.44666667,39.21338,-19.07240175,4.865742278,-92.11835956,342.1825065,364.3990848,-26.96510967,32.25440292,-21.2508969,16.30477715,0,-27.18386478,-185.8728093,0,,,
161.7919999,632,187.7332723,9.176148502,-35.23075152,-14.57678359,-42.3187583,14.94868442,-118.947652,-200.1965283,148.6730761,-17.96116772,-30.64672774,64.50851604,0,55.86063443,425.8695865,0,,,
161.7999999,632,-185.5453869,-55.87032846,-40.72477476,39.79158931,19.63329798,-3.637641718,82.01628512,23.33729822,-305.2383634,37.92649085,45.42778605,-122.8688539,0,-196.4329493,-454.994162,0,,,
161.8079999,632,145.6562097,-35.24034141,44.77899876,-44.89471434,-24.26447731,-85.62869659,219.2908971,217.5133209,255.1162984,2.883598902,-66.49147745,145.7064386,0,142.1096237,353.9350087,0,,,
161.8159999,632,-17.01850742,-6.726944723,-87.78652983,31.49999811,-12.97219747,47.35812561,-191.9749128,-324.7947733,-193.4075128,9.659695339,31.75114427,-100.5507477,0,-138.2840115,-76.21823667,0,,,
161.8239999,632,-82.82379358,-70.44503241,32.27685198,-10.37178329,17.17121257,-79.1229586,335.9601731,351.8623713,-29.68174295,39.32974312,-17.22955002,11.03120541,0,-38.12100917,-201.491652,0,,,
161.8319999,632,195.6034034,11.9245529,-34.87887053,-13.84475271,-28.16399087,21.50759103,-109.3494885,-200.4669855,163.2161798,-16.61232694,-34.07968682,58.97309742,0,55.09580787,410.2170119,0,,,
161.8399999,632,-187.3726696,-61.81435562,-47.88564973,30.3147985,24.14223536,-5.939124521,89.09310952,12.10259875,-290.5481728,37.42563966,40.07609385,-134.7540852,0,-205.0365846,-471.8575157,0,,,
161.8479999,632,134.7391104,-43.39390337,34.62239349,-59.91207119,-28.57467828,-73.76045103,235.0261502,221.6051117,255.1682528,-5.487990982,-82.70133092,126.6720813,0,118.2423765,330.5691007,0,,,
161.8559999,632,-16.63016218,-10.06356888,-88.65814897,27.60819241,-13.17278511,69.08712321,-176.706127,-322.9191252,-194.0193354,-1.167484451,15.65004299,-112.981921,0,-145.3638017,-83.65764708,0,,,
161.8639999,632,-102.775445,-98.01905775,30.25591215,-27.64412464,0.600326668,-89.39360737,364.9744789,352.3681908,-33.0264763,29.49036223,-31.91308596,0.646031502,0,-44.15054432,-206.8752093,0,,,
161.8719999,632,171.7018258,-19.98491768,-42.76044042,-39.49842478,-60.77546264,4.193027946,-85.69984284,-205.1115092,158.470374,-35.84725827,-61.58929934,43.00287801,0,45.75301393,451.1877532,0,,,
161.8799999,632,-200.9181416,-72.24671027,-53.02726375,29.14295481,9.404950665,-0.314529455,88.24744757,-8.917687914,-308.6121379,22.01665065,27.31830037,-159.3318825,0,-213.4760375,-428.8209134,0,,,
161.8879999,632,127.38626,-47.93858412,35.98352129,-58.70012107,-35.21463969,-76.88224464,242.9393393,220.6246066,254.0737137,-11.46753775,-80.03370003,113.9006117,0,115.7409437,367.908696,0,,,
161.8959999,632,-8.439112154,5.275512206,-89.23498019,34.19494702,-15.03128236,72.21859672,-193.812409,-338.032542,-187.7932968,2.092738016,28.52595986,-107.0752622,0,-139.2360154,-38.66209525,0,,,
161.9039999,632,-98.38891056,-70.60471087,32.9319922,-8.086986563,15.83595421,-73.40791519,340.9982664,337.4603653,-41.77588767,44.67557121,-4.172412349,17.43770481,0,-26.29941408,-220.9408768,0,,,
161.9119999,632,180.5652652,-5.713757544,-35.68270252,-36.93096786,-51.25841802,9.646248289,-89.82953954,-200.1961338,171.7868207,-27.84168692,-42.45545002,71.32975981,0,80.11015733,432.6923817,0,,,
161.9199999,632,-187.8769502,-53.6109789,-48.85636582,37.05643247,14.26689883,8.808454053,69.69156015,-18.64547928,-304.1125965,27.00178465,44.14327782,-134.2332298,0,-188.304918,-451.5938354,0,,,
161.9279999,632,133.2437559,-31.60170365,46.18123715,-40.41806596,-24.55444845,-64.05103672,231.0780745,220.8696164,254.8579941,-0.439761747,-61.55425256,144.1535541,0,129.683809,319.187129,0,,,
161.9359999,632,-8.09277712,-9.407234343,-83.87050384,24.47299827,-24.47359439,65.15347365,-202.4883687,-349.4453351,-176.5134229,-5.627562598,26.27046741,-87.00839724,0,-143.4393976,-66.53129241,0,,,
161.9439999,632,-101.2048182,-79.90583489,32.33180018,-13.8633594,0.518839159,-82.93009963,324.3754299,321.9534069,-52.48680479,27.12111989,-11.90998318,14.09234963,0,-46.23368043,-243.5904984,0,,,
161.9519999,632,192.2617379,10.64904649,-28.76601701,-19.559655,-47.29112468,17.00611913,-112.9583904,-203.9187636,173.6548292,-27.15670789,-35.39642574,85.07225808,0,77.22973941,420.7695437,0,,,
161.9599999,632,-185.2896343,-56.85710009,-44.39556206,41.64879887,16.38207813,6.850758753,46.23620519,-34.98337192,-303.7586791,32.71358684,52.72585101,-115.7661389,0,-188.3152799,-475.0022173,0,,,
161.9679999,632,125.3492149,-53.49603061,47.15981986,-52.35468464,-33.35177484,-87.85071847,226.5543297,215.1265789,244.6466138,-14.55241283,-69.6872784,144.490519,0,133.1054903,312.5279903,0,,,
161.9759999,632,-3.516187787,-9.592993029,-81.62572953,22.3160532,-26.04034739,54.0679666,-219.5276093,-365.2715698,-177.568823,-26.02948605,16.83236531,-98.02016256,0,-136.4018181,-35.39118684,0,,,
161.9839999,632,-101.0922323,-72.9337652,39.33283114,-8.445631903,6.564109286,-79.33038515,311.0434645,308.6492664,-57.60339226,28.59185155,-1.830529324,4.260607026,0,-43.54582952,-249.7529931,0,,,
161.9919999,632,196.8074043,9.696925561,-21.04276906,-22.85482656,-51.38849106,13.8053399,-119.1509817,-205.0748338,181.5148994,-28.55551838,-30.12915129,79.82098152,0,85.4755572,427.1686797,0,,,
161.9999999,632,-178.3043943,-43.82139677,-41.89230463,45.70681783,9.349599622,15.7473198,17.58504653,-48.30726489,-303.7738218,20.52746685,51.07076793,-131.8102672,0,-193.4288658,-462.1908046,0,,,
162.0079999,632,137.1973253,-36.87345002,55.92946666,-41.70834911,-35.83876528,-72.12233361,210.4930308,221.4730031,247.3842153,-0.136626683,-50.31532918,148.4127793,0,135.6141343,285.9886217,0,,,
162.0159999,632,16.42848945,-3.860774835,-76.15107984,27.9331947,-33.23643598,54.75176094,-237.0071908,-361.1112888,-161.8182771,-11.00574451,34.24997508,-81.08694436,0,-121.7577455,-49.09185398,0,,,
162.0239999,632,-99.33408124,-75.97279585,35.7432096,-4.975468188,2.039390901,-86.75856265,298.6142397,316.6184423,-59.39545997,20.12358472,-6.062643091,3.984611521,0,-43.57633231,-261.8042883,0,,,
162.0319999,632,197.1537527,-5.488361957,-23.8597931,-33.59314175,-57.18746579,3.707012403,-114.3765984,-190.8659787,183.4881752,-38.3027619,-39.70495003,84.8546276,0,83.70987365,432.8979784,0,,,
162.0399999,632,-184.1771988,-61.07580823,-51.0130884,25.78251393,-2.574773613,-2.197394529,9.582648876,-54.90951535,-315.3399358,2.18948272,33.41305064,-140.8319009,0,-205.6786368,-437.1269343,0,,,
162.0479999,633,125.5090859,-43.66500774,48.43774916,-50.05377417,-34.53271985,-86.88963007,217.2258647,236.5272755,231.9153112,-20.29929623,-69.20643866,130.5942116,0,129.335546,315.1671834,0,,,
162.0559999,633,16.95946116,-4.068476441,-78.60426145,26.0838854,-21.48517525,64.19328315,-229.3830361,-350.0057266,-167.3626379,-15.68470013,32.35202337,-82.81781935,0,-117.1789764,-13.28197719,0,,,
162.0639999,633,-105.6182913,-71.80585371,34.4839304,-4.864988888,15.91554305,-76.68697907,302.4276884,322.0212772,-78.97207507,20.22224185,-3.863972149,-0.620455948,0,-48.78417927,-257.144073,0,,,
162.0719999,633,199.1684081,4.385328132,-20.61081772,-22.67102356,-39.40016948,1.908087826,-92.39299179,-169.4437825,180.5696397,-30.74877059,-35.67395169,87.2248512,0,100.8353669,433.8018618,0,,,
162.0799999,633,-173.5027176,-49.04323671,-48.17304235,44.56619115,18.94111673,16.87800627,31.61233673,-41.88468851,-312.7544406,20.04513875,52.71710534,-131.4106163,0,-181.2260628,-455.4406885,0,,,
162.0879999,633,139.8150465,-27.01759778,53.78282437,-36.36968368,-18.2178537,-67.90430779,239.3309052,258.6419443,243.0198525,-10.52365168,-55.25261571,139.6933426,0,142.2572051,284.2562567,0,,,
162.0959999,633,32.97930042,3.991910196,-77.43893634,24.11410476,-35.47841247,51.61796425,-222.9207879,-348.150112,-142.714456,-15.14604905,32.7950957,-74.63543341,0,-105.7498981,-17.10444642,0,,,
162.1039999,633,-105.392512,-72.6322296,28.28597709,-13.64442469,-11.00546261,-86.72503748,297.0772993,311.6832161,-72.35984348,22.14521609,-2.535776823,-1.955591214,0,-55.8564499,-268.0741393,0,,,
162.1119999,633,209.7535483,12.66295197,-23.98214964,-28.92207078,-52.50926824,7.064362241,-107.8858526,-177.2974683,191.9838288,-31.78326779,-34.25305489,90.83715284,0,88.1771175,437.9744817,0,,,
162.1199999,633,-170.1698502,-51.79391125,-47.37129877,31.63188221,2.111747395,5.575134931,8.670574254,-68.80211429,-311.8705013,10.24185337,52.50869704,-130.2283589,0,-200.7099923,-454.8175398,0,,,
162.1279999,633,126.9081183,-39.51566265,59.05568092,-49.04991076,-34.06949935,-86.67746189,236.4263237,253.0306724,235.3339036,-19.96099378,-54.78409938,136.4591685,0,121.3350328,281.3398572,0,,,
162.1359999,633,32.95653931,1.097168315,-72.96219594,24.07287212,-34.56356535,48.48792502,-229.9553956,-352.5172601,-146.4864009,-19.55094446,37.83744458,-73.14424185,0,-118.6364702,-6.445471809,0,,,
162.1439999,633,-107.9229085,-72.60730382,39.15116328,-3.747605385,-6.172837219,-78.48583895,301.778572,314.4269998,-87.41415709,11.03611415,0.667763916,-3.949787612,0,-74.91163551,-279.2199356,0,,,
162.1519999,633,220.4460694,29.68250948,-1.045326332,-3.043397423,-45.00400607,33.40252475,-91.5583278,-157.4599102,201.4921323,-29.41045143,-18.79036656,103.4679746,0,91.8507647,434.1217812,0,,,
162.1599999,633,-156.3916808,-31.901176,-32.35483311,57.72383168,11.2339629,28.81249351,7.807814836,-73.37795781,-300.4534449,37.37884645,86.86556439,-106.6147045,0,-184.4629889,-486.913469,0,,,
162.1679999,633,125.5568152,-40.82909722,62.4772117,-48.84275849,-39.06514728,-80.46963144,243.9936452,251.8723062,231.7742057,-11.42471996,-43.93682688,149.4364475,0,123.8624348,240.7591857,0,,,
162.1759999,633,37.35781009,6.143122143,-70.83174268,23.7367049,-38.97471992,65.98556916,-239.9058667,-362.1859183,-147.2641138,-24.18962035,38.90807318,-69.23367861,0,-110.4765657,-14.69949847,0,,,
162.1839999,633,-116.7843331,-75.68723922,40.45148024,-4.704976817,-9.732206861,-84.12696697,288.9221862,301.6462219,-94.20130324,17.05005712,14.42156639,-2.053555948,0,-54.89584234,-319.5815569,0,,,
162.1919999,633,206.3011246,3.302857803,-9.170866058,-28.18689459,-71.30380974,2.436018254,-88.86830792,-160.4779113,199.9321804,-48.257845,-36.42062842,97.5673917,0,100.8452287,430.8483644,0,,,
162.1999999,633,-168.2757518,-48.77829376,-47.55822787,40.21606643,-12.1128995,17.15388874,-6.22464786,-91.25169453,-312.7670622,8.522322372,58.40204222,-128.2689751,0,-203.6249687,-465.4266588,0,,,
162.2079999,633,112.5658825,-48.30777689,59.90653128,-50.40898566,-43.94021566,-92.83263226,244.5860592,248.2248334,228.8076309,-22.15789854,-55.02024,135.6560471,0,115.6698282,236.8822242,0,,,
162.2159999,633,40.10765599,6.031536548,-72.73471534,23.50739179,-38.77715374,73.22585803,-241.3133401,-376.1939627,-134.2754386,-34.17015557,24.71374285,-75.00285231,0,-106.6612265,6.299782905,0,,,
162.2239999,633,-113.5641262,-74.83144885,33.179164,-7.336646106,-4.053598263,-65.66849749,279.207972,277.0088114,-98.66855138,17.56581217,11.27304024,-7.367496649,0,-65.186891,-330.7121924,0,,,
162.2319999,633,208.231042,-5.639916564,-7.182499344,-44.00238197,-72.38340822,-14.85806107,-91.6619475,-178.2465417,202.0095707,-54.98443916,-39.30930848,99.36821436,0,98.98481948,426.0113364,0,,,
162.2399999,633,-166.8158424,-48.07827892,-47.24873887,31.18691888,-14.90374161,6.301744031,-26.41538741,-123.9328286,-317.8684956,-11.48932897,47.91170913,-136.3742242,0,-205.4755825,-441.4247949,0,,,
162.2479999,633,122.4588816,-36.07706853,63.23702638,-42.44924736,-34.07869202,-88.64714122,232.5116189,229.1019022,226.591321,-16.1128828,-45.26414615,138.5820826,0,118.6103047,234.1887112,0,,,
162.2559999,633,59.96394701,15.21623863,-65.25681451,30.82425567,-32.95744385,65.20018083,-249.4829338,-403.5671076,-120.6521977,-18.44525485,45.09122092,-59.42061027,0,-94.74847388,2.353305875,0,,,
162.2639999,633,-110.5340797,-73.01472214,36.13520667,-3.03679833,-2.534010199,-71.17656106,278.2162407,247.6617621,-101.8240329,18.11640621,15.71125961,-9.435048954,0,-69.59527197,-336.3568687,0,,,
162.2719999,633,217.4628056,-0.00095811,-1.897758657,-34.5375783,-55.85755527,-4.051681741,-82.92083842,-191.0955445,210.35969,-43.20354326,-35.86912291,101.4991867,0,100.3993895,433.6201024,0,,,
162.2799999,633,-153.326449,-36.90469962,-43.11220474,46.99649218,5.607488391,34.65962194,-30.33263305,-151.9861615,-308.7949296,17.47563547,66.49716705,-131.9633873,0,-195.1337607,-458.0342966,0,,,
162.2879999,633,118.0313193,-42.02728154,66.06594856,-44.81554903,-31.39038521,-66.93024795,242.3178926,215.4873092,234.26758,-1.877979189,-43.92412103,131.5158336,0,123.6644978,196.9687628,0,,,
162.2959999,633,49.9165422,-3.914017045,-62.7352165,15.83779756,-35.82596749,63.66259518,-240.3860464,-412.394611,-104.7237344,-17.62860511,26.91770082,-73.81720684,0,-88.2178874,-2.007588189,0,,,
162.3039999,634,-128.7017882,-85.19493944,37.1738779,-0.425398285,-3.110261558,-76.11108711,291.8631379,245.5067188,-102.8309716,24.10772769,1.219162009,-27.67891191,0,-62.1201057,-346.0599386,0,,,
162.3119999,634,210.1818272,-13.45442961,-7.384005583,-41.8070873,-71.80888404,-8.868332818,-56.98907045,-180.1684177,222.269302,-35.50012368,-55.41979993,95.06515467,0,108.4116378,440.7682259,0,,,
162.3199999,634,-147.6499928,-49.44871175,-56.0278381,32.98659655,-8.605888945,33.1228409,-21.02876316,-155.2130544,-308.0969976,23.24255284,42.81540655,-142.6944361,0,-197.153945,-440.9371621,0,,,
162.3279999,634,126.3281465,-40.5124871,60.72600167,-35.50089177,-32.08915294,-62.62262518,258.7717794,228.7341178,222.1717429,4.281159089,-60.19803957,125.4914402,0,128.5522066,210.0022994,0,,,
162.3359999,634,71.60023471,1.944189699,-66.57966702,21.52275637,-43.03009181,65.96598594,-230.9855319,-408.6076535,-100.3060985,-6.409508877,19.68915327,-61.1715606,0,-78.60124773,23.84610507,0,,,
162.3439999,634,-104.4227523,-71.46682782,32.34034699,4.796718841,0.18307506,-62.02949715,288.7128397,241.7483212,-114.5911702,45.87192916,3.490485233,-19.31637099,0,-67.39005346,-355.7128265,0,,,
162.3519999,634,235.5553531,11.63302638,-0.581157132,-18.69096835,-52.76106897,13.9402185,-56.81841526,-170.5895134,219.8256807,-11.25985254,-45.14225689,111.4499057,0,131.7359274,426.1652245,0,,,
162.3599999,634,-139.7910307,-41.62309652,-47.00440112,43.78374752,-0.435191449,32.71189284,-27.64567437,-163.0466494,-300.4259353,41.51588688,56.70364796,-121.6627816,0,-168.529487,-461.0450536,0,,,
162.3679999,634,118.279996,-52.34715114,63.90576032,-48.12127457,-33.44333459,-92.23128966,261.3394937,230.8915934,221.6260137,11.70597729,-59.38283943,137.7506915,0,117.526499,191.8136045,0,,,
162.3759999,634,75.06846199,4.99852879,-65.98529825,20.52568312,-37.31647147,59.17702978,-243.4999404,-414.5230552,-99.89218261,-12.63878642,13.32693731,-55.95107948,0,-86.816918,43.93209775,0,,,
162.3839999,634,-104.0353955,-63.65006387,38.82981994,8.455061245,10.8254943,-47.21173882,275.2989341,232.0782657,-113.6666643,44.13395994,11.95828061,-17.79632095,0,-64.06168981,-365.0214243,0,,,
162.3919999,634,237.2700862,2.968447883,6.313462771,-34.11081907,-51.63652815,7.03309683,-51.75325388,-160.826046,232.0622873,-19.46438534,-47.59132381,112.5504472,0,118.8737537,435.0869115,0,,,
162.3999999,634,-269.1574973,-73.59257191,-43.45186558,50.60145451,18.50313986,7.484768777,83.30910253,-25.40309477,-441.8625011,44.72209546,66.72145969,-192.1426919,0,-266.4394148,-734.4820448,0,,,
162.4079999,634,-75.89681503,-126.9449211,154.5256133,-61.29362041,5.808695413,-209.4903466,767.3762345,862.1343244,170.9917525,58.98839662,-60.45541557,139.4934352,0,108.4764831,-238.6864365,0,,,
162.4159999,634,135.2011618,-47.11472776,56.36370772,-50.49455708,-41.06711893,-84.79310971,237.5721435,201.3900886,220.8506215,4.389793541,-55.93080083,118.62454,0,117.1255325,220.1471996,0,,,
162.4239999,634,-179.8558168,-105.1731249,63.99066525,-8.824778707,13.57188305,-113.2648006,465.7222564,471.2266288,-126.5362023,54.27311186,0.135767445,-19.99392116,0,-72.34558769,-504.7018282,0,,,
162.4319999,634,188.7296837,-28.88017364,50.56506431,-51.71984921,-46.79917928,-63.53731497,179.7945304,136.8661292,275.4662603,-2.642700025,-61.92137443,138.6139674,0,145.9135405,338.8716407,0,,,
162.4399999,634,61.41639164,9.714362563,-92.16378119,23.86526058,-44.5795808,95.69398449,-316.146284,-504.1041384,-142.9809325,-9.241455947,31.18759204,-90.15723974,0,-109.7128072,8.544977741,0,,,
162.4479999,634,-106.5530031,-84.49556947,21.85736772,-14.26200255,-16.84419053,-68.13543709,267.9594363,222.6004094,-102.2404821,34.9058526,-3.079505217,-20.68377042,0,-64.2838947,-326.0848054,0,,,
162.4559999,634,192.4387764,-16.31816915,4.144983226,-38.39519097,-67.88467465,-31.15668322,8.475283239,-83.12600786,194.527845,-20.37681183,-60.00842791,86.53933073,0,94.54743042,362.5130121,0,,,
162.4639999,634,-27.60853332,-15.99829446,-66.63257731,34.14578222,-29.72171507,48.93527247,-144.7293396,-286.680627,-208.7024448,15.055441,31.33879492,-107.9574361,0,-137.5987942,-195.3931608,0,,,
162.4719999,634,1.902190415,-64.31297342,34.85244637,-20.87101885,-27.22701937,-71.33774629,260.8037884,231.2633748,30.57773343,36.25945238,-21.18551904,42.37968993,0,18.5844413,-114.6085389,0,,,
162.4799999,634,183.321769,11.13000787,-37.59369817,-3.415069068,-59.18465321,41.82733195,-152.9146465,-277.6639314,97.80198861,-5.414556803,-20.79196926,38.14199678,0,41.61186083,266.9574106,0,,,
162.4879999,634,-104.316286,-38.50024612,-36.40239807,36.08604516,-6.677807946,22.73692893,33.78990783,-57.28606072,-215.0887764,46.00846714,37.73478977,-90.7060315,0,-134.8059617,-401.7960481,0,,,
162.4959999,634,127.3916214,-43.22218398,30.62388825,-49.47520516,-51.86707569,-74.02160874,173.9937371,133.9387916,203.6270892,7.447159249,-57.32296536,104.6121204,0,102.9261868,189.3596949,0,,,
162.5039999,634,46.3621375,-12.2732411,-73.68511199,2.120086866,-54.52468787,39.86496955,-209.3000357,-357.8955381,-109.8638306,-13.22142429,-1.4574537,-79.80405823,0,-94.61387437,-7.826696502,0,,,
162.5119999,634,-81.21126486,-61.48079341,20.68881869,-3.315617111,-12.21734519,-52.76547101,234.7412049,210.5574947,-91.01465035,28.31465649,-16.16172175,-26.67094481,0,-59.09534962,-281.3374135,0,,,
162.5199999,634,208.5232502,5.196550282,-9.369591284,-28.66030992,-67.45087869,4.443033338,-86.61749825,-176.5048607,186.5734333,-16.37334198,-44.99799851,85.08290619,0,97.34512848,377.8917508,0,,,
162.5279999,634,-132.5895993,-48.39861898,-51.19116143,23.11603323,-27.50774321,19.1179608,-51.16568158,-164.9745316,-278.7649226,22.17313948,35.53331781,-127.6503456,0,-170.3815826,-393.0621694,0,,,
162.5359999,634,93.59511849,-49.24324383,48.44857896,-51.15721284,-51.69550137,-84.10164704,216.6858053,195.6780132,184.1112831,-2.562598112,-65.43712426,99.66300701,0,101.9296806,179.1815143,0,,,
162.5439999,634,75.08016828,0.34519605,-74.0525265,2.305267798,-61.36327357,54.80847079,-258.3845818,-405.5244465,-79.83477383,-21.18889665,5.66288901,-65.11225823,0,-76.44399967,82.49751166,0,,,
162.5519999,634,-122.114277,-73.80159054,10.18877933,-8.242946152,-14.97541068,-55.87801767,214.4324443,194.5205931,-137.7031998,24.2809931,0.129952867,-49.50774836,0,-94.89495029,-340.9416718,0,,,
162.5599999,635,210.8359574,-3.362090595,-9.789921427,-42.90209053,-65.71277621,-12.75494735,-76.96120466,-145.9118101,213.0193921,-23.85662155,-53.04720313,96.81417489,0,111.2071197,431.8498838,0,,,
162.5679999,635,-141.5466924,-48.85683398,-68.08250293,25.73116305,-17.5393696,27.37108472,-89.48455639,-198.1920218,-307.2860965,16.8308345,38.51046729,-148.3525099,0,-185.362114,-395.968971,0,,,
162.5759999,635,88.07701897,-50.33316975,47.76316029,-46.58289533,-40.25184766,-79.28459298,233.5616324,237.8602409,180.6889344,-1.23789861,-61.53509363,95.15175836,0,107.7299598,166.8118924,0,,,
162.5839999,635,88.85469688,15.70217879,-77.48963775,13.69402068,-51.60570033,79.91881254,-279.1336996,-407.9319597,-74.09020158,-9.876856352,16.20328341,-56.96733917,0,-56.67348555,96.70535144,0,,,
162.5919999,635,-141.1434869,-72.4123695,2.954321016,-2.469268359,-10.14501352,-43.58895565,211.0395747,194.9962076,-156.6213128,32.86965879,2.353582241,-55.28867932,0,-97.47992142,-388.0289002,0,,,
162.5999999,635,211.8565373,-0.205906106,-12.01534422,-38.7639522,-64.68365805,-18.90051256,-68.20575155,-128.1650269,232.0581437,-25.40578766,-59.35579831,104.6201055,0,125.2249402,429.6914364,0,,,
162.6079999,635,-137.2715188,-35.14924301,-76.06300795,35.54479533,-9.90206666,29.45797014,-108.7964251,-208.9477402,-301.5290068,26.72121325,52.50637332,-136.6749334,0,-179.3835557,-427.5370903,0,,,
162.6159999,635,70.63276701,-65.47458469,36.13860455,-66.37542863,-46.41122349,-98.59714903,247.3404778,252.3444384,189.9435948,-5.552106762,-72.10207994,103.3721423,0,95.46240633,130.3638446,0,,,
162.6239999,635,81.53551551,1.114980976,-90.44925467,-5.648657844,-59.85556323,50.61077595,-273.1838441,-407.9460876,-70.6669775,-36.3561083,-12.09798846,-63.71027658,0,-73.59633509,105.3281167,0,,,
162.6319999,635,-137.1496812,-65.39675145,0.964986779,2.337245377,-0.03569401,-63.18414757,212.9039465,199.8062736,-171.1435686,27.24136165,3.401743263,-59.87731999,0,-102.8715084,-410.4944154,0,,,
162.6399999,635,219.6865958,0.604406813,-6.087297278,-45.15046052,-65.01252985,-24.46256775,-56.06350081,-111.3560986,241.0432062,-28.11193685,-62.84015781,105.9314908,0,127.2903781,424.8302201,0,,,
162.6479999,635,-138.6698713,-29.33158572,-70.06241364,36.56905993,-10.77862532,43.57703245,-113.4714156,-212.6518661,-304.5825414,18.48264908,44.89978774,-151.5130612,0,-187.8749414,-434.9504702,0,,,
162.6559999,635,72.46734587,-44.3924138,49.41742262,-43.60618314,-28.05611764,-80.56756153,251.128884,266.1956981,185.3455311,12.62736257,-56.32682888,104.999081,0,105.3455816,82.07903781,0,,,
162.6639999,635,87.70178768,2.926495505,-81.90777084,-7.158857669,-59.07237391,52.70698553,-264.8702326,-400.6043237,-53.42669458,-18.55115202,-6.914846889,-50.51250218,0,-58.22812497,71.47415757,0,,,
162.6719999,635,-154.265259,-81.5172397,-0.130058075,-18.36542121,-16.63488862,-70.9647753,224.9746778,199.1637687,-175.2096087,21.65345659,-13.53832898,-71.60521159,0,-112.3833557,-438.1406924,0,,,
162.6799999,635,213.8085533,0.203899233,-9.80930127,-51.70543021,-71.82956859,-21.38663169,-42.81054101,-105.9852889,232.4189011,-34.01249749,-75.45616941,98.23032397,0,126.1694992,414.184518,0,,,
162.6879999,635,-131.3854324,-29.31201803,-78.6175788,24.83328135,-25.15780602,36.29349298,-115.304136,-229.4376446,-312.5021793,15.92200759,38.4366677,-148.0299142,0,-186.130562,-436.2436235,0,,,
162.6959999,635,72.48792717,-50.24241824,48.2627765,-61.27216772,-47.33072379,-109.9058288,254.1488349,256.296185,169.6466866,0.523385038,-65.92920441,100.7809017,0,99.06888255,94.36464601,0,,,
162.7039999,635,104.7946329,20.98422138,-76.8473405,2.957294844,-56.91085103,56.19113483,-284.1945914,-420.242307,-61.2890942,-25.02968457,-1.23520184,-55.55255266,0,-52.03594929,108.8610602,0,,,
162.7119999,635,-137.4433355,-61.03097651,6.533303664,-2.121184066,-6.02485048,-42.20362488,198.9744278,172.7424636,-175.2700901,39.3785275,14.51165518,-61.94631739,0,-96.38360953,-442.0910489,0,,,
162.7199999,635,222.7790079,0.515388796,2.746274396,-56.56398573,-72.4314961,-21.65053796,-45.66872658,-115.7895095,249.2094161,-22.82164406,-61.48108831,116.3881762,0,144.8274704,422.8047794,0,,,
162.7279999,635,-123.2708367,-20.36693243,-72.4084448,32.0946008,-23.98453038,43.20824664,-132.8481901,-251.9191945,-307.1923356,12.24770073,43.14617346,-150.1553304,0,-182.5915405,-411.1019542,0,,,
162.7359999,635,80.23339335,-34.3645513,54.59494613,-45.34499293,-40.83999114,-83.96648601,247.5573282,254.1940082,177.9198854,14.12243678,-45.04090331,107.8832185,0,103.1041302,73.90113932,0,,,
162.7439999,635,117.1289789,28.33277104,-68.31775201,6.024072789,-59.82465051,64.48400394,-284.3257976,-413.592481,-36.03005875,-14.0230489,12.12176609,-32.77067694,0,-39.05412302,96.54552885,0,,,
162.7519999,635,-132.4446793,-56.34354625,9.818114329,2.742909494,-8.51972412,-43.36645744,194.1714063,181.0382336,-172.7520976,37.88988617,18.74799909,-58.77826432,0,-102.0390954,-463.7450078,0,,,
162.7599999,635,237.3678561,9.315240138,7.291231321,-45.11787071,-64.59502869,-18.83082893,-41.73703847,-83.54757279,258.9014165,-12.97868422,-51.68585459,122.9325711,0,137.0926225,404.855931,0,,,
162.7679999,635,-112.0810282,-13.78870769,-71.27751245,44.59133879,-14.94871257,43.43948503,-147.2572281,-230.9903174,-296.2703431,20.91449866,49.089596,-144.6556695,0,-190.9424652,-421.7433922,0,,,
162.7759999,635,80.27962189,-37.54216746,58.94319434,-37.24627268,-29.91779834,-85.35681162,241.0197293,283.3044577,183.057074,14.11472844,-40.27981995,106.4649728,0,97.50850904,36.41557772,0,,,
162.7839999,635,129.406715,28.26307456,-58.78094621,13.82051824,-50.00831004,72.35288751,-291.7357254,-390.6261843,-16.70392418,-13.78277224,20.1470883,-28.88477816,0,-38.5849581,82.99049384,0,,,
162.7919999,635,-134.2396607,-57.71938148,17.33782848,8.461060317,-8.140279817,-47.77814285,177.9941839,186.6852459,-164.5845395,34.21716078,23.27648913,-65.8751188,0,-110.2991201,-480.7394245,0,,,
162.7999999,635,234.9237676,0.57170597,17.96032219,-52.02358432,-72.88875711,-40.98181002,-40.81704072,-74.4876465,276.0567694,-24.70567401,-50.08083426,115.8422311,0,139.477991,391.2806937,0,,,
162.8079999,635,-107.5597523,-18.46560403,-66.16009247,34.29359693,-27.48094114,37.74575708,-151.743216,-242.4022384,-284.7608826,6.945619491,49.56326435,-152.8060215,0,-194.7834059,-413.6331486,0,,,
162.8159999,636,73.63621863,-44.0570197,58.24582196,-47.19951776,-46.88445167,-90.38784559,245.2769572,277.9497258,178.2895127,4.315117445,-49.45976069,94.34576608,0,89.60778077,47.17392325,0,,,
