Time:125Hz,Epoch,FP1,FP2,C3,C4,P7,P8,O1,O2,F7,F8,F3,F4,T7,T8,P3,P4
823.4159994,3216,250.294195,211.7968563,0,-177.2578694,-284.9704735,-1.99E-08,-669.1104171,-789.2265651,-157.7505058,0,19.59782121,177.9791665,-140.3353333,0,0,683.615654
823.4239994,3216,-196.0960988,-218.2054932,0,70.83844891,412.3339681,-2.01E-08,646.331154,557.6994908,224.7698016,0,83.78764658,-95.27102735,149.3332713,0,0,-419.0421783
823.4319994,3216,137.5911648,202.527524,0,87.50246522,-271.1210176,-2.02E-08,-297.4803037,94.99659198,439.1976045,0,-228.7235386,99.2977634,-95.23812442,0,0,1422.513273
823.4399994,3216,47.77521552,-41.40530237,0,-172.6906703,120.6713797,-2.03E-08,-65.05315059,-490.6016943,-281.0544871,0,206.6507839,88.42464811,2.231981286,0,0,-443.6733255
823.4479994,3216,-133.771329,-58.70746993,0,246.3144664,164.5385758,-2.04E-08,550.3142246,941.9061038,625.9192327,0,-166.2366166,-24.97443482,66.16267223,0,0,675.6765959
823.4559994,3216,254.1387217,214.4147273,0,-167.2609831,-317.1879291,-2.05E-08,-654.9275484,-774.2225453,-154.484387,0,16.29807294,227.5766479,-162.3162911,0,0,692.8316673
823.4639994,3216,-191.8305778,-221.832557,0,68.87806409,414.9954123,-2.06E-08,651.2438828,540.6409666,191.827342,0,100.2018204,-60.74217707,126.2460277,0,0,-457.65202
823.4719994,3216,132.412635,195.9785394,0,105.3797666,-238.4441939,-2.08E-08,-260.0679189,134.2498121,428.9026924,0,-217.8599249,120.1888445,-98.24850591,0,0,1397.212163
823.4799994,3216,59.12947572,-36.51986844,0,-165.951924,132.2795048,-2.09E-08,-80.6824331,-504.2087158,-299.7551753,0,210.6176262,101.8446581,2.565308212,0,0,-434.4018211
823.4879994,3216,-161.8513556,-89.80402291,0,254.1304937,199.8351515,-2.10E-08,559.3016234,954.0857975,604.6853492,0,-158.2963485,-37.7734714,74.72388372,0,0,635.9844312
823.4959994,3216,222.865475,191.4182929,0,-154.6661403,-305.7287181,-2.11E-08,-657.2595629,-751.1994366,-155.6814692,0,-4.312028358,202.3432252,-156.8906847,0,0,717.3579412
823.5039994,3216,-195.2064468,-222.997192,0,67.08927748,411.069022,-2.12E-08,639.4800315,521.643566,178.8012446,0,81.45774253,-84.72369848,141.4991431,0,0,-463.3827196
823.5119994,3216,117.2726708,187.1520963,0,115.6861925,-244.7333531,-2.13E-08,-245.6095646,157.0156735,441.3683801,0,-230.4725123,105.4741905,-80.83951041,0,0,1398.600108
823.5199994,3216,40.3475295,-51.4878421,0,-168.9239939,103.7850542,-2.14E-08,-108.6726549,-530.52248,-307.5776807,0,195.2356589,90.1740095,-4.096602719,0,0,-418.1536075
823.5279994,3216,-181.3724994,-107.6824176,0,259.6030939,207.8249929,-2.15E-08,566.6421706,953.3252428,596.491136,0,-176.6569608,-66.16022818,70.75635495,0,0,614.1506438
823.5359994,3216,236.6809906,206.5268927,0,-128.6292857,-289.1385916,-2.16E-08,-655.0757418,-747.064174,-149.4740551,0,-13.53682542,202.6242676,-153.5322149,0,0,760.2678574
823.5439994,3216,-189.617771,-223.3949499,0,79.83103578,418.134156,-2.18E-08,631.2250617,490.5409281,161.1320263,0,89.54662034,-71.56269888,137.4345592,0,0,-464.5224078
823.5519994,3217,88.0507516,160.8828451,0,125.3794516,-253.4448522,-2.19E-08,-241.9211359,173.7293189,446.4688987,0,-249.3950877,92.60409518,-106.2737364,0,0,1413.911313
823.5599994,3217,52.59162886,-43.91928893,0,-180.1554312,86.67181652,-2.20E-08,-147.9291805,-570.8339333,-320.653925,0,186.4630908,86.81769797,-26.68104926,0,0,-383.0263923
823.5679994,3217,-161.7159015,-99.05454192,0,250.4331503,221.5860253,-2.21E-08,572.1531679,939.2772112,588.4638185,0,-156.1191247,-63.00269133,70.3304946,0,0,583.9029729
823.5759994,3217,228.4320821,198.7927597,0,-137.8805014,-308.4811082,-2.22E-08,-677.1176787,-747.0609535,-139.6205715,0,-9.265215392,204.9354043,-170.179901,0,0,780.7412553
823.5839994,3217,-186.8309017,-224.6601456,0,47.74206071,391.2599589,-2.23E-08,596.8276738,453.2256938,147.4982659,0,101.3140492,-73.70003829,131.2690853,0,0,-483.4965749
823.5919994,3217,101.9530966,172.5504364,0,113.4223677,-257.2044959,-2.24E-08,-223.2875511,194.1876468,461.0663622,0,-229.9403504,92.5254897,-88.50745533,0,0,1397.770797
823.5999994,3217,47.9181688,-45.24066513,0,-191.0190758,77.07947257,-2.25E-08,-165.6338041,-582.0051339,-313.8965641,0,197.6027513,94.2937884,-7.692855815,0,0,-365.1388794
823.6079994,3217,-170.4673465,-104.5699117,0,235.5620832,221.4607881,-2.26E-08,583.2548081,949.1703732,604.9747717,0,-159.2157702,-76.52916956,105.0052471,0,0,581.860083
823.6159994,3217,243.658349,219.3415342,0,-150.8627328,-336.4927859,-2.27E-08,-678.3987864,-744.6897857,-121.817598,0,-6.016135477,203.6103214,-147.6552455,0,0,818.6634365
823.6239994,3217,-200.3377576,-233.2808579,0,32.04642314,391.8310567,-2.28E-08,585.2465545,420.8716457,127.0307723,0,125.644422,-64.61992138,149.2987909,0,0,-508.7078676
823.6319994,3217,85.53318887,163.3422815,0,119.0696657,-227.7631512,-2.29E-08,-205.7375461,221.0812921,479.4426005,0,-238.8172616,80.35202771,-60.18698659,0,0,1409.721597
823.6399994,3217,57.61111859,-32.55496375,0,-189.7929593,66.49885728,-2.30E-08,-189.2577191,-600.7120983,-311.9665692,0,194.6442174,95.93556349,-2.401077562,0,0,-327.982819
823.6479994,3217,-200.2996235,-131.9320418,0,237.6096533,216.7833554,-2.30E-08,584.5985528,955.5924418,602.9832386,0,-158.0550924,-87.23431905,97.93863752,0,0,561.107283
823.6559994,3217,232.420893,211.6680276,0,-140.0964126,-341.3420482,-2.31E-08,-693.9317758,-725.9111323,-103.9826737,0,-39.79101398,179.0927979,-170.8032083,0,0,874.2899071
823.6639994,3217,-193.2340359,-229.1115859,0,41.29615825,408.4603561,-2.32E-08,570.0106823,406.4293959,111.8922575,0,126.1075934,-63.73411268,115.5320616,0,0,-499.3634847
823.6719994,3217,85.47575344,164.4876814,0,132.8291989,-221.646674,-2.33E-08,-192.0543365,251.1254382,493.6444748,0,-240.8406691,73.49989444,-97.09294213,0,0,1427.407232
823.6799994,3217,95.5045936,4.913181808,0,-190.7254451,40.13078136,-2.34E-08,-216.5166381,-626.9445252,-322.4419614,0,202.8827967,98.8466279,-47.31113467,0,0,-301.3070661
823.6879994,3217,-193.6860663,-125.6586316,0,245.8222684,245.6447329,-2.35E-08,602.0987009,957.536903,583.9079815,0,-115.6249839,-64.03883263,90.87009167,0,0,507.7177634
823.6959994,3217,241.5755413,224.7927637,0,-130.8209961,-321.2379348,-2.36E-08,-685.6174754,-713.8879205,-88.93040413,0,-34.47013931,187.6570819,-155.0983349,0,0,892.7414495
823.7039994,3217,-157.0369402,-194.8004646,0,34.63844626,399.9803661,-2.37E-08,566.7705341,370.0506028,94.23469696,0,144.2783882,-54.73179758,133.0315296,0,0,-532.6955451
823.7119994,3217,74.53314845,158.1763408,0,143.409397,-225.3654157,-2.38E-08,-168.4209389,271.8593815,492.9219295,0,-216.0489924,88.5315903,-63.23423509,0,0,1379.077853
823.7199994,3217,93.94693977,7.187516011,0,-186.3156003,32.89593577,-2.39E-08,-232.5134885,-644.9990911,-329.8618007,0,197.1907199,100.3506703,-20.5430895,0,0,-302.3497602
823.7279994,3217,-196.275063,-125.6250333,0,254.1851133,258.0127848,-2.39E-08,628.3535457,971.8855316,576.6389745,0,-118.1485777,-71.57925853,108.3669677,0,0,470.6452359
823.7359994,3217,196.8542794,189.2575135,0,-124.7484163,-340.01117,-2.40E-08,-688.9604141,-676.3957224,-69.48619608,0,-49.16876504,179.6106827,-167.2018293,0,0,933.6186949
823.7439994,3217,-182.6328228,-223.7067063,0,10.24715448,389.0175488,-2.41E-08,531.9176194,348.1589806,94.15832609,0,113.4807074,-94.18868933,93.16133416,0,0,-504.4387302
823.7519994,3217,66.95909483,147.0495897,0,137.7360874,-207.799739,-2.42E-08,-159.1558918,297.4165376,514.9221402,0,-242.8159981,48.17277921,-79.7687761,0,0,1411.805262
823.7599994,3217,70.30818166,-15.19027634,0,-194.4444987,22.9140868,-2.43E-08,-268.9103953,-655.7917164,-314.2257004,0,186.3834202,87.40969103,-22.07135473,0,0,-237.2861256
823.7679994,3217,-198.4582826,-128.7913479,0,234.9333002,258.0346533,-2.43E-08,622.8884359,960.8536921,588.8042605,0,-126.8453074,-100.6399131,97.27338212,0,0,478.2999622
823.7759994,3217,226.2314649,221.1893324,0,-127.2623654,-351.3877516,-2.44E-08,-688.4667648,-673.6202221,-53.62575034,0,-48.44031986,175.8331452,-164.0255339,0,0,968.3960841
823.7839994,3217,-181.6618415,-222.3404885,0,4.929024448,379.9609259,-2.45E-08,517.6288793,328.0047273,88.03791596,0,133.8624511,-81.14573619,130.8780871,0,0,-506.3214584
823.7919994,3217,77.48381399,161.6330535,0,132.7723676,-221.2994807,-2.46E-08,-134.9043377,322.0802217,540.9471302,0,-233.2080644,43.0916363,-67.02031522,0,0,1426.145761
823.7999994,3217,106.5876973,20.78668727,0,-212.779886,-21.39627722,-2.47E-08,-285.1002397,-686.9930493,-320.0300412,0,205.8015234,99.0150166,-45.24444998,0,0,-216.2119802
823.8079994,3218,-199.095068,-138.4989137,0,222.4385695,263.0279039,-2.47E-08,630.1396425,950.8441188,569.1809569,0,-109.8122471,-105.967482,112.3652579,0,0,429.1120026
823.8159994,3218,256.0137177,243.2120861,0,-122.7694543,-348.989543,-2.48E-08,-679.9973216,-668.6318418,-47.9900676,0,-40.23113537,174.5920172,-139.8821726,0,0,974.9327246
823.8239994,3218,-150.7570674,-199.7069841,0,5.666485518,366.007755,-2.49E-08,515.805511,291.3818711,51.49545094,0,172.3978199,-54.56616246,125.6911178,0,0,-563.625386
823.8319994,3218,43.56884455,126.9931261,0,139.2665881,-208.697124,-2.50E-08,-117.8975474,348.8828681,527.2059867,0,-236.9872193,31.97363551,-83.4810729,0,0,1373.615474
823.8399994,3218,102.4892805,14.34235542,0,-224.4919904,-18.03518741,-2.50E-08,-320.0706908,-707.9636066,-324.3354854,0,168.8853623,64.2789278,-59.2383778,0,0,-202.7180787
823.8479994,3218,-458.0984074,-363.191788,0,413.3073877,651.689002,-2.51E-08,1416.446948,1874.228002,905.2691911,0,-129.248219,-283.1346262,274.5344983,0,0,-8.799552525
823.8559994,3218,42.74869515,125.6178364,0,138.8556117,-185.2636662,-2.52E-08,-114.9570325,339.1087422,506.8639168,0,-222.5885313,33.15425182,-55.94829204,0,0,1326.272474
823.8639994,3218,154.0587809,65.04876116,0,-244.3216095,-111.9404584,-2.52E-08,-490.7963347,-878.1852417,-367.2798686,0,174.7293903,108.4418763,-72.6485533,0,0,-65.70793655
823.8719994,3218,-135.055756,-102.6940528,0,141.3920528,164.8414698,-2.53E-08,385.92543,582.7455391,398.5721815,0,-67.74217653,-85.48656583,74.86038483,0,0,357.062465
823.8799994,3218,22.47850566,32.08601194,0,30.96113988,-64.99360292,-2.54E-08,-72.46534898,47.643923,205.7315409,0,-63.68806698,3.937367135,-27.53962904,0,0,616.6879184
823.8879994,3218,96.40016472,58.8615653,0,-95.64671001,-102.505063,-2.54E-08,-281.1284304,-385.0451832,-61.85539599,0,51.53177449,56.81469646,-53.07987833,0,0,332.3224086
823.8959994,3218,-107.8558206,-102.5434821,0,78.15820605,177.9266622,-2.55E-08,341.5694051,405.9576443,266.5680073,0,9.803574614,-66.37252137,81.43638092,0,0,133.6368434
823.9039994,3218,88.49412403,104.7401424,0,13.87284888,-158.2589835,-2.56E-08,-211.7136498,-54.02059921,222.1889971,0,-76.49813591,40.20903213,-31.0662992,0,0,830.8167699
823.9119994,3218,43.64794089,-12.93881137,0,-103.6792216,12.42311843,-2.56E-08,-138.2194973,-314.7119046,-87.62723924,0,107.0008313,19.61285406,9.752342307,0,0,59.77811452
823.9199994,3218,-144.2826811,-118.966812,0,141.5475837,184.2252459,-2.57E-08,403.8594837,621.4903424,405.553348,0,-63.69762849,-104.567564,86.24540627,0,0,373.9365388
823.9279994,3218,197.7791715,177.8856146,0,-93.8707327,-284.8413986,-2.58E-08,-538.3293182,-517.2610375,-17.16242382,0,-26.82765652,96.80232885,-106.9657362,0,0,834.5414527
823.9359994,3218,-97.14117725,-146.250289,0,2.772859736,272.4267911,-2.58E-08,386.0801113,214.0336823,50.1737542,0,143.1585629,-78.20934681,116.1188382,0,0,-365.6308625
823.9439994,3218,46.65349991,102.5388965,0,122.7336977,-152.8573457,-2.59E-08,-88.80208037,283.2630406,429.326561,0,-155.8561513,9.486753995,-11.60535398,0,0,1121.79341
823.9519994,3218,95.69566682,17.56061195,0,-178.8761707,-39.06795937,-2.59E-08,-329.1732622,-624.314277,-262.0162394,0,155.1702423,47.84762846,-10.56938867,0,0,-46.33325571
823.9599994,3218,-192.9895489,-156.6910836,0,177.8362414,268.4929917,-2.60E-08,566.3023234,804.4904153,465.7030359,0,-70.84324479,-152.7888181,146.8104223,0,0,262.5073817
823.9679994,3218,230.1416291,220.799834,0,-94.29446162,-347.409513,-2.61E-08,-637.684555,-566.7286239,3.112726384,0,-58.33284528,106.824425,-100.9898424,0,0,1000.240762
823.9759994,3218,-320.6616387,-426.4084311,0,6.225242227,748.8909886,-2.61E-08,1051.014338,568.8739019,-65.78086538,0,341.5602199,-216.6336518,294.4858082,0,0,-1586.856346
823.9839994,3218,-228.8557545,-132.7787374,0,336.9349495,261.9169921,-2.62E-08,762.9786526,1293.281079,800.6161877,0,-190.7087857,-172.6933182,164.4271292,0,0,705.7559066
823.9919994,3218,382.2923436,346.0999269,0,-239.9666135,-587.294587,-2.62E-08,-1193.151851,-1255.168831,-260.1697064,0,-28.62827502,216.395786,-208.4173784,0,0,1172.329982
823.9999994,3218,-226.1781775,-273.2960326,0,31.25902699,441.823039,-2.63E-08,622.6854873,426.8901419,84.45772476,0,149.1022076,-171.0726273,184.6171777,0,0,-691.8182319
824.0079994,3218,-11.25116188,55.03787623,0,154.6307419,-90.32146783,-2.63E-08,31.38840062,452.7729679,494.9444468,0,-196.2579513,-58.33130968,8.376382235,0,0,1102.733904
824.0159994,3218,190.5065842,126.9501659,0,-193.3699273,-215.5665901,-2.64E-08,-602.4238838,-805.6077735,-258.1920096,0,86.50634106,92.8344076,-79.24999926,0,0,380.2407909
824.0239994,3218,-225.4043799,-226.2120523,0,121.8639724,374.8668845,-2.64E-08,641.2122592,692.0454798,315.7918133,0,35.2350155,-168.7166653,184.1425374,0,0,-195.9127713
824.0319994,3218,141.8022316,178.5380193,0,14.97066068,-304.4474512,-2.65E-08,-450.4290105,-147.7780835,282.2628709,0,-166.2583933,34.98652042,-59.91380384,0,0,1268.027744
824.0399994,3218,12.82364523,-61.72955777,0,-136.8933214,82.49850113,-2.65E-08,-98.71579187,-372.5320554,-170.4443052,0,148.7457283,-29.44393872,57.82658363,0,0,-221.8205697
824.0479994,3218,-153.9876786,-113.6891237,0,171.3430413,168.2605638,-2.66E-08,420.8504153,722.9935866,499.7618837,0,-115.3726122,-138.0661824,119.0841242,0,0,518.8074302
824.0559994,3218,213.5293379,186.2749376,0,-125.065579,-323.7874411,-2.66E-08,-651.2956953,-625.4170544,-40.50314644,0,-43.60159468,87.10547243,-113.0643416,0,0,892.3684886
824.0639994,3219,-145.0742894,-196.4336798,0,-5.042910184,325.5804413,-2.67E-08,417.5155596,249.5178272,59.28180469,0,132.3017299,-121.1209684,128.4516763,0,0,-448.2184321
824.0719994,3219,62.95952412,126.1886594,0,106.8669748,-177.5980807,-2.67E-08,-150.1560684,265.0911231,475.2701201,0,-207.0913099,-15.20263906,-27.74565958,0,0,1260.863183
824.0799994,3219,124.0073171,43.10678242,0,-205.6032106,-45.06892057,-2.68E-08,-347.9642935,-667.4067462,-272.2770455,0,155.9530099,39.18137826,-24.3878242,0,0,-62.91603499
824.0879994,3219,-189.3872497,-152.2466036,0,165.579978,263.6717618,-2.68E-08,574.0780994,805.9480355,473.4182768,0,-58.66698971,-146.4078687,122.1402674,0,0,269.5907371
824.0959994,3219,232.9729164,227.9575409,0,-111.4844214,-353.030463,-2.69E-08,-644.9856542,-559.0285815,24.09820699,0,-80.34240609,98.37410306,-127.2317575,0,0,1066.468064
824.1039994,3219,-105.4549838,-173.6590351,0,-65.83272921,321.6268999,-2.69E-08,375.1352879,93.95859062,-57.03900959,0,179.3950605,-88.90489327,131.523214,0,0,-571.7306206
824.1119994,3219,15.61722604,90.562566,0,139.0598347,-124.8868002,-2.69E-08,-3.463741526,439.2422262,529.9852824,0,-211.2278026,-10.98330014,7.358173353,0,0,1242.07673
824.1199994,3219,132.7498019,49.62679256,0,-235.7810711,-88.9769976,-2.70E-08,-428.5102233,-775.7622283,-321.182358,0,140.3491063,74.37608903,-31.33171047,0,0,-10.6166865
824.1279994,3219,-212.3506985,-175.6981014,0,159.2788708,299.5779422,-2.70E-08,648.5427603,854.337826,470.351224,0,-72.82247851,-143.4961781,145.0602935,0,0,183.0184934
824.1359994,3219,236.6383715,244.2946785,0,-103.0223579,-365.3793842,-2.71E-08,-634.6763883,-523.7323274,49.38016951,0,-99.58997976,139.1253244,-118.0150628,0,0,1130.91257
824.1439994,3219,-110.9019522,-178.825516,0,-78.50320204,332.3721983,-2.71E-08,362.8883269,47.32157786,-81.66786259,0,185.3948347,-44.97157316,130.9361594,0,0,-613.430675
824.1519994,3219,1.28251803,83.72002352,0,152.8854076,-95.55828072,-2.71E-08,53.87493935,509.73451,579.7982758,0,-233.9251884,1.260030629,3.61131559,0,0,1246.556719
824.1599994,3219,163.028449,81.68077334,0,-239.2227371,-92.67903534,-2.72E-08,-454.7759241,-816.452355,-327.2019603,0,152.3543576,118.1523147,-34.17839147,0,0,14.63522089
824.1679994,3219,-224.8947345,-189.4882355,0,174.8413952,349.2134596,-2.72E-08,692.3345896,879.1315629,473.2239362,0,-52.25632684,-103.8471232,167.9840156,0,0,132.5562177
824.1759994,3219,228.6575426,236.5836819,0,-92.63800596,-369.9695619,-2.72E-08,-625.8830875,-500.3537524,82.16860723,0,-125.8456031,170.6485758,-123.9057295,0,0,1190.095344
824.1839994,3219,-93.69553877,-168.9020171,0,-90.46178506,309.4862315,-2.73E-08,351.1144194,9.374668493,-104.0803169,0,189.119281,-6.651684995,135.0724992,0,0,-620.2051624
824.1919994,3219,-15.82313559,65.57755314,0,170.5141981,-79.53325833,-2.73E-08,91.63494107,553.619565,578.7721877,0,-221.1865135,37.62028954,40.2355889,0,0,1225.375352
824.1999994,3219,151.9268542,66.12257822,0,-237.154693,-108.7298493,-2.73E-08,-483.2831258,-832.1382566,-324.5864535,0,128.1743891,138.0713148,-34.0518702,0,0,65.52682197
824.2079994,3219,-210.150219,-183.2080585,0,174.3255014,346.9231956,-2.74E-08,706.0770963,869.0331877,473.8537696,0,-57.62991366,-106.0464411,166.7815987,0,0,117.2281041
824.2159994,3219,246.8748301,256.9738101,0,-67.53481112,-358.559618,-2.74E-08,-601.7926165,-481.7622488,88.2815876,0,-90.33383547,198.3315513,-106.2519366,0,0,1191.55481
824.2239994,3219,-99.36678792,-175.9559363,0,-85.38684285,317.8889253,-2.74E-08,340.1804521,-8.403653654,-115.1676157,0,208.1557015,15.24495197,135.2735136,0,0,-630.890691
824.2319994,3219,-8.287358508,69.78172065,0,171.3390805,-91.55239275,-2.75E-08,118.5601928,582.516524,599.5304096,0,-236.5146801,23.25716459,11.39313927,0,0,1226.412118
824.2399994,3219,186.2905606,96.65414903,0,-237.2709974,-134.3742309,-2.75E-08,-491.0752385,-853.2873752,-340.5761099,0,150.7360742,161.7161966,-62.81502234,0,0,69.48643754
824.2479994,3219,-224.5287311,-203.4494574,0,173.4137757,375.4941463,-2.75E-08,715.4428786,864.5701809,440.7747974,0,-32.51696839,-84.24336081,169.8035813,0,0,49.90899172
824.2559994,3219,230.9200143,239.8042629,0,-64.26469375,-348.566386,-2.76E-08,-601.0457663,-451.567745,94.43526231,0,-123.821604,183.9848102,-120.3349636,0,0,1208.307642
824.2639994,3219,-97.83716661,-179.0410857,0,-93.33326367,322.2063276,-2.76E-08,315.3061277,-35.10747994,-146.8050943,0,197.9229366,10.53387874,112.8363444,0,0,-645.5158729
824.2719994,3219,-30.777926,48.7828019,0,174.1805609,-58.87506356,-2.76E-08,137.5516726,609.6875491,591.0782895,0,-240.4937817,15.54305551,9.241154318,0,0,1190.652343
824.2799994,3219,198.9407432,110.533501,0,-245.2399463,-153.7026923,-2.76E-08,-515.4985377,-863.9900357,-344.4594337,0,133.640831,156.2810155,-81.01678786,0,0,92.61734112
824.2879994,3219,-224.6590062,-207.5236175,0,160.4921982,359.6999436,-2.77E-08,708.5275412,851.3404005,419.1195442,0,-24.82243672,-84.76859877,151.0060371,0,0,1.056678975
824.2959994,3219,187.9081299,202.933753,0,-65.20953886,-362.8018268,-2.77E-08,-613.4448481,-424.41476,112.4128308,0,-145.771996,166.4268451,-139.6073083,0,0,1224.729915
824.3039994,3219,-100.5508161,-180.5029036,0,-99.97893123,307.8956793,-2.77E-08,277.8603536,-66.02757998,-149.2718113,0,178.2511061,-11.1156303,89.41853101,0,0,-629.9872749
824.3119994,3219,-34.08677735,47.52288593,0,191.1015281,-42.21162862,-2.77E-08,155.6787467,632.3822836,601.8025937,0,-236.4544727,10.70266646,-8.631948245,0,0,1174.066425
824.3199994,3220,148.3354253,9.233609795,0,-346.7907956,-46.39676578,-2.77E-08,-522.6630899,-1152.68841,-626.2187689,0,285.2784488,166.7076969,-71.32839295,0,0,-528.8333635
824.3279994,3220,-344.9256761,-359.0130943,0,141.5905332,610.6023209,-2.78E-08,1028.032813,947.9169553,295.4588319,0,97.36038268,-146.2037473,235.9576602,0,0,-719.6294254
824.3359994,3220,227.4347882,322.1747231,0,94.69573974,-503.3988673,-2.78E-08,-612.7699068,-40.78204718,495.3890231,0,-345.3681578,161.0448752,-174.053282,0,0,2060.536745
824.3439994,3220,12.17115702,-112.8892449,0,-240.1222188,165.468443,-2.78E-08,-108.0168401,-672.396911,-453.1898573,0,274.7429969,61.27491135,37.11189132,0,0,-763.2222644
824.3519994,3220,-203.3209822,-126.6807063,0,254.3769311,243.6397806,-2.78E-08,638.5315018,1034.742557,649.8446357,0,-167.8823966,-91.63955918,127.8229425,0,0,591.1429034
824.3599994,3220,282.2056802,271.9734405,0,-150.1895188,-428.4919165,-2.78E-08,-806.5300938,-782.1361096,-78.00676255,0,-74.97370254,209.3125802,-172.6617442,0,0,1096.060102
824.3679994,3220,-185.2893488,-242.8527722,0,-32.98911877,417.3642108,-2.79E-08,549.1473142,250.7691169,-43.313204,0,186.0659642,-55.31889594,158.3874789,0,0,-781.4381904
824.3759994,3220,53.73424927,151.833095,0,158.6013656,-212.1797521,-2.79E-08,-93.77724072,415.0337359,560.5611131,0,-257.9083953,67.84586687,-53.68786596,0,0,1437.775576
824.3839994,3220,131.8440174,46.33991236,0,-223.3946936,-75.5372542,-2.79E-08,-419.4465398,-796.3398583,-352.5698546,0,174.1725652,133.714745,-55.43339306,0,0,-113.1561082
824.3919994,3220,-222.8761712,-181.7805369,0,191.4377435,337.2705336,-2.79E-08,657.955836,866.5000314,481.3186343,0,-62.00327233,-102.0167176,143.7880256,0,0,164.8032801
824.3999994,3220,225.9234018,247.0118593,0,-57.03496144,-361.0921631,-2.79E-08,-637.5637825,-474.7961073,104.9839473,0,-122.9608846,168.4690904,-169.5484982,0,0,1226.544827
824.4079994,3220,-95.2812135,-168.3653297,0,-75.46041814,315.4708629,-2.79E-08,305.3263092,-40.05356464,-133.6263294,0,202.6046886,-5.876926142,71.06865543,0,0,-650.681738
824.4159994,3220,-15.08154548,74.269184,0,197.7302286,-64.91822481,-2.79E-08,113.5953921,586.3926158,593.8024638,0,-224.2432889,15.41496285,-8.972682481,0,0,1193.644265
824.4239994,3220,178.4521402,105.887462,0,-215.0818734,-147.6682488,-2.79E-08,-530.0692391,-844.7942923,-313.6126105,0,138.2054136,146.4025073,-93.67694286,0,0,127.2269682
824.4319994,3220,-209.7472188,-188.7711626,0,156.2717752,360.2896798,-2.80E-08,665.5981996,784.7989726,405.4615359,0,-12.30820692,-108.9472763,135.1251383,0,0,-21.3403918
824.4399994,3220,228.0761844,253.5810561,0,-30.93547548,-357.9719804,-2.80E-08,-579.7127121,-377.0171384,161.4931018,0,-138.3658401,147.6695656,-139.8285738,0,0,1249.633117
824.4479994,3220,-60.07211952,-140.5323967,0,-100.0408654,264.939982,-2.80E-08,208.4261844,-163.8861028,-191.308835,0,218.2754316,10.49155111,79.23133734,0,0,-654.6934464
824.4559994,3220,-45.28636131,45.97621667,0,213.8520418,-22.84376549,-2.80E-08,203.986268,668.4474492,599.2555552,0,-209.8641007,-5.219968084,23.22128305,0,0,1071.218688
824.4639994,3220,208.9377896,145.0179119,0,-205.9902437,-207.6220197,-2.80E-08,-582.9700867,-880.6391397,-319.5950931,0,124.5605441,157.987405,-101.9665588,0,0,208.105644
824.4719994,3220,-231.0911711,-212.9400895,0,154.9596039,352.3398152,-2.80E-08,678.8048604,766.5314927,363.0424741,0,5.745418908,-115.3638127,149.8778759,0,0,-121.0410366
824.4799994,3220,202.2020128,238.0996098,0,-17.84615152,-362.3078998,-2.80E-08,-557.9403712,-323.2637381,184.525734,0,-163.2729034,122.4070701,-122.8192865,0,0,1284.274224
824.4879994,3220,-39.79881328,-121.8394712,0,-113.015046,261.4852098,-2.80E-08,170.9344368,-222.9279566,-229.8303799,0,222.9506217,6.460251401,80.32255084,0,0,-649.7514224
824.4959994,3220,-82.34689452,7.51317095,0,221.5900345,12.14269028,-2.80E-08,243.0843329,715.6918844,597.0756089,0,-204.0237227,-26.02851165,36.94157194,0,0,1019.943432
824.5039994,3220,190.7427303,129.3870204,0,-218.0133888,-223.4933072,-2.80E-08,-627.1363299,-887.2017534,-306.71096,0,89.04361569,126.6523189,-119.3135618,0,0,278.9053102
824.5119994,3220,-218.9044881,-207.0502615,0,132.3403061,366.9583028,-2.80E-08,676.181094,750.0180562,358.5576447,0,11.37814778,-138.5890035,126.5101955,0,0,-148.4044975
824.5199994,3220,188.5425808,227.8448652,0,-18.70459664,-364.7890164,-2.80E-08,-556.0595413,-284.761767,221.4102381,0,-155.5060737,116.8906889,-146.1508244,0,0,1314.536301
824.5279994,3220,-59.88756681,-142.9755967,0,-140.6627501,231.1396066,-2.80E-08,114.1108705,-256.7241602,-218.9754074,0,200.6730453,-18.624852,45.05776231,0,0,-616.0218597
824.5359994,3220,-76.44131734,6.375321561,0,204.9809977,18.29501665,-2.80E-08,254.1398242,733.3379051,623.8984216,0,-223.2061799,-61.77176834,22.36734829,0,0,1017.255848
824.5439994,3220,218.8620965,155.0564877,0,-222.2167074,-227.8329843,-2.80E-08,-648.3324191,-901.1142245,-291.8512183,0,103.5869521,135.167514,-111.4491078,0,0,314.9953061
824.5519994,3220,-241.3744503,-226.7594157,0,127.7793799,389.4137172,-2.80E-08,668.0041115,731.8880371,352.1983661,0,19.92740431,-146.1118888,143.5689142,0,0,-184.2133735
824.5599994,3220,160.5639364,210.3148098,0,-5.402689202,-347.8577681,-2.80E-08,-544.5260795,-254.8789357,247.2123175,0,-194.1762884,79.15638235,-152.4428104,0,0,1348.211994
824.5679994,3220,-47.08246478,-127.4908853,0,-131.1801476,225.3772173,-2.80E-08,102.6167799,-292.8479038,-234.1156398,0,195.4771369,-31.39220706,23.0775887,0,0,-600.4850908
824.5759994,3221,-94.09156355,-8.182630536,0,226.7452309,24.53235278,-2.80E-08,284.7996243,746.5313842,625.3453458,0,-219.9331019,-75.80657026,14.97725748,0,0,997.561807
824.5839994,3221,213.7698052,155.6248477,0,-199.7867615,-260.7228665,-2.80E-08,-660.5621911,-911.8065963,-290.1160787,0,92.04919476,121.2094174,-125.3254208,0,0,352.9874182
824.5919994,3221,-214.713237,-203.0305428,0,154.0688911,369.4102411,-2.80E-08,679.5035604,704.7149849,325.367142,0,39.4462527,-142.8614141,138.6178461,0,0,-231.4779053
824.5999994,3221,188.5881876,236.7541834,0,29.50298137,-361.0638633,-2.80E-08,-518.3738641,-230.6400308,258.7468865,0,-181.5337715,92.27050722,-137.9724061,0,0,1344.008835
824.6079994,3221,-31.98650597,-112.1871268,0,-124.1699286,211.5556576,-2.80E-08,75.32260597,-324.2017411,-258.1647183,0,226.4414738,-14.77081569,58.01693028,0,0,-626.2888319
824.6159994,3221,-104.5070729,-11.40753759,0,233.5891929,40.66017755,-2.80E-08,300.4701974,766.2570004,618.2536523,0,-202.4497782,-85.41413443,49.81368875,0,0,933.1111334
824.6239994,3221,221.5838295,167.2197875,0,-209.4127157,-277.0170195,-2.80E-08,-683.4711188,-909.67145,-279.9216276,0,67.47000662,96.63557644,-127.5267052,0,0,374.8933999
824.6319994,3221,-215.3249171,-206.166255,0,131.6676162,372.711927,-2.80E-08,665.937223,684.7532707,299.0057128,0,50.89100908,-166.3158772,161.3918239,0,0,-288.5051907
824.6399994,3221,185.6119006,242.8671468,0,29.05797502,-362.3151232,-2.80E-08,-497.3382546,-200.0274451,264.9552084,0,-168.7633543,68.66006777,-100.2668737,0,0,1319.17642
824.6479994,3221,-9.945597521,-86.83497396,0,-140.9305134,173.3295836,-2.80E-08,57.0817003,-352.6466889,-274.9865121,0,221.4480008,-35.73603989,61.85534987,0,0,-635.4723862
824.6559994,3221,-104.6033413,-8.738629001,0,232.2283256,42.50787011,-2.80E-08,333.2628077,785.8873486,598.8736287,0,-191.0695098,-97.48848111,67.87356968,0,0,868.8923083
824.6639994,3221,220.2236444,173.8537915,0,-200.7687251,-278.8164456,-2.79E-08,-677.735786,-901.6927605,-282.566375,0,75.03170613,99.17577992,-114.4409312,0,0,380.4270416
824.6719994,3221,-219.0853636,-211.7971359,0,119.8810047,381.6867019,-2.79E-08,656.7121749,657.3528009,284.4604447,0,44.83386136,-181.7798586,156.5899363,0,0,-315.0905676
824.6799994,3221,167.9892628,222.3229886,0,32.99866056,-336.7872039,-2.79E-08,-486.8605665,-178.6046823,276.0754913,0,-182.193356,50.52182894,-89.57931992,0,0,1325.369794
824.6879994,3221,-22.68849189,-110.8915021,0,-145.5193929,188.6832967,-2.79E-08,34.25267987,-382.5139713,-285.1907851,0,216.6671197,-48.28359191,63.60246101,0,0,-619.6040933
824.6959994,3221,-120.690989,-36.55747471,0,222.6076029,66.85676756,-2.79E-08,344.6736468,792.9721448,598.7882404,0,-204.2206003,-135.9282803,56.43754301,0,0,855.6509563
824.7039994,3221,224.833434,173.6019834,0,-207.9622596,-280.7536401,-2.79E-08,-692.8449844,-901.769888,-285.8705905,0,68.51355962,74.61229858,-108.7881405,0,0,410.0578167
824.7119994,3221,-219.639387,-221.3522596,0,111.3383122,384.3639408,-2.79E-08,651.5396558,637.4645964,257.3549381,0,62.86263702,-196.0635993,169.6109977,0,0,-359.6894987
824.7199994,3221,147.5634636,201.4089443,0,37.20932305,-341.4215358,-2.78E-08,-481.2026606,-149.9909089,287.5677238,0,-196.225627,18.06665566,-116.3625786,0,0,1325.491504
824.7279994,3221,-15.77361443,-103.1735832,0,-149.8272098,178.1086887,-2.78E-08,1.085968755,-408.5163904,-297.8614113,0,208.7264269,-73.43903705,28.93057644,0,0,-610.8639936
824.7359994,3221,-98.80336446,-17.89170164,0,239.6445105,79.31143702,-2.78E-08,370.1906187,805.0739547,592.753732,0,-180.4933551,-141.9259344,43.62913679,0,0,806.7901925
824.7439994,3221,231.1945771,176.5074247,0,-179.5128502,-289.0924556,-2.78E-08,-698.1981529,-898.4655308,-284.6089775,0,72.49542614,84.03317253,-147.5120044,0,0,424.9692299
824.7519994,3221,-229.0400691,-238.1998636,0,128.7900878,407.5610508,-2.78E-08,647.7698807,619.1171968,238.4966099,0,57.47956725,-199.0148658,144.4866369,0,0,-377.6082338
824.7599994,3221,167.5236863,217.949263,0,64.73904247,-325.9354955,-2.78E-08,-452.713609,-125.3608952,299.3342104,0,-196.2847835,18.11622773,-115.2038659,0,0,1344.027635
824.7679994,3221,8.428833681,-84.66496123,0,-139.827971,162.6118048,-2.77E-08,-11.34632048,-445.3358511,-321.9900125,0,219.6802665,-57.2832741,15.63659187,0,0,-606.8630265
824.7759994,3221,-117.410092,-39.94078951,0,248.8216915,98.33709379,-2.77E-08,396.661759,814.3345695,577.5455773,0,-185.082399,-141.9649982,42.90997304,0,0,765.7975565
824.7839994,3221,241.1225379,187.1617211,0,-180.4262035,-302.1297296,-2.77E-08,-700.9101852,-897.645957,-285.3672582,0,61.58104716,94.02142308,-141.0936174,0,0,452.7944161
824.7919994,3221,-214.1199448,-225.8148927,0,107.8330185,388.0222748,-2.77E-08,652.4992807,594.7780758,209.7217859,0,66.77843762,-184.1463974,138.8084489,0,0,-423.8449421
824.7999994,3221,145.1794222,201.1650761,0,55.46178351,-334.7606207,-2.77E-08,-427.7197121,-87.41443456,302.7234007,0,-214.3578885,27.60914259,-123.1322371,0,0,1329.709968
824.8079994,3221,-15.37193829,-106.2053339,0,-166.6030149,145.1260188,-2.76E-08,-43.49786684,-462.2339402,-340.1625675,0,197.031213,-38.53306684,26.8822131,0,0,-587.790398
824.8159994,3221,-150.1505125,-70.1839411,0,224.8958863,113.8754325,-2.76E-08,413.1165086,835.6927696,577.3718755,0,-211.3532443,-141.0603176,61.24866329,0,0,758.3836824
824.8239994,3221,227.4294915,181.5474523,0,-201.8632711,-298.2852895,-2.76E-08,-708.4551517,-890.1718529,-267.1836099,0,15.42661036,96.55375897,-145.0256466,0,0,521.5302711
824.8319994,3222,-222.3902037,-232.6399563,0,77.85863979,405.1841174,-2.76E-08,637.8246581,563.7673008,196.4394481,0,49.80341734,-167.8328073,152.9456326,0,0,-421.3290564
824.8399994,3222,144.801343,206.2433051,0,49.45285314,-312.5401878,-2.76E-08,-403.004013,-63.50826738,325.8268458,0,-220.9659238,53.34638803,-104.5839263,0,0,1343.033652
824.8479994,3222,24.5623874,-62.44544433,0,-173.0504729,141.7526696,-2.75E-08,-46.25681781,-498.2419505,-338.140317,0,206.2797385,4.573801934,17.06031644,0,0,-579.0346226
824.8559994,3222,-141.1307077,-53.89516397,0,238.7436454,133.6299494,-2.75E-08,458.0185598,845.3117742,576.3447073,0,-185.6857248,-93.59901516,66.69343963,0,0,696.189423
824.8639994,3222,217.0428794,178.5504444,0,-179.1053437,-302.6472584,-2.75E-08,-694.303716,-870.8074322,-252.8465892,0,23.04739236,147.1856382,-138.2621753,0,0,523.5973873
824.8719994,3222,-219.0930618,-233.5661448,0,78.78965066,403.128739,-2.74E-08,641.662366,543.982943,193.8584717,0,46.25319264,-146.6416778,152.6356755,0,0,-449.9674284
824.8799994,3222,147.4107397,211.5841147,0,57.7903644,-304.7650184,-2.74E-08,-370.0167621,-33.69929879,352.9318082,0,-239.9361788,60.50799255,-102.2593057,0,0,1350.418181
824.8879994,3222,31.1442982,-61.30764597,0,-175.9110617,132.4237482,-2.74E-08,-58.65569674,-517.8232198,-348.0478495,0,206.5728982,39.23611882,13.83147938,0,0,-576.8186158
824.8959994,3222,-143.3662322,-71.06053008,0,233.9739549,146.2555466,-2.74E-08,479.4083635,853.5528789,565.5560132,0,-181.8474683,-75.92229513,77.6034247,0,0,641.952333
824.9039994,3222,232.4156424,186.9303733,0,-186.5086466,-318.8420469,-2.73E-08,-700.9504742,-874.5818304,-250.1810098,0,5.477691308,157.8844695,-146.1692693,0,0,539.366329
824.9119994,3222,-205.1946704,-224.9515666,0,74.72697737,398.5080556,-2.73E-08,638.7109298,516.2935024,154.7053744,0,59.23434619,-114.9459627,138.468397,0,0,-513.096394
824.9199994,3222,142.8342078,206.7794249,0,85.44731081,-284.1853135,-2.73E-08,-333.9617323,3.777831213,344.6383887,0,-222.9039684,93.3054599,-91.44368184,0,0,1298.388668
824.9279994,3222,20.78603213,-73.45681247,0,-162.8856288,139.659424,-2.72E-08,-73.4083937,-528.2365366,-352.366443,0,204.30462,59.0077257,0.47389038,0,0,-573.8540507
824.9359994,3222,-165.9200925,-92.73717889,0,241.192709,174.2732652,-2.72E-08,495.2106359,875.3693101,577.809431,0,-197.0116197,-81.10659639,55.69002152,0,0,626.1737427
824.9439994,3222,243.310054,201.9616655,0,-172.2398194,-316.5455303,-2.72E-08,-696.0785001,-862.1354443,-238.2063123,0,4.974121272,170.0702401,-144.9907234,0,0,565.3977689
824.9519994,3222,-206.2973125,-230.0634402,0,81.97638454,402.8383312,-2.71E-08,645.344008,501.0831088,134.5858207,0,89.59892923,-87.90489067,154.6977214,0,0,-547.3379382
824.9599994,3222,111.3829215,175.7551627,0,93.34592515,-276.8781536,-2.71E-08,-318.910877,42.72574573,365.6149053,0,-235.0276594,86.57473964,-69.45008051,0,0,1319.505553
824.9679994,3222,31.18181019,-66.31832162,0,-175.2742383,118.8309186,-2.71E-08,-108.1349754,-560.3111212,-370.8379799,0,194.789096,49.0767822,23.12380265,0,0,-550.4419926
824.9759994,3222,-167.6594906,-98.30591418,0,240.6658541,179.1279482,-2.70E-08,512.2798454,880.148345,544.9217821,0,-171.6904589,-77.5285382,85.51541075,0,0,570.5336896
824.9839994,3222,223.5115175,186.5356593,0,-173.8831001,-324.8739489,-2.70E-08,-710.6727,-848.6442484,-237.2355768,0,-8.305843522,158.168806,-133.508007,0,0,604.2863699
824.9919994,3222,-198.3602174,-223.7020583,0,61.61323636,399.7084606,-2.70E-08,623.0813444,465.9796401,111.6536242,0,80.38167757,-111.7425314,139.6292768,0,0,-557.2456696
824.9999994,3222,120.6469474,187.9183967,0,98.88539545,-271.6653275,-2.69E-08,-297.7010556,59.40931266,357.5478304,0,-222.0882306,90.39577393,-102.5343519,0,0,1293.101616
825.0079994,3222,27.8034672,-64.42074993,0,-182.2663827,96.97908799,-2.69E-08,-133.3595754,-589.9644387,-389.7110216,0,191.3351125,60.63262321,-3.9172199,0,0,-548.1832463
825.0159994,3222,-172.663544,-101.1054004,0,228.1675358,176.711165,-2.69E-08,531.1146741,882.3124053,541.3930169,0,-187.7416775,-91.12636527,71.8509755,0,0,536.6829449
825.0239994,3222,231.378968,195.0756968,0,-172.8935694,-335.1319196,-2.68E-08,-714.8393973,-842.6496706,-235.901778,0,-8.608530675,169.4781635,-163.6157747,0,0,608.7191615
825.0319994,3222,-226.0206031,-249.8742986,0,57.80069069,408.0789821,-2.68E-08,596.5202027,445.9103145,89.45923022,0,79.22845219,-105.9701841,147.2474189,0,0,-595.7833318
825.0399994,3222,86.35159187,164.9297841,0,102.3789529,-261.2105028,-2.68E-08,-292.9546639,97.17768746,384.5988392,0,-263.1613545,59.53195514,-72.39369978,0,0,1305.641801
825.0479994,3222,44.01047076,-45.41083671,0,-188.6593036,78.5605192,-2.67E-08,-172.3317355,-616.014845,-390.0620466,0,184.0582358,50.93012788,-4.289603193,0,0,-527.4348041
825.0559994,3222,-179.4426127,-100.0919745,0,245.9802894,201.852172,-2.67E-08,543.0726984,894.5302734,537.0295886,0,-161.663556,-89.13466966,96.25312593,0,0,495.0260051
825.0639994,3222,219.3477643,202.2004821,0,-142.3927704,-338.845973,-2.66E-08,-708.6002673,-818.1735769,-219.2244941,0,-5.361627634,176.7814033,-136.0506899,0,0,645.5806788
825.0719994,3222,-217.3844794,-240.7862089,0,55.98577594,377.162119,-2.66E-08,588.4701498,416.7953169,67.74688372,0,88.15805068,-104.9012596,137.8738144,0,0,-606.3784535
825.0799994,3222,73.50202751,154.7306862,0,112.1699013,-265.8612225,-2.66E-08,-268.3159281,120.1906882,386.2804783,0,-267.0896033,46.03686565,-84.09800034,0,0,1305.034419
825.0879994,3223,28.40428856,-54.51175576,0,-180.2679912,73.5239306,-2.65E-08,-190.5457518,-637.2809943,-405.5355059,0,173.3065854,45.80218303,3.297535415,0,0,-510.0268914
825.0959994,3223,-197.414267,-122.9943076,0,238.9206116,211.3864175,-2.65E-08,550.7913988,896.9580652,532.5148398,0,-179.3604301,-110.9008247,108.4394865,0,0,469.0727155
825.1039994,3223,218.2257126,199.4697429,0,-154.9130037,-347.315842,-2.64E-08,-732.0490975,-818.4352976,-195.904772,0,-36.18768846,157.5456486,-136.4704312,0,0,693.6134766
825.1119994,3223,-209.7748865,-231.3846908,0,41.23021916,379.7568941,-2.64E-08,559.8042327,380.2064691,58.61123146,0,94.98423833,-105.6152812,146.2880137,0,0,-623.1415023
825.1199994,3223,73.80881282,159.3336127,0,108.1231186,-263.6669124,-2.63E-08,-255.9774373,144.241951,408.0815839,0,-259.5157073,43.40466815,-81.058975,0,0,1300.319929
825.1279994,3223,52.54555006,-28.57742328,0,-199.9885358,44.12789413,-2.63E-08,-223.4752106,-673.5759801,-407.7966351,0,182.7853568,57.2247538,-17.40542167,0,0,-488.2732259
825.1359994,3223,-197.5225028,-116.4848575,0,226.6273373,209.9227729,-2.63E-08,562.34828,889.2184779,513.3321247,0,-157.8089121,-105.0209685,96.95600546,0,0,414.8889403
825.1439994,3223,208.8593247,199.4138729,0,-164.6797297,-365.2745902,-2.62E-08,-737.4551349,-811.9990033,-197.4720057,0,-50.61781125,143.0674281,-155.1666703,0,0,706.7089496
825.1519994,3223,-203.9527479,-226.3252386,0,16.29076429,371.6439504,-2.62E-08,537.3184004,338.9549667,27.0951175,0,94.0758469,-120.0381219,141.3345953,0,0,-659.7040618
825.1599994,3223,61.53643652,155.0844545,0,107.5958558,-246.3890434,-2.61E-08,-243.1477006,165.5820056,413.1915478,0,-256.1872646,28.23764728,-57.01200101,0,0,1271.999966
825.1679994,3223,46.76177327,-27.46575989,0,-198.6735271,39.12641809,-2.61E-08,-255.7872917,-690.4322381,-397.1804127,0,170.8868481,38.81607877,-30.79210599,0,0,-455.0533111
825.1759994,3223,-182.9356828,-102.5414555,0,237.9216532,224.1472822,-2.60E-08,579.5334008,896.3759312,523.2067843,0,-148.5010004,-117.0645003,65.76046363,0,0,398.2463299
825.1839994,3223,496.1177591,506.2537299,0,-231.5329531,-816.8213126,-2.60E-08,-1467.133794,-1426.387278,-260.7437505,0,-137.8728437,300.4871368,-355.9823469,0,0,1616.108991
825.1919994,3223,58.57644776,-10.1104734,0,-175.2643027,4.579612783,-2.59E-08,-250.2728204,-657.5434347,-374.2987116,0,161.3948207,42.76089757,-71.05058127,0,0,-398.8887832
825.1999994,3223,-261.8349982,-187.1986642,0,260.694827,314.8586358,-2.59E-08,701.6815838,995.1787003,521.856981,0,-138.8168935,-163.8794437,89.90375903,0,0,204.5741784
825.2079994,3223,120.8997668,124.2788029,0,-58.44590095,-195.5892811,-2.58E-08,-443.3932459,-449.7648969,-60.65551142,0,-63.85256006,66.11361855,-118.0581094,0,0,586.548791
825.2159994,3223,-13.34923387,-20.76563026,0,-14.52077155,45.9049862,-2.58E-08,-24.8109197,-104.8886039,-15.63933311,0,10.60300192,-14.25824764,-28.07638376,0,0,69.77603047
825.2239994,3223,-134.4182758,-110.1633146,0,90.30897084,173.5608893,-2.57E-08,308.210382,374.5146396,216.4590033,0,-44.59871694,-90.53283117,27.57502344,0,0,83.4393339
825.2319994,3223,89.53492048,113.1363817,0,-17.67532233,-186.7511909,-2.57E-08,-324.0738311,-228.090767,101.7796185,0,-113.1236039,17.31423536,-107.2088119,0,0,717.355492
825.2399994,3223,-16.57351355,-48.40913622,0,-52.46738451,93.0375743,-2.56E-08,46.40298737,-138.4072652,-75.88405959,0,68.93494229,-47.66680103,-13.5527066,0,0,-189.4668115
825.2479994,3223,-97.37295691,-56.15341852,0,122.4888326,95.6264119,-2.56E-08,266.133311,432.5107019,284.8321379,0,-74.43649072,-79.93233615,20.89269758,0,0,306.5560131
825.2559994,3223,128.1581855,133.0423328,0,-79.45192828,-237.3124831,-2.55E-08,-472.3906348,-498.2392737,-84.02707426,0,-32.76089373,63.50575408,-121.3668246,0,0,549.6131347
825.2639994,3223,-159.245819,-170.5524738,0,25.08989676,278.0892564,-2.55E-08,416.0024031,264.6988876,41.63726803,0,75.64852311,-128.4055296,59.58876036,0,0,-471.8083459
825.2719994,3223,58.98739611,132.2164505,0,95.2211456,-205.9246394,-2.54E-08,-176.0981753,143.6469197,344.0188011,0,-195.4976996,-10.82006321,-91.255287,0,0,1023.994242
825.2799994,3223,37.86219954,-20.14456047,0,-143.9389184,24.23569275,-2.54E-08,-210.6035586,-547.1895966,-304.5235056,0,148.8094673,14.80716512,-36.6968949,0,0,-321.6344594
825.2879994,3223,-203.3334866,-140.5040877,0,198.3266524,242.9580006,-2.53E-08,515.4749865,757.6337885,419.8998978,0,-111.5907405,-146.7549565,84.02706385,0,0,234.5357056
825.2959994,3223,200.4806575,204.0046005,0,-98.47901586,-317.9749338,-2.53E-08,-619.4498135,-622.9689243,-87.88419462,0,-73.56092019,75.48909038,-152.8848244,0,0,755.8660317
825.3039994,3223,-154.7729855,-192.4850412,0,14.11817943,344.1713795,-2.52E-08,462.8189005,217.354967,-38.428406,0,144.4716689,-128.0777116,91.41572728,0,0,-699.973231
825.3119994,3223,26.17398462,114.8113604,0,153.3237325,-179.6680547,-2.52E-08,-116.9645623,290.4184033,432.3678521,0,-217.3937475,-20.57664727,-62.36436476,0,0,1118.966954
825.3199994,3223,61.80983325,-6.16181599,0,-187.012788,-19.57163379,-2.51E-08,-314.4273139,-697.667876,-372.8925597,0,155.3707684,7.133950563,-54.38466479,0,0,-355.811997
825.3279994,3223,-218.494166,-151.3548934,0,208.9704936,264.1629908,-2.50E-08,602.2089358,866.5109145,467.8400217,0,-112.9138981,-184.4628257,87.31913562,0,0,193.4914265
825.3359994,3223,215.9953815,223.3248707,0,-110.0995691,-352.1930472,-2.50E-08,-673.820305,-663.0687251,-91.99010428,0,-62.28074966,92.51711183,-167.0405998,0,0,809.5011596
825.3439994,3224,-165.3854938,-203.931444,0,0.910650089,359.4857456,-2.49E-08,467.5898661,200.2296836,-56.16301771,0,152.2880139,-130.4302394,90.88145372,0,0,-758.9475938
825.3519994,3224,13.59030674,111.6352996,0,162.2058339,-165.3534537,-2.49E-08,-91.98075875,340.4432975,469.7609357,0,-245.0853503,-35.72809627,-71.00342107,0,0,1172.109083
825.3599994,3224,64.67128721,-6.078727256,0,-195.5487665,-12.59094089,-2.48E-08,-348.323875,-753.5373786,-397.5308464,0,152.0445944,7.65358124,-63.54528845,0,0,-331.2622106
825.3679994,3224,-223.1759596,-160.5800256,0,228.5549765,297.3369319,-2.48E-08,651.4182271,901.6950954,476.0950929,0,-113.3550153,-193.9891987,87.89980759,0,0,184.8370172
825.3759994,3224,235.022017,240.7695063,0,-102.282461,-359.9406129,-2.47E-08,-677.9690811,-671.6501846,-92.09253862,0,-56.69089751,102.6803566,-168.9268854,0,0,855.2020068
825.3839994,3224,-159.1627948,-201.6035876,0,-4.790128771,364.5011897,-2.46E-08,464.0476877,177.2523898,-80.9267015,0,176.3447467,-119.7430378,111.9005609,0,0,-790.7772862
825.3919994,3224,31.2093725,124.9362939,0,169.2997327,-166.0073686,-2.46E-08,-64.92984188,371.9684581,478.9025753,0,-227.3489826,-30.57509805,-56.00767661,0,0,1155.664626
825.3999994,3224,123.7992576,41.25371103,0,-206.6704191,-36.61911006,-2.45E-08,-371.8681544,-796.2210468,-423.3764409,0,192.9172977,33.44047037,-49.51289466,0,0,-358.5458199
825.4079994,3224,-212.5114345,-157.6675696,0,230.1007825,310.4337385,-2.45E-08,660.5843469,905.5238951,456.0241134,0,-72.86779672,-175.0108447,126.4005114,0,0,91.15244545
825.4159994,3224,232.5024467,237.4252695,0,-90.1307822,-367.9962449,-2.44E-08,-686.900636,-656.2449769,-86.46108731,0,-56.95702952,102.3021499,-147.2581008,0,0,841.7929647
825.4239994,3224,-153.353504,-202.7661646,0,-11.53725858,361.5528543,-2.43E-08,449.4277823,149.7371742,-106.4073191,0,187.2932421,-128.6061241,136.6095736,0,0,-834.3805238
825.4319994,3224,0.12251471,92.34760456,0,172.2428673,-153.1100075,-2.43E-08,-50.34062171,410.1155886,489.9744621,0,-231.5304108,-49.6296618,-32.39219662,0,0,1137.096875
825.4399994,3224,123.0799915,38.38585728,0,-211.9514698,-61.58888079,-2.42E-08,-400.1276949,-811.8915879,-421.937212,0,176.5659201,14.43182795,-67.03126756,0,0,-325.4244324
825.4479994,3224,-209.6300689,-159.0267811,0,223.7157554,314.0996802,-2.42E-08,678.773407,900.7832361,438.6078867,0,-57.2027197,-189.2431004,120.4886687,0,0,47.29439239
825.4559994,3224,215.2347281,222.003119,0,-93.36702096,-365.6506221,-2.41E-08,-686.0613351,-633.2700567,-77.17113145,0,-58.2223986,94.00113116,-148.0101526,0,0,863.6759383
825.4639994,3224,-156.9034912,-209.6202005,0,-27.02785198,350.3891696,-2.40E-08,426.0453088,125.3888057,-117.0538017,0,179.0189188,-144.0612499,110.4367262,0,0,-826.1608543
825.4719994,3224,7.851339124,101.3254108,0,175.6890033,-156.0514736,-2.40E-08,-18.32955505,437.4534228,503.4628213,0,-234.9501076,-63.61467224,-59.90654798,0,0,1140.223835
825.4799994,3224,127.9238834,46.12280958,0,-219.7806646,-82.07794927,-2.39E-08,-422.0135685,-829.7248717,-426.0660253,0,170.3977555,24.80500578,-94.82377923,0,0,-292.6792005
825.4879994,3224,-241.524274,-187.973228,0,213.360976,322.5712046,-2.39E-08,674.4752677,902.3317373,435.6321611,0,-78.68905001,-200.1128801,98.2320002,0,0,33.64373961
825.4959994,3224,218.6773776,232.4525052,0,-90.24380222,-367.7122755,-2.38E-08,-684.9427131,-615.4181582,-48.94472576,0,-92.36096662,74.78756955,-182.0113098,0,0,924.8804459
825.5039994,3224,-117.2783157,-172.4346999,0,-38.06600948,349.8965769,-2.37E-08,409.7266511,72.17503624,-146.5273911,0,189.4104826,-132.8467559,84.4349557,0,0,-843.435178
825.5119994,3224,7.937530554,107.2763094,0,183.9448415,-130.7280274,-2.37E-08,11.0639272,452.9028263,489.2617054,0,-221.9834044,-48.55777301,-44.31511561,0,0,1086.343612
825.5199994,3224,132.9769635,58.81236152,0,-217.0096598,-93.51770895,-2.36E-08,-438.236131,-850.5081945,-442.642846,0,172.0198282,38.55623178,-69.42023515,0,0,-290.787384
825.5279994,3224,-229.5336156,-179.1273717,0,206.6473622,320.9244398,-2.35E-08,690.5650142,884.3312817,410.8514277,0,-66.60940603,-196.2832357,130.1113079,0,0,-34.34587256
825.5359994,3224,210.6938293,230.6462495,0,-85.43458828,-374.1624245,-2.35E-08,-671.9828902,-592.0669735,-35.24333574,0,-99.27002931,86.98961491,-156.7717234,0,0,918.1590359
825.5439994,3224,-138.4213213,-190.0693985,0,-48.04940589,339.1705092,-2.34E-08,384.1394485,46.6703485,-155.5154116,0,185.9713199,-113.3895458,102.9165373,0,0,-861.2256453
825.5519994,3224,2.315273398,100.3989717,0,183.2180948,-118.3003672,-2.33E-08,40.71411099,480.0762734,511.9713647,0,-230.4407528,-36.48176813,-28.2894293,0,0,1071.506096
825.5599994,3224,161.5385867,89.26322652,0,-217.7123197,-93.02080675,-2.33E-08,-440.1222127,-862.6420607,-421.9359128,0,173.8570378,83.20439705,-76.55162711,0,0,-257.3498592
825.5679994,3224,-213.9677192,-159.9200381,0,209.8041072,344.7696906,-2.32E-08,720.2072779,881.6563035,413.5969221,0,-36.69827663,-137.7681466,132.5102709,0,0,-72.91578697
825.5759994,3224,225.7296886,249.267739,0,-77.96094337,-370.024188,-2.31E-08,-639.3721922,-565.6373406,-18.34939615,0,-78.97499298,140.2149174,-151.844566,0,0,926.4065718
825.5839994,3224,-322.924584,-429.0829029,0,-54.77352996,754.1656587,-2.31E-08,972.3133494,328.6794909,-307.7026415,0,400.9481839,-177.5031988,253.6730542,0,0,-1998.132744
825.5919994,3224,-478.2705264,-415.5674787,0,349.1182218,752.7400846,-2.30E-08,1477.169134,1663.887668,604.8889585,0,17.71567788,-280.0845192,306.1994277,0,0,-733.9771008
825.5999994,3225,135.6847129,139.7383183,0,-69.182773,-184.3346458,-2.29E-08,-367.8135501,-405.3044544,-57.22749159,0,-1.099098107,90.0298903,-78.56036236,0,0,445.7939559
825.6079994,3225,52.72202214,73.88490253,0,16.23317952,-60.16671613,-2.29E-08,-85.82723581,-58.61795356,84.92360438,0,-19.41333862,38.54758521,-17.13341987,0,0,344.5651339
825.6159994,3225,-4.293358001,-6.148883883,0,3.269195289,51.42688094,-2.28E-08,42.79521156,-68.52245767,-19.43393237,0,56.84627723,20.6009957,17.83744668,0,0,-57.26109115
825.6239994,3225,-65.85248493,-39.90488518,0,77.13068157,78.04834744,-2.27E-08,159.6155873,195.049834,131.9015287,0,-12.0961253,-6.414694794,29.17088956,0,0,120.1353128
825.6319994,3225,92.7947445,120.5419527,0,-7.803044541,-181.3342161,-2.27E-08,-297.0052905,-227.3857611,51.8404218,0,-68.96625126,78.86150933,-76.46831416,0,0,603.4575175
825.6399994,3225,-67.6637393,-98.08919594,0,-38.77412343,202.6345099,-2.26E-08,221.0328519,-39.94855602,-126.6492081,0,137.5100252,-20.69725938,54.52012141,0,0,-521.4431982
825.6479994,3225,-3.897786994,77.91274716,0,146.2575958,-83.7934109,-2.25E-08,25.11586263,327.0330738,365.4846084,0,-151.2671038,21.81694008,-14.43779542,0,0,812.0295795
825.6559994,3225,99.85660885,62.85572363,0,-138.7373013,-69.7137862,-2.24E-08,-331.9804319,-630.6208242,-289.5875337,0,122.5941281,92.67683313,-45.55328473,0,0,-107.7032297
825.6639994,3225,-181.5952956,-132.3259613,0,163.6539561,280.1454519,-2.24E-08,536.2773938,625.9079439,277.3122155,0,-7.080586782,-73.91256118,114.492481,0,0,-85.18515467
825.6719994,3225,170.4361952,215.2697401,0,-23.48829326,-300.2774317,-2.23E-08,-507.2323526,-396.5246905,38.81859355,0,-87.64303052,150.1247132,-103.9823016,0,0,897.0236902
825.6799994,3225,-87.74440473,-133.0125304,0,-60.6674839,263.4176257,-2.22E-08,273.6565016,-78.33373697,-203.5444152,0,195.4210128,-7.339222704,93.04847423,0,0,-747.1950956
825.6879994,3225,-24.73669127,77.76625389,0,198.9054339,-70.46074253,-2.22E-08,110.876903,509.5745201,466.1645217,0,-184.3877035,26.58292653,-3.092488434,0,0,933.9198401
825.6959994,3225,163.9695013,114.3103143,0,-178.1355609,-114.5700103,-2.21E-08,-457.8911206,-812.7289864,-379.8386458,0,153.2420878,145.5028942,-72.30073954,0,0,-97.27769117
825.7039994,3225,-189.92531,-144.9745036,0,198.4621135,332.1746343,-2.20E-08,666.0304346,765.7724894,321.3581369,0,4.642187935,-79.57645037,141.6823381,0,0,-153.4767765
825.7119994,3225,207.9836137,246.9137171,0,-15.14630246,-362.3807854,-2.19E-08,-569.9559683,-447.3532007,27.09053421,0,-79.32404299,181.7247791,-129.8046575,0,0,979.1318927
825.7199994,3225,-110.3409363,-165.5047962,0,-61.00805091,292.4759303,-2.19E-08,271.9458311,-104.2095471,-245.8140628,0,213.183843,-12.11908034,95.79600235,0,0,-842.4546569
825.7279994,3225,-42.70400331,67.59616609,0,222.5004108,-52.14369924,-2.18E-08,132.4532184,573.5129163,510.7525379,0,-217.9879698,-1.532034108,19.29149856,0,0,976.0191112
825.7359994,3225,180.518275,130.9180218,0,-183.7838592,-161.65518,-2.17E-08,-520.3962711,-889.797124,-408.0873746,0,160.2733177,152.7003611,-81.52354679,0,0,-91.99452883
825.7439994,3225,-350.6921669,-337.9348216,0,182.1153319,578.741019,-2.17E-08,983.6565903,900.0230937,205.5419243,0,120.7478533,-167.9371111,220.0635522,0,0,-915.7644135
825.7519994,3225,29.74708526,78.78016514,0,46.20092002,-115.4416319,-2.16E-08,-151.4667803,-4.963532427,153.6932595,0,-87.52294914,38.30061764,-15.80891794,0,0,563.0815116
825.7599994,3225,-218.8019849,-165.7405018,0,180.8863995,305.5141097,-2.15E-08,634.3005991,764.7373656,336.7094824,0,-31.56838675,-123.3008578,165.2049451,0,0,-148.193331
825.7679994,3225,-424.6629008,-213.7568954,0,584.0511342,388.6379359,-2.14E-08,1251.364366,2160.967225,1214.587167,0,-378.7839875,-251.2177018,239.2176265,0,0,888.6961691
825.7759994,3225,-79.83541835,-15.74752964,0,129.7886427,52.70276005,-2.14E-08,205.76078,406.6676239,295.9488233,0,-93.95807438,-35.69445614,63.52619316,0,0,367.8518374
825.7839994,3225,-104.41248,-33.84731137,0,153.4006788,83.37652212,-2.13E-08,275.1500896,501.5414641,334.0723277,0,-99.46190209,-43.97288415,75.95777674,0,0,366.2142796
825.7919994,3225,183.9830453,171.8419877,0,-142.4657075,-250.7629422,-2.12E-08,-575.4795267,-731.8940208,-235.7960127,0,39.63823369,143.4754287,-93.93210425,0,0,356.9019169
825.7999994,3225,-87.52259412,-104.0453827,0,6.027663114,240.8190032,-2.11E-08,318.9094821,126.0993233,-53.95851783,0,130.7926407,-23.36927601,94.89867203,0,0,-508.9720364
825.8079994,3225,15.440238,109.5078506,0,160.3999645,-125.8402165,-2.11E-08,-9.901486139,357.6661252,390.5102313,0,-156.2321773,50.00778181,-2.447182305,0,0,917.0996141
825.8159994,3225,128.7633186,69.28030348,0,-224.107142,-111.8485483,-2.10E-08,-486.6910591,-900.5646279,-462.8171041,0,189.4808973,129.1176458,-50.30402894,0,0,-295.4979217
825.8239994,3225,-212.9995725,-138.1245307,0,199.8106761,270.5015026,-2.09E-08,586.5724049,808.1619385,401.869546,0,-75.50884249,-107.7681052,131.1506463,0,0,58.05708005
825.8319994,3225,208.8488021,241.9852846,0,-79.03677307,-339.642968,-2.08E-08,-620.0709758,-573.6063543,-53.44917643,0,-55.777872,160.6355027,-111.2196709,0,0,813.6810214
825.8399994,3225,-90.73239675,-130.1891416,0,-72.59905572,252.9208128,-2.08E-08,221.9198408,-112.5574728,-220.7225805,0,195.3108089,-6.091613888,98.76178073,0,0,-745.1044275
825.8479994,3225,-59.68433647,52.16540725,0,193.6655885,-52.14922218,-2.07E-08,108.9665509,543.1442961,473.0401355,0,-211.318102,-6.74662926,16.53759746,0,0,908.3681615
825.8559994,3226,179.4263171,131.0841816,0,-221.9718368,-186.8463805,-2.06E-08,-585.3679792,-949.9090917,-437.785047,0,139.6392732,126.0765549,-83.55610743,0,0,-84.91033428
825.8639994,3226,-212.2922906,-158.1384036,0,184.1879365,323.8554007,-2.05E-08,649.8196287,754.1962962,305.9427975,0,1.109324158,-120.2146457,150.7105222,0,0,-204.0924877
825.8719994,3226,193.4438095,249.0073225,0,-26.76261848,-366.1346169,-2.04E-08,-603.451972,-459.868755,30.53605155,0,-93.88034383,145.4222712,-127.2702296,0,0,985.5170083
825.8799994,3226,-66.49026698,-115.3115852,0,-97.25214654,227.9300159,-2.04E-08,166.3931446,-226.5129431,-298.2066235,0,217.7323009,-19.54276003,73.36820143,0,0,-825.6115631
825.8879994,3226,-67.70270644,47.56013255,0,217.8617173,-22.37805879,-2.03E-08,181.1233633,613.6098026,480.9095976,0,-190.5349697,-28.4117108,24.99239185,0,0,846.1933761
825.8959994,3226,171.7257034,131.412023,0,-206.9401929,-201.1027046,-2.02E-08,-629.9129626,-950.183774,-421.2601282,0,129.0799367,124.9917554,-94.7858617,0,0,12.34404549
825.9039994,3226,-211.8296888,-173.0099154,0,165.8389377,355.7856129,-2.01E-08,655.9130164,721.2858292,272.5702088,0,9.070745554,-152.6550935,157.973941,0,0,-302.7365842
825.9119994,3226,238.967483,294.5443081,0,-6.873714876,-375.289897,-2.01E-08,-579.5410652,-406.6755121,71.27554557,0,-97.27728428,139.6387578,-115.2806813,0,0,1054.117527
825.9199994,3226,-43.35873517,-101.1272886,0,-99.42338785,225.5790274,-2.00E-08,154.5070089,-272.8044217,-345.9476682,0,267.389673,8.364784428,91.03790271,0,0,-890.470406
825.9279994,3226,-77.81240287,33.42778661,0,226.5449863,-6.834188934,-1.99E-08,222.862085,660.064893,487.7734198,0,-184.9678852,-37.70841438,46.45106296,0,0,808.4388877
825.9359994,3226,194.1560431,153.0314097,0,-212.2113166,-211.5941348,-1.98E-08,-652.6115578,-965.1840179,-424.0229417,0,128.1309191,124.1311809,-90.01995677,0,0,43.10717843
825.9439994,3226,-234.0889665,-195.8162806,0,160.0698732,383.3765501,-1.97E-08,659.2780395,711.0272465,243.7809013,0,30.68628743,-152.3064413,153.9518031,0,0,-373.5566571
825.9519994,3226,194.1869466,256.9410466,0,5.011544547,-360.846274,-1.97E-08,-575.8734912,-357.1820877,100.238582,0,-128.3076871,119.1447404,-140.3852019,0,0,1100.612995
825.9599994,3226,-62.62893009,-123.6513957,0,-108.4114507,239.1001435,-1.96E-08,111.5063586,-306.9779247,-354.9852664,0,245.0151171,-16.80203268,64.45430475,0,0,-869.6195743
825.9679994,3226,-84.55118527,21.73142658,0,231.975818,6.164639105,-1.95E-08,226.6492547,684.1699835,509.790335,0,-194.736596,-63.91610021,31.912483,0,0,811.6044048
825.9759994,3226,222.069261,175.0057458,0,-211.0821999,-252.9790269,-1.94E-08,-686.9286457,-983.2907396,-418.6969008,0,136.9847284,135.2694901,-108.6075586,0,0,73.73651557
825.9839994,3226,-239.5122617,-208.4884464,0,158.8614013,377.8454854,-1.93E-08,652.7997462,693.9900053,217.0883963,0,59.57286008,-136.7423046,165.5987417,0,0,-439.2749394
825.9919994,3226,167.4003826,228.47683,0,8.015086785,-374.8110611,-1.93E-08,-575.485772,-315.3964037,133.1407702,0,-151.3604116,98.35274832,-119.9513483,0,0,1130.514928
825.9999994,3226,-52.81581501,-120.1908244,0,-141.6633226,195.9375769,-1.92E-08,64.33569608,-350.7820345,-358.8855494,0,223.6954483,-42.55144681,62.43479217,0,0,-851.1343958
826.0079994,3226,-96.76678495,15.28535193,0,220.743955,22.43093452,-1.91E-08,244.7809218,705.5855114,508.8803241,0,-196.3611682,-83.53244392,56.02138644,0,0,778.6430215
826.0159994,3226,202.441232,165.7385154,0,-217.4697426,-252.2982224,-1.90E-08,-704.4274179,-972.0520956,-407.6748299,0,121.1725709,119.2334923,-78.76810142,0,0,120.5971962
826.0239994,3226,-236.4151125,-202.5003343,0,127.297671,363.744018,-1.89E-08,634.7682956,667.2576976,209.5924564,0,48.35424783,-166.5847447,181.8902522,0,0,-448.1627952
826.0319994,3226,194.8451501,268.4518204,0,1.521528864,-380.5668122,-1.89E-08,-568.3929358,-299.1926334,152.3077259,0,-155.4399923,87.10522594,-111.9977055,0,0,1153.90474
826.0399994,3226,-29.83151389,-93.24356048,0,-138.2303102,190.4386278,-1.88E-08,39.88637889,-390.8788917,-387.1356152,0,264.4600782,-12.53406667,66.48135804,0,0,-865.0455518
826.0479994,3226,-106.4811483,3.338125471,0,229.849564,21.61038267,-1.87E-08,265.1687123,715.8921207,502.71036,0,-180.5910857,-83.67107036,50.44050027,0,0,740.3192256
826.0559994,3226,226.2072984,187.6797357,0,-216.5153432,-290.2477089,-1.86E-08,-719.9954798,-987.5053767,-398.8491815,0,97.85791668,105.1077078,-122.5866192,0,0,164.4483094
826.0639994,3226,-227.960572,-200.9182575,0,136.1384057,362.4675945,-1.85E-08,634.3915216,632.882574,173.2715442,0,73.80511383,-159.7599875,169.4523462,0,0,-508.9809788
826.0719994,3226,162.698982,239.6976457,0,28.10054037,-369.5091629,-1.84E-08,-553.3967946,-273.0147038,159.7346745,0,-169.6997996,71.52616425,-103.2094684,0,0,1150.887957
826.0799994,3226,-24.78390393,-88.08006866,0,-137.5244867,182.0701769,-1.84E-08,15.31243852,-425.6857732,-397.8893649,0,232.0459086,-37.82174382,54.89089341,0,0,-845.8969579
826.0879994,3226,-98.01445865,8.312301474,0,246.9300574,49.9230077,-1.83E-08,302.7278334,733.8908418,488.4611785,0,-161.5582326,-82.62856884,76.20353986,0,0,689.6376045
826.0959994,3226,231.0750688,190.3128714,0,-197.8628176,-288.1652559,-1.82E-08,-726.782545,-985.3661384,-397.5041959,0,107.5376515,117.0607155,-101.3103773,0,0,190.8897309
826.1039994,3226,-223.303128,-206.6906043,0,132.8092177,365.6933254,-1.81E-08,628.2894777,610.205871,156.2378644,0,78.11956806,-169.5810448,157.9126597,0,0,-540.0378388
826.1119994,3227,165.7987875,232.7829344,0,34.2846435,-366.7013585,-1.80E-08,-531.2058127,-242.6299268,168.5019648,0,-163.4655511,60.48007762,-109.5982065,0,0,1138.672484
826.1199994,3227,-31.2472376,-106.1245247,0,-149.6485332,170.0058585,-1.80E-08,-21.18815078,-459.7065608,-413.1967452,0,228.2685925,-55.21511526,52.03848742,0,0,-847.1370841
826.1279994,3227,-134.0154017,-32.43785034,0,237.1478907,64.54698557,-1.79E-08,308.3865267,752.5261512,489.6354372,0,-192.8217768,-134.8547197,71.1537587,0,0,659.4102619
826.1359994,3227,213.3064679,170.5959764,0,-207.9987346,-306.1414144,-1.78E-08,-750.5900923,-983.5390244,-388.3131979,0,72.06443936,73.73253555,-111.2061587,0,0,227.6439345
826.1439994,3227,-249.1543993,-238.0905488,0,119.7612103,366.6437458,-1.77E-08,609.1519885,589.2036193,143.8526769,0,63.178001,-211.5189851,164.4937656,0,0,-553.2290877
826.1519994,3227,153.9707925,222.4978748,0,39.26535918,-353.2970991,-1.76E-08,-516.5629141,-204.684362,197.1072123,0,-184.924669,21.83755612,-91.29546137,0,0,1181.972744
826.1599994,3227,2.091172327,-82.33527615,0,-164.3865165,144.1177384,-1.75E-08,-47.46897271,-501.6652852,-421.9759413,0,242.0763631,-57.75646152,56.80570622,0,0,-824.0608183
826.1679994,3227,-118.3431392,-24.13030529,0,243.8405438,57.79690396,-1.75E-08,341.4140648,758.3726812,477.0332275,0,-157.6664412,-125.8128743,71.54293557,0,0,601.2251784
826.1759994,3227,244.5246173,203.6300903,0,-190.330609,-322.3483806,-1.74E-08,-743.3782437,-984.1742156,-394.1482657,0,89.65205433,99.94767924,-109.2741843,0,0,230.0542601
826.1839994,3227,-214.7575164,-210.739963,0,115.36702,367.3941581,-1.73E-08,610.0199607,550.3731141,105.2568343,0,92.75205441,-180.2349306,182.8260515,0,0,-636.4217791
826.1919994,3227,154.2888558,225.1816915,0,58.04325541,-340.5066919,-1.72E-08,-489.6456983,-172.8925194,198.1970558,0,-175.6636573,45.85167708,-73.08952273,0,0,1130.637267
826.1999994,3227,-4.763347051,-87.47670563,0,-155.2188995,148.614481,-1.71E-08,-70.5667537,-518.9127714,-435.1870915,0,230.4969217,-44.87564448,63.72565613,0,0,-834.9636513
826.2079994,3227,-141.078995,-46.00770366,0,245.5798324,90.11720123,-1.70E-08,361.3181684,784.1264107,483.2787239,0,-176.3678433,-142.0286525,85.23796529,0,0,567.5153836
826.2159994,3227,221.2822116,188.1414589,0,-193.5814433,-320.9873467,-1.70E-08,-759.0596366,-968.5638068,-365.1609119,0,57.99897414,88.51019711,-118.6759488,0,0,289.5802825
826.2239994,3227,-233.2171117,-232.5086006,0,96.78273684,371.9678721,-1.69E-08,596.7772097,527.9625745,107.5643221,0,72.33025847,-196.2029166,164.9846598,0,0,-624.6021897
826.2319994,3227,335.214321,397.0674713,0,-48.42355833,-604.6936963,-1.68E-08,-960.7662018,-681.176623,77.42486656,0,-213.3634158,143.0362771,-191.1580779,0,0,1553.210835
826.2399994,3227,185.072942,59.52010475,0,-327.7192813,-42.19129662,-1.67E-08,-514.852486,-1221.313409,-761.043704,0,328.9485041,99.64885129,-36.54928216,0,0,-892.67942
826.2479994,3227,-327.8773901,-218.1366239,0,368.1880373,422.0547796,-1.66E-08,1017.404658,1431.35769,662.697708,0,-113.8883205,-206.8479834,223.5383888,0,0,20.57137633
826.2559994,3227,315.9574506,334.9534363,0,-148.9884003,-520.4055035,-1.65E-08,-969.8372987,-968.6229618,-184.2444085,0,-59.6129084,186.1662162,-159.1231475,0,0,977.8653501
826.2639994,3227,-153.1458184,-207.6490273,0,-68.96269529,357.582981,-1.64E-08,357.5300703,-41.86644063,-267.6857598,0,221.402068,-90.67232605,141.5016332,0,0,-1079.956275
826.2719994,3227,-70.27601672,53.12214589,0,241.7829573,-35.91367403,-1.64E-08,211.0261028,726.3977466,558.063971,0,-249.7091938,-60.67892631,41.70420908,0,0,950.3917101
826.2799994,3227,226.3183198,163.3488174,0,-277.3069287,-261.1770205,-1.63E-08,-732.5385007,-1139.530479,-530.2616311,0,154.5200217,143.3952845,-93.5910036,0,0,-101.1921279
826.2879994,3227,-265.3787023,-224.3871209,0,168.1231714,395.2151833,-1.62E-08,749.928456,820.0898161,279.4847803,0,17.35085893,-164.6534941,191.0902686,0,0,-450.2185587
826.2959994,3227,203.3158514,264.4197464,0,-4.736236774,-371.5283534,-1.61E-08,-554.9672716,-346.9046623,115.8826619,0,-146.910405,111.5781703,-103.1523489,0,0,1063.74574
826.3039994,3227,-37.63616138,-106.7785453,0,-142.4784346,178.3169164,-1.60E-08,41.39837163,-409.4249538,-389.1585431,0,236.2937242,6.498134368,66.74978811,0,0,-880.3292863
826.3119994,3227,-154.3348911,-55.65495628,0,230.1550145,88.77459322,-1.59E-08,375.7850908,784.87251,489.6432354,0,-189.8682273,-84.57105449,90.25086513,0,0,574.8957595
826.3199994,3227,218.3331588,182.3238473,0,-220.188259,-299.4329268,-1.58E-08,-714.3970689,-970.1657449,-374.9481635,0,54.71564491,133.8101313,-100.9469384,0,0,230.6472692
826.3279994,3227,-221.0592428,-214.2082766,0,94.01742811,373.8012908,-1.58E-08,647.0881461,560.5853288,121.9878692,0,77.53675675,-131.8264174,170.5154554,0,0,-636.8964339
826.3359994,3227,160.011021,229.0203533,0,55.99031036,-322.7493509,-1.57E-08,-397.7260974,-117.1468296,231.9575837,0,-176.5093454,95.04951444,-74.03184348,0,0,1098.410614
826.3439994,3227,34.93229212,-51.54956534,0,-167.261404,114.0472878,-1.56E-08,-66.10382339,-542.0056891,-420.7354429,0,237.7512716,51.67350879,48.42964589,0,0,-781.3710181
826.3519994,3227,-132.9002512,-54.80361685,0,239.9211666,137.1611207,-1.55E-08,470.8140165,826.8267046,471.4109796,0,-139.5401717,-50.25267147,99.09814327,0,0,423.4645925
826.3599994,3227,244.4204516,212.0708097,0,-178.2683561,-328.7386925,-1.54E-08,-716.0655554,-908.7528683,-317.908187,0,47.66924572,191.4173527,-114.243153,0,0,358.192036
826.3679994,3228,-202.5726573,-218.4181094,0,68.51465235,374.2060391,-1.53E-08,600.1328225,458.9696238,56.82874864,0,110.1378168,-90.34724293,172.810484,0,0,-732.9419023
826.3759994,3228,144.9954142,211.2226804,0,72.92889294,-289.4042835,-1.52E-08,-341.0124057,-14.70918103,283.4050112,0,-192.1004181,102.5529016,-67.83740901,0,0,1114.40134
826.3839994,3228,38.72171487,-51.54962314,0,-194.2094729,92.42753001,-1.52E-08,-136.1443056,-610.5619173,-442.2615117,0,232.9539364,69.42281343,26.43062227,0,0,-753.1084408
826.3919994,3228,-175.1739487,-100.6029989,0,215.2438836,144.8464928,-1.51E-08,487.8290501,844.0013231,469.3695794,0,-150.8347563,-77.99111396,93.99466848,0,0,360.825279
826.3999994,3228,240.5022647,203.6946877,0,-200.5581922,-354.9446182,-1.50E-08,-746.1105708,-901.5975207,-296.4537711,0,12.0930809,165.0583719,-130.9128238,0,0,423.8471149
826.4079994,3228,-204.9966788,-229.0451109,0,39.22446762,375.2656141,-1.49E-08,570.8122261,407.2098068,19.83790081,0,123.8821903,-103.2500227,181.2879291,0,0,-791.8843082
826.4159994,3228,100.1625138,177.9371141,0,81.63625889,-300.7130787,-1.48E-08,-320.1061535,38.71854025,306.6408473,0,-201.6144852,80.59204169,-60.23841399,0,0,1112.88483
826.4239994,3228,45.26578201,-39.37897915,0,-206.0223712,55.40368135,-1.47E-08,-185.616776,-666.0137255,-461.0900727,0,216.5452551,56.47316573,7.562910972,0,0,-735.5727708
826.4319994,3228,-157.2813942,-70.54949839,0,228.1140007,179.0327201,-1.46E-08,523.0026973,848.8404712,455.3600883,0,-128.4706027,-74.89535506,125.9250324,0,0,290.034004
826.4399994,3228,256.2395841,240.9980038,0,-168.8869547,-352.7846143,-1.46E-08,-726.589395,-883.702502,-291.5114912,0,38.23289886,204.2255126,-100.5564473,0,0,431.7655313
826.4479994,3228,-182.3473292,-196.7349046,0,51.9407955,373.5515011,-1.45E-08,584.0913756,376.9261076,-15.42231883,0,149.7026962,-66.70479165,167.8860832,0,0,-850.2284022
826.4559994,3228,130.1549196,224.3319424,0,117.6675983,-275.3450219,-1.44E-08,-259.8806584,83.7257047,311.1546704,0,-187.1236437,109.0507466,-55.64472217,0,0,1086.751006
826.4639994,3228,65.4447273,-8.632205049,0,-176.9520221,57.34010213,-1.43E-08,-189.3776952,-680.8255826,-485.2400209,0,245.9582872,102.1778687,32.83343667,0,0,-738.9261763
826.4719994,3228,-195.7211234,-103.1678781,0,254.9625305,211.3716609,-1.42E-08,557.4586274,888.7306112,440.7149009,0,-115.8683016,-64.56445689,129.4021238,0,0,246.2493332
826.4799994,3228,243.4359044,238.1074178,0,-155.8807894,-338.5823166,-1.41E-08,-721.700799,-846.249914,-272.4113424,0,18.24948677,196.2918627,-121.2651769,0,0,494.4192449
826.4879994,3228,-197.7271609,-213.1840749,0,40.93409355,387.7104532,-1.40E-08,559.8693318,359.4020188,-30.15910867,0,161.2663824,-67.6173699,171.4731217,0,0,-853.0970117
826.4959994,3228,85.7451433,179.6430316,0,118.0444715,-254.471894,-1.40E-08,-253.743563,131.6419207,334.6953351,0,-195.5807527,86.34904285,-46.25631829,0,0,1102.622894
826.5039994,3228,76.45664725,-1.299427994,0,-204.3723346,41.26370942,-1.39E-08,-229.2709934,-712.847876,-478.4628487,0,232.3728522,82.91115421,13.5390687,0,0,-698.9858058
826.5119994,3228,-194.927792,-107.6840296,0,228.8302354,214.2772374,-1.38E-08,564.7083953,886.9209831,445.52508,0,-105.1300229,-78.73813199,115.045386,0,0,199.214691
826.5199994,3228,242.846152,238.6418798,0,-163.0181556,-359.102807,-1.37E-08,-735.8773041,-837.9478953,-251.4312043,0,11.96663154,181.8881215,-134.2629194,0,0,511.3383234
826.5279994,3228,-174.1596225,-189.203914,0,28.78516895,373.1122121,-1.36E-08,538.7685286,313.9371323,-52.38079274,0,171.2848495,-77.57148611,161.5229286,0,0,-901.8861246
826.5359994,3228,90.87548921,194.3119683,0,130.6729131,-251.2827624,-1.35E-08,-225.4285434,163.9238203,342.2109993,0,-182.7812397,82.07460079,-53.37668977,0,0,1057.854562
826.5439994,3228,79.98920279,5.594808494,0,-197.1820506,23.71487007,-1.34E-08,-260.0473631,-729.7536298,-485.8432563,0,238.7476884,80.71329224,10.16686451,0,0,-697.8923365
826.5519994,3228,-201.8052194,-116.2474335,0,240.858439,235.505031,-1.33E-08,573.1114113,897.3291642,445.5551018,0,-98.70113215,-98.77395818,139.8839171,0,0,165.1929531
826.5599994,3228,257.9607062,256.2326023,0,-151.6745645,-365.3455386,-1.33E-08,-738.2177004,-822.4957032,-232.9695553,0,11.54131127,177.1008222,-134.8733363,0,0,553.0564149
826.5679994,3228,-160.9437225,-186.2359666,0,8.792709668,355.6141585,-1.32E-08,515.8677412,275.9706133,-79.07050345,0,181.1703028,-78.90689037,146.6745541,0,0,-926.4461925
826.5759994,3228,90.67804519,189.9729483,0,119.85799,-252.2805319,-1.31E-08,-207.724512,189.9755992,355.9651209,0,-196.308532,59.45917468,-47.71015693,0,0,1056.067541
826.5839994,3228,117.9736809,42.43984951,0,-215.8727824,-14.61348634,-1.30E-08,-288.0665512,-774.8044905,-498.5591027,0,242.2958609,79.43323943,-3.837290874,0,0,-683.2861876
826.5919994,3228,-196.6170391,-115.5845633,0,226.7699931,218.5924488,-1.29E-08,582.4953878,873.879084,408.5101616,0,-74.16927887,-98.16110711,134.8914317,0,0,74.08492411
826.5999994,3228,247.4772531,249.0188264,0,-151.3590718,-385.2771965,-1.28E-08,-746.6811945,-815.4269335,-236.8497183,0,-8.768578339,160.0815179,-127.8141428,0,0,550.1707004
826.6079994,3228,-173.7651639,-198.2904625,0,4.995384459,350.9326881,-1.27E-08,493.3220964,249.4122617,-104.1752265,0,166.6275411,-99.17536143,156.415748,0,0,-954.928774
826.6159994,3228,52.93546061,153.8910134,0,119.8074445,-236.1032217,-1.27E-08,-196.9371101,226.3641007,367.1984956,0,-215.6314559,33.7903868,-39.15853056,0,0,1042.821997
826.6239994,3229,122.8828615,40.90912417,0,-242.7208679,-29.76038215,-1.26E-08,-334.6096278,-807.981517,-504.7830238,0,218.3482305,57.16990705,-12.91838053,0,0,-661.352502
826.6319994,3229,-204.4179381,-127.7779011,0,211.6778986,227.7677894,-1.25E-08,593.3925603,876.4995142,398.5253547,0,-75.71108301,-119.4931571,142.6488596,0,0,24.25496118
826.6399994,3229,225.5190605,229.6105275,0,-160.1718579,-397.3349278,-1.24E-08,-748.3567886,-792.6500246,-213.6055833,0,-24.33837689,145.6398573,-136.8710588,0,0,580.770413
826.6479994,3229,-159.0712695,-195.1378468,0,-27.87761245,333.0925208,-1.23E-08,462.5793901,196.5403785,-127.6078769,0,168.2774708,-115.5723619,134.8589141,0,0,-990.6083926
826.6559994,3229,39.18210911,141.5364364,0,122.4944026,-225.4218897,-1.22E-08,-172.8523634,253.9950413,366.934666,0,-215.3611752,11.38847433,-26.68884858,0,0,1000.753795
826.6639994,3229,97.78300113,22.66045491,0,-243.6856296,-45.0223883,-1.21E-08,-365.4161906,-821.7978431,-509.2775078,0,194.3273305,34.60591188,-11.99954921,0,0,-632.115964
826.6719994,3229,-206.6754332,-132.9347616,0,201.1602998,232.7463684,-1.21E-08,595.4200745,866.5243205,380.1383945,0,-95.52710389,-155.9070424,137.1544421,0,0,-13.13054623
826.6799994,3229,214.583994,225.8140475,0,-151.0141125,-391.7041173,-1.20E-08,-747.8357027,-770.235761,-217.8825704,0,-42.35639823,124.9222542,-117.4625197,0,0,596.897416
826.6879994,3229,-144.8873706,-246.075449,0,-163.9491131,378.8455669,-1.19E-08,340.486852,-254.207432,-503.9936776,0,331.199836,-100.9084399,162.6233105,0,0,-1573.877705
826.6959994,3229,242.4460817,255.2724031,0,-117.2474457,-423.5136952,-1.18E-08,-726.4510719,-718.0786218,-195.112645,0,-22.7192088,136.1872068,-110.7203228,0,0,695.1877008
826.7039994,3229,538.431001,422.5146013,0,-523.2439379,-712.8397074,-1.17E-08,-1647.23236,-2275.926231,-1003.199392,0,220.6986403,322.4967668,-265.8051662,0,0,226.8048208
826.7119994,3229,66.03197906,21.62536266,0,-147.6840333,-46.85954052,-1.16E-08,-233.7058606,-529.3614125,-361.5103782,0,154.2752068,28.24860689,15.13789961,0,0,-404.7873244
826.7199994,3229,127.1262217,119.6145373,0,-120.8318138,-228.7561912,-1.15E-08,-456.851348,-581.6283561,-262.1780854,0,57.14790748,75.90446372,-40.75934023,0,0,152.0311402
826.7279994,3229,-278.3749863,-239.70079,0,113.5510889,272.6698805,-1.14E-08,549.5882302,595.8729078,118.2726546,0,23.57230851,-156.8816365,168.9952357,0,0,-465.6230437
826.7359994,3229,-71.51634655,1.030335358,0,21.57704036,-221.0618333,-1.14E-08,-256.2934517,-31.90409353,88.58090653,0,-154.0913179,-25.68433779,-25.82392538,0,0,632.8161352
826.7439994,3229,-104.1662044,-138.2576785,0,-186.2657911,-34.68677428,-1.13E-08,-237.5267439,-572.502914,-444.1492475,0,102.1348894,-48.74891226,2.403394418,0,0,-515.5706302
826.7519994,3229,-429.3359142,-316.6485778,0,205.2597668,193.8044218,-1.12E-08,587.7627517,903.5414158,315.8475291,0,-166.3249444,-207.293418,119.0404194,0,0,40.05045391
826.7599994,3229,-75.93959144,-35.17487346,0,-191.0122019,-383.9262099,-1.11E-08,-722.3739809,-799.1996613,-385.5631934,0,-80.11824135,57.03467487,-154.7065763,0,0,405.8180922
826.7679994,3229,-494.4037281,-459.6064839,0,-14.73099736,308.2903698,-1.10E-08,470.5334976,321.4822616,-173.3469512,0,11.49971705,-224.5418608,111.5345309,0,0,-846.0091247
826.7759994,3229,-258.7792212,-126.5729229,0,79.10042597,-202.5251345,-1.09E-08,-130.8353404,257.4252462,202.7831267,0,-304.84335,-109.4088926,-56.68519185,0,0,834.683782
826.7839994,3229,-170.9412531,-203.5697866,0,-254.4552664,-87.01735462,-1.08E-08,-375.2163273,-746.1896713,-561.5866914,0,71.08884798,-55.92881287,-71.41528473,0,0,-520.4045256
826.7919994,3229,-476.2290196,-383.2921553,0,165.6724416,247.0114984,-1.08E-08,613.7572373,902.421835,279.0813641,0,-180.8928673,-260.223519,98.21514215,0,0,-96.50464238
826.7999994,3229,11.14169332,44.06234102,0,-167.3924409,-400.4999672,-1.07E-08,-713.346363,-686.3835513,-250.0336697,0,-143.2775148,27.86206423,-178.5909646,0,0,628.6108555
826.8079994,3229,-322.2281133,-335.5847951,0,-59.63435727,301.519721,-1.06E-08,422.7021324,176.524843,-211.4534334,0,96.49819543,-190.9906388,83.31781775,0,0,-952.8694628
826.8159994,3229,-104.6921137,9.6378486,0,118.8341656,-187.0090721,-1.05E-08,-52.92285379,382.4431499,324.9807415,0,-246.5894923,-71.76958838,-56.07914645,0,0,886.1898371
826.8239994,3229,13.11952004,-48.26867296,0,-251.9133165,-103.9296062,-1.04E-08,-414.5289164,-804.0530964,-531.112441,0,156.5273986,15.33668972,-69.95172574,0,0,-502.116092
826.8319994,3229,-343.2667397,-275.62733,0,178.0812553,279.4566268,-1.03E-08,649.1974937,904.6026767,318.8900136,0,-105.9423044,-222.8876011,123.9012583,0,0,-170.1567665
826.8399994,3229,159.7362426,180.0501699,0,-129.6455538,-406.6333524,-1.02E-08,-690.1844286,-623.8254596,-145.0313123,0,-112.6777506,59.08360276,-165.4491176,0,0,722.3458973
826.8479994,3229,-175.9042547,-226.2504396,0,-63.63170017,301.6506586,-1.02E-08,398.5407905,91.61773648,-227.7316582,0,186.7665727,-133.8741977,96.75393693,0,0,-1036.575083
826.8559994,3229,-35.53238013,62.60846465,0,155.3508441,-167.1509871,-1.01E-08,-3.541968317,451.4053567,389.8625641,0,-214.4739793,-46.79055207,-31.9256028,0,0,879.9325553
826.8639994,3229,106.4696208,30.7157069,0,-241.5010415,-130.2054865,-1.00E-08,-444.2643643,-838.0038102,-496.6390904,0,167.3215846,36.24492313,-73.41050574,0,0,-456.8309891
826.8719994,3229,-272.2311917,-221.905382,0,188.6998591,290.2988409,-9.90E-09,672.3871521,899.8062882,341.2929597,0,-62.72705399,-193.0618851,125.5608144,0,0,-212.5703368
826.8799994,3230,188.8658984,203.0136326,0,-113.2221834,-390.8908605,-9.80E-09,-676.2735409,-583.0690613,-88.23553843,0,-100.4063327,82.52492782,-174.0113661,0,0,761.8205056
826.8879994,3230,-142.9522271,-200.5798842,0,-74.49341732,314.1334069,-9.70E-09,369.9403177,55.02366045,-210.6946696,0,181.0596515,-135.3907207,77.2899245,0,0,-1029.456176
826.8959994,3230,-1.103037638,100.9598862,0,180.3504293,-136.3964007,-9.70E-09,36.53980514,501.9030455,442.3971576,0,-217.9092694,-48.77011524,-34.52816016,0,0,898.1285843
826.9039994,3230,165.8977186,94.87505135,0,-217.6650019,-119.7671426,-9.60E-09,-444.9285658,-853.262184,-476.931332,0,189.1423699,68.84122656,-74.53061682,0,0,-419.9082577
826.9119994,3230,-228.7459904,-174.688064,0,214.0306053,317.8214097,-9.50E-09,707.3229535,895.0815373,344.5204264,0,-29.93680077,-165.5363355,146.0091808,0,0,-251.4018602
826.9199994,3230,221.4320392,244.3632785,0,-75.16896017,-393.1860947,-9.40E-09,-650.5005967,-552.9667353,-67.55519215,0,-90.98330532,110.1236922,-140.4687747,0,0,789.7404177
826.9279994,3230,-115.9882229,-173.1782781,0,-62.63166356,306.5816514,-9.30E-09,362.6242568,29.14257786,-225.9509306,0,196.393037,-96.42919693,114.6647518,0,0,-1028.778375
826.9359994,3230,-6.307402388,100.474133,0,196.286103,-114.6955415,-9.20E-09,82.18295449,558.2451597,485.313707,0,-220.6854993,-16.59024697,1.537000225,0,0,928.2982364
826.9439994,3230,177.4028022,106.4117942,0,-224.0485614,-132.6092844,-9.10E-09,-465.7757418,-849.0196432,-433.8973057,0,181.5892503,106.1629841,-82.29186705,0,0,-321.8265399
826.9519994,3230,-213.0150363,-165.0741353,0,194.9471234,337.1053845,-9.10E-09,715.1625882,906.6583072,377.5203229,0,-15.50370971,-141.9207073,131.1222056,0,0,-227.4752311
826.9599994,3230,242.7502798,270.2097876,0,-75.87493251,-366.4594907,-9.00E-09,-617.0938193,-497.4557006,2.668063265,0,-81.53675636,145.6760621,-135.6528299,0,0,872.6216685
826.9679994,3230,-77.79050391,-141.7962051,0,-73.67816002,321.0750397,-8.90E-09,364.5743446,12.3489949,-202.7644988,0,232.7825582,-43.3665407,119.9270859,0,0,-1001.738232
826.9759994,3230,22.32128148,118.472575,0,199.6884019,-79.46820448,-8.80E-09,130.1349232,599.5056983,530.0933667,0,-189.9595709,10.76871836,21.96717074,0,0,925.4498144
826.9839994,3230,200.8973849,124.0181236,0,-220.2406914,-123.153221,-8.70E-09,-457.4851825,-843.8711537,-400.9123012,0,199.9169837,145.2753226,-44.42716953,0,0,-280.0822966
826.9919994,3230,-225.4839412,-184.2827112,0,200.9299918,366.7858487,-8.60E-09,745.8927558,921.5943764,395.1142696,0,0.961257267,-105.7405316,173.0632275,0,0,-248.6022958
826.9999994,3230,237.7355055,262.2880936,0,-61.43485405,-345.1706752,-8.60E-09,-592.5484567,-446.3980274,70.35791271,0,-97.51843423,161.1206056,-120.8758993,0,0,955.9221806
827.0079994,3230,-65.09368361,-137.4092196,0,-84.86343287,324.0377066,-8.50E-09,349.795778,-14.71096121,-181.8532823,0,240.1740432,-18.3265212,109.7826506,0,0,-949.4057611
827.0159994,3230,-4.020644846,95.42876921,0,194.3295191,-60.62482535,-8.40E-09,157.6268718,626.0243051,550.8734855,0,-184.6827941,32.61880092,6.971592209,0,0,939.9340698
827.0239994,3230,189.104245,119.7759932,0,-233.056452,-128.7606735,-8.30E-09,-490.5772589,-861.1687603,-387.0166606,0,182.0082964,160.8132602,-63.8340602,0,0,-194.399477
827.0319994,3230,-219.3023408,-181.1999166,0,185.2226448,372.0770272,-8.20E-09,742.1912379,893.03893,383.5483904,0,5.801303764,-94.94219395,161.1684847,0,0,-250.0259457
827.0399994,3230,234.9006537,263.0514547,0,-64.42347708,-360.5896191,-8.10E-09,-579.0833672,-440.4403642,70.69246211,0,-95.88258109,187.5140354,-138.4327869,0,0,979.0446717
827.0479994,3230,-85.41201667,-157.0838986,0,-101.8234849,309.908495,-8.10E-09,317.3012678,-64.73425244,-225.0682249,0,229.7702996,0.32118011,107.2972789,0,0,-958.0140399
827.0559994,3230,-15.7032293,83.45915887,0,199.9016856,-47.07876154,-8.00E-09,186.3902962,643.9304114,534.7290789,0,-203.3206304,28.99837306,21.8211547,0,0,908.1075481
827.0639994,3230,218.0204202,146.6841178,0,-234.1997064,-166.9683804,-7.90E-09,-501.3956808,-893.8874363,-416.9786685,0,179.7632186,184.7922111,-72.80777505,0,0,-191.8275184
827.0719994,3230,-228.8332576,-196.5070433,0,172.7167478,359.9382844,-7.80E-09,736.7949587,854.1566466,325.4388548,0,8.212388966,-84.6550731,164.863887,0,0,-331.8175344
827.0799994,3230,222.9148862,251.7751358,0,-54.11258413,-352.5861746,-7.70E-09,-567.1813519,-423.672975,58.89719365,0,-116.9166843,181.2238865,-126.8302569,0,0,968.3656649
827.0879994,3230,-80.41681485,-159.5918396,0,-104.9420719,303.795504,-7.60E-09,292.5363415,-111.3255124,-266.4972972,0,237.8616212,12.27096513,98.99725128,0,0,-994.1712529
827.0959994,3230,-60.71482092,36.3591514,0,202.9493115,-23.52802103,-7.60E-09,195.4332377,664.3982616,529.2844909,0,-209.5513073,19.99421063,13.0238108,0,0,868.7465452
827.1039994,3230,210.0300407,72.71376456,0,-363.4844641,-66.57542883,-7.50E-09,-537.5655172,-1233.628822,-714.0542844,0,316.6646234,177.7021091,-79.97460675,0,0,-809.4904996
827.1119994,3230,-310.3026437,-332.2272225,0,129.7366669,593.2967681,-7.40E-09,1030.268679,904.4086891,147.8757565,0,171.8916989,-129.6742562,218.0518175,0,0,-1133.79508
827.1199994,3230,229.6883335,344.1501122,0,106.149842,-484.4277178,-7.30E-09,-559.7604898,0.81598268,432.5408245,0,-286.6961605,195.7524384,-166.620139,0,0,1768.087647
827.1279994,3230,75.61137066,-42.4738664,0,-259.4827836,143.0311351,-7.20E-09,-118.9978849,-757.8357718,-585.2303108,0,347.3777319,99.78274142,16.18318427,0,0,-1131.370651
827.1359994,3231,-202.239943,-117.5069532,0,258.0502777,231.1909111,-7.20E-09,670.5971043,1047.403305,521.7961401,0,-97.49056423,-61.40109991,104.7199026,0,0,182.4400988
827.1439994,3231,290.8741542,296.9305854,0,-153.1016127,-456.4136818,-7.10E-09,-787.3168849,-781.8350595,-138.5774381,0,-38.32528759,230.8498774,-210.9628638,0,0,815.3029623
827.1519994,3231,-159.9843602,-218.8862447,0,-55.269209,380.5008767,-7.00E-09,536.5769896,181.2660004,-187.9701702,0,239.5273137,-49.96809381,87.75241325,0,0,-1193.652135
827.1599994,3231,43.81928932,150.5179347,0,165.6188609,-190.6268566,-6.90E-09,-41.44231468,446.0509976,460.1597299,0,-216.4371501,67.80845633,-100.5719859,0,0,1073.26008
827.1679994,3231,188.5989444,104.4695871,0,-241.222464,-89.33493671,-6.80E-09,-415.1957515,-852.5100287,-470.4322564,0,223.6510709,142.2199881,-125.50404,0,0,-465.964332
827.1759994,3231,-201.2803597,-162.3288919,0,179.6295521,330.0428512,-6.70E-09,687.3204559,849.9862078,326.0422537,0,16.5053628,-80.54629671,83.57751544,0,0,-295.0032539
827.1839994,3231,213.8397568,243.2475057,0,-80.72435803,-360.1708779,-6.70E-09,-617.1778657,-473.7383103,25.46707736,0,-93.13366224,174.3066271,-188.5154383,0,0,886.620921
827.1919994,3231,-86.59202707,-165.6198618,0,-130.1261492,282.540786,-6.60E-09,269.542511,-112.5475033,-271.6993276,0,237.5353534,-19.0007533,34.60254824,0,0,-1078.668096
827.1999994,3231,-45.073924,51.19197528,0,172.5765356,-66.05980445,-6.50E-09,144.3871974,614.8516488,499.19117,0,-194.5667985,11.91623097,-48.50744432,0,0,792.9220952
827.2079994,3231,194.5796962,128.9747956,0,-267.0801055,-188.6236995,-6.40E-09,-559.9146884,-908.0271009,-393.3161225,0,144.0682074,150.5375412,-148.2874375,0,0,-214.6558481
827.2159994,3231,-217.7073032,-192.9101345,0,111.1029556,329.4277296,-6.30E-09,660.8502773,756.269616,276.0007339,0,26.95060557,-96.4036191,83.28775857,0,0,-481.6837793
827.2239994,3231,194.7746558,239.0981172,0,-70.58350707,-371.3073768,-6.30E-09,-557.6359451,-356.2184004,105.0773978,0,-134.1769048,157.3551035,-175.372086,0,0,924.8579988
827.2319994,3231,-42.81302425,-123.8169779,0,-168.5603141,217.8295111,-6.20E-09,167.9748293,-243.6339743,-326.9844627,0,238.7020391,12.21589591,40.27400757,0,0,-1063.041477
827.2399994,3231,-94.60135234,1.711527759,0,172.8370618,-23.49511705,-6.10E-09,236.2795366,704.1970873,485.3488889,0,-183.0580165,-8.613522893,1.298913377,0,0,659.4177833
827.2479994,3231,353.1396717,207.237886,0,-541.3735322,-394.4161986,-6.00E-09,-1176.908121,-1930.836862,-938.3379928,0,281.2425042,248.2799431,-223.6511732,0,0,-506.4316692
827.2559994,3231,-27.28530905,-203.8689126,0,-386.4881068,285.7716558,-5.90E-09,-17.98681199,-925.8564666,-836.2676019,0,458.828816,13.96260578,40.27930625,0,0,-1960.140838
827.2639994,3231,147.7555996,114.4676668,0,-211.8954065,-228.0864918,-5.90E-09,-534.3334581,-724.5307317,-284.9733957,0,65.03941196,129.034453,-120.9509624,0,0,33.10034311
827.2719994,3231,-18.06278425,-99.31424962,0,-217.4488471,110.1803824,-5.80E-09,-49.60169544,-480.3344636,-401.2180109,0,210.2957174,7.30652467,-4.264102999,0,0,-945.6031897
827.2799994,3231,-183.7856977,-74.56625897,0,232.5004141,82.86131173,-5.70E-09,493.2978264,1019.764027,601.7247959,0,-223.4637246,-111.8014224,39.39791711,0,0,516.8377084
827.2879994,3231,228.6617135,208.355683,0,-220.2185118,-355.8561404,-5.60E-09,-680.298606,-799.0094459,-246.7375855,0,4.036562194,137.0662505,-177.4598352,0,0,336.923818
827.2959994,3231,-136.61285,-176.0592362,0,-48.90540615,277.3262885,-5.50E-09,420.2042593,204.7114984,-129.8398004,0,166.3744985,-77.77037159,70.34286676,0,0,-989.8128317
827.3039994,3231,-5.510971358,99.25933286,0,135.5449267,-210.3016006,-5.50E-09,-42.70750175,458.1312021,418.0416654,0,-227.542454,4.712986513,-80.33192393,0,0,902.9794121
827.3119994,3231,104.2975179,32.0745758,0,-265.9598063,-152.0789373,-5.40E-09,-465.3985982,-847.0650581,-490.7839379,0,156.5152717,55.84986941,-126.5316156,0,0,-558.6697508
827.3199994,3231,-222.8365391,-165.471267,0,157.666944,190.7495076,-5.30E-09,563.3051303,821.1128305,319.7631541,0,-77.58076229,-165.0133208,35.45176517,0,0,-229.6777834
827.3279994,3231,178.5508909,216.1485689,0,-87.71799973,-406.6378989,-5.20E-09,-574.9724662,-424.7336729,-6.801601478,0,-122.033438,78.88417978,-196.6115699,0,0,712.6940111
827.3359994,3231,-91.74242431,-149.8521241,0,-121.9766815,156.5117113,-5.20E-09,151.9978304,-164.4735189,-308.9191744,0,180.5884663,-73.72054406,-0.545755412,0,0,-1026.014983
827.3439994,3231,-101.22768,10.56696789,0,180.0344989,-106.6493566,-5.10E-09,168.5729923,669.8899736,440.5879625,0,-224.6699435,-86.08578652,-51.89202076,0,0,653.0974951
827.3519994,3231,178.1719366,133.4608355,0,-245.8614017,-288.6082386,-5.00E-09,-604.4145088,-893.4151496,-429.3692819,0,94.18649909,70.74891932,-144.9838114,0,0,-199.5450683
827.3599994,3231,-200.4308645,-175.2738072,0,123.2200209,235.2456096,-4.90E-09,595.177062,698.5073548,179.4995748,0,17.68133167,-164.5537764,98.11047166,0,0,-573.9506468
827.3679994,3231,167.0480903,221.9674466,0,-30.20725014,-394.9686183,-4.80E-09,-508.4637361,-268.434749,72.47248446,0,-148.8770681,67.0856555,-138.313501,0,0,810.8036701
827.3759994,3231,-36.42071318,-102.2722261,0,-144.4166674,139.8840792,-4.80E-09,61.4214322,-309.003483,-388.2799948,0,203.5400758,-50.40496544,37.04306776,0,0,-1070.535518
827.3839994,3231,-83.56724335,18.91689367,0,211.3764617,-24.27315289,-4.70E-09,286.9540224,765.5646132,429.5428133,0,-184.5395238,-85.52143946,21.02251324,0,0,485.8091914
827.3919994,3232,224.7252707,181.2746522,0,-222.1224158,-295.0172567,-4.60E-09,-648.4602202,-902.0000039,-426.6262374,0,98.18751158,102.8587363,-113.7477282,0,0,-106.6033089
827.3999994,3232,-202.3606377,-185.2989661,0,135.2031056,311.3964613,-4.50E-09,623.2306925,680.6221333,123.20013,0,63.41931973,-158.5367761,155.4906749,0,0,-739.5413431
827.4079994,3232,174.439662,241.7854325,0,27.7147596,-359.9801282,-4.50E-09,-468.9342052,-174.8763491,116.0471929,0,-151.9516512,71.14137586,-107.910765,0,0,879.823639
827.4159994,3232,-1.146832611,-72.5004061,0,-130.7608745,151.5718395,-4.40E-09,25.09959006,-363.8656872,-426.3974187,0,232.7605093,-35.9974073,40.29278075,0,0,-1072.200029
827.4239994,3232,-75.13237336,24.80573365,0,241.4002392,27.40198155,-4.30E-09,339.3032956,819.1953275,421.5754648,0,-163.3813518,-92.02507108,38.11328337,0,0,434.9124742
827.4319994,3232,247.1852943,204.3632638,0,-203.0106509,-308.9138698,-4.20E-09,-668.2323811,-906.3361717,-445.2246483,0,101.9202133,115.2939375,-124.7433834,0,0,-53.90286256
827.4399994,3232,-197.453748,-185.2005977,0,131.5505651,306.8029714,-4.20E-09,625.3072267,650.3980089,56.53231759,0,82.87432703,-158.0784821,156.0124802,0,0,-824.6073554
827.4479994,3232,196.1800511,269.3280837,0,38.72780356,-387.1557037,-4.10E-09,-448.6251404,-139.538557,94.27822943,0,-160.9003204,69.68002532,-112.5768073,0,0,882.637173
827.4559994,3232,30.06259743,-46.79085279,0,-137.7704198,116.1059707,-4.00E-09,0.112174227,-420.7257518,-499.3472285,0,256.9845421,-11.46585858,37.53547822,0,0,-1127.127959
827.4639994,3232,-88.57063769,14.75791396,0,256.6668216,39.54355581,-3.90E-09,371.8332777,843.9909344,380.961419,0,-148.2996465,-84.28707497,78.55943454,0,0,338.7794781
827.4719994,3232,267.1139492,232.2208845,0,-196.179269,-327.9037435,-3.90E-09,-685.3132793,-907.8770026,-460.8329398,0,86.79234465,122.0687332,-108.0556146,0,0,-38.92632494
827.4799994,3232,-181.1439644,-176.9073579,0,118.4437743,318.2382793,-3.80E-09,623.0041961,608.0421694,9.438305291,0,101.8013202,-143.7159751,160.6562292,0,0,-918.9503345
827.4879994,3232,171.4365237,249.6867764,0,49.68896147,-359.4061628,-3.70E-09,-425.4683592,-105.1995978,97.47696966,0,-168.9024423,76.99493812,-83.85330982,0,0,850.4479056
827.4959994,3232,12.57236343,-61.73434874,0,-156.1891086,102.11463,-3.60E-09,-35.61456303,-461.1497127,-516.0347891,0,227.6935643,-19.77015309,44.69324381,0,0,-1126.88368
827.5039994,3232,-119.4729292,-20.97330669,0,237.4080866,38.60769461,-3.60E-09,390.7385442,843.9924942,360.8652118,0,-167.3964554,-107.2082259,61.76961444,0,0,266.1560849
827.5119994,3232,251.0634966,219.6574233,0,-199.158088,-334.0335043,-3.50E-09,-687.1022822,-904.9964032,-467.0733847,0,63.84865301,122.0862064,-102.6737152,0,0,-28.7896689
827.5199994,3232,-200.3951047,-197.5620127,0,102.5349826,315.3403758,-3.40E-09,619.4138781,589.1698244,-6.83730607,0,88.87702781,-151.4979145,191.6234873,0,0,-949.5264926
827.5279994,3232,144.0031234,223.0794692,0,41.72347421,-380.4180826,-3.30E-09,-412.4656791,-66.12084142,115.001331,0,-199.4942934,50.19564716,-81.54885403,0,0,863.785967
827.5359994,3232,23.38661914,-61.44933145,0,-177.1830325,82.43662166,-3.30E-09,-68.32671591,-500.7930067,-532.651496,0,215.1985967,-25.57477713,44.77650504,0,0,-1111.580104
827.5439994,3232,-119.5788408,-38.25807634,0,229.2098447,64.96184503,-3.20E-09,409.1499424,850.759073,357.6267246,0,-154.9428587,-115.8772966,91.43628508,0,0,212.1684713
827.5519994,3232,237.3477066,202.1762739,0,-200.1111364,-336.9300859,-3.10E-09,-711.7984607,-895.1113546,-438.6195311,0,55.28229098,110.4860396,-106.3156203,0,0,15.99709552
827.5599994,3232,-206.8135906,-216.7486532,0,86.75171898,326.0790362,-3.10E-09,589.7877978,551.8263656,-0.439450336,0,84.70911342,-166.4194102,179.0935112,0,0,-957.9880893
827.5679994,3232,163.0739847,226.4876514,0,49.95588515,-359.6511366,-3.00E-09,-398.9579079,-45.4351161,145.6312079,0,-199.7104482,37.6321819,-73.12249136,0,0,865.3122617
827.5759994,3232,58.15430691,-33.96273942,0,-168.3568398,71.61620935,-2.90E-09,-94.39937564,-533.8054064,-529.6145892,0,235.5604278,-9.625219517,40.39391813,0,0,-1095.571263
827.5839994,3232,-118.0522676,-37.80339367,0,246.2474042,69.85619274,-2.80E-09,437.3510446,863.3873263,366.2398935,0,-138.7557421,-100.5238646,95.08402684,0,0,175.0143025
827.5919994,3232,247.987004,210.6831372,0,-184.360375,-358.2078967,-2.80E-09,-714.6931362,-887.5421442,-430.9477964,0,45.40162041,125.1187895,-98.83217926,0,0,43.65325653
827.5999994,3232,-193.9553121,-206.9776342,0,87.90251829,316.7330144,-2.70E-09,583.653111,524.6006937,-30.882903,0,92.6032612,-156.1254655,169.9517519,0,0,-1001.667179
827.6079994,3232,159.3244814,231.7886231,0,58.85620484,-353.0786033,-2.60E-09,-368.6150991,-7.715390071,155.748431,0,-208.0261908,40.92048701,-94.27696698,0,0,853.7530755
827.6159994,3232,56.55451301,-30.40412236,0,-184.7065463,63.47537812,-2.50E-09,-124.7632331,-566.5346271,-551.2614319,0,221.6902308,-5.617330566,34.34961302,0,0,-1097.805477
827.6239994,3232,-143.1836478,-49.94211847,0,241.5480139,94.93277998,-2.50E-09,459.3981939,881.1792922,344.0983223,0,-145.9303383,-118.1953415,105.6817523,0,0,111.8349966
827.6319994,3232,264.940623,243.5784242,0,-186.0621856,-358.3197379,-2.40E-09,-706.6920484,-879.6693905,-444.454238,0,38.72266873,118.185825,-111.5628246,0,0,55.81136387
827.6399994,3232,-173.3908264,-187.0924201,0,75.81031586,325.1008072,-2.30E-09,586.8847368,479.8882659,-91.2330056,0,120.4769955,-147.9523199,187.9606048,0,0,-1078.414366
827.6479994,3233,107.706452,193.453187,0,83.61881346,-322.6165362,-2.30E-09,-325.8503758,47.54859687,148.132762,0,-210.9992081,40.83500554,-61.42439033,0,0,831.3133666
827.6559994,3233,49.36199404,-29.90459011,0,-185.8458614,55.46498819,-2.20E-09,-134.329025,-583.3869439,-563.9335131,0,191.8093343,-7.72520486,16.16917204,0,0,-1051.025736
827.6639994,3233,-269.0554188,-186.1397474,0,318.8086841,356.9533784,-2.10E-09,957.8743099,1336.534158,438.0364914,0,-104.2378413,-198.6778766,203.356496,0,0,-376.701008
827.6719994,3233,93.08312427,7.208713252,0,-193.3429338,27.49802412,-2.10E-09,-200.3805035,-674.5194381,-582.8579412,0,233.8535645,70.81838021,19.69429538,0,0,-1027.541471
827.6799994,3233,-178.9505549,-358.2106625,0,-222.1578788,610.5361562,-2.00E-09,576.0687294,-358.7972989,-831.7058665,0,519.9795579,-103.7216424,223.3447113,0,0,-2759.492677
827.6879994,3233,-88.39034073,-94.85079896,0,52.23415036,199.6791136,-1.90E-09,371.6359658,296.0450893,-94.38666317,0,79.73954392,-58.50950572,113.1267611,0,0,-752.0175621
827.6959994,3233,6.109957465,-38.3900224,0,-69.15503403,106.4031724,-1.80E-09,71.06712769,-189.8219315,-332.7127254,0,148.6249884,14.51139898,61.91949659,0,0,-851.6581095
827.7039994,3233,30.89762584,112.0404043,0,158.2573584,-115.6904352,-1.80E-09,56.95739458,433.4377071,233.1731676,0,-163.488156,31.56363959,20.29918433,0,0,495.0310823
827.7119994,3233,156.7710614,125.7654027,0,-123.4642672,-147.8137658,-1.70E-09,-364.9241069,-549.5861388,-364.2910521,0,82.8868605,125.279683,-19.86875302,0,0,-262.6871359
827.7199994,3233,-110.2071888,-113.6269429,0,68.68924531,251.1114471,-1.60E-09,461.9745916,403.8790091,-37.54944617,0,84.46582809,-59.74279747,156.6322723,0,0,-790.0811285
827.7279994,3233,193.9672501,271.6482101,0,68.66557018,-337.9678335,-1.60E-09,-342.6858472,-17.06490639,141.5736631,0,-158.5363454,126.5649735,-46.39181995,0,0,836.2742662
827.7359994,3233,34.40193987,-44.29796801,0,-138.8414942,117.6535722,-1.50E-09,-1.569018078,-426.7100439,-488.9289366,0,252.7636197,68.78922552,76.57357074,0,0,-1114.881783
827.7439994,3233,-93.57532043,-10.12439927,0,213.9743064,36.5217503,-1.40E-09,350.6431156,752.8696661,332.8282256,0,-149.9717064,-24.64155457,63.98991996,0,0,239.3714155
827.7519994,3233,233.9767577,212.7662159,0,-147.5422622,-298.6767168,-1.40E-09,-585.2273485,-714.8074937,-345.6858531,0,32.84671646,174.4038696,-112.9701832,0,0,81.91417991
827.7599994,3233,-138.0380236,-160.999366,0,60.64312335,304.8025189,-1.30E-09,521.3942238,404.6351874,-73.90410483,0,128.169929,-49.2892417,139.8093295,0,0,-975.1572869
827.7679994,3233,130.1285005,213.725591,0,101.4955334,-296.1993206,-1.20E-09,-262.0121533,135.6900257,228.5669931,0,-200.4473425,110.0921107,-75.16419739,0,0,883.4471783
827.7759994,3233,65.41805151,-19.64968484,0,-179.9142235,58.2625344,-1.20E-09,-140.6445095,-566.2841564,-507.4144725,0,220.0651216,89.10786907,1.850090718,0,0,-960.2459841
827.7839994,3233,-140.2820802,-68.2799673,0,219.3499842,124.7790752,-1.10E-09,496.073408,882.851289,363.2165749,0,-137.6109677,-56.30107042,70.4151828,0,0,97.39375646
827.7919994,3233,247.8012969,228.4622322,0,-161.3633909,-346.3462924,-1.00E-09,-644.4019286,-733.1373142,-311.7676792,0,-3.162320738,178.3416558,-147.7899012,0,0,250.7322175
827.7999994,3233,-142.7727898,-181.2872627,0,30.97065637,325.5910125,-1.00E-09,533.2886126,379.9649509,-91.46093534,0,136.3904219,-58.00031799,133.7082586,0,0,-1023.667302
827.8079994,3233,137.8623179,210.1352978,0,106.7214488,-271.6327615,-9.00E-10,-203.1415667,193.9173132,258.2480667,0,-197.5959895,93.49219333,-54.36621903,0,0,874.0653296
827.8159994,3233,119.261458,24.88682965,0,-182.8547848,15.20998292,-8.00E-10,-203.0703284,-655.2089931,-530.637367,0,238.714932,113.7703761,18.79050651,0,0,-913.2638727
827.8239994,3233,-133.5268255,-66.18429857,0,254.951739,166.3769429,-8.00E-10,572.1932775,922.1716387,359.4999538,0,-88.41516633,-30.17287459,124.7692371,0,0,-10.93903472
827.8319994,3233,296.7682913,281.4894783,0,-121.2644328,-363.3873907,-7.00E-10,-650.8431196,-747.9691112,-308.081506,0,25.68935422,229.23682,-130.0466214,0,0,296.6160563
827.8399994,3233,-141.3656408,-177.9347787,0,57.31970364,334.5435995,-6.00E-10,538.2288597,349.3994093,-122.9554448,0,175.3005894,-22.38316267,147.356482,0,0,-1101.962611
827.8479994,3233,74.63232644,162.3465451,0,139.1941475,-250.2164583,-6.00E-10,-184.2320167,253.8552689,287.2502888,0,-212.487792,96.92770252,-44.9966603,0,0,872.5577793
827.8559994,3233,86.9271821,3.140470911,0,-184.6952723,10.13992425,-5.00E-10,-250.8044446,-670.8737053,-510.4225913,0,197.9896969,99.71575378,-15.47043115,0,0,-831.9969774
827.8639994,3233,-175.437514,-107.2037527,0,250.0723907,193.3653348,-4.00E-10,589.1319122,951.4849577,385.2769542,0,-115.8149155,-66.63664404,88.47181143,0,0,-16.92313696
827.8719994,3233,259.7084647,247.6493336,0,-128.0816181,-379.2509025,-4.00E-10,-686.8121605,-724.8135124,-257.4667391,0,-26.02303867,200.2841202,-151.2755711,0,0,404.27647
827.8799994,3233,-150.7260745,-192.8839285,0,28.72748623,324.8944532,-3.00E-10,502.5198133,319.3669131,-106.3694533,0,152.6283935,-49.2803272,143.0246156,0,0,-1064.574761
827.8879994,3233,90.83750679,178.547329,0,135.0605086,-256.1366672,-3.00E-10,-158.0560273,285.0297438,319.2511285,0,-203.75656,90.50340715,-52.47678661,0,0,890.8622136
827.8959994,3233,123.4196689,41.79646343,0,-191.5499651,-16.11329279,-2.00E-10,-272.1009336,-696.2653357,-504.9570121,0,221.3849947,127.4113089,-15.42142702,0,0,-789.272808
827.9039994,3234,-160.2497573,-94.88195208,0,243.0156721,211.4365256,-1.00E-10,611.0108991,950.7704366,394.5457089,0,-85.55146508,-51.96216861,127.5851937,0,0,-39.80057425
827.9119994,3234,275.9024289,264.0502301,0,-126.5678729,-384.2246836,-1.00E-10,-681.2138729,-714.8797838,-241.0791731,0,-4.708551734,218.9950563,-128.9800643,0,0,443.7510613
827.9199994,3234,-146.9211625,-190.73028,0,24.07620907,332.3916112,0,496.6024852,297.2358238,-123.2267047,0,175.5414475,-37.24665189,157.0436558,0,0,-1077.995847
827.9279994,3234,83.0108742,172.6726524,0,146.1589147,-235.6130443,1.00E-10,-126.9565207,336.162802,364.0112474,0,-216.9152087,73.39862807,-22.80783332,0,0,931.725252
827.9359994,3234,145.6991579,57.94994397,0,-198.7397511,-45.62219137,1.00E-10,-297.2563209,-717.8107574,-486.760561,0,217.4324186,127.1297362,-22.00699786,0,0,-725.844361
827.9439994,3234,-176.3354208,-117.0013004,0,243.4315587,226.3116149,2.00E-10,631.6785423,963.1631303,399.349333,0,-69.94370058,-52.40279875,110.1197604,0,0,-79.40168308
827.9519994,3234,255.1036287,249.4859668,0,-121.2002481,-373.0798254,2.00E-10,-679.215511,-674.8225453,-188.0587459,0,-37.08082363,202.6256383,-141.9266677,0,0,518.2105833
827.9599994,3234,-115.3904243,-162.9080814,0,6.358886386,321.3573646,3.00E-10,480.5702853,259.0648361,-120.9716596,0,173.9394752,-37.11661586,127.1846642,0,0,-1069.361206
827.9679994,3234,90.08730871,177.3162802,0,154.8626703,-213.2055665,4.00E-10,-90.07321407,364.4186011,377.2740996,0,-189.3233356,90.93787794,-45.78856867,0,0,901.0158517
827.9759994,3234,123.134675,35.10005219,0,-204.0988612,-24.09342756,4.00E-10,-326.8816545,-735.121997,-475.3898291,0,214.4943785,126.273396,-14.8106356,0,0,-686.9240651
827.9839994,3234,-186.7556355,-128.802996,0,230.979712,249.0285901,5.00E-10,638.8833404,957.7112448,407.2961787,0,-74.96531356,-86.74754813,125.6929883,0,0,-95.92363348
827.9919994,3234,257.6852361,257.0812569,0,-109.0155932,-381.4928073,6.00E-10,-667.6520121,-650.1979914,-159.3668808,0,-32.75804565,193.1877031,-155.7050002,0,0,565.5458147
827.9999994,3234,-150.8478132,-199.1444662,0,12.9877724,339.0307308,6.00E-10,463.2726252,247.0976228,-113.6213954,0,178.2897049,-44.84694848,123.2516506,0,0,-1038.438878
828.0079994,3234,42.89404365,138.727407,0,169.0200841,-175.6266046,7.00E-10,-70.11891606,428.3256833,445.1908766,0,-221.714601,42.7465188,-42.01958583,0,0,990.9872592
828.0159994,3234,126.6536322,49.22218412,0,-195.166963,-39.0241303,7.00E-10,-346.6796297,-717.1221603,-411.6700886,0,196.7170203,105.0985264,-49.40182966,0,0,-538.9756031
828.0239994,3234,-203.0870524,-139.8882754,0,264.689807,292.8102215,8.00E-10,682.1519096,1029.36347,490.1921898,0,-66.20361066,-87.28123211,115.8577973,0,0,3.031899975
828.0319994,3234,218.9284826,235.1096956,0,-53.03133642,-295.153688,8.00E-10,-619.2241654,-507.0893208,31.3215538,0,-57.13994816,184.0741342,-126.6924096,0,0,841.1314825
828.0399994,3234,-169.9303626,-208.4435544,0,46.19448827,410.3776857,9.00E-10,483.1461204,337.4117789,102.242759,0,158.116459,-63.37301881,140.3321321,0,0,-722.7547955
828.0479994,3234,55.01200458,152.9435335,0,219.2986619,-113.5414144,1.00E-09,9.896504197,568.2434331,703.6970332,0,-230.3478046,26.53975095,-38.09187244,0,0,1322.609862
828.0559994,3234,158.5929015,82.42471173,0,-157.1108234,1.818046107,1.00E-09,-324.6474442,-648.0344054,-172.7545651,0,207.6126469,113.417648,-37.02815579,0,0,-157.5069488
828.0639994,3234,-203.5736282,-141.4504063,0,274.4378103,329.5616198,1.10E-09,697.0531008,1073.111154,687.2887227,0,-49.02017205,-100.7528379,143.7826537,0,0,295.5730569
828.0719994,3234,249.9637111,260.6339187,0,-59.31077609,-335.7639658,1.10E-09,-630.6453179,-498.1258956,174.7544364,0,-46.65689105,166.9896652,-134.7163504,0,0,1124.749966
828.0799994,3234,-134.5280294,-184.181173,0,18.50543969,358.9986866,1.20E-09,437.5077619,250.9610787,121.5113917,0,195.2453765,-63.62710393,128.3647371,0,0,-587.0455834
828.0879994,3234,35.88492752,132.0748901,0,205.9249338,-136.6959497,1.30E-09,-1.108356079,549.3913377,715.1021005,0,-223.5080614,8.058346376,-16.33533951,0,0,1406.356143
828.0959994,3234,173.8728813,89.45072239,0,-187.9805073,-75.94508126,1.30E-09,-385.9907101,-734.552886,-209.3578809,0,202.3190643,99.44054172,-47.86869209,0,0,-68.83589608
828.1039994,3234,-181.7472443,-129.3578646,0,250.5918901,293.250904,1.40E-09,687.1695639,993.7810602,600.6118495,0,-33.2248435,-108.341264,131.1038993,0,0,237.4957359
828.1119994,3234,263.2342786,277.6921819,0,-58.22889152,-354.4257098,1.40E-09,-629.7738572,-528.9168281,111.9080403,0,-50.56754848,173.1139288,-116.3136632,0,0,1105.79599
828.1199994,3234,-106.7597121,-163.5967725,0,2.439094978,331.343945,1.50E-09,419.4761452,163.9369306,1.685434436,0,210.10888,-43.59596687,151.1743158,0,0,-675.5899884
828.1279994,3234,53.77463985,144.8221235,0,209.1924214,-137.3976402,1.50E-09,37.14890483,539.0778349,606.6585426,0,-205.9683442,20.68872678,-0.066301805,0,0,1275.866463
828.1359994,3234,184.9111957,99.21461093,0,-191.6747442,-94.145675,1.60E-09,-410.4182824,-789.0026249,-316.8291032,0,204.4202391,108.8671975,-28.50598165,0,0,-141.8732076
828.1439994,3234,-206.8338981,-162.0989187,0,242.4942743,293.1200361,1.70E-09,687.5534899,952.0094858,484.1701014,0,-34.90305793,-128.806546,162.6921918,0,0,94.63272479
828.1519994,3234,265.5222699,273.1897473,0,-57.93026068,-382.1625118,1.70E-09,-632.0498914,-538.0683979,30.61611514,0,-70.42540775,138.7569892,-134.896669,0,0,1034.361152
828.1599994,3235,-70.17530455,-139.7932585,0,-15.73283246,293.2969718,1.80E-09,377.7513016,77.48333712,-117.4430661,0,226.3472376,-61.45197805,120.765296,0,0,-802.5317936
828.1679994,3235,35.28945693,130.3705594,0,226.5620691,-142.646748,1.80E-09,50.85614931,535.31551,515.3347107,0,-185.0025756,6.631619901,15.78305578,0,0,1116.494307
828.1759994,3235,162.4832196,85.77012526,0,-175.4419736,-124.5309054,1.90E-09,-448.6766958,-820.9891378,-391.315468,0,187.0346967,93.49827304,-34.07805449,0,0,-208.6205573
828.1839994,3235,-214.0186719,-173.5410658,0,235.4475355,279.6329641,1.90E-09,672.0136518,916.3328816,409.2204942,0,-50.73715865,-157.0531687,146.3681664,0,0,-28.21258463
828.1919994,3235,252.7611785,263.1478551,0,-52.66347605,-394.6419798,2.00E-09,-634.4623472,-528.7215988,-15.54392652,0,-88.12462335,117.9728033,-128.4884035,0,0,961.5037806
828.1999994,3235,-104.3548186,-178.3571835,0,-21.06194155,286.3133199,2.00E-09,347.0330136,44.72685882,-190.0164256,0,211.1843181,-79.86872344,135.1547102,0,0,-894.5668173
828.2079994,3235,-1.25277086,87.06321124,0,213.7213631,-141.8999451,2.10E-09,66.03564494,563.4718579,482.9850902,0,-227.2016582,-38.37251433,-2.550685138,0,0,1035.948985
828.2159994,3235,181.5484798,98.30081527,0,-207.0460787,-155.280032,2.10E-09,-474.9488912,-852.2430827,-438.8693437,0,158.708023,63.92699819,-79.68215768,0,0,-252.9601768
828.2239994,3235,-228.5158213,-195.4745377,0,224.3008274,286.4754861,2.20E-09,681.5364919,901.5231232,340.8299305,0,-30.00820595,-167.3534866,142.2461276,0,0,-171.106101
828.2319994,3235,220.9725962,238.5331363,0,-41.54281702,-395.5774525,2.20E-09,-626.5049163,-498.5661607,-25.22267843,0,-108.353222,98.86867494,-153.6104244,0,0,932.3758279
828.2399994,3235,-79.7540206,-151.2975949,0,-33.85719042,275.4027342,2.30E-09,316.3044834,-15.05221504,-231.4640947,0,198.7694894,-94.00141928,89.99229437,0,0,-940.0275482
828.2479994,3235,20.71472043,105.9699536,0,233.7220515,-123.3866818,2.40E-09,98.65346342,572.1547927,458.0340896,0,-199.3660576,-28.49743022,13.45697146,0,0,944.0852186
828.2559994,3235,202.9637665,117.3315595,0,-176.4437236,-165.3468836,2.40E-09,-487.8447416,-872.2977291,-457.2370235,0,185.6633139,87.47341701,-68.79163275,0,0,-275.9209462
828.2639994,3235,-222.2079767,-190.4543859,0,235.0221719,293.59243,2.50E-09,678.8663503,869.8952522,304.5104907,0,-13.10256248,-173.5038442,137.2738744,0,0,-265.3135336
828.2719994,3235,482.5073991,500.7941906,0,-169.7590582,-812.1938789,2.50E-09,-1377.439314,-1250.047426,-202.1004357,0,-167.611866,254.1374166,-318.4825541,0,0,1632.660294
828.2799994,3235,414.4279701,273.8122995,0,-421.5650892,-440.3743487,2.60E-09,-1179.528144,-1850.808562,-883.630971,0,253.1847993,218.6792594,-227.4316293,0,0,-213.1138036
828.2879994,3235,-95.39746871,-70.1789843,0,151.8121311,110.4515722,2.60E-09,329.8171336,498.4317076,203.7445834,0,-38.44516176,-98.64687295,66.35684719,0,0,24.23969215
828.2959994,3235,-13.17710069,-25.65445473,0,47.56364764,48.93336179,2.70E-09,122.0652761,135.5818627,9.19353072,0,27.90962501,-48.45594344,39.69466722,0,0,-115.6089828
828.3039994,3235,59.25553724,59.82776672,0,34.60776663,-100.5341574,2.70E-09,-103.0176691,-21.06450017,17.75560456,0,-9.589865185,1.249207598,-24.49558048,0,0,209.4709603
828.3119994,3235,59.61099693,35.41594159,0,-17.74104683,-62.79338131,2.80E-09,-105.653901,-171.1677713,-113.4220414,0,55.24061133,-6.24385858,-27.58710085,0,0,-96.32776292
828.3199994,3235,-97.99457157,-96.70230303,0,113.3447696,150.1826974,2.80E-09,352.0399317,421.5390863,100.7919536,0,23.4379305,-94.48599571,58.75156472,0,0,-265.0829008
828.3279994,3235,146.1882446,155.4457088,0,-7.01041674,-258.3291857,2.90E-09,-379.9302598,-259.1298328,-15.8512797,0,-71.01939955,56.75615777,-102.6369037,0,0,556.0452741
828.3359994,3235,-64.25200619,-121.5586728,0,-27.69193395,189.1667576,2.90E-09,236.5468734,7.790046014,-197.7975418,0,151.3596696,-76.37919841,58.36261986,0,0,-774.188664
828.3439994,3235,-24.64190149,35.58175934,0,162.202226,-80.65605991,3.00E-09,95.80416402,451.9470652,293.423143,0,-152.1725781,-53.94330248,-12.75034479,0,0,549.847025
828.3519994,3235,147.4187848,84.47556585,0,-153.9737216,-159.0793549,3.00E-09,-404.5156145,-649.1149298,-359.2147204,0,91.44603791,30.35897738,-76.33373511,0,0,-203.7829475
828.3599994,3235,-187.6136333,-178.6472757,0,157.0760619,256.6509305,3.10E-09,589.7033444,698.986827,173.3707935,0,6.69054648,-170.4792606,122.9210712,0,0,-439.3068585
828.3679994,3235,172.2366067,195.7756283,0,-19.63784179,-351.0248048,3.10E-09,-488.6788392,-324.6844527,-20.77316886,0,-129.6288323,58.33388539,-130.9651568,0,0,744.1793593
828.3759994,3235,-54.52712959,-132.1617236,0,-81.40656645,225.455895,3.20E-09,242.3166853,-102.4366925,-319.1630172,0,173.4436155,-87.00731211,62.65831828,0,0,-1012.43938
828.3839994,3235,-47.3006211,31.36229613,0,199.6723125,-51.23938508,3.20E-09,185.5604745,620.6517383,358.4665097,0,-186.3857179,-51.45642723,14.22526852,0,0,604.0046968
828.3919994,3235,153.585827,87.13192372,0,-200.3683896,-185.6755501,3.30E-09,-507.0536206,-803.2271197,-457.8058406,0,97.3941728,67.03849653,-85.60514383,0,0,-257.7582367
828.3999994,3235,-197.3651925,-180.997585,0,162.9369924,304.7453301,3.30E-09,671.4659882,777.1758892,178.9172987,0,-17.49019807,-174.6382835,140.8623216,0,0,-529.1641247
828.4079994,3235,223.23817,252.6977295,0,-6.991969107,-368.1322632,3.30E-09,-500.9303992,-335.1400762,-34.39273891,0,-108.7797344,123.4062123,-114.8551134,0,0,763.7266448
828.4159994,3236,-56.06622498,-138.7994587,0,-75.24426946,226.4576002,3.40E-09,246.9643116,-144.4433199,-379.2226522,0,239.7749216,-23.48832789,93.53432569,0,0,-1147.087164
828.4239994,3236,-55.56696211,32.17910188,0,232.1436207,-50.7574363,3.40E-09,238.9576409,690.6075339,387.8987222,0,-188.4758506,-23.2166144,27.07830394,0,0,584.7335949
828.4319994,3236,194.4345163,127.3096856,0,-194.9839149,-193.199197,3.50E-09,-522.4371322,-857.4517953,-474.3645456,0,127.195399,133.4075412,-88.18471577,0,0,-279.7528585
828.4399994,3236,-221.3850741,-201.9535977,0,178.7754822,341.4555832,3.50E-09,716.5702656,801.1493987,191.5744222,0,20.09705698,-121.2897265,162.3874227,0,0,-604.003202
828.4479994,3236,179.6572223,216.9288641,0,-6.307587292,-359.4608068,3.60E-09,-503.6194975,-311.6604148,11.08857988,0,-139.1333467,141.9023028,-126.7425674,0,0,799.7733619
828.4559994,3236,-72.58673504,-155.6533813,0,-93.74804973,242.4408375,3.60E-09,222.6045421,-175.1626832,-361.0585265,0,209.0301847,-18.46021487,67.92496447,0,0,-1141.276408
828.4639994,3236,-73.46593967,20.71201198,0,236.8338326,-17.33666368,3.70E-09,270.9758595,729.1174369,427.8066259,0,-201.2938387,-19.67056134,44.13457184,0,0,580.290822
828.4719994,3236,184.7210074,122.4520391,0,-201.8271212,-201.2326458,3.70E-09,-541.9899995,-865.6993001,-452.7180317,0,118.3577769,148.1551034,-87.82858614,0,0,-240.0072092
828.4799994,3236,-224.613622,-212.7816239,0,167.1287989,348.3007711,3.80E-09,720.1054555,796.704413,197.0567142,0,24.25639963,-121.5174823,142.9335107,0,0,-630.850025
828.4879994,3236,217.7154221,246.2004883,0,-5.969277146,-358.6132775,3.80E-09,-483.6416044,-291.7725037,35.40672613,0,-130.7683659,145.7295171,-118.4573831,0,0,816.0101966
828.4959994,3236,-29.57146085,-123.1749243,0,-103.1214121,227.8123622,3.80E-09,217.679186,-208.3373696,-380.0864302,0,253.8678204,19.14308347,71.0545703,0,0,-1170.035715
828.5039994,3236,-64.04976727,19.6893058,0,239.538229,-13.69121085,3.90E-09,306.3396307,748.4128525,418.5315087,0,-163.7927241,4.345021615,25.73556302,0,0,509.8802497
828.5119994,3236,219.9972027,143.7155116,0,-206.5721553,-213.3198804,3.90E-09,-552.5300685,-891.8748824,-461.9034648,0,119.6055522,151.4121481,-92.27059067,0,0,-245.1379697
828.5199994,3236,-225.5114886,-219.91781,0,172.1412381,371.6663284,4.00E-09,734.130373,777.3641759,168.8640092,0,44.28513766,-111.7298983,163.6200398,0,0,-715.2305303
828.5279994,3236,165.517861,208.7252011,0,19.22295886,-335.0066722,4.00E-09,-461.4498651,-248.9513547,62.28603826,0,-145.0364898,146.8070684,-107.1668939,0,0,816.3011004
828.5359994,3236,-61.42793598,-151.1455055,0,-117.6902392,232.8511195,4.10E-09,181.9838247,-244.6774817,-364.4022544,0,201.6344775,-15.6814648,77.01049576,0,0,-1133.739296
828.5439994,3236,-90.2404917,-6.634369036,0,235.8537227,14.43290297,4.10E-09,333.1634155,772.0982816,436.5098916,0,-193.9176219,-30.93105747,39.66355847,0,0,491.6321322
828.5519994,3236,215.597364,144.8760677,0,-202.2360082,-231.0110282,4.20E-09,-555.7062771,-880.4437222,-446.2075747,0,115.5955603,155.8874879,-99.66623253,0,0,-204.2241435
828.5599994,3236,-227.6748834,-225.5228036,0,150.8755765,349.2664071,4.20E-09,725.6813161,764.6175208,162.6843701,0,43.38983509,-121.0241585,148.5658227,0,0,-738.4354451
828.5679994,3236,166.5234165,206.3599324,0,5.012837262,-357.7359349,4.20E-09,-454.9919702,-213.3113998,75.14959963,0,-158.946296,129.7196345,-126.7246005,0,0,824.2405622
828.5759994,3236,-37.18551802,-136.1708123,0,-137.7080535,207.9526015,4.30E-09,154.0062402,-277.5104574,-394.9328777,0,219.6027111,-8.183102099,59.33057459,0,0,-1152.235357
828.5839994,3236,-106.4773089,-20.91343969,0,235.605182,29.99956257,4.30E-09,351.9292391,805.8513325,433.8342181,0,-184.7730971,-28.8244736,36.58724111,0,0,440.5365851
828.5919994,3236,200.9029136,137.8556834,0,-204.2864409,-238.5285293,4.40E-09,-585.7321991,-868.6309653,-428.3982442,0,92.5493305,164.1024995,-122.4903969,0,0,-158.5006193
828.5999994,3236,-226.3336452,-228.4675921,0,139.6047946,363.2246271,4.40E-09,710.4325325,738.6878139,157.5114689,0,39.46974504,-123.4571254,133.6183485,0,0,-762.8406722
828.6079994,3236,174.3521551,222.0398174,0,20.89159339,-351.1128962,4.40E-09,-441.3781036,-182.0483879,107.6912554,0,-168.7082227,128.7402507,-132.6366773,0,0,841.4800091
828.6159994,3236,-0.193923045,-96.90548358,0,-133.2008863,174.1470367,4.50E-09,124.113041,-318.3926523,-407.6443682,0,234.4335987,25.62301224,33.97239442,0,0,-1155.7141
828.6239994,3236,-92.45287911,-9.444670087,0,247.6828008,30.58732541,4.50E-09,377.2581585,812.9829263,418.5955452,0,-158.9203871,-13.06789924,42.07899279,0,0,369.032415
828.6319994,3236,222.3902599,163.8420778,0,-190.4973758,-252.9135763,4.60E-09,-600.7073241,-880.9995661,-435.4348261,0,99.05152402,164.3267587,-81.75350812,0,0,-155.4064706
828.6399994,3236,-257.3845814,-317.4978386,0,73.29996578,530.1534676,4.60E-09,865.49979,591.8210749,-89.97456849,0,209.0472525,-154.3415226,214.1907532,0,0,-1554.946084
828.6479994,3236,30.25925774,55.49793003,0,63.72402229,-100.8495783,4.60E-09,-28.26614492,116.9749927,73.76465532,0,-72.53003804,43.6539719,-30.25709166,0,0,152.9466066
828.6559994,3236,54.33940005,24.169289,0,-53.03272382,-54.75084261,4.70E-09,-109.8026149,-237.9374584,-181.861098,0,55.37048819,57.18150698,-0.289511848,0,0,-328.5515577
828.6639994,3236,-9.655792305,13.98363041,0,97.51549643,-4.900286922,4.70E-09,159.2920386,303.603334,137.8912373,0,-56.31519294,9.984865969,34.31710288,0,0,8.971569337
828.6719994,3237,91.31949325,32.04915305,0,-105.3402478,-22.70625818,4.80E-09,-124.6260356,-383.123585,-307.4231704,0,114.5326112,70.54002662,-1.758822057,0,0,-551.2090723
828.6799994,3237,-68.18202179,-35.09013177,0,159.1526407,68.55489896,4.80E-09,315.8959071,516.7146266,179.9064711,0,-55.19890301,-9.768585058,65.34055714,0,0,-74.62069022
828.6879994,3237,111.8978551,82.73068003,0,-79.24527417,-167.6974392,4.80E-09,-339.3522968,-459.5107617,-248.6863839,0,31.9289246,103.5445261,-57.54428042,0,0,-112.0272117
828.6959994,3237,-129.7997541,-151.3905943,0,50.79325318,222.4078695,4.90E-09,400.884467,323.0549375,-22.77058499,0,41.38952806,-94.52749788,100.7260408,0,0,-725.6824034
828.7039994,3237,116.0205721,159.6977893,0,73.06397011,-220.3392679,4.90E-09,-175.5521173,71.33743565,142.0054986,0,-148.7243823,49.52917464,-71.72773739,0,0,531.3133585
828.7119994,3237,49.26487197,-36.21241929,0,-138.0947808,83.70004857,4.90E-09,-37.20153857,-438.3423307,-438.524823,0,202.0445072,41.17212396,14.04795041,0,0,-980.7198385
828.7199994,3237,-120.1468791,-54.96973072,0,223.9622333,98.67794118,5.00E-09,422.4002256,770.1534334,326.0813404,0,-125.5574533,-53.94540695,94.27537188,0,0,80.28863728
828.7279994,3237,211.7777537,169.2727989,0,-146.2856083,-257.4618693,5.00E-09,-540.0166694,-730.7726561,-350.4995107,0,53.97550003,139.1500202,-83.05614234,0,0,-61.7883342
828.7359994,3237,-171.4813397,-189.0822631,0,97.49784831,318.7481131,5.10E-09,586.0363598,503.3204906,16.61179052,0,89.11829399,-105.8205049,147.8087971,0,0,-930.3973843
828.7439994,3237,128.4413531,188.9506673,0,88.91953747,-282.3681176,5.10E-09,-283.0573617,19.21934319,169.5592427,0,-178.1792827,82.13314424,-68.20601704,0,0,714.1664461
828.7519994,3237,32.14170584,-60.14332834,0,-143.2527129,113.3900956,5.10E-09,-29.17670019,-467.5621373,-459.2892053,0,214.7826212,24.48707532,36.59964544,0,0,-1086.10504
828.7599994,3237,-136.6702074,-58.14957763,0,259.0751487,112.0110229,5.20E-09,462.0600732,866.5644843,394.6668416,0,-148.0350143,-75.79413189,89.61601165,0,0,132.5830239
828.7679994,3237,226.7800812,186.4755556,0,-161.7957907,-291.7419912,5.20E-09,-626.2555136,-818.0655257,-374.557405,0,50.56867818,145.7334528,-113.1011398,0,0,-23.32099216
828.7759994,3237,-199.8064163,-220.5135918,0,97.5925275,347.6507704,5.20E-09,630.1234268,552.0880366,18.23532979,0,93.84767239,-130.6191876,148.3316919,0,0,-1012.57549
828.7839994,3237,127.0755258,185.3270244,0,75.88940647,-305.8720688,5.30E-09,-321.9040988,8.407492525,181.095709,0,-203.605625,58.89951588,-83.91072325,0,0,771.9961792
828.7919994,3237,19.62606086,-81.12917319,0,-173.8076482,111.7139768,5.30E-09,-52.44689621,-501.7176733,-475.9814363,0,206.1259336,-8.823336801,20.440374,0,0,-1118.4384
828.7999994,3237,-149.873948,-74.81244623,0,226.9261584,104.6722031,5.30E-09,460.2992801,871.1503274,393.0548895,0,-160.7666598,-108.0173756,67.2810161,0,0,108.0442772
828.8079994,3237,252.9685649,204.2432829,0,-212.877202,-335.2443348,5.40E-09,-676.9330208,-875.5751877,-397.0074597,0,34.48158897,126.5370095,-140.420319,0,0,-14.27968428
828.8159994,3237,-179.3114292,-209.3275932,0,60.88624663,330.5909224,5.40E-09,614.3210454,509.8496753,-27.57464452,0,112.8620661,-134.8982613,140.92112,0,0,-1095.609211
828.8239994,3237,139.3887087,202.6072267,0,66.58907692,-333.7860349,5.40E-09,-338.4144315,0.109064379,150.3572681,0,-180.3802175,83.29361977,-94.4176271,0,0,727.2443707
828.8319994,3237,41.67322614,-58.69848596,0,-184.353861,75.2251685,5.50E-09,-88.81269546,-551.7453566,-528.2945944,0,219.4763176,18.82865999,15.69213565,0,0,-1173.044878
828.8399994,3237,-157.470698,-81.49964192,0,242.8188822,99.50204238,5.50E-09,474.11684,874.0204663,352.7601678,0,-154.1492611,-99.25821242,85.11206518,0,0,24.77049749
828.8479994,3237,231.7632669,193.4001984,0,-185.0247321,-347.918469,5.50E-09,-687.8548068,-864.1776856,-416.886955,0,24.36456855,128.7699137,-128.0125611,0,0,-17.53670188
828.8559994,3237,-198.8656926,-225.9073774,0,69.07844783,344.3402304,5.60E-09,606.7019948,499.5258218,-55.965143,0,98.75898107,-157.6654177,161.1189484,0,0,-1130.45283
828.8639994,3237,110.4143931,176.7966723,0,77.26672081,-317.2486931,5.60E-09,-321.9587061,34.50218194,156.2055756,0,-204.9728628,44.4394353,-85.38200885,0,0,734.121217
828.8719994,3237,20.49520032,-81.50279888,0,-197.722343,58.72573148,5.60E-09,-125.7495387,-580.3078677,-551.1130281,0,205.9195021,-17.16318341,1.204092936,0,0,-1163.410254
828.8799994,3237,-179.9499537,-107.2043402,0,226.999891,114.8605662,5.70E-09,477.0005241,880.8600128,342.9411789,0,-166.2158752,-149.8631872,87.79910648,0,0,-7.567770179
828.8879994,3237,238.3843163,201.0783486,0,-191.6913557,-353.0192814,5.70E-09,-700.2836576,-864.8563036,-400.8456176,0,11.51955978,103.4315506,-142.5864704,0,0,22.8066927
828.8959994,3237,-182.8196751,-216.5749145,0,54.19996025,326.6021504,5.70E-09,588.39329,454.5013338,-74.59758457,0,117.9970675,-160.0629278,125.9926927,0,0,-1169.668341
828.9039994,3237,101.3452588,169.0436499,0,77.97113202,-317.7869943,5.70E-09,-306.7457696,63.16049683,180.5983961,0,-204.2462641,36.30775811,-101.9452631,0,0,731.6587142
828.9119994,3237,44.02724697,-56.06000859,0,-207.6581478,50.68775122,5.80E-09,-145.985218,-611.1977998,-536.673361,0,207.8356596,-11.65784399,-20.17436318,0,0,-1132.170103
828.9199994,3237,-161.4273567,-87.46135585,0,233.604366,136.432729,5.80E-09,516.9391972,890.7361967,352.4742412,0,-137.456093,-134.9765301,57.09587124,0,0,-52.46401658
828.9279994,3238,222.3881152,195.3632081,0,-174.3959467,-338.7751925,5.80E-09,-682.2594317,-827.4506669,-366.162908,0,12.02138008,117.0855292,-163.6980725,0,0,70.0239805
828.9359994,3238,-198.9141436,-228.1889019,0,46.95737742,343.7886052,5.90E-09,585.53673,444.009083,-63.82458035,0,103.7678713,-170.9518993,119.2620559,0,0,-1154.902024
828.9439994,3238,90.71778246,166.5992383,0,91.44204898,-299.2279587,5.90E-09,-273.858588,109.9640123,211.9637728,0,-219.8792682,20.87772308,-102.3337268,0,0,756.3707684
828.9519994,3238,36.28883852,-58.67040928,0,-202.410926,48.7117418,5.90E-09,-164.4694502,-619.5122384,-527.3049775,0,195.5273745,-18.11547864,-22.46144605,0,0,-1078.576122
828.9599994,3238,-168.3793978,-97.83697108,0,230.0334909,148.3137282,6.00E-09,534.7792927,900.4683734,358.0519863,0,-145.6394101,-157.7249281,58.63706964,0,0,-67.35961426
828.9679994,3238,238.2110134,207.814874,0,-171.2072077,-360.1640938,6.00E-09,-686.8435155,-821.8979622,-361.8583617,0,14.64236565,117.7944561,-159.9275249,0,0,94.71655205
828.9759994,3238,-206.3052282,-243.0860407,0,42.06687074,341.7692617,6.00E-09,567.2523713,414.9822184,-78.60206275,0,125.0958207,-168.4649522,135.0902682,0,0,-1181.335724
828.9839994,3238,81.83779082,155.268974,0,97.16916783,-282.2579144,6.00E-09,-254.92956,142.5505012,249.927354,0,-222.1838042,4.740408083,-100.5486011,0,0,771.9541249
