Time:125Hz,Epoch,FP1,FP2,C3,C4,P7,P8,O1,O2,F7,F8,F3,F4,T7,T8,P3,P4
645.9999995,2523,2060.399393,2059.34152,-11.80000416,2042.410102,1999.564618,2051.669693,2055.056674,2051.519697,2169.625978,2164.274599,2163.487654,2162.87711,2162.936618,2162.901923,2168.236504,2167.156659
646.0079995,2523,2020.176028,2019.004674,-11.78099261,2002.161304,1959.340844,2011.598752,2014.697322,2011.394597,1940.045145,1934.625229,1933.768343,1933.017241,1933.504835,1933.418466,1938.370562,1937.477769
646.0159995,2523,2047.809123,2046.399148,-11.76175694,2029.436358,1986.623273,2039.05712,2042.058172,2038.753972,2094.396484,2089.088486,2088.097286,2087.633563,2087.752911,2087.794292,2092.930582,2092.002694
646.0239995,2523,1962.484951,1961.397905,-11.74229844,1944.30549,1901.61304,1953.806796,1956.837073,1953.15255,1964.317189,1958.961752,1957.970197,1957.274347,1957.694426,1957.639101,1962.718124,1961.459313
646.0319995,2523,1981.648128,1980.588918,-11.72261822,1963.784324,1920.968886,1973.219237,1976.086731,1972.554417,1960.13171,1955.140287,1954.219667,1953.199979,1953.861848,1953.707172,1958.718264,1957.630226
646.0399995,2523,1935.764632,1934.664126,-11.70271739,1917.787596,1875.376901,1927.25865,1930.266214,1926.795851,1974.846063,1969.839677,1968.651833,1967.908813,1968.441591,1968.415695,1973.357975,1972.373943
646.0479995,2523,1909.313431,1908.385776,-11.68259781,1891.346576,1849.217684,1900.988646,1904.091146,1900.402663,1882.855199,1877.55845,1876.354221,1875.817515,1876.295158,1876.203753,1881.051439,1879.881717
646.0559995,2523,1899.665668,1898.716185,-11.66226077,1881.760325,1839.467462,1891.476104,1894.36274,1891.022844,1921.830558,1916.575673,1915.660636,1914.917652,1915.320359,1915.208843,1919.979344,1918.778666
646.0639995,2523,1855.795272,1854.778974,-11.64170695,1837.870457,1795.652394,1847.45184,1850.398336,1847.044149,1854.879933,1849.681586,1848.617118,1847.666107,1848.274953,1848.216246,1852.858808,1851.870372
646.0719995,2523,1847.113654,1846.381643,-11.62093855,1829.465583,1787.379647,1838.951449,1841.842183,1838.39761,1845.558943,1840.540059,1839.319526,1838.51358,1839.183599,1839.148676,1843.805182,1842.808982
646.0799995,2523,1814.081254,1813.202809,-11.5999573,1796.282016,1754.352929,1805.627712,1808.601264,1805.276327,1827.51491,1822.426574,1821.315923,1820.614175,1821.090417,1821.332086,1825.862265,1824.666675
646.0879995,2523,1791.621521,1790.384508,-11.57876352,1773.535584,1731.765013,1782.807064,1786.137803,1782.606838,1785.350088,1780.299932,1779.122257,1778.328445,1778.744549,1778.78414,1783.535016,1782.363483
646.0959995,2523,1771.000947,1769.919877,-11.55735865,1753.003485,1711.389697,1762.499073,1765.577861,1762.161258,1781.216788,1776.303716,1775.080118,1774.20576,1774.63065,1774.594211,1779.2459,1778.086698
646.1039995,2523,1741.451594,1740.523528,-11.53574455,1723.587944,1682.045458,1733.211565,1735.92396,1732.566024,1742.536424,1737.331987,1736.394006,1735.371051,1735.923646,1736.087739,1740.453576,1739.276923
646.1119995,2523,1722.816779,1721.985564,-11.5139223,1705.152902,1663.544925,1714.681425,1717.412226,1713.876381,1725.709235,1720.539114,1719.572255,1718.581965,1719.327005,1719.270947,1723.866527,1722.563051
646.1199995,2523,1695.944771,1695.025381,-11.49189269,1678.320728,1636.722707,1687.78284,1690.632725,1687.17822,1702.291267,1697.112043,1696.060414,1695.208861,1695.884546,1695.83615,1700.349878,1698.941893
646.1279995,2523,1673.624945,1672.739054,-11.46965775,1656.09492,1614.600798,1665.440502,1668.429577,1664.92334,1674.233032,1668.998318,1668.208351,1667.205095,1667.904603,1667.75366,1672.229184,1670.96598
646.1359995,2523,1651.079311,1650.414016,-11.44721925,1633.589956,1592.368753,1642.789856,1645.857702,1642.307239,1656.680482,1651.900056,1650.753608,1649.890584,1650.595549,1650.357628,1654.911487,1653.700237
646.1439995,2524,1626.488762,1625.628314,-11.42457787,1608.983354,1568.071394,1618.259301,1621.315215,1617.842277,1628.625379,1623.8059,1622.208114,1621.596968,1622.263646,1622.078551,1626.67922,1625.496456
646.1519995,2524,1605.17777,1604.163703,-11.401735,1587.781427,1546.748982,1597.305243,1600.001207,1596.605358,1608.616965,1603.563962,1602.353773,1601.39385,1602.263989,1601.958543,1606.612466,1605.466769
646.1599995,2524,1581.33898,1580.421964,-11.37869211,1563.770863,1522.63048,1573.275628,1576.023074,1572.67062,1585.248978,1580.326981,1579.357679,1578.224259,1579.057775,1578.871076,1583.210634,1582.077115
646.1679995,2524,1559.307072,1558.379948,-11.35545034,1541.728424,1500.792819,1550.970222,1554.109026,1550.67037,1561.567665,1556.654954,1555.436093,1554.434991,1555.219555,1555.250679,1559.247318,1558.27161
646.1759995,2524,1536.959079,1535.974609,-11.33201136,1519.562317,1478.606546,1528.690054,1531.628969,1528.271907,1540.76937,1535.852446,1534.538982,1533.662471,1534.521191,1534.442739,1538.542687,1537.467426
646.1839995,2524,1514.204738,1513.280882,-11.30837662,1496.786542,1456.034794,1506.063134,1508.954664,1505.645943,1516.899409,1511.925547,1510.597451,1509.769964,1510.73347,1510.365107,1514.546569,1513.443913
646.1919995,2524,689.2170222,688.625326,-11.28454668,671.775846,631.9104911,681.4221189,684.3703012,680.7412562,1362.622132,1357.606749,1356.017109,1354.902046,1356.245941,1356.045431,1359.781352,1358.733165
646.1999995,2524,-1438.709541,-1438.579988,-11.26052354,-1456.35406,-1494.596569,-1446.125325,-1443.102143,-1447.539257,-214.8069742,-219.526526,-222.5865407,-224.7888517,-221.2154845,-221.9282569,-220.0002051,-221.6477205
646.2079995,2524,-2594.719915,-2593.940703,-11.23630865,-2612.316846,-2649.498345,-2601.83135,-2598.664136,-2603.579136,-2510.565731,-2515.073683,-2519.980994,-2523.907693,-2516.890997,-2518.656048,-2519.594117,-2521.625405
646.2159995,2524,-2092.922915,-2092.151418,-11.21190336,-2110.338736,-2147.770486,-2100.097733,-2097.117008,-2101.564479,-2407.675736,-2412.510023,-2417.308325,-2421.108164,-2414.188887,-2415.793928,-2416.86987,-2418.725271
646.2239995,2524,-2115.063282,-2114.611901,-11.1873088,-2132.784627,-2170.109466,-2122.546913,-2119.529547,-2123.940181,-1871.083439,-1876.045844,-1880.545107,-1883.684407,-1877.757965,-1879.352108,-1879.523176,-1881.364636
646.2319995,2524,-2237.229406,-2236.686797,-11.16252609,-2254.666555,-2291.914613,-2244.552284,-2241.38786,-2246.03785,-2383.238847,-2387.862615,-2392.758974,-2396.370092,-2389.676255,-2391.442474,-2392.382592,-2394.14434
646.2399995,2524,-2024.585086,-2023.93145,-11.13755689,-2041.759306,-2079.182025,-2031.768609,-2028.707774,-2033.256773,-2041.82141,-2046.379155,-2050.999103,-2054.351342,-2048.071767,-2049.482273,-2050.180287,-2051.994538
646.2479995,2524,-2133.328165,-2132.961882,-11.11240228,-2151.007588,-2188.119613,-2140.69103,-2137.590971,-2142.283884,-2067.944312,-2072.634054,-2077.303771,-2080.66305,-2074.307743,-2075.883216,-2076.421281,-2078.448527
646.2559995,2524,-2052.801436,-2052.399725,-11.08706378,-2070.291984,-2107.399024,-2060.228443,-2056.922225,-2061.444418,-2174.225841,-2178.906377,-2183.644057,-2187.170541,-2180.643705,-2182.327067,-2182.89334,-2184.840252
646.2639995,2524,-2012.802319,-2012.100141,-11.06154259,-2029.936274,-2067.045145,-2020.016477,-2016.89429,-2021.227778,-1944.892715,-1949.443306,-1953.886196,-1957.382697,-1951.256679,-1952.761553,-1952.946732,-1954.916744
646.2719995,2524,-2040.144671,-2039.42612,-11.03584057,-2057.259645,-2094.270611,-2047.013131,-2044.241324,-2048.608965,-2099.167512,-2103.631768,-2108.130469,-2111.651982,-2105.396519,-2106.850646,-2107.36864,-2109.297629
646.2799995,2524,-1954.80926,-1954.133587,-11.0099585,-1971.586892,-2008.665096,-1961.89266,-1958.81669,-1963.025307,-1969.053441,-1973.615794,-1978.179587,-1981.318914,-1975.277246,-1976.677156,-1977.145345,-1978.963909
646.2879995,2524,-1974.219143,-1973.599163,-10.98389808,-1991.027959,-2027.805201,-1981.512842,-1978.17014,-1982.525618,-1964.906559,-1969.609612,-1973.960959,-1977.369322,-1971.200807,-1972.807305,-1973.022154,-1974.981228
646.2959995,2524,-1928.393339,-1927.876248,-10.95766105,-1945.541721,-1982.211505,-1935.468263,-1932.470041,-1936.773917,-1979.360553,-1984.237716,-1988.289439,-1991.91768,-1985.565008,-1987.342701,-1987.629615,-1989.499322
646.3039995,2524,-1901.851193,-1901.311595,-10.93124713,-1918.970524,-1955.740513,-1908.998116,-1906.044184,-1910.095317,-1887.204556,-1892.058057,-1896.359152,-1899.571285,-1893.535651,-1894.986541,-1895.568864,-1897.1966
646.3119995,2524,-1892.216063,-1891.726096,-10.90465864,-1909.260006,-1945.710036,-1899.32623,-1896.307507,-1900.458193,-1926.306695,-1931.023089,-1935.466825,-1938.652397,-1932.659705,-1933.985776,-1934.608362,-1936.225149
646.3199995,2524,-1848.318314,-1847.922075,-10.8778979,-1865.332327,-1901.723677,-1855.409746,-1852.62234,-1856.698654,-1859.370998,-1864.069662,-1868.311586,-1871.74941,-1865.470693,-1867.096706,-1867.523811,-1869.148296
646.3279995,2524,-1839.822625,-1839.320648,-10.85096523,-1856.54399,-1893.087918,-1846.906149,-1844.135917,-1848.15219,-1850.284951,-1854.745162,-1859.125319,-1862.447679,-1856.143072,-1857.959654,-1858.256493,-1859.944665
646.3359995,2524,-1806.914927,-1806.190173,-10.82386183,-1823.508871,-1859.702907,-1813.59824,-1810.813573,-1814.998854,-1832.227046,-1836.877448,-1841.017688,-1844.138071,-1838.154247,-1840.101549,-1839.965138,-1841.732074
646.3439995,2524,-1784.133852,-1783.358865,-10.79658903,-1801.034411,-1837.050734,-1790.904026,-1788.224162,-1792.340535,-1789.70053,-1794.696414,-1798.686169,-1801.753431,-1795.994735,-1797.813372,-1797.68793,-1799.273689
646.3519995,2524,-1763.371697,-1762.85079,-10.76914896,-1780.353392,-1816.519599,-1770.476734,-1767.657332,-1771.647173,-1785.514783,-1790.260145,-1794.454873,-1797.359666,-1791.734203,-1793.239257,-1793.449924,-1795.072361
646.3599995,2524,-1734.001019,-1733.617446,-10.74154261,-1750.84508,-1786.823523,-1741.121419,-1737.903727,-1742.275332,-1746.735584,-1751.50577,-1755.725767,-1758.494906,-1752.887915,-1754.403435,-1754.421001,-1756.245628
646.3679995,2524,-1715.478029,-1715.091692,-10.71377045,-1732.107688,-1768.233273,-1722.56836,-1719.402995,-1724.021058,-1730.080002,-1734.880103,-1739.021415,-1741.905952,-1736.132971,-1737.767869,-1737.612761,-1739.40835
646.3759995,2524,-1688.599317,-1688.122192,-10.68583455,-1705.008258,-1741.304627,-1695.564437,-1692.790383,-1697.027202,-1706.611583,-1711.227946,-1715.239173,-1718.368919,-1712.580359,-1713.96327,-1714.181934,-1716.042369
646.3839995,2524,-1666.303478,-1665.694291,-10.65773663,-1682.770993,-1718.677757,-1673.278674,-1670.434402,-1674.589859,-1678.353672,-1683.03627,-1687.171278,-1690.14826,-1684.509602,-1685.810719,-1686.078309,-1687.997907
646.3919995,2524,-1643.739683,-1643.279546,-10.62947757,-1660.210472,-1696.062044,-1650.63743,-1647.878611,-1652.019698,-1661.315149,-1665.969335,-1669.785207,-1672.801352,-1667.169065,-1668.798611,-1668.644427,-1670.348123
646.3999995,2525,-1619.133125,-1618.759715,-10.60105849,-1635.749704,-1671.322415,-1625.891763,-1623.283352,-1627.301245,-1633.117662,-1637.817358,-1641.478206,-1644.579278,-1639.142983,-1640.619271,-1640.459934,-1642.247504
646.4079995,2525,-1597.812732,-1597.371578,-10.5724812,-1614.383381,-1649.810802,-1604.764978,-1601.882245,-1605.938843,-1612.646607,-1617.547632,-1621.58351,-1624.22527,-1619.055183,-1620.380549,-1620.314481,-1622.275542
646.4159995,2525,-1573.955771,-1573.462753,-10.54374648,-1590.043903,-1625.985814,-1580.80384,-1577.999386,-1581.782828,-1589.489656,-1594.272566,-1598.021733,-1600.925614,-1595.431835,-1596.969915,-1596.905014,-1598.655408
646.4239995,2525,-1551.919221,-1551.504107,-10.51485595,-1568.110655,-1603.777075,-1558.630877,-1555.860902,-1559.756114,-1565.98885,-1570.434489,-1574.109418,-1577.439489,-1571.676889,-1573.070232,-1573.061584,-1574.796299
646.4319995,2525,-1529.386834,-1529.169621,-10.48581087,-1545.678303,-1581.040375,-1536.367825,-1533.32185,-1537.532042,-1545.059968,-1549.479361,-1553.421657,-1556.509728,-1551.022344,-1552.335973,-1552.252558,-1553.90189
646.4399995,2525,-1506.740324,-1506.415353,-10.45661286,-1522.784781,-1558.217445,-1513.595013,-1510.735836,-1514.657399,-1520.922681,-1525.374666,-1529.401667,-1532.24152,-1526.82122,-1528.469847,-1528.196002,-1529.828456
646.4479995,2525,-681.9619473,-681.8589697,-10.42726324,-697.9843239,-733.978463,-688.8134,-686.1616372,-689.8042563,-1366.537926,-1370.993045,-1374.814424,-1377.556882,-1372.284047,-1373.971201,-1373.344021,-1374.945391
646.4559995,2525,1446.243515,1445.308242,-10.39776256,1430.407077,1392.725285,1438.669248,1441.388061,1438.176095,210.9014321,206.2457426,203.9739814,202.2102078,204.8375238,204.0409305,206.5346137,205.6156062
646.4639995,2525,2602.194959,2600.793266,-10.36811321,2586.364635,2548.105149,2594.400577,2597.202581,2594.266615,2506.538827,2501.956559,2501.60341,2501.469691,2500.590357,2500.791962,2506.046892,2505.493622
646.4719995,2525,2100.17923,2099.131022,-10.33831609,2084.329954,2046.434153,2092.649141,2095.482848,2092.381601,2403.819282,2399.105101,2398.894653,2398.716173,2398.030849,2398.123563,2403.457335,2402.686271
646.4799995,2525,2122.647529,2121.508882,-10.30837191,2107.017398,2069.050281,2115.059683,2117.80793,2114.908462,1867.451909,1862.581822,1861.951657,1861.564545,1861.515616,1861.39031,1866.065101,1865.386576
646.4879995,2525,2244.960547,2243.561402,-10.27828248,2229.087666,2191.410108,2237.267299,2240.042957,2237.139235,2379.067028,2374.588854,2374.262492,2374.30868,2373.65337,2373.653408,2378.658432,2378.24015
646.4959995,2525,2032.323201,2030.982879,-10.24804921,2016.275277,1978.860856,2024.521004,2027.262727,2024.329054,2037.569962,2032.988126,2032.686427,2032.299605,2032.29359,2032.132374,2036.759392,2036.106468
646.5039995,2525,2141.149018,2139.883347,-10.21767359,2125.308652,2088.042245,2133.40961,2136.106656,2133.401903,2064.123626,2059.396353,2058.961144,2058.699962,2058.485363,2058.479384,2063.344765,2062.499365
646.5119995,2525,2060.330556,2059.371637,-10.18715686,2044.637421,2007.577885,2052.941357,2055.616973,2052.77077,2170.273004,2165.877687,2165.227171,2165.252284,2164.70561,2164.995761,2169.628172,2168.940033
646.5199995,2525,2020.102915,2019.190156,-10.15650001,2004.585009,1967.506997,2012.768359,2015.447028,2012.588382,1940.820281,1936.344202,1935.63267,1935.525081,1935.158577,1935.382529,1939.632378,1938.903489
646.5279995,2525,2047.540766,2046.262955,-10.12570411,2032.091349,1995.02795,2039.991949,2042.912737,2039.881728,2095.130735,2090.639332,2090.044276,2089.992219,2089.564476,2089.569429,2094.217497,2093.429567
646.5359995,2525,1962.22133,1961.084663,-10.09477069,1946.705528,1909.910894,1954.812205,1957.662931,1954.319833,1965.089698,1960.778258,1960.00199,1959.556981,1959.589047,1959.698104,1964.006188,1963.207913
646.5439995,2525,1981.49909,1980.529497,-10.06370219,1966.057994,1929.471725,1974.16622,1976.903711,1973.83724,1961.011111,1956.628555,1955.976009,1955.372265,1955.321013,1955.586187,1959.948995,1959.183357
646.5519995,2525,1935.703963,1934.645022,-10.03249896,1920.299517,1883.716996,1928.148929,1930.980759,1928.054897,1975.59997,1971.170381,1970.61469,1970.15119,1970.13851,1970.198336,1974.46989,1973.97479
646.5599995,2525,1909.211864,1908.286041,-10.00116135,1893.936924,1857.46756,1901.967503,1904.574826,1901.496567,1883.734328,1879.159045,1878.424431,1877.994812,1878.050798,1878.154067,1882.267488,1881.838277
646.5679995,2525,1899.567838,1898.628154,-9.969691977,1884.485535,1847.948681,1892.43937,1894.915886,1892.056153,1922.660682,1918.04316,1917.288761,1917.19886,1916.902246,1916.853541,1921.550698,1920.875064
646.5759995,2525,1855.802068,1854.771364,-9.938091548,1840.510984,1804.047028,1848.341893,1850.873939,1848.224029,1855.647873,1851.088166,1850.413037,1850.174244,1850.303606,1849.923844,1854.592916,1853.724141
646.5839995,2525,1847.07967,1846.225823,-9.906361606,1831.830476,1795.766272,1839.838316,1842.332408,1839.575115,1846.58389,1842.202531,1841.456647,1840.843319,1841.179081,1841.035076,1845.224231,1844.482405
646.5919995,2525,1813.957345,1813.043003,-9.874504073,1798.831744,1763.033212,1806.793743,1809.23666,1806.481277,1828.408332,1824.194413,1823.485179,1822.868141,1823.052372,1823.04002,1827.109665,1826.606125
646.5999995,2525,1791.408256,1790.291275,-9.842519243,1776.050526,1740.557537,1784.163245,1786.503866,1783.794966,1786.24033,1781.636455,1781.171896,1780.577122,1780.769842,1780.677332,1784.995936,1784.327
646.6079995,2525,1770.765768,1769.805545,-9.810408748,1755.512195,1720.081633,1763.674299,1766.130548,1763.234528,1782.140568,1777.496673,1776.835198,1776.511354,1776.453104,1776.463112,1780.820519,1780.014981
646.6159995,2525,1741.454424,1740.601862,-9.778174001,1726.292436,1690.824645,1734.266975,1736.916829,1733.846674,1743.353969,1738.962569,1738.146224,1737.759911,1737.819927,1737.8149,1742.013011,1741.267473
646.6239995,2525,1722.920289,1722.107136,-9.745815749,1707.737214,1672.39729,1715.686766,1718.250215,1715.398159,1726.692184,1722.216043,1721.524017,1720.964675,1721.245558,1721.061893,1725.248268,1724.449449
646.6319995,2525,1695.958424,1695.006531,-9.71333572,1680.851877,1645.638632,1688.883994,1691.366365,1688.62496,1702.855417,1698.681978,1697.960621,1697.461464,1697.601469,1697.467596,1701.671289,1700.913443
646.6399995,2525,1673.772488,1672.492886,-9.680735747,1658.685407,1623.63773,1666.59301,1669.204114,1666.085734,1674.748871,1670.754898,1670.05212,1669.326071,1669.484323,1669.494588,1673.564894,1672.877799
646.6479995,2525,1651.169673,1650.038361,-9.64801652,1636.307835,1601.214297,1643.907211,1646.581058,1643.543792,1657.928306,1653.520966,1652.785521,1652.091452,1652.566578,1652.347943,1656.198435,1655.548258
646.6559995,2526,1626.34406,1625.459758,-9.615179157,1611.625913,1576.660327,1619.412066,1621.998312,1619.072869,1629.696879,1625.21393,1624.546342,1623.928596,1624.436269,1624.222497,1628.170594,1627.496931
646.6639995,2526,1604.905163,1604.169259,-9.582225127,1590.286976,1555.703908,1598.1305,1600.776845,1597.60211,1609.477742,1605.130801,1604.408699,1603.955174,1604.129117,1604.127863,1608.166574,1607.503991
646.6719995,2526,1580.956755,1580.178041,-9.549155386,1566.488361,1532.04975,1574.188177,1576.728018,1573.911574,1586.178017,1581.862771,1580.966888,1580.644769,1580.968313,1580.754863,1584.749335,1584.174677
646.6799995,2526,1559.134585,1557.981657,-9.515971781,1544.455378,1510.00846,1552.28612,1554.722299,1551.84043,1562.257658,1558.144709,1557.479099,1556.722462,1557.30841,1557.057768,1561.021321,1560.312376
646.6879995,2526,1536.817165,1535.784773,-9.48267583,1522.091776,1487.76422,1529.859892,1532.369531,1529.315243,1541.545911,1537.547394,1536.8418,1536.077803,1536.538702,1536.384226,1540.262483,1539.482456
646.6959995,2526,1513.949712,1513.198037,-9.449268152,1499.411721,1465.297189,1507.087054,1509.424732,1507.010033,1517.700455,1513.605158,1512.617002,1512.186999,1512.473305,1512.212199,1516.2272,1515.453691
646.7039995,2526,689.0385486,688.7114432,-9.415749909,674.6522241,641.0972962,682.4423795,684.8594914,682.0347574,1363.2708,1359.018694,1357.939424,1357.549605,1357.972875,1357.741162,1361.485057,1360.564934
646.7119995,2526,-1439.040879,-1438.396913,-9.38212266,-1453.393281,-1485.191843,-1445.06721,-1442.456402,-1446.16711,-214.0705196,-218.3067107,-220.6603635,-222.2788181,-219.2223479,-220.0171811,-218.4769102,-219.8216556
646.7199995,2526,-2594.883891,-2593.904988,-9.348388083,-2609.448265,-2640.046412,-2600.718722,-2598.196606,-2602.159814,-2509.568213,-2513.639724,-2518.08009,-2521.547648,-2514.856942,-2516.571514,-2518.01593,-2519.76752
646.7279995,2526,-2092.97313,-2092.322103,-9.31454687,-2107.515299,-2138.410584,-2098.936778,-2096.487205,-2100.544752,-2406.803246,-2410.79689,-2415.396999,-2418.629913,-2412.374551,-2413.820005,-2415.406179,-2416.803229
646.7359995,2526,-2115.563753,-2114.871705,-9.280600214,-2129.949746,-2160.705078,-2121.502215,-2118.87377,-2122.704064,-1870.530017,-1874.4402,-1878.433135,-1881.316371,-1875.969827,-1877.237611,-1877.955395,-1879.469421
646.7439995,2526,-2237.755537,-2236.819194,-9.246550013,-2251.958498,-2282.593079,-2243.670038,-2240.797698,-2244.701039,-2382.360623,-2386.262821,-2390.527706,-2393.855943,-2387.678555,-2389.214002,-2390.428854,-2392.372479
646.7519995,2526,-2024.977338,-2024.094607,-9.212396776,-2039.090032,-2069.709126,-2030.888418,-2028.142298,-2032.038464,-2040.901459,-2044.706672,-2048.935972,-2051.771322,-2046.252462,-2047.500002,-2048.519435,-2049.947898
646.7599995,2526,-2134.014636,-2133.133176,-9.178141762,-2148.137298,-2178.276115,-2139.711617,-2137.211584,-2140.888742,-2067.351465,-2071.07042,-2075.110176,-2078.126957,-2072.592853,-2073.918191,-2074.805324,-2076.228492
646.7679995,2526,-2053.424558,-2052.595427,-9.143787507,-2067.595689,-2097.644045,-2058.897855,-2056.545642,-2060.379166,-2173.422248,-2177.420293,-2181.362994,-2184.628034,-2178.680772,-2180.04722,-2181.026687,-2182.660027
646.7759995,2526,-2012.884413,-2012.45797,-9.109334003,-2027.388489,-2057.610642,-2018.745088,-2016.455864,-2020.106431,-1944.05212,-1947.893971,-1952.126556,-1954.847566,-1949.232765,-1950.606365,-1951.343113,-1952.814977
646.7839995,2526,-2040.072057,-2039.84247,-9.074782554,-2054.425891,-2084.574847,-2046.031842,-2043.708389,-2047.131271,-2098.294836,-2101.965977,-2106.291581,-2109.00999,-2103.529257,-2105.061774,-2105.811678,-2107.432802
646.7919995,2526,-1954.970309,-1954.631193,-9.04013526,-1969.124236,-1998.862073,-1960.573036,-1958.310621,-1961.71939,-1967.919507,-1971.976622,-1975.75681,-1978.697969,-1973.393773,-1974.712193,-1975.497437,-1976.970096
646.7999995,2526,-1974.350171,-1973.871328,-9.00539178,-1988.71365,-2018.246103,-1980.096475,-1977.758347,-1981.24928,-1963.929962,-1967.824158,-1971.712654,-1974.546003,-1969.16292,-1970.492766,-1971.436239,-1972.924054
646.8079995,2526,-1928.638971,-1928.10032,-8.970554557,-1942.733451,-1972.386196,-1934.528932,-1931.808498,-1935.593605,-1978.569426,-1982.318727,-1986.356874,-1988.989317,-1983.661725,-1985.034608,-1985.797329,-1987.776553
646.8159995,2526,-1902.339134,-1901.79555,-8.935625012,-1916.146405,-1945.906413,-1908.152727,-1905.469565,-1909.026046,-1886.353732,-1890.424233,-1894.199624,-1896.969006,-1891.477711,-1892.856728,-1893.546099,-1895.491138
646.8239995,2526,-1892.544644,-1891.893292,-8.900604066,-1906.257158,-1936.079155,-1898.230149,-1895.843289,-1899.220731,-1925.449958,-1929.370739,-1933.253648,-1936.066922,-1930.519377,-1931.981694,-1932.888407,-1934.331368
646.8319995,2526,-1848.71469,-1847.845933,-8.865493206,-1862.394714,-1891.825986,-1854.219779,-1851.68071,-1855.333364,-1858.652477,-1862.310262,-1866.307605,-1868.937527,-1863.778633,-1865.023476,-1865.757939,-1867.146845
646.8399995,2526,-1840.184707,-1839.396743,-8.830292499,-1853.905507,-1883.043777,-1845.719893,-1843.182132,-1846.741115,-1849.403051,-1853.102466,-1856.911424,-1859.723226,-1854.532975,-1855.684135,-1856.215601,-1857.901681
646.8479995,2526,-1806.964348,-1806.41163,-8.795004035,-1820.499352,-1849.720121,-1812.524321,-1810.057407,-1813.697777,-1831.223886,-1834.892034,-1838.619267,-1841.662745,-1836.358737,-1837.595091,-1838.256071,-1839.829141
646.8559995,2526,-1784.289861,-1783.669311,-8.759629616,-1797.922031,-1827.014994,-1789.997267,-1787.448584,-1791.01955,-1789.139582,-1792.526279,-1796.33204,-1799.366854,-1793.958302,-1795.292036,-1795.987847,-1797.46287
646.8639995,2526,-1763.637841,-1763.097719,-8.724169761,-1777.504711,-1806.389788,-1769.460208,-1767.165429,-1770.429223,-1784.967021,-1788.356923,-1792.233883,-1795.08181,-1789.629209,-1791.178773,-1791.636065,-1793.171483
646.8719995,2526,-1734.187794,-1733.814838,-8.688625442,-1747.88296,-1776.665204,-1739.750527,-1737.548462,-1741.1313,-1745.985359,-1749.79104,-1753.425823,-1756.225343,-1751.007938,-1752.389747,-1752.919678,-1754.329059
646.8799995,2526,-1715.798828,-1715.243078,-8.652998477,-1729.046268,-1757.985096,-1721.169636,-1718.845461,-1722.319776,-1729.558531,-1733.211315,-1736.567402,-1739.456011,-1734.298957,-1735.506072,-1736.016203,-1737.544197
646.8879995,2526,-1689.218848,-1688.399104,-8.617290117,-1702.200896,-1731.078167,-1694.541072,-1692.154086,-1695.334544,-1706.072725,-1709.617467,-1713.134595,-1715.751112,-1710.576068,-1711.970433,-1712.346565,-1714.041594
646.8959995,2526,-1666.799068,-1665.957444,-8.581500976,-1680.013007,-1708.658957,-1672.12218,-1669.856547,-1673.19095,-1677.563933,-1681.435671,-1684.912237,-1687.396782,-1682.406082,-1683.772765,-1684.407594,-1685.877672
646.9039995,2526,-1643.974261,-1643.291313,-8.545632247,-1657.307033,-1685.892687,-1649.289035,-1647.196336,-1650.544646,-1660.47335,-1663.989027,-1667.487608,-1669.987912,-1665.136271,-1666.534689,-1667.147514,-1668.280008
646.9119995,2527,-1619.346471,-1618.955707,-8.509685881,-1632.697665,-1660.964605,-1624.898728,-1622.551261,-1625.968098,-1632.362772,-1635.66213,-1639.369637,-1641.845167,-1637.160264,-1638.37134,-1639.025189,-1640.036156
646.9199995,2527,-1597.907283,-1597.667331,-8.473663075,-1611.158,-1639.485903,-1603.61033,-1601.289611,-1604.615589,-1612.046966,-1615.550902,-1619.052703,-1621.856087,-1617.005998,-1618.127625,-1618.865832,-1620.048335
646.9279995,2527,-1574.217854,-1573.712546,-8.437564133,-1587.10892,-1615.539458,-1579.553518,-1577.379328,-1580.589172,-1588.848066,-1592.268167,-1595.666734,-1598.534595,-1593.408292,-1594.919244,-1595.172162,-1596.498901
646.9359995,2527,-1552.290612,-1551.724054,-8.401390979,-1565.366291,-1593.398519,-1557.545802,-1555.392709,-1558.624387,-1565.050403,-1568.398128,-1572.036854,-1574.550683,-1569.883225,-1571.115843,-1571.418873,-1572.590105
646.9439995,2527,-1529.64908,-1529.144412,-8.365144322,-1542.907176,-1570.724135,-1534.967562,-1532.92582,-1536.245002,-1544.228982,-1547.568578,-1551.319188,-1553.727265,-1549.078086,-1550.181009,-1550.671096,-1551.941676
646.9519995,2527,-1507.074231,-1506.522032,-8.328825407,-1520.169748,-1547.842984,-1512.310283,-1510.089568,-1513.415499,-1520.206072,-1523.89246,-1527.19049,-1529.714002,-1524.90202,-1526.207677,-1526.413233,-1527.977581
646.9599995,2527,-682.2478994,-682.1140363,-8.292436209,-695.1894751,-723.546524,-687.7122769,-685.5238391,-688.3966252,-1365.659252,-1369.520317,-1372.480105,-1374.885484,-1370.628157,-1371.767417,-1371.74539,-1373.224763
646.9679995,2527,1445.966237,1445.167093,-8.255977276,1433.217865,1403.130669,1439.96779,1442.051271,1439.457875,211.576619,208.0080916,206.1731163,204.8012279,207.1001217,206.4453108,208.3025558,207.3170438
646.9759995,2527,2601.872238,2600.495248,-8.219449934,2589.068847,2558.323779,2595.546532,2597.615705,2595.244206,2507.148699,2503.459072,2503.839844,2504.074376,2502.870094,2503.308251,2507.812427,2507.526745
646.9839995,2527,2099.956551,2098.85081,-8.182855096,2087.216958,2057.143992,2093.898422,2095.797637,2093.595275,2404.547547,2400.755919,2401.056503,2401.527565,2399.831164,2400.441165,2405.106794,2404.595813
646.9919995,2527,2122.496439,2121.602012,-8.1461941,2110.043301,2079.930519,2116.610976,2118.514739,2116.189287,1868.150693,1864.472312,1864.080138,1864.153821,1863.611013,1863.84599,1868.078071,1867.118652
646.9999995,2527,2244.432866,2243.582595,-8.109468654,2232.187933,2201.845005,2238.398515,2240.533357,2238.286209,2379.950637,2376.231611,2376.311552,2376.618032,2375.549644,2376.02819,2380.503968,2379.937916
647.0079995,2527,2031.54817,2030.675671,-8.07267897,2019.297275,1989.355395,2025.523925,2027.770747,2025.429848,2038.595544,2034.95476,2034.596353,2034.856749,2034.096226,2034.260496,2038.462664,2037.907295
647.0159995,2527,2140.659757,2139.598508,-8.035826702,2128.199524,2098.508642,2134.712348,2136.926507,2134.598508,2064.991024,2061.349265,2061.232615,2061.601343,2060.638154,2060.620951,2065.00129,2064.528668
647.0239995,2527,2059.892661,2058.896573,-7.998913608,2047.595427,2018.292416,2054.172977,2056.258108,2054.144745,2171.105658,2167.294868,2167.566429,2167.995814,2166.722944,2166.949934,2171.169054,2170.881901
647.0319995,2527,2019.776952,2018.620821,-7.961940166,2007.72802,1978.419477,2014.068167,2016.088834,2013.849248,1941.811908,1938.088275,1937.882265,1937.981739,1937.275706,1937.422078,1941.580961,1941.026784
647.0399995,2527,2047.11278,2045.956368,-7.924907427,2034.843031,2005.597376,2041.175083,2043.378629,2041.212548,2095.977727,2092.4487,2092.461309,2092.309121,2091.507761,2091.603967,2096.235485,2095.76764
647.0479995,2527,1961.391074,1960.703811,-7.887816444,1949.295763,1920.578527,1955.774033,1957.748781,1955.78438,1965.796863,1962.202655,1962.388101,1962.032031,1961.419037,1961.583063,1965.854863,1965.484883
647.0559995,2527,1980.918028,1980.079724,-7.850668795,1969.208361,1940.387112,1975.278599,1977.214427,1975.283187,1961.890449,1958.259558,1958.346325,1958.104777,1957.624674,1957.788656,1961.821388,1961.519525
647.0639995,2527,1935.353344,1934.23642,-7.813465959,1923.456401,1894.613995,1929.477757,1931.635312,1929.648105,1976.429203,1972.90081,1972.964878,1972.902982,1972.217242,1972.297764,1976.341905,1976.034127
647.0719995,2527,1908.814546,1907.857387,-7.776208859,1896.898389,1868.097068,1903.237664,1905.151773,1902.886912,1884.534355,1880.938341,1880.918884,1880.767739,1880.029135,1880.183371,1884.153407,1883.683009
647.0799995,2527,1899.146301,1898.263124,-7.738898053,1887.292076,1858.666484,1893.578257,1895.47056,1893.142578,1923.51723,1920.021493,1919.895036,1919.734246,1919.11114,1919.257891,1923.31477,1922.896442
647.0879995,2527,1855.40165,1854.478266,-7.701534868,1843.415726,1815.313672,1849.792946,1851.770678,1849.443972,1856.350326,1853.16376,1852.833823,1852.762916,1852.336289,1852.414481,1856.350512,1855.733007
647.0959995,2527,1846.882607,1845.640328,-7.664121109,1834.973731,1806.813872,1841.17731,1843.264009,1840.802211,1847.386214,1844.043211,1843.928263,1843.730374,1843.233164,1843.367217,1847.181461,1846.504426
647.1039995,2527,1813.433492,1812.365034,-7.626657348,1801.781749,1773.706851,1807.873838,1809.877156,1807.595502,1829.218996,1825.763267,1825.657945,1825.573465,1825.113151,1825.129508,1829.017798,1828.582797
647.1119995,2527,1790.732258,1790.151215,-7.58914433,1779.196703,1751.414226,1785.368682,1787.223129,1785.095798,1786.799152,1783.517455,1783.1242,1783.18656,1782.77349,1782.915418,1786.694508,1786.212175
647.1199995,2527,1770.526196,1769.613575,-7.551584399,1758.874591,1730.94872,1764.84247,1766.766064,1764.725347,1782.760987,1779.2796,1779.134115,1779.039959,1778.588438,1778.937332,1782.601745,1781.986251
647.1279995,2527,1740.969732,1740.010537,-7.513978146,1729.527581,1701.790092,1735.565803,1737.193615,1735.327117,1744.007503,1740.468292,1740.265328,1740.294345,1739.928839,1740.019444,1743.802288,1743.17612
647.1359995,2527,1722.280042,1721.421991,-7.476326305,1710.966148,1683.65902,1716.975903,1718.558327,1716.714722,1727.459452,1723.960634,1723.623938,1723.655602,1723.160737,1723.16828,1727.005762,1726.451921
647.1439995,2527,1695.536521,1694.415335,-7.43863044,1684.146688,1656.852108,1690.03964,1691.734405,1689.914601,1704.010747,1700.473134,1700.188199,1700.182795,1699.638527,1699.805781,1703.530638,1702.977087
647.1519995,2527,1673.106969,1672.044851,-7.400890944,1661.885605,1634.559817,1667.709786,1669.520733,1667.582438,1675.772744,1672.370609,1672.04056,1672.150528,1671.695871,1671.820387,1675.353142,1674.800119
647.1599995,2527,1650.641918,1649.515433,-7.363109888,1639.24689,1612.16085,1644.897664,1646.994577,1644.866664,1658.65011,1655.149911,1654.994526,1654.831186,1654.438,1654.591016,1658.118353,1657.53332
647.1679995,2528,1626.132921,1625.072678,-7.325288145,1614.725571,1587.882535,1620.398799,1622.435386,1620.437184,1630.40381,1627.087459,1626.801535,1626.623244,1626.290563,1626.567133,1630.092359,1629.371774
647.1759995,2528,1604.675285,1603.696644,-7.287425891,1593.548197,1566.873316,1599.147598,1601.138714,1599.24969,1610.013257,1606.986451,1606.666676,1606.73757,1606.165634,1606.50385,1609.77488,1609.303476
647.1839995,2528,1580.829392,1579.634156,-7.249525088,1569.620965,1543.099813,1575.228583,1577.213255,1575.193745,1586.855107,1583.662715,1583.312534,1583.399748,1582.774711,1583.058924,1586.362942,1586.043155
647.1919995,2528,1558.711277,1557.865218,-7.211587442,1547.56332,1521.335169,1553.37726,1555.329491,1553.181371,1563.116434,1559.935141,1559.558296,1559.610396,1559.100399,1559.27328,1562.865106,1562.167658
647.1999995,2528,1536.126451,1535.543418,-7.173613413,1525.075681,1499.168084,1531.055567,1532.910493,1530.830454,1542.319742,1539.105868,1539.000044,1538.748132,1538.385607,1538.51259,1542.091796,1541.557328
647.2079995,2528,1513.558896,1512.725588,-7.135603627,1502.46009,1476.325317,1508.298919,1510.132514,1508.076298,1518.640188,1515.166522,1514.806536,1514.444367,1514.440223,1514.482972,1517.850409,1517.628262
647.2159995,2528,688.7442618,688.2829191,-7.097559367,677.7091099,652.1055426,683.4338118,685.5472307,683.1731594,1364.204935,1360.795934,1360.325316,1360.047845,1360.190452,1360.100117,1363.429706,1362.77978
647.2239995,2528,-1439.523673,-1439.039867,-7.059481878,-1450.515304,-1473.991922,-1444.219532,-1441.950912,-1444.895127,-213.2208207,-216.2569261,-218.1786544,-219.6199846,-217.0571639,-217.7997695,-216.3603882,-217.4946503
647.2319995,2528,-2595.498616,-2594.715682,-7.021372704,-2606.450367,-2628.82314,-2599.799929,-2597.67251,-2600.944142,-2508.773662,-2511.648218,-2515.928728,-2518.908774,-2512.700216,-2514.264611,-2516.198557,-2517.633373
647.2399995,2528,-2093.479463,-2092.967063,-6.98323258,-2104.453043,-2127.046616,-2097.762167,-2096.032333,-2098.972196,-2406.017819,-2409.070084,-2413.004161,-2415.835101,-2410.209878,-2411.455818,-2413.454731,-2414.791927
647.2479995,2528,-2115.884925,-2115.221388,-6.945062503,-2126.799493,-2149.280888,-2120.11882,-2118.331518,-2121.185759,-1869.619297,-1872.637181,-1876.024511,-1878.766667,-1874.019892,-1875.01347,-1876.210895,-1877.275918
647.2559995,2528,-2238.106537,-2237.242759,-6.906863891,-2248.922668,-2271.224146,-2242.298902,-2240.380052,-2243.435048,-2381.677865,-2384.534698,-2388.106199,-2391.373948,-2385.671519,-2387.010598,-2388.758518,-2390.068427
647.2639995,2528,-2025.354414,-2024.685706,-6.868637382,-2036.226453,-2058.496201,-2029.473635,-2027.855171,-2030.788565,-2040.23422,-2042.996088,-2046.384191,-2049.094143,-2044.135423,-2045.237635,-2046.436018,-2047.914127
647.2719995,2528,-2134.118725,-2133.694045,-6.830383571,-2144.968985,-2167.305054,-2138.600241,-2136.714798,-2139.693592,-2066.503928,-2069.211481,-2073.121665,-2075.547433,-2070.597088,-2071.748847,-2073.019539,-2074.398282
647.2799995,2528,-2053.400296,-2053.077664,-6.792104508,-2064.310943,-2086.382136,-2058.059315,-2055.991379,-2058.918905,-2172.816607,-2175.593236,-2179.201598,-2181.893792,-2176.645722,-2177.921097,-2179.341371,-2180.623367
647.2879995,2528,-2013.332838,-2012.839645,-6.753801181,-2024.108336,-2046.024439,-2017.667033,-2015.813267,-2018.586659,-1943.278898,-1945.946781,-1949.352652,-1952.029765,-1947.140047,-1948.221478,-1949.437602,-1950.619817
647.2959995,2528,-2040.882746,-2040.211848,-6.71547404,-2051.31483,-2073.304082,-2045.091788,-2043.140198,-2045.988133,-2097.314737,-2100.10935,-2103.718283,-2106.404718,-2101.377629,-2102.527223,-2103.875066,-2105.229946
647.3039995,2528,-1955.55052,-1954.933623,-6.677124634,-1966.139163,-1987.640868,-1959.772714,-1957.902468,-1960.787398,-1967.39674,-1970.253927,-1973.500517,-1975.971397,-1971.23213,-1972.31715,-1973.592247,-1974.965169
647.3119995,2528,-1974.794978,-1974.204457,-6.638753738,-1985.37074,-2006.862834,-1978.995237,-1977.261499,-1980.168709,-1963.400481,-1965.992037,-1969.563398,-1971.84305,-1967.085621,-1968.377382,-1969.914702,-1971.081116
647.3199995,2528,-1929.244336,-1928.571866,-6.60036259,-1939.310057,-1961.084546,-1933.266906,-1931.414921,-1934.260545,-1977.765868,-1980.608224,-1984.067538,-1986.60431,-1981.416141,-1982.879868,-1984.26947,-1985.599417
647.3279995,2528,-1902.967059,-1902.301705,-6.561952388,-1913.010289,-1934.499639,-1907.014419,-1905.079096,-1907.772102,-1885.668437,-1888.628555,-1891.670296,-1894.431555,-1889.317162,-1890.433029,-1891.777556,-1893.228483
647.3359995,2528,-1893.185724,-1892.400864,-6.523523974,-1903.343939,-1924.645304,-1897.287949,-1895.358134,-1898.187474,-1924.784624,-1927.413948,-1930.713444,-1933.204138,-1928.437055,-1929.624225,-1930.897745,-1932.362871
647.3439995,2528,-1849.463859,-1848.421,-6.485078075,-1859.261575,-1880.42794,-1853.23508,-1851.465015,-1854.387319,-1857.954497,-1860.482041,-1863.850611,-1866.188624,-1861.540628,-1862.764915,-1863.817293,-1865.245268
647.3519995,2528,-1840.742119,-1839.871905,-6.446615627,-1850.627955,-1871.593539,-1844.65269,-1842.9557,-1845.592366,-1848.766696,-1851.369562,-1854.483127,-1857.108898,-1852.546677,-1853.631808,-1854.825432,-1855.996978
647.3599995,2528,-1807.36473,-1806.785845,-6.408138318,-1817.43022,-1838.341885,-1811.589117,-1809.748561,-1812.402846,-1830.672647,-1833.292085,-1836.159758,-1838.952067,-1834.302725,-1835.604861,-1836.569024,-1837.724996
647.3679995,2528,-1784.906629,-1784.377106,-6.369647437,-1794.726877,-1815.471356,-1788.93876,-1787.033576,-1789.799424,-1788.394507,-1791.048011,-1793.898166,-1796.70412,-1791.829041,-1792.917483,-1794.177969,-1795.288978
647.3759995,2528,-1764.243078,-1763.69986,-6.331143246,-1774.184762,-1794.779586,-1768.253241,-1766.325564,-1768.833979,-1784.11123,-1786.776631,-1789.810806,-1792.389611,-1787.742648,-1788.880166,-1790.061553,-1791.273827
647.3839995,2528,-1734.794872,-1734.335877,-6.292626945,-1744.738414,-1765.300347,-1738.791511,-1736.982581,-1739.441463,-1745.428875,-1747.912524,-1751.144198,-1753.352551,-1748.827143,-1750.218783,-1750.996513,-1752.37015
647.3919995,2528,-1716.27856,-1716.015571,-6.254099278,-1726.238862,-1746.580961,-1720.213953,-1718.648731,-1721.248106,-1728.758498,-1731.264154,-1734.437582,-1736.709125,-1732.111088,-1733.145115,-1734.403206,-1735.430363
647.3999995,2528,-1689.285781,-1688.919979,-6.215561884,-1699.296258,-1719.689384,-1693.391077,-1691.806728,-1694.35642,-1705.148835,-1707.712855,-1710.799431,-1713.178198,-1708.642755,-1709.806247,-1710.829719,-1711.970536
647.4079995,2528,-1667.244774,-1666.694683,-6.177015813,-1676.866748,-1697.328777,-1671.223084,-1669.460472,-1672.032487,-1677.062012,-1679.616359,-1682.572166,-1684.896507,-1680.356793,-1681.607711,-1682.400522,-1683.824077
647.4159995,2528,-1644.81531,-1644.164606,-6.138460771,-1654.303443,-1674.362764,-1648.467053,-1646.742396,-1649.373308,-1659.743877,-1662.43564,-1665.237708,-1667.627359,-1663.15431,-1664.159855,-1665.236897,-1666.415652
647.4239995,2529,-1620.15975,-1619.392596,-6.099899227,-1629.470899,-1649.407786,-1623.6811,-1622.164334,-1624.627976,-1631.452175,-1634.095575,-1637.013979,-1639.302841,-1635.094725,-1636.168974,-1637.009061,-1638.271866
647.4319995,2529,-1598.733777,-1598.193348,-6.061331847,-1608.050801,-1627.982876,-1602.517882,-1600.95787,-1603.51938,-1611.239795,-1613.820821,-1616.73098,-1618.993742,-1614.967996,-1615.98656,-1616.631166,-1618.122558
647.4399995,2529,-1574.604857,-1574.34245,-6.022759147,-1584.12826,-1603.972061,-1578.58012,-1576.938582,-1579.585661,-1588.008842,-1590.421908,-1593.374082,-1595.761091,-1591.58251,-1592.696991,-1593.31073,-1594.60283
647.4479995,2529,-1552.678251,-1552.312832,-5.984182793,-1561.892019,-1581.643706,-1556.411989,-1554.897503,-1557.209114,-1564.284773,-1566.752422,-1569.71876,-1571.911513,-1567.631377,-1568.877263,-1569.475422,-1570.639039
647.4559995,2529,-1530.398136,-1529.900926,-5.945603267,-1539.505921,-1558.945952,-1534.177397,-1532.579141,-1534.882113,-1543.301203,-1545.97024,-1548.928863,-1551.016749,-1546.780688,-1547.935654,-1548.529563,-1549.903104
647.4639995,2529,-1507.722204,-1507.216931,-5.907021693,-1516.814602,-1536.190137,-1511.528882,-1509.817503,-1512.251219,-1519.519799,-1521.766997,-1524.810328,-1526.956632,-1522.78199,-1523.965673,-1524.652455,-1525.976054
647.4719995,2529,-682.845865,-682.7223398,-5.868439328,-691.6905487,-711.9554845,-686.5669347,-685.1852774,-687.3077456,-1365.390348,-1367.425246,-1370.122577,-1372.181321,-1368.29965,-1369.260599,-1370.217172,-1371.194095
647.4799995,2529,1445.21693,1444.41385,-5.829856839,1436.526488,1414.589838,1441.205523,1442.285874,1440.876981,212.1355369,209.7101429,208.493363,207.5170496,209.0258519,208.9783316,209.97357,209.2053441
647.4879995,2529,2601.043344,2599.798336,-5.791275212,2592.327425,2570.0166,2596.823516,2598.152245,2596.972168,2507.825609,2505.091637,2505.956788,2506.856578,2504.632245,2505.489174,2509.860924,2509.565002
647.4959995,2529,2099.362713,2098.257981,-5.752695254,2090.480515,2068.782176,2094.990181,2096.365853,2094.863262,2404.869698,2402.378208,2403.247345,2404.138649,2402.018199,2402.596651,2406.831444,2406.904612
647.5039995,2529,2121.92203,2120.725693,-5.714118085,2113.245533,2091.36234,2117.488314,2118.73104,2117.472998,1868.431805,1866.242925,1866.644227,1866.826411,1865.711793,1865.833298,1869.493453,1869.380386
647.5119995,2529,2243.927378,2242.639484,-5.675545005,2235.402074,2213.6453,2239.511823,2241.021936,2239.722294,2380.604489,2378.196623,2379.026765,2379.637927,2377.446869,2377.895152,2382.381563,2382.127572
647.5199995,2529,2031.169679,2030.101701,-5.636976292,2022.49817,2001.084011,2026.772073,2028.228323,2026.702668,2039.316104,2036.807703,2037.002832,2037.563316,2036.023087,2036.510117,2040.191789,2039.965868
647.5279995,2529,2139.961457,2139.128462,-5.598413701,2131.443925,2110.183141,2135.816943,2137.122396,2135.889987,2065.681405,2063.147502,2063.476921,2063.912654,2062.543059,2063.005909,2066.830956,2066.486454
647.5359995,2529,2059.197843,2058.419731,-5.559857481,2050.88608,2030.007061,2055.167501,2056.6146,2055.272051,2171.946774,2169.202308,2170.035108,2170.648845,2168.644021,2169.207051,2173.388021,2172.877418
647.5439995,2529,2019.095467,2018.250261,-5.521308285,2010.668684,1989.888912,2014.971424,2016.374701,2014.924568,1942.480781,1939.984908,1940.354578,1940.881984,1939.347091,1939.647699,1943.418595,1943.081946
647.5519995,2529,2046.458046,2045.580721,-5.48276892,2037.92793,2017.13396,2042.327791,2043.526053,2042.161473,2096.650265,2094.350885,2094.547044,2095.224711,2093.658723,2093.907482,2097.961425,2097.626509
647.5599995,2529,1961.069702,1960.169233,-5.444238592,1952.840014,1932.062094,1957.096187,1958.140433,1956.834643,1966.602555,1963.980754,1964.319117,1965.177887,1963.517874,1963.816204,1967.627786,1967.283244
647.5679995,2529,1980.635081,1979.57224,-5.405718191,1972.31483,1951.907197,1976.562696,1977.785629,1976.623673,1962.596131,1959.961523,1960.637242,1961.147122,1959.684187,1960.016932,1963.590748,1963.502188
647.5759995,2529,1934.868461,1933.914691,-5.367209328,1926.403115,1906.39385,1930.699882,1931.936589,1930.869032,1977.084808,1974.491564,1975.169476,1975.444823,1974.097356,1974.546957,1978.225964,1977.855411
647.5839995,2529,1908.246791,1907.512667,-5.328712815,1900.177607,1879.857942,1904.294857,1905.249768,1904.373588,1884.99751,1882.396213,1882.962982,1883.253855,1881.995077,1882.281102,1885.933813,1885.616181
647.5919995,2529,1898.611395,1897.764874,-5.290230063,1890.458455,1870.345498,1894.620976,1895.727052,1894.707173,1924.130575,1921.720978,1922.214596,1922.481211,1921.269335,1921.551773,1925.140559,1925.126458
647.5999995,2529,1854.58864,1853.702376,-5.251760636,1846.375988,1826.896421,1850.697035,1851.890707,1850.661417,1857.320694,1854.704817,1854.978958,1855.563049,1854.26496,1854.547484,1858.314911,1857.868047
647.6079995,2529,1845.976023,1845.091103,-5.213306317,1837.945626,1818.490578,1842.029007,1843.254789,1842.116219,1848.232049,1845.594322,1846.020437,1846.6692,1845.246094,1845.500248,1849.126789,1848.676916
647.6159995,2529,1812.9849,1812.032676,-5.174868525,1804.924403,1785.536292,1808.730139,1810.062723,1809.019324,1830.016452,1827.689814,1828.042675,1828.501827,1827.20281,1827.671399,1830.875216,1830.669869
647.6239995,2529,1790.337959,1789.413549,-5.136447421,1782.516586,1763.04326,1786.225058,1787.459994,1786.414369,1787.605138,1785.113828,1785.584074,1785.814018,1784.771804,1785.035187,1788.400804,1788.133027
647.6319995,2529,1769.67424,1768.983892,-5.098043617,1762.251067,1742.653697,1765.657351,1767.171114,1765.932517,1783.444635,1780.984388,1781.76647,1781.750696,1780.609666,1780.963291,1784.204206,1784.096467
647.6399995,2529,1740.097337,1739.49565,-5.059658328,1732.665134,1713.613901,1736.219244,1737.663388,1736.492415,1744.68353,1742.618592,1742.913797,1743.199156,1741.683986,1742.358309,1745.580202,1745.284957
647.6479995,2529,1721.576333,1720.749071,-5.021293416,1714.002781,1695.24882,1717.941634,1719.051883,1717.801659,1728.002349,1725.779168,1726.076533,1726.382712,1725.204474,1725.439996,1728.831458,1728.363873
647.6559995,2529,1694.888543,1693.982644,-4.982948661,1687.46304,1668.582551,1691.096211,1692.415798,1691.065547,1704.517855,1702.047574,1702.674445,1702.772632,1702.05749,1702.171539,1705.146226,1704.957036
647.6639995,2529,1672.710958,1671.655288,-4.944625097,1665.080273,1646.358068,1668.750983,1669.954582,1668.928398,1676.434745,1674.007024,1674.386731,1674.813791,1673.682406,1674.10752,1677.108889,1676.790719
647.6719995,2529,1650.04273,1648.995832,-4.906324478,1642.298534,1623.800383,1646.181101,1647.313889,1646.195326,1659.221502,1656.696227,1657.291526,1657.697605,1656.461454,1656.646528,1659.950427,1659.427362
647.6799995,2530,1625.404707,1624.579238,-4.868045977,1617.953791,1599.582505,1621.608504,1622.92935,1621.663762,1631.031448,1628.633515,1629.347098,1629.42544,1628.640606,1628.691206,1631.800615,1631.487386
647.6879995,2530,1604.095245,1603.440562,-4.829791719,1596.646647,1578.499869,1600.504446,1601.585105,1600.444697,1610.762955,1608.577083,1609.033133,1609.208206,1608.19509,1608.642209,1611.590412,1611.423365
647.6959995,2530,1579.949589,1579.577172,-4.791562674,1572.645946,1554.764187,1576.556343,1577.527683,1576.471104,1587.470752,1585.213301,1585.710317,1586.075295,1584.789423,1585.238418,1588.172145,1587.988397
647.7039995,2530,1557.954633,1557.285516,-4.753358452,1550.796832,1532.942805,1554.362044,1555.482757,1554.412597,1563.921507,1561.697031,1561.962891,1562.447816,1561.220514,1561.498593,1564.499051,1564.286339
647.7119995,2530,1535.726413,1534.654996,-4.715181608,1528.425171,1510.583295,1531.974335,1533.112011,1531.998071,1543.156103,1540.948678,1541.099829,1541.54713,1540.192972,1540.72758,1543.786856,1543.57906
647.7199995,2530,1512.874234,1512.029966,-4.677032467,1505.562445,1487.940431,1509.18381,1510.33292,1509.183955,1519.108977,1516.93928,1517.297231,1517.516431,1516.431366,1516.93225,1519.699767,1519.57939
647.7279995,2530,688.0388452,687.489648,-4.638911599,680.6330898,663.9726914,684.5401645,685.6710513,684.2831044,1364.708065,1362.699071,1362.836515,1362.851493,1362.236517,1362.491789,1365.096489,1364.948109
647.7359995,2530,-1439.806385,-1439.655701,-4.600819483,-1447.237015,-1461.921754,-1442.886587,-1441.785516,-1443.508097,-212.5034486,-214.5616799,-215.895878,-216.9831687,-215.2646619,-215.538946,-214.8594302,-215.3824877
647.7439995,2530,-2596.004662,-2595.116026,-4.562757085,-2602.968287,-2616.996911,-2598.542278,-2597.412273,-2599.567613,-2508.097913,-2510.054161,-2513.464473,-2516.129097,-2510.866276,-2512.085135,-2514.63876,-2515.672158
647.7519995,2530,-2094.378,-2093.548213,-4.524726301,-2101.182211,-2115.579256,-2096.740593,-2095.507819,-2097.86533,-2405.611987,-2407.380248,-2410.811798,-2413.303996,-2408.28315,-2409.61708,-2411.783508,-2412.992398
647.7599995,2530,-2116.700654,-2115.991743,-4.486727402,-2123.811623,-2137.698875,-2119.407495,-2118.021118,-2120.221005,-1869.222356,-1871.038008,-1873.873896,-1875.994295,-1871.913299,-1873.103523,-1874.408645,-1875.451737
647.7679995,2530,-2238.810419,-2237.915455,-4.448760392,-2245.770003,-2259.718618,-2241.580767,-2240.215721,-2242.412536,-2380.945629,-2382.682325,-2385.969199,-2388.496987,-2383.534318,-2385.026685,-2387.151551,-2388.091716
647.7759995,2530,-2025.911888,-2025.148282,-4.410826741,-2032.820275,-2046.679031,-2028.624121,-2027.24459,-2029.447015,-2039.611117,-2041.195871,-2044.336076,-2046.522355,-2041.866794,-2043.223264,-2044.938004,-2045.899874
647.7839995,2530,-2134.746485,-2134.320629,-4.372927638,-2141.794562,-2155.152938,-2137.596675,-2136.197049,-2138.276055,-2065.903386,-2067.564279,-2070.615164,-2072.911773,-2068.346233,-2069.388078,-2071.426122,-2072.443318
647.7919995,2530,-2054.522053,-2053.748955,-4.335063151,-2061.205652,-2074.836398,-2056.998635,-2055.637952,-2057.775743,-2171.948765,-2173.763629,-2176.886117,-2179.181578,-2174.707094,-2175.73843,-2177.730902,-2178.849349
647.7999995,2530,-2014.453602,-2013.377379,-4.297234827,-2021.119652,-2034.448835,-2016.831298,-2015.437348,-2017.483616,-1942.707945,-1944.517045,-1947.361734,-1949.183189,-1945.213019,-1946.314357,-1947.615845,-1948.935599
647.8079995,2530,-2041.583117,-2040.785826,-4.25944369,-2048.301776,-2061.383232,-2044.150665,-2042.973428,-2044.873714,-2096.866176,-2098.577603,-2101.452789,-2103.46309,-2099.366093,-2100.489982,-2102.145786,-2103.583192
647.8159995,2530,-1956.356879,-1955.456472,-4.221689416,-1962.736292,-1976.062432,-1958.680386,-1957.558438,-1959.576767,-1966.555112,-1968.232256,-1971.319738,-1973.27768,-1969.10747,-1970.23122,-1971.955593,-1973.025926
647.8239995,2530,-1975.781316,-1974.760745,-4.183972997,-1982.203922,-1995.194958,-1978.231887,-1976.941864,-1978.851273,-1962.621889,-1964.298278,-1967.294062,-1969.341216,-1965.19793,-1966.129148,-1968.024288,-1968.948722
647.8319995,2530,-1929.981179,-1929.096418,-4.146296341,-1936.476324,-1949.290388,-1932.3952,-1931.277458,-1933.198089,-1977.350854,-1978.890944,-1981.590534,-1983.771597,-1979.825427,-1980.655803,-1982.499396,-1983.585311
647.8399995,2530,-1903.584342,-1902.680035,-4.108659502,-1909.898107,-1922.664443,-1905.81704,-1904.685568,-1906.772601,-1885.178578,-1886.779166,-1889.514228,-1891.549083,-1887.574709,-1888.523023,-1890.152459,-1891.014383
647.8479995,2530,-1893.888398,-1893.032755,-4.071062988,-1900.059842,-1912.734575,-1896.399966,-1895.00993,-1897.113186,-1924.162429,-1925.876584,-1928.627384,-1930.783619,-1926.668379,-1927.40075,-1929.38861,-1930.160135
647.8559995,2530,-1849.979392,-1849.24583,-4.033508322,-1856.295694,-1868.800833,-1852.492351,-1851.144508,-1853.151626,-1857.345609,-1858.872949,-1861.495933,-1863.489434,-1859.610991,-1860.365621,-1862.235016,-1863.064199
647.8639995,2530,-1841.278339,-1840.572238,-3.995996046,-1847.771205,-1859.900264,-1843.804208,-1842.501109,-1844.334404,-1848.135735,-1849.621256,-1852.251128,-1854.047462,-1850.488618,-1851.556514,-1852.80312,-1853.827193
647.8719995,2530,-1808.064576,-1807.411606,-3.958526452,-1814.303665,-1826.752141,-1810.579038,-1809.42799,-1811.411758,-1830.153809,-1831.645657,-1834.265523,-1836.060998,-1832.571183,-1833.483977,-1834.778662,-1835.876844
647.8799995,2530,-1785.547481,-1784.798847,-3.921100846,-1791.612206,-1804.130964,-1787.830502,-1786.848035,-1788.765449,-1787.840525,-1789.382476,-1791.97349,-1793.678929,-1789.943003,-1790.798268,-1792.582389,-1793.361896
647.8879995,2530,-1764.966572,-1764.210333,-3.883720242,-1771.171577,-1783.207805,-1767.433859,-1766.208574,-1767.917795,-1783.462779,-1785.234888,-1787.708409,-1789.456993,-1785.586676,-1786.592836,-1788.313347,-1789.153043
647.8959995,2530,-1735.452604,-1734.912072,-3.846384442,-1741.589054,-1753.642057,-1737.894966,-1736.743226,-1738.496631,-1744.801201,-1746.413889,-1748.94056,-1750.763016,-1746.937863,-1747.977456,-1749.370479,-1750.424763
647.9039995,2530,-1717.032905,-1716.434959,-3.80909483,-1722.979955,-1734.845024,-1719.230297,-1718.191907,-1719.950082,-1728.215745,-1729.439736,-1732.134044,-1733.888956,-1730.07542,-1731.22458,-1732.538296,-1733.609909
647.9119995,2530,-1690.178474,-1689.584647,-3.771852427,-1696.146193,-1707.749312,-1692.46972,-1691.266334,-1693.136601,-1704.796481,-1705.956637,-1708.574726,-1710.31319,-1706.50925,-1707.653321,-1709.060526,-1709.97678
647.9199995,2530,-1667.86019,-1667.289004,-3.734657426,-1673.850846,-1685.461675,-1670.116707,-1669.16519,-1670.820736,-1676.569862,-1677.951572,-1680.416003,-1682.25658,-1678.548993,-1679.678735,-1680.962654,-1681.686412
647.9279995,2530,-1645.328194,-1644.876557,-3.697511216,-1651.40191,-1662.651154,-1647.633213,-1646.670099,-1648.186919,-1659.074065,-1660.671113,-1662.968445,-1664.779328,-1661.228645,-1662.241669,-1663.568469,-1664.346301
647.9359995,2531,-1620.701564,-1620.321836,-3.660413918,-1626.785915,-1637.758253,-1622.973153,-1621.815743,-1623.609828,-1631.171367,-1632.352914,-1634.800309,-1636.589365,-1633.077679,-1633.950427,-1635.402527,-1636.261639
647.9439995,2531,-1599.470211,-1598.765358,-3.623366609,-1605.269237,-1616.510651,-1601.529547,-1600.475392,-1602.21391,-1611.086367,-1612.233315,-1614.677034,-1616.506798,-1612.951442,-1614.070374,-1615.253574,-1616.096467
647.9519995,2531,-1575.553022,-1575.005239,-3.586370201,-1581.069753,-1592.560809,-1577.661849,-1576.602355,-1578.369118,-1587.300486,-1589.11754,-1591.208296,-1592.998835,-1589.515053,-1590.622989,-1591.837624,-1592.529784
647.9599995,2531,-1553.447065,-1552.964974,-3.549424758,-1558.853544,-1570.252824,-1555.531784,-1554.559586,-1556.255932,-1563.455957,-1565.115757,-1567.36971,-1569.03669,-1565.80873,-1566.739572,-1567.879115,-1568.706424
647.9679995,2531,-1530.973071,-1530.405476,-3.512531502,-1536.530162,-1547.600188,-1533.098424,-1532.176728,-1533.506919,-1542.802198,-1544.318388,-1546.707752,-1548.223051,-1545.029123,-1545.999869,-1547.056494,-1548.088489
647.9759995,2531,-1508.213638,-1507.868104,-3.475691154,-1513.908657,-1524.657613,-1510.538504,-1509.509223,-1511.006041,-1518.964095,-1520.449129,-1522.76365,-1524.351353,-1520.994417,-1521.931387,-1523.191855,-1523.961618
647.9839995,2531,-683.4823805,-683.194176,-3.438904833,-688.9126216,-700.3523673,-685.8021526,-684.9299174,-686.2575895,-1364.75584,-1365.786485,-1368.028032,-1369.554047,-1366.466117,-1367.27826,-1368.369889,-1369.041331
647.9919995,2531,1444.510533,1443.950551,-3.402172652,1439.493415,1426.215226,1441.969201,1442.713561,1442.143852,212.6738227,211.3480754,210.6424621,210.194053,210.9611359,210.9083044,211.6413111,211.3381674
647.9999995,2531,2600.442756,2599.246198,-3.365495403,2595.549252,2581.595653,2597.559831,2598.510619,2598.037903,2508.664616,2506.728812,2508.270102,2509.434395,2506.586931,2507.440728,2511.227081,2511.491811
648.0079995,2531,2098.466027,2097.615027,-3.328874164,2093.548469,2080.247609,2095.880413,2096.489015,2096.160381,2406.066418,2404.253149,2405.720559,2406.945477,2403.878067,2404.509008,2408.618806,2408.616849
648.0159995,2531,2121.117934,2120.025664,-3.292309254,2116.16154,2102.872447,2118.463808,2118.961393,2118.847519,1869.513858,1868.01909,1868.860258,1869.618118,1867.460456,1867.920713,1871.268493,1871.071781
648.0239995,2531,2243.223682,2242.101255,-3.255801446,2238.28244,2225.063204,2240.238991,2241.390269,2240.733505,2381.444503,2379.932155,2380.955444,2382.264871,2379.465371,2380.201472,2383.942646,2383.895306
648.0319995,2531,2030.120027,2029.325385,-3.219351484,2025.332521,2012.587028,2027.567897,2028.514959,2027.899405,2039.974343,2038.378456,2039.072414,2040.305711,2038.026095,2038.507149,2041.900055,2041.789552
648.0399995,2531,2139.340573,2138.338317,-3.182959988,2134.38614,2121.772236,2136.800299,2137.366702,2137.066636,2066.381445,2064.525936,2065.828894,2066.687522,2064.571038,2064.948189,2068.291704,2068.371825
648.0479995,2531,2058.786675,2057.881816,-3.146627697,2053.73501,2041.322939,2056.006357,2056.863666,2056.171872,2172.687176,2170.81879,2172.427281,2173.361604,2171.038301,2171.291485,2174.671753,2175.060512
648.0559995,2531,2018.255946,2017.582913,-3.110355961,2013.466499,2001.308595,2015.671875,2016.691336,2015.878979,1943.012789,1941.501914,1942.501206,1943.611785,1941.41623,1941.651544,1944.888463,1945.186358
648.0639995,2531,2045.76457,2044.870079,-3.074144714,2040.947435,2028.830898,2043.199175,2043.931597,2043.397465,2097.207219,2095.617037,2096.726819,2097.911767,2095.436294,2096.205854,2099.402726,2099.494107
648.0719995,2531,1960.396383,1959.548387,-3.037994698,1955.741016,1943.667084,1958.049549,1958.542775,1958.108938,1967.267383,1965.688727,1966.762804,1967.685157,1965.274275,1966.237033,1969.057232,1969.174044
648.0799995,2531,1979.467474,1978.918233,-3.001906453,1975.25225,1963.246157,1977.455596,1978.216258,1977.467589,1963.225082,1961.818187,1962.789572,1963.749948,1961.350713,1962.268149,1965.154028,1965.158087
648.0879995,2531,1933.978005,1933.230254,-2.965880712,1929.545935,1917.638061,1931.551089,1932.380345,1931.650388,1977.760583,1976.054,1977.299836,1978.254655,1975.895416,1976.748825,1979.81955,1979.744347
648.0959995,2531,1907.598374,1906.707516,-2.929918765,1902.993672,1891.385559,1905.048111,1905.740862,1905.44117,1885.664987,1884.073542,1885.345791,1885.947876,1883.783056,1884.404394,1887.47428,1887.584306
648.1039995,2531,1897.543122,1896.894143,-2.894020283,1893.484339,1881.929278,1895.429839,1896.287509,1895.932666,1924.632356,1923.360457,1924.370363,1925.10375,1923.093535,1923.520873,1926.500158,1926.504757
648.1119995,2531,1853.904311,1853.148982,-2.85818669,1849.816284,1838.248147,1851.511634,1852.357415,1851.920835,1857.694335,1856.217065,1857.217824,1858.285367,1856.23468,1856.573301,1859.591157,1859.471002
648.1199995,2531,1845.356682,1844.541893,-2.822418753,1840.92495,1829.697478,1842.94828,1843.62933,1843.377966,1848.465236,1847.19869,1848.231655,1849.149192,1846.95412,1847.417487,1850.48878,1850.514526
648.1279995,2531,1811.969722,1811.210029,-2.786716908,1807.731232,1796.72824,1809.875558,1810.392186,1810.2533,1830.353584,1829.05466,1830.110462,1830.881719,1828.864962,1829.43554,1832.26775,1832.361997
648.1359995,2531,1789.664713,1788.790517,-2.751081634,1785.360358,1774.468064,1787.260054,1787.792191,1787.416157,1788.234367,1786.672877,1787.659651,1788.692284,1786.679019,1787.094499,1789.976744,1790.107163
648.1439995,2531,1768.973333,1768.351458,-2.715512972,1764.960669,1753.820349,1766.677149,1767.442712,1766.968975,1784.06148,1782.852424,1783.639473,1784.528047,1782.504708,1783.082809,1785.931371,1786.076613
648.1519995,2531,1739.188971,1738.64578,-2.680012592,1735.637115,1724.532675,1737.298506,1738.011543,1737.544763,1745.366521,1743.968829,1745.054838,1745.508961,1743.607998,1744.525038,1747.101504,1747.066979
648.1599995,2531,1720.798725,1720.241143,-2.644581041,1716.920596,1706.459139,1718.802825,1719.643968,1718.658637,1728.650032,1727.144312,1728.156161,1728.798852,1726.99378,1727.591001,1730.187144,1730.060534
648.1679995,2531,1693.965572,1693.556774,-2.609218345,1690.084618,1679.691887,1691.957861,1692.716775,1691.974552,1705.017294,1703.822131,1704.528311,1705.321563,1703.757654,1704.084995,1706.650408,1706.708396
648.1759995,2531,1671.757771,1671.088201,-2.573925631,1667.987565,1657.58112,1669.770971,1670.206778,1669.901053,1676.983743,1675.724442,1676.573882,1677.410163,1675.524199,1676.204685,1678.543884,1678.892486
648.1839995,2531,1649.241011,1648.407283,-2.538703488,1645.23329,1635.190626,1647.050465,1647.854912,1647.19712,1659.737435,1658.578005,1659.281199,1660.347769,1658.192181,1659.024577,1661.34444,1661.608962
648.1919995,2532,1624.547061,1623.677169,-2.503551768,1620.639366,1610.743519,1622.361295,1623.174666,1622.622814,1631.682274,1630.523806,1631.308093,1632.025222,1630.241562,1630.782384,1633.396218,1633.370894
648.1999995,2532,1603.421969,1602.604167,-2.46847172,1599.562981,1589.644223,1601.309289,1601.83879,1601.376752,1611.548329,1610.125914,1611.185913,1611.675552,1609.987602,1610.272402,1612.955393,1613.191956
648.2079995,2532,1579.355572,1578.741403,-2.433464524,1575.545524,1565.755164,1577.380354,1578.040833,1577.500316,1587.893894,1586.741734,1587.635418,1588.537487,1586.704126,1586.975783,1589.624851,1589.767114
648.2159995,2532,1557.1666,1556.395678,-2.398530037,1553.513752,1543.937936,1555.235205,1555.799549,1555.492302,1564.168597,1563.365459,1563.949398,1564.963245,1563.0885,1563.496468,1566.101309,1565.996657
648.2239995,2532,1534.752359,1534.014184,-2.36366879,1531.142726,1521.774522,1532.773962,1533.383306,1533.041863,1543.690409,1542.5595,1543.063958,1543.945982,1542.27044,1542.86695,1545.122705,1545.339157
648.2319995,2532,1511.705003,1511.27327,-2.328881943,1508.45212,1499.179375,1510.093909,1510.597066,1510.347562,1519.58969,1518.356252,1519.161996,1519.890773,1518.343744,1518.865283,1521.345499,1521.348697
648.2399995,2532,687.0076147,686.8074154,-2.294169538,683.6742101,675.0859711,685.6989487,685.848586,685.5639369,1365.201524,1364.108289,1364.90792,1365.369574,1363.954678,1364.232156,1366.695811,1366.618301
648.2479995,2532,-1440.816628,-1440.404505,-2.259532108,-1444.550278,-1451.28509,-1442.142677,-1441.347073,-1442.54271,-212.008687,-213.1791067,-213.8515236,-214.2451031,-213.3406614,-213.6217867,-213.6412865,-213.8014108
648.2559995,2532,-2596.859353,-2595.960696,-2.224970945,-2600.398637,-2606.153576,-2598.049908,-2597.017204,-2598.672029,-2507.775138,-2508.675831,-2511.546368,-2513.591053,-2509.015207,-2510.166066,-2513.098671,-2514.064232
648.2639995,2532,-2094.949708,-2094.098506,-2.190486138,-2098.386887,-2104.393236,-2095.947872,-2095.398081,-2096.680383,-2405.028739,-2405.79834,-2408.574678,-2410.965596,-2406.321535,-2407.391672,-2410.155798,-2411.154324
648.2719995,2532,-2117.427262,-2116.577747,-2.156078555,-2120.991433,-2126.678608,-2118.448831,-2117.782145,-2118.973251,-1868.780058,-1869.592233,-1871.572417,-1873.314405,-1869.905942,-1870.710718,-1872.893575,-1873.614663
648.2799995,2532,-2239.408024,-2238.547804,-2.121748109,-2243.032461,-2248.476407,-2240.461963,-2239.961311,-2241.164799,-2380.65413,-2381.28458,-2384.014377,-2385.874648,-2381.672528,-2382.827177,-2385.58059,-2386.424834
648.2879995,2532,-2026.668291,-2025.987668,-2.087495473,-2030.202692,-2035.712417,-2027.818014,-2027.232672,-2028.373581,-2038.902833,-2039.618942,-2042.323455,-2044.04398,-2039.960816,-2041.101672,-2043.39521,-2044.141618
648.2959995,2532,-2135.892014,-2135.146759,-2.053322223,-2139.235349,-2144.512133,-2136.959742,-2136.096321,-2137.32369,-2065.460009,-2066.211894,-2068.690475,-2070.332054,-2066.464783,-2067.609801,-2069.89601,-2070.61594
648.3039995,2532,-2055.285636,-2054.305055,-2.019228022,-2058.358288,-2063.877708,-2056.03997,-2055.349472,-2056.630847,-2171.838294,-2172.465074,-2175.007092,-2176.754915,-2172.901127,-2174.026101,-2176.368777,-2177.158176
648.3119995,2532,-2015.070842,-2014.251176,-1.985213777,-2017.963595,-2023.669166,-2015.923684,-2015.244181,-2016.484244,-1942.296155,-1942.938435,-1945.375835,-1946.89816,-1943.538271,-1944.288739,-1946.164573,-1947.251551
648.3199995,2532,-2042.339048,-2041.545688,-1.95128012,-2045.380536,-2050.801816,-2043.177551,-2042.777072,-2043.9854,-2096.454368,-2097.039295,-2099.643141,-2101.235834,-2097.724138,-2098.482027,-2100.544085,-2101.73315
648.3279995,2532,-1956.972747,-1956.057377,-1.917426868,-1960.008829,-1965.364062,-1957.683158,-1957.337995,-1958.476131,-1966.290447,-1966.971607,-1969.240936,-1970.959119,-1967.500808,-1968.387717,-1970.40766,-1971.190088
648.3359995,2532,-1976.400509,-1975.755325,-1.883655239,-1979.331524,-1984.425205,-1977.172829,-1976.676343,-1977.776646,-1962.299132,-1962.99454,-1965.074039,-1966.822182,-1963.456772,-1964.274668,-1966.319658,-1967.173065
648.3439995,2532,-1930.576726,-1929.941269,-1.849965685,-1933.560926,-1938.495913,-1931.334668,-1930.837855,-1932.067626,-1976.705067,-1977.369173,-1979.702916,-1981.325344,-1977.880455,-1978.828165,-1981.004429,-1981.871893
648.3519995,2532,-1904.179824,-1903.488397,-1.816358549,-1907.190057,-1912.060159,-1905.09454,-1904.374589,-1905.686933,-1884.526483,-1885.449481,-1887.694634,-1889.057272,-1885.792967,-1886.683292,-1889.006279,-1889.267106
648.3599995,2532,-1894.547437,-1894.02249,-1.782834738,-1897.403255,-1902.01689,-1895.399912,-1894.853688,-1896.095462,-1923.75772,-1924.57342,-1926.621302,-1928.005404,-1925.007854,-1925.680034,-1928.100924,-1928.151886
648.3679995,2532,-1850.623358,-1849.904537,-1.749394343,-1853.404767,-1858.057829,-1851.27785,-1850.886343,-1852.003935,-1856.708521,-1857.313869,-1859.46911,-1861.104321,-1857.938071,-1858.794059,-1860.776751,-1861.201028
648.3759995,2532,-1842.078625,-1841.208533,-1.716037891,-1844.849815,-1849.353626,-1842.734486,-1842.120096,-1843.217208,-1847.512878,-1848.113234,-1850.29198,-1851.965848,-1848.530839,-1849.654014,-1851.531494,-1852.10731
648.3839995,2532,-1808.962249,-1808.205712,-1.682766155,-1811.488079,-1816.003241,-1809.674323,-1808.953507,-1810.04377,-1829.504314,-1830.092418,-1832.170531,-1833.789007,-1830.595004,-1831.473132,-1833.484683,-1834.134403
648.3919995,2532,-1786.292497,-1785.538252,-1.649579505,-1788.809978,-1793.567373,-1787.205806,-1786.42461,-1787.469239,-1787.124029,-1787.886867,-1789.963912,-1791.601358,-1788.354036,-1789.029458,-1790.98175,-1791.661603
648.3999995,2532,-1765.702613,-1764.983323,-1.616478643,-1768.309227,-1772.786776,-1766.591327,-1765.887601,-1767.157383,-1783.116794,-1783.815917,-1785.801473,-1787.233745,-1783.998974,-1784.892918,-1786.944167,-1787.386628
648.4079995,2532,-1736.303005,-1735.664254,-1.583464026,-1738.804615,-1743.042263,-1736.878584,-1736.514706,-1737.758548,-1744.378016,-1744.927959,-1746.935288,-1748.411622,-1745.321233,-1746.060589,-1748.101116,-1748.642178
648.4159995,2532,-1717.899065,-1717.164516,-1.550536012,-1720.159695,-1724.427024,-1718.393761,-1718.144805,-1719.045992,-1727.470013,-1728.138583,-1730.125026,-1731.699986,-1728.416779,-1729.109981,-1731.006478,-1731.619384
648.4239995,2532,-1690.979343,-1690.262903,-1.517695359,-1693.12389,-1697.345609,-1691.709237,-1691.200096,-1692.194419,-1703.975282,-1704.649321,-1706.666114,-1708.022082,-1704.881692,-1705.703499,-1707.644031,-1708.243412
648.4319995,2532,-1668.51037,-1667.982519,-1.48494242,-1671.010316,-1674.799519,-1669.350401,-1668.783035,-1669.829382,-1675.881228,-1676.593963,-1678.621191,-1680.000256,-1676.972905,-1677.814285,-1679.672931,-1680.26451
648.4399995,2532,-1646.098253,-1645.46024,-1.452277361,-1648.615437,-1652.120423,-1646.794264,-1646.295277,-1647.138584,-1658.585206,-1659.355898,-1661.027075,-1662.536438,-1659.477804,-1660.559893,-1662.190964,-1662.70011
648.4479995,2533,-1621.535057,-1620.731021,-1.419700887,-1623.86795,-1627.653172,-1622.362921,-1621.73479,-1622.666469,-1630.383333,-1631.135102,-1632.849592,-1634.174657,-1631.269138,-1632.185706,-1633.932676,-1634.560263
648.4559995,2533,-1600.057909,-1599.325901,-1.387213657,-1602.310739,-1606.051736,-1601.038628,-1600.300028,-1601.327533,-1610.141138,-1610.936056,-1612.797555,-1613.816515,-1611.07975,-1611.865559,-1613.779143,-1614.357512
648.4639995,2533,-1576.190633,-1575.64361,-1.354815725,-1578.243239,-1581.885289,-1576.883876,-1576.377844,-1577.134399,-1586.890889,-1587.56646,-1589.358769,-1590.415412,-1587.766561,-1588.574279,-1590.418029,-1591.081312
648.4719995,2533,-1554.248135,-1553.770794,-1.322508492,-1556.464082,-1559.862583,-1554.776023,-1554.48874,-1555.133762,-1563.186794,-1563.839535,-1565.644497,-1566.779148,-1564.197548,-1564.755632,-1566.488177,-1567.144479
648.4799995,2533,-1531.842459,-1531.229254,-1.29029163,-1533.879236,-1536.910421,-1532.354774,-1532.018778,-1532.879092,-1542.315876,-1543.082104,-1544.653014,-1545.737523,-1543.236136,-1543.824234,-1545.527415,-1546.104898
648.4879995,2533,-1509.14436,-1508.431413,-1.258165255,-1510.763897,-1514.123946,-1509.493435,-1509.196789,-1510.222211,-1518.577959,-1519.033839,-1520.706367,-1521.929447,-1519.207275,-1519.929919,-1521.680426,-1522.373642
648.4959995,2533,-684.3839148,-683.8991258,-1.22613095,-686.097134,-690.0547842,-684.7960205,-684.7086643,-685.3520362,-1364.269429,-1364.553515,-1366.292767,-1367.489662,-1364.881181,-1365.528603,-1367.104375,-1367.478583
648.5039995,2533,1443.767043,1443.12463,-1.194188135,1441.950034,1436.650534,1442.700122,1442.636293,1442.889388,213.2783538,212.6964656,212.6252293,212.5596384,212.5141731,212.5855464,212.9772199,213.0158522
648.5119995,2533,2599.683088,2598.396787,-1.162338047,2598.021558,2591.880731,2598.295318,2598.396956,2598.814119,2509.009971,2508.230265,2510.355523,2511.824128,2508.233679,2509.196645,2512.607508,2513.02895
648.5199995,2533,2097.559722,2096.772859,-1.130581118,2096.131018,2090.535872,2096.463324,2096.684471,2096.840954,2406.283761,2405.553132,2407.58687,2409.10672,2405.664172,2406.547774,2409.877994,2410.42503
648.5279995,2533,2120.381672,2119.403274,-1.098916876,2118.873203,2113.136392,2118.960811,2119.263875,2119.442972,1869.662066,1868.985916,1870.580755,1871.936669,1869.121607,1870.012101,1872.482819,1872.960936
648.5359995,2533,2242.638398,2241.603213,-1.067346263,2241.084572,2235.342882,2241.133208,2241.409315,2241.684732,2381.562356,2380.761117,2382.927976,2384.512832,2380.833814,2382.080323,2385.255784,2385.666432
648.5439995,2533,2029.646165,2028.935126,-1.03586995,2028.056199,2022.982455,2028.483514,2028.635733,2029.052581,2040.217465,2039.56261,2041.267267,2042.632422,2039.665877,2040.485992,2043.322962,2043.527118
648.5519995,2533,2138.691702,2137.815014,-1.004488215,2137.052736,2132.065103,2137.412814,2137.737694,2137.941806,2066.352891,2065.95014,2067.499873,2069.097832,2066.242963,2066.795918,2069.462826,2069.967001
648.5599995,2533,2057.888302,2057.031569,-0.973201574,2056.546343,2051.47745,2056.72292,2056.941376,2057.148408,2172.609977,2172.063218,2173.924597,2175.413078,2172.250676,2173.004277,2175.86952,2176.421649
648.5679995,2533,2017.706862,2016.566457,-0.942010393,2016.310334,2011.338282,2016.538184,2016.824122,2017.138063,1943.428159,1942.767593,1944.561098,1945.534322,1942.844047,1943.315382,1946.282214,1946.605225
648.5759995,2533,2045.096012,2043.834331,-0.910914873,2043.628401,2038.944332,2043.897296,2044.19765,2044.356714,2097.620721,2096.969149,2098.874732,2100.063435,2097.155519,2097.846956,2100.731882,2101.149005
648.5839995,2533,1959.581975,1958.789533,-0.879916135,1958.329145,1953.864202,1958.568343,1958.488008,1958.875864,1967.52353,1966.711416,1968.404208,1969.737664,1966.905894,1968.042434,1970.625774,1970.809068
648.5919995,2533,1978.958717,1978.181722,-0.849013887,1977.732116,1973.1032,1977.857892,1977.991249,1978.40391,1963.472232,1962.657574,1964.492846,1965.572286,1962.979102,1963.674771,1966.606539,1966.901441
648.5999995,2533,1933.119287,1932.215327,-0.818208556,1931.959185,1927.492627,1932.107635,1932.35641,1932.440664,1977.992448,1977.402029,1979.344912,1980.381661,1977.665592,1978.288903,1980.944344,1981.479057
648.6079995,2533,1906.783836,1905.929215,-0.78750094,1905.690479,1901.623062,1905.81126,1906.019692,1906.218256,1886.053827,1885.520364,1886.99506,1888.25437,1885.710566,1886.393895,1888.910577,1889.270757
648.6159995,2533,1897.109233,1896.272886,-0.756890979,1895.94817,1892.062124,1895.987561,1896.271477,1896.837332,1925.109645,1924.538787,1926.004138,1927.401395,1924.800793,1925.277699,1927.902532,1928.455372
648.6239995,2533,1853.114647,1852.313989,-0.726379387,1851.993973,1848.225289,1852.040483,1852.222407,1852.74127,1858.218501,1857.763159,1859.299333,1860.499298,1857.741507,1858.468161,1860.811346,1861.382658
648.6319995,2533,1844.45773,1843.737093,-0.695966309,1843.580024,1839.549687,1843.67367,1843.692303,1844.150625,1848.903017,1848.818069,1850.240381,1851.166157,1848.670436,1849.323151,1852.021986,1852.381425
648.6399995,2533,1811.163727,1810.490396,-0.665652719,1810.228739,1806.376595,1810.607282,1810.438145,1811.035033,1830.623041,1830.564151,1832.042399,1833.097415,1830.62747,1830.961115,1833.814964,1834.090368
648.6479995,2533,1788.767505,1788.051743,-0.635438635,1787.694586,1784.344948,1788.026419,1787.976467,1788.407544,1788.559909,1788.067172,1789.64949,1790.867487,1788.207903,1788.756983,1791.297284,1791.492248
648.6559995,2533,1768.23118,1767.534848,-0.6053241,1767.411721,1763.922259,1767.324518,1767.465142,1767.803982,1784.380164,1783.853382,1785.499808,1786.630735,1784.076092,1784.864474,1786.942228,1787.469685
648.6639995,2533,1738.579659,1737.854381,-0.57530988,1737.938291,1734.362959,1737.829349,1737.954518,1738.363645,1745.635233,1745.188182,1746.694497,1747.866693,1745.4471,1746.11604,1748.208029,1748.608522
648.6719995,2533,1720.101066,1719.400539,-0.545396441,1719.529874,1715.915094,1719.652648,1719.481066,1720.078542,1729.098506,1728.425538,1729.810444,1731.250022,1728.600133,1729.226675,1731.818902,1731.809161
648.6799995,2533,1693.29278,1692.688661,-0.515583855,1692.613496,1689.329664,1692.815269,1692.546946,1693.310278,1705.464557,1704.882196,1706.310833,1707.879359,1705.014943,1705.769745,1708.245719,1708.384275
648.6879995,2533,1671.1157,1670.419783,-0.485872205,1670.317975,1667.50856,1670.368039,1670.400598,1670.830336,1677.332199,1677.04129,1678.499673,1679.653031,1677.089552,1677.820556,1680.138428,1680.366788
648.6959995,2533,1648.513662,1647.831828,-0.4562631,1647.867037,1644.875835,1647.777852,1647.87549,1648.112928,1660.034089,1659.637244,1661.297825,1662.193518,1659.859077,1660.468044,1662.628201,1663.1077
648.7039995,2534,1623.802955,1623.118766,-0.426756049,1623.311015,1620.342498,1623.161567,1623.176456,1623.58764,1631.844421,1631.314653,1633.03353,1634.053676,1631.744867,1632.390257,1634.338307,1634.944867
648.7119995,2534,1602.607332,1601.670669,-0.397350385,1602.154399,1599.352724,1601.891816,1601.908837,1602.293304,1611.949598,1611.47672,1613.026716,1613.892035,1611.727607,1612.382001,1614.455117,1614.986082
648.7199995,2534,1578.621814,1577.770311,-0.368047677,1578.138471,1575.328128,1577.926071,1577.91995,1578.211434,1588.668125,1588.307122,1589.71987,1590.616122,1588.339221,1588.864116,1590.945344,1591.496858
648.7279995,2534,1556.462301,1555.854266,-0.338848623,1556.062698,1553.486545,1555.94988,1555.840518,1556.104002,1564.733937,1564.616452,1565.733677,1566.79494,1564.518481,1565.13933,1567.103469,1567.483188
648.7359995,2534,1534.190605,1533.486892,-0.309752714,1533.77968,1531.443291,1533.485815,1533.606287,1533.765336,1543.906128,1543.863644,1544.928744,1545.938261,1543.814315,1544.366737,1546.357985,1546.845299
648.7439995,2534,1511.348431,1510.739631,-0.280760712,1511.155485,1508.790745,1510.701752,1510.844071,1511.128611,1519.930729,1519.722616,1520.991965,1522.149755,1519.815242,1520.127617,1522.211935,1522.761066
648.7519995,2534,686.1944609,686.0563646,-0.251873111,686.0943373,684.5354096,686.1057238,685.9039976,686.2979059,1365.456705,1365.232064,1366.359376,1367.472704,1365.326695,1365.89152,1367.645942,1367.914286
648.7599995,2534,-1441.768049,-1441.141288,-0.2230891,-1442.253373,-1441.745628,-1441.471235,-1441.430214,-1441.795177,-211.8247549,-211.8822963,-212.0868778,-212.3150306,-211.9551131,-211.8004151,-212.0756413,-212.3027973
648.7679995,2534,-2597.645963,-2596.514124,-0.194410263,-2598.059942,-2596.603206,-2597.070165,-2596.939313,-2598.008524,-2507.485872,-2507.43614,-2509.533613,-2511.353599,-2507.604087,-2508.490143,-2511.70556,-2512.444985
648.7759995,2534,-2095.692929,-2094.905738,-0.165837238,-2096.096746,-2094.979194,-2095.493518,-2095.285548,-2096.061835,-2404.921417,-2404.759237,-2406.887574,-2408.592904,-2404.907266,-2405.857917,-2409.043295,-2409.532323
648.7839995,2534,-2118.074844,-2117.371473,-0.137369015,-2118.620815,-2117.223283,-2118.087657,-2117.648786,-2118.298221,-1868.4508,-1868.212665,-1869.950973,-1871.485091,-1868.472154,-1869.384499,-1871.647462,-1872.034683
648.7919995,2534,-2240.349528,-2239.35168,-0.109006581,-2240.58342,-2239.197783,-2239.812136,-2239.782847,-2240.660074,-2380.304923,-2380.156195,-2382.423993,-2384.051355,-2380.414638,-2381.444874,-2384.371079,-2385.141122
648.7999995,2534,-2027.753442,-2026.680152,-0.080749788,-2027.542622,-2026.448932,-2027.05772,-2026.971412,-2027.708782,-2038.866886,-2038.658185,-2040.640532,-2041.965095,-2038.98887,-2039.667838,-2042.452824,-2042.96929
648.8079995,2534,-2136.80271,-2135.697943,-0.052599552,-2136.66623,-2135.12611,-2136.331881,-2135.796393,-2136.407802,-2065.15169,-2064.88568,-2066.651969,-2068.228567,-2065.282445,-2065.957697,-2068.91385,-2069.190211
648.8159995,2534,-2055.876371,-2055.019292,-0.024556233,-2056.185576,-2054.487594,-2055.730797,-2055.38671,-2056.006538,-2171.340109,-2171.252134,-2173.084184,-2174.366647,-2171.332073,-2172.204023,-2175.09533,-2175.515093
648.8239995,2534,-2015.461219,-2014.576978,0.003380513,-2015.760675,-2014.014476,-2015.360738,-2015.304761,-2015.725492,-1941.929017,-1941.879258,-1943.517468,-1944.69531,-1941.872585,-1942.633531,-1945.253285,-1945.599004
648.8319995,2534,-2042.902766,-2041.876614,0.031209663,-2043.080222,-2041.170963,-2042.517706,-2042.399102,-2042.891241,-2096.186032,-2095.915066,-2097.6984,-2099.263488,-2096.181587,-2096.798599,-2099.878254,-2100.138555
648.8399995,2534,-1957.602665,-1956.757399,0.058931428,-1957.628915,-1956.022978,-1957.125861,-1956.981557,-1957.668911,-1966.096336,-1965.732882,-1967.450946,-1969.014559,-1966.078066,-1966.881686,-1969.33872,-1969.88913
648.8479995,2534,-1977.074212,-1976.186339,0.086545383,-1976.887719,-1975.355241,-1976.677193,-1976.607917,-1977.120903,-1961.934678,-1961.92901,-1963.488583,-1965.143022,-1962.038151,-1962.956415,-1965.263609,-1965.945199
648.8559995,2534,-1931.299596,-1930.400545,0.114051417,-1931.180259,-1929.297365,-1930.806891,-1930.655466,-1931.265428,-1976.478248,-1976.374134,-1978.117272,-1979.544853,-1976.46676,-1977.168506,-1980.00669,-1980.237681
648.8639995,2534,-1904.826038,-1904.047747,0.14144905,-1904.717744,-1902.618124,-1904.177142,-1904.11933,-1904.815829,-1884.574131,-1883.944341,-1885.839893,-1887.160913,-1884.203987,-1884.966548,-1887.767306,-1887.95217
648.8719995,2534,-1895.336902,-1894.573588,0.168737869,-1895.001399,-1893.16011,-1894.70449,-1894.68979,-1895.339517,-1923.542192,-1923.206208,-1924.910814,-1926.285103,-1923.263527,-1924.02695,-1926.741714,-1927.246574
648.8799995,2534,-1851.562904,-1850.765701,0.195917754,-1851.123974,-1849.352457,-1850.961366,-1850.761956,-1851.416559,-1856.430322,-1856.45678,-1857.842789,-1859.236051,-1856.484536,-1857.017866,-1859.480655,-1859.960573
648.8879995,2534,-1842.799132,-1842.209121,0.222988511,-1842.497415,-1840.328903,-1842.289411,-1842.24241,-1842.67003,-1847.295974,-1847.221459,-1848.61631,-1850.040948,-1847.40342,-1847.944425,-1850.324082,-1850.909594
648.8959995,2534,-1809.666947,-1809.101688,0.249949708,-1809.249222,-1806.953941,-1809.024411,-1809.130092,-1809.491544,-1829.300818,-1828.970699,-1830.696229,-1831.91316,-1829.242678,-1830.029504,-1832.24644,-1832.965101
648.9039995,2534,-1787.248058,-1786.33071,0.276801674,-1786.759085,-1784.179075,-1786.294943,-1786.491653,-1786.775991,-1786.902801,-1786.397206,-1788.339528,-1789.623107,-1786.91804,-1787.68019,-1789.738587,-1790.182388
648.9119995,2534,-1766.599668,-1765.850549,0.30354378,-1766.270857,-1763.426562,-1765.694936,-1765.903796,-1766.210797,-1782.720901,-1782.372974,-1784.043397,-1785.399061,-1782.71715,-1783.29392,-1785.598493,-1785.804634
648.9199995,2534,-1737.022022,-1736.396062,0.330174994,-1736.605422,-1734.026694,-1736.346752,-1736.210231,-1736.737746,-1744.222767,-1743.856825,-1745.147332,-1746.419281,-1743.918904,-1744.565063,-1746.870169,-1747.166099
648.9279995,2534,-1718.472984,-1717.596509,0.356695965,-1717.998907,-1715.557575,-1717.819715,-1717.874359,-1718.230301,-1727.411418,-1727.159533,-1728.440798,-1729.739591,-1727.258513,-1727.830562,-1730.204401,-1730.386186
648.9359995,2534,-1691.695895,-1690.782396,0.383105951,-1691.199892,-1688.690362,-1691.00837,-1691.094087,-1691.458834,-1703.763694,-1703.513495,-1705.006443,-1706.151037,-1703.758003,-1704.412868,-1706.731839,-1706.734564
648.9439995,2534,-1669.552961,-1668.732062,0.409405419,-1669.031493,-1666.326774,-1668.986364,-1668.65625,-1669.260554,-1675.825048,-1675.251333,-1676.877157,-1677.955579,-1675.583761,-1676.400005,-1678.438609,-1678.705815
648.9519995,2534,-1646.852422,-1646.192497,0.435593986,-1646.390989,-1643.565799,-1646.377512,-1646.392636,-1646.694949,-1658.467847,-1658.167763,-1659.574186,-1660.858173,-1658.230935,-1658.951798,-1660.967561,-1661.477728
648.9599995,2535,-1622.041828,-1621.348534,0.461670381,-1621.526825,-1618.604711,-1621.499726,-1621.588143,-1621.910613,-1630.130395,-1630.058156,-1631.231184,-1632.401942,-1630.019357,-1630.744298,-1632.746053,-1633.317677
648.9679995,2535,-1600.83736,-1600.288077,0.487635012,-1600.32509,-1597.035476,-1600.138087,-1600.156199,-1600.654777,-1609.998861,-1609.876975,-1611.112156,-1612.091446,-1609.807552,-1610.500454,-1612.61247,-1613.073228
648.9759995,2535,-1576.998277,-1576.432799,0.513487999,-1576.315012,-1573.016135,-1576.213809,-1576.483462,-1576.688353,-1586.823109,-1586.720138,-1587.764522,-1588.970303,-1586.461315,-1587.128034,-1589.289737,-1589.492555
648.9839995,2535,-1554.927646,-1554.040732,0.539229271,-1554.132266,-1550.997133,-1554.149191,-1554.271936,-1554.553423,-1563.059315,-1562.834338,-1563.789356,-1565.036654,-1562.747298,-1563.344741,-1565.524012,-1565.806231
648.9919995,2535,-1532.577941,-1531.977329,0.564857856,-1531.918653,-1528.659112,-1531.842991,-1531.936888,-1532.214979,-1542.185808,-1541.832849,-1543.049447,-1544.084682,-1541.972743,-1542.361485,-1544.645577,-1545.060448
648.9999995,2535,-1509.943581,-1509.276811,0.5903738,-1509.10385,-1505.701946,-1509.098595,-1509.261186,-1509.482331,-1518.380296,-1517.935314,-1518.994864,-1519.984755,-1517.939466,-1518.41146,-1520.654667,-1520.987329
649.0079995,2535,-684.9747936,-684.5820272,0.615777316,-684.0638696,-681.3222886,-684.2936039,-684.5452221,-684.7010741,-1363.839574,-1363.672832,-1364.376681,-1365.353059,-1363.433366,-1363.997909,-1365.94159,-1366.190162
649.0159995,2535,1443.15275,1442.275175,0.641067672,1444.04747,1445.168924,1443.166041,1442.890153,1443.369544,213.5827161,213.5108993,214.0514479,214.2409062,213.9492809,213.9370752,214.1860154,214.3229171
649.0239995,2535,2598.908031,2597.792205,0.666244612,2600.003738,2600.470955,2598.833355,2598.651672,2599.428804,2509.166755,2509.192467,2511.58379,2513.706907,2509.735917,2510.497944,2513.649363,2514.286069
649.0319995,2535,2097.015107,2096.104064,0.69130839,2098.233914,2098.999224,2097.12318,2096.878194,2097.553158,2406.59075,2406.726737,2408.988276,2411.06158,2407.051603,2407.956771,2410.936997,2411.627774
649.0399995,2535,2119.536743,2118.620414,0.716258832,2120.811084,2121.547167,2119.508012,2119.291758,2120.059324,1870.063781,1870.401893,1872.127095,1873.742621,1870.47099,1871.378508,1873.799885,1874.326116
649.0479995,2535,2241.56463,2240.838713,0.741095354,2242.879304,2243.773102,2241.560541,2241.323868,2242.265881,2381.956347,2382.191203,2384.451916,2386.362268,2382.337004,2383.468187,2386.488685,2386.981908
649.0559995,2535,2028.840376,2028.001761,0.765817942,2030.201589,2031.342936,2028.758855,2028.597042,2029.517409,2040.458151,2040.593227,2042.797879,2044.276307,2040.993732,2041.937177,2044.411445,2045.010434
649.0639995,2535,2137.797989,2137.052487,0.790426594,2139.183566,2140.301662,2137.777752,2137.663911,2138.354524,2066.609049,2066.856039,2068.93453,2070.778546,2067.27102,2068.209041,2070.626251,2071.321969
649.0719995,2535,2057.147218,2056.307593,0.814920898,2058.5741,2059.652903,2057.354236,2056.970948,2057.830487,2172.958701,2173.067161,2175.215821,2177.188154,2173.333345,2174.45208,2176.939381,2177.669411
649.0799995,2535,2016.985309,2016.003761,0.839299925,2018.478904,2019.608656,2017.185342,2016.784229,2017.909288,1943.683046,1943.659524,1945.842284,1947.272381,1944.088195,1945.166897,1947.242791,1947.883762
649.0879995,2535,2044.093416,2043.551658,0.863564858,2045.72874,2047.052751,2044.410299,2044.203378,2044.985606,2097.846379,2097.862841,2100.116419,2101.712845,2098.331571,2099.478706,2101.813176,2102.242841
649.0959995,2535,1958.755729,1958.036136,0.887715066,1960.336755,1961.93438,1958.941095,1958.765151,1959.391712,1967.731938,1967.856767,1970.096169,1971.444106,1968.092928,1968.990615,1971.439919,1972.092163
649.1039995,2535,1978.404411,1977.339515,0.911750004,1979.717083,1981.491101,1978.501455,1978.06361,1978.93083,1963.75643,1963.963756,1966.090874,1967.526938,1964.184488,1964.926824,1967.332573,1968.195803
649.1119995,2535,1932.604632,1931.790288,0.935670303,1933.999151,1935.817048,1932.96287,1932.369331,1933.15937,1978.23574,1978.50304,1980.365497,1982.111305,1978.813339,1979.606683,1982.063034,1982.63759
649.1199995,2535,1906.230875,1905.346221,0.959474155,1907.670219,1909.53568,1906.413682,1905.998337,1906.773919,1886.138078,1886.343301,1888.300014,1889.759554,1886.654007,1887.549243,1889.76708,1890.409155
649.1279995,2535,1896.591242,1895.517667,0.98316293,1897.997553,1900.030566,1896.757674,1896.332053,1897.273612,1925.197235,1925.470574,1927.248811,1928.932503,1925.678778,1926.936721,1928.836036,1929.55678
649.1359995,2535,1852.476256,1851.710449,1.006737068,1854.129385,1856.250203,1852.806545,1852.422727,1853.331866,1858.212586,1858.689468,1860.340414,1862.11647,1858.977875,1859.784414,1861.91245,1862.56531
649.1439995,2535,1843.918029,1843.305187,1.030194416,1845.594923,1847.61733,1843.898323,1843.791864,1844.682104,1849.002174,1849.497785,1851.477021,1852.847754,1849.852516,1850.345824,1852.601255,1853.359924
649.1519995,2535,1810.781188,1809.959477,1.053535594,1812.378814,1814.520995,1810.725344,1810.644703,1811.631988,1830.810169,1831.452314,1833.2187,1834.557469,1831.666153,1832.5365,1834.476584,1835.18815
649.1599995,2535,1788.064511,1787.230532,1.076761012,1789.682918,1792.085574,1788.359809,1787.864258,1788.854562,1788.601903,1789.137423,1790.923978,1792.250119,1789.520554,1790.057992,1792.246983,1792.868631
649.1679995,2535,1767.625294,1766.854128,1.099870482,1769.314327,1771.705792,1767.786289,1767.297376,1768.08317,1784.511506,1784.879215,1786.89399,1788.088842,1785.15604,1785.805514,1788.222041,1788.582407
649.1759995,2535,1738.077059,1737.284558,1.122863315,1740.033577,1742.435847,1738.284389,1738.099861,1738.900399,1745.733287,1746.151326,1747.999427,1749.37196,1746.170286,1747.22052,1749.398012,1749.867737
649.1839995,2535,1719.447424,1718.838564,1.145739537,1721.451963,1724.113988,1720.00143,1719.555356,1720.471309,1729.102918,1729.301408,1731.326932,1732.803524,1729.706832,1730.387115,1732.507683,1733.332303
649.1919995,2535,1692.754455,1692.304292,1.168499304,1694.598836,1697.38781,1693.132485,1692.838957,1693.528623,1705.68598,1705.85259,1707.962998,1709.362144,1706.291215,1707.098747,1709.089771,1709.721704
649.1999995,2535,1670.420855,1669.829613,1.191141716,1672.267284,1675.242341,1670.895644,1670.524097,1671.383317,1677.528878,1677.873787,1679.70091,1681.217034,1678.034512,1679.183149,1680.998543,1681.454619
649.2079995,2535,1647.766385,1647.113082,1.213668145,1649.552578,1652.816635,1648.314292,1647.580281,1648.719889,1660.06664,1660.531544,1662.418019,1663.938667,1660.928212,1661.766159,1663.664393,1664.080586
649.2159995,2536,1623.1659,1622.53937,1.236077423,1625.075171,1628.127307,1623.550669,1623.143673,1624.078894,1632.08197,1632.428425,1634.411518,1635.772212,1632.939962,1633.592172,1635.511979,1635.853449
649.2239995,2536,1601.762333,1601.199259,1.258368708,1604.097365,1606.974695,1602.571441,1601.996879,1602.931462,1612.075401,1612.231304,1614.271137,1615.613066,1612.627043,1613.4969,1615.233245,1615.534915
649.2319995,2536,1577.823294,1577.284994,1.280543257,1580.18408,1583.119367,1578.595938,1577.979058,1578.847483,1588.626394,1588.88541,1590.916511,1592.207414,1589.32043,1590.172646,1591.820611,1592.229078
649.2399995,2536,1556.002246,1555.193569,1.302600517,1558.123085,1561.124368,1556.466991,1555.991982,1556.673533,1565.037748,1565.236,1567.079788,1568.297911,1565.683767,1566.346752,1568.088928,1568.622939
649.2479995,2536,1533.42944,1532.796474,1.32454026,1535.617124,1538.95065,1534.004447,1533.491914,1534.258842,1544.071893,1544.505464,1546.29932,1547.611495,1544.734128,1545.642267,1547.270113,1547.801585
649.2559995,2536,1510.479848,1510.100261,1.346362701,1512.747945,1516.175069,1511.048153,1510.763797,1511.567074,1519.869145,1520.668516,1522.225842,1523.566644,1520.71946,1521.759257,1523.227213,1524.050451
649.2639995,2536,685.9128716,685.4747121,1.368067503,687.9846897,692.2299041,686.576348,686.1212062,686.7440735,1365.783938,1366.273955,1367.669669,1368.855482,1366.458294,1367.124061,1368.623088,1369.357722
649.2719995,2536,-1442.157772,-1441.70164,1.389653831,-1440.091891,-1434.035166,-1441.182238,-1441.357794,-1441.367704,-211.4373579,-210.868748,-210.7758536,-210.5614371,-210.8551586,-210.83026,-211.1852738,-211.2349424
649.2799995,2536,-2598.293828,-2597.068473,1.411122745,-2596.111267,-2589.172721,-2596.756383,-2596.750479,-2597.209851,-2507.284417,-2506.211809,-2508.399412,-2509.723418,-2506.621099,-2507.392509,-2510.804472,-2511.314543
649.2879995,2536,-2096.354179,-2095.445198,1.432473951,-2094.308956,-2087.316668,-2094.626693,-2095.088752,-2095.280676,-2404.674309,-2403.743682,-2405.691176,-2407.089672,-2403.946683,-2404.800462,-2408.132185,-2408.664256
649.2959995,2536,-2118.789104,-2117.903939,1.453706583,-2116.642076,-2109.793912,-2117.326557,-2117.714395,-2117.827685,-1868.186598,-1867.530922,-1868.737446,-1869.806212,-1867.293289,-1868.020313,-1870.803218,-1871.263903
649.3039995,2536,-2241.013157,-2239.856939,1.474821743,-2238.550902,-2231.861074,-2239.271583,-2239.747694,-2239.828811,-2380.072388,-2379.314233,-2381.032191,-2382.451394,-2379.119561,-2380.03208,-2383.454526,-2383.881541
649.3119995,2536,-2028.331532,-2027.195318,1.495818647,-2025.909704,-2019.040209,-2026.643705,-2027.191954,-2027.005997,-2038.652859,-2037.811393,-2039.377414,-2040.589153,-2037.915555,-2038.659826,-2041.316009,-2041.765823
649.3199995,2536,-2137.198798,-2136.118693,1.516696958,-2134.912719,-2127.953564,-2135.796537,-2136.003112,-2136.09684,-2064.916413,-2064.072435,-2065.848081,-2066.950966,-2064.249511,-2064.907657,-2067.719487,-2068.200695
649.3279995,2536,-2056.737713,-2055.615053,1.537457157,-2054.227806,-2047.385391,-2054.972383,-2055.285125,-2055.58814,-2171.227674,-2170.49057,-2172.154015,-2173.256818,-2170.251303,-2171.043519,-2174.15311,-2174.521772
649.3359995,2536,-2016.65117,-2015.646234,1.558098744,-2014.031584,-2007.232752,-2014.896378,-2015.396604,-2015.382834,-1941.846837,-1941.178076,-1942.392419,-1943.503533,-1940.752235,-1941.630702,-1944.429478,-1944.642163
649.3439995,2536,-2043.584331,-2042.951687,1.578621774,-2041.328909,-2034.341527,-2042.092969,-2042.513902,-2042.389339,-2095.907068,-2095.110716,-2096.673925,-2097.968525,-2095.034702,-2095.754703,-2098.798766,-2099.246477
649.3519995,2536,-1958.184513,-1957.549466,1.599026499,-1955.990565,-1948.834483,-1956.645726,-1957.091149,-1957.048246,-1965.851628,-1965.135284,-1966.50509,-1967.692601,-1965.137907,-1965.609918,-1968.384763,-1969.001232
649.3599995,2536,-1977.942395,-1976.872276,1.619312328,-1975.370483,-1968.374671,-1976.413894,-1976.716561,-1976.782599,-1961.804739,-1961.120039,-1962.261487,-1963.446416,-1961.076366,-1961.581556,-1964.60524,-1964.808251
649.3679995,2536,-1932.048947,-1931.006193,1.639479266,-1929.610284,-1922.472615,-1930.654811,-1930.747857,-1930.940644,-1976.257062,-1975.3554,-1976.811836,-1977.969834,-1975.417439,-1976.11967,-1979.13228,-1979.257662
649.3759995,2536,-1905.347203,-1904.659851,1.65952791,-1903.127301,-1895.586727,-1903.849101,-1904.225652,-1904.375076,-1884.313954,-1883.378375,-1884.78252,-1886.003144,-1883.48034,-1884.265081,-1886.676806,-1887.268127
649.3839995,2536,-1896.026089,-1895.322583,1.679458063,-1893.516473,-1886.025734,-1894.291935,-1894.919309,-1894.747281,-1923.409857,-1922.579737,-1923.643249,-1924.97444,-1922.559556,-1923.25572,-1925.877966,-1926.174818
649.3919995,2536,-1852.21872,-1851.420345,1.699268995,-1849.696871,-1842.334509,-1850.751777,-1851.155199,-1850.911144,-1856.362377,-1855.602436,-1856.675779,-1857.713256,-1855.414831,-1856.075185,-1858.808394,-1858.770009
649.3999995,2536,-1843.262522,-1842.600177,1.718961261,-1840.763402,-1833.500738,-1841.946674,-1842.280863,-1842.212371,-1847.297517,-1846.442841,-1847.712741,-1848.519647,-1846.258565,-1846.828058,-1849.507645,-1849.903075
649.4079995,2536,-1810.260057,-1809.475064,1.738534951,-1807.448292,-1800.306929,-1808.637521,-1809.073635,-1808.937769,-1829.372821,-1828.365041,-1829.533941,-1830.556729,-1828.17142,-1828.891737,-1831.525474,-1831.862574
649.4159995,2536,-1787.707535,-1786.800514,1.757989312,-1784.884123,-1777.585607,-1785.985881,-1786.453254,-1786.427919,-1786.944796,-1785.950771,-1787.013301,-1788.254071,-1785.851706,-1786.727234,-1789.232765,-1789.391289
649.4239995,2536,-1766.936093,-1766.326489,1.777324624,-1764.371832,-1756.79217,-1765.252235,-1765.872201,-1765.805982,-1782.691333,-1781.733385,-1782.885945,-1783.796825,-1781.879874,-1782.212653,-1784.941568,-1785.287677
649.4319995,2536,-1737.667677,-1736.928727,1.796540583,-1735.049141,-1727.196495,-1736.124098,-1736.463076,-1736.316829,-1743.997466,-1743.127708,-1744.245543,-1745.006584,-1743.204969,-1743.316209,-1746.092424,-1746.286045
649.4399995,2536,-1719.271675,-1718.336072,1.815637916,-1716.446594,-1708.506225,-1717.755764,-1717.754134,-1717.885104,-1727.145111,-1726.435792,-1727.307057,-1728.358249,-1726.204794,-1726.795485,-1729.467355,-1729.44689
649.4479995,2536,-1692.328293,-1691.669522,1.834616445,-1689.729014,-1681.799181,-1690.730491,-1690.916486,-1690.943222,-1703.689277,-1702.941432,-1703.787486,-1704.68595,-1702.679222,-1703.286191,-1705.97061,-1705.953733
649.4559995,2536,-1669.938897,-1669.291962,1.853475685,-1667.528893,-1659.523447,-1668.439104,-1668.782512,-1668.77952,-1675.75421,-1674.782189,-1675.939121,-1676.697168,-1674.75468,-1675.066858,-1677.676539,-1677.828892
649.4639995,2536,-1647.398188,-1646.67593,1.87221575,-1644.824644,-1636.721268,-1645.709773,-1646.344569,-1646.288615,-1658.320041,-1657.27269,-1658.508628,-1659.498853,-1657.296092,-1657.873413,-1660.337161,-1660.569541
649.4719995,2537,-1622.795223,-1622.13408,1.890836705,-1620.157622,-1612.034749,-1621.126108,-1621.711859,-1621.427349,-1630.10946,-1629.170092,-1630.26726,-1631.310095,-1628.929973,-1629.799821,-1632.109132,-1632.201309
649.4799995,2537,-1601.53504,-1600.742651,1.909338975,-1598.559949,-1590.686074,-1599.966497,-1600.187879,-1600.095037,-1610.057348,-1609.302726,-1610.138823,-1611.191291,-1608.787085,-1609.489266,-1611.974036,-1611.942957
649.4879995,2537,-1577.858265,-1577.1024,1.927721908,-1574.695169,-1566.772303,-1575.862574,-1576.412083,-1576.178497,-1586.719124,-1585.90109,-1586.538059,-1587.561387,-1585.526384,-1586.179408,-1588.742717,-1588.718012
649.4959995,2537,-1555.46564,-1555.063465,1.945985643,-1552.782543,-1544.646655,-1553.866549,-1554.286421,-1554.131306,-1563.023043,-1561.814876,-1562.827257,-1563.617825,-1561.82764,-1562.508148,-1564.734074,-1565.008803
649.5039995,2537,-1532.876592,-1532.363723,1.964129822,-1530.177892,-1522.161986,-1531.544378,-1531.716038,-1531.825209,-1542.186036,-1540.974743,-1542.113981,-1542.862765,-1541.006595,-1541.710806,-1543.769033,-1544.132522
649.5119995,2537,-1510.591611,-1509.762524,1.982155098,-1507.625202,-1499.517245,-1508.656892,-1509.30006,-1509.080237,-1518.127523,-1517.029161,-1517.883344,-1518.885963,-1517.020259,-1517.744022,-1519.886775,-1520.136468
649.5199995,2537,-685.5965643,-685.2399802,2.000061693,-682.6062578,-675.2241433,-684.0370022,-684.6141105,-684.2227891,-1363.704562,-1362.680645,-1363.443831,-1364.313089,-1362.735664,-1363.23,-1365.329497,-1365.454914
649.5279995,2537,1442.544454,1441.880848,2.01784879,1445.731012,1451.367867,1443.53174,1442.860571,1443.964688,213.689413,214.3451951,215.0907376,215.5359339,214.7779695,214.7014033,214.6727922,215.1277437
649.5359995,2537,2598.327699,2597.221701,2.035516559,2601.60428,2606.728097,2599.200816,2598.394312,2600.162025,2509.298229,2509.983987,2512.807678,2514.800668,2510.673799,2511.42762,2514.482264,2515.290986
649.5439995,2537,2096.511537,2095.566526,2.053065172,2099.853431,2105.396219,2097.253723,2096.750377,2098.186591,2406.568725,2407.516743,2409.9618,2412.023591,2407.902838,2408.962388,2411.711602,2412.366065
649.5519995,2537,2118.988886,2118.028585,2.070494991,2122.333888,2127.750797,2119.747459,2119.290214,2120.59306,1870.136934,1871.166964,1873.106199,1874.900501,1871.647743,1872.376788,1874.164194,1874.987162
649.5599995,2537,2241.024989,2240.366823,2.087805701,2244.333912,2250.039551,2241.848692,2241.533251,2242.824111,2381.849919,2382.760966,2385.393523,2387.378056,2383.468101,2384.475802,2386.843177,2387.834206
649.5679995,2537,2028.111242,2027.657247,2.104997408,2031.558904,2037.639068,2029.125985,2028.653509,2030.103758,2040.41013,2040.922164,2043.487163,2045.34079,2041.716308,2042.838101,2044.930917,2045.624966
649.5759995,2537,2137.19364,2136.387065,2.122069987,2140.641269,2146.418527,2138.122424,2137.43019,2138.998749,2067.052201,2067.539986,2070.057677,2072.035439,2068.143273,2069.179767,2071.445538,2072.128113
649.5839995,2537,2056.583116,2055.888652,2.139023437,2059.938429,2065.933792,2057.533077,2056.919722,2058.100493,2173.325488,2174.040086,2176.52901,2178.512857,2174.414273,2175.688165,2177.926499,2178.660507
649.5919995,2537,2016.231122,2015.552393,2.155857941,2019.595784,2025.70943,2017.491797,2016.892329,2018.080932,1943.786775,1944.610411,1946.831281,1948.703312,1945.0181,1946.114856,1948.037092,1948.787662
649.5999995,2537,2043.605945,2042.666971,2.17257346,2047.067958,2052.98922,2044.680833,2044.128338,2045.681108,2097.87451,2098.795718,2101.195958,2103.124777,2099.263479,2100.125971,2102.30873,2103.387059
649.6079995,2537,1958.217791,1957.494822,2.189169662,1961.747074,1967.903935,1959.103852,1958.521039,1960.12773,1967.780299,1968.494794,1971.022263,1972.650576,1969.134273,1970.113598,1972.124485,1972.940708
649.6159995,2537,1977.661244,1977.096778,2.205647312,1981.130054,1987.302383,1978.659927,1978.144478,1979.50155,1963.967328,1964.707027,1966.863004,1968.567293,1965.142245,1965.932464,1968.247919,1968.718141
649.6239995,2537,1931.865465,1931.282609,2.222006592,1935.483034,1941.605618,1933.081621,1932.402436,1933.77697,1978.381222,1979.364778,1981.369394,1983.330083,1979.704667,1980.421243,1982.662847,1983.463943
649.6319995,2537,1905.390622,1904.643756,2.238246539,1909.113506,1915.427001,1906.639639,1905.742118,1907.272226,1886.164789,1887.026937,1889.326793,1891.179357,1887.579232,1888.678232,1890.451911,1891.333723
649.6399995,2537,1895.827635,1894.908191,2.254368052,1899.381802,1905.867764,1896.788217,1896.244199,1897.654452,1925.291437,1926.248588,1928.349378,1930.070222,1926.622879,1927.553362,1929.534736,1930.272705
649.6479995,2537,1851.828697,1851.065993,2.270370663,1855.53255,1861.803005,1852.845297,1852.282236,1853.766937,1858.493316,1859.243892,1861.348874,1863.053562,1859.715529,1860.504081,1862.341685,1863.083793
649.6559995,2537,1843.22272,1842.522388,2.286254314,1846.951936,1853.328651,1844.536588,1843.6129,1845.228555,1849.517857,1849.918689,1852.36937,1854.143985,1850.48936,1851.562925,1853.299845,1853.994245
649.6639995,2537,1810.134797,1809.439333,2.302019885,1813.51304,1820.509715,1811.349479,1810.67064,1812.009185,1831.148116,1832.037734,1834.277398,1835.978203,1832.351382,1833.449837,1835.172922,1836.059181
649.6719995,2537,1787.490747,1786.815346,2.317666676,1790.982643,1797.862676,1788.535422,1788.092933,1789.162641,1788.696731,1789.764387,1791.885812,1793.48957,1790.15432,1791.198552,1792.687627,1793.675573
649.6799995,2537,1766.815106,1766.166144,2.333195131,1770.730965,1777.519373,1768.164339,1767.401196,1768.64344,1784.657912,1785.480249,1787.747058,1789.376558,1786.045605,1786.997708,1788.667617,1789.390082
649.6879995,2537,1737.204315,1736.713658,2.34860497,1741.21293,1748.239062,1738.885917,1737.869556,1739.237608,1745.876325,1746.854954,1749.039945,1750.731194,1747.206784,1748.253139,1750.093698,1750.602778
649.6959995,2537,1718.720059,1718.225031,2.363896104,1722.658643,1729.540982,1720.24042,1719.258614,1720.664122,1729.171585,1730.336258,1732.433242,1734.033066,1730.563215,1731.560653,1733.446403,1733.869785
649.7039995,2537,1692.008887,1691.305681,2.379069658,1695.995114,1702.727883,1693.203182,1692.337113,1693.904214,1705.565091,1706.648196,1708.825809,1710.363134,1707.169814,1707.995408,1709.764687,1710.318121
649.7119995,2537,1669.861972,1669.100527,2.39412471,1673.778339,1680.486508,1670.996736,1670.304991,1671.747968,1677.48025,1678.561952,1680.453957,1682.164272,1678.959089,1679.903633,1681.500638,1682.209577
649.7199995,2537,1647.290524,1646.710415,2.409061654,1651.030823,1658.146276,1648.56464,1647.892268,1649.244131,1660.270473,1661.563092,1663.20036,1664.902814,1661.730832,1662.480756,1664.305699,1664.975693
649.7279995,2538,1622.603172,1622.060069,2.423880834,1626.294244,1633.835708,1623.956495,1623.184802,1624.595923,1631.968391,1633.287739,1635.114565,1636.880324,1633.783649,1634.31974,1636.144938,1636.74662
649.7359995,2538,1601.399211,1600.723409,2.438581545,1605.077273,1612.463966,1602.688934,1602.009035,1603.193572,1611.906917,1613.004247,1614.92647,1616.74622,1613.462053,1614.259794,1615.776479,1616.450173
649.7439995,2538,1577.440277,1576.69001,2.453164443,1581.233761,1588.405874,1578.66914,1578.005807,1579.124588,1588.776157,1589.597694,1591.772701,1593.299322,1589.955608,1590.975893,1592.385244,1593.181784
649.7519995,2538,1555.323922,1554.574948,2.467629552,1559.234416,1566.319077,1556.648815,1555.699443,1557.163649,1565.084586,1565.888873,1568.005862,1569.589783,1566.453242,1567.274643,1568.755634,1569.555009
649.7599995,2538,1532.8072,1532.2069,2.481976919,1536.699787,1543.920441,1534.254066,1533.462742,1534.933405,1544.226954,1545.240838,1547.022306,1548.637778,1545.573808,1546.480349,1547.905926,1548.592791
649.7679995,2538,1510.027386,1509.523802,2.49620652,1513.906674,1521.391525,1511.290638,1510.757331,1512.070177,1520.042238,1521.146275,1523.172502,1524.461677,1521.507714,1522.623362,1523.855918,1524.465539
649.7759995,2538,685.4322032,685.1449484,2.510318405,689.1760566,697.4719142,686.7188096,685.8583647,687.1489067,1365.800534,1366.728493,1368.703556,1369.957144,1367.417378,1368.095449,1369.176114,1369.866794
649.7839995,2538,-1442.733401,-1442.262844,2.524313053,-1438.981417,-1428.794928,-1440.638293,-1441.413556,-1440.901185,-211.2925,-210.3012958,-209.9624942,-209.7300168,-209.9315462,-210.0418603,-210.7346238,-210.5882492
649.7919995,2538,-2598.796211,-2597.920226,2.538190711,-2594.866219,-2583.876842,-2596.326191,-2596.780269,-2596.874293,-2507.215805,-2505.731935,-2507.463115,-2509.009109,-2505.690537,-2506.697285,-2510.269379,-2510.740876
649.7999995,2538,-2096.781804,-2095.975219,2.551951025,-2092.835983,-2082.438618,-2094.62642,-2095.060119,-2094.75568,-2404.586783,-2403.181519,-2404.728136,-2406.051207,-2403.059807,-2404.132568,-2407.648612,-2407.785692
649.8079995,2538,-2119.465752,-2118.390248,2.565593632,-2115.577446,-2104.889969,-2117.289418,-2117.687633,-2117.367555,-1868.003746,-1866.927312,-1867.91616,-1868.851512,-1866.840104,-1867.465477,-1870.265411,-1870.360157
649.8159995,2538,-2241.599281,-2240.346996,2.579119324,-2237.727519,-2226.829461,-2239.198574,-2239.776617,-2239.641332,-2379.967084,-2378.896922,-2380.276102,-2381.642503,-2378.664162,-2379.313604,-2383.12533,-2383.258269
649.8239995,2538,-2028.758412,-2027.612483,2.592528641,-2024.74932,-2014.14468,-2026.286749,-2026.867641,-2026.570722,-2038.68695,-2037.58825,-2038.573076,-2039.477366,-2037.134753,-2037.741101,-2041.236177,-2041.272136
649.8319995,2538,-2137.860641,-2136.861594,2.605820612,-2133.681069,-2122.972683,-2135.443497,-2135.962542,-2135.617122,-2065.005751,-2063.692557,-2064.905164,-2066.052478,-2063.526764,-2064.162843,-2067.320004,-2067.565302
649.8399995,2538,-2057.282765,-2056.121285,2.618995693,-2053.055365,-2042.167725,-2054.774178,-2055.450746,-2055.154162,-2171.120112,-2169.790263,-2171.280873,-2172.458731,-2169.748867,-2170.281076,-2173.739435,-2173.805068
649.8479995,2538,-2017.116939,-2015.826143,2.632054733,-2013.0278,-2001.820564,-2014.636174,-2015.282503,-2015.045986,-1941.819578,-1940.422864,-1941.682552,-1942.532539,-1940.413768,-1940.801776,-1944.069833,-1944.159744
649.8559995,2538,-2044.244624,-2043.252209,2.64499703,-2040.292474,-2029.404151,-2041.947622,-2042.753172,-2042.5017,-2095.965207,-2094.412113,-2095.925735,-2097.116594,-2094.451496,-2095.212924,-2098.405308,-2098.628933
649.8639995,2538,-1958.812742,-1957.763992,2.657823154,-1954.723326,-1944.27469,-1956.472046,-1957.236686,-1957.033911,-1965.864991,-1964.48103,-1965.744341,-1966.720178,-1964.273343,-1964.981067,-1967.929978,-1968.06281
649.8719995,2538,-1978.446704,-1977.357686,2.670532809,-1974.19577,-1963.456765,-1975.974031,-1976.539147,-1976.230516,-1961.976871,-1960.526629,-1961.694471,-1962.691307,-1960.370416,-1960.776074,-1963.807214,-1964.127918
649.8799995,2538,-1932.546537,-1931.680819,2.683125997,-1928.446158,-1917.523193,-1930.170653,-1930.863587,-1930.407637,-1976.451434,-1974.969527,-1976.120852,-1977.073498,-1974.740422,-1975.436245,-1978.233033,-1978.779616
649.8879995,2538,-1905.818465,-1904.97793,2.695603626,-1902.036512,-1890.893163,-1903.8846,-1904.351065,-1904.057709,-1884.398931,-1882.934791,-1883.827707,-1884.691444,-1882.695369,-1883.515479,-1885.949674,-1886.454825
649.8959995,2538,-1896.255132,-1895.49729,2.707965567,-1892.342022,-1881.354213,-1894.31619,-1894.684938,-1894.426984,-1923.233349,-1921.845084,-1923.011385,-1923.958815,-1921.863732,-1922.382188,-1925.295314,-1925.618278
649.9039995,2538,-1852.469579,-1851.74182,2.720211315,-1848.248004,-1837.607834,-1850.258701,-1850.774719,-1850.487874,-1856.17065,-1855.007766,-1856.082653,-1856.85448,-1854.876045,-1855.230119,-1858.332524,-1858.606168
649.9119995,2538,-1843.838883,-1843.016896,2.732341314,-1839.712598,-1828.739156,-1841.663228,-1842.161327,-1841.719617,-1847.264759,-1845.890285,-1846.757535,-1847.735955,-1845.69582,-1846.065662,-1849.19988,-1849.357574
649.9199995,2538,-1810.786333,-1809.904519,2.744356565,-1806.783364,-1795.681161,-1808.492198,-1809.113746,-1808.520809,-1829.103496,-1827.629918,-1828.806742,-1829.580506,-1827.64955,-1828.031979,-1831.102225,-1831.172053
649.9279995,2538,-1788.164662,-1787.302955,2.756256007,-1784.041726,-1773.051344,-1785.835916,-1786.60187,-1786.017235,-1786.542749,-1785.401623,-1786.457818,-1787.165608,-1785.262869,-1785.816221,-1788.712382,-1788.763066
649.9359995,2538,-1767.620995,-1766.79976,2.768040103,-1763.390377,-1752.282757,-1765.18598,-1766.052484,-1765.493665,-1782.399376,-1781.376751,-1782.093134,-1783.120999,-1780.766416,-1781.541107,-1784.62736,-1784.589454
649.9439995,2538,-1738.188904,-1737.279559,2.77970977,-1734.192674,-1723.006063,-1735.66687,-1736.465678,-1736.153173,-1743.882693,-1742.597518,-1743.379642,-1744.181909,-1742.07663,-1742.749703,-1745.637392,-1745.639743
649.9519995,2538,-1719.466875,-1718.579459,2.791264041,-1715.58973,-1704.263883,-1717.415427,-1718.090175,-1717.655467,-1727.173682,-1725.875842,-1726.596596,-1727.413958,-1725.637873,-1726.132401,-1728.900768,-1728.926928
649.9599995,2538,-1692.739234,-1692.000659,2.802703795,-1688.567978,-1677.244781,-1690.737518,-1691.32303,-1690.843297,-1703.78118,-1702.453401,-1703.180727,-1704.020063,-1702.247106,-1702.627006,-1705.435169,-1705.556731
649.9679995,2538,-1670.734845,-1669.884842,2.814028778,-1666.387328,-1655.168967,-1668.203319,-1668.726927,-1668.670408,-1675.818593,-1674.189354,-1675.231024,-1675.840394,-1674.076293,-1674.6763,-1676.994058,-1677.175496
649.9759995,2538,-1648.082009,-1647.147563,2.82523938,-1643.84491,-1632.654066,-1645.519137,-1646.193998,-1645.94238,-1658.2721,-1656.822081,-1657.970844,-1658.369809,-1656.658208,-1657.454307,-1659.75518,-1659.845683
649.9839995,2539,-1623.273333,-1622.523329,2.836336131,-1619.13324,-1608.074573,-1621.042897,-1621.711802,-1621.068667,-1630.160827,-1628.705456,-1629.892294,-1630.20864,-1628.670594,-1628.994522,-1631.657587,-1631.798928
649.9919995,2539,-1602.083965,-1601.369441,2.847317793,-1597.645451,-1586.567741,-1599.919079,-1600.37712,-1599.844875,-1610.207676,-1608.461859,-1609.574919,-1610.141869,-1608.51808,-1608.744995,-1611.449161,-1611.532759
649.9999995,2539,-1578.150058,-1577.489237,2.858185905,-1573.701233,-1562.31593,-1575.873173,-1576.49902,-1576.060447,-1586.720076,-1585.361772,-1586.093787,-1586.668157,-1585.029837,-1585.440289,-1588.221137,-1588.217449
650.0079995,2539,-1555.885008,-1555.342962,2.868940813,-1551.825059,-1540.253147,-1553.548775,-1554.345728,-1553.940933,-1562.793057,-1561.664795,-1562.309415,-1562.901663,-1561.37923,-1561.497226,-1564.291004,-1564.35413
650.0159995,2539,-1533.570734,-1532.782689,2.879582093,-1529.343521,-1517.981744,-1531.239863,-1531.818205,-1531.634476,-1542.072667,-1540.615412,-1541.504694,-1542.164639,-1540.516725,-1540.701289,-1543.469192,-1543.556481
650.0239995,2539,-1510.836674,-1509.955307,2.890109529,-1506.456627,-1495.246784,-1508.659361,-1509.319464,-1508.89127,-1518.265937,-1516.804739,-1517.655025,-1518.169407,-1516.390553,-1516.915399,-1519.606874,-1519.716748
650.0319995,2539,-685.977541,-685.6769257,2.900523166,-681.5262323,-671.0290586,-684.0372134,-684.9317875,-683.8355066,-1363.84499,-1362.392892,-1363.000253,-1363.560939,-1361.998441,-1362.516008,-1364.871457,-1364.793718
650.0399995,2539,1441.81015,1441.376784,2.910824153,1446.542609,1455.365069,1443.629637,1442.783364,1444.317128,213.405561,214.891396,215.6298076,216.190532,215.2775099,215.5767747,215.1208487,215.6658192
650.0479995,2539,2597.709501,2596.963864,2.92101264,2602.323829,2610.719004,2599.373435,2598.604805,2600.434896,2509.019191,2510.249426,2513.044994,2515.526622,2510.827929,2512.229864,2514.662126,2515.74504
650.0559995,2539,2095.860735,2095.064664,2.931088061,2100.490832,2109.342421,2097.390539,2096.707568,2098.358884,2406.473094,2407.62027,2410.430172,2412.867361,2408.171804,2409.266215,2411.773751,2412.946799
650.0639995,2539,2118.380367,2117.534875,2.941050664,2123.180191,2131.6282,2119.933766,2119.209282,2120.681859,1870.024666,1871.257164,1873.612227,1875.554142,1871.881731,1872.665309,1874.623644,1875.541013
650.0719995,2539,2240.606209,2239.777664,2.950901259,2245.164516,2253.67336,2242.054787,2241.118025,2242.819193,2381.907576,2383.213849,2385.958807,2388.173216,2383.837338,2385.029742,2387.521353,2388.475756
650.0799995,2539,2027.877006,2026.954264,2.960639347,2032.349913,2041.066084,2029.151392,2028.427975,2029.9033,2040.483444,2041.683685,2044.361303,2046.055294,2042.430352,2043.340454,2045.24856,2046.176643
650.0879995,2539,2136.841402,2136.042004,2.970265398,2141.530567,2150.037097,2138.163285,2137.742993,2139.055206,2066.841627,2067.96549,2070.741868,2072.350446,2068.625079,2069.657722,2071.682315,2072.682593
650.0959995,2539,2056.171705,2055.630572,2.979779498,2060.987719,2069.662877,2057.646306,2056.964226,2058.562604,2173.207685,2174.524667,2176.880971,2178.978432,2174.652501,2175.890555,2178.1022,2179.153194
650.1039995,2539,2015.958699,2015.280502,2.98918185,2020.738552,2029.44724,2017.511055,2016.68541,2018.4507,1943.723486,1944.969927,1947.180244,1949.225027,1945.244665,1946.194055,1948.131059,1949.03638
650.1119995,2539,2043.091668,2042.520599,2.998473128,2047.794096,2056.757734,2044.815535,2043.889713,2045.579958,2097.895266,2098.919842,2101.782904,2103.682487,2099.629487,2100.650512,2102.781458,2103.596841
650.1199995,2539,1957.82532,1957.200821,3.007652524,1962.353008,1971.552205,1959.500878,1958.369125,1959.943603,1967.916555,1969.100796,1971.612079,1973.517329,1969.680491,1970.707232,1972.542951,1973.155826
650.1279995,2539,1977.404471,1976.614674,3.016720888,1981.987301,1990.938023,1978.838315,1978.077468,1979.652117,1963.674499,1965.06172,1967.285837,1969.390312,1965.48502,1966.646116,1968.40036,1969.235578
650.1359995,2539,1931.32134,1930.773616,3.025678967,1936.307335,1945.337509,1932.961087,1932.349641,1933.850926,1978.31278,1979.309231,1981.914914,1983.898429,1979.910916,1981.188593,1983.123624,1983.978195
650.1439995,2539,1904.927957,1904.148124,3.034526165,1909.916478,1919.056387,1906.580378,1905.771921,1907.439125,1886.450755,1887.24654,1889.846676,1891.557697,1887.864777,1889.008796,1890.980498,1891.586035
650.1519995,2539,1895.461784,1894.60722,3.043262613,1900.294019,1909.420153,1896.891721,1896.303624,1897.905704,1925.179667,1926.472322,1928.796453,1930.680439,1926.859006,1928.008318,1929.817907,1930.803647
650.1599995,2539,1851.529663,1850.746554,3.051888563,1856.348082,1865.48393,1853.065558,1852.3702,1853.599319,1858.323268,1859.713292,1862.000171,1863.909837,1860.107588,1861.081771,1862.85724,1863.890748
650.1679995,2539,1842.906193,1842.067465,3.060404405,1847.597288,1856.905899,1844.542786,1843.609019,1845.243123,1849.197328,1850.48967,1852.893769,1854.629624,1850.934487,1851.918032,1853.996209,1854.676526
650.1759995,2539,1809.58567,1809.090362,3.068811064,1814.221716,1823.902935,1811.370726,1810.423463,1812.218367,1830.946684,1832.282518,1834.53751,1836.490446,1832.698769,1833.818754,1835.687774,1836.423717
650.1839995,2539,1787.086999,1786.549005,3.077108144,1791.761508,1801.251338,1788.833402,1787.81302,1789.267793,1788.817423,1790.155359,1792.297465,1794.400791,1790.648128,1791.507201,1793.21935,1793.995021
650.1919995,2539,1766.709833,1765.959165,3.085295044,1771.468981,1780.798141,1768.340718,1767.375044,1769.077087,1784.556909,1785.861456,1788.19694,1790.07169,1786.465733,1787.272473,1789.133066,1789.695214
650.1999995,2539,1737.141855,1736.41881,3.093372971,1741.90397,1751.347199,1738.931352,1737.878988,1739.627909,1745.866395,1746.926526,1749.198949,1750.8911,1747.522512,1748.412892,1750.21168,1750.855072
650.2079995,2539,1718.631073,1717.864521,3.101342257,1723.367991,1732.591871,1720.287011,1719.383332,1720.73293,1729.134675,1730.322701,1732.634193,1734.285592,1730.982962,1731.717133,1733.432282,1734.181112
650.2159995,2539,1691.761778,1690.908606,3.109202179,1696.564137,1705.831719,1693.286045,1692.561567,1693.930673,1705.611108,1706.719727,1709.396019,1711.014736,1707.545403,1708.427949,1709.890765,1710.527392
650.2239995,2539,1669.388592,1668.614507,3.116953145,1674.077042,1683.574149,1671.113563,1670.0625,1671.705612,1677.6717,1678.651557,1681.178592,1682.698797,1679.281801,1680.311073,1681.689129,1682.552378
650.2319995,2539,1646.694943,1646.259678,3.124596368,1651.500798,1661.124438,1648.723471,1647.497822,1649.135705,1660.21836,1661.56675,1663.86699,1665.542781,1662.09266,1662.917062,1664.526307,1665.290483
650.2399995,2540,1621.885001,1621.566283,3.132131877,1627.036936,1636.667939,1624.050382,1622.985292,1624.492414,1632.111906,1633.356249,1635.752582,1637.610999,1633.893617,1634.77067,1636.375339,1636.87418
650.2479995,2540,1600.8141,1600.262441,3.139558789,1605.767134,1615.40136,1602.725222,1601.779802,1603.218394,1611.941618,1613.213367,1615.470818,1617.163843,1613.6163,1614.60641,1615.944861,1616.961707
650.2559995,2540,1576.920663,1576.364442,3.146878252,1581.783957,1591.591125,1578.947552,1577.8613,1579.304762,1588.575439,1589.923633,1592.026519,1593.70701,1590.517256,1591.397125,1592.584966,1593.7083
650.2639995,2540,1554.709119,1554.216092,3.154090276,1559.715122,1569.529866,1556.678418,1555.729904,1557.261334,1565.015843,1566.210474,1568.246752,1569.98076,1566.829751,1567.570096,1568.932189,1569.725492
650.2719995,2540,1532.506525,1531.850134,3.161194506,1537.327543,1547.324263,1534.159183,1533.316862,1535.000541,1544.294282,1545.408577,1547.507098,1548.936212,1545.899199,1546.667701,1548.110721,1548.985629
650.2799995,2540,1509.654045,1509.215688,3.168192744,1514.518041,1524.586386,1511.664732,1510.493946,1512.27675,1520.309075,1521.24437,1523.645691,1524.980143,1521.794674,1522.702512,1524.123558,1524.977921
650.2879995,2540,684.7463974,684.706487,3.17508368,689.7045359,700.105131,686.7737784,685.8906309,687.2167948,1365.717012,1366.923562,1369.023239,1370.571841,1367.336403,1368.066825,1369.449735,1370.211272
650.2959995,2540,-1443.238989,-1442.607237,3.181867673,-1438.311171,-1426.145759,-1440.854696,-1441.479568,-1440.804027,-211.5730576,-210.1444601,-209.7247221,-209.2387962,-209.8141845,-209.7184934,-210.5721831,-210.2481849
650.3039995,2540,-2599.473989,-2598.082869,3.188545934,-2594.455997,-2581.228765,-2596.280147,-2597.167502,-2596.67209,-2507.327596,-2505.737595,-2507.136464,-2508.397371,-2505.376556,-2506.07401,-2510.173451,-2510.416872
650.3119995,2540,-2097.527887,-2096.312558,3.195117567,-2092.517319,-2079.874464,-2094.657692,-2095.390396,-2094.91858,-2404.806822,-2403.057285,-2404.343976,-2405.609019,-2402.767275,-2403.621934,-2407.282369,-2407.426474
650.3199995,2540,-2119.709248,-2118.814092,3.201583873,-2114.798664,-2102.17251,-2117.159579,-2117.869948,-2117.32023,-1868.074624,-1866.69504,-1867.622439,-1868.518581,-1866.494369,-1867.163493,-1869.923885,-1869.917504
650.3279995,2540,-2241.866183,-2240.904534,3.207944713,-2236.984619,-2224.102878,-2239.040266,-2239.990147,-2239.409882,-2379.9648,-2378.545095,-2379.903108,-2381.208428,-2378.434379,-2379.048319,-2382.67865,-2382.783236
650.3359995,2540,-2029.254317,-2028.221611,3.214199849,-2024.359636,-2011.559381,-2026.392485,-2027.266068,-2026.865509,-2038.59619,-2036.991453,-2038.113559,-2039.19932,-2036.85404,-2037.354022,-2040.671292,-2040.792265
650.3439995,2540,-2138.070433,-2137.057283,3.220349817,-2133.316773,-2120.308634,-2135.397257,-2136.213699,-2135.790611,-2064.855922,-2063.467844,-2064.628376,-2065.400415,-2063.044107,-2063.838892,-2067.112554,-2067.26003
650.3519995,2540,-2057.487119,-2056.304494,3.226395091,-2052.622313,-2039.578592,-2054.75793,-2055.494538,-2055.006941,-2171.131332,-2169.772176,-2170.940128,-2171.84776,-2169.318763,-2170.101464,-2173.434665,-2173.698737
650.3599995,2540,-2017.558774,-2016.315264,3.232336218,-2012.54212,-1999.477254,-2014.807027,-2015.403415,-2014.905554,-1941.542495,-1940.196093,-1941.143713,-1942.087173,-1940.221276,-1940.62345,-1943.630457,-1943.820812
650.3679995,2540,-2044.61928,-2043.820405,3.238172967,-2039.881133,-2026.766855,-2042.115063,-2042.783325,-2042.187128,-2095.804188,-2094.3884,-2095.584209,-2096.339028,-2094.450408,-2095.036595,-2098.055836,-2098.033333
650.3759995,2540,-1959.212198,-1958.371384,3.243905423,-1954.470439,-1941.555775,-1956.508704,-1957.384037,-1956.627557,-1966.052258,-1964.380729,-1965.465577,-1966.195552,-1964.262319,-1964.876695,-1967.770639,-1967.920722
650.3839995,2540,-1978.77517,-1977.769155,3.249533577,-1973.80004,-1960.957125,-1975.967173,-1976.960539,-1976.111037,-1961.88094,-1960.305074,-1961.156731,-1962.122982,-1960.158749,-1960.85312,-1963.839562,-1964.133986
650.3919995,2540,-1932.948164,-1931.970193,3.255058385,-1927.969066,-1915.092485,-1930.160846,-1931.171189,-1930.708038,-1976.201635,-1974.879476,-1975.783651,-1976.611007,-1974.475142,-1975.227628,-1978.338713,-1978.355789
650.3999995,2540,-1906.383829,-1905.39164,3.260480055,-1901.734495,-1888.597965,-1903.614396,-1904.615354,-1904.197772,-1884.261542,-1882.787249,-1883.886909,-1884.486276,-1882.617506,-1882.874428,-1886.206094,-1886.203919
650.4079995,2540,-1896.575126,-1895.946792,3.265798574,-1892.010053,-1878.925538,-1894.221038,-1894.945588,-1894.195688,-1923.29183,-1921.565254,-1922.70365,-1923.338737,-1921.546424,-1922.0593,-1925.375533,-1925.351451
650.4159995,2540,-1852.907116,-1852.113537,3.271014622,-1847.79883,-1835.251431,-1850.37886,-1850.885808,-1850.337175,-1856.306356,-1854.617264,-1855.618403,-1856.329728,-1854.328988,-1855.187031,-1858.257022,-1858.115224
650.4239995,2540,-1844.454173,-1843.384206,3.276128216,-1839.25638,-1826.470851,-1841.726632,-1842.196748,-1841.662504,-1847.195721,-1845.688023,-1846.620921,-1847.487268,-1845.627375,-1845.998264,-1849.137956,-1849.068544
