Time:125Hz,Epoch,FP1,FP2,C3,C4,P7,P8,O1,O2,F7,F8,F3,F4,T7,T8,P3,P4
713.3359995,2786,0,38.54499092,0,126.2342078,47.01570901,70.35909353,0.135291943,46.91259556,0.01159038,87.8735912,72.64948884,0,50.75122369,23.82627167,0,0
713.3439995,2786,0,-31.62250009,0,143.046424,3.851853112,-24.83957619,0.137866989,-41.00886613,0.012175894,113.7815579,-277.2834964,0,-61.70566231,-4.664156758,0,0
713.3519995,2786,0,186.0938965,0,207.8978779,-58.8570294,-33.86247514,0.140428681,-58.19062059,0.012758856,80.16339237,199.5077123,0,120.1544398,33.46417764,0,0
713.3599995,2786,0,-106.6814292,0,79.86048892,63.38820711,58.74764811,0.142977004,42.28747549,0.013339259,123.1554764,-193.0969564,0,-47.11881329,19.83548939,0,0
713.3679995,2786,0,143.7458234,0,216.0120796,-78.90611844,-92.93501522,0.145511948,-114.5687344,0.0139171,88.07800344,-6.785365212,0,56.06318094,14.24273153,0,0
713.3759995,2786,0,42.17105712,0,123.5706127,29.98316649,59.76819094,0.148033497,30.77930136,0.014492374,96.47921645,80.20286378,0,54.92354409,35.33592194,0,0
713.3839995,2786,0,-16.54428853,0,155.0046436,0.848160237,-24.50363935,0.150541641,-36.43840641,0.015065076,120.6925257,-266.4579491,0,-53.72439428,8.253742931,0,0
713.3919995,2786,0,216.7924544,0,246.5702139,-64.71512856,-40.85703022,0.153036368,-63.92833624,0.015635201,83.72461537,206.2222577,0,125.2511765,42.85929652,0,0
713.3999995,2786,0,-64.44525298,0,150.9046846,37.22924301,35.60547857,0.155517665,14.63795732,0.016202745,112.0020457,-176.7143078,0,-38.38035506,36.13927348,0,0
713.4079995,2786,0,173.6090724,0,275.1637708,-89.2948711,-99.0690213,0.157985522,-119.9619792,0.016767704,68.91732564,11.11346986,0,64.11238645,29.78674864,0,0
713.4159995,2786,0,51.26394723,0,159.8769852,36.97977719,68.17534243,0.160439929,39.4318456,0.017330073,84.64759375,82.51036903,0,52.97787909,38.56696527,0,0
713.4239995,2786,0,-20.92874114,0,182.9997285,-2.795376461,-30.67286905,0.162880874,-44.14594405,0.017889848,116.220597,-270.565308,0,-58.91585424,1.771325565,0,0
713.4319995,2786,0,195.0062424,0,251.3887194,-68.37406117,-44.03866676,0.165308348,-64.00283604,0.018447024,73.61896695,199.092537,0,117.9653934,35.61902035,0,0
713.4399995,2786,0,-93.56653838,0,133.1219342,42.93485177,48.12753408,0.167722342,35.17842596,0.019001598,105.7437428,-193.1522014,0,-50.22572971,28.79056743,0,0
713.4479995,2786,0,155.7553571,0,266.6175452,-99.80458537,-103.8966007,0.170122845,-113.3845198,0.019553566,80.30244314,-5.243141356,0,52.50995993,21.71561069,0,0
713.4559995,2786,0,57.0150908,0,190.2381353,-11.94831447,31.43748319,0.17250985,9.3764196,0.020102924,86.83397202,85.54933684,0,49.72028006,41.5601369,0,0
713.4639995,2786,0,0.526392805,0,224.1445759,-44.4464674,-50.20629087,0.174883347,-66.13678538,0.020649667,95.49288955,-245.3945031,0,-55.36607259,13.04741855,0,0
713.4719995,2787,0,197.8302756,0,245.6665304,-55.13090736,-16.15348686,0.177243329,-39.28332665,0.021193793,69.74378576,218.7938445,0,109.7199143,31.23398075,0,0
713.4799995,2787,0,-106.4880899,0,102.7724649,78.01758446,85.96349165,0.179589789,70.09920109,0.021735296,136.8207772,-187.6759849,0,-69.94885199,15.82122729,0,0
713.4879995,2787,0,147.7456891,0,239.457912,-66.08313256,-76.23069198,0.181922717,-88.93905403,0.022274175,117.5114903,-4.2662177,0,34.63290534,19.29301067,0,0
713.4959995,2787,0,46.08610398,0,146.4042896,25.0796108,52.05244279,0.184242109,33.39956577,0.022810425,118.8459203,83.03568869,0,31.9360196,41.59205915,0,0
713.5039995,2787,0,-16.03256508,0,180.8284286,-15.30985281,-41.82945369,0.186547957,-50.4569849,0.023344043,129.956475,-244.5561176,0,-69.83280315,18.49411708,0,0
713.5119995,2787,0,188.6597565,0,231.7563245,-45.28583117,-26.7701809,0.188840254,-40.21782981,0.023875025,103.817415,221.0771752,0,106.3718581,49.62287711,0,0
713.5199995,2787,0,-106.875438,0,102.8560793,74.93305192,68.37007787,0.191118996,64.94566956,0.024403369,160.7722674,-180.1434858,0,-65.77740158,32.12124143,0,0
713.5279995,2787,0,141.684193,0,236.3631907,-62.77457217,-74.92192142,0.193384176,-79.29592211,0.02492907,137.6361318,11.34545141,0,38.35530847,25.98129786,0,0
713.5359995,2787,0,32.61397804,0,138.0782103,45.0505037,74.340152,0.19563579,62.49091586,0.025452126,162.4802474,91.69679592,0,36.97793716,47.4268308,0,0
713.5439995,2787,0,-23.95866208,0,174.4939523,-7.004024708,-32.03042995,0.197873832,-36.42081037,0.025972534,202.5113739,-241.1220995,0,-61.28989232,27.74123482,0,0
713.5519995,2787,0,187.5791844,0,239.6467964,-67.01267371,-44.73770893,0.200098298,-63.53550926,0.026490291,171.69033,223.1272163,0,111.7216108,61.81741045,0,0
713.5599995,2787,0,-97.33162541,0,129.811569,55.28554876,46.59299933,0.202309185,37.13219845,0.027005394,203.3587478,-173.345897,0,-58.65847325,48.4441092,0,0
713.5679995,2787,0,163.1338263,0,281.7638686,-70.21416078,-94.21175891,0.204506488,-99.6773538,0.02751784,170.8060908,24.24650223,0,51.45945203,39.78657405,0,0
713.5759995,2787,0,47.63497974,0,185.3828078,34.85849551,54.18652526,0.206690204,40.34010739,0.028027626,190.9165588,89.68565737,0,44.08213226,47.61357273,0,0
713.5839995,2787,0,-20.73947331,0,213.2038565,-11.46328962,-42.03405721,0.20886033,-47.78817996,0.02853475,212.6869993,-253.3366904,0,-63.09952452,14.42616386,0,0
713.5919995,2787,0,192.425971,0,285.1016421,-69.29844563,-51.69720584,0.211016863,-71.55216353,0.029039209,173.4554327,214.7546603,0,108.3183218,42.76073476,0,0
713.5999995,2787,0,-87.99134599,0,186.8919518,26.78580699,24.60110836,0.213159802,9.306705025,0.029541,213.8400932,-179.9460054,0,-60.65752399,30.64661486,0,0
713.6079995,2787,0,158.2198093,0,321.4847372,-105.1524309,-114.6095541,0.215289144,-125.413324,0.030040122,183.0281517,14.30820311,0,43.18005201,20.70487304,0,0
713.6159995,2787,0,43.4266132,0,223.4210946,7.259726966,31.07543281,0.217404888,15.9883464,0.030536572,193.1340496,82.17787545,0,30.77820313,29.81062186,0,0
713.6239995,2787,0,-0.24940135,0,276.9982929,-47.06447748,-74.92984304,0.219507033,-82.80059275,0.031030347,207.1746442,-242.4787893,0,-66.22804751,8.52204302,0,0
713.6319995,2787,0,190.9402237,0,305.1036693,-62.31868052,-36.73255312,0.221595577,-59.76082224,0.031521445,176.839104,222.1211051,0,105.889961,33.33912444,0,0
713.6399995,2787,0,-123.4757069,0,151.4904575,70.79097987,67.33221951,0.22367052,48.66194528,0.032009865,240.3579301,-198.8922515,0,-75.67170848,6.03754998,0,0
713.6479995,2787,0,139.8593881,0,311.5624709,-93.040133,-103.982644,0.225731862,-123.4761168,0.032495604,215.2162948,-3.554291707,0,31.91200568,5.277574509,0,0
713.6559995,2787,0,21.06111363,0,207.166353,27.42795694,61.84257052,0.227779603,30.30190296,0.03297866,218.1895802,75.22323745,0,29.8936454,24.26257037,0,0
713.6639995,2787,0,-52.8913559,0,222.7499379,-8.057656526,-27.47770266,0.229813743,-50.89386222,0.033459032,245.5143804,-263.7268144,0,-71.82678042,-5.824229472,0,0
713.6719995,2787,0,154.1378503,0,288.0028182,-69.51982532,-35.72437883,0.231834284,-69.48555095,0.033936716,216.0631824,195.2143112,0,97.92985202,27.8036451,0,0
713.6799995,2787,0,-143.2467349,0,157.5436275,53.44540371,69.5859832,0.233841226,40.39882411,0.034411713,256.9867704,-210.4818656,0,-75.63852647,13.28222985,0,0
713.6879995,2787,0,111.0472157,0,300.174005,-90.94627573,-87.50664663,0.235834572,-110.3881186,0.03488402,234.8278738,-16.0781236,0,30.99989979,9.694120001,0,0
713.6959995,2787,0,7.394441348,0,223.9265028,10.94054311,39.98405711,0.237814323,14.74823996,0.035353635,245.5233395,61.47265597,0,25.66691737,36.19606345,0,0
713.7039995,2787,0,-47.7018119,0,256.2987513,-22.63343436,-54.44034574,0.23978048,-69.72313808,0.035820557,258.7614502,-264.7782484,0,-73.36869346,8.17319589,0,0
713.7119995,2787,0,162.9479755,0,311.0816311,-69.11583845,-47.47771895,0.241733048,-67.91095485,0.036284785,230.6927227,191.0265692,0,94.47646923,31.04836614,0,0
713.7199995,2787,0,-125.6176945,0,199.9309262,48.37897777,49.64193759,0.243672028,39.61358964,0.036746316,279.9170685,-213.018981,0,-75.16247965,19.83210978,0,0
713.7279995,2788,0,120.3348726,0,341.9323887,-84.19639192,-91.01930538,0.245597423,-95.70699958,0.037205151,254.4994873,-13.56982534,0,37.31667128,13.8989352,0,0
713.7359995,2788,0,3.331565511,0,243.7044051,17.87935797,46.27392748,0.247509238,41.02859527,0.037661287,268.956323,51.39410886,0,26.97218857,27.9039964,0,0
713.7439995,2788,0,-53.99601682,0,272.444087,-30.52388766,-56.94081292,0.249407476,-49.5137398,0.038114723,279.2203523,-274.3186689,0,-72.41728901,3.682594622,0,0
713.7519995,2788,0,144.676698,0,313.1568034,-66.94961807,-42.0754848,0.251292141,-37.18017959,0.038565459,239.3897454,187.9581027,0,97.62539249,30.18410719,0,0
713.7599995,2788,0,-137.6008359,0,186.1137682,49.4510572,46.59318424,0.253163238,65.47174682,0.039013493,282.2906387,-211.2492732,0,-73.32948072,16.27681825,0,0
713.7679995,2788,0,128.5067984,0,322.2061216,-87.50489168,-99.58261056,0.255020772,-83.16076278,0.039458824,250.096215,-1.22421852,0,39.24433541,14.54613151,0,0
713.7759995,2788,0,12.83134733,0,219.4109497,24.56732057,48.03917054,0.256864747,56.09245549,0.039901452,264.2044204,68.4731421,0,29.25686108,29.58520289,0,0
713.7839995,2788,0,-43.77413279,0,258.3886973,-32.27482405,-68.44204767,0.25869517,-45.32273882,0.040341376,275.6237594,-250.0227316,0,-64.43674039,1.031048782,0,0
713.7919995,2788,0,152.8011795,0,304.1888708,-74.76656717,-60.12273028,0.260512046,-45.20270267,0.040778594,230.9171097,208.2107859,0,109.7465031,21.82508311,0,0
713.7999995,2788,0,-142.5377387,0,174.0169992,46.06313156,33.24731081,0.26231538,54.74223188,0.041213107,275.8871956,-204.0814091,0,-61.86368338,4.028101445,0,0
713.8079995,2788,0,113.1060431,0,322.4732652,-100.7360042,-130.1853325,0.264105181,-105.8084186,0.041644914,243.4754727,6.066618045,0,54.1750059,2.473062569,0,0
713.8159995,2788,0,-17.66440104,0,200.0674027,31.76044468,36.71785134,0.265881454,52.19621756,0.042074014,254.413224,64.99931311,0,40.70283215,10.61777642,0,0
713.8239995,2788,0,-83.72956976,0,203.0458184,11.22524529,-40.59900379,0.267644206,-20.17104289,0.042500407,292.2961703,-270.4215891,0,-64.00469112,-22.67732204,0,0
713.8319995,2788,0,126.1385158,0,268.0815922,-47.41829517,-53.0355312,0.269393445,-43.99354037,0.042924092,272.8959805,198.8140896,0,111.0709128,11.65102548,0,0
713.8399995,2788,0,-155.3626555,0,160.2207241,53.43156637,24.88405007,0.271129179,37.67287731,0.043345069,306.9676763,-197.4405915,0,-55.19808306,6.281397993,0,0
713.8479995,2788,0,103.9208595,0,305.5568719,-94.21126219,-126.5351977,0.272851415,-117.008985,0.043763338,271.3297075,6.504318998,0,55.74410846,7.307406596,0,0
713.8559995,2788,0,-15.87625257,0,204.7089568,17.17476482,21.75180825,0.274560162,23.7436507,0.044178898,281.529646,65.92944764,0,39.7922651,22.16450126,0,0
713.8639995,2788,0,-71.84898417,0,226.7838407,-5.122792674,-56.71468785,0.276255428,-43.54434261,0.044591751,300.940767,-264.4558695,0,-62.00690658,-8.146822978,0,0
713.8719995,2788,0,126.5572453,0,267.927202,-28.2223894,-28.75024453,0.277937223,-22.87203281,0.045001894,286.2627403,182.9980007,0,106.3997098,17.39395202,0,0
713.8799995,2788,0,-165.1218817,0,139.6607942,77.55569443,52.29729705,0.279605555,65.5213179,0.04540933,345.1422139,-230.3690818,0,-68.44923244,4.72909554,0,0
713.8879995,2788,0,103.720674,0,296.3714287,-89.12431063,-121.1718055,0.281260434,-110.0189683,0.045814057,310.3885927,-14.6128696,0,48.75322654,12.50058128,0,0
713.8959995,2788,0,-12.06572388,0,201.726041,23.04152,31.80575671,0.282901871,31.87605922,0.046216076,311.6736968,54.45218558,0,42.30536903,33.21699595,0,0
713.9039995,2788,0,-77.81859832,0,217.2641015,-13.21965799,-57.03688259,0.284529874,-48.90346037,0.046615387,330.2265654,-273.0185287,0,-60.42273687,-4.136192816,0,0
713.9119995,2788,0,125.3204814,0,275.0779206,-66.20509073,-63.21149626,0.286144456,-62.63331415,0.047011991,295.3265308,183.2893559,0,107.1886584,18.18344638,0,0
713.9199995,2788,0,-161.7730381,0,156.4378704,55.6525321,27.43874691,0.287745625,34.72083571,0.047405887,327.1466626,-224.1031973,0,-65.09238803,0.699106424,0,0
713.9279995,2788,0,89.21871216,0,288.2341013,-78.99303551,-116.6644973,0.289333394,-111.4591435,0.047797077,299.7493438,-20.22221059,0,43.70235499,-9.181250553,0,0
713.9359995,2788,0,-20.73535565,0,203.8246672,17.40707131,17.54527824,0.290907774,16.06040846,0.04818556,316.0285404,37.8275068,0,32.03172694,7.489358023,0,0
713.9439995,2788,0,-69.28359216,0,243.4963649,-24.04398089,-74.93943584,0.292468776,-67.82978695,0.048571338,326.3517748,-279.7527941,0,-57.79079387,-13.54024351,0,0
713.9519995,2788,0,131.739408,0,295.4890196,-67.93750213,-60.87684501,0.294016412,-70.78261039,0.048954411,301.4630869,173.6209266,0,109.8015138,16.48907341,0,0
713.9599995,2788,0,-140.7180999,0,181.837154,39.49200658,27.4333053,0.295550694,18.67728496,0.049334779,351.3131155,-230.8676825,0,-64.76148265,6.058608249,0,0
713.9679995,2788,0,118.3565569,0,301.6042221,-85.62416227,-104.4731433,0.297071636,-110.9218318,0.049712444,321.0082024,-20.57242782,0,51.01840682,2.232264887,0,0
713.9759995,2788,0,-12.57942098,0,172.397213,41.54295311,54.40624159,0.29857925,46.76758578,0.050087407,346.5394152,12.86623481,0,26.81059272,7.394364709,0,0
713.9839995,2789,0,-53.41749971,0,215.3792899,-8.609782663,-52.98436835,0.300073548,-46.14788984,0.050459667,374.277707,-296.4616406,0,-66.66212209,-10.52162542,0,0
713.9919995,2789,0,163.6150729,0,295.0608187,-77.1595308,-65.31433594,0.301554544,-70.76971413,0.050829227,341.1806016,184.7054621,0,113.899316,27.72917969,0,0
713.9999995,2789,0,-129.8343425,0,166.1727923,44.64429973,36.20123676,0.303022253,32.53990221,0.051196087,370.5282736,-230.926794,0,-65.87086031,2.981121345,0,0
714.0079995,2789,0,129.795692,0,309.4858433,-92.55603799,-110.6272725,0.304476687,-115.8785491,0.051560248,331.2737116,-12.03917746,0,46.79918157,0.924469086,0,0
714.0159995,2789,0,9.463773586,0,216.3320175,7.144808216,23.83926743,0.305917861,9.432038155,0.051921712,335.8037153,53.66195212,0,35.16455899,16.28493989,0,0
714.0239995,2789,0,-60.01107174,0,218.4429232,-9.90740539,-46.27727839,0.30734579,-48.96454825,0.05228048,342.8461475,-278.5635408,0,-63.21037524,-21.61296538,0,0
714.0319995,2789,0,141.6743868,0,275.8332289,-62.67624557,-49.01983047,0.308760488,-60.48869717,0.052636552,322.2183635,170.2897306,0,106.0395176,7.4680209,0,0
714.0399995,2789,0,-138.8470396,0,162.4872642,39.48010174,24.66669933,0.310161971,19.69951638,0.052989931,361.6327687,-231.3161922,0,-66.3157393,-5.228420591,0,0
714.0479995,2789,0,116.8010193,0,283.0400815,-85.07565755,-110.4611938,0.311550253,-107.6520756,0.053340618,319.8137625,-20.88651618,0,48.0527907,-13.01524001,0,0
714.0559995,2789,0,-6.010803024,0,181.9618815,15.30603759,26.03022285,0.31292535,28.41038783,0.053688614,337.5059675,24.72286331,0,31.23793706,-1.012067263,0,0
714.0639995,2789,0,-68.09158623,0,200.4907661,-18.42843174,-61.92460052,0.314287279,-46.87673507,0.054033921,355.6168795,-291.343127,0,-66.46275505,-32.85980663,0,0
714.0719995,2789,0,124.1090088,0,246.2694782,-56.3424645,-53.62858639,0.315636055,-49.1477942,0.05437654,330.77865,163.3845611,0,102.459838,-6.594630914,0,0
714.0799995,2789,0,-162.9844538,0,131.7108097,56.3436123,26.4083238,0.316971694,36.94422933,0.054716473,371.7097148,-245.4208961,0,-69.33650901,-18.95236785,0,0
714.0879995,2789,0,93.53415506,0,269.2803799,-66.9904175,-110.4166171,0.318294214,-91.84879808,0.055053722,336.4399126,-26.41287955,0,45.60723418,-20.78009679,0,0
714.0959995,2789,0,-15.57488714,0,185.6590357,29.60457562,18.01100896,0.319603632,31.98774163,0.055388288,357.3435455,30.65341109,0,34.68406902,-0.6762423,0,0
714.1039995,2789,0,-59.3666011,0,203.0462179,-5.720047939,-71.3226748,0.320899964,-52.70118766,0.055720175,371.4193405,-274.7772395,0,-55.65966163,-25.75339771,0,0
714.1119995,2789,0,126.465524,0,218.6186812,-23.5476636,-35.72340777,0.322183228,-28.33351598,0.056049382,343.2138706,180.4455619,0,108.2836413,-3.846294068,0,0
714.1199995,2789,0,-149.7234757,0,115.5338811,64.57810593,21.94839857,0.323453441,35.37386635,0.056375913,392.3848397,-230.3524213,0,-63.08160375,-17.09878937,0,0
714.1279995,2789,0,120.4806726,0,273.2580554,-89.77694856,-140.5327581,0.324710623,-127.5870657,0.056699768,348.9949448,-2.076963959,0,59.93123317,-10.83672226,0,0
714.1359995,2789,0,-8.363330528,0,170.0852652,24.41673313,15.97147553,0.325954791,26.87798964,0.057020952,351.2952481,47.95767575,0,44.16671013,5.208377485,0,0
714.1439995,2789,0,-61.49746342,0,196.2376635,-17.06501178,-79.40391648,0.327185963,-51.84969438,0.057339465,369.1225457,-271.6308657,0,-51.16253688,-24.54505803,0,0
714.1519995,2789,0,113.9443141,0,212.184801,-34.35054102,-44.7755449,0.328404158,-28.68870454,0.057655309,347.881465,174.7987857,0,110.8132304,-3.042830476,0,0
714.1599995,2789,0,-177.3261247,0,81.07948349,79.48506233,37.10221319,0.329609396,57.18835484,0.057968488,400.2063949,-249.7427927,0,-69.83948431,-26.196034,0,0
714.1679995,2789,0,94.00536024,0,236.6054233,-81.30172732,-138.7625441,0.330801696,-117.4200245,0.058279003,360.7172967,-23.82567577,0,48.08317575,-23.19121101,0,0
714.1759995,2789,0,-43.79974652,0,119.7963809,35.05237849,23.98656727,0.331981077,33.9333963,0.058586857,356.1129219,25.69688468,0,28.69928897,-6.691852029,0,0
714.1839995,2789,0,-93.57182115,0,137.8845002,-0.022674915,-54.35171214,0.333147559,-40.49678567,0.058892052,378.1768563,-300.4622569,0,-69.29698765,-40.30791997,0,0
714.1919995,2789,0,112.609751,0,199.460373,-58.63133281,-53.26965775,0.334301162,-57.12413873,0.059194591,359.1312459,165.4740235,0,104.9384593,-4.719993182,0,0
714.1999995,2789,0,-167.1576113,0,81.16478184,40.94679369,40.01419995,0.335441906,28.07795901,0.059494476,394.1641257,-235.8687631,0,-64.19044899,-11.53724788,0,0
714.2079995,2789,0,99.65216175,0,203.0129508,-95.00345682,-93.53118765,0.336569812,-113.9158133,0.059791709,370.9373172,-28.08510446,0,47.38724204,-15.70610665,0,0
714.2159995,2789,0,-32.2588891,0,96.7220993,7.889249653,36.34224991,0.337684901,13.65751719,0.060086295,387.1980841,15.52680208,0,25.34397813,-1.519937796,0,0
714.2239995,2789,0,-81.29069029,0,141.0159784,-41.54709818,-76.53355651,0.338787194,-80.10609869,0.060378234,379.6560496,-281.9789874,0,-66.07183269,-24.34832684,0,0
714.2319995,2789,0,115.1168401,0,200.2781287,-79.38556073,-70.85444365,0.339876711,-78.29926963,0.06066753,334.2345783,183.3086244,0,104.0328939,8.759233872,0,0
714.2399995,2790,0,-177.6040292,0,84.12464062,43.64091915,23.08537192,0.340953475,21.52929742,0.060954187,372.4589174,-231.1104769,0,-70.37660618,-12.01073232,0,0
714.2479995,2790,0,77.61562617,0,225.8249741,-78.23294023,-107.9732467,0.342017508,-109.9781998,0.061238206,350.2056139,-14.90684615,0,44.02643343,-23.83123345,0,0
714.2559995,2790,0,-48.35628457,0,134.117238,24.5970109,28.19852798,0.34306883,20.25315143,0.061519591,370.9201598,31.40250538,0,23.54842362,-11.51106395,0,0
714.2639995,2790,0,-84.86600165,0,165.0340882,-25.52267484,-67.50601271,0.344107465,-69.99845153,0.061798344,381.0262764,-270.6796755,0,-67.84703138,-38.39513993,0,0
714.2719995,2790,0,116.1220545,0,209.8117791,-59.56825871,-50.40329351,0.345133435,-64.53396969,0.062074469,352.5861843,189.2644549,0,100.5592066,-5.997878557,0,0
714.2799995,2790,0,-176.0650087,0,85.67606458,52.72053063,33.50191747,0.346146762,24.62817925,0.062347969,391.154881,-227.7022194,0,-75.43791153,-23.76169705,0,0
714.2879995,2790,0,74.09922325,0,199.3498957,-69.84614201,-84.47754152,0.34714747,-101.077866,0.062618848,358.5920986,-3.838150199,0,41.03252074,-31.98745146,0,0
714.2959995,2790,0,-59.57892939,0,86.81305583,48.251372,68.97426225,0.348135581,43.65243703,0.062887107,386.8840272,44.252273,0,23.16295706,-12.05191046,0,0
714.3039995,2790,0,-101.8440567,0,125.2369576,-13.70506848,-48.37117476,0.34911112,-62.32360665,0.063152751,399.3174483,-265.8352698,0,-65.41773351,-35.36376575,0,0
714.3119995,2790,0,94.68837247,0,172.5169318,-59.85482139,-37.15727064,0.350074109,-64.77829162,0.063415783,351.8570542,190.4334131,0,105.5253539,-7.05462189,0,0
714.3199995,2790,0,-201.9460334,0,37.59449936,67.45835172,59.61594668,0.351024572,37.71609569,0.063676206,390.1343642,-228.5819809,0,-69.94426567,-26.27316096,0,0
714.3279995,2790,0,61.36277807,0,172.7590744,-75.29849527,-92.23104952,0.351962534,-114.388213,0.063934023,364.6194686,-11.46783065,0,46.43528841,-31.1568952,0,0
714.3359995,2790,0,-54.89731556,0,84.57989743,18.12826611,42.69958144,0.352888019,8.312031391,0.064189239,372.0987652,37.67597028,0,28.2187584,-9.862733127,0,0
714.3439995,2790,0,-104.7255109,0,104.4084795,-8.990792304,-35.51270192,0.353801051,-64.19378192,0.064441857,376.3852214,-268.8585323,0,-60.60736079,-34.58803959,0,0
714.3519995,2790,0,94.31709187,0,157.0467171,-39.9488916,-21.98275115,0.354701656,-60.34224032,0.06469188,357.9625151,185.3637475,0,113.2541169,-1.560729333,0,0
714.3599995,2790,0,-180.0411337,0,58.17634059,56.11397941,45.5617596,0.355589857,19.85489962,0.064939312,398.5968621,-220.6633822,0,-56.32838089,-10.89368679,0,0
714.3679995,2790,0,72.76350097,0,176.1335286,-76.53141314,-81.56069946,0.35646568,-98.58849186,0.065184156,350.1706446,3.094184621,0,61.33589903,-16.63805878,0,0
714.3759995,2790,0,-57.82030473,0,65.05954126,37.17392706,70.66687664,0.357329151,51.16235593,0.065426417,366.9871272,40.64516458,0,41.56000285,0.679455748,0,0
714.3839995,2790,0,-93.62813338,0,105.2594092,-19.10522469,-44.21182831,0.358180295,-53.58972486,0.065666098,378.4215501,-257.8016364,0,-49.91924434,-18.95347628,0,0
714.3919995,2790,0,97.18950242,0,141.6301401,-52.3384497,-26.02936693,0.359019138,-44.00911551,0.065903204,340.6845583,198.4166137,0,110.6716365,6.214953301,0,0
714.3999995,2790,0,-188.9476831,0,11.15629354,71.10132755,72.75041516,0.359845706,61.66686634,0.066137737,386.7534261,-223.1425387,0,-68.17130441,-14.50296027,0,0
714.4079995,2790,0,72.53034241,0,133.8254481,-69.05269776,-69.19208733,0.360660025,-81.14933277,0.066369702,356.8671844,4.949263865,0,54.3582121,-14.15757908,0,0
714.4159995,2790,0,-56.56630488,0,21.49874502,40.14825993,71.35659788,0.361462122,58.94712091,0.066599102,357.3871979,43.67580711,0,34.01359896,-1.916424299,0,0
714.4239995,2790,0,-95.43847276,0,39.08747652,9.120949103,-16.74666962,0.362252023,-13.50676224,0.066825943,354.819754,-268.5621436,0,-61.12468957,-34.86323484,0,0
714.4319995,2790,0,91.8994594,0,58.74305701,-16.05667253,9.153943712,0.363029755,3.939500471,0.067050228,328.40573,179.1285787,0,101.8859405,-6.351571752,0,0
714.4399995,2790,0,-188.739265,0,-49.52144366,80.88345368,68.3976171,0.363795345,71.66945904,0.067271961,366.8438486,-236.3226688,0,-73.79592433,-18.9266878,0,0
714.4479995,2790,0,84.86470062,0,108.9168092,-80.58287049,-96.87952573,0.36454882,-97.00582191,0.067491146,308.8218198,8.038058896,0,51.24383833,-14.01854182,0,0
714.4559995,2790,0,-47.64967542,0,-0.230610813,33.11101837,60.79179223,0.365290208,49.7080943,0.067707788,298.6996969,45.88320946,0,28.59556925,-2.685837873,0,0
714.4639995,2790,0,-82.36957811,0,38.04248463,2.23802042,-26.75268002,0.366019537,-23.22178271,0.06792189,307.5105399,-262.2888899,0,-64.58293606,-35.96044351,0,0
714.4719995,2790,0,117.2958752,0,95.63690055,-28.06544182,-5.433154832,0.366736834,-6.962381327,0.068133458,291.8228752,210.2567082,0,110.5053228,-1.324742254,0,0
714.4799995,2790,0,-177.3018204,0,-31.46752722,87.82979576,82.04593817,0.367442127,79.11665401,0.068342496,338.8778955,-209.9097855,0,-61.99977868,-18.83083038,0,0
714.4879995,2790,0,85.29388963,0,103.4020167,-51.85882161,-63.85655841,0.368135445,-74.18016431,0.068549008,294.5076857,13.62226337,0,62.03641276,-20.43344787,0,0
714.4959995,2791,0,-37.51383936,0,14.74912935,48.92841373,74.38582801,0.368816817,60.99498131,0.068752998,297.1126988,58.93663225,0,48.15032359,3.506665413,0,0
714.5039995,2791,0,-72.86756771,0,67.19328227,-9.537709056,-42.33029049,0.369486269,-44.86153067,0.068954471,304.2424764,-244.1090838,0,-41.28401184,-20.8758134,0,0
714.5119995,2791,0,126.5965834,0,135.4142546,-57.96700688,-37.51171,0.370143833,-52.81398934,0.069153432,266.9793595,217.2264046,0,131.3375078,10.19680898,0,0
714.5199995,2791,0,-155.7573384,0,23.0413264,54.75294221,53.04975654,0.370789535,42.01434648,0.069349885,296.6177555,-197.2296037,0,-40.04861196,-5.601048683,0,0
714.5279995,2791,0,103.7923207,0,141.4076099,-60.03513535,-67.49785996,0.371423407,-83.6903695,0.069543834,269.3309719,24.177432,0,73.56985351,-12.750566,0,0
714.5359995,2791,0,-28.22108324,0,32.6196191,54.43325239,87.07926298,0.372045477,60.18822553,0.069735286,301.8391761,56.04709213,0,47.42209672,2.058573112,0,0
714.5439995,2791,0,-65.57550218,0,80.4930237,-15.64689076,-30.37997126,0.372655774,-48.32477407,0.069924244,309.5319881,-236.7798876,0,-41.14037829,-17.92830595,0,0
714.5519995,2791,0,120.8044547,0,126.9501864,-55.0899637,-17.56561386,0.373254329,-43.57461857,0.070110713,270.2379459,220.1718558,0,120.9500278,9.22103573,0,0
714.5599995,2791,0,-173.9753646,0,-3.417158674,67.35107387,80.53641171,0.373841171,62.36330763,0.070294697,313.8574819,-203.5012316,0,-62.97003771,-10.86074166,0,0
714.5679995,2791,0,78.43283471,0,113.5511678,-61.4413337,-53.07821817,0.37441633,-72.22327844,0.070476203,282.57925,28.97663318,0,52.50298905,-9.750351028,0,0
714.5759995,2791,0,-55.97512938,0,6.151945052,42.23163525,80.21088881,0.374979838,54.69433805,0.070655235,298.0507276,60.94857497,0,28.1610075,6.394475749,0,0
714.5839995,2791,0,-86.73866495,0,50.57320327,-11.27772136,-25.74206175,0.375531723,-43.86500642,0.070831797,301.2619348,-234.8202273,0,-57.83563043,-16.19753772,0,0
714.5919995,2791,0,96.47569638,0,74.16381277,-21.25649653,16.71687508,0.376072018,-12.46581238,0.071005895,272.6173755,217.9916931,0,109.7495586,9.113347966,0,0
714.5999995,2791,0,-188.6797309,0,-37.61181304,84.88377432,91.23630031,0.376600752,69.86403862,0.071177534,328.4400347,-204.5414714,0,-64.20536925,-9.092933834,0,0
714.6079995,2791,0,89.5008602,0,141.7279254,-78.03036524,-72.18069019,0.377117957,-96.75328385,0.071346719,286.8701358,47.26555674,0,63.24093628,0.515882045,0,0
714.6159995,2791,0,-47.35448689,0,36.87860817,33.27857471,89.77210984,0.377623664,52.95689864,0.071513455,292.9608855,85.35078335,0,40.17212679,17.53136737,0,0
714.6239995,2791,0,-95.04673511,0,55.77569523,-20.30982871,-7.493611535,0.378117904,-39.54000356,0.071677747,316.3635897,-219.4251936,0,-51.02943631,-12.90254507,0,0
714.6319995,2791,0,90.36533024,0,94.50471825,-53.57451808,3.827326752,0.378600708,-38.36658595,0.071839601,297.8263898,237.3137037,0,115.4486881,13.9774768,0,0
714.6399995,2791,0,-183.8887814,0,-22.61036981,55.23965558,77.354437,0.37907211,42.17056904,0.071999022,340.708549,-181.4378755,0,-58.39650845,1.47314258,0,0
714.6479995,2791,0,95.41074432,0,116.7615933,-88.61488049,-69.81307888,0.379532139,-107.039374,0.072156014,299.3360036,62.64731251,0,66.24946968,6.506912334,0,0
714.6559995,2791,0,-49.46955165,0,-9.043606134,40.53691923,96.42702774,0.379980829,49.61765443,0.072310584,320.3129349,95.47344266,0,40.6980109,18.12202433,0,0
714.6639995,2791,0,-96.33258277,0,18.16126715,-8.338409447,-6.030071141,0.380418211,-46.59593402,0.072462737,340.1876775,-213.1140831,0,-50.52033476,-7.139330113,0,0
714.6719995,2791,0,95.70753874,0,74.91413553,-60.9258049,-4.203410221,0.380844318,-53.96418612,0.072612478,295.1357002,241.8606915,0,114.0389087,27.85083273,0,0
714.6799995,2791,0,-194.0907483,0,-55.52349387,54.69523318,91.40908446,0.381259182,43.68061094,0.072759813,326.0299231,-182.0172175,0,-67.02247035,8.778383784,0,0
714.6879995,2791,0,75.48867098,0,79.73437648,-80.47269411,-45.75495582,0.381662836,-99.32116787,0.072904747,295.4042891,46.38707477,0,50.78595181,9.403184784,0,0
714.6959995,2791,0,-51.05229463,0,-2.277562091,19.40242801,86.77759952,0.382055312,30.07098305,0.073047286,307.5425766,79.70737193,0,27.37970399,32.5566659,0,0
714.7039995,2791,0,-100.601413,0,27.268955,-24.93868886,-9.368537311,0.382436645,-54.98309659,0.073187435,312.9110515,-218.2367626,0,-60.35168257,6.478496427,0,0
714.7119995,2791,0,74.87540986,0,54.14688459,-47.2336462,17.30229957,0.382806866,-39.43613435,0.0733252,292.096966,221.4521894,0,99.39202649,28.31287695,0,0
714.7199995,2791,0,-205.4012981,0,-58.52787933,60.2753139,90.11740907,0.383166009,41.50187899,0.073460587,344.5706873,-207.8700189,0,-77.34872433,11.24970013,0,0
714.7279995,2791,0,61.4988326,0,84.76482125,-83.09494963,-60.96920208,0.383514108,-107.193925,0.073593602,307.4061703,37.1681639,0,50.14120524,17.2036674,0,0
714.7359995,2791,0,-81.71114574,0,-24.97927573,35.41838675,91.44259356,0.383851196,39.65949581,0.073724249,320.9266679,65.54395489,0,23.89649096,30.84066078,0,0
714.7439995,2791,0,-118.2395025,0,8.236024133,-9.191777294,-6.747265467,0.384177307,-49.48349189,0.073852535,329.0984266,-234.2313469,0,-60.71308692,2.585819454,0,0
714.7519995,2792,0,74.30787792,0,62.08026015,-54.04488548,-4.94980045,0.384492474,-60.88973731,0.073978466,289.4331329,224.1190624,0,107.1288831,34.07866335,0,0
714.7599995,2792,0,-203.3479904,0,-47.29460615,47.24275108,65.05164467,0.384796732,14.38981257,0.074102048,316.3742147,-200.6271309,0,-73.5019356,13.03016171,0,0
714.7679995,2792,0,60.66506261,0,72.37685816,-80.3465557,-60.63745118,0.385090115,-110.1607515,0.074223286,264.4604819,26.11171882,0,44.8702512,4.593845358,0,0
714.7759995,2792,0,-90.26140118,0,-57.77867602,43.64426086,105.0215722,0.385372658,44.81584245,0.074342187,279.7011776,34.54810201,0,9.991327485,10.98726004,0,0
714.7839995,2792,0,-131.1353458,0,-24.33272601,-1.726383763,8.416350267,0.385644393,-43.13570701,0.074458755,303.5712868,-266.4736923,0,-78.9749099,-15.93219263,0,0
714.7919995,2792,0,53.66133935,0,24.53990037,-31.48188683,29.70971941,0.385905357,-30.02169455,0.074572999,279.2018343,198.5128448,0,90.84554446,22.61834493,0,0
714.7999995,2792,0,-226.666197,0,-87.12832724,58.40165647,95.55222134,0.386155584,40.6733765,0.074684922,320.0930837,-220.2120273,0,-84.84094782,11.12601295,0,0
714.8079995,2792,0,47.45607125,0,56.54304061,-93.38847533,-55.10336524,0.386395109,-109.7900428,0.074794532,274.8471129,18.73522838,0,39.85327806,11.61255793,0,0
714.8159995,2792,0,-88.61674915,0,-44.30596193,31.46661281,104.1564588,0.386623966,41.74249755,0.074901835,280.1450711,43.47400792,0,16.14318442,31.03241831,0,0
714.8239995,2792,0,-115.4829575,0,1.943223849,-26.82539622,-6.899900836,0.386842192,-62.68840704,0.075006837,289.9731432,-245.1540194,0,-59.32753,16.23644542,0,0
714.8319995,2792,0,74.04028913,0,51.36583941,-68.86777532,2.445019477,0.387049821,-65.63182797,0.075109543,256.1071608,207.9131874,0,110.842675,43.43602566,0,0
714.8399995,2792,0,-199.2155721,0,-49.80302171,35.11458786,76.79537745,0.387246888,13.93313224,0.07520996,296.3272776,-215.247357,0,-63.72415149,22.6578765,0,0
714.8479995,2792,0,68.7683234,0,87.1860663,-98.81619328,-56.54729879,0.387433429,-124.2085127,0.075308095,261.4107107,37.32371796,0,69.39390574,31.70699029,0,0
714.8559995,2792,0,-88.52146103,0,-45.8668704,30.14868373,113.0037749,0.387609481,30.85732338,0.075403954,289.3155543,44.72733958,0,35.48030323,38.00670843,0,0
714.8639995,2792,0,-122.7786679,0,-8.088000101,-33.1099962,-7.278290341,0.387775078,-77.32053709,0.075497542,316.2739475,-256.1410716,0,-55.6316947,6.54087653,0,0
714.8719995,2792,0,58.24575129,0,43.69409758,-70.76282165,-1.42917223,0.387930256,-75.99359555,0.075588867,271.8450879,209.536438,0,111.3518885,36.95971537,0,0
714.8799995,2792,0,-221.5120529,0,-69.16214979,41.17851447,82.39843355,0.388075052,14.23871481,0.075677934,299.6127825,-219.0926941,0,-68.34243634,11.07331163,0,0
714.8879995,2792,0,50.71166798,0,56.88042796,-88.46673012,-49.31464234,0.388209502,-116.9557961,0.075764751,264.6542831,23.52624276,0,57.31605538,9.768542351,0,0
714.8959995,2792,0,-104.9703302,0,-72.51860133,38.15094889,108.2067557,0.388333642,33.963168,0.075849323,280.5728786,36.74735988,0,23.40437149,16.56771604,0,0
714.9039995,2792,0,-133.4365071,0,-24.11203946,-32.23285156,-16.8373062,0.388447508,-81.49976745,0.075931657,285.6197228,-255.9547528,0,-63.97732186,-12.12891919,0,0
714.9119995,2792,0,48.05283971,0,18.20867865,-64.64641309,1.532481542,0.388551137,-71.25176174,0.076011759,234.6868352,210.0031875,0,106.1442533,19.57057448,0,0
714.9199995,2792,0,-239.3822836,0,-102.1954585,47.2568738,78.33351022,0.388644566,12.59727129,0.076089637,271.3221996,-223.4547057,0,-75.79332677,-8.222168473,0,0
714.9279995,2792,0,38.67440616,0,53.02046198,-108.7167518,-78.00699771,0.388727831,-148.8428208,0.076165296,233.8361823,23.06630083,0,45.7056278,-8.198592888,0,0
714.9359995,2792,0,-107.5311655,0,-54.72324892,13.48837025,89.24894339,0.38880097,10.03151776,0.076238743,242.169569,42.61220378,0,13.15802119,4.282298193,0,0
714.9439995,2792,0,-128.3874384,0,-3.835976242,-29.0047903,-8.565212523,0.388864018,-74.21766003,0.076309986,267.7690283,-248.9210479,0,-72.58352255,-21.24937232,0,0
714.9519995,2792,0,57.86000626,0,41.41618605,-43.90896342,23.835162,0.388917014,-50.93725078,0.076379029,247.091038,218.944104,0,92.07839436,13.69769836,0,0
714.9599995,2792,0,-246.3844497,0,-106.2422985,83.74318493,120.2592678,0.388959995,51.34578948,0.076445881,295.6519928,-221.1554572,0,-96.77218499,-15.93151642,0,0
714.9679995,2792,0,26.21353667,0,38.87752394,-77.37328479,-48.8272775,0.388992998,-119.7930143,0.076510548,265.1858717,19.01335855,0,31.36455445,-14.95224892,0,0
714.9759995,2792,0,-108.2324257,0,-48.00497626,20.61690661,81.57842715,0.389016059,6.973581347,0.076573037,261.1377569,48.07459562,0,9.943722214,3.837648606,0,0
714.9839995,2792,0,-137.572124,0,-5.860416734,-36.10908842,-26.41873406,0.389029218,-86.72086724,0.076633354,259.1901779,-244.5988297,0,-77.55024047,-27.02817746,0,0
714.9919995,2792,0,43.34568422,0,35.34818866,-73.02209602,-6.344774173,0.389032512,-81.30863791,0.076691506,228.0148961,210.8393468,0,84.71457619,5.163502668,0,0
714.9999995,2792,0,-256.7856102,0,-109.0045493,60.00821952,97.54171911,0.389025977,27.41022246,0.0767475,271.2283834,-222.5443045,0,-100.6895243,-17.49983259,0,0
715.0079995,2793,0,20.1394475,0,36.12392113,-89.65324461,-62.68705174,0.389009653,-127.4812237,0.076801344,247.1979172,20.68791371,0,22.90993489,-16.83841719,0,0
715.0159995,2793,0,-108.6179853,0,-46.74789746,3.944126658,65.12218092,0.388983577,-3.067347379,0.076853043,251.9696561,50.91261915,0,1.314389098,6.723306514,0,0
715.0239995,2793,0,-144.2874157,0,-37.65437343,-15.01545234,1.183577978,0.388947787,-54.42363107,0.076902604,252.0229661,-241.0107362,0,-82.59509195,-21.76008547,0,0
715.0319995,2793,0,46.86309977,0,-2.738246718,-44.48336836,20.23509964,0.388902321,-40.56823239,0.076950036,232.0988487,199.8239187,0,78.02753408,5.203801567,0,0
715.0399995,2793,0,-229.1330291,0,-104.3690972,53.77463144,81.32928363,0.388847218,33.95988272,0.076995344,265.7409287,-224.0935895,0,-97.7585035,-7.190614363,0,0
715.0479995,2793,0,38.46264323,0,24.54297214,-74.5318959,-47.84414872,0.388782516,-89.28384633,0.077038536,227.3606099,30.05768328,0,30.79221649,1.206023637,0,0
715.0559995,2793,0,-104.1755291,0,-83.96162157,32.16291185,95.57423331,0.388708253,47.30738848,0.077079619,241.7123477,45.97916916,0,3.188573118,21.09026946,0,0
715.0639995,2793,0,-138.9071658,0,-55.17736185,-14.81828854,-2.528360874,0.388624468,-38.98894201,0.077118599,240.5508363,-248.1332626,0,-80.89282446,-7.621914549,0,0
715.0719995,2793,0,43.90652208,0,-22.48251419,-42.98571571,23.13437648,0.3885312,-18.71720944,0.077155484,212.9738544,200.5549343,0,80.85142039,22.85595327,0,0
715.0799995,2793,0,-225.388401,0,-118.907397,64.12679501,96.1434373,0.388428487,61.62371629,0.077190281,249.1712783,-221.049728,0,-96.25666026,11.36476621,0,0
715.0879995,2793,0,54.36722095,0,31.88462072,-56.37436825,-38.70872579,0.388316368,-67.02340344,0.077222998,208.5461744,36.37585244,0,29.99446754,10.30310635,0,0
715.0959995,2793,0,-90.97279472,0,-77.91974819,59.26952489,109.6837012,0.388194882,78.69090665,0.07725364,228.0369885,57.88799731,0,3.771111649,22.32165206,0,0
715.1039995,2793,0,-119.6051072,0,-41.04234316,-1.899925981,4.191829107,0.388064068,-20.33298494,0.077282216,235.6064222,-234.7256903,0,-76.35581288,-4.988604587,0,0
715.1119995,2793,0,68.52019142,0,7.332407083,-38.04227319,16.52537233,0.387923965,-16.94158579,0.077308732,201.0335732,217.1581243,0,87.35630514,25.91743264,0,0
715.1199995,2793,0,-213.848777,0,-106.3338745,66.52228817,89.98080935,0.387774613,61.57635966,0.077333197,228.6737672,-202.7364201,0,-87.6473252,11.03239421,0,0
715.1279995,2793,0,45.7127773,0,10.68320542,-64.68019552,-38.51542646,0.38761605,-70.20401937,0.077355616,191.156246,36.01022081,0,33.36367449,2.737604376,0,0
715.1359995,2793,0,-100.8481469,0,-103.5136879,49.91454634,106.1221038,0.387448315,68.82675766,0.077375998,216.9451354,48.00639197,0,0.936719393,14.25707798,0,0
715.1439995,2793,0,-127.3513811,0,-64.23372498,-7.041751691,-5.891773477,0.387271449,-31.23770244,0.077394349,221.3860817,-233.2518784,0,-75.36670047,-8.154364124,0,0
715.1519995,2793,0,45.93808053,0,-32.10124862,-42.38137836,13.38313949,0.387085491,-20.62666462,0.077410678,185.5076552,211.8157726,0,87.93530638,18.55663539,0,0
715.1599995,2793,0,-222.8693774,0,-128.1590525,55.17560732,77.842734,0.38689048,47.711209,0.077424991,214.6854779,-210.006301,0,-85.02285647,3.471762031,0,0
715.1679995,2793,0,62.64993088,0,19.58251081,-79.38802154,-61.73153393,0.386686455,-95.60156766,0.077437295,159.52776,43.77206184,0,46.68006181,2.548955137,0,0
715.1759995,2793,0,-98.1223661,0,-112.80227,51.35986095,102.4288927,0.386473457,60.56221265,0.077447599,169.9367965,48.12479424,0,12.39775144,9.452058736,0,0
715.1839995,2793,0,-135.7792015,0,-84.67415106,0.041710731,-1.642427269,0.386251526,-32.30656089,0.077455909,183.3409041,-245.8516176,0,-73.57869578,-21.86691671,0,0
715.1919995,2793,0,45.99941853,0,-35.64902105,-44.53218651,13.92522374,0.386020701,-27.78006157,0.077462233,149.232166,202.8693384,0,84.51539255,6.812936891,0,0
715.1999995,2793,0,-236.8971109,0,-141.0496636,56.91915408,91.41485057,0.385781022,48.97237135,0.077466579,175.8774862,-218.5546182,0,-93.11567052,-7.135031755,0,0
715.2079995,2793,0,22.21545187,0,-22.37814276,-57.85940798,-22.29419035,0.385532529,-70.22705334,0.077468953,140.1417115,29.29217547,0,38.82264748,-10.4693096,0,0
715.2159995,2793,0,-138.2783622,0,-160.132817,79.42783156,151.2979754,0.385275263,95.27521927,0.077469364,174.9478138,31.67110458,0,9.477302232,-1.599651892,0,0
715.2239995,2793,0,-151.4636759,0,-98.12852862,-4.116205089,13.65862722,0.385009263,-38.08889177,0.077467819,187.7909604,-247.5678408,0,-66.7678588,-23.66394805,0,0
715.2319995,2793,0,40.28704658,0,-32.58845008,-61.11191708,13.76176058,0.38473457,-53.68176478,0.077464325,139.698728,215.4013061,0,102.1422846,11.91406861,0,0
715.2399995,2793,0,-234.5140066,0,-145.8747735,49.52440795,97.80634482,0.384451223,35.45186671,0.07745889,170.275242,-209.2039696,0,-78.85055779,-2.316033641,0,0
715.2479995,2793,0,42.9736822,0,-18.69844956,-79.23567352,-32.29217307,0.384159264,-98.50033284,0.077451522,132.9818403,35.78742484,0,41.08997132,-1.85258957,0,0
715.2559995,2793,0,-117.0511572,0,-152.3721966,56.05792884,137.883446,0.383858732,63.25912075,0.077442228,154.1191219,38.33457343,0,4.04146183,8.885669403,0,0
715.2639995,2794,0,-145.6848447,0,-113.4515295,4.184804423,29.06323563,0.383549669,-32.55032225,0.077431016,173.7691761,-238.6233551,0,-76.55863354,-16.57850233,0,0
715.2719995,2794,0,27.10754391,0,-86.99896237,-20.07440488,55.3864778,0.383232114,-13.35330483,0.077417893,148.8205354,219.4805374,0,88.05933485,12.72355267,0,0
715.2799995,2794,0,-255.1757074,0,-201.7889606,81.04695727,128.8396147,0.382906108,68.54756508,0.077402867,188.7927404,-217.3416687,0,-94.00568233,-6.942889916,0,0
715.2879995,2794,0,30.94507534,0,-29.09526125,-78.98763133,-32.95434417,0.382571692,-91.92692869,0.077385947,136.6446474,32.37748601,0,31.03085503,-2.920702444,0,0
715.2959995,2794,0,-113.8147028,0,-124.2332863,34.0130623,112.8303786,0.382228906,47.09538096,0.077367138,135.8897173,52.16041862,0,1.903228778,14.63453021,0,0
715.3039995,2794,0,-137.2138097,0,-77.30791997,-29.32469785,0.765923729,0.381877792,-57.51417979,0.07734645,138.1839048,-228.1605289,0,-78.63226035,-11.269429,0,0
715.3119995,2794,0,27.85594465,0,-49.58285312,-52.10808028,30.55863369,0.38151839,-37.60817111,0.07732389,104.9048137,208.5598179,0,78.5084152,8.699573252,0,0
715.3199995,2794,0,-268.2744964,0,-185.1466748,69.62010104,118.5173409,0.381150741,61.19845659,0.077299465,154.4493122,-235.1788058,0,-103.2152781,-20.32563096,0,0
715.3279995,2794,0,2.908154005,0,-57.44144454,-69.15334316,-21.21464733,0.380774885,-73.27333773,0.077273184,128.6615039,13.52588302,0,24.86896742,-17.12916801,0,0
715.3359995,2794,0,-148.6476144,0,-176.3358416,46.12454878,122.9300315,0.380390865,68.47727286,0.077245055,139.8137537,27.28505391,0,-6.381736077,0.92818288,0,0
715.3439995,2794,0,-172.701712,0,-143.3380982,-10.5079811,12.67205175,0.37999872,-31.78209576,0.077215084,143.8166679,-253.3208275,0,-86.79251303,-27.87292034,0,0
715.3519995,2794,0,13.38313599,0,-103.5999116,-45.31982202,30.45912855,0.379598492,-24.36127724,0.07718328,117.5039337,200.1710069,0,79.60217775,7.690312253,0,0
715.3599995,2794,0,-256.6064791,0,-207.7698301,53.32760509,93.11715102,0.379190222,42.77108854,0.077149651,150.4774787,-215.851363,0,-88.36009473,0.038464336,0,0
715.3679995,2794,0,17.67952304,0,-71.49378651,-82.63710488,-44.47114369,0.378773951,-97.3229295,0.077114204,106.5438159,36.25980865,0,42.10829302,-1.528281198,0,0
715.3759995,2794,0,-131.7793888,0,-181.408289,38.69426987,106.7925663,0.37834972,50.8111011,0.077076948,121.8368054,42.92034745,0,9.331992033,10.00668091,0,0
715.3839995,2794,0,-146.1463983,0,-138.6230308,-12.34087994,2.251076141,0.377917571,-43.09127633,0.07703789,131.9668709,-234.0915852,0,-70.06455789,-16.52764328,0,0
715.3919995,2794,0,43.47729904,0,-100.0244516,-42.21412997,25.59651605,0.377477544,-28.83709813,0.076997038,107.6666815,213.1477439,0,89.46969817,15.31876452,0,0
715.3999995,2794,0,-233.8690299,0,-203.15101,55.60904353,84.69412388,0.377029682,41.28989136,0.0769544,140.9199271,-210.3178187,0,-85.88176339,5.011672281,0,0
715.4079995,2794,0,23.88675685,0,-81.44449325,-70.93305278,-47.02992877,0.376574025,-89.5211593,0.076909984,95.61009616,34.29526125,0,39.32416468,-1.530991733,0,0
715.4159995,2794,0,-146.8338044,0,-227.446611,67.36995524,128.6091816,0.376110615,78.94174267,0.076863799,111.4707652,27.23954784,0,1.709862438,1.846431597,0,0
715.4239995,2794,0,-172.3849082,0,-195.5113527,13.77626466,25.84266664,0.375639493,-16.46009892,0.076815851,131.6941902,-253.1161102,0,-77.01714537,-24.92738249,0,0
715.4319995,2794,0,15.71644493,0,-146.9472817,-31.55778868,31.51229824,0.3751607,-23.28510361,0.076766148,108.8422623,199.0976897,0,85.63487513,12.70131716,0,0
715.4399995,2794,0,-259.1965354,0,-251.5077011,62.42016481,93.89716588,0.37467428,40.13697262,0.0767147,132.4372702,-220.1999274,0,-90.45215802,4.837201309,0,0
715.4479995,2794,0,19.28649616,0,-104.7591766,-80.05582695,-51.52706123,0.374180271,-112.0488475,0.076661514,90.05196163,31.00946493,0,31.50610036,0.143732114,0,0
715.4559995,2794,0,-123.7126613,0,-197.9990862,28.48301438,91.44677561,0.373678717,24.39771067,0.076606598,96.48312169,43.65263296,0,-0.922653418,15.68130556,0,0
715.4639995,2794,0,-149.4165056,0,-145.9242801,-16.36807088,-1.636891418,0.373169659,-59.76994988,0.076549959,91.15568282,-221.6453476,0,-73.43542228,-8.248261042,0,0
715.4719995,2794,0,20.90854413,0,-105.4843706,-28.89129485,32.93721943,0.372653139,-33.44947491,0.076491606,68.23029999,218.5860797,0,84.52924877,9.923412485,0,0
715.4799995,2794,0,-246.8240888,0,-206.6004039,66.38642597,96.52262521,0.372129198,39.48790928,0.076431548,101.6593994,-208.5807362,0,-87.09121995,-5.422428106,0,0
715.4879995,2794,0,44.85337188,0,-61.36183032,-74.75105974,-37.58236622,0.371597877,-100.8854799,0.076369791,63.66340724,45.8702936,0,49.60794361,-1.105447089,0,0
715.4959995,2794,0,-114.8086651,0,-188.0045762,52.03169054,130.4776576,0.371059219,54.51718061,0.076306344,98.97491955,43.7161182,0,17.94400736,12.70129682,0,0
715.5039995,2794,0,-151.3439159,0,-164.4039105,-9.905582383,19.18206363,0.370513266,-48.83993205,0.076241216,119.4042655,-238.4583046,0,-60.3994324,-13.42686786,0,0
715.5119995,2794,0,40.79845569,0,-103.8005319,-57.29868432,13.90450016,0.369960058,-60.0852058,0.076174414,88.11106152,204.3555303,0,99.13145054,14.70685357,0,0
715.5199995,2795,0,-227.6472323,0,-193.6635752,41.54535208,76.33971741,0.369399638,14.01615367,0.076105946,111.8255754,-210.7884661,0,-69.21051441,5.861226695,0,0
715.5279995,2795,0,36.63773877,0,-67.14325206,-89.88514123,-50.88118296,0.368832048,-114.5651666,0.076035821,70.95202853,44.64304757,0,61.40102362,3.496868091,0,0
715.5359995,2795,0,-109.6578261,0,-166.1301167,12.34912627,88.02734862,0.36825733,17.20225824,0.075964046,91.41576714,41.92288431,0,21.58180128,12.15357258,0,0
715.5439995,2795,0,-134.6099737,0,-119.9369662,-49.98240438,-23.28469087,0.367675524,-85.34757773,0.07589063,90.78060125,-226.0892371,0,-52.47186232,-10.35977799,0,0
715.5519995,2795,0,26.88739186,0,-101.7524409,-64.97711392,15.97919646,0.367086674,-59.23691673,0.075815581,56.6772609,213.0043832,0,108.7510828,9.699501701,0,0
715.5599995,2795,0,-257.6475538,0,-219.7604393,41.96889113,92.13991852,0.366490821,18.81207184,0.075738907,98.14650604,-222.3779091,0,-68.66212299,-14.33964471,0,0
715.5679995,2795,0,7.466607186,0,-89.4011882,-89.76753622,-48.05225651,0.365888007,-127.2449251,0.075660616,67.41851005,27.42260508,0,56.39697346,-17.93478513,0,0
715.5759995,2795,0,-139.1634251,0,-192.662718,22.54389453,96.15437212,0.365278273,8.418847968,0.075580717,76.51522637,28.6331314,0,19.91410893,-5.794140683,0,0
715.5839995,2795,0,-149.3422358,0,-141.6749342,-39.32798314,-5.219081624,0.364661662,-84.87465159,0.075499217,72.84092173,-236.2809357,0,-50.0916344,-25.66143533,0,0
715.5919995,2795,0,20.75425851,0,-118.8399414,-56.32044704,33.5475772,0.364038216,-62.17156362,0.075416125,50.64008474,200.6915114,0,105.9500235,-0.144804779,0,0
715.5999995,2795,0,-267.6797911,0,-239.0870495,48.58355741,109.7607532,0.363407977,11.72921945,0.075331449,92.52740427,-236.5209902,0,-77.71710352,-20.66508306,0,0
715.6079995,2795,0,9.916991454,0,-92.06698383,-95.27250897,-32.53498418,0.362770986,-134.6483394,0.075245197,59.60502924,23.88855562,0,56.25906892,-13.93060515,0,0
715.6159995,2795,0,-134.6798017,0,-195.4888966,20.40687422,112.9991994,0.362127286,5.52702924,0.075157377,73.49318724,34.33835997,0,27.66864896,8.586738933,0,0
715.6239995,2795,0,-164.2147401,0,-168.5407686,-23.22550183,17.67014795,0.361476918,-77.50847038,0.075067998,76.77609928,-234.0477082,0,-49.73240515,-17.48652658,0,0
715.6319995,2795,0,10.7220187,0,-142.1385055,-42.438794,48.59840993,0.360819925,-53.59586477,0.074977068,62.44745035,216.6924654,0,109.1382185,9.293529238,0,0
715.6399995,2795,0,-246.4217465,0,-229.3918597,48.85959346,105.183353,0.360156348,10.38403683,0.074884596,104.1400772,-200.0836603,0,-61.72672749,1.408215453,0,0
715.6479995,2795,0,35.11282662,0,-84.44018537,-76.54100217,-22.98907179,0.35948623,-111.6194051,0.074790588,65.00043699,52.13187546,0,70.03100475,2.755714762,0,0
715.6559995,2795,0,-128.6050962,0,-222.6657264,60.70591447,148.3788969,0.358809612,61.90923054,0.074695054,93.90966087,45.45237568,0,30.60835338,11.18602746,0,0
715.6639995,2795,0,-151.1802142,0,-187.942851,-8.013815605,30.36354647,0.358126536,-44.96882427,0.074598002,110.7910257,-228.9299624,0,-47.32315702,-13.79431169,0,0
715.6719995,2795,0,31.47934582,0,-142.0434717,-45.13248027,41.96625428,0.357437045,-42.37147468,0.07449944,76.80611558,219.353732,0,116.6215042,20.02450432,0,0
715.6799995,2795,0,-241.4017867,0,-248.318164,52.52395041,108.4233939,0.356741181,32.3607983,0.074399377,102.886799,-202.9357928,0,-56.62174436,7.878750736,0,0
715.6879995,2795,0,28.00071515,0,-115.1338862,-87.15603251,-26.18303921,0.356038985,-101.7356232,0.07429782,57.03044086,43.1593697,0,71.97286168,4.889284852,0,0
715.6959995,2795,0,-127.8589588,0,-228.1818705,36.3780886,128.037089,0.355330499,49.59693071,0.074194778,67.7443163,39.82003063,0,37.71895726,20.54983015,0,0
715.7039995,2795,0,-151.8019334,0,-188.6407139,-14.73628336,17.30547293,0.354615766,-48.44881788,0.07409026,65.84773924,-228.6526443,0,-35.65645976,-4.350572418,0,0
715.7119995,2795,0,8.789307394,0,-178.6470535,-21.66719876,55.53393333,0.353894828,-16.23991803,0.073984273,34.04623607,205.1096384,0,122.6746313,14.72429253,0,0
715.7199995,2795,0,-265.0129916,0,-294.7329678,80.00991069,119.6738608,0.353167725,65.05215125,0.073876826,78.69184755,-224.4441551,0,-53.59464797,-3.214401695,0,0
715.7279995,2795,0,18.17260587,0,-139.9191415,-81.27519201,-49.74362479,0.352434502,-93.40727366,0.073767928,29.70969897,42.95255988,0,81.13560706,-0.677359085,0,0
715.7359995,2795,0,-142.6904751,0,-259.1574788,46.01201077,104.2854204,0.351695198,60.11524192,0.073657586,25.34749405,46.59278925,0,45.74959444,7.621356667,0,0
715.7439995,2795,0,-168.9141891,0,-234.7875712,7.580017357,15.57531498,0.350949857,-19.67268741,0.073545808,35.19942671,-230.035851,0,-36.96784816,-27.29631051,0,0
715.7519995,2795,0,18.97726947,0,-188.3242685,-30.72512055,25.27750808,0.350198521,-20.94647028,0.073432604,18.1606543,210.7435152,0,119.9061872,1.398862026,0,0
715.7599995,2795,0,-235.5975037,0,-276.1184861,57.28691237,79.27421036,0.34944123,41.603704,0.073317982,49.795358,-206.2693893,0,-51.77278028,-4.258782066,0,0
715.7679995,2795,0,44.7227157,0,-143.1779432,-74.82663325,-42.13702604,0.348678028,-79.59818129,0.073201949,3.658856671,57.72350641,0,81.98573761,-5.052389248,0,0
715.7759995,2796,0,-109.0144663,0,-263.3877484,51.03078933,118.0990629,0.347908956,77.72032668,0.073084514,31.70716739,49.89578084,0,46.47823239,0.400686437,0,0
715.7839995,2796,0,-131.0689518,0,-222.028883,-9.108496001,4.760438026,0.347134056,-23.7273257,0.072965686,43.65095091,-224.0193219,0,-31.0719871,-24.90004361,0,0
715.7919995,2796,0,47.02347953,0,-184.425268,-43.66237092,24.73729317,0.34635337,-15.83997877,0.072845473,9.101564688,217.7985037,0,127.362757,3.978532221,0,0
715.7999995,2796,0,-219.6840675,0,-291.1543466,63.47509726,92.20243355,0.34556694,59.79109614,0.072723883,48.06774606,-210.5421908,0,-45.50571068,-10.36422673,0,0
715.8079995,2796,0,55.50923407,0,-159.4974786,-64.37595007,-42.77237484,0.344774808,-71.68396782,0.072600925,8.230414204,54.82675104,0,86.48648652,-3.666416765,0,0
715.8159995,2796,0,-90.81350064,0,-262.3484364,43.52376488,96.81135829,0.343977015,64.33030534,0.072476606,24.12185005,56.78341916,0,47.7748211,11.06723201,0,0
715.8239995,2796,0,-113.0373791,0,-207.6984249,-22.93655343,-18.76695279,0.343173604,-41.2543365,0.072350936,17.78262337,-217.4987423,0,-28.45292049,-14.06607179,0,0
715.8319995,2796,0,51.37063739,0,-172.2629815,-44.72431173,13.97516026,0.342364616,-20.72865681,0.072223922,-30.208958,219.7884995,0,130.2387843,15.1124967,0,0
715.8399995,2796,0,-231.6752576,0,-296.024476,78.76149903,102.7589903,0.341550093,71.9674557,0.072095573,17.21355692,-222.8088717,0,-52.33449192,-11.82789412,0,0
715.8479995,2796,0,23.35604476,0,-180.5482948,-38.36324692,-13.77832179,0.340730077,-45.87506068,0.071965898,-2.08071455,19.93979995,0,71.5392299,-21.0356936,0,0
715.8559995,2796,0,-126.8698056,0,-282.3966209,57.34873071,117.5623932,0.339904609,78.39609071,0.071834904,21.921961,20.52172832,0,33.12641392,-5.128638837,0,0
715.8639995,2796,0,-137.707396,0,-230.5869759,-20.4455474,-10.33194132,0.339073732,-44.98792972,0.071702601,21.8129475,-242.2670334,0,-44.82541551,-31.29945047,0,0
715.8719995,2796,0,34.86285812,0,-190.2000267,-46.19032519,16.64455592,0.338237487,-31.22495619,0.071568995,-17.5430175,201.2170656,0,115.841762,-3.731740235,0,0
715.8799995,2796,0,-235.6304448,0,-289.5935514,59.63770977,86.94434368,0.337395915,43.67522853,0.071434097,19.71245038,-225.0372694,0,-53.82671422,-15.89070901,0,0
715.8879995,2796,0,28.90224385,0,-164.7965757,-71.31197763,-47.85893869,0.336549059,-98.16198206,0.071297914,-17.21986905,29.04737563,0,75.18758291,-16.96549845,0,0
715.8959995,2796,0,-114.5326349,0,-257.3284667,24.53892283,80.71566138,0.33569696,21.78594363,0.071160454,0.917206481,28.17532985,0,36.51537358,-1.46050469,0,0
715.9039995,2796,0,-120.8354161,0,-205.9857289,-32.85852521,-26.24423088,0.334839659,-74.27282394,0.071021726,1.71380965,-233.6080611,0,-35.7663282,-22.9256298,0,0
715.9119995,2796,0,37.04140029,0,-207.1045259,-34.20251136,28.14992823,0.333977199,-30.91748136,0.070881738,-28.24544506,195.8055392,0,115.7131132,-2.127103724,0,0
715.9199995,2796,0,-242.9456789,0,-323.219407,60.81332499,91.32533748,0.33310962,38.87077532,0.070740499,25.47110596,-244.7800045,0,-70.50711155,-23.25712038,0,0
715.9279995,2796,0,30.33928242,0,-183.8504692,-81.51459677,-55.8081119,0.332236965,-106.9479064,0.070598017,-8.284427656,17.25150776,0,61.71146868,-19.01174296,0,0
715.9359995,2796,0,-121.6232642,0,-294.2435785,32.56579918,91.80503234,0.331359274,32.38125734,0.0704543,3.034826736,16.48840154,0,26.58399806,-3.624925115,0,0
715.9439995,2796,0,-138.6255287,0,-247.5279648,-24.70130279,-14.79475579,0.33047659,-69.21596,0.070309356,8.85840737,-244.2458465,0,-49.63978587,-26.11557361,0,0
715.9519995,2796,0,31.44441794,0,-222.7634648,-38.99808816,24.71069357,0.329588953,-40.89752263,0.070163195,-17.09127112,208.9460272,0,108.9142485,5.073428984,0,0
715.9599995,2796,0,-239.4243075,0,-338.6803295,60.98707813,95.73428555,0.328696405,34.19336211,0.070015824,31.0886368,-218.5645181,0,-71.33597609,-14.27778117,0,0
715.9679995,2796,0,34.04423033,0,-206.3283516,-77.62483189,-47.91688411,0.327798988,-107.2513877,0.069867252,-4.619999986,41.64920512,0,59.82109162,-13.00298369,0,0
715.9759995,2796,0,-114.5450471,0,-314.8087885,39.17608479,97.4136661,0.326896742,38.50529894,0.069717487,3.757890539,40.25272827,0,25.7943916,2.113016715,0,0
715.9839995,2796,0,-114.1390169,0,-264.2582243,-23.2754996,-13.46417272,0.325989709,-68.55148838,0.069566538,6.164096088,-230.7965536,0,-48.87302805,-22.70545376,0,0
715.9919995,2796,0,69.85431318,0,-231.0107748,-48.60432011,14.11488257,0.325077931,-52.10978851,0.069414412,-25.56541985,207.6438869,0,108.9638745,10.82068141,0,0
715.9999995,2796,0,-209.4913599,0,-344.5936048,54.97883046,85.63105887,0.324161448,30.82346571,0.069261119,11.25008215,-229.9362669,0,-75.41415535,-10.00658262,0,0
716.0079995,2796,0,67.83898546,0,-195.270288,-94.15282875,-61.92462663,0.323240301,-122.3425042,0.069106666,-28.2242707,28.40595439,0,55.35031382,-12.02210669,0,0
716.0159995,2796,0,-78.95218904,0,-290.9171573,15.60494739,82.41846239,0.322314532,14.25460953,0.068951062,-26.85256269,39.93404351,0,23.72105265,7.142684674,0,0
716.0239995,2796,0,-118.8248415,0,-282.4083717,-8.047020362,9.197491784,0.321384182,-49.81511248,0.068794315,-17.9732092,-238.4905098,0,-63.0354623,-31.69428225,0,0
716.0319995,2797,0,44.78881494,0,-273.3282022,-15.97414619,47.62569572,0.320449292,-23.69484388,0.068636433,-17.87605421,177.3096611,0,86.17241595,-13.20793357,0,0
716.0399995,2797,0,-201.6394099,0,-342.95989,57.71567795,90.94004763,0.319509902,26.42347328,0.068477426,16.01748417,-235.6238204,0,-79.83818759,-10.43729278,0,0
716.0479995,2797,0,87.98429078,0,-182.1598439,-79.44421454,-33.51720759,0.318566055,-101.7354324,0.0683173,-36.31394083,40.92737391,0,60.26310645,3.803353438,0,0
716.0559995,2797,0,-72.92367461,0,-307.210923,56.73734121,135.672434,0.31761779,60.28769192,0.068156065,-8.293289221,26.76349658,0,22.37496527,16.60290714,0,0
716.0639995,2797,0,-101.0195623,0,-276.8180146,2.224700134,27.81254798,0.316665148,-35.82822792,0.067993729,-1.199443365,-245.6490435,0,-52.87041744,-10.88130106,0,0
716.0719995,2797,0,76.38287579,0,-232.3494965,-27.44973415,48.28601687,0.315708171,-22.43419515,0.067830301,-32.27929779,192.7917349,0,107.2034795,15.90721897,0,0
716.0799995,2797,0,-184.5412448,0,-317.3325054,57.10314534,94.29408361,0.3147469,31.79005913,0.067665787,1.471457751,-229.0115129,0,-67.03646687,3.973051764,0,0
716.0879995,2797,0,83.88761413,0,-176.919337,-83.72414918,-49.22420445,0.313781374,-111.0052607,0.067500198,-51.37271874,35.46929929,0,63.62263514,2.997280844,0,0
716.0959995,2797,0,-80.30613294,0,-295.9153435,45.79921823,112.3996687,0.312811634,48.35547028,0.06733354,-33.68406545,24.64790248,0,23.63194657,11.61109507,0,0
716.1039995,2797,0,-97.96589709,0,-252.140108,-13.71541291,1.632462159,0.311837722,-51.20938601,0.067165823,-20.8929086,-241.8325926,0,-50.63469048,-15.43964437,0,0
716.1119995,2797,0,77.34907482,0,-208.2492822,-49.12816291,13.51259737,0.310859678,-45.78416007,0.066997055,-53.88489465,196.348631,0,109.5178862,8.784080412,0,0
716.1199995,2797,0,-200.869286,0,-326.2623331,62.84428311,93.41325179,0.309877541,40.09741201,0.066827243,-19.6978722,-231.2305528,0,-67.63784088,-8.030741195,0,0
716.1279995,2797,0,63.11283483,0,-212.6641888,-55.95177563,-15.12724824,0.308891354,-78.2532788,0.066656397,-41.64262533,26.5202431,0,58.72872146,-8.402164866,0,0
716.1359995,2797,0,-79.39404203,0,-309.5979549,40.57774658,121.2431807,0.307901156,41.38292584,0.066484524,-2.15701524,20.05186737,0,22.22697308,11.81895934,0,0
716.1439995,2797,0,-80.21454675,0,-244.0870315,-39.3247384,-6.107882889,0.306906987,-88.67718137,0.066311634,-0.39518936,-224.7206042,0,-44.1615792,-0.004052076,0,0
716.1519995,2797,0,79.73176123,0,-224.0436469,-42.67912702,38.954545,0.305908888,-50.52945368,0.066137733,-38.27114093,223.359811,0,111.6366276,24.78252112,0,0
716.1599995,2797,0,-201.6786236,0,-357.4019719,80.88499032,121.9938692,0.3049069,51.33078493,0.065962831,8.836342727,-216.2885454,0,-69.55548905,1.55534899,0,0
716.1679995,2797,0,94.93262381,0,-206.2984951,-75.66369355,-36.6721026,0.303901061,-105.9963263,0.065786935,-26.66917148,47.77420611,0,66.92849642,7.619182653,0,0
716.1759995,2797,0,-44.9788509,0,-282.3894339,18.26142046,86.9865727,0.302891413,13.19786322,0.065610054,-27.4321138,50.69764036,0,32.60642254,25.30605861,0,0
716.1839995,2797,0,-76.66458831,0,-243.7161184,-24.8514069,-8.7325553,0.301877996,-75.86490792,0.065432196,-37.8225105,-218.4505997,0,-45.32027269,-6.21108367,0,0
716.1919995,2797,0,77.24179463,0,-228.5993913,-28.9813725,39.02776749,0.300860849,-40.02327818,0.065253369,-66.71149403,209.7186334,0,105.1704547,11.80860303,0,0
716.1999995,2797,0,-201.5393757,0,-339.3918462,75.59312328,105.8440872,0.299840012,39.40452166,0.065073582,-19.5527194,-222.5099618,0,-75.01749599,-9.346728416,0,0
716.2079995,2797,0,73.13903381,0,-201.5722436,-73.51497244,-42.22912723,0.298815526,-109.4063475,0.064892843,-55.22700672,43.03323755,0,57.538403,-10.69190073,0,0
716.2159995,2797,0,-86.26632842,0,-317.8770935,40.92438854,109.6544371,0.297787431,30.49485347,0.06471116,-45.92353412,35.29999449,0,16.82306476,0.394650656,0,0
716.2239995,2797,0,-112.1649068,0,-280.5142079,-3.438738883,17.61993999,0.296755765,-59.79700053,0.064528541,-35.15485912,-233.5929703,0,-62.23344197,-26.01595437,0,0
716.2319995,2797,0,61.82215799,0,-225.5371783,-42.2601301,36.15446954,0.295720569,-54.45531661,0.064344994,-56.90510006,200.249596,0,92.67311338,3.198744833,0,0
716.2399995,2797,0,-197.190904,0,-306.3202811,40.54486046,87.03051233,0.294681883,2.851804888,0.064160528,-29.8348427,-222.2338234,0,-79.52452404,-6.337360947,0,0
716.2479995,2797,0,68.39238224,0,-184.8096159,-78.9410938,-30.0113928,0.293639745,-117.4686941,0.063975151,-67.85196851,46.0928659,0,55.52185446,-4.857302968,0,0
716.2559995,2797,0,-100.3233431,0,-318.3395389,49.98614147,134.9188144,0.292594196,40.77034674,0.06378887,-39.5846943,24.18648541,0,11.40088114,-1.069798147,0,0
716.2639995,2797,0,-100.6178393,0,-267.7806629,-19.48077906,14.46093048,0.291545276,-73.25062728,0.063601695,-36.82578105,-240.6335237,0,-60.51110681,-26.68075566,0,0
716.2719995,2797,0,78.56503951,0,-236.5542804,-43.642122,41.97371615,0.290493022,-55.09321076,0.063413633,-67.96679922,200.7836305,0,100.0875163,2.484566892,0,0
716.2799995,2797,0,-197.499395,0,-354.4759986,65.15823878,113.6626706,0.289437476,28.37188016,0.063224692,-29.47455685,-229.0150989,0,-78.72661947,-15.14010163,0,0
716.2879995,2798,0,77.00549618,0,-217.0177142,-72.6880135,-23.32094419,0.288378675,-111.8884082,0.063034881,-73.99204024,50.73345576,0,57.57733496,-10.39075713,0,0
716.2959995,2798,0,-77.16664684,0,-326.0365795,45.28133641,123.8252107,0.287316659,28.05088057,0.062844208,-60.47718306,48.21231634,0,21.79390423,1.323991136,0,0
716.3039995,2798,0,-90.5584268,0,-283.075702,-11.18715972,10.21226444,0.286251468,-68.95153462,0.06265268,-58.74463944,-220.2260473,0,-51.18088927,-26.48747377,0,0
716.3119995,2798,0,78.44563844,0,-251.454288,-41.78046734,39.42842816,0.28518314,-43.94867704,0.062460306,-91.26737374,213.4081081,0,106.8972597,0.973710631,0,0
716.3199995,2798,0,-181.1095828,0,-348.6245535,54.80054014,106.2215034,0.284111715,32.02458929,0.062267094,-50.59343749,-217.3653771,0,-68.56631896,-10.60785055,0,0
716.3279995,2798,0,95.95807407,0,-220.2020257,-67.63515527,-20.82090067,0.283037231,-90.40020506,0.062073052,-86.7531536,51.68907014,0,66.37806684,-0.723920606,0,0
716.3359995,2798,0,-58.93538534,0,-331.6345589,47.13167963,122.6661716,0.281959727,50.48415387,0.061878188,-67.92137642,42.56929256,0,26.55263786,13.368328,0,0
716.3439995,2798,0,-42.83167007,0,-244.1788801,-26.35259567,-3.351218537,0.280879241,-63.99938094,0.061682511,-61.62833783,-212.1539348,0,-41.58293713,-7.684226724,0,0
716.3519995,2798,0,139.4731117,0,-189.4720023,-35.55636024,34.87780295,0.279795814,-27.4952796,0.061486028,-90.86031892,236.7266344,0,126.7416605,29.11189155,0,0
716.3599995,2798,0,-138.1580756,0,-299.0119253,70.58762439,96.8702546,0.278709482,48.00596005,0.061288747,-47.94921443,-198.7033473,0,-49.25769275,11.11190949,0,0
716.3679995,2798,0,131.8356169,0,-168.207684,-67.4303015,-44.31107315,0.277620286,-90.22099516,0.061090676,-89.00997046,64.22562748,0,79.81073285,7.200968828,0,0
716.3759995,2798,0,-24.73726721,0,-269.9323359,46.32551092,100.3060836,0.276528262,52.74560471,0.060891824,-81.20247169,55.16147434,0,41.30878352,20.32679719,0,0
716.3839995,2798,0,-33.16889285,0,-206.3506043,-20.74737917,-21.1947193,0.27543345,-59.94594574,0.060692198,-80.53058992,-208.6810472,0,-31.36565994,-3.501433196,0,0
716.3919995,2798,0,119.5043145,0,-197.0861172,-15.10046625,39.04889759,0.274335888,-14.06586327,0.060491807,-113.3792994,229.0274345,0,121.4631878,20.80390925,0,0
716.3999995,2798,0,-156.690665,0,-310.4065405,91.85750098,113.0855888,0.273235614,67.11608615,0.060290658,-68.9741159,-209.579536,0,-63.89024911,-0.62214171,0,0
716.4079995,2798,0,125.7511562,0,-156.8763161,-57.22616118,-37.35461079,0.272132667,-82.06420991,0.060088759,-109.2850128,66.99977345,0,66.95787939,5.183962066,0,0
716.4159995,2798,0,-41.54644396,0,-279.1851824,80.96721536,132.824494,0.271027084,77.64344292,0.059886119,-97.41574,72.32385347,0,28.17799181,20.86232696,0,0
716.4239995,2798,0,-51.47147548,0,-232.0621688,22.29424752,23.42478853,0.269918903,-28.16668232,0.059682745,-78.8372706,-194.3952526,0,-45.13016415,-1.285532603,0,0
716.4319995,2798,0,119.9324452,0,-196.00158,-4.748850616,50.98594677,0.268808162,-14.96739929,0.059478645,-108.3516079,241.2822026,0,112.3051042,33.45255729,0,0
716.4399995,2798,0,-138.7201058,0,-283.4611881,86.41407709,109.9728105,0.2676949,46.64900144,0.059273827,-76.82757276,-183.9674802,0,-62.26905223,20.19039925,0,0
716.4479995,2798,0,151.0625493,0,-135.7656257,-55.13383635,-27.62419341,0.266579154,-93.70172865,0.0590683,-118.046047,85.60628876,0,74.77885039,19.71411423,0,0
716.4559995,2798,0,-24.38498973,0,-282.7282937,88.89769738,152.8762187,0.265460961,78.97709988,0.05886207,-96.00605768,58.85574392,0,28.11100704,18.74793686,0,0
716.4639995,2798,0,-26.70671613,0,-216.3090119,3.833095403,19.0247282,0.264340359,-45.2231162,0.058655147,-74.60897752,-200.9664147,0,-45.62912409,-3.378404667,0,0
716.4719995,2798,0,146.9680154,0,-172.2523518,-31.46787625,44.51584768,0.263217387,-29.03907942,0.058447537,-108.4495917,247.0311379,0,111.9228339,29.26995924,0,0
716.4799995,2798,0,-131.9237257,0,-287.014977,77.38680993,120.8298941,0.26209208,52.0132814,0.058239249,-69.37603013,-195.2002317,0,-73.0168438,4.867281771,0,0
716.4879995,2798,0,165.794961,0,-99.61309973,-98.05556489,-59.22443525,0.260964476,-131.8057337,0.05803029,-109.818965,91.34119803,0,68.62250006,21.3676237,0,0
716.4959995,2798,0,-4.606289186,0,-217.1539713,35.62945634,113.5753402,0.259834614,28.97224149,0.057820669,-108.1533495,83.8621642,0,30.37746447,32.99834137,0,0
716.5039995,2798,0,-22.90016833,0,-177.1113416,-12.10228213,15.84807252,0.258702529,-63.51382023,0.057610392,-91.31287167,-198.1056993,0,-50.12605345,-6.355901935,0,0
716.5119995,2798,0,157.7141346,0,-112.5950135,-51.30073674,22.9844276,0.257568259,-65.65303699,0.057399469,-120.1682158,253.2459411,0,112.4777575,29.05049784,0,0
716.5199995,2798,0,-133.8284942,0,-242.2420233,88.12924009,126.1026147,0.256431842,45.28374107,0.057187907,-81.03442728,-181.6088519,0,-67.69250469,7.145901493,0,0
716.5279995,2798,0,130.7555991,0,-127.8657691,-22.4740022,7.562630806,0.255293313,-72.18087208,0.056975713,-95.90586617,66.01147873,0,53.66108331,-1.626781494,0,0
716.5359995,2798,0,-29.888533,0,-243.7004925,89.27583138,148.347593,0.25415271,62.94871227,0.056762896,-64.12794302,50.83978285,0,10.87940672,12.40604615,0,0
716.5439995,2799,0,-42.86640522,0,-202.655916,15.85541809,32.46729576,0.253010069,-42.86142907,0.056549462,-47.99999867,-206.2696487,0,-56.35150324,-9.488685493,0,0
716.5519995,2799,0,132.3532219,0,-164.4413785,-20.46783779,48.22193378,0.251865427,-31.52625469,0.056335421,-83.8805545,244.3380248,0,106.7057904,26.10799545,0,0
716.5599995,2799,0,-139.3690018,0,-267.3982954,78.88178219,106.702052,0.250718821,36.96499889,0.056120779,-59.80304683,-182.3368829,0,-67.08009314,11.16549112,0,0
716.5679995,2799,0,128.4814769,0,-138.9901342,-54.55457895,-21.91235155,0.249570287,-94.12187446,0.055905545,-98.33944558,83.73501893,0,67.03058593,8.079220934,0,0
716.5759995,2799,0,-31.58986759,0,-256.1668506,66.82671597,137.4422307,0.248419862,55.19275777,0.055689725,-68.7611706,64.59080666,0,24.71802109,16.38322525,0,0
716.5839995,2799,0,-26.59589802,0,-187.5808,-7.760268645,11.90839494,0.247267581,-66.96301555,0.055473328,-55.72451731,-194.6931354,0,-39.72499489,-1.050822618,0,0
716.5919995,2799,0,152.5850562,0,-135.6190095,-42.80553635,26.42368158,0.246113481,-67.18316766,0.055256362,-98.84397198,258.0812529,0,125.700779,41.77184882,0,0
716.5999995,2799,0,-122.9902015,0,-244.0331759,70.47905408,101.3056497,0.244957599,13.40425089,0.055038834,-69.22722498,-175.3994427,0,-57.63245189,21.88017632,0,0
716.6079995,2799,0,154.7592551,0,-104.4646159,-59.45815991,-29.776312,0.243799969,-111.2372701,0.054820751,-103.2822301,99.75634628,0,74.64434788,20.63707686,0,0
716.6159995,2799,0,5.273434839,0,-202.6569524,49.54818047,112.0908358,0.242640628,28.07537715,0.054602122,-82.88753035,103.5951993,0,39.05301929,38.27106974,0,0
716.6239995,2799,0,-1.007251244,0,-150.0550936,-7.517704683,4.399904613,0.241479612,-75.91846401,0.054382954,-82.82705192,-161.8079037,0,-35.40414073,10.58367403,0,0
716.6319995,2799,0,157.5099279,0,-142.1944264,-3.634985083,56.28758047,0.240316957,-30.78832609,0.054163254,-109.0588119,261.3831097,0,112.7220309,31.21654007,0,0
716.6399995,2799,0,-125.8472791,0,-263.3721616,104.8071989,132.4739739,0.239152697,52.50242645,0.05394303,-52.82523014,-179.3659452,0,-67.15690655,8.897809864,0,0
716.6479995,2799,0,150.9075107,0,-118.1405272,-46.48819571,-11.79125695,0.237986869,-98.65492016,0.05372229,-88.77274725,91.6607858,0,71.33441571,12.90776621,0,0
716.6559995,2799,0,-5.168434123,0,-234.0673375,66.89419778,133.8448002,0.236819508,42.2025894,0.053501041,-76.71399098,77.97792963,0,31.25135227,27.12263838,0,0
716.6639995,2799,0,-16.6113486,0,-185.4302212,5.124001183,18.56419625,0.23565065,-63.96597159,0.053279291,-74.27054935,-183.9501726,0,-36.02673019,3.791072725,0,0
716.6719995,2799,0,141.2251458,0,-165.1300559,-5.028795667,59.36094918,0.234480329,-34.59351613,0.053057047,-110.6491558,251.774377,0,125.0704644,31.87636712,0,0
716.6799995,2799,0,-139.0756811,0,-289.9860789,101.9328215,137.71879,0.233308581,51.34360758,0.052834317,-70.03839652,-195.6887234,0,-58.527869,7.331536703,0,0
716.6879995,2799,0,161.774822,0,-111.7164332,-75.4363962,-39.85199964,0.232135441,-126.0693539,0.052611108,-109.3993277,80.53476711,0,75.65940286,18.81960749,0,0
716.6959995,2799,0,18.36392294,0,-189.5200133,24.65684942,89.72637887,0.230960943,-5.60270206,0.052387428,-114.4950621,85.06386412,0,38.61890581,42.06369925,0,0
716.7039995,2799,0,-14.24178766,0,-167.2462397,0.363243427,15.10427293,0.229785123,-73.20370832,0.052163284,-115.0344747,-189.833781,0,-41.265505,4.264316242,0,0
716.7119995,2799,0,152.9572643,0,-129.1926378,-28.56069324,34.83528175,0.228608015,-60.95103556,0.051938684,-127.2924562,245.6306524,0,110.803468,32.62659872,0,0
716.7199995,2799,0,-106.7943154,0,-208.5880594,56.64518474,90.13487697,0.227429654,-0.347385812,0.051713635,-93.10959853,-174.9681853,0,-65.11966217,19.55586561,0,0
716.7279995,2799,0,167.0996893,0,-74.58900039,-47.4548389,-14.53720978,0.226250075,-101.54438,0.051488144,-129.1570387,85.41540187,0,67.57074601,12.19795167,0,0
716.7359995,2799,0,9.674463397,0,-189.666519,78.89791954,136.1374486,0.225069312,48.17664458,0.051262219,-86.84652803,64.7438154,0,27.58586381,27.04069851,0,0
716.7439995,2799,0,-5.490072144,0,-146.0428788,12.78881048,14.0838734,0.223887398,-65.03270846,0.051035867,-75.57349347,-196.8032427,0,-44.8080046,5.075395229,0,0
716.7519995,2799,0,156.0551652,0,-109.9423021,-10.53869696,42.66325563,0.22270437,-45.09412417,0.050809096,-111.8027354,243.2653584,0,109.5575668,34.79104392,0,0
716.7599995,2799,0,-128.9391983,0,-229.1643074,100.4488717,126.7043784,0.221520259,43.20061302,0.050581912,-73.1125357,-194.712198,0,-73.59042796,14.63668791,0,0
716.7679995,2799,0,134.7186856,0,-118.2199805,-23.70434861,5.117067309,0.220335102,-79.30293638,0.050354324,-100.1770809,65.13393537,0,56.49792243,10.88260142,0,0
716.7759995,2799,0,-6.539520111,0,-198.5125526,54.16497566,115.8393242,0.219148931,24.08152006,0.050126338,-82.44066113,70.19625176,0,25.85898273,39.73941465,0,0
716.7839995,2799,0,-23.10539983,0,-140.6438815,-10.93347357,-2.217438901,0.21796178,-83.07479316,0.049897962,-103.3727742,-169.4610581,0,-40.77734578,22.17154222,0,0
716.7919995,2799,0,123.9897995,0,-126.3787004,-12.04344804,44.51714037,0.216773683,-36.11674936,0.049669203,-145.0658821,266.6159942,0,109.9492439,36.90814221,0,0
716.7999995,2800,0,-136.3676647,0,-210.3346013,65.15509665,86.8432903,0.215584674,13.8187122,0.049440068,-113.6187142,-170.3872564,0,-66.20766349,12.38322458,0,0
716.8079995,2800,0,136.8739596,0,-79.15808571,-65.20944824,-45.4552504,0.214394786,-119.0393116,0.049210565,-171.5185887,94.2002283,0,67.50405207,4.918378195,0,0
716.8159995,2800,0,-27.68649234,0,-192.1948469,52.48919228,104.9070082,0.213204053,27.32351557,0.0489807,-157.856654,73.89052403,0,22.42715504,12.52632991,0,0
716.8239995,2800,0,-41.90262613,0,-136.432717,-9.842917796,-8.115537316,0.212012507,-75.94214337,0.048750481,-154.9946297,-187.0396087,0,-47.30995589,-6.477508741,0,0
716.8319995,2800,0,102.8899078,0,-137.4880361,-3.306008975,53.53508302,0.210820183,-21.47120898,0.048519915,-176.7930717,243.1846883,0,105.4771931,17.62195599,0,0
716.8399995,2800,0,-172.6773676,0,-245.0257919,78.96701211,108.8213005,0.209627112,34.9693651,0.04828901,-120.5746423,-194.4337763,0,-74.22176695,-0.292820668,0,0
716.8479995,2800,0,105.7527069,0,-99.06937222,-77.43284714,-45.9620059,0.208433329,-122.3647306,0.048057771,-165.3791583,82.35995872,0,61.52977527,6.256513521,0,0
716.8559995,2800,0,-56.02868054,0,-216.0704425,44.89454666,106.6826917,0.207238865,28.52452019,0.047826207,-155.5904521,63.90252241,0,11.91357366,14.65257451,0,0
716.8639995,2800,0,-64.33192273,0,-156.9611753,-16.80632885,-9.076997624,0.206043754,-77.64615713,0.047594325,-153.3108877,-195.7133603,0,-55.36489175,0.025391191,0,0
716.8719995,2800,0,93.38876201,0,-137.3329932,-22.16797521,37.72198897,0.204848028,-38.3244651,0.047362131,-177.8549671,241.7968244,0,108.8156547,31.62560392,0,0
716.8799995,2800,0,-165.2587612,0,-230.8915071,61.34071227,88.78976667,0.20365172,22.80938607,0.047129632,-122.9431563,-197.7384077,0,-72.13696586,3.682628969,0,0
716.8879995,2800,0,135.6189255,0,-56.57069083,-102.8117749,-77.61178721,0.202454863,-138.5615029,0.046896837,-162.219232,80.49558768,0,67.67644191,9.130814281,0,0
716.8959995,2800,0,-36.52092342,0,-180.4636849,35.38395352,97.57745441,0.201257488,30.65237523,0.046663751,-141.3984761,60.37045971,0,23.43586961,14.940286,0,0
716.9039995,2800,0,-55.49082829,0,-137.1892448,-24.5422409,-9.437640781,0.200059627,-71.33632235,0.046430381,-122.905296,-207.2174087,0,-51.81097851,-17.2940597,0,0
716.9119995,2800,0,121.8388059,0,-89.08222701,-62.68176484,2.330654418,0.198861313,-65.30868164,0.046196735,-148.5676024,238.2067547,0,113.5235541,18.07103793,0,0
716.9199995,2800,0,-148.8988609,0,-183.2056219,39.48096796,72.51859465,0.197662578,11.29219707,0.04596282,-103.201324,-194.9944889,0,-61.30855196,1.176734109,0,0
716.9279995,2800,0,122.4811624,0,-38.00810936,-77.60291945,-53.4478187,0.196463454,-114.2450213,0.045728643,-128.5680281,70.93636881,0,75.13611601,-1.178656117,0,0
716.9359995,2800,0,-34.96861945,0,-150.0881567,59.25767827,106.37076,0.195263972,45.19727324,0.04549421,-92.85685758,57.10985508,0,37.76734879,15.04740813,0,0
716.9439995,2800,0,-35.48430961,0,-87.66419519,-19.2490346,-20.90640169,0.194064164,-76.2953816,0.045259528,-76.0684587,-196.3029033,0,-28.70366806,-1.134757314,0,0
716.9519995,2800,0,130.6511456,0,-50.9641915,-43.48431054,7.767807324,0.192864061,-59.67330859,0.045024604,-106.1853563,245.4955444,0,129.9499214,23.91983777,0,0
716.9599995,2800,0,-144.7299622,0,-163.8292961,74.42402834,96.53258713,0.191663696,36.63679345,0.044789445,-57.41578033,-190.8539945,0,-50.17650409,-0.342752606,0,0
716.9679995,2800,0,135.9238543,0,-23.29918844,-61.17385614,-45.29885835,0.190463098,-100.4020886,0.044554059,-81.86261997,74.29247164,0,83.17283468,0.395674188,0,0
716.9759995,2800,0,-23.7931907,0,-138.8356787,68.03086602,103.8637303,0.189262301,56.12005356,0.044318451,-71.83284474,64.76718898,0,40.89910417,14.79971948,0,0
716.9839995,2800,0,-25.80892519,0,-89.60643931,12.76905406,-2.357237617,0.188061333,-33.02105654,0.044082628,-72.07615702,-183.5306919,0,-27.82967334,-4.78380767,0,0
716.9919995,2800,0,156.723593,0,-53.81842463,-8.589218766,21.47407608,0.186860227,-18.85792349,0.043846598,-94.28429147,265.6121276,0,132.5926041,25.37811219,0,0
716.9999995,2800,0,-123.440831,0,-176.004247,104.3445861,95.76500989,0.185659013,60.8354168,0.043610367,-51.16345807,-163.2891602,0,-46.67068025,7.231709832,0,0
717.0079995,2800,0,153.0204377,0,-32.81888897,-44.5877659,-53.40725712,0.184457722,-87.59448226,0.043373941,-84.33511857,100.8911203,0,84.85903444,9.579918565,0,0
717.0159995,2800,0,6.535267841,0,-123.9792792,64.38738749,80.59276209,0.183256385,45.8003771,0.043137328,-77.25272818,89.96416969,0,43.87339871,22.46900298,0,0
717.0239995,2800,0,-11.29008694,0,-85.02276195,26.13880439,-10.41201389,0.182055032,-32.69309028,0.042900535,-86.6018557,-169.7083702,0,-28.70981851,-5.121821744,0,0
717.0319995,2800,0,169.9843582,0,-37.96352987,-4.094520734,5.569871031,0.180853693,-28.25346069,0.042663567,-116.4873496,267.4565446,0,128.0566359,22.79471391,0,0
717.0399995,2800,0,-85.13388304,0,-118.7519962,89.07127108,58.72597355,0.179652399,30.03078692,0.042426431,-90.7673222,-154.8563326,0,-45.17867499,8.106765513,0,0
717.0479995,2800,0,189.4647107,0,16.50435927,-18.35533083,-48.2218158,0.178451179,-75.05175513,0.042189135,-136.1812581,111.3926058,0,92.11456837,6.673266736,0,0
717.0559995,2801,0,39.45005858,0,-84.35956627,100.491168,96.3829158,0.177250065,66.42227469,0.041951684,-112.4329375,95.95207497,0,56.08321283,19.02281637,0,0
717.0639995,2801,0,23.84540179,0,-33.60632176,34.76063272,-22.8483762,0.176049085,-44.59756307,0.041714085,-118.3052428,-155.0280692,0,-11.6439731,0.009904784,0,0
717.0719995,2801,0,180.3562897,0,-24.39479231,33.89997293,25.97163473,0.17484827,-3.056647589,0.041476346,-150.0003197,269.320305,0,138.2422978,22.14315393,0,0
717.0799995,2801,0,-85.63024652,0,-135.4000004,134.9137997,88.13011935,0.173647649,69.45648177,0.041238472,-103.3503743,-170.3470748,0,-43.67429945,3.597320757,0,0
717.0879995,2801,0,198.7814224,0,14.93787871,-16.12389527,-59.67250999,0.172447251,-81.10608472,0.041000469,-152.0222092,112.6813626,0,94.71080577,21.11893799,0,0
717.0959995,2801,0,43.07957031,0,-98.96944734,106.6233655,98.66113382,0.171247107,72.03342272,0.040762345,-142.4632923,92.62052967,0,50.29829444,36.61473326,0,0
717.1039995,2801,0,39.30012922,0,-44.00138143,38.0690885,-13.80165483,0.170047246,-31.25040833,0.040524106,-138.7620586,-172.5440821,0,-24.77444914,12.77651714,0,0
717.1119995,2801,0,216.5722613,0,6.472740759,-2.232876979,5.0492613,0.168847696,-24.68512162,0.040285759,-187.4971297,276.1868703,0,135.8179012,48.3298221,0,0
717.1199995,2801,0,-56.45721219,0,-112.7801356,117.0651347,92.19258081,0.167648486,71.68330771,0.040047309,-162.0238501,-163.9995152,0,-48.60076463,20.78516612,0,0
717.1279995,2801,0,228.838191,0,18.29403719,-7.329719851,-30.99678393,0.166449647,-53.85345974,0.039808763,-186.921306,95.79734775,0,80.487161,18.82880362,0,0
717.1359995,2801,0,82.47773513,0,-79.03513308,99.28538583,109.9397047,0.165251206,72.4899667,0.039570127,-175.9475355,93.73654804,0,44.46834864,41.51286569,0,0
717.1439995,2801,0,61.52359486,0,-35.96655893,46.9033384,7.863709418,0.164053192,-18.98758233,0.039331409,-186.9659013,-165.8010659,0,-32.05141181,13.08924251,0,0
717.1519995,2801,0,232.1507729,0,6.172804703,23.11943526,29.88895195,0.162855634,1.378894892,0.039092614,-216.4968555,268.2045317,0,119.2430591,41.17914688,0,0
717.1599995,2801,0,-31.58951464,0,-80.77516768,108.6838279,80.92616805,0.16165856,59.15991805,0.038853748,-191.4767651,-155.3637071,0,-58.99815001,29.28067072,0,0
717.1679995,2801,0,239.8713637,0,58.14032395,-33.93396592,-57.97964928,0.160461999,-79.58720182,0.038614819,-240.950402,114.3113894,0,75.00378624,24.94615742,0,0
717.1759995,2801,0,78.86797503,0,-53.7082771,86.16022171,95.69523738,0.159265978,69.58793776,0.038375831,-221.7314846,99.12682,0,34.27628549,27.88687622,0,0
717.1839995,2801,0,61.61095463,0,-6.974117377,32.29870889,-2.971394351,0.158070527,-19.17026001,0.038136792,-203.7167962,-152.6295793,0,-40.0605298,0.764645826,0,0
717.1919995,2801,0,241.5361401,0,49.04408444,-7.856238671,12.79332337,0.156875672,-9.996632369,0.037897707,-215.3514106,302.5433305,0,119.5566097,37.77337509,0,0
717.1999995,2801,0,-23.26450467,0,-40.83276924,82.66478938,76.33532288,0.155681442,57.69132403,0.037658584,-176.8568771,-125.2021829,0,-58.19501349,20.45369447,0,0
717.2079995,2801,0,237.5241196,0,80.37425691,-37.51993696,-44.16565178,0.154487865,-62.54077392,0.037419427,-210.5863904,130.8300164,0,69.21699444,12.95778062,0,0
717.2159995,2801,0,88.55791232,0,-18.37023884,77.29119433,91.17588589,0.153294968,71.50367283,0.037180244,-177.54962,118.7084451,0,28.26538241,22.85024778,0,0
717.2239995,2801,0,91.29575736,0,54.76848942,6.856894888,-25.80919299,0.152102778,-41.24886739,0.036941039,-172.4192181,-128.936976,0,-35.89093584,2.261006526,0,0
717.2319995,2801,0,264.6546354,0,95.34507572,-17.8237161,8.89653323,0.150911324,-20.82867225,0.03670182,-212.1067614,311.3821557,0,126.3033284,34.47251148,0,0
717.2399995,2801,0,-8.88460372,0,-7.712476959,84.8375605,76.97963034,0.149720631,59.07889045,0.036462593,-172.0430445,-130.0191695,0,-56.42827785,11.3166785,0,0
717.2479995,2801,0,253.0991931,0,122.4603741,-42.44805899,-47.8993498,0.148530728,-60.5517431,0.036223364,-197.26848,133.4144734,0,72.39688629,14.8451386,0,0
717.2559995,2801,0,102.8147409,0,20.89457436,71.23174731,99.49224412,0.147341641,78.25472984,0.035984137,-171.9281708,123.1709334,0,26.21493664,32.94965447,0,0
717.2639995,2801,0,93.53388742,0,85.64537848,2.441936216,-12.20181083,0.146153398,-30.81419695,0.035744921,-166.0769554,-137.2856002,0,-49.90802294,6.746099539,0,0
717.2719995,2801,0,252.8447564,0,122.7421184,-25.00461226,18.95554142,0.144966024,-10.75476079,0.03550572,-190.0439036,301.6778014,0,109.1612262,38.29307854,0,0
717.2799995,2801,0,-12.74116233,0,34.44345086,74.2435284,78.43184463,0.143779547,57.63756769,0.035266541,-144.758746,-127.749648,0,-70.17496992,18.3861005,0,0
717.2879995,2801,0,266.7157316,0,195.8374076,-57.22766661,-63.48005982,0.142593993,-79.88149562,0.03502739,-177.3954101,137.8669428,0,64.34332889,15.15549827,0,0
717.2959995,2801,0,112.5947922,0,104.1518783,51.29407468,69.0166784,0.141409388,50.37546944,0.034788272,-158.8701295,126.6490332,0,25.64741156,24.13133481,0,0
717.3039995,2801,0,84.06332563,0,148.559241,-1.909240179,-36.21742779,0.140225759,-48.01092686,0.034549193,-167.929766,-129.5070356,0,-48.82886693,-8.307075652,0,0
717.3119995,2802,0,232.186877,0,171.7844153,-9.781705231,5.361303578,0.139043132,-15.87799638,0.034310159,-199.6008637,300.6694705,0,104.9604078,11.72612115,0,0
717.3199995,2802,0,-39.26698898,0,81.93892659,73.3251585,53.14347432,0.137861533,43.11372794,0.034071177,-154.0758196,-135.397268,0,-77.28708481,-14.6606123,0,0
717.3279995,2802,0,230.9937481,0,233.2810668,-75.45776047,-97.23761959,0.136680987,-104.5765115,0.033832252,-203.4068911,143.4108809,0,57.01811292,-13.09131428,0,0
717.3359995,2802,0,65.60731388,0,113.4312803,55.70571931,63.09094301,0.135501521,47.69476199,0.033593389,-193.75614,134.3786137,0,16.7308625,-0.755632243,0,0
717.3439995,2802,0,35.23845474,0,133.602489,19.73070232,-18.78124573,0.134323159,-30.07762205,0.033354596,-178.7855187,-134.8173299,0,-61.56570721,-30.62843514,0,0
717.3519995,2802,0,195.8042347,0,155.7855352,-4.104467673,14.23174319,0.133145928,-8.149559663,0.033115876,-196.6153936,307.9569767,0,95.58031377,3.551979551,0,0
717.3599995,2802,0,-69.05622562,0,54.7534571,83.31902291,73.04414766,0.131969853,54.92199354,0.032877237,-162.0755543,-119.6056464,0,-81.50393628,-13.95331396,0,0
717.3679995,2802,0,207.7246148,0,191.7540115,-49.10658907,-60.16446405,0.130794959,-78.41136794,0.032638683,-197.8433948,131.0541087,0,45.44050637,-21.22258115,0,0
717.3759995,2802,0,62.62219373,0,94.164564,61.4145268,82.22351766,0.129621272,59.73088562,0.032400221,-166.5849753,122.7384423,0,7.46980337,-3.385160262,0,0
717.3839995,2802,0,44.50193065,0,143.4899727,-0.687752821,-18.30000835,0.128448815,-42.54554493,0.032161855,-154.4410194,-128.2105217,0,-62.19835716,-20.6209591,0,0
717.3919995,2802,0,209.3232652,0,179.7560851,-31.97315071,7.170958615,0.127277615,-39.21121395,0.031923593,-173.12096,298.6088007,0,87.40594458,12.66680833,0,0
717.3999995,2802,0,-56.49470224,0,88.07322196,54.2708906,59.9197837,0.126107695,17.47813464,0.031685439,-138.9661019,-128.3170008,0,-91.86446457,4.863068127,0,0
717.4079995,2802,0,200.2681515,0,216.9667399,-71.28485356,-73.07952463,0.124939081,-105.0489563,0.031447399,-190.1870009,132.677564,0,34.01221218,-0.402848347,0,0
717.4159995,2802,0,44.17546936,0,114.9994344,43.32027597,63.06598796,0.123771797,39.12697935,0.031209479,-179.6398964,112.6365999,0,-16.75218806,-0.75467458,0,0
717.4239995,2802,0,29.10457424,0,171.2288512,-10.7958414,-39.10530639,0.122605867,-54.58011227,0.030971684,-179.4013346,-139.9456118,0,-88.38311977,-28.96508577,0,0
717.4319995,2802,0,180.4076751,0,184.2152464,-13.25969385,5.352207823,0.121441315,-16.67288775,0.030734019,-192.8946711,283.7493095,0,67.95338311,-9.792209254,0,0
717.4399995,2802,0,-88.01565404,0,74.3965367,85.49141775,67.6561648,0.120278166,55.23520042,0.03049649,-143.4055451,-149.9887316,0,-105.1764801,-28.53979062,0,0
717.4479995,2802,0,178.5546974,0,210.6302819,-48.60721136,-63.49191191,0.119116443,-80.8663315,0.030259104,-184.6273839,119.8056637,0,32.16348477,-23.68538547,0,0
717.4559995,2802,0,16.17439863,0,96.81309802,69.19217333,86.4921962,0.117956171,65.60332587,0.030021864,-166.7151064,104.8556138,0,-10.63764552,-12.46874054,0,0
717.4639995,2802,0,8.680834781,0,149.0982638,24.55646483,-2.614643323,0.116797373,-15.32923113,0.029784776,-150.9453029,-147.561507,0,-81.65180332,-33.33804126,0,0
717.4719995,2802,0,173.4434183,0,174.6341174,26.39979752,50.31722048,0.115640072,29.45727196,0.029547847,-155.3113447,283.9020167,0,80.35034945,-5.127584153,0,0
717.4799995,2802,0,-93.61203527,0,74.89586084,100.5540556,89.88338815,0.114484292,76.44002372,0.02931108,-113.0546952,-141.0413588,0,-88.89111616,-17.57731895,0,0
717.4879995,2802,0,177.8801953,0,220.0283957,-51.90079338,-59.82664159,0.113330057,-77.61185348,0.029074482,-166.1833337,132.8936871,0,42.4850859,-11.41405664,0,0
717.4959995,2802,0,19.72634655,0,110.3077185,68.41167298,90.92088482,0.11217739,72.09675001,0.028838059,-149.6676486,108.7217177,0,-2.528124538,-3.736185391,0,0
717.5039995,2802,0,10.65294086,0,168.6546208,-3.064907418,-28.62592174,0.111026313,-39.21198094,0.028601814,-144.2683826,-141.9725949,0,-69.94815878,-21.08950904,0,0
717.5119995,2802,0,166.1444032,0,190.4273178,-14.86012684,14.83391061,0.10987685,-4.766331918,0.028365754,-173.5414617,306.182255,0,83.41487678,9.349958026,0,0
717.5199995,2802,0,-104.8495693,0,92.85917795,70.88474217,71.64779329,0.108729023,63.13362778,0.028129883,-131.4580951,-130.8266346,0,-101.0307903,-12.50274985,0,0
717.5279995,2802,0,171.3436149,0,249.3380074,-74.41467876,-66.29306351,0.107582856,-83.71650061,0.027894208,-176.3303619,132.7694935,0,31.11996513,-3.218013784,0,0
717.5359995,2802,0,1.377719047,0,114.6641417,74.8179886,113.3000691,0.106438369,88.99116918,0.027658732,-155.8839478,112.9989155,0,-12.37515671,4.109614526,0,0
717.5439995,2802,0,-12.79183189,0,152.7662597,17.20477989,-2.922751558,0.105295588,-10.19836362,0.027423462,-136.1776593,-156.4725831,0,-83.23563803,-29.01822232,0,0
717.5519995,2802,0,166.6041905,0,204.2307727,-16.0103806,12.23878946,0.104154532,-2.581209197,0.027188402,-167.6444635,284.2725463,0,78.30947949,5.06786136,0,0
717.5599995,2802,0,-105.0377952,0,109.8869999,78.3048173,74.42545692,0.103015225,70.08435885,0.026953558,-134.8975535,-145.1039382,0,-100.9228793,-14.33414063,0,0
717.5679995,2803,0,157.9453418,0,247.0056056,-55.74041733,-62.14598632,0.101877689,-62.40823364,0.026718935,-169.2738123,108.9512929,0,27.90996831,-17.54063617,0,0
717.5759995,2803,0,-1.663311901,0,125.8916582,80.17387544,100.8596628,0.100741945,98.09789898,0.026484537,-148.2176039,95.02262357,0,-16.14196974,0.050042442,0,0
717.5839995,2803,0,-12.18171326,0,177.2127272,13.50109647,-16.94132752,0.099608016,-5.222366799,0.02625037,-136.7361156,-159.1142902,0,-88.70689945,-18.11179581,0,0
717.5919995,2803,0,170.8990543,0,235.3014201,-36.45033673,-11.84851855,0.098475922,-7.328993364,0.026016439,-163.2698365,282.7895008,0,74.42238439,17.56771203,0,0
717.5999995,2803,0,-91.38614989,0,130.9908237,59.62477098,63.33022761,0.097345686,74.44642585,0.025782749,-132.6628805,-140.0551003,0,-97.81026621,4.969872607,0,0
717.6079995,2803,0,174.1573636,0,243.9551057,-62.85819399,-53.09293401,0.096217329,-40.98311707,0.025549305,-174.1407563,116.9407045,0,31.03625757,3.971561879,0,0
717.6159995,2803,0,30.29784822,0,147.5816252,49.08268966,82.52075483,0.095090872,90.16551585,0.025316111,-154.3207252,102.0418274,0,-15.53474702,18.22883008,0,0
717.6239995,2803,0,25.23372753,0,233.7088203,-18.1676571,-39.92396944,0.093966336,-21.13514763,0.025083173,-158.43619,-144.8462121,0,-86.91545846,-1.629464379,0,0
717.6319995,2803,0,170.2302171,0,250.5088251,-6.293182942,18.36526067,0.092843742,29.36307545,0.024850495,-194.8933496,286.286008,0,66.67037065,18.41152684,0,0
717.6399995,2803,0,-103.3481448,0,126.6319195,101.3897427,88.66593036,0.091723112,106.4906667,0.024618083,-140.4118769,-151.2110888,0,-117.618344,-6.267699164,0,0
717.6479995,2803,0,181.448458,0,285.0509297,-65.14206646,-74.59332347,0.090604465,-58.30685432,0.024385942,-176.5872576,125.8415698,0,19.92720083,1.995674915,0,0
717.6559995,2803,0,18.36047482,0,169.8452731,59.64982615,82.32532917,0.089487823,90.17701688,0.024154075,-168.5654593,120.784025,0,-16.9538438,12.39658322,0,0
717.6639995,2803,0,3.167839699,0,214.2418826,3.270376962,-27.50892898,0.088373206,-10.31205488,0.023922488,-149.9042634,-144.4759928,0,-91.82862705,-19.74273213,0,0
717.6719995,2803,0,170.669366,0,256.1223433,-26.10647952,-4.652611106,0.087260634,2.028702169,0.023691186,-177.7429941,295.0542884,0,69.61419629,12.37464267,0,0
717.6799995,2803,0,-98.45917667,0,157.2599409,69.67831944,56.33323637,0.086150128,67.07634062,0.023460173,-153.8041132,-122.459305,0,-104.0183891,-1.720577578,0,0
717.6879995,2803,0,172.3707185,0,299.881581,-64.45474553,-84.79389967,0.085041707,-67.81098978,0.023229455,-198.8149233,152.7109662,0,27.81522598,-1.12544949,0,0
717.6959995,2803,0,-0.512741035,0,167.2360093,77.22749149,85.75614806,0.083935392,108.2633095,0.022999035,-177.3621687,144.4703263,0,-13.52878433,7.899888246,0,0
717.7039995,2803,0,-19.91274463,0,206.6652798,14.33152447,-26.91796655,0.082831202,8.631388155,0.022768919,-161.3296128,-123.04835,0,-87.24163669,-19.70831356,0,0
717.7119995,2803,0,149.7875509,0,245.3742494,-13.92477858,-6.779904631,0.081729158,15.72876166,0.022539111,-183.4973666,309.4193561,0,73.71073897,12.31195667,0,0
717.7199995,2803,0,-112.3163227,0,141.2790868,92.7631017,60.42913568,0.080629278,88.74223638,0.022309615,-136.5560892,-115.6567149,0,-98.95903167,-2.716665816,0,0
717.7279995,2803,0,170.8033234,0,286.3234469,-48.17978441,-74.9941221,0.079531582,-48.60389843,0.022080437,-173.8792461,154.98515,0,37.64377633,4.614178408,0,0
717.7359995,2803,0,6.285898347,0,163.450058,78.84399965,93.04929138,0.07843609,107.4805985,0.021851581,-156.2969262,145.4984103,0,0.488071892,21.99658437,0,0
717.7439995,2803,0,-22.53221281,0,192.7721085,26.5745949,-13.17836306,0.077342821,11.19429331,0.021623051,-140.1347666,-126.6726156,0,-75.63299874,-10.64350936,0,0
717.7519995,2803,0,145.2943072,0,231.3460076,-6.970467914,4.467650515,0.076251793,24.07716102,0.021394852,-163.6711663,310.9533848,0,84.37160023,21.47927169,0,0
717.7599995,2803,0,-116.473361,0,145.8493901,77.21736967,58.78263895,0.075163026,85.85633957,0.021166989,-120.3325688,-102.6733877,0,-86.07051979,14.18676174,0,0
717.7679995,2803,0,152.2004272,0,287.3346495,-62.721097,-79.09282226,0.074076539,-54.99374093,0.020939466,-158.63215,156.390758,0,43.82750191,11.74494116,0,0
717.7759995,2803,0,9.542769908,0,199.4583426,42.71837591,59.79315795,0.072992349,75.18929801,0.020712286,-146.5637749,149.2094279,0,6.240136699,30.77311068,0,0
717.7839995,2803,0,17.01953061,0,282.5572146,-29.06383985,-62.30554206,0.071910476,-39.91186613,0.020485456,-141.57598,-95.91174196,0,-59.98028649,15.57326422,0,0
717.7919995,2803,0,174.5151479,0,294.8481953,-23.92736331,-3.675055533,0.070830939,8.718635398,0.020258979,-166.2154766,326.9248984,0,88.96148806,32.62570572,0,0
717.7999995,2803,0,-97.8940349,0,188.1928765,73.25424804,57.58270179,0.069753754,81.93349017,0.020032859,-114.2091631,-104.0639415,0,-93.68538856,10.71525936,0,0
717.8079995,2803,0,172.5653121,0,347.0745889,-82.54470306,-101.708063,0.068678942,-72.81083772,0.019807101,-149.0480419,167.975452,0,39.50790739,18.03206178,0,0
717.8159995,2803,0,6.951434239,0,226.8217588,51.49084787,63.06604559,0.067606518,90.16507771,0.019581709,-132.6787414,146.0958003,0,-6.242184612,26.94685599,0,0
717.8239995,2804,0,-12.96316092,0,271.680901,3.549098065,-35.12969262,0.066536503,5.226377602,0.019356688,-116.4717892,-120.3618632,0,-80.58496792,-3.504602198,0,0
717.8319995,2804,0,146.8414826,0,304.1462152,-11.83896589,0.206874107,0.065468912,29.48947195,0.019132041,-136.4333321,310.1792059,0,75.71080019,23.13503467,0,0
717.8399995,2804,0,-108.3967066,0,214.1482892,72.91864525,43.2466321,0.064403764,77.55869754,0.018907773,-96.65346343,-108.7348284,0,-95.71855926,13.50323709,0,0
717.8479995,2804,0,158.5446163,0,347.6142686,-61.95360282,-94.63399764,0.063341077,-61.45624755,0.018683889,-145.4963058,161.9894328,0,41.60253705,18.82119195,0,0
717.8559995,2804,0,-15.86867849,0,203.891534,87.49270457,87.92889559,0.062280867,115.2185812,0.018460391,-123.3423136,133.6735419,0,-7.255997599,22.59883105,0,0
717.8639995,2804,0,-21.27672207,0,257.7121035,12.32794104,-37.89818077,0.061223152,-0.041416076,0.018237285,-98.00364923,-123.0346536,0,-77.20865746,-1.275081574,0,0
717.8719995,2804,0,156.3060226,0,320.0151431,-41.83254563,-34.01609742,0.060167949,-6.136665361,0.018014575,-132.5428984,325.1211693,0,87.73084858,37.95211851,0,0
717.8799995,2804,0,-94.8516733,0,238.5158863,53.26709949,27.96066103,0.059115275,63.30892714,0.017792264,-106.953302,-98.96503137,0,-89.94258721,25.44115006,0,0
717.8879995,2804,0,185.477975,0,376.1642259,-70.31258211,-99.36218872,0.058065148,-64.64209226,0.017570357,-144.768713,170.0826581,0,43.32642999,27.98450371,0,0
717.8959995,2804,0,23.29776178,0,252.687783,59.08017308,61.70995623,0.057017582,93.9941861,0.017348858,-124.3926527,155.2762276,0,-0.050865458,37.88163787,0,0
717.9039995,2804,0,11.74270898,0,304.1380426,-6.445134302,-59.14030617,0.055972597,-12.13598867,0.017127771,-112.2337963,-103.1775609,0,-75.46967924,3.477455261,0,0
717.9119995,2804,0,177.0002771,0,340.4450797,-34.48845999,-34.03391652,0.054930206,1.231038495,0.016907099,-138.6804244,345.2009752,0,84.76973757,30.00750412,0,0
717.9199995,2804,0,-101.5220353,0,225.4721283,69.76495978,42.11225328,0.053890428,83.13549247,0.016686847,-100.4941328,-85.18035109,0,-96.03913292,11.24233507,0,0
717.9279995,2804,0,153.1286407,0,338.4807063,-53.44695426,-82.53554401,0.052853278,-43.75187034,0.016467019,-126.2366339,159.3942219,0,26.35725075,2.78162767,0,0
717.9359995,2804,0,-8.200913416,0,212.2226166,70.54222362,72.15299565,0.051818773,101.6001507,0.016247619,-95.10790535,142.3464866,0,-15.72329714,15.17676847,0,0
717.9439995,2804,0,-15.02551486,0,263.1000025,3.662044747,-44.23654132,0.050786928,-6.373471356,0.01602865,-84.34014676,-109.826448,0,-81.0016166,-1.389720973,0,0
717.9519995,2804,0,141.2448137,0,279.1907173,-11.14212866,-1.69001024,0.049757759,23.10791961,0.015810117,-109.8670772,324.0754347,0,79.56909332,33.9549525,0,0
717.9599995,2804,0,-129.4723109,0,155.9563688,94.84262732,71.58265127,0.048731281,106.2718815,0.015592023,-59.58620999,-109.5183444,0,-101.5102702,17.00923885,0,0
717.9679995,2804,0,164.9260077,0,315.5469989,-66.57524814,-93.73113698,0.047707512,-55.80716776,0.015374372,-89.0373428,158.0235089,0,29.44843984,20.00653399,0,0
717.9759995,2804,0,22.98159413,0,237.5431279,32.73371255,42.23611075,0.046686465,68.35336598,0.015157168,-86.00482935,157.4206256,0,-5.268059002,39.47035885,0,0
717.9839995,2804,0,6.704874617,0,296.8345605,-17.91049124,-59.99957597,0.045668156,-25.96285169,0.014940414,-92.58811354,-94.48342641,0,-70.63285594,13.17067839,0,0
717.9919995,2804,0,170.9901996,0,336.4769669,-39.29499289,-30.19041973,0.044652601,-7.407373203,0.014724115,-117.3424865,339.2546888,0,87.66046852,37.84637631,0,0
717.9999995,2804,0,-103.1190174,0,228.3048837,64.94254876,51.28915307,0.043639814,73.46048647,0.014508274,-73.36761903,-96.56381269,0,-93.94321264,16.03408203,0,0
718.0079995,2804,0,156.7732602,0,352.7483075,-65.29559455,-69.8308586,0.04262981,-55.01208039,0.014292895,-99.47755914,158.0931282,0,36.77457491,14.02354637,0,0
718.0159995,2804,0,1.274018334,0,247.7678182,36.25058498,69.43005819,0.041622605,72.21238902,0.014077981,-70.83228906,146.7664025,0,-0.48386622,34.56909194,0,0
718.0239995,2804,0,-12.12103853,0,292.9568896,-7.786661906,-36.07296778,0.040618212,-17.12170511,0.013863536,-59.70097979,-113.6159598,0,-74.96899552,8.793571565,0,0
718.0319995,2804,0,155.0903187,0,327.828699,-14.38920546,-5.142464232,0.039616647,12.79434861,0.013649564,-78.35586507,308.3377892,0,77.83520486,29.87367056,0,0
718.0399995,2804,0,-109.1363755,0,233.8084026,66.17896082,47.32396918,0.038617924,69.1520025,0.013436068,-41.95511429,-117.55168,0,-95.16658416,17.38932101,0,0
718.0479995,2804,0,152.6674639,0,360.4557711,-71.15901609,-88.03508406,0.037622057,-63.41804591,0.013223053,-90.23956335,151.6809877,0,37.66783925,21.56059687,0,0
718.0559995,2804,0,-0.095226739,0,263.3295789,39.95712602,51.49281323,0.03662906,73.01475551,0.01301052,-73.85382145,140.568821,0,0.896616879,38.79911142,0,0
718.0639995,2804,0,-12.17418576,0,319.4772364,-17.94992479,-59.55080465,0.035638948,-30.16562597,0.012798475,-67.15182321,-105.40018,0,-57.43921775,18.09772493,0,0
718.0719995,2804,0,137.1025912,0,329.5007561,-16.88901966,-10.74667262,0.034651733,12.87488,0.012586919,-92.85062369,328.5908423,0,100.9291458,37.67966686,0,0
718.0799995,2805,0,-139.4918519,0,212.3947989,86.1549573,60.80102117,0.033667431,92.69805872,0.012375858,-47.96020868,-113.0094656,0,-80.06847149,16.17053434,0,0
718.0879995,2805,0,130.8798781,0,350.3982672,-63.07991463,-87.45175091,0.032686055,-54.52112552,0.012165294,-83.17882198,143.2856984,0,55.73254303,20.92479953,0,0
718.0959995,2805,0,-21.51075384,0,244.4017215,38.59904026,47.5617061,0.031707618,78.00702128,0.01195523,-79.97895147,128.0587187,0,21.00837318,32.5218313,0,0
718.1039995,2805,0,-33.91420409,0,283.3401012,-15.53389965,-56.40886576,0.030732133,-16.27001111,0.011745671,-85.79671084,-131.8183115,0,-47.03962278,2.38050549,0,0
718.1119995,2805,0,130.4501071,0,312.0848562,-28.01318601,-23.2104025,0.029759615,6.959087315,0.011536619,-104.2897628,292.3141342,0,107.1255299,27.66593687,0,0
718.1199995,2805,0,-140.1393153,0,211.8760245,63.09130809,32.47243615,0.028790075,70.43278446,0.011328077,-62.45812958,-143.7445428,0,-69.88826392,11.04996814,0,0
718.1279995,2805,0,116.6361925,0,327.931365,-66.63606139,-95.91763212,0.027823528,-57.34900038,0.01112005,-105.7777451,115.626037,0,62.16835822,10.35356653,0,0
718.1359995,2805,0,-49.46402405,0,190.5361569,61.45536815,63.99308083,0.026859986,98.59463737,0.01091254,-82.56004051,89.70929516,0,15.80100378,17.30759308,0,0
718.1439995,2805,0,-64.11216923,0,228.3081912,-2.22744971,-46.3159502,0.025899462,1.768314761,0.01070555,-62.67955131,-170.5639767,0,-51.35283893,-8.099805955,0,0
718.1519995,2805,0,93.44315139,0,253.1539615,-29.6553837,-17.30699269,0.024941968,20.49583123,0.010499085,-84.91399596,267.0975105,0,112.7182092,24.15176707,0,0
718.1599995,2805,0,-177.1341546,0,145.8952291,63.2313255,39.63516236,0.023987517,79.96077306,0.010293146,-54.34618405,-161.7126481,0,-64.7782275,6.562306637,0,0
718.1679995,2805,0,92.33339704,0,279.3031033,-72.66268906,-97.13046856,0.023036122,-57.2891766,0.010087738,-94.09727273,105.0198076,0,66.96611776,5.559523103,0,0
718.1759995,2805,0,-68.76902165,0,161.5690471,45.58894674,59.69271097,0.022087794,93.56175614,0.009882862,-67.03003678,91.55955497,0,26.7042726,15.23120646,0,0
718.1839995,2805,0,-75.10893078,0,216.4544593,-12.7852861,-40.93827121,0.021142547,-2.657288141,0.009678523,-53.07382223,-167.8361183,0,-42.66231827,-10.30582372,0,0
718.1919995,2805,0,108.884582,0,276.139425,-44.89592966,-13.66652348,0.020200391,14.90812641,0.009474724,-72.87041207,268.9240499,0,117.8984209,28.65120416,0,0
718.1999995,2805,0,-152.4192119,0,181.3050954,40.2894247,33.12564968,0.019261339,79.88631186,0.009271467,-34.20402966,-152.930309,0,-57.80559563,16.14224715,0,0
718.2079995,2805,0,99.86870038,0,290.8758229,-75.59104431,-94.17967345,0.018325403,-40.02421449,0.009068756,-78.26259431,104.3851597,0,69.36244091,9.062860082,0,0
718.2159995,2805,0,-55.91272475,0,181.144591,41.12108365,49.86417936,0.017392594,100.8918508,0.008866594,-61.05814813,84.75358896,0,26.14619224,25.24097198,0,0
718.2239995,2805,0,-60.34861486,0,236.8426865,-24.8186705,-78.18299859,0.016462924,-6.798594658,0.008664983,-59.12500662,-168.5208021,0,-42.95408205,7.146096419,0,0
718.2319995,2805,0,100.9010629,0,260.951205,-34.03143396,-44.40112858,0.015536404,25.49672527,0.008463927,-87.25115201,259.1577739,0,112.2656011,36.21701564,0,0
718.2399995,2805,0,-161.8149497,0,156.8715544,57.03668729,21.42647625,0.014613046,93.44697948,0.008263429,-47.06969481,-165.3505968,0,-62.57305724,18.35560473,0,0
718.2479995,2805,0,100.0856502,0,266.9211097,-67.55763312,-99.60362003,0.01369286,-28.82843882,0.008063491,-86.75810544,100.6310006,0,70.74906569,12.64077223,0,0
718.2559995,2805,0,-60.77855413,0,136.7152931,54.55483907,50.79920228,0.012775858,121.8919921,0.007864116,-65.95158784,80.89746822,0,28.87865957,27.414705,0,0
718.2639995,2805,0,-65.24870945,0,182.8340212,-16.47029382,-71.85329472,0.011862051,9.341367722,0.007665308,-64.68934179,-171.9148853,0,-40.22067486,6.331717069,0,0
718.2719995,2805,0,102.3866625,0,209.3223068,-36.52079642,-47.37466444,0.010951449,28.60075022,0.007467068,-98.51688354,257.2613343,0,117.7618616,33.11697452,0,0
718.2799995,2805,0,-146.4586211,0,119.4204036,55.72021826,3.344138931,0.010044064,97.18842772,0.007269401,-62.04032832,-158.1982515,0,-48.37496401,20.6215038,0,0
718.2879995,2805,0,140.9967864,0,265.3374519,-75.83582606,-129.032808,0.009139905,-32.9632815,0.007072308,-100.02224,134.3694714,0,95.70990473,22.13738407,0,0
718.2959995,2805,0,-27.7081485,0,130.9293096,62.71277515,42.94683908,0.008238984,128.5847137,0.006875793,-68.28872207,127.5186679,0,55.05178005,34.71444156,0,0
718.3039995,2805,0,-63.63832329,0,138.5293551,23.32795161,-44.63779566,0.00734131,49.47675356,0.006679858,-45.97786218,-141.0210475,0,-23.23674615,6.987921735,0,0
718.3119995,2805,0,104.4863047,0,165.5070642,-7.558419565,-23.44727123,0.006446893,63.48555929,0.006484506,-57.52366465,277.5993669,0,126.2569478,29.81146527,0,0
718.3199995,2805,0,-141.6336402,0,88.77084226,62.05553665,12.12146758,0.005555745,104.1090272,0.00628974,-20.57435462,-138.8227025,0,-47.57784277,20.52000341,0,0
718.3279995,2805,0,121.1849836,0,216.9463946,-69.59403947,-120.0196262,0.004667874,-30.595526,0.006095562,-83.08296407,131.4846812,0,83.76588147,24.35334432,0,0
718.3359995,2806,0,-45.07118963,0,82.36651635,62.02570883,39.31236687,0.00378329,125.780805,0.005901975,-62.06940913,94.83474856,0,33.94225494,26.14274029,0,0
718.3439995,2806,0,-39.02330621,0,141.2081868,-5.130458964,-79.19773524,0.002902004,15.68983524,0.005708982,-49.41509826,-159.0739482,0,-32.89164638,4.995122963,0,0
718.3519995,2806,0,137.9736983,0,186.5505322,-31.02134358,-47.31394464,0.002024025,34.0192232,0.005516584,-91.58135401,285.2259768,0,129.9384356,48.02007793,0,0
718.3599995,2806,0,-134.5176501,0,66.15796034,71.99420949,29.69911837,0.001149362,116.163069,0.005324786,-48.34325593,-153.708675,0,-57.20283787,26.74311331,0,0
718.3679995,2806,0,134.2352165,0,191.1161075,-67.57637743,-110.8978135,0.000278024,-25.84448295,0.005133588,-72.02074697,107.5796612,0,68.45279537,25.11909625,0,0
718.3759995,2806,0,-18.87054279,0,84.07140405,46.18783271,28.02689389,-0.000589979,108.3975279,0.004942995,-51.44636961,93.43537099,0,28.4690995,43.48418273,0,0
718.3839995,2806,0,-37.66917215,0,121.8429503,-10.38462576,-73.88471324,-0.001454637,11.93199648,0.004753008,-51.70868374,-165.0733138,0,-48.708202,13.99374798,0,0
718.3919995,2806,0,120.4157202,0,145.4956782,-30.69163865,-37.45428194,-0.002315943,33.57967673,0.004563629,-80.72228947,265.2893756,0,103.2992539,43.30680044,0,0
718.3999995,2806,0,-147.8781588,0,37.33018302,68.66809085,27.46022016,-0.003173887,106.9026182,0.004374862,-35.11315482,-165.044631,0,-72.76761766,28.21282705,0,0
718.4079995,2806,0,122.3875875,0,171.949825,-75.41281009,-115.2297556,-0.00402846,-34.20664155,0.004186708,-70.70721455,106.2827191,0,61.20403722,29.0948607,0,0
718.4159995,2806,0,-25.05663206,0,74.24337125,26.95377793,14.64456744,-0.004879654,94.49670392,0.00399917,-54.3272053,92.14866249,0,21.13246379,44.20715172,0,0
718.4239995,2806,0,-42.86571974,0,116.5409742,-18.81352922,-81.31132477,-0.00572746,10.24159246,0.003812251,-50.41495551,-168.7096536,0,-54.28147626,13.5155924,0,0
718.4319995,2806,0,119.448862,0,153.5675987,-32.69206384,-36.0119018,-0.00657187,42.98312583,0.003625953,-68.50294444,260.0454009,0,96.57547755,40.82662512,0,0
718.4399995,2806,0,-135.6820245,0,63.53953327,48.11375606,17.76319883,-0.007412876,99.54403921,0.003440277,-22.36712515,-161.5646188,0,-79.02493561,30.36439623,0,0
718.4479995,2806,0,121.2077074,0,181.6007847,-79.65409757,-111.1638225,-0.008250469,-34.55491351,0.003255227,-66.71668936,104.544426,0,48.14342264,26.48283339,0,0
718.4559995,2806,0,-28.57501067,0,84.28274462,27.08865632,20.81392724,-0.009084641,92.4327161,0.003070804,-48.57628313,84.08764948,0,3.78499088,35.96315071,0,0
718.4639995,2806,0,-30.68204832,0,122.7577735,-27.91862644,-76.02978105,-0.009915385,4.546113259,0.002887011,-42.18346769,-156.0211327,0,-59.27485709,14.61577816,0,0
718.4719995,2806,0,126.3091421,0,125.5213591,-22.50188417,-15.34219116,-0.010742693,51.77301816,0.002703851,-51.06186699,280.4100942,0,94.06976808,41.98756133,0,0
718.4799995,2806,0,-127.3375586,0,43.21592533,49.7645031,20.39601842,-0.011566556,90.04954928,0.002521324,7.96043093,-147.2482944,0,-82.64806352,28.25275747,0,0
718.4879995,2806,0,140.1308999,0,174.7640067,-91.60025365,-110.1239504,-0.012386968,-46.48646833,0.002339434,-41.20484068,120.91083,0,53.46574631,28.36944854,0,0
718.4959995,2806,0,-5.328968104,0,77.27672252,20.97247863,34.1649856,-0.013203921,90.04450986,0.002158183,-25.37317164,98.403039,0,12.13492863,41.15892716,0,0
718.5039995,2806,0,-2.196491409,0,137.4393879,-41.73384631,-79.96852635,-0.014017407,-19.82088945,0.001977572,-27.0749692,-146.7237249,0,-49.48939543,24.34499771,0,0
718.5119995,2806,0,141.172001,0,127.368685,-26.78650293,-6.98053768,-0.01482742,38.4641558,0.001797604,-61.46075288,274.3930209,0,103.5083338,44.27432257,0,0
718.5199995,2806,0,-132.8918002,0,12.97565496,70.23997913,51.64228462,-0.015633952,107.0883869,0.001618281,-2.260131107,-178.0338754,0,-83.78802082,14.50608025,0,0
718.5279995,2806,0,132.9525747,0,142.0582729,-67.20990893,-85.33101082,-0.016436996,-32.08768154,0.001439605,-40.58649333,92.75507797,0,50.19773596,18.5423662,0,0
718.5359995,2806,0,-31.51565163,0,11.27774595,65.19564543,82.85501363,-0.017236546,123.3892053,0.001261578,-27.60995829,75.29294722,0,8.460113739,30.69832335,0,0
718.5439995,2806,0,-35.67407342,0,70.63852752,-12.53592955,-51.16781168,-0.018032594,0.253147258,0.001084202,-19.17940664,-174.065396,0,-59.52735656,6.88548051,0,0
718.5519995,2806,0,126.0745917,0,110.2066866,-44.36134338,-36.84894953,-0.018825134,7.443165739,0.000907479,-67.51868845,270.5328608,0,100.8025864,40.39224289,0,0
718.5599995,2806,0,-160.3436715,0,-26.28364376,78.04248292,52.6721052,-0.019614159,102.1934328,0.000731411,-29.92031347,-174.9907762,0,-82.65224768,10.0322241,0,0
718.5679995,2806,0,112.0965454,0,107.3999439,-66.55996622,-89.0928252,-0.020399664,-41.08677444,0.000555999,-46.13263594,87.82390667,0,49.90191854,10.39857296,0,0
718.5759995,2806,0,-24.51422096,0,32.31217923,19.10691187,32.70122205,-0.021181641,69.71784293,0.000381246,-35.98724376,94.27962854,0,20.16489077,37.67391771,0,0
718.5839995,2806,0,-46.03363365,0,63.58191868,-25.18276834,-55.83256729,-0.021960084,-14.0765711,0.000207154,-37.79937192,-158.6171059,0,-48.41525937,4.670676701,0,0
718.5919995,2807,0,112.748444,0,91.97412755,-47.33588072,-27.9055169,-0.022734988,6.325890572,3.37E-05,-56.27198672,265.2986938,0,104.1335882,29.0529144,0,0
718.5999995,2807,0,-144.4063314,0,18.73658855,37.72046223,20.81184277,-0.023506346,64.31222267,-0.000139041,-26.53852136,-152.3985336,0,-67.17160888,17.63925961,0,0
718.6079995,2807,0,116.3250301,0,159.7712953,-81.70654915,-94.71306208,-0.024274153,-51.53469067,-0.00031114,-63.59161983,116.3851326,0,65.24694793,14.18289395,0,0
718.6159995,2807,0,-31.09900958,0,72.64367831,19.73167264,37.91246652,-0.025038402,74.96430555,-0.000482571,-30.13217265,101.8293523,0,24.45297799,31.97410783,0,0
718.6239995,2807,0,-39.56143583,0,113.8204336,-30.27526275,-60.38519635,-0.025799089,-17.0450902,-0.000653333,-27.09473255,-136.5348675,0,-39.57809202,11.642631,0,0
718.6319995,2807,0,103.7623293,0,98.98368047,-11.88480535,21.28557787,-0.026556207,49.12107841,-0.000823423,-37.53430963,283.5933591,0,105.6992206,30.26409663,0,0
718.6399995,2807,0,-160.21637,0,-9.970295754,63.1498758,70.71279972,-0.027309751,99.60589882,-0.00099284,34.42583041,-154.7090208,0,-76.42609248,15.39616225,0,0
718.6479995,2807,0,112.0662677,0,128.0033765,-94.60245978,-90.626353,-0.028059717,-62.24361692,-0.001161582,-3.549924509,120.4427495,0,60.60002008,26.2615922,0,0
718.6559995,2807,0,-42.0467104,0,20.22054331,31.10145646,55.52155665,-0.028806098,85.86545723,-0.001329648,-4.665112621,104.459934,0,18.94955546,40.59145348,0,0
718.6639995,2807,0,-52.4465903,0,68.98052849,-21.54967478,-55.0553389,-0.029548889,-10.25469599,-0.001497035,-10.96813649,-145.3153503,0,-45.52538928,13.63380786,0,0
718.6719995,2807,0,103.7013197,0,94.65367336,-45.86870112,-27.86417893,-0.030288086,6.805788718,-0.001663743,-35.46020735,280.4403375,0,107.8664018,36.38672821,0,0
718.6799995,2807,0,-165.0456965,0,-7.761419904,47.96441151,35.77965875,-0.031023684,73.8065534,-0.00182977,-0.001204037,-151.1578533,0,-71.04574429,13.36711319,0,0
718.6879995,2807,0,90.41197693,0,106.7911686,-73.21029571,-82.70941021,-0.031755678,-46.5379564,-0.001995113,-38.38175773,109.6978166,0,60.32919871,3.080638698,0,0
718.6959995,2807,0,-57.68180565,0,4.001033299,30.64435968,53.06800781,-0.032484063,84.17522086,-0.002159772,-11.4923238,84.59662197,0,13.80356108,13.27648286,0,0
718.7039995,2807,0,-49.56701604,0,74.10113712,-38.21482185,-65.24265716,-0.033208835,-30.08609105,-0.002323745,-19.40384313,-156.4520522,0,-50.07502633,-5.050757436,0,0
718.7119995,2807,0,109.6960365,0,94.94817959,-44.94620404,-21.28653841,-0.03392999,5.987295119,-0.002487031,-52.79472291,268.4896396,0,101.6211535,15.75802633,0,0
718.7199995,2807,0,-155.6713341,0,-3.424362175,35.7851621,33.119293,-0.034647522,71.33088635,-0.002649627,-12.87798989,-165.2295425,0,-82.16726609,-3.660374388,0,0
718.7279995,2807,0,113.2883588,0,134.5617045,-106.1679087,-95.87277117,-0.035361429,-64.31886226,-0.002811533,-58.00941952,109.2655257,0,50.63927862,1.474969911,0,0
718.7359995,2807,0,-47.87795058,0,12.4903846,30.62286205,70.55909664,-0.036071705,94.79161489,-0.002972748,-31.79087683,86.70243367,0,3.058845412,14.02742088,0,0
718.7439995,2807,0,-61.92134285,0,65.43952746,-18.39381066,-35.77727153,-0.036778347,-3.054233311,-0.003133268,-13.78058087,-167.1594493,0,-67.54182039,-8.791105081,0,0
718.7519995,2807,0,98.27403861,0,104.0976137,-33.5109998,-3.396223916,-0.037481351,18.05946365,-0.003293095,-32.22827201,261.0317126,0,87.31687922,19.26332866,0,0
718.7599995,2807,0,-157.8401447,0,9.547425268,47.13235554,47.29082214,-0.038180713,78.45941105,-0.003452225,9.015461177,-160.76515,0,-88.55739694,8.131092902,0,0
718.7679995,2807,0,124.940428,0,168.3774517,-119.9423219,-108.5033278,-0.038876429,-78.49737508,-0.003610657,-37.45970446,124.508421,0,53.32934637,22.51321369,0,0
718.7759995,2807,0,-30.35342046,0,63.14452118,0.927407373,41.96594425,-0.039568496,67.47265604,-0.003768391,-25.71744506,110.5353635,0,11.39516834,38.64242041,0,0
718.7839995,2807,0,-48.75276018,0,80.21952058,-31.13532673,-44.78753662,-0.040256911,-5.776400084,-0.003925425,-16.31178739,-141.7216437,0,-62.82646106,7.02505028,0,0
718.7919995,2807,0,111.1893745,0,90.43457696,-42.99150031,-0.834316437,-0.040941669,30.40822344,-0.004081758,-31.40202109,289.9169101,0,90.16730132,32.51301528,0,0
718.7999995,2807,0,-145.0061913,0,6.435556432,30.6004436,38.47648004,-0.041622769,81.39932678,-0.004237388,15.37821769,-137.7399608,0,-88.49136659,17.40002861,0,0
718.8079995,2807,0,128.3650279,0,163.3533129,-120.0919076,-109.0041345,-0.042300206,-60.52587694,-0.004392314,-31.771554,135.6150931,0,47.56759799,18.95749582,0,0
718.8159995,2807,0,-37.61232651,0,40.66273467,13.95283955,63.84637792,-0.042973977,105.5408375,-0.004546535,-19.71069716,117.6104962,0,3.217873827,30.62933552,0,0
718.8239995,2807,0,-57.24210085,0,63.3229633,-33.66601083,-39.45161436,-0.04364408,11.67023815,-0.00470005,-1.074065808,-145.5658413,0,-73.09720307,-2.050547621,0,0
718.8319995,2807,0,103.0075245,0,88.58457635,-61.17053638,-22.2458332,-0.044310512,27.43303852,-0.004852857,-25.87042533,278.0669821,0,80.37367406,21.00058109,0,0
718.8399995,2807,0,-158.1870297,0,-9.20321302,29.56998771,35.86767915,-0.04497327,95.30317853,-0.005004957,0.549331195,-146.7030017,0,-95.58230107,5.067888215,0,0
718.8479995,2808,0,107.9228132,0,108.8752833,-88.88178126,-81.05568981,-0.045632352,-26.91048001,-0.005156346,-34.97928095,116.5265312,0,38.26156495,0.648759198,0,0
718.8559995,2808,0,-45.5140102,0,-3.521685913,25.03434476,66.65260075,-0.046287754,111.9202781,-0.005307025,-13.00188766,97.62984726,0,-3.72654988,16.99828426,0,0
718.8639995,2808,0,-39.17124795,0,61.37738782,-51.42909677,-61.03318525,-0.046939475,-5.670463356,-0.005456992,-18.11384357,-143.2413187,0,-72.27627124,1.517758381,0,0
718.8719995,2808,0,124.6164398,0,79.49203117,-54.94148274,-17.81371885,-0.047587512,31.76197361,-0.005606246,-50.00601438,283.9148263,0,79.16549378,32.52587584,0,0
718.8799995,2808,0,-146.1871368,0,-27.62469036,45.76498067,44.90907819,-0.048231862,105.6962085,-0.005754786,-7.708527808,-150.4836308,0,-104.403411,21.1789242,0,0
718.8879995,2808,0,115.6382263,0,101.5859109,-85.06024596,-90.26272686,-0.048872525,-30.43157892,-0.005902611,-43.7884528,114.8870482,0,24.42655882,20.877288,0,0
718.8959995,2808,0,-37.79832677,0,-5.955994793,29.2829545,52.42652709,-0.049509498,104.8085347,-0.006049721,-28.91680785,99.1598842,0,-17.76322264,33.44389786,0,0
718.9039995,2808,0,-37.73014084,0,67.19536256,-48.75827834,-78.91530114,-0.050142778,-15.58518984,-0.006196113,-35.43936971,-138.1398931,0,-80.48189224,12.24970054,0,0
718.9119995,2808,0,119.5537854,0,94.88798931,-60.74931624,-39.49908529,-0.050772364,12.13124556,-0.006341788,-69.716256,291.9964466,0,73.87537828,32.06128534,0,0
718.9199995,2808,0,-137.8780851,0,1.591945183,38.2467183,32.37101564,-0.051398255,84.47795361,-0.006486744,-32.15551355,-137.4545782,0,-107.7018591,11.29688562,0,0
718.9279995,2808,0,136.6000959,0,141.2933261,-76.23338496,-79.60400809,-0.052020449,-32.07895755,-0.00663098,-65.99258944,136.6360867,0,26.47817572,11.8968996,0,0
718.9359995,2808,0,-29.15635928,0,9.891445183,64.62501753,83.82676571,-0.052638943,129.7416779,-0.006774496,-29.62294059,112.7001491,0,-15.56154922,21.14917181,0,0
718.9439995,2808,0,-38.66957736,0,54.57106807,-4.885626442,-40.87546167,-0.053253738,21.16400684,-0.006917291,-14.28300418,-137.0269226,0,-77.4410933,4.193503964,0,0
718.9519995,2808,0,121.6521371,0,78.62574,-22.31305588,-3.905518672,-0.053864831,46.73808062,-0.007059363,-32.71107389,295.1646312,0,82.92728823,37.8455841,0,0
718.9599995,2808,0,-150.4711435,0,-37.9730911,71.12150182,61.13408881,-0.054472221,110.4522626,-0.007200713,13.43264514,-136.8256946,0,-97.83743256,20.39609811,0,0
718.9679995,2808,0,114.5264095,0,90.09152763,-71.52115233,-78.63928524,-0.055075908,-29.22650488,-0.007341338,-34.97114615,129.3580687,0,34.86288332,22.34140056,0,0
718.9759995,2808,0,-42.89371361,0,-19.64689297,49.98761723,66.36494403,-0.055675889,120.9169097,-0.007481239,-20.60940984,109.3763647,0,-6.294284965,35.11024476,0,0
718.9839995,2808,0,-55.40349548,0,31.22536783,-19.46645816,-56.27134401,-0.056272165,9.289062694,-0.007620415,-21.57748757,-137.3654102,0,-75.57726664,15.41910288,0,0
718.9919995,2808,0,110.3800375,0,68.75752285,-52.71172785,-33.61082283,-0.056864733,15.90346746,-0.007758865,-55.22446358,289.2733196,0,77.11523398,47.16426848,0,0
718.9999995,2808,0,-151.2313539,0,-35.18114693,48.04393891,37.53396609,-0.057453595,88.92989985,-0.007896588,-11.4596633,-137.6224169,0,-98.96340979,32.0930101,0,0
719.0079995,2808,0,101.5584941,0,71.9162845,-63.04725738,-79.89413288,-0.058038749,-26.7290019,-0.008033583,-40.52626663,126.5594634,0,31.80830899,26.89578645,0,0
719.0159995,2808,0,-51.73344532,0,-39.14890232,51.73053451,53.66246395,-0.058620194,105.982636,-0.008169851,-10.23938276,97.29083636,0,-13.02314995,32.59995678,0,0
719.0239995,2808,0,-37.74685863,0,31.54975768,-34.7421948,-77.74998462,-0.05919793,-19.31469839,-0.008305389,-13.65151083,-138.195056,0,-71.61415401,18.42731045,0,0
719.0319995,2808,0,124.8009419,0,53.86819952,-43.14064958,-33.8122776,-0.059771956,14.65667424,-0.008440198,-48.96987491,291.9723662,0,84.8983746,47.48896379,0,0
719.0399995,2808,0,-152.9668985,0,-66.22566618,67.45931848,42.44391618,-0.060342273,97.88824742,-0.008574278,5.550211895,-150.1588466,0,-98.2372951,18.62207438,0,0
719.0479995,2808,0,106.1746792,0,52.95982646,-71.83614894,-89.36780639,-0.06090888,-39.11752279,-0.008707626,-26.73926943,117.2147219,0,32.48442526,13.592339,0,0
719.0559995,2808,0,-57.76426073,0,-74.52931308,54.5453712,65.54637808,-0.061471778,106.4448038,-0.008840244,-13.10055146,93.8055144,0,-14.09026979,22.78855963,0,0
719.0639995,2808,0,-77.94551821,0,-43.16030641,-0.230060539,-37.79550315,-0.062030965,11.13651723,-0.00897213,-2.97311845,-166.5505728,0,-86.50007919,-7.080163245,0,0
719.0719995,2808,0,83.70707645,0,-18.87291448,-30.65956257,-14.28991328,-0.062586443,24.34908963,-0.009103283,-28.09261083,257.3446984,0,70.6367791,21.63730341,0,0
719.0799995,2808,0,-168.2571699,0,-114.4099437,50.90898971,33.4236928,-0.063138211,76.65737247,-0.009233704,2.480789574,-159.0826032,0,-93.58118227,12.0518969,0,0
719.0879995,2808,0,105.3183934,0,21.92278283,-91.42573764,-103.7675766,-0.06368627,-61.29506122,-0.009363392,-42.81240862,116.5571416,0,45.75234123,15.04468936,0,0
719.0959995,2808,0,-53.01605069,0,-96.12777808,37.22707199,56.51502135,-0.064230621,90.01949604,-0.009492346,-24.71644099,92.81316803,0,2.590126028,27.17042592,0,0
719.1039995,2809,0,-65.1744391,0,-61.15839422,-13.69440609,-46.39451569,-0.064771263,-6.881732223,-0.009620567,-13.10086122,-160.1958498,0,-62.95715736,-4.950204651,0,0
719.1119995,2809,0,104.7598867,0,-20.41727925,-49.64999411,-26.00559345,-0.065308197,2.607677383,-0.009748052,-38.7832997,270.0522831,0,91.91005752,22.00552428,0,0
719.1199995,2809,0,-153.8879427,0,-115.8224874,47.25340706,46.59134655,-0.065841425,74.11427974,-0.009874803,-5.399723858,-149.018375,0,-83.09066572,12.21884219,0,0
719.1279995,2809,0,106.3541492,0,3.480736243,-77.15133915,-72.81711526,-0.066370946,-52.77072743,-0.010000818,-42.59491832,113.9005488,0,50.8139668,4.4689911,0,0
719.1359995,2809,0,-51.57164191,0,-108.6471646,37.86578106,72.26519947,-0.066896761,84.53466094,-0.010126098,-22.86600026,87.53973133,0,9.858647004,16.1968469,0,0
719.1439995,2809,0,-54.00040776,0,-54.45842356,-11.54467562,-27.57659449,-0.067418872,-2.885952556,-0.010250642,-14.90607011,-150.7433407,0,-54.90585441,-1.265794923,0,0
719.1519995,2809,0,107.0606433,0,-28.84793821,-15.61048688,15.88526947,-0.06793728,38.52181633,-0.010374449,-35.14671853,281.3474275,0,96.40714652,22.96430427,0,0
719.1599995,2809,0,-170.7618367,0,-162.2451124,98.15375528,82.62657658,-0.068451985,117.1850551,-0.010497521,5.679106391,-151.3773569,0,-82.09778537,4.414576866,0,0
719.1679995,2809,0,105.1060597,0,-23.42275753,-53.69902068,-77.95943915,-0.06896299,-40.09817814,-0.010619855,-30.55761181,119.1350849,0,49.96476231,7.533283487,0,0
719.1759995,2809,0,-43.36571041,0,-115.0427823,45.05773907,50.92471174,-0.069470294,81.64161087,-0.010741451,-26.82601297,106.3649167,0,6.420055115,25.2897203,0,0
719.1839995,2809,0,-68.0603824,0,-87.04962339,-3.200633093,-48.65386338,-0.0699739,-12.62443772,-0.010862311,-40.56534351,-144.6488388,0,-61.34134145,0.596296289,0,0
719.1919995,2809,0,101.9002492,0,-37.82872839,-47.95669039,-41.1626478,-0.070473809,-13.71916934,-0.010982433,-69.15265503,276.6612805,0,91.35890835,23.95104214,0,0
719.1999995,2809,0,-150.1342413,0,-126.6710727,37.90387283,16.04273908,-0.070970023,46.85930011,-0.011101817,-42.71584209,-148.9582732,0,-82.12065593,7.564501724,0,0
