Time:125Hz,Epoch,FP1,FP2,C3,C4,P7,P8,O1,O2,F7,F8,F3,F4,T7,T8,P3,P4
748.0959995,2922,-92.29941236,-33.96206592,-54.16078061,23.37315256,15.35676271,14.20091981,172.5738624,98.99810941,0,-84.62570361,-72.84141567,0,0,-216.2061233,-20.22110747,-321.6033718
748.1039995,2922,10.72782584,-16.07641573,22.15285902,50.81786109,-31.3549789,229.6329427,-98.08348498,271.587737,0,86.17051647,-136.4485331,0,0,1533.602123,14.33212856,357.3881479
748.1119995,2922,-45.7528779,-33.93570683,-0.734904941,-115.960854,13.14119538,-357.6622561,21.43456551,-737.2160679,0,-73.49052355,198.9608599,0,0,526.5980581,-74.69973003,-266.0479573
748.1199995,2922,-77.17839973,-46.30410318,-43.6222313,114.6701525,-0.221372362,411.1590919,104.2452618,762.1246035,0,9.514958713,-242.2151943,0,0,447.3730198,68.83624936,92.98375333
748.1279995,2922,17.59430468,-16.40362832,39.66339235,-90.64723069,-22.05010991,-231.0428235,-150.5174146,-623.9173422,0,9.81206267,162.3002087,0,0,1609.542467,-44.30339421,150.720992
748.1359995,2922,-95.93238325,-20.85594311,-40.8469318,33.91619183,13.74440883,20.0595412,181.5461201,101.0245219,0,-68.23546581,-60.25394445,0,0,-227.6842299,-5.99918907,-321.0267326
748.1439995,2922,7.242729995,-9.144741984,22.69794714,53.05969305,-29.80130245,238.0099638,-90.21271558,278.7198669,0,97.7778994,-131.7838222,0,0,1508.673138,27.17849979,356.9459843
748.1519995,2922,-39.76100631,-27.67475496,10.96760774,-106.8374305,20.26127292,-354.7286335,18.62100823,-741.8687988,0,-78.98033735,198.2236923,0,0,503.9423004,-73.80720803,-274.9631579
748.1599995,2922,-55.19455606,-26.36609269,-14.26934113,142.1298537,11.66164761,421.4503193,107.5953202,769.2119553,0,20.56458815,-229.3711858,0,0,413.7074637,76.13472252,85.98781233
748.1679995,2922,37.50340968,-1.300533522,58.14496879,-73.49697318,-11.71545399,-214.5502467,-151.6683123,-610.3903709,0,29.33326023,175.7422086,0,0,1601.020002,-33.51064058,158.2888855
748.1759995,2922,-95.59321931,-25.22775167,-35.02655096,35.60668757,28.22548105,35.32927464,175.2912876,114.2938288,0,-77.54298458,-51.63325234,0,0,-244.0495279,-3.397261873,-323.0826568
748.1839995,2922,5.283763079,-10.14981619,32.48135928,63.69939213,-18.8184766,267.7114724,-93.8448592,328.3710031,0,83.31990651,-102.1876561,0,0,1513.833691,44.75579021,375.0367033
748.1919995,2922,-34.71529154,-18.23800785,12.68446572,-104.9487086,9.675512887,-355.5895067,17.56157811,-731.7935928,0,-74.51472312,219.38307,0,0,518.9195271,-67.69905852,-258.0756709
748.1999995,2922,-66.28999802,-26.31480723,-27.06036806,134.5189516,2.352821003,409.2764003,123.3445693,765.2228435,0,16.45683418,-247.1567678,0,0,367.8337047,60.21500616,73.9879428
748.2079995,2922,25.46751763,-1.725666439,58.48806835,-72.2962475,-13.45206583,-205.8161645,-138.7672685,-589.1361058,0,32.01129882,172.3908196,0,0,1583.653951,-32.55842238,167.3094008
748.2159995,2922,-86.64681235,-15.75079444,-26.02323012,38.0018152,16.96165911,24.77055176,179.6252006,105.0330203,0,-58.23119189,-45.61536225,0,0,-260.7298491,4.899864058,-316.5570381
748.2239995,2922,16.54156142,-3.382326248,36.53257461,69.49806178,-20.01672973,253.1261881,-83.49791302,316.5282454,0,81.66519402,-129.2285531,0,0,1455.036568,42.23341975,361.1165061
748.2319995,2922,-35.17560773,-17.20744427,23.44311193,-101.6019448,34.14911203,-355.6592259,15.98470608,-730.3614904,0,-70.4159612,213.350035,0,0,491.2376253,-52.20179062,-255.399789
748.2399995,2922,-72.5479309,-25.8004414,-20.91679357,129.2454915,19.4306057,404.9338917,102.9824678,769.3343051,0,33.69451921,-231.4936976,0,0,347.0820578,88.49883295,79.12273933
748.2479995,2922,24.95423421,-0.3324225,52.62875048,-77.6760283,-18.64698826,-229.0684549,-163.2442457,-608.7574498,0,18.24328411,172.9247742,0,0,1559.979699,-28.56196205,157.1977823
748.2559995,2922,-88.85863971,-20.19566364,-31.40766078,33.9161331,24.3904694,5.677631554,165.7171642,87.72528311,0,-70.60323389,-35.68812302,0,0,-294.1313996,-0.791442566,-329.3427125
748.2639995,2922,11.05326012,-3.883843488,29.56657043,67.59597378,-18.4590761,246.8452433,-94.06648303,330.3171117,0,91.82849091,-108.4363435,0,0,1432.44015,43.57331896,361.789179
748.2719995,2922,-27.93957019,-3.816500292,24.27120603,-93.93522205,4.132179886,-385.9812831,12.49433971,-759.3983175,0,-67.1536037,221.8407589,0,0,467.5811733,-72.96017108,-263.6551764
748.2799995,2922,-64.15171123,-21.71263979,-10.56915298,138.1374565,4.73729273,386.830245,121.2603923,745.8099734,0,37.40500873,-236.0567287,0,0,279.0744823,57.71324577,64.63163885
748.2879995,2923,17.27450536,-12.38782025,53.56370967,-86.4418247,-2.97795658,-216.4139753,-143.9208955,-584.6238583,0,14.26823139,188.5130473,0,0,1536.644181,-26.8263461,173.0886953
748.2959995,2923,-101.2498662,-31.3589309,-29.08349266,30.92982085,42.25049972,12.67066023,182.9605416,105.0813242,0,-83.35634968,-10.41957436,0,0,-300.0556097,12.56064305,-318.0477499
748.3039995,2923,6.387007496,-12.49742648,30.79173705,74.00574742,-5.033453483,258.6423958,-81.25078775,353.41736,0,94.4737278,-88.46398185,0,0,1427.459184,56.03615548,366.2331202
748.3119995,2923,-34.70682578,-10.16412443,6.750709501,-103.5240034,10.27464593,-380.3965421,2.664796118,-751.8050873,0,-70.22403344,254.3350244,0,0,496.439893,-53.40428564,-259.5304944
748.3199995,2923,-70.29022763,-16.8355719,-20.30781515,139.4724835,-4.295828425,387.1824279,109.4970703,742.0882159,0,36.52454371,-218.1002877,0,0,274.3606568,66.20370913,50.38536428
748.3279995,2923,26.67788644,6.937069983,60.07208592,-66.85931361,-29.1534853,-222.7179844,-152.3943531,-610.5504308,0,38.39142503,185.2490754,0,0,1519.190244,-37.24184478,160.6086736
748.3359995,2923,-92.34746188,-11.46201007,-31.67353211,44.06639727,3.888129647,-16.94685105,166.3107187,30.42859116,0,-56.04537318,-31.29821706,0,0,-356.6474822,-18.05414395,-342.493861
748.3439995,2923,3.586165396,-12.88814639,27.72072013,79.0132783,-25.38621667,250.8968025,-92.2036378,311.4041846,0,114.3245356,-121.7178033,0,0,1345.098212,26.46846695,350.0952438
748.3519995,2923,-35.4823528,-17.83493229,6.156147203,-106.0460502,17.00576361,-378.0541927,-4.657314999,-773.2807622,0,-73.12307605,238.6637959,0,0,450.6325625,-67.86833495,-256.0924061
748.3599995,2923,-69.06620055,-15.42251405,-28.73166384,135.5692362,8.647834973,385.4934864,96.19250347,725.4301631,0,28.2929338,-234.1346133,0,0,212.7788419,48.48058331,40.018052
748.3679995,2923,20.31721943,-7.794179172,55.4593294,-80.90965572,-0.617027208,-193.2950322,-169.6675946,-572.9547656,0,39.88390789,189.1956981,0,0,1497.772416,-38.43015332,163.1211421
748.3759995,2923,-105.1108198,-34.08547774,-44.67505997,18.20055751,37.14549668,11.13990876,145.8512093,87.26836133,0,-84.06628813,15.76708792,0,0,-316.5042199,11.04550996,-331.4207861
748.3839995,2923,34.4103341,-7.496659901,42.33392765,29.78649675,-27.30480364,188.3509608,-231.2868671,122.678608,0,140.4912046,-31.30617819,0,0,2060.854696,26.93710715,522.4637191
748.3919995,2923,45.70401103,-4.04748002,86.0524022,-321.4976254,0.334446982,-944.5553434,-274.3267951,-2027.241458,0,-41.32500267,634.0963076,0,0,1740.144904,-169.0429549,-160.1355575
748.3999995,2923,-55.23856681,-21.73657654,1.300649523,-104.9846681,17.8132156,-336.0350636,11.62753238,-661.5947566,0,-66.9620491,222.3769268,0,0,335.1453993,-63.82978197,-310.5128727
748.4079995,2923,46.66442724,-4.295135254,70.22615582,-164.1929748,-15.36406383,-431.3755413,-267.3850616,-1063.479437,0,47.58540183,334.9311512,0,0,1957.026553,-80.99262773,175.3952664
748.4159995,2923,-72.50426612,-22.77121281,-14.47292829,-83.95744908,22.0562026,-291.739908,61.21955562,-539.116628,0,-84.27823844,191.3379573,0,0,64.99089751,-55.13562277,-376.5995126
748.4239995,2923,-78.63046349,-21.14480577,-45.14779985,160.7162002,-2.605549358,517.8902251,105.7470523,1004.967769,0,44.50517317,-280.5122882,0,0,257.7194331,85.20892772,93.40902328
748.4319995,2923,17.10118648,-6.616350977,33.46548711,-99.38781158,-11.47513229,-211.1406702,-155.2966323,-561.5928189,0,42.78170719,200.158094,0,0,1459.799509,-34.90868027,122.4681812
748.4399995,2923,-80.26324168,-24.02768161,-41.10234614,-15.15141155,17.479814,-50.98618326,113.3488817,-36.32789509,0,-65.51471084,40.73751769,0,0,-96.00050759,-13.35680212,-307.7163571
748.4479995,2923,-26.64509784,-4.855050185,-8.57767991,95.52090549,-22.6237775,314.9702893,-9.57898197,558.5874677,0,48.82239407,-163.0733411,0,0,838.875867,39.8219585,185.6026667
748.4559995,2923,3.37973968,4.847934724,32.18725271,-96.1700219,-11.28006751,-306.2379372,-86.80300863,-662.4795068,0,-10.59413216,207.0597213,0,0,980.1792451,-67.4933068,-74.632509
748.4639995,2923,-88.11841454,-24.74429076,-45.60205563,65.11871678,15.79928208,177.3498364,135.7933839,413.0238626,0,-26.65393858,-112.9574024,0,0,-153.8199807,12.57960544,-205.4429336
748.4719995,2923,-0.384767184,-10.46885815,15.91966886,3.747853693,-25.17469025,103.5694875,-115.0207,83.28585481,0,77.39081441,-7.699213899,0,0,1320.442831,6.653847623,244.8761659
748.4799995,2923,-40.53388853,-1.384844381,-6.781153291,-79.67523801,-3.694541736,-268.7627714,35.19921321,-498.1559805,0,-36.59700627,164.6781686,0,0,286.1833446,-63.23335343,-275.5313934
748.4879995,2923,-53.25862252,-11.29433285,-28.33581402,113.9654743,-9.463265417,347.6611359,83.15698748,665.5306991,0,36.53222495,-221.5180246,0,0,350.5725463,22.91950834,50.15341234
748.4959995,2923,9.310667982,-7.470772838,27.03798238,-83.11999437,-20.45540796,-220.262518,-126.8399075,-554.6168601,0,6.388691693,161.3426728,0,0,1289.787414,-59.4209575,76.24699187
748.5039995,2923,-81.31980801,-6.525330081,-45.81473958,32.03781261,-2.810592636,29.06624411,153.4909269,132.972455,0,-55.8971628,-57.14618563,0,0,-298.5902984,-24.48772285,-316.4746532
748.5119995,2923,14.3396616,8.249666212,19.09612652,49.62013744,-38.80383742,203.927695,-85.35386618,253.0021472,0,90.3633589,-127.2407382,0,0,1215.860118,-14.16224198,270.1032803
748.5199995,2923,-41.11692232,-18.17711052,-11.75019486,-108.5273713,8.586799558,-331.9536822,9.627673895,-666.375388,0,-67.77559218,193.3219398,0,0,385.4919494,-84.14261543,-263.4434471
748.5279995,2923,-74.96102395,-24.14696177,-48.93978158,109.484392,0.85645129,373.457132,108.097605,724.0291934,0,22.21017384,-228.5742395,0,0,202.067907,40.57929171,24.18983421
748.5359995,2923,28.14365766,10.23993045,45.84094316,-81.94750488,-29.21491451,-207.2717987,-145.3141277,-551.6122965,0,34.88574064,137.9512079,0,0,1392.848027,-63.44530307,123.1441827
748.5439995,2924,-83.34998809,-8.383939605,-38.15204399,24.41814856,5.329641754,-26.50785461,166.9966427,36.41408928,0,-77.04734558,-51.38952742,0,0,-398.339716,-39.86952837,-365.3591783
748.5519995,2924,-0.684383219,-9.301882791,4.478591651,62.81006731,-26.56138798,249.3408548,-72.67942219,344.6597431,0,93.41126097,-151.3468201,0,0,1213.024877,5.389562093,300.7143774
748.5599995,2924,-36.07916638,-10.29115824,-10.37973308,-114.5644753,4.907042548,-364.9271482,0.08615221,-738.0405778,0,-49.48624128,208.9182977,0,0,426.8694165,-82.83975847,-264.5600252
748.5679995,2924,-72.19697941,-17.23548401,-46.38964525,123.3436745,-0.758010987,374.2203512,115.2590496,719.4477683,0,22.16895158,-255.2663721,0,0,116.6133219,27.79226852,-5.382442278
748.5759995,2924,23.39256773,-4.985864717,39.58422876,-77.00996117,-8.619833818,-172.1015637,-143.1872085,-521.5416521,0,31.33834781,135.9492466,0,0,1428.339413,-64.29725837,145.3279696
748.5839995,2924,-89.51728631,-14.92608962,-47.46377103,24.93226538,26.78023628,0.547531542,176.549162,62.16137911,0,-72.89941479,-8.347462578,0,0,-368.0087615,-17.33617717,-345.4546983
748.5919995,2924,3.424975987,0.428513143,0.889890806,72.90197688,-23.68879625,278.9353088,-76.63695676,404.5061619,0,97.63899392,-136.0140482,0,0,1261.004822,21.45224621,331.7428327
748.5999995,2924,-22.35418359,-5.353945231,-14.27920565,-122.9320338,10.70593159,-371.1280745,-2.219559979,-727.6811717,0,-57.29887609,220.6439269,0,0,466.6866394,-91.25142003,-257.4532324
748.6079995,2924,-59.02824066,-15.16087968,-59.3489756,121.7890344,3.956003096,377.7063368,126.2929568,768.5564554,0,31.26677437,-235.2951908,0,0,143.1535386,34.99332492,7.265083154
748.6159995,2924,30.16772114,1.145580743,30.84884739,-77.20490003,-21.28167381,-186.5212178,-147.3117674,-495.2143314,0,55.10296192,157.5688214,0,0,1500.028825,-53.130479,167.0726656
748.6239995,2924,-82.01085864,-14.51550713,-50.79878123,13.05156344,15.45865896,-28.44681492,177.5907328,58.27606711,0,-59.24701472,-2.443695668,0,0,-353.3390595,-22.78084862,-359.9215282
748.6319995,2924,9.47741,-7.409437051,-3.996181385,72.32689299,-28.24594454,275.4004377,-69.64722395,431.5886296,0,104.6136918,-126.169989,0,0,1279.389662,29.11734713,328.9958447
748.6399995,2924,-30.66240376,-11.51154261,-8.297487741,-114.2243297,1.679178552,-377.4713597,-1.028135866,-723.1731548,0,-54.20890198,246.9157687,0,0,506.5415069,-77.14837567,-250.7971882
748.6479995,2924,-60.14440605,-6.680973101,-42.61909928,136.8768835,-4.994067588,376.8010215,133.8498007,771.0879164,0,35.26662379,-226.0539717,0,0,139.4286391,41.31234116,5.652939126
748.6559995,2924,39.25075676,9.813846338,30.68719524,-59.06489706,-22.31581603,-183.6448949,-148.4341264,-495.052912,0,59.75542388,160.8882664,0,0,1508.070534,-43.35727501,178.0725247
748.6639995,2924,-84.63698506,-16.63227701,-63.0011052,26.43575558,19.34062489,-29.64873112,168.8164161,53.76556578,0,-61.83763536,5.210926756,0,0,-349.3154436,-14.45592693,-352.2328464
748.6719995,2924,9.562155588,-4.90605257,-5.20686946,86.92962332,-18.18932774,284.3150092,-67.37198056,447.5742625,0,104.8115542,-131.9424458,0,0,1276.322769,32.33321445,335.1106301
748.6799995,2924,-27.07696235,-12.89679229,-7.747752742,-105.2341142,21.57367055,-369.5990863,2.734572677,-709.385026,0,-44.67687697,246.0884716,0,0,519.9322608,-68.43822926,-244.2584144
748.6879995,2924,-66.77209033,-18.25857429,-41.80181205,143.6597066,13.40847292,391.5937601,135.8048456,809.8840294,0,46.00797979,-204.2236628,0,0,157.9818038,62.468622,14.80298394
748.6959995,2924,33.69250148,-0.506724668,36.5090679,-56.18135263,-9.759245179,-166.3620525,-148.6354155,-445.7433914,0,58.43190975,197.4765462,0,0,1565.519876,-17.3268823,199.8980335
748.7039995,2924,-85.04511243,-21.07761693,-52.40959055,18.87146012,22.50944894,-23.98318618,169.754244,80.07168778,0,-68.66780455,42.00774568,0,0,-302.0887548,5.369568221,-344.1846149
748.7119995,2924,10.51903824,-5.499505424,8.612898378,83.37020632,-26.96507548,287.275253,-60.71061477,470.4882867,0,115.1044602,-109.2940252,0,0,1288.994534,40.25476426,332.9298865
748.7199995,2924,-25.78947403,-16.06725844,-0.181702828,-109.1163686,16.91991277,-380.506212,2.801445766,-706.6303001,0,-42.89745187,263.9518178,0,0,533.011566,-69.68231669,-245.7755866
748.7279995,2924,-68.44365912,-23.50584138,-37.10613165,140.476028,16.4836941,383.2026837,131.7380699,823.7500667,0,21.13309765,-190.9735371,0,0,154.5620291,64.56642064,9.668680566
748.7359995,2924,35.689623,-1.751265168,40.38457212,-52.90452981,-8.577767571,-175.1309865,-149.372993,-430.4580171,0,35.66385217,196.1655714,0,0,1564.009859,-14.6990421,197.7430975
748.7439995,2924,-82.5810085,-22.33597682,-52.7730924,25.45600545,29.93565385,-42.29246556,168.8656373,79.37191794,0,-82.82867751,33.62776869,0,0,-326.0310134,6.876260589,-353.4159703
748.7519995,2924,8.255607201,-9.33968251,11.48690765,98.73392285,-10.10916863,301.3026203,-73.42797163,520.161665,0,103.6474678,-97.40467012,0,0,1284.752474,66.07114076,345.1076902
748.7599995,2924,-27.17872666,-13.23567024,-4.232473587,-100.088532,17.67155907,-371.7083865,-20.52968244,-669.6865118,0,-48.35964403,296.9638453,0,0,578.0973335,-33.29003641,-221.5703862
748.7679995,2924,-68.36076297,-14.31832393,-49.9754361,138.458221,0.348737844,368.9520824,121.0593326,820.9110142,0,27.42888068,-191.3410012,0,0,142.7532448,72.67674057,-1.136361624
748.7759995,2924,47.12525806,7.587599649,46.68435493,-54.04368292,-23.97778471,-175.1445363,-152.7822701,-429.6552303,0,55.81747534,181.8238025,0,0,1538.374654,-18.47334434,188.2476006
748.7839995,2924,-71.46351855,-14.12886051,-43.38189195,21.17937515,16.20910387,-41.99121588,170.8340372,70.24582249,0,-67.99144645,37.25572372,0,0,-340.7744189,8.157469867,-354.8348983
748.7919995,2924,8.659665729,3.778444647,6.179592689,98.65557789,-18.08086348,299.7570785,-58.15553112,512.7847233,0,97.50069274,-122.1071404,0,0,1243.295115,55.67765701,333.3108975
748.7999995,2925,-15.09080211,2.390838976,-1.869269365,-98.79933626,5.173512948,-384.8908042,-10.74858544,-708.7113185,0,-57.84225853,261.0333801,0,0,532.4019331,-49.23381109,-229.3937642
748.8079995,2925,-53.48459343,-7.009442734,-46.80276598,137.5078092,-20.40072532,358.6327963,124.226589,777.8829421,0,31.53628743,-219.2162608,0,0,75.08437328,61.70085464,-5.806169661
748.8159995,2925,46.1302308,13.73952667,43.66868594,-46.13289808,-36.15492199,-171.1273461,-152.4265779,-452.0345972,0,62.45072585,143.1951089,0,0,1473.854353,-33.67072849,186.2363185
748.8239995,2925,-72.8514659,-6.399525151,-36.10256914,29.20113758,3.664906372,-52.9162797,163.9594632,19.09846186,0,-67.99433066,6.102315859,0,0,-412.5548436,-4.468663911,-360.1439393
748.8319995,2925,13.35699102,6.050902351,20.09667997,98.98003542,-33.96304289,296.9351266,-64.52443439,472.8224988,0,112.2174831,-140.6743987,0,0,1169.608777,54.29953714,334.9921083
748.8399995,2925,-25.18836374,-11.04149861,-3.396354252,-106.3944103,22.79151146,-354.1951578,-8.660815934,-699.2268654,0,-34.1147507,259.3615711,0,0,496.512359,-38.56898782,-216.2841975
748.8479995,2925,-75.23534856,-28.28746486,-60.43816509,127.8442534,8.569444552,399.2695148,126.4693683,818.9349206,0,29.06976419,-200.349575,0,0,60.96654577,87.27104392,12.29407055
748.8559995,2925,33.39256672,6.015880141,42.55342801,-53.92574891,-46.34978691,-161.6794198,-159.0452425,-443.1045767,0,47.21274803,163.3069914,0,0,1487.218342,-17.1091936,203.8346901
748.8639995,2925,-85.66486283,-15.94464156,-37.7055827,17.66333592,-2.761142685,-46.78103342,162.597157,21.46084595,0,-74.51948,17.07629191,0,0,-426.1041466,-2.135705127,-364.825307
748.8719995,2925,45.19706142,-2.596425532,43.24189527,65.32187936,-45.57126331,290.0950757,-184.5065736,349.4798089,0,151.281742,-87.03365374,0,0,1855.562279,52.22997433,537.5479291
748.8799995,2925,11.00026282,-8.249305539,39.90255682,-169.1231626,-13.56098104,-545.486082,-126.5768934,-1155.032557,0,-34.14862985,408.9861066,0,0,1064.425698,-72.38120332,-145.3498813
748.8879995,2925,-131.0196859,-36.89925847,-81.95853282,175.5875162,9.206538136,456.2523475,267.763261,1016.982407,0,-26.78016099,-245.2160382,0,0,-817.8384968,102.8068456,-264.1751507
748.8959995,2925,106.9393545,15.6870644,83.71438629,48.58744426,-73.58779317,286.2394164,-346.6256116,200.0532155,0,223.0209629,-19.661486,0,0,2812.415189,66.41760989,838.6151519
748.9039995,2925,63.28442729,8.952442886,62.18765545,-57.81325892,-49.6727495,-123.3702715,-240.6459313,-469.1019227,0,95.87032047,189.8380142,0,0,1946.656085,-3.030199934,353.1110866
748.9119995,2925,-46.6231299,-17.14063224,-20.66907013,68.39705008,-14.75280703,191.7252168,49.87956456,352.0622329,0,26.40094348,-50.90568403,0,0,338.0836808,55.45811827,-12.35829493
748.9199995,2925,-30.47569171,-6.660548731,-4.681058762,-40.62261728,-11.13295844,-176.3631864,22.97543961,-347.3943713,0,-30.9094226,151.7958206,0,0,308.1874481,-13.29647972,-206.2728042
748.9279995,2925,-33.43393028,-8.695783414,-21.28622395,98.10942499,-17.99515759,274.1790432,42.98591176,503.4983355,0,40.10716772,-130.9246211,0,0,436.07552,49.98349712,58.6739719
748.9359995,2925,-4.542119141,-9.015737289,0.530082407,-40.2845881,-17.18616856,-112.3834737,-68.76263955,-301.7169137,0,19.52620178,120.4902876,0,0,887.1951032,-8.28084923,20.80436703
748.9439995,2925,-66.31580255,-17.1315003,-48.17238866,12.76596892,-11.45851658,-9.631024683,108.076705,42.55993713,0,-48.368683,7.66919257,0,0,-192.3619238,5.760296789,-274.3832152
748.9519995,2925,-2.666989333,-6.284799557,-2.916208162,73.3111926,-32.5207807,246.5614956,-60.04138119,377.7269909,0,78.79572127,-116.0583229,0,0,938.867359,35.77201219,228.2817208
748.9599995,2925,-41.11256592,-17.76302341,-16.66756699,-92.89310389,14.67968742,-297.285966,3.94096262,-582.894121,0,-48.24557095,205.6867167,0,0,304.4668307,-44.19883854,-246.5719334
748.9679995,2925,-59.94791889,-18.31100847,-48.33593129,114.143633,-2.112424763,337.7972343,100.2100741,675.5837205,0,17.85054422,-187.7069901,0,0,52.42988833,58.39964592,-13.63472893
748.9759995,2925,23.82100211,-5.810920136,25.54543639,-39.88548303,-15.59692521,-127.6432799,-133.1291114,-383.1253655,0,36.65465554,130.4944272,0,0,1176.182754,-25.34511516,125.3704674
748.9839995,2925,-88.60156435,-34.54368044,-50.52808271,10.20023833,31.03220499,-18.98244478,139.9563751,36.59969278,0,-75.62490702,40.17970006,0,0,-407.6750416,8.859452539,-335.4940638
748.9919995,2925,1.675850545,-8.43885637,2.195445692,84.62650918,-18.2801671,311.941662,-59.08543939,494.7371827,0,85.63685045,-107.7067951,0,0,993.6521714,62.95819843,291.5847561
748.9999995,2925,-25.84594309,-9.513494713,-2.410663299,-98.39042281,8.203098625,-342.8738011,-10.62087516,-679.3548482,0,-43.36251901,245.7656055,0,0,379.8991419,-52.82751272,-225.0472175
749.0079995,2925,-90.57992692,-37.34864043,-57.88127462,117.8424057,8.935955581,369.8879992,131.3490884,756.495318,0,0.992673598,-199.1841499,0,0,-77.70012446,65.85033333,-21.25044016
749.0159995,2925,17.19494687,-17.49640945,28.32745249,-54.85342929,-19.00122693,-123.4354115,-144.1288703,-375.3371621,0,32.33993213,145.5902388,0,0,1310.153368,-11.50357712,185.7156917
749.0239995,2925,-87.87320665,-29.74482442,-56.03340034,10.08305427,25.32477115,-51.04176569,161.3409228,7.927504481,0,-65.82624616,30.1560907,0,0,-490.3459814,-2.854183333,-357.6423367
749.0319995,2925,-11.01373703,-14.56230608,-9.647406151,88.42848183,-1.596837641,335.220754,-45.34649047,554.5636006,0,99.27533924,-135.4591169,0,0,989.6794931,62.78495479,322.5110392
749.0399995,2925,-26.92423211,-10.2784037,6.78266351,-108.9526234,22.8364195,-349.6085826,-15.99246596,-670.9814614,0,-56.56244989,275.4273892,0,0,439.9913227,-34.87843968,-197.8471255
749.0479995,2925,-70.12318178,-21.38438637,-50.85540179,122.2184609,2.861420411,364.2915786,131.973226,794.4952078,0,13.80856831,-189.4422217,0,0,-107.0473313,71.50819448,-23.45170798
749.0559995,2926,26.15041667,-15.41462153,13.36357378,-70.07237012,-28.66727084,-140.2438635,-163.8488168,-373.7127236,0,51.38922158,147.6899316,0,0,1341.653762,-25.5316739,195.6470952
749.0639995,2926,-108.2878054,-53.166932,-63.04076586,-10.27609792,18.30913378,-65.90423225,144.5356961,21.17056944,0,-100.4374065,34.76394462,0,0,-513.4184344,-15.29126975,-380.8967623
749.0719995,2926,-12.86986219,-30.07836579,5.177007365,85.46552289,-16.52773126,327.6596163,-57.58753408,582.8820983,0,61.49029908,-136.4500192,0,0,996.4785755,55.39441624,305.4165977
749.0799995,2926,-15.11710498,-13.91891565,9.701104641,-120.7838754,8.489320387,-377.2024837,-19.61433598,-695.2022098,0,-63.38790144,264.1536219,0,0,424.6781506,-54.70198258,-225.6343939
749.0879995,2926,-80.37880036,-35.29508074,-56.5024637,107.1044582,8.058482342,355.9325747,134.2554012,800.1910316,0,7.682731167,-222.8212113,0,0,-174.7871715,50.96232587,-57.07723936
749.0959995,2926,19.0405207,-19.21370017,19.38320483,-73.16927032,-13.74430798,-135.3833748,-164.0451456,-346.156396,0,34.35011523,136.3072014,0,0,1337.761524,-21.26356096,192.655457
749.1039995,2926,-94.69961555,-33.91932168,-59.97760053,-11.36575453,16.14783268,-75.09097613,148.5051943,19.84791377,0,-96.68878395,41.01073443,0,0,-527.962023,-3.149554191,-382.3145959
749.1119995,2926,-2.530525075,-16.1726094,-1.973127985,82.1103219,-34.5610053,313.5774449,-67.96544746,566.9599856,0,87.16864012,-159.0494164,0,0,946.4956357,45.99275274,297.9018666
749.1199995,2926,-23.77835983,-22.50784313,2.73337708,-120.91003,1.885725515,-390.3371739,-35.95613417,-714.5679348,0,-55.18512731,242.6046384,0,0,382.4290921,-69.79726151,-230.5335633
749.1279995,2926,-85.31342755,-40.42231964,-52.43815675,114.5696009,2.194214603,346.0578601,135.2943877,785.9106582,0,2.510291318,-222.2666672,0,0,-213.649475,51.79749904,-54.24899654
749.1359995,2926,35.72368018,-7.576845514,31.4288045,-66.73977503,-35.72699707,-153.2489961,-168.5451323,-386.4453499,0,52.23367513,127.4555473,0,0,1305.275175,-26.52786372,195.2898776
749.1439995,2926,-85.04484015,-34.42434228,-52.53910743,-10.36293748,5.672708905,-91.3405936,138.5444219,-31.15398289,0,-76.09866257,21.3427931,0,0,-590.5782211,-17.41604471,-397.5552467
749.1519995,2926,-12.57940062,-30.5258187,1.29945956,90.7948643,-29.58806204,319.4266724,-66.80273295,558.8633592,0,75.99437797,-168.5628468,0,0,889.0869126,50.12409891,291.3227699
749.1599995,2926,-28.61851544,-28.03404238,0.158235112,-114.1532058,1.494670119,-384.0766581,-42.6994299,-716.4604775,0,-75.35447232,260.8201754,0,0,375.8978463,-46.91136225,-220.447965
749.1679995,2926,-84.84485874,-42.36542593,-56.76380895,114.542682,-4.762833757,351.7922757,120.6510928,786.5883363,0,-8.408953542,-203.0161886,0,0,-236.6051156,67.96831551,-53.14966583
749.1759995,2926,22.86019172,-20.24657561,34.25394886,-61.8963047,-34.60520972,-137.6679791,-172.8116413,-366.4854245,0,34.56281145,136.6036225,0,0,1287.677845,-19.67181614,202.5091217
749.1839995,2926,-103.9672345,-51.54819794,-62.88076319,-15.93623535,12.25486459,-82.13398972,139.5169197,-11.77110009,0,-97.17420605,53.91116221,0,0,-577.7115916,2.068816389,-376.005207
749.1919995,2926,-20.71623276,-43.41390997,-24.64218012,69.27545703,-31.65195408,324.7724197,-69.71199047,585.8939763,0,66.57856599,-142.840857,0,0,901.1031688,63.37442576,309.2763676
749.1999995,2926,-26.78936711,-25.94288302,-14.40119702,-126.7636626,-7.481750078,-396.8471065,-41.63775816,-723.2008945,0,-82.73343399,260.5254057,0,0,379.5936503,-59.78091902,-220.6857114
749.2079995,2926,-89.73931741,-37.81071549,-68.56938091,110.2266558,-11.31979432,335.5457394,127.627845,769.8985066,0,-7.320496716,-205.2513572,0,0,-257.8326009,55.71239016,-59.36451507
749.2159995,2926,19.6316364,-21.97579595,23.34216506,-76.22920465,-37.29269652,-141.6512985,-167.5561032,-363.2522444,0,40.37955122,138.6720655,0,0,1286.582182,-26.36594302,209.096359
749.2239995,2926,-92.16349313,-32.79171525,-53.61591909,-19.47125547,4.719889851,-103.5582393,151.6948059,-38.79288921,0,-107.9947057,55.6232291,0,0,-587.07009,-14.56685113,-381.0784696
749.2319995,2926,-11.27891795,-22.53817838,-10.26881318,84.01530159,-34.21068915,317.2750992,-59.22960375,573.7808642,0,70.55469521,-148.1912878,0,0,864.2369893,50.18018292,306.478987
749.2399995,2926,-21.39765645,-25.03120993,-5.125871646,-126.2272581,5.322308924,-384.1427442,-39.63717991,-712.5641702,0,-66.09931653,263.3383333,0,0,370.0162214,-57.74674873,-204.086078
749.2479995,2926,-84.90242685,-33.72471852,-56.33828247,117.5692316,7.709683531,351.0580135,141.3313883,795.9043307,0,-14.36110561,-197.5204761,0,0,-271.2160394,66.90712866,-45.72194219
749.2559995,2926,23.34306539,-10.89659937,32.87094324,-43.27055607,-16.23037832,-119.6458816,-158.1147038,-320.7260944,0,33.7973541,149.4571996,0,0,1291.943578,-9.533863285,230.0235661
749.2639995,2926,-82.90043725,-25.63165323,-50.51042712,-2.394350364,19.30719783,-98.45087546,148.6171087,-25.86752995,0,-101.9822853,69.66012206,0,0,-584.260097,-0.899237092,-368.6586839
749.2719995,2926,-0.980095048,-11.64301594,-3.195742519,91.63572357,-33.42727044,312.9431232,-56.26599169,575.2035166,0,78.75291843,-152.7218348,0,0,835.0934352,51.17468624,303.6935268
749.2799995,2926,-17.18912474,-14.38319982,3.885568468,-106.9654635,4.883581956,-395.65393,-40.23760448,-728.520597,0,-46.74126191,260.5769988,0,0,349.9474111,-67.39950118,-205.9758553
749.2879995,2926,-78.42278717,-29.1646883,-56.11230083,126.0238619,8.880550789,335.8190027,131.9589526,771.9009124,0,9.880962936,-198.9709151,0,0,-316.5225545,53.43587367,-53.51448769
749.2959995,2926,37.01662296,-4.005185547,36.71549354,-47.33527837,-19.13349976,-122.8073196,-166.7259845,-337.3809433,0,57.40764599,136.5439298,0,0,1247.552419,-21.98263273,229.3488611
749.3039995,2926,-79.11312248,-21.39158244,-37.50818103,4.452581832,19.83129539,-90.22596802,145.8202084,-38.02681612,0,-82.10048214,70.72344449,0,0,-614.9429186,-3.48634277,-361.043905
749.3119995,2927,-4.082651181,-11.7811078,4.186079667,102.7036035,-30.46829172,336.2771691,-62.38277305,598.8156939,0,84.06673534,-141.0669931,0,0,814.2302307,59.82459195,321.9466679
749.3199995,2927,-17.81945733,-18.79197494,-1.272249463,-114.5157388,4.999309307,-376.0935237,-47.32792691,-706.4013832,0,-51.75882658,274.7763089,0,0,355.8088723,-60.4254856,-186.2521294
749.3279995,2927,-87.3486732,-34.53790634,-66.87488308,117.9807587,-1.286602154,345.9228058,138.5612504,787.9078498,0,6.864210462,-187.7391987,0,0,-326.42053,58.72847848,-45.10032721
749.3359995,2927,26.17896695,-5.705704197,25.35883003,-52.02072657,-46.8733322,-131.2132017,-169.7904191,-331.523651,0,61.83658746,130.8582209,0,0,1233.219119,-25.92439509,237.4476004
749.3439995,2927,-86.09120729,-34.06746396,-57.20634459,-13.98008178,4.213519271,-109.3752467,142.7945996,-42.60778498,0,-78.39168738,55.31113111,0,0,-656.8651883,-16.82066421,-367.9213437
749.3519995,2927,-10.93146895,-23.88406988,-9.915714953,93.12899498,-26.81090513,334.936426,-40.05513836,624.6639028,0,80.82259798,-150.6785618,0,0,761.3288986,62.68870084,318.3548826
749.3599995,2927,-21.63576783,-15.6138807,6.844449644,-109.8074595,5.872403886,-386.7746288,-29.15715758,-703.6067901,0,-64.96416785,276.2170431,0,0,323.9183077,-48.02188274,-182.4042542
749.3679995,2927,-83.97808138,-37.15188391,-53.21618098,117.4544031,12.3117292,346.8521949,149.8914616,798.1611943,0,-12.38337686,-182.585779,0,0,-384.0561173,75.59918799,-52.07428993
749.3759995,2927,37.60283004,-6.47951444,33.15431865,-61.45333463,-32.84225982,-116.7638681,-161.2133046,-312.1484121,0,50.021931,142.2445406,0,0,1203.271756,-4.996059031,237.4077539
749.3839995,2927,-76.29842744,-23.27806915,-56.00105871,-22.95231944,4.29058927,-117.9924851,140.9610199,-73.77909531,0,-85.19069528,60.1224402,0,0,-687.0803287,-15.1267121,-381.9884683
749.3919995,2927,-3.530220212,-21.9265443,-11.65058397,92.2015351,-24.04149846,339.7345164,-48.50636195,610.4690006,0,77.36683933,-163.3296263,0,0,711.5546227,55.48790001,302.42217
749.3999995,2927,-5.688145026,-11.53215925,11.12387774,-114.9143336,-11.18404097,-397.8450357,-45.02152844,-744.0328725,0,-55.94563655,265.8622989,0,0,302.2021305,-62.8687128,-186.3126166
749.4079995,2927,-68.66867564,-26.49777047,-49.01890939,113.1505926,-16.64199381,309.5877683,142.0595987,723.2696474,0,-1.12589869,-212.9567716,0,0,-455.6079638,33.22213756,-77.12276414
749.4159995,2927,39.50295509,-5.735752641,35.26995131,-52.94886254,-32.48201121,-128.5442354,-158.2631087,-341.1062184,0,47.30137509,112.0688086,0,0,1137.855168,-38.0976227,227.1524005
749.4239995,2927,-75.6631432,-21.20846264,-45.6963628,-13.63147522,14.89756444,-129.2906456,148.1995986,-100.1262004,0,-86.39880742,63.15626605,0,0,-719.5437025,-19.91246197,-368.83627
749.4319995,2927,-4.405726206,-20.75574915,2.05013509,94.36724446,-20.36007619,326.1151076,-42.9753503,585.2131061,0,86.49711518,-172.1734311,0,0,646.9243276,47.14142039,308.5018092
749.4399995,2927,-18.5854816,-19.08095786,17.12423451,-117.5451554,7.880240414,-394.9747931,-50.77416209,-743.2320285,0,-63.94576508,271.7296409,0,0,271.816659,-57.560906,-171.2241446
749.4479995,2927,-79.69513569,-32.96171527,-45.06824109,115.0158223,10.94030397,330.8911856,133.4014641,754.7184136,0,-16.97609486,-175.5521421,0,0,-454.8708267,67.2369285,-48.8542524
749.4559995,2927,41.14545139,-9.742477293,46.73091425,-51.39695339,-24.21310883,-105.9710059,-172.7425452,-315.3446441,0,41.92528266,140.0163217,0,0,1144.752161,-12.12487141,251.4658167
749.4639995,2927,-83.96084655,-30.0153906,-45.04962489,-24.95889474,10.82892138,-124.4476711,127.5594293,-105.3105562,0,-104.1319718,85.25593894,0,0,-723.5356223,-10.34158311,-366.1161812
749.4719995,2927,-22.83048123,-32.66121559,-21.35925548,77.35395067,-20.76784499,335.7043532,-57.53012779,595.7698653,0,63.90451649,-159.7163001,0,0,639.0481232,58.10149581,309.3686977
749.4799995,2927,-11.79869161,-18.46319642,1.412434978,-130.2019175,-1.526757154,-402.2033611,-56.95171455,-769.9939962,0,-70.86005087,261.6504133,0,0,264.5266675,-63.93824496,-176.2488295
749.4879995,2927,-69.71296341,-25.30679927,-44.94511176,107.2821083,-3.391518273,307.8406176,133.5849562,700.3816642,0,-14.37794348,-206.8891067,0,0,-523.5074201,37.60110049,-78.63836922
749.4959995,2927,34.48944429,-4.859141526,35.22853346,-56.71311587,-23.69412188,-116.3275818,-174.3720189,-345.9991566,0,48.76334915,109.9757188,0,0,1084.81191,-30.82919026,235.0638489
749.5039995,2927,-81.852523,-24.45033353,-54.97211467,-22.9534455,19.06871035,-133.128721,127.3839385,-137.2822977,0,-92.02719885,63.91795119,0,0,-770.0393436,-17.63259332,-374.7285853
749.5119995,2927,-21.6210962,-34.27575998,-16.72717596,77.19160794,-16.48398195,343.5737624,-63.65709475,602.6398469,0,68.11490335,-174.8394689,0,0,583.4123227,58.97833867,306.957608
749.5199995,2927,-24.39547353,-28.29850064,-7.883494719,-146.2511482,-2.363669644,-392.996227,-72.63482767,-752.9567937,0,-81.43660048,264.1284852,0,0,248.1652886,-52.63664586,-167.9460666
749.5279995,2927,-85.65583539,-39.58914233,-71.38155126,92.97841615,-8.073052342,311.1824557,128.8988664,712.5063641,0,-24.8120144,-212.8534481,0,0,-552.7084704,42.59692854,-82.3459475
749.5359995,2927,22.34092235,-23.17141113,18.97291537,-66.041306,-32.94360479,-102.5612371,-182.1863159,-306.9101671,0,34.74309279,100.7417918,0,0,1074.670885,-26.00598925,240.480494
749.5439995,2927,-86.83951261,-25.76595152,-56.53513452,-29.84484137,4.840372027,-129.4510239,120.4067561,-112.3666453,0,-103.2423136,72.2876169,0,0,-759.4727951,-7.100152609,-370.1461969
749.5519995,2927,-11.71106904,-12.65554508,-11.57818448,87.71016206,-32.65871662,340.6734363,-52.22281486,608.7556561,0,86.48717762,-183.5167505,0,0,562.936009,58.54315604,300.0947837
749.5599995,2927,-8.73024329,-8.507210096,11.27315518,-127.5464119,-15.46673057,-402.2192495,-65.01015399,-771.2530614,0,-58.49950417,243.7408538,0,0,217.4502446,-65.68316775,-174.9539543
749.5679995,2928,-79.64225866,-24.12507774,-47.83531839,111.4296614,-14.16501984,302.6655739,130.2571822,693.770181,0,-16.00519075,-225.0250948,0,0,-606.9656165,36.58727532,-90.1232841
749.5759995,2928,25.671542,-9.866028325,28.77018322,-54.99456971,-28.53926283,-100.4765649,-177.7794466,-309.5045835,0,55.83156247,88.97567412,0,0,1031.282873,-25.06701397,249.337403
749.5839995,2928,-86.58746481,-20.15201941,-58.04652625,-37.40999609,9.623382071,-136.953232,121.3845036,-131.4953292,0,-100.6533859,70.99400006,0,0,-791.3100982,-4.735053449,-357.7244324
749.5919995,2928,-19.12972246,-15.01484868,-19.22716831,83.82633788,-30.35561248,344.7004393,-55.34797939,615.8198396,0,76.22881338,-183.8900314,0,0,526.1932218,63.62275773,309.4554714
749.5999995,2928,-20.67384469,-20.06339913,7.99344624,-121.7919791,2.691720378,-380.8298878,-58.08907997,-734.8320285,0,-41.24012559,254.9484723,0,0,216.8710678,-53.36376846,-153.5821812
749.6079995,2928,-86.83523397,-24.87922764,-46.63803197,108.6125142,2.244792416,322.0132718,142.5023919,734.9597429,0,-13.91118876,-188.0518238,0,0,-586.8863061,67.06872545,-61.68213904
749.6159995,2928,28.92598554,4.327053492,25.77923505,-59.29674429,-30.50444869,-86.78916856,-175.6208249,-277.9056304,0,45.27283808,111.6591348,0,0,1058.157392,-4.527221384,270.9490031
749.6239995,2928,-87.51741904,-14.91748202,-58.11922568,-36.33267311,4.423661284,-141.8172274,125.4297192,-129.9733737,0,-97.77159536,72.57388604,0,0,-791.256174,-8.817498654,-362.2866542
749.6319995,2928,-22.12105402,-11.5994191,-9.941452185,85.63625508,-34.88873701,335.263753,-53.30513266,623.7295051,0,83.38248139,-181.9421424,0,0,510.3755895,60.70341968,301.3509291
749.6399995,2928,-14.55381483,-2.767982617,16.90747969,-122.1999592,-1.596925021,-399.4373779,-62.66939129,-751.1671882,0,-26.45486543,258.1151909,0,0,213.422198,-60.0955138,-158.8064707
749.6479995,2928,-127.1853849,-13.14945453,-80.1206489,251.8106509,1.100481761,714.9573459,275.9312667,1579.386042,0,21.41713499,-473.0205237,0,0,-1157.844934,118.5879459,-48.47960044
749.6559995,2928,24.78115396,5.290946581,25.8184213,80.83022726,-34.60315945,349.2527423,-153.8847659,556.1212292,0,138.7541504,-161.7700036,0,0,1178.197603,53.87838966,531.7908598
749.6639995,2928,-37.69776592,-16.95506222,-9.145034958,-204.1202034,30.28571244,-643.1852282,-25.81002186,-1182.41978,0,-112.3130685,434.8321381,0,0,-156.884022,-90.85609881,-399.2775879
749.6719995,2928,-87.70388158,-21.86292711,-61.63568594,141.5751045,-3.695335704,451.8693771,123.2465096,976.910228,0,3.13416849,-237.368493,0,0,-476.3799201,92.20924285,42.55706446
749.6799995,2928,23.25238746,10.06728083,32.12180413,-28.11398572,-34.68382611,-61.29396242,-149.0776824,-179.5850134,0,50.00572131,99.61344593,0,0,884.207688,0.032364969,238.0661534
749.6879995,2928,-51.59215172,-5.301015304,-24.55534566,-74.71594833,12.34913213,-298.7502593,68.39009285,-448.8308257,0,-75.15628116,174.5281349,0,0,-508.8888049,-47.52537924,-325.8451784
749.6959995,2928,-36.59077865,-4.110879482,-29.93843288,110.6353946,-13.55122609,363.6611758,41.86856146,748.7432809,0,47.47114598,-232.7476728,0,0,-0.689466681,45.92310717,173.7399582
749.7039995,2928,16.63628175,11.26474082,32.45583625,-100.3014184,-11.76532107,-314.5054235,-113.3882941,-639.6053678,0,-7.830023999,208.3608053,0,0,538.4990779,-61.01872809,17.40108797
749.7119995,2928,-78.12712246,-17.85543267,-37.56039245,28.98054775,22.52155736,35.31436649,126.7987119,188.2276571,0,-49.46938356,-16.158618,0,0,-717.6862056,15.03258703,-216.8478172
749.7199995,2928,-3.336541604,-7.995665097,7.101417392,46.67465812,-2.485534528,206.0010629,-61.72828208,346.032236,0,57.74882136,-65.23511063,0,0,534.5597644,50.83050872,273.8582404
749.7279995,2928,-12.62848701,5.218293627,10.05321826,-110.5085049,18.51864594,-358.4900907,-9.467778631,-646.3944565,0,-67.606981,247.5723354,0,0,-35.32479769,-36.75424385,-188.1905039
749.7359995,2928,-56.79170741,-12.89544979,-33.68193771,108.4260745,12.97635842,293.9867828,119.2950399,675.1256264,0,6.471458907,-185.1314347,0,0,-475.0101491,60.99041325,-2.659245042
749.7439995,2928,28.07950231,-6.310242669,42.08682174,-53.23600663,1.024905667,-154.0437854,-139.808061,-366.9041988,0,21.08466158,144.9466751,0,0,805.7098361,-5.351261567,194.1813424
749.7519995,2928,-69.23977083,-16.35295189,-19.57476242,-4.662666901,34.29882055,-100.2086585,128.0508241,-48.39521391,0,-95.61126791,85.03683261,0,0,-759.6751732,29.51817714,-280.6644853
749.7599995,2928,0.124739291,-6.797767331,13.30440648,91.25318118,-2.891692442,284.7014135,-33.75710544,538.9945054,0,58.85099579,-119.4310825,0,0,428.8819131,82.88137918,304.9764356
749.7679995,2928,-1.889440136,-2.187732017,14.98939671,-113.5088343,23.83790796,-383.819067,-39.78003417,-703.3511847,0,-73.92608676,270.0520887,0,0,129.3484247,-30.24207738,-126.8609438
749.7759995,2928,-71.64379274,-14.91292024,-45.70231834,102.7434441,15.81611646,272.2366961,148.3894787,671.0219374,0,-16.34245412,-177.7932595,0,0,-645.4000823,65.68469714,-53.02525249
749.7839995,2928,34.9012411,1.409832048,39.46321063,-44.29848778,-16.38819842,-123.0419361,-146.7244689,-301.2772013,0,46.54853021,94.95487221,0,0,885.6909977,-15.41910701,252.7426531
749.7919995,2928,-60.87660071,-8.438661849,-29.14400567,-22.13308503,30.50456452,-159.2257573,139.0285109,-146.9606007,0,-114.8995268,81.1333303,0,0,-845.2946112,-3.13327585,-326.8194303
749.7999995,2928,7.170449922,3.226698626,10.7781097,94.90405376,-9.945182447,305.1655245,-26.18701048,595.2736123,0,51.48671356,-167.6579518,0,0,366.4004389,70.58082854,307.0742688
749.8079995,2928,2.102818578,3.079724422,27.86936958,-120.2057582,22.98250457,-416.1190344,-54.786319,-751.3743721,0,-65.51378687,249.6333434,0,0,133.932549,-52.01694561,-126.9558763
749.8159995,2928,-71.60638825,-14.1498029,-32.96275213,113.2332463,38.56195074,274.1813239,158.0031975,687.6903809,0,-23.52521142,-189.8869045,0,0,-734.5021804,62.27448404,-70.68130767
749.8239995,2929,41.0266216,10.50755486,61.35564596,-31.65425187,-8.323919145,-103.2777765,-157.2107608,-265.012618,0,51.00466901,94.84926737,0,0,916.7246568,3.465963231,286.9563153
749.8319995,2929,-69.89211093,-0.109246828,-16.70700291,-29.46257188,27.07452525,-180.6753137,129.6164095,-181.4784583,0,-95.89592972,88.08956234,0,0,-879.3359863,2.948439512,-336.8416375
749.8399995,2929,37.3162618,10.10519215,37.5870577,95.84882895,-19.76390379,369.3059552,-128.1380189,626.1337499,0,129.8599405,-183.3624876,0,0,1021.10449,80.29663904,550.3781681
749.8479995,2929,111.7322356,20.28402118,108.2829026,-264.9752996,-10.5901102,-764.4962238,-360.1007233,-1640.200474,0,10.35753068,526.7497863,0,0,1838.333519,-105.8048821,247.9483478
749.8559995,2929,-9.535750761,-0.455164178,13.2652107,-122.6169116,22.01100909,-406.5032393,-29.80976767,-712.7244243,0,-72.50445141,253.0716403,0,0,32.9099476,-40.28361023,-162.8258647
749.8639995,2929,12.5082499,3.895266612,26.0991222,-11.71900904,-0.632161911,-23.67251912,-76.737449,-47.99164501,0,24.50311087,35.36399244,0,0,497.5415763,17.19713868,182.8244878
749.8719995,2929,-72.93126336,-8.319668897,-32.51551168,24.61971653,21.21446306,4.373504179,142.5104535,190.5173823,0,-77.09142925,-30.64167474,0,0,-848.9481146,22.8505841,-243.4570235
749.8799995,2929,9.653145894,6.725648064,18.98302436,40.56739693,-9.418009437,137.5347692,-47.63688103,278.2710148,0,42.85341688,-67.68057074,0,0,347.1924065,39.92963015,215.9871397
749.8879995,2929,-0.083476454,3.235659041,21.4977319,-71.55164051,20.76618469,-271.5174568,-15.60217277,-458.6507331,0,-41.20722349,177.0576037,0,0,-21.66438703,-25.69723392,-110.9465358
749.8959995,2929,-63.30985906,-1.409541182,-34.08237185,111.529058,21.65668149,260.7919835,149.2877516,659.243449,0,-4.102061858,-182.1221337,0,0,-725.0744158,52.33770299,-76.48165727
749.9039995,2929,48.09375179,32.12653133,43.93497831,-37.66517915,-13.82057682,-139.1110449,-144.6612168,-325.9140837,0,67.18670797,101.8426675,0,0,803.3718464,-17.18051316,237.3470144
749.9119995,2929,-63.99611938,-2.218855152,-48.38676866,-5.281009776,23.56134704,-110.290027,141.6560983,-40.94084816,0,-83.94892103,17.81321749,0,0,-955.6210087,-8.941483138,-322.4588409
749.9199995,2929,-4.445625038,-0.280403435,-9.740496941,82.69670056,-17.2951601,268.0554633,-37.10176079,519.0283316,0,63.7282392,-189.0007514,0,0,257.5065743,39.44878847,253.2272615
749.9279995,2929,-1.204742773,12.508238,13.78422227,-98.63079826,13.25159949,-360.4753612,-53.14011348,-665.405495,0,-19.93255347,201.0369567,0,0,51.50635375,-55.06616988,-125.2244891
749.9359995,2929,-72.20321832,-14.98560396,-62.33173376,100.8030257,32.77346401,281.1193258,155.2013421,682.9554265,0,-10.1145483,-202.9428188,0,0,-823.9627988,52.16315371,-93.65584138
749.9439995,2929,40.84330631,0.84128488,23.65747944,-48.90302919,-4.892031007,-75.11797801,-154.9007762,-226.5981093,0,53.58819381,75.54473076,0,0,849.0644793,-0.233870049,273.5304254
749.9519995,2929,-72.5420816,-13.00482037,-44.24017487,-36.3371923,17.74651579,-157.1894335,128.740648,-141.5208337,0,-82.33710039,62.45403464,0,0,-932.804907,-5.056675147,-346.9724079
749.9599995,2929,-11.47384642,-11.11674501,-12.76272134,86.15202732,-15.88847082,331.0083357,-23.74077762,636.9195126,0,84.54627155,-201.5263049,0,0,239.7065434,58.9480652,274.7895904
749.9679995,2929,-7.421319371,-4.906297561,7.164246377,-119.848457,17.69300125,-366.0324775,-54.97214399,-683.6928438,0,-29.41427308,232.9795263,0,0,106.1931579,-44.50711031,-119.6078451
749.9759995,2929,-89.0613529,-21.01633719,-70.80919001,96.15305225,15.51038848,274.6720081,155.9782501,684.4660247,0,-30.71014922,-198.3419428,0,0,-842.8064186,57.37122203,-111.3357266
749.9839995,2929,30.53601145,-5.694835461,14.72768832,-43.35410889,-16.85824824,-59.10401856,-161.7061717,-192.4856791,0,52.76921767,62.44905589,0,0,860.1660966,-2.496380845,278.3770817
749.9919995,2929,-70.72864417,-8.449894564,-46.87088971,-35.15641395,14.92505969,-178.7886406,126.3585124,-184.0631066,0,-86.40323302,71.73035127,0,0,-936.2632758,-15.38893862,-365.222698
749.9999995,2929,-0.006810054,8.40571451,-6.875060248,108.7228763,-27.86864294,341.4302412,-15.12859237,657.7093779,0,80.92160913,-217.2050359,0,0,218.6695052,60.55957167,276.0206543
750.0079995,2929,2.80905771,-4.900025347,17.2950055,-121.7293671,11.77076712,-373.304539,-51.56797636,-709.6996719,0,-20.98929533,240.5504885,0,0,116.9089893,-43.44803281,-111.2822532
750.0159995,2929,-86.98885903,-25.06677378,-59.7619614,94.94222762,8.998141097,276.3080972,174.9435191,685.9911402,0,-17.01008715,-200.5135127,0,0,-867.6859363,56.18840551,-112.2864469
750.0239995,2929,32.80878804,-0.382937359,23.59374423,-27.1059591,-26.0400756,-54.68796406,-141.8805238,-185.0973818,0,58.88870848,59.3932939,0,0,865.3028019,4.001911841,289.3345194
750.0319995,2929,-72.91040596,-18.83629274,-50.62117876,-31.51033336,21.86830087,-173.397358,138.5573496,-180.546376,0,-86.05644781,89.37030704,0,0,-919.0756846,4.562430332,-352.8573909
750.0399995,2929,-11.28928631,-11.26618174,-17.55377034,106.8884274,-20.12032457,358.8524788,-6.881863064,698.7008473,0,65.04978407,-210.3212292,0,0,223.2521595,83.28540099,283.1856685
750.0479995,2929,-2.631895046,-17.20400476,9.914029413,-116.883949,12.22646104,-383.5347207,-54.49340633,-714.5656395,0,-52.91470639,243.2106958,0,0,132.0548299,-34.32675913,-117.2005338
750.0559995,2929,-76.94437749,-22.67608329,-60.11484101,103.8274748,18.73926731,271.6270831,173.9341468,683.8510867,0,-21.04980891,-201.2592519,0,0,-884.4972618,65.00417718,-123.1986244
750.0639995,2929,44.92150725,6.68976843,26.16390233,-25.6547889,-16.36123224,-52.09532752,-145.3365687,-182.2822663,0,70.25313804,55.01423197,0,0,852.8416838,14.09314928,288.0555822
750.0719995,2929,-75.10829992,-27.03838528,-51.51906728,-29.71769951,22.24429617,-188.0289009,132.56804,-209.017439,0,-89.83509333,85.39017277,0,0,-939.965938,4.661663607,-365.2837981
750.0799995,2930,-10.85343966,-9.276042592,-3.801687588,126.797153,-20.28291169,357.8302525,-2.452820002,693.6958941,0,74.35913968,-213.319877,0,0,192.286722,86.10196065,273.355393
750.0879995,2930,10.48755298,5.476634251,26.81246289,-96.31741637,15.97465814,-385.3415624,-43.8789652,-728.3978018,0,-29.30781074,246.3615836,0,0,125.0232386,-27.55563334,-112.8755988
750.0959995,2930,-82.04714877,-19.48487033,-63.30389876,112.1165059,29.6274373,268.7323466,182.6938322,680.6116878,0,-3.327229551,-201.1456286,0,0,-915.940005,71.74312321,-123.2663362
750.1039995,2930,34.11465322,2.067306236,26.62560968,-22.7313359,-7.402591962,-48.22597478,-146.3791944,-162.0387477,0,72.19288797,67.39181592,0,0,849.3907932,26.52977375,298.3084428
750.1119995,2930,-66.93189069,-16.94367404,-48.54314464,-37.3750318,26.88132758,-195.5087592,132.1462067,-215.0577477,0,-97.56247686,109.7479271,0,0,-926.7889913,15.49261119,-352.8167063
750.1199995,2930,-4.679347017,-6.230895354,-15.28354859,109.1004147,-13.92692912,361.2184053,-3.193144402,701.2420477,0,79.54666346,-214.4407915,0,0,168.0668915,83.97905129,277.570461
750.1279995,2930,14.34615386,6.055749502,17.80882126,-111.8894603,14.71712455,-381.0082797,-61.24338088,-724.6837663,0,-26.61344716,248.1395679,0,0,125.4314535,-33.37160322,-104.5791834
750.1359995,2930,-66.44988537,-12.0483717,-60.86793118,108.6069878,23.99555278,272.1304199,170.1876143,681.2259303,0,-11.99449835,-185.3542344,0,0,-914.2012504,73.9479461,-115.8353751
750.1439995,2930,54.96766811,13.86419653,34.11625219,-22.92305624,-14.06002358,-38.81864803,-147.657206,-157.6272523,0,76.65336078,68.77551791,0,0,846.4476581,27.06451865,305.4039519
750.1519995,2930,-50.64488768,-6.873875075,-39.26105433,-40.26769343,20.2329537,-199.9756888,128.5003768,-235.5084881,0,-80.9164582,110.3309137,0,0,-939.9443005,10.50148768,-356.7727966
750.1599995,2930,1.553275464,-10.25833372,-14.32962042,110.6021263,-12.6300125,359.885038,-8.088105808,703.9610019,0,90.15451465,-217.9764117,0,0,133.799259,80.30015705,268.6473026
750.1679995,2930,8.947789685,-1.089886404,4.072241776,-120.6692275,15.39503295,-387.2666807,-71.42671889,-726.5560857,0,-32.82090039,248.2475574,0,0,118.1996212,-34.40517462,-107.2342058
750.1759995,2930,-74.22621843,-19.56134132,-74.36503597,86.89756658,17.3102124,261.0915606,162.1467057,668.8274287,0,-27.06531858,-186.2243082,0,0,-944.6175779,66.25852383,-133.1601139
750.1839995,2930,52.84348207,4.310749935,40.1110909,-28.55628394,-17.87701295,-35.17955218,-151.7869262,-139.6354141,0,68.25125677,59.42457878,0,0,813.0043939,15.34713,292.0417793
750.1919995,2930,-55.25476839,-2.088665182,-26.93395777,-24.35827243,21.52739025,-195.9206879,128.5911626,-213.0824826,0,-82.5344307,126.8044635,0,0,-940.6146653,18.06620573,-349.6771559
750.1999995,2930,-2.005338355,-4.819789181,-14.53927983,122.1412384,-21.876787,363.9660127,-6.597631819,723.7954213,0,93.16387303,-203.1464469,0,0,124.0407563,95.75723271,282.0046648
750.2079995,2930,17.02861414,-9.323942612,6.038976344,-117.0394154,6.193970636,-388.6612625,-74.1604733,-728.3374553,0,-30.04177558,243.7088013,0,0,104.8987971,-34.10368242,-97.83729957
750.2159995,2930,-66.51901708,-18.41255137,-67.59252347,97.17699125,27.08699214,267.5266507,168.9977105,677.8260677,0,-20.60273867,-180.08952,0,0,-967.2620568,73.57984564,-126.3581924
750.2239995,2930,55.1289181,9.728914862,37.84695122,-25.84459158,-16.62144256,-30.28584126,-153.3144387,-134.6188364,0,91.7270894,63.36626493,0,0,802.967241,26.16040578,301.9925045
750.2319995,2930,-51.9826156,-10.81673133,-32.53863195,-34.31704188,10.93769217,-215.6508105,115.3810655,-257.5159857,0,-76.9466991,110.8952067,0,0,-974.8221625,1.529034042,-363.1002345
750.2399995,2930,3.066668301,-3.043817623,-11.44349202,117.5008018,-16.64556185,366.244537,-9.087217857,717.6332351,0,77.08403817,-213.6764054,0,0,82.08959821,84.37919415,269.4538388
750.2479995,2930,25.23925003,9.271825427,20.82576284,-114.4092588,13.67142689,-384.1973983,-73.64884964,-728.9649087,0,-16.87047122,252.3964903,0,0,106.3485797,-29.41449889,-95.60952154
750.2559995,2930,-62.29026537,-13.26283432,-56.34001173,104.5057673,27.68065317,251.1507606,172.2573138,646.0117376,0,-5.209784658,-184.1187806,0,0,-1004.709863,65.95031921,-139.732426
750.2639995,2930,47.80708268,2.615654497,32.61821725,-23.0458877,-4.810628265,-31.77106365,-150.0932951,-142.8437716,0,85.87128353,51.61803,0,0,775.0296266,21.09931995,301.1820676
750.2719995,2930,-65.88757995,-13.6653597,-36.00222652,-40.74551207,31.74748592,-214.2136957,123.4506396,-269.298508,0,-81.27870116,109.308985,0,0,-984.2479039,0.032697946,-364.5661426
750.2799995,2930,-8.049703132,-8.674276571,-5.911562527,114.224375,-1.084983292,369.3660494,5.249471675,710.4796749,0,77.30370487,-219.4407942,0,0,51.00971887,80.66003678,261.7605602
750.2879995,2930,11.65694465,-3.488761769,11.11353001,-119.0740625,25.44640999,-381.4493792,-72.72899056,-731.3877419,0,-13.59790921,254.0777205,0,0,108.4919641,-24.7530824,-87.83693563
750.2959995,2930,-78.70921836,-26.26628885,-74.43662758,95.55942569,31.87596539,255.3720838,170.2661633,652.1267482,0,-14.68692604,-175.357716,0,0,-1006.990924,74.4054784,-134.8132655
750.3039995,2930,54.31437515,3.139130404,35.510338,-23.75953682,-16.46001588,-24.99428458,-152.6923437,-127.3299657,0,75.47467907,59.20498275,0,0,778.7132695,23.34497993,311.422961
750.3119995,2930,-38.76733681,0.660805346,-27.86990772,-127.2622756,23.94703973,-504.4608407,83.28511069,-817.3702034,0,-115.5682084,296.3791842,0,0,-932.0994586,-47.2408869,-481.5059483
750.3199995,2930,46.62364188,0.921650601,12.13342372,-24.02083701,-15.33363333,-7.372773316,-151.9156044,-92.31847453,0,63.14812975,36.7632479,0,0,773.5099179,11.51188009,316.230561
750.3279995,2930,59.04141559,3.956493638,36.1751269,-149.5643546,-12.14051308,-426.4114541,-195.4780059,-908.0852449,0,10.29007203,292.5728079,0,0,790.3242464,-53.81245081,115.7740073
750.3359995,2931,-123.9356402,-24.12436878,-105.8686868,126.8139318,17.9405864,269.8673832,299.6319662,775.1286845,0,-65.06296212,-229.9506101,0,0,-1856.305596,60.50964306,-398.3983167
750.3439995,2931,50.73114575,-1.873360328,26.52025722,4.302090314,-16.38270335,110.3673003,-168.0686361,86.54438281,0,110.4817247,-18.87835573,0,0,917.6006767,34.84988802,423.8201992
750.3519995,2931,-27.63678581,-9.180337142,-24.41906406,-103.7040236,33.08614227,-329.2846334,30.90226255,-554.3673641,0,-70.84687091,211.8506656,0,0,-502.8954792,-22.18983137,-253.5276518
750.3599995,2931,-70.26333704,-22.68944569,-69.67873696,129.1940694,11.10459993,390.4481258,153.4395268,890.4975163,0,12.01894793,-276.8169244,0,0,-875.4408693,73.12431893,-15.1362297
750.3679995,2931,59.4799067,2.675256011,51.62735718,-80.20453035,-7.241522844,-220.4460594,-184.8398769,-528.8371685,0,62.80522987,163.1089091,0,0,849.8232516,-26.7810356,243.5850921
750.3759995,2931,-75.44157326,-13.67621337,-54.02485719,35.89721732,37.26579076,-26.27287465,184.9828694,124.3079954,0,-71.46441609,-5.426013096,0,0,-1300.805061,25.52581514,-352.3067702
750.3839995,2931,2.545664967,-19.40019698,-7.846769708,78.58973529,-1.52625599,283.1090454,-59.3521533,505.2317593,0,96.09152652,-151.6622091,0,0,282.5403316,64.90265282,320.4030522
750.3919995,2931,-15.60233461,-26.44424813,-11.56845758,-120.1145807,34.96069664,-336.1235059,-44.98204997,-625.0668979,0,-33.51261559,222.6852456,0,0,-115.0917377,-31.16644367,-125.0480938
750.3999995,2931,-78.03049167,-33.28940759,-83.95185607,94.47079115,37.26578391,309.3028794,153.7677284,745.937272,0,-19.79137577,-194.6467858,0,0,-974.4585172,71.99538725,-91.23030575
750.4079995,2931,49.32076202,-3.215138305,28.72368843,-44.45005248,-4.968308137,-58.51291197,-172.4249465,-191.4381679,0,64.92559183,87.35644585,0,0,773.8006092,5.703265764,295.8220628
750.4159995,2931,-60.54095218,-10.82973106,-40.01660835,-19.10899831,25.47828892,-147.3801373,128.391934,-111.1047311,0,-87.12614032,87.87567963,0,0,-1055.60462,5.271818686,-339.0293665
750.4239995,2931,1.08969119,-9.41739509,-11.16813762,105.5322331,-13.74757841,339.0240021,-21.97701842,681.5033075,0,80.32969299,-190.2112179,0,0,85.01214635,70.62656512,275.0841433
750.4319995,2931,10.27351318,-8.760947751,5.42936742,-123.2838735,9.713256234,-366.7994146,-79.32449442,-659.0575297,0,-22.39794858,218.9492672,0,0,29.23758836,-50.36083938,-99.08440269
750.4399995,2931,-80.73931419,-22.85685371,-79.06341907,76.73217549,21.38048728,240.4568305,154.7359113,659.0277763,0,-28.28352156,-195.5841743,0,0,-1046.262131,42.70382662,-153.0398075
750.4479995,2931,47.91575619,0.539948197,33.85122349,-25.77910322,-10.67181732,-15.76632575,-160.9185764,-81.67995412,0,86.2649965,40.35336438,0,0,735.7760114,4.450805734,300.5278378
750.4559995,2931,-55.3128118,-12.80776914,-31.85383324,-35.4894529,27.28823439,-199.2107824,108.0364379,-209.1015303,0,-63.15481517,118.6286812,0,0,-983.2090833,-0.149791125,-345.546722
750.4639995,2931,-13.05779707,-5.588654676,-20.10754039,118.9335324,-7.067522259,368.1503585,-4.062637305,752.2577085,0,81.67588926,-210.3575382,0,0,13.64640886,82.58113776,266.742236
750.4719995,2931,16.10507473,2.727047869,15.95928726,-110.0381837,15.8160633,-369.7616676,-79.23193764,-679.1216943,0,-18.6950388,234.434722,0,0,112.3917275,-34.62155145,-59.25541609
750.4799995,2931,-75.43738047,-20.45892633,-70.51809977,90.41437507,15.14959135,225.1727201,160.1393354,621.4892647,0,-18.69586031,-196.8499246,0,0,-1078.739945,49.93017611,-149.773581
750.4879995,2931,54.92721266,13.0745381,32.98556003,-12.71501298,-29.37500408,-23.43710518,-160.8287505,-107.4645365,0,83.60488069,-4.009928482,0,0,696.4311073,-0.136873446,307.6556343
750.4959995,2931,-47.74397787,2.463409198,-33.09483655,-42.83352905,23.12202875,-240.6625953,106.4726752,-305.3448049,0,-74.15602006,93.59391389,0,0,-1006.985688,-9.152508604,-346.6586234
750.5039995,2931,-14.20613487,-8.703107333,-31.0520477,113.8895766,-0.101646335,377.0373017,1.767665115,752.3158328,0,82.22723721,-250.4792116,0,0,-67.8648759,81.40657054,261.6795886
750.5119995,2931,14.74413698,-1.132144879,-0.965286335,-122.9822113,19.28595026,-368.1656366,-92.42995527,-704.0346728,0,-20.2820671,219.0872061,0,0,110.203606,-30.52399665,-57.41022373
750.5199995,2931,-87.91949047,-31.77162337,-93.90004093,73.22142216,23.16804215,228.6834389,156.1631612,619.2628918,0,-25.8758943,-197.3407221,0,0,-1095.993257,65.34861644,-156.1424185
750.5279995,2931,39.97067591,-13.22807526,11.45515955,-35.35929682,-21.51185496,2.334560513,-161.617347,-56.47898586,0,80.86728174,-4.961150198,0,0,716.0830537,19.83280771,317.5268683
750.5359995,2931,-51.86369321,-7.677349625,-43.13844947,-66.52981591,17.01857653,-242.4979831,100.9829894,-307.6510656,0,-75.72703632,100.8437525,0,0,-971.4299475,-0.856830362,-352.8511325
750.5439995,2931,-9.922630713,-0.756644806,-32.38406175,109.0206615,-14.57051289,366.4230335,2.093029731,740.7616445,0,83.63399625,-273.6100629,0,0,-89.28892563,72.8375947,241.9760866
750.5519995,2931,19.18429071,4.204026138,8.332560258,-126.8684805,11.95326624,-378.8698891,-90.9092087,-724.7363455,0,-25.91409689,195.1151298,0,0,99.10348656,-47.11535448,-64.72429515
750.5599995,2931,-85.00552881,-18.19784693,-81.57261013,69.15938021,26.11454019,226.7862011,166.8150338,605.0333754,0,-31.35210662,-199.5088863,0,0,-1127.6215,51.27596664,-170.8555461
750.5679995,2931,40.2338949,-4.112879081,9.363129959,-38.36481611,-10.92959169,8.506404985,-156.8592172,-51.86163455,0,79.56424324,-11.1792378,0,0,695.4418336,2.447748401,306.1216316
750.5759995,2931,-58.42758999,-20.88176597,-53.38607326,-81.14899578,24.8145862,-246.5222986,95.68295153,-310.6908174,0,-97.0220769,103.2561205,0,0,-972.2245983,-15.11803804,-364.3417071
750.5839995,2931,-13.4585696,-7.23838357,-31.64956939,104.8747552,-16.29974577,376.5751879,-0.288281046,764.8640311,0,79.43869015,-263.4775848,0,0,-91.12335987,68.83564027,229.7990279
750.5919995,2932,23.03085895,6.275249762,21.8329389,-119.1414665,15.97656421,-367.7163202,-94.64645771,-704.40682,0,-0.744026081,199.9259996,0,0,123.308549,-54.71041245,-71.22714007
750.5999995,2932,-79.38718896,-18.07837402,-74.84750015,75.00355368,29.56059726,222.7541587,166.7338059,608.9615314,0,-24.5610514,-197.9961784,0,0,-1119.318697,50.45311667,-177.0865069
750.6079995,2932,46.49146159,7.50279191,7.697336547,-23.88072658,-18.86923685,7.109001612,-156.5529478,-53.16169799,0,87.58926224,-24.54058187,0,0,697.178664,0.846943661,308.8085943
750.6159995,2932,-57.22984308,-7.432494585,-42.93283444,-63.18146964,29.84959709,-239.787453,99.14843243,-324.2653724,0,-82.63427855,87.77489042,0,0,-978.7654103,-25.03803083,-363.4790166
750.6239995,2932,-26.2429971,-15.08199189,-29.08614801,105.4090826,2.736978721,407.7313338,2.590701713,802.836545,0,70.45018454,-250.4479084,0,0,-78.48850759,88.95967162,249.7721278
750.6319995,2932,14.13566634,-7.812581013,9.879574556,-129.3198356,20.06240192,-344.8091122,-103.8959583,-667.4597622,0,-15.68033934,228.6811922,0,0,185.9754081,-27.60693488,-41.7359629
750.6399995,2932,-72.04452956,-15.74449431,-69.74609729,77.00089798,19.0154204,225.5510188,164.2275733,610.2450848,0,-34.77517564,-185.8154995,0,0,-1095.517755,55.95767707,-176.6810653
750.6479995,2932,48.17522616,5.918126781,9.974736375,-23.61107986,-20.68370574,19.7005274,-163.7748016,-25.67701096,0,90.63295467,-15.93127404,0,0,720.7530654,12.38583462,313.283834
750.6559995,2932,-55.80565421,-9.882276375,-59.93256861,-62.24794045,30.96753728,-244.0924664,83.51579153,-311.3749496,0,-69.27823257,108.4936022,0,0,-935.3056741,-15.66859241,-361.6912246
750.6639995,2932,-11.74782397,0.018594901,-31.09960894,125.8962159,-12.42173311,385.443626,3.72136187,782.5315389,0,73.91671069,-258.9265645,0,0,-84.74337858,74.08017985,229.9061932
750.6719995,2932,18.87885477,2.054572985,15.07732446,-122.0113526,7.340337519,-371.9305258,-102.5660651,-714.0491857,0,-1.345478269,190.9066633,0,0,155.367644,-55.31680265,-68.92411228
750.6799995,2932,-88.6408733,-26.49301085,-91.03650152,61.64712843,31.26821695,215.748134,160.6157445,582.4038178,0,-20.87789251,-210.5264261,0,0,-1136.107646,40.85688192,-205.5577104
750.6879995,2932,39.73662803,-4.212750749,-6.592745315,-32.18886646,-10.02958285,28.77777582,-161.8407548,-31.92284776,0,74.54744661,-30.01491778,0,0,703.0567347,8.615334526,300.4332322
750.6959995,2932,-50.4482475,-8.765063623,-50.33174086,-68.49047187,27.27436736,-250.403557,85.29342641,-346.9723744,0,-80.85934384,97.78845415,0,0,-955.5565581,-19.74011993,-373.7245697
750.7039995,2932,-10.70155705,4.917493016,-32.7844486,112.2084383,-13.35500427,389.833345,0.221622301,776.4940678,0,80.60122144,-258.6756484,0,0,-121.6284415,82.04350303,220.4595094
750.7119995,2932,30.86932229,14.0793396,9.726638338,-128.4947403,0.926271387,-369.9948055,-111.4681589,-725.8067948,0,-4.078419335,197.1095861,0,0,138.1635718,-50.1445038,-71.78739617
750.7199995,2932,-81.97598218,-28.66113179,-81.10700066,63.71853746,36.98089287,216.7189984,156.1666024,575.020419,0,-30.46356429,-206.7339706,0,0,-1183.554804,37.05356928,-214.628469
750.7279995,2932,30.38109165,-14.18690962,-0.62559053,-32.66224016,10.8454932,50.4886586,-171.6816475,14.85747548,0,76.5714351,1.405312519,0,0,707.4296113,30.69582765,321.0177421
750.7359995,2932,-44.55517108,3.35854274,-40.11853925,-65.70719756,33.61748092,-252.3022143,73.40255759,-340.3327252,0,-74.98667227,136.7687914,0,0,-925.5365244,2.08531641,-357.6669639
750.7439995,2932,-8.501864016,4.185446779,-20.99128396,115.8985524,0.134435573,394.8702561,-1.562693665,788.4745445,0,65.16016126,-256.1712236,0,0,-153.3473507,84.41050372,216.7776347
750.7519995,2932,26.47375505,9.148437938,13.62973484,-128.59234,19.20037872,-352.7160275,-116.7458699,-688.2066574,0,-27.0553728,221.7177851,0,0,161.8686657,-25.85798904,-45.09493002
750.7599995,2932,-57.15981485,5.659534751,-55.18901912,87.60078125,22.64425239,200.053771,158.468894,565.9120908,0,-15.32661334,-178.7539724,0,0,-1173.471636,59.29083326,-196.3620037
750.7679995,2932,63.24703733,17.37918402,41.04147796,1.566021471,-13.46939334,26.7464307,-160.6705579,-15.62569026,0,113.5631472,-20.14479987,0,0,646.8699663,19.82523963,324.1622088
750.7759995,2932,-35.05182014,8.137837737,-15.71851144,-57.88623399,27.30105715,-268.0874624,82.22738273,-374.1687021,0,-56.79943443,120.1105468,0,0,-985.3869607,-11.16721682,-346.5291409
750.7839995,2932,-6.002735953,8.693198877,-2.864015591,128.318102,-3.980169602,380.7268827,10.59906271,764.1038799,0,82.67951327,-266.881931,0,0,-218.8959385,74.34362609,224.0094346
750.7919995,2932,29.16199897,1.387654304,28.35132368,-113.4168346,22.89441338,-366.7603024,-106.1699258,-712.0134524,0,-8.752298522,206.0401103,0,0,104.7370166,-39.64342881,-36.38161836
750.7999995,2932,-64.57001911,-9.596110956,-57.21868577,79.73707848,37.51763389,192.0550673,168.9766596,552.1750692,0,-23.17826901,-177.3515236,0,0,-1230.717944,57.50354292,-189.9036687
750.8079995,2932,52.68258846,11.99368436,29.68562634,-11.85513389,-8.17816917,20.05062365,-154.9540481,-16.69550233,0,86.91089699,-16.99291091,0,0,609.4727901,22.47751427,326.9316823
750.8159995,2932,-48.2459387,-10.38901774,-41.35148121,-78.94555,28.62368301,-285.422096,80.33858788,-385.7450036,0,-80.55914311,129.5276605,0,0,-1010.379495,-5.922570499,-348.8565224
750.8239995,2932,-15.82475723,-7.92751791,-27.71111329,109.6553263,-5.59028415,379.0984657,9.791264984,786.1500002,0,75.68254596,-246.9080235,0,0,-240.0861274,94.63677323,226.2252169
750.8319995,2932,29.11840147,10.23229062,24.48938911,-116.8637519,2.620463394,-372.1033266,-112.7553148,-703.6251366,0,-15.79257067,222.0940318,0,0,114.2057918,-26.88230141,-34.49651176
750.8399995,2932,-68.0222545,-3.261422495,-60.12614416,85.03179003,13.45361419,180.6442469,165.7461126,537.9667935,0,-35.22916224,-172.8099347,0,0,-1256.649116,59.2480368,-200.6257567
750.8479995,2933,49.67077138,6.599885463,23.21239989,-2.509341584,-15.47987344,38.50209724,-152.0179748,5.878372996,0,88.94643276,-8.936450737,0,0,587.3559853,39.0823821,337.3485448
750.8559995,2933,-41.36377851,-6.075335136,-40.8247208,-72.98456844,22.48291777,-275.6247008,80.59546264,-387.5472179,0,-81.18648595,146.0587529,0,0,-1016.581876,12.05459522,-335.0076179
750.8639995,2933,-6.03504899,5.012368387,-19.86616149,115.9528078,-9.404375676,387.3975916,15.66925336,777.586349,0,77.54926039,-251.2817972,0,0,-285.7109735,97.50294914,227.1692103
750.8719995,2933,32.31683592,15.31721419,32.42520939,-115.4502623,17.27221789,-349.1295153,-109.7049709,-700.2146673,0,-2.854514661,229.0989366,0,0,98.75922394,-16.27168598,-14.10409043
750.8799995,2933,-67.38696127,-1.619606512,-52.56875646,87.17604328,29.53073626,195.319346,165.5991176,531.5376556,0,-36.69563712,-155.62601,0,0,-1273.562056,72.57870518,-187.2287199
750.8879995,2933,55.0249213,11.27631456,40.22128065,7.923089061,-0.382197595,61.261831,-148.1651553,20.70091474,0,82.84431049,-10.54243976,0,0,569.9790351,42.82315181,342.1924482
750.8959995,2933,-43.45813095,-6.670113948,-27.83838831,-67.22296997,44.2710844,-247.7564721,84.31472713,-364.2762528,0,-93.79145171,168.4267481,0,0,-992.5393108,28.54376549,-317.0865107
750.9039995,2933,-16.2165722,-1.789369465,-22.17459609,122.45945,-2.713995764,411.595204,14.20171086,808.7200459,0,53.42520714,-226.7145574,0,0,-268.2360492,118.2572485,243.2675567
750.9119995,2933,33.48244384,12.18785355,30.12993702,-110.407862,8.169875411,-336.4288653,-110.3192756,-680.2497736,0,-6.806173268,235.6240584,0,0,117.1601703,-10.51776801,-7.31360944
750.9199995,2933,-59.34069911,2.168038827,-53.02549511,82.59663841,20.25053816,204.4126731,176.2120182,550.0224164,0,-24.3574713,-142.5559502,0,0,-1268.939647,75.42988386,-185.8989039
750.9279995,2933,54.99227083,20.33371235,39.95044296,5.663202306,-23.93470524,66.39585255,-152.5286355,40.83588855,0,86.79096227,-8.108311617,0,0,570.2701774,35.96999595,343.9550976
750.9359995,2933,-46.74241705,2.149073585,-22.3502243,-66.98814951,14.4081972,-265.5559469,72.63957401,-381.5254109,0,-100.4289025,157.0820013,0,0,-1010.172559,1.351225802,-335.6027699
750.9439995,2933,-12.78254119,1.706246737,-19.21461701,123.5354103,-17.99773022,400.3645184,17.56755778,803.1085469,0,57.22068546,-236.3543371,0,0,-305.7784224,97.58631604,224.171787
750.9519995,2933,32.28888624,13.32303115,27.9535238,-111.2165781,-3.403192336,-353.4022758,-122.2051353,-694.7243281,0,1.956036903,227.5575347,0,0,102.218899,-26.47117944,-15.80644421
750.9599995,2933,-78.11264313,-8.036122369,-59.94236923,68.52083788,15.25675436,180.9005858,156.9458697,528.8910332,0,-37.73735755,-153.7030446,0,0,-1306.420578,58.1750448,-208.7145822
750.9679995,2933,46.19678808,6.219038395,29.71378451,-8.396020054,-19.4907173,62.34740552,-160.4076037,50.53709392,0,75.18296335,-12.01333174,0,0,561.1144439,34.8954758,339.4473484
750.9759995,2933,-31.15170428,13.74586776,-19.43266849,-64.48960509,10.92446645,-285.171381,68.7527832,-405.0883173,0,-85.4270555,156.1093988,0,0,-1002.290926,-2.720340032,-337.5098732
750.9839995,2933,2.379709109,27.08273578,-0.194901875,131.0389967,-21.24066719,385.6013947,24.68283145,782.8241602,0,81.27055359,-253.9928463,0,0,-343.8795795,84.77331373,214.3934503
750.9919995,2933,43.35741863,24.90896392,46.07117187,-105.0783198,9.728969551,-342.8401326,-110.4025015,-684.7880232,0,8.856697174,222.5600672,0,0,102.0009256,-24.70518902,1.747094855
750.9999995,2933,-62.36128064,6.387452546,-45.35654736,86.36433749,18.87842379,186.7799223,165.1746678,528.0496025,0,-38.0928491,-145.4609008,0,0,-1299.297046,65.80354625,-190.8056024
751.0079995,2933,60.00128152,28.9513477,53.50953421,8.198530686,-28.09385865,65.75351738,-151.1416874,42.90344572,0,89.9106931,-22.32724565,0,0,543.8502554,29.20795246,348.1648018
751.0159995,2933,-29.31912335,12.88768114,-7.099712859,-67.51280438,23.95108306,-274.7099043,78.68992855,-405.045337,0,-80.86235024,158.0027364,0,0,-1008.175562,0.810641457,-325.808903
751.0239995,2933,-3.018435167,12.08287862,-14.19202414,125.9678761,-8.345038229,406.0624417,25.42455034,806.4536849,0,65.47540225,-243.1298746,0,0,-344.7221318,101.2186814,226.1163164
751.0319995,2933,39.51046459,20.38534637,40.29403724,-111.1677321,3.303663167,-337.6904692,-121.0016024,-689.9781742,0,3.047808259,219.3253241,0,0,104.966133,-25.23498688,5.834367242
751.0399995,2933,-69.94607568,-2.460135175,-43.87007414,71.00743821,17.16067786,180.5455794,160.9991409,507.2400456,0,-46.74744162,-151.2887251,0,0,-1327.930441,63.77721019,-197.0622548
751.0479995,2933,60.20408009,16.33190098,45.81240183,1.672887297,-17.81339373,77.93682754,-147.2760384,52.72975173,0,63.21998651,-31.45626899,0,0,526.6736711,37.330333,357.4290828
751.0559995,2933,-20.71304593,14.59676555,-9.737770309,-58.63089443,32.10890441,-272.2985835,79.11344541,-416.2081886,0,-88.61196217,148.0840544,0,0,-1018.249554,2.229505857,-314.9372131
751.0639995,2933,-2.681777231,21.50754714,-12.97501297,135.3679966,-8.147204056,407.024249,27.03891345,806.705035,0,68.42903569,-249.5173613,0,0,-369.3190655,107.2430841,235.9125169
751.0719995,2933,46.91974786,25.95730922,37.34182761,-113.2924808,3.545517222,-334.6336929,-116.9541642,-686.9876579,0,-12.066403,220.6660169,0,0,120.7598724,-18.55077459,25.9856115
751.0799995,2933,-56.91940582,3.586456534,-47.75455318,76.17277222,17.3258314,168.8628861,163.214298,489.9080737,0,-43.54766584,-161.7219393,0,0,-1349.473477,50.07074693,-196.4469521
751.0879995,2933,64.5597036,23.7009322,46.34600801,15.03879456,-24.87860149,71.8466001,-150.1031784,53.29311999,0,92.33118196,-43.40652662,0,0,502.8757266,22.41453658,364.1966959
751.0959995,2933,-20.97803622,13.87105062,-7.251032792,-66.3989587,16.69236311,-290.8789238,79.65151908,-447.6775237,0,-78.69990769,150.4158655,0,0,-1024.658758,-13.60299029,-309.3845313
751.1039995,2934,-10.19387851,12.96403869,-11.94687144,126.3091218,-16.54434184,388.7129636,34.88547271,778.4900642,0,53.74333076,-270.3258054,0,0,-434.2044134,80.82832589,220.1910908
751.1119995,2934,36.51242396,21.06833888,31.89608536,-112.8917837,5.64794223,-341.5797104,-114.0855001,-697.9664792,0,-27.10450387,209.0107141,0,0,87.12949179,-28.23099643,27.45581418
751.1199995,2934,-65.31837654,2.191018517,-65.20399736,69.93615413,25.29228801,168.5709201,168.3808029,478.8727215,0,-46.08513552,-150.0597218,0,0,-1365.616509,56.69619809,-190.6461695
751.1279995,2934,55.0029354,19.84920159,31.07355924,5.267911989,-18.15820389,83.58396407,-158.8823624,66.66376591,0,91.23416419,-43.08470146,0,0,490.5704643,28.26086667,368.0150908
751.1359995,2934,-24.06103383,15.01710309,-12.73779125,-73.40715212,13.37916507,-291.8674758,56.72639163,-456.7467007,0,-83.51726549,163.0463248,0,0,-1010.874689,-7.576665105,-305.6049165
751.1439995,2934,-5.455727141,17.39428494,-22.12007636,128.4645292,-21.43675812,398.4672764,19.79416492,781.4260159,0,66.12762592,-254.4051747,0,0,-426.7655548,87.19693006,225.2807153
751.1519995,2934,43.68357398,25.85328524,27.18116979,-115.535011,-8.7075511,-336.725954,-140.6925017,-703.1487514,0,-12.20629945,209.2881982,0,0,110.1593997,-33.6348461,29.004309
751.1599995,2934,-53.70728681,14.86937201,-57.23696165,65.06185614,9.908126079,155.082928,149.5800716,444.4226345,0,-42.31945514,-157.2366753,0,0,-1374.730329,40.72071713,-210.5992212
751.1679995,2934,60.82676106,27.32807189,22.59284045,1.377174789,-17.99715599,87.29431994,-162.4644299,57.05212098,0,96.22297694,-59.38314902,0,0,475.646713,17.45906582,359.7745384
751.1759995,2934,-24.31809233,13.76184895,-29.93159104,-87.12694745,15.78562289,-294.7033279,47.44110528,-478.5049528,0,-93.16334131,143.6233892,0,0,-1016.344694,-22.53642109,-317.3111721
751.1839995,2934,-1.221984338,18.20785064,-26.39198935,123.2732733,-18.22387777,396.5368033,17.57091472,773.6994841,0,60.80508826,-274.4714883,0,0,-455.834156,70.78774804,204.2869578
751.1919995,2934,42.37338904,17.20454957,19.51589547,-117.8880235,-0.643150375,-328.4564308,-140.6983471,-692.0136696,0,-2.476650426,203.7648954,0,0,114.7443701,-37.94858729,30.46209625
751.1999995,2934,-54.49095965,8.060160933,-63.59834241,64.01848663,10.07415389,162.3337259,152.1543223,448.3340932,0,-55.28822432,-152.2393186,0,0,-1379.797788,37.71363167,-217.354493
751.2079995,2934,69.89381543,33.2038086,25.4042233,13.47786273,-23.74118398,101.5763919,-154.4400824,67.18720237,0,97.05956468,-64.19094445,0,0,462.7179958,5.749853565,350.0267241
751.2159995,2934,-26.44788428,6.679264476,-40.95655101,-85.09793247,27.90589015,-280.1765959,50.85193445,-471.5774382,0,-66.99062149,147.1583571,0,0,-1008.273839,-35.10949854,-319.8588654
751.2239995,2934,-11.61254321,10.8442053,-48.90703061,117.8443592,-0.587275301,420.3371049,18.76544985,802.7120685,0,66.93129907,-262.1449518,0,0,-444.7863485,69.67842865,199.7739843
751.2319995,2934,39.99202816,23.05665815,9.987947204,-117.6504727,4.089310647,-315.1247066,-140.7246462,-684.1360471,0,1.864454719,213.0777845,0,0,153.541697,-40.7654391,27.07579924
751.2399995,2934,-65.53491957,-5.244594332,-64.58449113,58.76356915,19.86575007,165.1620823,151.1262327,442.449291,0,-49.15745777,-146.898187,0,0,-1365.479905,26.08644673,-232.1919005
751.2479995,2934,50.67200651,9.370543237,13.47224021,2.503069367,-12.69105627,115.4175759,-167.2680394,90.79921221,0,86.00786182,-52.61471285,0,0,493.0349853,4.996700533,344.8396309
751.2559995,2934,-32.46941283,0.819684913,-53.9478538,-94.07536216,20.83456662,-292.0030744,32.93234455,-487.6892188,0,-83.1835803,161.4762518,0,0,-966.1054264,-40.3335562,-330.6919112
751.2639995,2934,-1.516767113,11.59854614,-40.90684337,120.8944689,-14.06832291,404.8160278,13.61227928,782.1740936,0,57.91431065,-271.9395488,0,0,-463.996363,46.61548609,171.9508894
751.2719995,2934,59.36713465,26.8973092,23.19714941,-108.3359472,5.08279707,-309.8750426,-140.8319308,-682.7923799,0,5.926642045,210.0758857,0,0,155.5827006,-53.71816075,20.05277075
751.2799995,2934,-51.85802609,2.680343734,-69.19389119,64.04964509,19.04643279,163.776913,154.0096366,438.1251352,0,-39.32513908,-137.7664773,0,0,-1363.356086,25.57667461,-237.035102
751.2879995,2934,64.26434206,28.14770958,19.04259974,15.01217509,-34.77747034,103.8413668,-165.2534457,83.52718548,0,99.16503628,-60.19679337,0,0,482.8269265,0.813515111,337.5719832
751.2959995,2934,-15.35331606,26.61078858,-33.42890379,-83.74471515,1.070895113,-317.6999844,38.19600911,-528.9420423,0,-61.15488197,147.1028171,0,0,-988.1081613,-52.67990822,-339.35513
751.3039995,2934,0.492799085,6.474284495,-38.63319442,117.4130943,-16.49996639,390.6097688,19.46606099,761.6243981,0,67.23342462,-294.4551571,0,0,-520.7898263,33.95633554,161.7024506
751.3119995,2934,55.74459947,8.027444736,26.6373935,-113.3605025,5.444269416,-310.6691236,-147.5739976,-681.7161728,0,-1.384876752,202.4328045,0,0,141.8852902,-57.18700773,24.85699879
751.3199995,2934,-47.31259533,4.506686541,-54.89621381,62.4626253,15.47849438,153.7799971,158.9888434,415.8069263,0,-38.49151298,-132.588437,0,0,-1383.17281,23.93509973,-235.4807046
751.3279995,2934,72.36184159,27.36717755,30.10213851,15.92602562,-33.10653438,100.0992445,-150.9733685,69.91112411,0,103.0847999,-73.60014532,0,0,444.9430689,-7.650974829,342.2803851
751.3359995,2934,-11.09488049,17.18666731,-13.07590011,-77.58000347,9.738001431,-311.0329355,43.86617264,-532.2130215,0,-69.16162523,153.7024134,0,0,-997.765647,-49.71180896,-325.36611
751.3439995,2934,8.72233161,16.35631616,-13.10166864,134.8704166,-16.29186973,400.7250575,31.97527378,764.8474831,0,74.31133934,-273.7909402,0,0,-534.4977712,52.77317189,176.9373636
751.3519995,2934,104.8720235,35.25758728,78.59306553,-238.8298324,0.960528353,-754.4498075,-247.8380901,-1602.551358,0,-6.156829189,479.5672021,0,0,538.5506997,-123.0905293,-47.81629356
751.3599995,2935,-15.22219783,18.04605547,-4.731770774,-194.7998727,36.96418439,-719.255802,54.39521925,-1291.303695,0,-142.1749296,405.999151,0,0,-1279.189315,-106.2254336,-622.2509468
751.3679995,2935,60.97706749,26.02250252,36.73521892,-66.39943148,-7.107935257,-219.0708279,-120.2372332,-507.5872072,0,31.48421694,130.6140447,0,0,57.42663831,-42.44521899,60.58622129
751.3759995,2935,43.79285516,26.53110054,37.00765465,-229.9875539,20.79770186,-781.6907306,-94.84934731,-1528.2844,0,-84.18075909,471.0717621,0,0,-399.7056323,-120.4277686,-367.2784916
751.3839995,2935,-20.85200241,12.52836497,-30.58390443,38.72082431,9.091869757,51.56187489,93.75027658,173.4542656,0,-13.27428036,-73.56530161,0,0,-1107.630024,7.79581861,-182.0497969
751.3919995,2935,31.59422659,17.13916703,-4.251597389,106.8698578,-14.50559346,336.8050283,-37.224693,597.7190858,0,105.1133355,-228.176823,0,0,-171.2681799,44.92326533,265.2407313
751.3999995,2935,31.21490295,18.69545886,14.58681624,-68.83776183,15.47167872,-230.5637598,-52.31467988,-482.5080039,0,-6.13522972,131.5780611,0,0,-355.3332624,-34.55846211,-80.28800339
751.4079995,2935,-6.164044176,5.671364794,-21.77959396,34.41588859,14.31596042,95.70297539,53.0481242,205.6958252,0,-3.631758332,-64.67536855,0,0,-809.678848,32.72665747,-63.35544675
751.4159995,2935,18.35005686,2.194112397,-14.55830124,53.86985801,-10.01679578,212.2799122,-35.67200184,370.8751875,0,49.68398497,-122.3304722,0,0,-254.5851179,48.02319788,174.4822621
751.4239995,2935,27.20724816,10.50654057,2.452662693,-72.97212509,3.423127415,-227.7873332,-58.54222069,-457.8475982,0,-38.31936284,139.5974272,0,0,-316.9128076,-28.34065878,-70.60037082
751.4319995,2935,-29.79915513,-0.861752651,-46.80657045,84.02151405,7.010400761,224.5591952,94.93041596,505.829174,0,-4.625859598,-168.4310025,0,0,-977.0088665,36.02154982,-59.10013449
751.4399995,2935,35.36892715,2.795722753,2.671073495,-7.829853575,-15.90686339,26.33234242,-111.3166311,-23.30913892,0,59.57948043,-15.01182552,0,0,152.379747,-5.753095113,210.3469248
751.4479995,2935,-8.323812389,0.764627219,-27.56641644,-46.67723974,13.48523439,-163.3535939,46.49208176,-252.2119047,0,-67.88169444,91.31086817,0,0,-865.9104308,-15.68473563,-217.806976
751.4559995,2935,13.8644508,8.664338009,-18.01657314,113.7321405,-7.14226482,357.7651615,26.95496417,693.7769799,0,50.95969726,-217.2196825,0,0,-470.8708833,61.13008777,168.0333116
751.4639995,2935,49.84192524,15.3447214,26.47397711,-83.93045562,-2.197402405,-256.8072724,-110.5047839,-549.6995594,0,-6.340059495,167.8625609,0,0,19.27649391,-40.31829566,24.683322
751.4719995,2935,-50.09935843,-10.76648016,-56.09328495,65.58127304,12.19740931,166.0068471,137.4314689,446.7602412,0,-51.4217203,-140.9871806,0,0,-1274.561887,30.96321173,-180.5547013
751.4799995,2935,53.75864259,7.057160475,16.67019055,22.3283118,-26.27924712,107.7529576,-131.6627102,124.3839303,0,72.61699744,-68.35942911,0,0,314.0186123,8.501302224,313.9202113
751.4879995,2935,-6.349694875,1.741827498,-20.06923521,-63.78450056,11.50415464,-264.8065346,45.10955001,-432.3903165,0,-81.99636498,127.2088684,0,0,-932.8689432,-35.91070163,-273.405179
751.4959995,2935,1.408746533,-0.469519103,-22.51835914,125.5109039,-15.17244041,392.6493402,36.47647826,780.2732077,0,45.65180071,-267.2234481,0,0,-578.470534,62.41028421,165.8933175
751.5039995,2935,54.82657539,11.45737883,31.90518847,-94.46845849,-7.09003704,-270.6749994,-137.6154609,-587.5456576,0,-1.230715066,179.2816518,0,0,116.9523941,-39.30091559,57.67674284
751.5119995,2935,-55.95112792,-15.02434046,-61.29584959,60.99360129,23.75516012,168.4556207,156.0082867,454.61845,0,-60.02893764,-113.5415268,0,0,-1366.667871,41.47637326,-213.1205249
751.5199995,2935,62.82371466,8.736369385,22.40388645,29.23738075,-26.31653377,152.8224019,-132.7823264,195.9052957,0,79.86617461,-55.6366627,0,0,413.8508607,32.37615292,364.1873469
751.5279995,2935,-3.083829207,9.940067959,-14.21585647,-64.22884756,-2.788023556,-304.3637537,47.33773967,-496.4000359,0,-78.36054265,152.1504044,0,0,-934.022393,-36.15761736,-286.0462113
751.5359995,2935,-2.815528531,0.310328042,-17.01039905,143.0841242,-21.75903205,405.6017453,48.95986317,806.0904747,0,56.15589552,-285.5580163,0,0,-608.8786088,58.95522867,175.8744294
751.5439995,2935,57.30705626,3.783240336,44.09468345,-89.03355881,-0.223160603,-270.1436093,-130.6761662,-606.1084205,0,8.582138532,191.4399267,0,0,160.6695518,-28.30720789,88.37769434
751.5519995,2935,-54.44608728,-12.27252906,-53.40456686,71.40051818,13.77471676,139.8168891,163.4810862,406.0450212,0,-45.41550383,-124.2503806,0,0,-1420.550836,36.86006566,-222.1525182
751.5599995,2935,65.1727646,5.923514864,34.67201092,38.99152187,-27.55362656,154.8567075,-133.3111915,191.800996,0,96.00497922,-93.58574767,0,0,376.7869769,10.98072505,368.5956271
751.5679995,2935,-8.854319062,-13.2018031,-8.542963468,-78.06931588,29.42595345,-272.7390896,53.97426271,-461.2553854,0,-91.92736331,181.1279932,0,0,-922.4363566,-17.27622608,-266.7059789
751.5759995,2935,-12.22435767,-11.18079117,-23.60378642,138.769217,-11.52104084,439.8178149,49.35094437,869.5960923,0,38.82461885,-248.7858541,0,0,-567.4552281,87.31886008,197.6116937
751.5839995,2935,51.51709272,5.066134433,43.40726186,-82.09089288,-10.78009885,-269.2599358,-137.8235601,-592.9441253,0,11.40010151,198.3665604,0,0,182.8857358,-39.77348952,85.48414711
751.5919995,2935,-60.81121412,-15.64419568,-53.32957362,70.48796985,24.42213994,158.5551188,167.5982005,447.0146392,0,-47.76062238,-96.26134486,0,0,-1408.907121,45.24674532,-215.1442508
751.5999995,2935,64.64434603,11.60497679,31.15102319,35.7696487,-27.76617185,170.0544282,-140.8109637,236.9496164,0,93.54426615,-61.48882031,0,0,428.6540033,31.41471791,390.5328694
751.6079995,2935,-6.59455963,-1.476822552,-5.678530125,-75.35591554,8.582848072,-308.1711883,38.93289115,-492.0044362,0,-73.25423716,178.7908453,0,0,-919.3312051,-36.56389759,-284.7960636
751.6159995,2936,-14.19853541,-12.29112254,-19.21083937,137.5470175,-14.5713426,423.7369915,48.32400389,878.3693531,0,59.94066132,-256.7780374,0,0,-583.6060537,75.90169734,185.4883333
751.6239995,2936,56.91448132,5.998117168,43.71533867,-97.41631981,-14.53412946,-285.1010921,-145.7057874,-585.6319574,0,4.437153999,204.7097903,0,0,222.6360277,-33.88153775,91.11332175
751.6319995,2936,-52.54501098,-10.41991031,-51.10727775,61.49444723,12.79174319,120.2302299,160.4042477,409.8792855,0,-70.99746194,-110.89593,0,0,-1419.420635,30.67739745,-242.1617885
751.6399995,2936,64.36685347,7.884566747,37.9887861,37.18941797,-25.82834946,160.0636888,-140.7950431,238.1301191,0,94.08392323,-79.18330981,0,0,410.3020959,23.94018924,378.7818574
751.6479995,2936,1.573547365,7.411837727,3.833547908,-72.48600497,11.21503508,-321.6536701,38.565517,-510.5981278,0,-61.18560735,184.8481544,0,0,-906.0050345,-29.66279592,-277.0577894
751.6559995,2936,3.158734753,4.405147436,-17.21584105,148.7144786,-6.653853261,411.6866223,53.18251639,857.2828954,0,54.68660264,-262.1278168,0,0,-611.8686389,79.93157749,186.3369458
751.6639995,2936,63.64404925,4.171089726,37.81643889,-95.88774645,1.041322029,-281.3832399,-147.118124,-581.6905578,0,-4.513815644,199.7535383,0,0,216.2574593,-26.71634421,106.5948098
751.6719995,2936,-52.87099207,-17.25419302,-49.79802355,56.81673329,18.78713516,115.9367971,160.3968405,406.3735703,0,-68.99629884,-102.9519456,0,0,-1420.021017,37.33567119,-232.7450956
751.6799995,2936,68.66535287,5.033342998,33.73915947,39.38140365,-26.64567087,158.6002345,-140.6659475,245.5330047,0,98.96584694,-78.43403441,0,0,410.4219178,29.05235079,388.3621652
751.6879995,2936,-1.36660283,-4.452072483,-17.81977649,-94.55780704,5.272452988,-330.5351223,30.87889363,-521.3550953,0,-75.71779214,175.141079,0,0,-897.9562122,-36.75504045,-279.7219909
751.6959995,2936,-9.370336519,-6.371111467,-28.04695506,122.7622673,-22.85414099,406.8348509,48.0934512,849.7092029,0,30.6236848,-285.4173617,0,0,-634.2295379,61.91507391,160.5723528
751.7039995,2936,66.40914609,10.37387805,48.52868473,-91.87498931,-21.47598246,-284.9123978,-154.7376014,-596.851055,0,-5.784528851,183.1968667,0,0,214.3035268,-41.16568806,93.0643999
751.7119995,2936,-42.24061186,-5.229334156,-42.64292804,62.52729452,1.602061456,109.7007915,159.3315604,381.8009136,0,-57.83901817,-116.9074438,0,0,-1441.704154,25.29112991,-250.0324949
751.7199995,2936,68.01897978,13.04597579,37.84742698,43.4141527,-31.00682587,175.0598665,-131.5457588,259.690729,0,94.91790742,-95.70331775,0,0,390.604526,27.11319474,375.4610018
751.7279995,2936,-4.412726499,-4.437862719,-9.59792699,-82.9098013,10.51314469,-316.3830722,34.2684098,-510.4599333,0,-86.95644384,189.4884194,0,0,-874.0259751,-23.07485793,-278.2666249
751.7359995,2936,-9.667712916,-8.889720693,-28.92426237,126.6899081,-23.08125319,416.162807,49.54096798,864.1117839,0,35.64339285,-262.9883534,0,0,-612.5459584,85.00591493,164.0632334
751.7439995,2936,65.56557467,17.18022212,50.17431783,-96.12851255,-26.1763371,-279.7172989,-147.6396038,-596.5604591,0,7.011193347,178.2665222,0,0,238.0063016,-31.84673492,91.16703746
751.7519995,2936,-44.51298084,-3.936944722,-38.43868028,60.40822682,9.115144672,115.020672,171.1387809,372.7277989,0,-55.89556433,-120.0567888,0,0,-1441.436974,29.35250555,-260.4253119
751.7599995,2936,71.4519552,11.19615428,33.66796902,42.15916516,-30.91279109,188.7836798,-125.3444056,269.0509453,0,98.14977495,-88.5447737,0,0,409.419103,42.41843255,384.1119438
751.7679995,2936,2.948141086,4.869898491,-6.358617356,-81.98312192,-2.912186381,-322.1981053,40.21345664,-540.26822,0,-69.80637391,179.3021244,0,0,-860.3030747,-26.9704899,-277.6372963
751.7759995,2936,-53.22541957,-18.48064609,-68.1950952,185.2135088,-4.274543325,565.6698616,178.8406113,1205.909597,0,22.49469386,-382.557809,0,0,-1268.795291,101.6458955,24.79094932
751.7839995,2936,-11.46282623,-12.60796233,-33.17497393,-101.5019755,24.61436139,-306.6598554,24.0781569,-536.2476184,0,-84.69641148,199.2852028,0,0,-817.073691,-14.66111546,-256.2205952
751.7919995,2936,-113.6141679,-25.87631584,-103.5297381,-95.99965173,57.16301643,-412.9186745,290.8645963,-514.2829965,0,-223.935078,203.3809534,0,0,-2485.556421,-25.13735623,-850.7288149
751.7999995,2936,-35.07262972,-16.66170478,-53.49585889,35.36408411,13.52981059,112.1068112,104.1858618,303.7995094,0,-37.61537135,-79.44266172,0,0,-1068.831564,41.42791338,-134.13815
751.8079995,2936,-10.40181095,1.413578397,-30.17289637,-32.37996851,11.04065323,-114.7484873,50.25508934,-160.4245609,0,-50.50506776,65.55101274,0,0,-862.9889544,4.12570355,-181.3463355
751.8159995,2936,44.61653022,21.92938693,17.14373594,85.77703362,-21.69462539,294.3616203,-53.11598262,500.7246344,0,91.4008194,-165.1719288,0,0,0.739279256,48.99619985,290.9835726
751.8239995,2936,41.00238966,12.55995215,25.99858897,-48.60927649,9.265171224,-163.5554592,-53.85561783,-361.6611181,0,0.358305615,142.0294683,0,0,-192.3483263,-5.34960614,-2.522761391
751.8319995,2936,-30.09053509,-6.919693438,-46.23205683,62.96302967,20.42058116,150.3292024,118.2254002,379.4213898,0,-43.55657266,-84.26892936,0,0,-1095.671287,49.87036547,-135.3878821
751.8399995,2936,66.60967346,10.28622985,24.02283256,22.89339595,-33.07035067,148.1928652,-161.5086966,176.6467743,0,74.61709549,-57.50532958,0,0,519.8039601,29.130777,387.6694386
751.8479995,2936,-14.50221101,4.904313052,-24.18239262,-64.13187658,-11.23018203,-252.8394577,47.22803217,-399.22638,0,-84.35074985,131.6943906,0,0,-977.0074749,-30.39976187,-299.3002926
751.8559995,2936,26.51059432,20.5506717,-6.869835692,129.4269233,-45.65708713,371.2060788,6.311981015,705.2737877,0,78.17251964,-251.4499321,0,0,-361.3313304,46.13293921,212.7025862
751.8639995,2936,69.66442522,14.62982235,44.13899186,-68.23309444,-16.94302005,-224.7232086,-121.4520119,-515.2806956,0,25.00900569,145.69858,0,0,138.7126272,-40.21974946,80.3477754
751.8719995,2937,-31.06123275,-8.575669155,-49.03419989,58.18521516,15.21383908,125.9341809,143.9296107,352.0825523,0,-54.43626378,-95.62179479,0,0,-1270.051449,35.34720825,-206.849076
751.8799995,2937,78.63317917,18.51839961,11.16168668,31.58291912,-35.34864663,191.2692609,-150.4222826,254.6649711,0,83.24625133,-88.42820967,0,0,483.3036129,31.3324032,391.7493607
751.8879995,2937,-1.576677431,-1.153654165,-25.9960693,-93.61132727,-1.77898994,-291.0081688,15.46390494,-495.8342742,0,-86.7515297,162.6464797,0,0,-818.0884789,-45.54131603,-281.190598
751.8959995,2937,13.16622419,5.209461017,-23.7980183,140.0513177,-25.39460054,419.7122695,38.92044293,823.8187657,0,52.00562251,-250.1353385,0,0,-491.7587971,67.30357654,175.7872732
751.9039995,2937,84.32318461,23.78127249,37.38340712,-74.79303361,-26.39398362,-234.8777282,-143.9420579,-544.4009927,0,21.11833854,176.3993429,0,0,308.5800259,-30.34137888,121.4486308
751.9119995,2937,-37.74204583,-9.144103216,-54.14947503,42.86137721,-3.191113584,98.06195857,146.2065388,309.1290026,0,-66.66564947,-107.4410584,0,0,-1321.882731,12.87365416,-243.4180284
751.9199995,2937,73.07391244,10.50359568,22.67524201,42.10679747,-42.59051721,203.3427393,-138.8048819,277.6676993,0,98.35542957,-107.4114278,0,0,457.0850934,27.59070751,389.6135542
751.9279995,2937,8.146255422,6.176105331,-8.951983973,-87.88916822,-11.44334679,-323.7690802,14.86292558,-570.514907,0,-63.66025449,174.0043449,0,0,-749.36079,-43.83580807,-262.8084432
751.9359995,2937,-2.361291066,-0.932703823,-16.88231865,135.7236498,-25.45498408,414.7324833,63.55994169,815.7442008,0,46.55190168,-291.2359489,0,0,-603.6114513,53.71111644,148.3600304
751.9439995,2937,69.81182097,8.206750001,48.66451479,-88.06187218,-10.22219077,-239.0568077,-145.466173,-566.3809423,0,21.80232626,169.3550772,0,0,350.242275,-29.25321232,139.9292042
751.9519995,2937,-49.165021,-17.40704979,-54.81024018,40.99363842,7.542555354,88.55086117,152.0136752,300.7973503,0,-72.38817232,-97.1008689,0,0,-1334.074958,24.49393695,-247.8225807
751.9599995,2937,61.97343621,0.343888096,29.6366255,42.57540084,-33.72382341,209.7353989,-130.6460277,295.7126398,0,83.5923736,-124.7671607,0,0,439.9234845,18.72213773,384.4944162
751.9679995,2937,3.027394891,-3.730968531,0.41939459,-91.39856789,7.33453845,-323.3602981,16.29856896,-565.1013298,0,-68.68078753,187.0852842,0,0,-709.0852122,-39.51811056,-248.4166243
751.9759995,2937,-4.03576484,-7.429604062,-32.74347856,135.3396659,-23.41020272,419.173278,62.5668056,845.8190203,0,48.37670388,-276.6992045,0,0,-600.6975413,67.32225132,155.5541054
751.9839995,2937,68.85975725,0.152626743,31.3011748,-98.11910576,-15.24835578,-231.4176874,-157.2583187,-550.6185316,0,17.25206797,165.8931219,0,0,383.7711871,-38.30828834,145.0148722
751.9919995,2937,-49.61652274,-15.29690248,-64.89044572,28.62344868,8.733338526,96.15277114,147.9327908,312.7782493,0,-80.95394242,-86.612985,0,0,-1323.631347,21.4716287,-252.8789777
751.9999995,2937,70.25495755,12.24987303,13.54273165,33.75503501,-47.54385284,214.5450491,-138.9356977,309.6289606,0,94.48804753,-114.3403878,0,0,459.948736,22.59336151,389.9164591
752.0079995,2937,5.636473385,-4.247224156,-21.81839345,-111.0090739,-0.556207987,-327.9180955,5.737687446,-579.7881806,0,-54.81119761,191.5521624,0,0,-688.1833949,-47.46821318,-252.034572
752.0159995,2937,-16.40951448,-17.17852426,-59.95405537,113.2976397,-16.84737255,427.5773751,58.12285113,862.7627067,0,33.03667385,-272.3576971,0,0,-600.2084365,66.19800309,143.2884755
752.0239995,2937,72.81408398,6.723701418,16.97678769,-111.6749327,-25.91635757,-238.5574534,-168.728753,-542.0062396,0,7.398786412,173.9171983,0,0,436.8238027,-30.87851362,148.5280617
752.0319995,2937,-32.68353052,1.020142352,-55.02417866,28.90673345,-5.624527904,69.8569137,146.6404494,281.5177805,0,-61.29259538,-89.36271111,0,0,-1313.737606,16.1902182,-265.477533
752.0399995,2937,74.83090036,19.28997794,16.83943804,43.66190738,-44.1180746,219.5316907,-132.5402722,311.9350934,0,100.2519014,-130.6362244,0,0,445.1219614,10.3656694,386.3894269
752.0479995,2937,12.93140581,7.266394146,-27.31909606,-112.4799312,-3.685288049,-331.560534,4.563649408,-591.5965521,0,-78.82196315,193.2255172,0,0,-670.7800751,-56.46826985,-241.4142018
752.0559995,2937,4.140001517,10.05890006,-41.91130851,117.4107933,-29.50044633,410.3461509,60.77466767,833.2941779,0,28.62367765,-274.8604738,0,0,-626.2710238,49.88497289,140.4360803
752.0639995,2937,82.03757864,16.00619704,30.22918849,-106.3391133,-23.98183766,-235.4541767,-169.1032584,-555.6678613,0,25.45735857,163.5935448,0,0,411.7414282,-52.73645039,157.4817334
752.0719995,2937,-46.68566303,-19.54694235,-66.27629946,10.20434829,0.519203277,74.979779,140.1664281,280.959218,0,-77.94280145,-80.02597549,0,0,-1325.244382,8.788364281,-253.0702776
752.0799995,2937,70.50447428,18.79599337,26.28014709,37.51156587,-48.55447462,222.5751333,-134.6802032,326.638519,0,69.96655528,-118.9719934,0,0,454.2662501,19.58857472,400.4459679
752.0879995,2937,16.97219479,16.19102395,-8.852893089,-103.1825039,-4.454826008,-333.6356072,6.066396367,-599.6869447,0,-73.58550415,201.987206,0,0,-644.9313871,-46.32356924,-228.2058158
752.0959995,2937,-6.190923641,-3.346855947,-48.22298233,110.6999614,-35.66428804,404.5547814,58.88720917,828.9046387,0,45.44489802,-276.5097915,0,0,-626.4891666,54.94557802,140.8668872
752.1039995,2937,80.53923671,18.95141101,27.71497791,-106.8997654,-40.35221116,-251.4389035,-173.3552945,-570.1754539,0,23.64576666,147.94419,0,0,425.6102644,-62.87656942,153.0617981
752.1119995,2937,-38.59568136,-3.179934899,-64.19559036,22.41897165,-5.648966945,55.1752257,148.8166467,247.5348756,0,-82.83431823,-95.22028969,0,0,-1333.840271,-8.407097586,-267.0258676
752.1199995,2937,64.09777069,6.864094137,9.735571025,25.20388032,-53.62586883,217.0023124,-131.7539608,322.1630035,0,72.44672198,-137.1583677,0,0,442.6752063,9.192707949,392.1279798
752.1279995,2938,4.748219253,-2.48174517,-27.19982328,-131.0594868,-14.6411239,-346.9227953,-3.506188508,-619.9432256,0,-87.24052857,181.5149713,0,0,-642.4706176,-67.88173144,-247.2662612
752.1359995,2938,-12.8785012,-7.610813521,-50.18102233,107.6113526,-34.797744,409.6497016,61.66853706,831.2210262,0,22.7926035,-289.5607055,0,0,-644.0539031,41.36195341,120.1700732
752.1439995,2938,80.72231882,19.41107357,44.71324547,-98.17065549,-35.83429815,-228.8965063,-171.7568329,-541.288079,0,22.2885742,161.815252,0,0,463.88988,-45.47663594,164.4928764
752.1519995,2938,-28.18146153,8.609508219,-45.01773903,30.48321583,-5.420755329,58.85516101,152.9929545,248.6588277,0,-65.0197892,-69.65817651,0,0,-1297.170481,14.29213467,-262.4519721
752.1599995,2938,74.44752591,20.37344834,20.90209198,46.51259051,-50.42794492,224.1967784,-124.2029107,337.3324338,0,82.1342894,-121.3613539,0,0,464.0998223,30.3193492,400.8288458
752.1679995,2938,11.93502159,8.342021749,-11.86518612,-111.9803239,-16.86681716,-354.8723136,-1.550211316,-632.0798859,0,-87.41371753,198.3259582,0,0,-607.8044551,-54.89706592,-234.2171023
752.1759995,2938,-5.173454047,3.697949779,-40.34421938,115.4418671,-32.47020625,407.9273117,82.83491743,819.2940123,0,26.81790311,-281.9094822,0,0,-647.1448126,45.62664657,121.8083295
752.1839995,2938,76.92794732,13.15894236,36.75704399,-101.372999,-24.26166011,-212.0906386,-154.156146,-532.612997,0,6.75785095,177.6609292,0,0,498.9482577,-28.93208866,185.5901489
752.1919995,2938,-47.46786124,-7.946548284,-58.56688778,20.41288839,-3.844459938,55.19648322,152.7695144,229.2828299,0,-87.36712546,-56.84888254,0,0,-1271.561197,24.03267789,-260.1415415
752.1999995,2938,59.12295701,17.61334372,16.64572521,40.96274656,-47.09968865,227.329139,-114.8044259,334.3822629,0,93.58889256,-136.4956154,0,0,465.408894,25.73170069,388.6349002
752.2079995,2938,11.86809081,12.15360842,-7.763448658,-119.4143711,-7.331694488,-358.5199374,5.083043159,-644.9318429,0,-81.75504919,197.4096,0,0,-571.2546858,-50.18888009,-234.4793772
752.2159995,2938,3.401404395,7.47664565,-26.1490446,117.7691883,-36.08286113,389.9568874,73.26604482,797.986303,0,13.0058826,-287.4103342,0,0,-646.8766577,50.88191925,108.3700529
752.2239995,2938,88.53010453,25.13964423,58.29035264,-91.30044869,-26.45031883,-223.9683149,-163.434636,-547.6785121,0,15.3579657,157.189931,0,0,498.5845819,-32.51246193,174.8227848
752.2319995,2938,-33.83940438,8.118689913,-46.31581897,24.68829304,-1.941010195,37.28315687,151.3582911,201.4264626,0,-80.72879639,-63.53646461,0,0,-1276.731635,20.93163758,-266.6148182
752.2399995,2938,75.19979674,32.07354817,27.14490353,52.68662192,-50.50477831,217.6045372,-114.0284081,325.9248267,0,95.29695511,-157.6684769,0,0,436.475064,16.78715527,386.520583
752.2479995,2938,17.31031967,20.8697883,0.948787294,-108.110062,16.05499413,-346.3130523,17.82419611,-631.570785,0,-67.30842147,190.4096838,0,0,-569.9335198,-48.11366214,-220.9037725
752.2559995,2938,-40.58496079,12.87810649,-68.31697888,164.9272008,-1.13970246,499.3871633,207.5396197,1091.082935,0,-13.02327201,-342.0411188,0,0,-1294.637319,92.53315279,-42.57865877
752.2639995,2938,65.18521287,38.89184007,22.17428508,-6.110653285,-28.53982576,-1.274070812,-67.34960056,-51.11221045,0,30.35872566,-1.86046066,0,0,75.07432392,1.929815501,151.0230175
752.2719995,2938,26.6436383,29.90544282,3.910809418,-17.07986962,-2.765588115,-70.72697046,13.90646074,-119.0689852,0,-24.38826068,26.43209342,0,0,-470.0938759,-8.812583768,-65.74439466
752.2799995,2938,116.8785906,53.57847376,74.67830858,-91.04255012,-29.3047093,-261.515,-201.4711698,-647.3535959,0,46.78308327,190.2327324,0,0,710.6349822,-38.34393033,223.6963774
752.2879995,2938,94.98156962,51.53575084,72.62262964,-273.7265232,2.036569777,-897.5883303,-157.3007969,-1791.270954,0,-82.53686131,567.3130122,0,0,137.7069096,-128.8511674,-278.0043831
752.2959995,2938,1.745687643,22.93139142,-23.77640085,53.89420013,-9.842928295,165.8502971,73.98459217,364.1122288,0,-7.119135385,-125.606045,0,0,-731.1271651,30.79129961,-34.17632484
752.3039995,2938,23.92175797,20.56250219,-17.90654211,59.61423369,-34.50662541,249.0750574,-1.411961244,456.2926925,0,37.40085701,-173.0785092,0,0,-266.9134822,38.45136412,158.1303324
752.3119995,2938,51.94253123,27.76177352,14.43339455,-70.01799158,-27.24400586,-184.5685159,-68.70288001,-401.7341065,0,-18.80979573,85.77751486,0,0,-71.53424921,-36.52271242,3.207756631
752.3199995,2938,18.36197066,28.37723734,-11.14590623,17.7089496,-13.67253325,62.05058799,38.02870675,133.3937345,0,-7.585984104,-74.89061418,0,0,-561.3383336,2.041645919,-34.54732272
752.3279995,2938,17.38458298,14.10391718,-22.87430798,26.11875261,-8.229156707,168.3428184,9.6638561,304.4965247,0,24.36780392,-115.5286378,0,0,-347.5352948,21.33965176,81.74749903
752.3359995,2938,59.65215879,15.25301845,3.970663104,-73.92163881,-11.51005273,-130.3187068,-97.64657184,-323.538326,0,-6.655658439,92.07490997,0,0,109.1647989,-23.01452286,76.25478702
752.3439995,2938,-4.696009103,14.06376053,-46.47411738,32.25342204,-4.427816964,115.5361728,93.09141871,284.7658933,0,-33.93159474,-95.75288442,0,0,-922.4252564,13.49880493,-136.0176946
752.3519995,2938,63.34574351,22.34754359,5.130842048,4.963257365,-35.39010483,123.1290483,-100.3176574,145.8890702,0,70.55540637,-70.49897837,0,0,239.914651,2.166378294,252.7076609
752.3599995,2938,31.60031072,25.62007738,-9.81196221,-80.22202042,-21.16278563,-228.5439533,-7.622896554,-421.1214884,0,-40.85217559,113.2185982,0,0,-488.0940332,-45.87486687,-149.7512246
752.3679995,2938,9.322185618,31.81311399,-27.25185261,93.77867342,-40.07140317,290.5630358,57.72121703,583.848698,0,19.54867721,-244.4190773,0,0,-632.7258745,12.61494493,59.12178171
752.3759995,2938,86.26263442,39.88220524,41.5982353,-74.80903626,-47.14177657,-188.1841111,-149.7188058,-480.9842956,0,18.87662805,82.93436347,0,0,351.325517,-63.11063324,147.2553202
752.3839995,2939,-12.2324335,15.83821163,-36.02172247,19.18714946,-10.13627208,21.99978044,135.7992065,126.9701875,0,-67.55046942,-90.63578442,0,0,-1211.323815,-13.12946177,-250.6979478
752.3919995,2939,69.95692615,21.76020121,26.22803237,45.97200306,-35.45105158,216.6661313,-93.12002785,292.4677688,0,80.87755314,-162.0279472,0,0,280.1379431,5.350133044,329.8613882
752.3999995,2939,27.49526368,16.36434738,13.45368238,-100.0970721,-2.152883416,-311.0474366,-4.372832976,-609.6698846,0,-57.90693515,172.664066,0,0,-516.7522984,-47.77798776,-185.3505935
752.4079995,2939,-0.56077957,18.45989335,-16.00911521,113.9203005,-17.05190332,366.9960673,88.02230718,716.0082071,0,21.02558465,-255.7901226,0,0,-713.0639925,52.70551512,82.38954435
752.4159995,2939,85.75643177,33.56131755,51.00847313,-85.12104035,-24.81191223,-187.3080675,-157.7885347,-513.1321226,0,28.79876553,118.892862,0,0,460.2441804,-36.08028546,190.8773103
752.4239995,2939,-32.90092553,7.879646308,-39.49684996,16.11807648,8.337610891,12.74623056,152.9749293,106.4236526,0,-69.10101043,-62.23932918,0,0,-1278.385946,10.91236282,-270.8138734
752.4319995,2939,69.92985164,26.63106753,41.33821681,67.73003427,-23.97800488,263.9557874,-88.25219702,365.2293768,0,98.23844728,-163.516207,0,0,342.7558945,35.64358021,373.4277627
752.4399995,2939,34.52751006,24.75032601,16.27917162,-110.828007,8.081543829,-336.1494943,-1.183723943,-665.2712988,0,-52.93251637,205.0862778,0,0,-491.8098036,-30.63008638,-191.4094068
752.4479995,2939,-6.266106388,8.465353595,-39.42356985,108.1558176,-14.26893932,386.0699171,89.53214247,757.0736951,0,25.64450354,-273.49738,0,0,-730.9072199,63.10145283,83.19428877
752.4559995,2939,80.46432417,18.38988806,42.22977291,-89.22081575,-22.79110603,-177.8045654,-175.6376284,-503.872097,0,24.23175514,122.0550233,0,0,508.2759389,-35.7926259,197.926707
752.4639995,2939,-38.03823376,3.79604717,-42.68019228,7.559227798,4.868689646,21.04904808,142.0986538,124.7408452,0,-84.86902465,-40.49600472,0,0,-1273.368042,16.4643617,-277.6987903
752.4719995,2939,63.90085431,17.43151647,22.02206426,50.59379786,-36.25958378,275.3709904,-111.1684332,395.9803876,0,80.17241413,-160.1978538,0,0,368.5145273,33.02667795,384.4557813
752.4799995,2939,28.43945254,8.419670388,2.173137298,-123.8657261,0.178152953,-351.2663935,-23.80611437,-686.2662171,0,-84.12865647,206.9396165,0,0,-487.9789855,-52.78510621,-198.9436103
752.4879995,2939,-3.690128827,9.857874961,-36.00512852,118.2637816,-16.0508408,383.5015091,89.35528957,765.3291102,0,8.269575264,-277.7890746,0,0,-752.5806342,49.88961967,82.24503555
752.4959995,2939,83.71052609,28.14661984,41.90182052,-80.37537993,-23.32877871,-191.2005997,-178.3343362,-515.6499266,0,32.83130255,121.713764,0,0,515.1433748,-41.52552441,209.9966313
752.5039995,2939,-33.45138323,19.84045862,-42.06236482,19.23543272,-2.450080018,-5.37633187,142.5594518,88.34280864,0,-66.15546065,-46.62032862,0,0,-1294.114201,5.209935275,-281.6720271
752.5119995,2939,76.32894205,42.02999039,29.22010729,71.09917461,-43.04252248,258.0315343,-97.99975082,371.5747064,0,109.0491477,-170.0883578,0,0,344.245028,25.08855295,385.6733093
752.5199995,2939,34.48878823,18.01436589,-1.314694664,-120.5682698,7.233048706,-366.1759048,-14.47634742,-719.2630847,0,-67.59440781,210.5891478,0,0,-496.5967566,-54.66848758,-194.3237301
752.5279995,2939,-4.547278747,9.947010205,-39.66761516,119.5298831,-4.88037179,382.3295816,100.4125793,754.5792671,0,-0.688808307,-278.1341646,0,0,-779.4636398,51.00052134,80.42523512
752.5359995,2939,89.80078147,33.36970948,59.30508952,-63.14383588,-3.621471738,-182.3258835,-156.2099364,-511.5321912,0,29.33496094,123.4367848,0,0,511.2957548,-40.64041616,218.9876953
752.5439995,2939,-31.35177241,12.32371232,-30.75382833,22.50359761,28.61661254,7.677003331,162.6029883,102.0809611,0,-76.55777286,-22.27755751,0,0,-1287.657887,18.41032086,-264.2124876
752.5519995,2939,69.04165425,31.63246213,30.29131659,64.71114531,-19.50310306,282.4638035,-84.02125044,416.5522484,0,84.09180691,-153.9926984,0,0,360.6413148,44.56363493,407.443698
752.5599995,2939,30.00856269,25.0298012,13.0064759,-113.9043679,18.34936253,-357.2109005,0.811335985,-695.63571,0,-64.69101309,213.7282503,0,0,-463.7654915,-52.70649299,-182.6209945
752.5679995,2939,-12.55895334,9.065699017,-32.06264365,125.1852353,-3.117620195,387.8888106,110.9382668,784.5239118,0,25.16187247,-270.8900265,0,0,-761.4099162,49.39348209,87.44244709
752.5759995,2939,85.17241976,20.4233073,56.91652424,-67.55010559,-7.816640491,-172.3472255,-155.8448935,-473.0623388,0,45.70178727,127.1445557,0,0,559.8104543,-45.28692045,234.0375879
752.5839995,2939,-36.35019779,-3.458103597,-39.79399989,13.00530553,23.34177559,8.45492945,159.0706978,119.9047793,0,-74.90928366,-27.65132513,0,0,-1250.537735,-1.145533286,-267.6543321
752.5919995,2939,57.63995737,15.04855027,18.35655311,62.96784305,-31.13968764,288.2774818,-93.51736393,445.0569769,0,81.47947915,-166.6564299,0,0,391.1625852,22.78300408,404.1506767
752.5999995,2939,28.08578234,20.63458583,9.639047304,-113.6463841,6.453594092,-360.7299081,-8.750706772,-699.3428951,0,-54.34961625,203.5738785,0,0,-413.8347129,-75.01808759,-183.9567091
752.6079995,2939,-11.5345837,11.32096464,-42.12717894,115.3389503,-0.010974484,397.4211182,112.1387576,789.4757529,0,42.42799171,-285.2793594,0,0,-749.9544075,33.38842377,73.70541184
752.6159995,2939,85.58512668,19.40684597,36.85981276,-79.2146223,-10.0008888,-160.5075842,-164.446493,-461.8745452,0,45.9270162,119.0080228,0,0,604.0002294,-47.4182025,232.8779065
752.6239995,2939,-33.19785071,-2.667924619,-53.17502029,11.0419977,6.547359143,-3.0001456,145.8947696,94.5609714,0,-80.49186528,-31.79310884,0,0,-1215.163724,-7.159070932,-282.1761606
752.6319995,2939,64.3617125,27.74061955,17.82413292,73.25671808,-35.05066652,300.0830569,-93.23232687,459.009844,0,92.50147377,-182.9301019,0,0,391.5936152,16.18239221,387.9163096
752.6399995,2940,42.73779016,37.00816716,11.06395234,-105.0792706,6.09882768,-357.8941857,-9.061487119,-693.2271148,0,-41.07714645,202.9541758,0,0,-381.9257035,-68.44014235,-184.9194509
752.6479995,2940,0.381694865,13.07593772,-40.20276012,122.9048603,-11.18514925,388.8457727,114.539433,793.2770136,0,49.85683909,-285.0119994,0,0,-741.4880604,43.88281225,64.18913926
752.6559995,2940,88.28274106,21.28629821,45.11552639,-75.07904282,-9.990385041,-151.0560466,-154.7411823,-432.069669,0,59.5042023,116.0022702,0,0,628.8092259,-32.2633012,235.9259283
752.6639995,2940,-32.57733792,3.975919157,-49.51801923,8.231714852,18.40524816,-5.460554181,165.209472,97.42351996,0,-75.03186345,-26.28767914,0,0,-1196.876618,9.810624339,-283.8177374
752.6719995,2940,61.38909233,16.72611034,10.37086529,72.25872218,-22.96996561,308.3534373,-71.12027166,482.8601118,0,85.62107294,-187.1299259,0,0,397.3388197,28.91026051,385.6667411
752.6799995,2940,31.04805054,20.54376016,1.240768608,-112.735675,15.93650067,-350.0504867,3.532343771,-671.9540737,0,-55.27743625,215.7793881,0,0,-322.0719828,-51.70259585,-170.9918717
752.6879995,2940,-10.19715476,8.969937518,-41.04828488,113.9258629,-21.32599607,372.520577,122.567126,784.3206489,0,29.22942392,-282.4744712,0,0,-714.8037377,46.70021734,59.8284449
752.6959995,2940,87.69468097,17.69966042,56.25659203,-78.3135341,-29.35649455,-175.9388923,-162.639158,-454.4841693,0,55.75043853,86.98908342,0,0,632.9289424,-54.45525595,222.1334101
752.7039995,2940,-31.34977203,-1.263989795,-34.23844126,11.64271032,20.70575274,-24.51851654,155.5350224,86.68438806,0,-61.54372729,-35.76205029,0,0,-1184.56149,3.503550477,-293.011645
752.7119995,2940,64.55796064,14.81533442,19.84342105,71.51618847,-18.99133636,303.3362279,-73.62839847,506.8180733,0,112.9294836,-188.8194303,0,0,422.4661054,48.34020781,385.0866471
752.7199995,2940,38.02119666,14.91398305,2.427729882,-121.0986213,8.72647581,-372.3204718,-11.05744538,-683.1670174,0,-37.69821919,202.303963,0,0,-293.6273991,-46.59281862,-183.0784724
752.7279995,2940,-3.826905803,8.010453312,-40.88724634,132.1382689,-20.31198032,354.0106261,113.6336342,778.0968173,0,22.86221048,-301.8436933,0,0,-734.4060707,43.68491113,34.93503151
752.7359995,2940,112.6837239,26.40343076,78.70805643,-150.841687,-11.12590115,-449.3264235,-209.6807651,-993.6906947,0,27.33785237,249.9675118,0,0,807.1658153,-86.80090009,140.1371587
752.7439995,2940,-57.16483045,-9.570561655,-40.72089967,-189.8724551,71.74723696,-684.9061663,217.9463102,-1099.649775,0,-231.0299562,348.7348285,0,0,-1846.119104,-80.0660639,-833.1791228
752.7519995,2940,-32.11467928,-8.328983824,-38.98986814,20.05458993,28.57900151,22.02468011,162.4084336,172.7697246,0,-88.46689607,-84.39815308,0,0,-1167.053298,11.08383826,-265.7408047
752.7599995,2940,37.43006132,8.333408574,10.83377203,-68.27097137,13.15189806,-208.3750188,-20.4917592,-395.9999512,0,-14.34669659,81.49476668,0,0,-192.7550491,-29.90324913,-62.81923953
752.7679995,2940,12.27781343,0.644768975,-26.35430766,92.24012685,-5.609199587,329.3396763,29.91496374,656.8582387,0,62.16494999,-265.0054191,0,0,-258.128325,55.3926882,182.731343
752.7759995,2940,41.33901723,7.708704549,23.38545673,-72.05243799,-3.059546343,-170.829613,-94.19274142,-368.0823976,0,4.258166602,57.67432389,0,0,190.1374819,-27.62053567,70.82738507
752.7839995,2940,-30.55726514,-6.428327176,-37.66481693,10.82749652,22.5530357,23.22388495,102.5926332,138.1676448,0,-62.46873731,-79.28727244,0,0,-873.3869366,19.37914413,-183.2157388
752.7919995,2940,54.54900685,5.643814362,2.467144857,72.22526041,-15.38007628,274.5618299,-84.65043268,464.8081778,0,80.19788105,-200.1892304,0,0,391.9638067,55.73362834,352.59192
752.7999995,2940,20.96989383,8.848237303,6.266134214,-105.6656777,5.514458902,-345.1374901,-8.645752747,-605.3494708,0,-64.65418231,143.0866401,0,0,-385.6944183,-41.53101901,-207.2552368
752.8079995,2940,-7.399896509,8.473413258,-29.57333948,114.9099044,-9.351456497,357.478191,84.1268386,759.3530376,0,28.04329097,-320.4424909,0,0,-539.1582014,52.58915197,93.91286462
752.8159995,2940,68.07052659,20.25189207,26.64497703,-59.44219413,-5.409686657,-156.87377,-135.5939729,-381.4326944,0,51.89021974,39.52080504,0,0,525.8183082,-25.12309656,186.9062582
752.8239995,2940,-44.63916268,-7.673116551,-50.96404433,2.068931136,21.01106786,-19.43468928,128.6377887,96.45543698,0,-63.91512825,-77.6733403,0,0,-1048.834144,11.21460562,-260.278672
752.8319995,2940,48.00395862,2.887271223,11.73904853,70.2020565,-14.58522679,317.4837743,-82.58578508,548.178262,0,85.1338043,-218.7637589,0,0,411.1540409,57.65933657,373.6694462
752.8399995,2940,21.26880993,-2.691492281,-1.973571546,-126.4540467,19.17076645,-342.2655702,-27.21250813,-617.8366057,0,-65.55178321,185.1859277,0,0,-232.6544805,-27.22062107,-167.6278663
752.8479995,2940,-28.54398306,-7.041650463,-55.85638877,106.5514374,-11.08574463,365.6130973,95.50214339,808.0868365,0,8.035094892,-307.5555465,0,0,-629.5955782,60.63758758,52.03968224
752.8559995,2940,73.31932031,20.24891799,38.86829499,-61.92738973,-21.58390399,-143.9026931,-164.614974,-364.1417295,0,55.22640594,43.04051515,0,0,675.9833009,-35.08899506,222.9489851
752.8639995,2940,-44.61131126,-10.50370896,-45.36684324,-7.394582823,14.26875637,-41.33479552,130.1095185,66.70312846,0,-67.91013916,-61.72305311,0,0,-1076.209181,-3.148933195,-295.8164778
752.8719995,2940,44.41939963,2.825814726,12.77273513,75.50828933,-33.59715304,304.5784753,-87.80794803,547.6608066,0,88.79827425,-237.319245,0,0,397.9768091,36.32771121,355.0188417
752.8799995,2940,30.32057149,6.437270247,14.21033736,-112.2678747,9.074040624,-369.1963592,-33.12209084,-667.782917,0,-63.6907783,172.8139715,0,0,-204.8278198,-55.74250512,-175.3687027
752.8879995,2940,-28.94148119,-15.74937116,-46.71251377,120.2316393,6.456202029,365.9959021,113.0883391,801.8847172,0,5.39655989,-311.7658452,0,0,-698.0216974,50.91812896,27.56432227
752.8959995,2941,74.75711016,8.778949432,45.28445337,-52.41890591,-7.019748998,-137.0193984,-175.336198,-359.1672113,0,55.97985327,52.72424058,0,0,736.7036641,-28.45042511,247.6784662
752.9039995,2941,-35.55289269,-4.643597859,-39.10182713,4.617073873,29.99674812,-45.65617789,132.8598161,59.85652119,0,-74.70075992,-32.06175013,0,0,-1060.441936,14.2700438,-292.6379548
752.9119995,2941,49.50293738,4.542381089,16.78060111,94.02134626,-17.50188233,322.4218136,-84.37668711,568.6463072,0,95.06066389,-224.4007402,0,0,431.8472613,54.74614416,370.2194295
752.9199995,2941,35.41099994,11.11450098,30.25090405,-92.05913445,15.38596303,-369.5543784,-42.40290019,-673.7686055,0,-35.94724749,180.0097945,0,0,-157.6520942,-51.97643503,-161.4120044
752.9279995,2941,-11.90003012,8.647251595,-19.32369703,137.2461544,3.924099532,357.4854783,112.9138822,799.1926531,0,40.9225179,-293.060193,0,0,-696.4670386,58.71937421,30.41208189
752.9359995,2941,95.7206151,30.83820248,65.77296957,-46.54042741,-22.35703576,-151.1947624,-181.866857,-379.0218092,0,73.99475504,55.59316126,0,0,761.6183789,-30.26412571,251.9921814
752.9439995,2941,-26.5633043,0.079517359,-25.76741797,12.54908821,15.31645557,-77.21198126,128.1752138,6.933736199,0,-60.66284162,-58.88613186,0,0,-1097.882175,-13.30068981,-322.3948341
752.9519995,2941,52.0076535,8.181825653,26.53997083,104.4107308,-24.50542605,308.3604452,-85.26823582,547.9324078,0,109.4479949,-250.5829765,0,0,392.2636178,39.95724268,356.8188936
752.9599995,2941,44.57313491,26.27011922,36.35704353,-98.43411665,9.556347445,-384.9417266,-43.55101297,-708.189899,0,-49.29869908,173.2629741,0,0,-162.0848273,-54.17803284,-164.4473772
752.9679995,2941,-7.137834788,12.12960532,-22.39339308,126.4708503,2.981588283,351.739827,120.4478221,775.6898708,0,30.11733098,-311.9623123,0,0,-742.7385437,50.62004906,9.259168579
752.9759995,2941,88.91018067,19.23349667,56.66772645,-52.39181329,-18.49178299,-136.7738909,-178.4137419,-370.6252371,0,76.50989347,49.93286362,0,0,759.7237972,-22.40711352,263.0214469
752.9839995,2941,-25.26515426,8.894494063,-31.7786967,5.610623373,7.910868357,-81.77769082,129.4301282,-17.44729404,0,-75.22779635,-38.77371678,0,0,-1086.424727,0.078326737,-307.6627351
752.9919995,2941,59.7762486,23.88193019,14.26488591,90.08149025,-35.921155,311.9396862,-82.45742526,533.0676033,0,111.9287658,-256.5143137,0,0,368.2763953,32.04329526,355.247115
752.9999995,2941,31.56877434,13.14065413,13.33789455,-115.7289978,6.596257896,-378.6530143,-49.99364177,-724.2347943,0,-30.98938731,173.6445478,0,0,-161.1199227,-63.88843649,-160.3648788
753.0079995,2941,-25.23320949,-9.364830557,-41.04063449,118.5754779,-5.201985855,351.244968,112.6446395,757.2295385,0,8.093965469,-296.9773154,0,0,-749.5757573,46.36361673,6.201699516
753.0159995,2941,88.10979687,10.97297898,43.87765271,-68.86985274,-21.45220879,-119.7643718,-184.3199046,-364.5366029,0,39.14757139,55.10353095,0,0,772.5180707,-32.42454972,260.5574343
753.0239995,2941,-30.33327932,2.167643673,-44.67066572,-12.59691958,14.04154179,-67.57200673,130.2327209,-17.25277484,0,-96.52729879,-25.37411007,0,0,-1065.720503,-5.469931221,-313.3251571
753.0319995,2941,56.96962427,17.40258245,15.16817312,92.98994918,-33.58741056,329.1793045,-70.96580275,549.4425833,0,101.3346836,-244.4898605,0,0,384.1269037,34.74636363,357.3514085
753.0399995,2941,39.26310761,7.625251555,17.33517613,-126.111163,15.07366464,-365.4173789,-39.84620014,-716.9683637,0,-36.62057877,185.3350846,0,0,-121.6129087,-61.03400775,-153.2668763
753.0479995,2941,-27.51833503,-12.75130955,-40.80881204,104.2765095,7.312324679,361.9410804,122.9176443,768.6815198,0,-3.562679486,-293.38812,0,0,-742.5272153,47.17611662,-2.036798885
753.0559995,2941,85.72640011,13.91820983,60.46592261,-52.90582787,-10.87129048,-101.7637482,-177.0934233,-334.4017492,0,46.10341481,63.43537637,0,0,803.330048,-25.15130655,268.5466609
753.0639995,2941,-32.82207448,-5.110592389,-28.7812567,-7.642597167,26.2861519,-62.28073395,130.9249055,-1.787364868,0,-85.23882963,6.617022999,0,0,-1018.623327,12.70577406,-302.0921484
753.0719995,2941,45.42400826,2.433659128,24.05348539,93.79868023,-21.8262222,341.0933102,-72.77404665,590.8872353,0,88.8843998,-224.6544391,0,0,414.1562939,50.54364954,362.3904015
753.0799995,2941,34.14398511,4.291834181,36.50597417,-93.61716382,31.34738599,-351.3536433,-43.14934262,-672.2787398,0,-33.38094875,214.1913728,0,0,-55.17747495,-45.54644331,-136.5317455
753.0879995,2941,-28.18389945,-9.199540762,-32.83310777,132.7692008,21.46277336,369.6561683,122.8541597,806.9806286,0,19.76108523,-247.4723948,0,0,-678.6844729,76.36618147,17.2218294
753.0959995,2941,80.97649602,20.63029002,46.64000662,-44.49031983,-23.51578403,-120.1961736,-188.168448,-340.1759333,0,64.16057872,73.06496462,0,0,852.593593,-18.81209849,275.4266342
753.1039995,2941,-33.48162028,4.071247696,-36.25394871,9.255913593,9.065738399,-104.6818942,119.8614228,-58.82521945,0,-77.27569128,-16.47571679,0,0,-1026.329725,-19.91620062,-326.2031474
753.1119995,2941,51.38595708,7.507083334,28.68100135,111.3762341,-18.14779182,328.7572696,-73.06264656,581.0054196,0,92.92794314,-239.3058262,0,0,391.8524494,32.77798784,354.5788912
753.1199995,2941,32.87380495,5.331717993,32.63328327,-102.599602,31.10902312,-368.7264114,-53.94718274,-692.2998382,0,-35.75581862,218.5140984,0,0,-29.75373888,-49.45070657,-123.2565522
753.1279995,2941,-35.76127435,-13.19397588,-40.7716063,125.806912,22.15678897,350.1948855,112.0047722,789.3272067,0,7.271304807,-250.7276394,0,0,-685.2928282,57.55634965,11.40599809
753.1359995,2941,82.78206913,12.67756925,54.39954989,-39.52809385,-12.33006311,-116.2613267,-195.0773032,-313.1830503,0,58.37991884,76.37452704,0,0,873.5904288,-31.21125321,285.163297
753.1439995,2941,-30.27537623,3.066203833,-22.51850504,1.520412617,18.92478101,-110.8048978,122.9547069,-44.82775404,0,-74.19613084,10.77702822,0,0,-980.843388,-14.31712394,-310.8485004
753.1519995,2942,50.67815494,15.88632184,34.44441122,106.0116061,-12.76474765,319.725205,-63.48591751,594.6312761,0,99.68422388,-227.6249386,0,0,414.6408457,39.24412114,358.1800738
753.1599995,2942,46.18674553,23.18137117,46.44867398,-95.04626776,22.50165785,-403.3774895,-53.6158605,-728.1746869,0,-30.04795129,213.4198906,0,0,-14.39191475,-59.88763261,-131.8905078
753.1679995,2942,-19.83520559,3.304232433,-22.50077025,136.5626924,16.05358156,308.1568791,127.9502389,738.963518,0,13.24235122,-268.6303669,0,0,-737.2654298,35.71381971,-16.19375353
753.1759995,2942,79.00961537,7.723167478,51.90125947,-41.89293459,11.9184088,-122.9339593,-175.7312106,-314.8896329,0,62.31391524,63.10241333,0,0,844.8680357,-36.93881874,279.4205448
753.1839995,2942,-35.46891672,-5.452526975,-35.27328644,-9.291051163,44.64701799,-115.445539,122.2071732,-54.30165052,0,-79.97523878,26.62238776,0,0,-969.3895077,-3.490158461,-306.1673839
753.1919995,2942,49.87928629,10.01034993,23.76478072,99.39950486,-9.808534712,321.8710079,-68.88728197,598.9256322,0,90.76047899,-224.1953722,0,0,400.0212372,39.42313724,353.9361475
753.1999995,2942,31.88447853,-1.924489453,22.11097,-115.1548266,37.53293499,-382.8210717,-60.35092473,-702.4677283,0,-46.1892203,223.7832594,0,0,10.38394989,-56.9018654,-122.9610229
753.2079995,2942,-32.54996937,-17.93330658,-51.14742905,114.6227948,28.92965207,335.4085746,117.4828731,778.2346531,0,-7.873258335,-230.3020671,0,0,-683.5673619,58.86772227,5.142862479
753.2159995,2942,107.3641041,10.68312685,62.98105606,-139.4346519,-7.661392867,-376.4129099,-258.7611523,-834.004087,0,36.15156003,256.4745563,0,0,1189.92982,-75.57487276,259.7407851
753.2239995,2942,-44.69491487,-16.86774407,-49.2603095,-103.822797,35.78112819,-403.1191158,114.2022112,-560.7224278,0,-125.5646839,187.4646947,0,0,-1084.896895,-72.98927826,-494.5716559
753.2319995,2942,6.828112686,-8.684944497,-23.67349928,200.4389634,-22.47708142,637.4598591,13.1131635,1272.585466,0,114.2984407,-450.3478948,0,0,59.68432914,55.9113124,389.6854755
753.2399995,2942,75.07338658,9.167581384,54.7893831,-144.6508114,13.1757156,-458.1645342,-173.0511321,-937.504121,0,-3.692120607,277.8943477,0,0,648.3338279,-103.3178162,38.9415223
753.2479995,2942,-61.99146498,-24.7508518,-69.85119167,52.52685274,41.72867851,140.5147723,175.9642899,452.3494905,0,-55.80374528,-124.8169138,0,0,-1138.412476,18.55482202,-248.9093972
753.2559995,2942,59.35772639,-8.022780586,21.11520393,47.91511769,-10.36051241,274.6274069,-143.1514692,441.8022833,0,93.1253557,-150.2368196,0,0,864.3971699,25.25916853,456.5658456
753.2639995,2942,0.822100041,-9.611921834,6.301264595,-117.1010401,32.23840371,-420.4161234,-0.287834153,-720.451219,0,-99.22509913,246.6757679,0,0,-330.2448893,-69.49951402,-280.8058748
