Time:125Hz,Epoch,FP1,FP2,C3,C4,P7,P8,O1,O2,F7,F8,F3,F4,T7,T8,P3,P4,,,,
35.40799997,138,-452.9135758,18.79828175,0,-77.71836998,0,0,0,0,-21.80311068,-146.2278466,-225.0703034,-410.3392371,-25.27135304,-291.8032225,0,0,,,,
35.41599998,138,314.0524377,32.41884019,0,61.45618054,0,0,0,0,70.25371577,6.473783294,40.05063789,216.0762141,44.0623378,-70.90758223,0,0,,,,
35.42399998,138,-331.4287543,56.2457178,0,-106.335688,0,0,0,0,-39.14121129,76.66751188,-65.52312468,44.56582032,-40.03843405,164.9553166,0,0,,,,
35.43199997,138,-88.65018534,43.59252099,0,74.87570305,0,0,0,0,73.65976711,-155.4235357,-185.1075369,-270.0021928,59.72136357,-440.2911321,0,0,,,,
35.43999998,138,119.7853893,40.95863783,0,-23.80055227,0,0,0,0,33.28985162,188.7213237,104.0610734,458.1847237,20.1286701,308.1060368,0,0,,,,
35.44799997,138,-510.989051,30.50126957,0,-48.67653659,0,0,0,0,4.741623151,-102.3914367,-229.6910264,-359.1973945,2.271924752,-277.2294912,0,0,,,,
35.45599997,138,268.5573564,22.17413276,0,72.10954758,0,0,0,0,85.16026112,30.23500656,40.65576582,224.7933062,61.52906423,-77.15225668,0,0,,,,
35.46399998,138,-343.3252915,31.55117885,0,-101.2174067,0,0,0,0,-21.6267339,94.29867021,-62.69307959,58.00465809,-30.77161668,175.0359533,0,0,,,,
35.47199997,138,25.40330104,10.4042944,0,157.8070094,0,0,0,0,125.2300119,-306.03594,-248.4350642,-524.8402452,92.4655347,-807.7568972,0,0,,,,
35.47999997,138,642.7983146,13.68677603,0,170.7131375,0,0,0,0,143.6307517,-21.59206059,95.41133421,268.5562471,101.8340505,-235.5665167,0,0,,,,
35.48799998,138,-128.0580451,19.28014333,0,37.35411646,0,0,0,0,54.95269318,-123.5240692,-162.4564048,-263.1600379,34.54345933,-355.8628356,0,0,,,,
35.49599997,138,398.8943099,9.928403062,0,176.0831189,0,0,0,0,140.0033387,-167.5028747,-68.0495335,-115.5491749,103.3599197,-534.5870776,0,0,,,,
35.50399998,138,249.6338473,17.02759169,0,83.48064433,0,0,0,0,85.72248464,-42.27602574,-17.61717057,45.28178091,58.04596879,-218.3232927,0,0,,,,
35.51199998,138,116.5708926,12.73700945,0,109.8414822,0,0,0,0,96.65739711,-172.942225,-142.7856222,-257.5026525,70.41892976,-500.9143992,0,0,,,,
35.51999997,138,400.7021642,12.71720515,0,130.1302839,0,0,0,0,112.3943419,-77.62209829,-8.948996507,39.38312172,81.04177588,-318.7968437,0,0,,,,
35.52799998,138,-194.596503,25.78054971,0,-34.88920155,0,0,0,0,28.95133127,23.41967939,-12.15571837,-0.723740537,7.353736771,-32.69568524,0,0,,,,
35.53599997,138,-470.0661302,30.9833757,0,-74.20163269,0,0,0,0,29.67055243,44.14834639,51.739832,-21.51788315,-3.816440257,-8.608863332,0,0,,,,
35.54399997,138,-113.4578275,19.82956655,0,45.07552174,0,0,0,0,91.44434584,-37.75807787,64.13416312,-27.60679908,48.03749093,-241.0791336,0,0,,,,
35.55199998,138,404.8221775,23.28875627,0,15.55966739,0,0,0,0,74.30208913,264.5206506,360.4957359,731.2894827,35.21977503,414.9367431,0,0,,,,
35.55999997,138,272.5489239,31.63136829,0,-71.03104668,0,0,0,0,33.44264616,399.8635825,453.2524705,936.1397615,-2.103808812,734.5033598,0,0,,,,
35.56799998,138,198.7978699,21.50397766,0,17.25406574,0,0,0,0,72.93814071,154.0082589,242.465002,436.9162509,35.33464981,183.7901938,0,0,,,,
35.57599998,138,359.1467689,26.02298542,0,-24.95088989,0,0,0,0,52.84584079,322.6909039,397.1436196,814.0208876,17.59636924,557.1466425,0,0,,,,
35.58399997,139,224.0793986,25.55431622,0,-30.832322,0,0,0,0,48.18843205,267.2570578,331.7600753,653.2899633,14.36154188,445.0531289,0,0,,,,
35.59199997,139,306.9630626,21.60671147,0,5.414484766,0,0,0,0,64.59476076,217.1140216,300.6406632,585.9411589,30.1755324,326.1278609,0,0,,,,
35.59999997,139,-169.6351759,23.50711101,0,-74.86046694,0,0,0,0,19.58830059,136.7314841,147.7475991,221.710788,0.569699906,213.0148634,0,0,,,,
35.60799997,139,-463.1776826,8.413012306,0,-3.009972133,0,0,0,0,52.74599788,-189.7167703,-151.3148046,-517.5748541,39.74289421,-493.9414335,0,0,,,,
35.61599997,139,150.818631,3.401977172,0,20.33039208,0,0,0,0,70.0066283,75.96472291,172.9641666,252.9937353,41.9832992,41.03823656,0,0,,,,
35.62399997,139,-292.8949173,1.438445072,0,-95.39687925,0,0,0,0,4.028786094,74.10610399,75.26056057,47.50717158,-9.964761275,122.3972945,0,0,,,,
35.63199997,139,-239.878362,-29.51915349,0,-0.147450178,0,0,0,0,50.31880973,-162.5246773,-79.36525443,-390.1432916,48.27187179,-419.5122047,0,0,,,,
35.63999997,139,260.2629098,-35.14484215,0,-39.29496938,0,0,0,0,19.81182908,134.932111,257.2363463,353.030984,21.30408777,228.6440394,0,0,,,,
35.64799997,139,-434.2121453,-9.936509439,0,-105.6333043,0,0,0,0,-31.60589663,-72.14965108,-44.57400897,-338.6034554,-15.51174162,-123.0494706,0,0,,,,
35.65599997,139,122.4808375,-12.29068627,0,50.57163565,0,0,0,0,65.46298405,-80.21056382,54.93364018,-74.53716107,55.9286565,-245.8568727,0,0,,,,
35.66399997,139,-51.73623718,-2.854047045,0,-101.7382983,0,0,0,0,-10.80593777,145.0534966,178.5237338,263.2359163,-21.57286898,314.301384,0,0,,,,
35.67199997,139,-370.0106083,4.477585235,0,-17.15238273,0,0,0,0,34.81503794,-181.0034279,-135.2902074,-481.2734469,26.01786017,-405.7125895,0,0,,,,
35.67999997,139,345.23879,-12.87667477,0,31.74330399,0,0,0,0,69.01511006,98.29996492,195.4358906,339.3191384,52.0227356,123.8830738,0,0,,,,
35.68799997,139,-876.8860102,-9.107040456,0,-231.0020548,0,0,0,0,-87.15769162,-31.38331588,-152.038613,-472.6270018,-70.82685455,42.36051147,0,0,,,,
35.69599997,139,-834.243688,-9.579550702,0,-83.87774929,0,0,0,0,-7.502018582,-317.8623527,-347.6217639,-973.5756653,-0.964359323,-641.3669032,0,0,,,,
35.70399997,139,-295.3238833,-12.13774743,0,-108.1187975,0,0,0,0,-16.41661335,22.3071193,0.845159089,-111.402422,-14.53971813,67.55325588,0,0,,,,
35.71199997,139,-874.3953407,-8.514126104,0,-160.9766465,0,0,0,0,-52.18601983,-186.8948296,-268.9870977,-763.2188714,-37.99842203,-319.5655149,0,0,,,,
35.71999997,139,-449.5456745,-11.9555752,0,-74.12188651,0,0,0,0,-1.41605986,-141.4661683,-151.7223882,-487.1362592,1.51150387,-287.5883514,0,0,,,,
35.72799997,139,-577.8645485,-9.958122036,0,-148.2264557,0,0,0,0,-44.31784841,-59.73851879,-123.2629496,-402.5439907,-33.44480704,-68.50346913,0,0,,,,
35.73599997,139,-633.4607295,-10.61943844,0,-102.0294047,0,0,0,0,-20.5939773,-191.2977238,-230.0249041,-670.298517,-11.63793619,-367.6160884,0,0,,,,
35.74399997,139,47.09779971,-12.50420154,0,-3.756114222,0,0,0,0,38.04818294,-37.59702311,21.2948284,-79.42560105,31.93712447,-118.3978376,0,0,,,,
35.75199997,139,337.8855592,-11.15797512,0,24.75648912,0,0,0,0,56.86150941,49.63744496,143.5517442,217.0386047,42.82927479,47.89778893,0,0,,,,
35.75999997,139,-94.38044398,-8.426346981,0,-180.1877806,0,0,0,0,-55.7552176,249.3818639,183.8713816,386.0519087,-54.2182111,597.275555,0,0,,,,
35.76799997,139,-286.3704336,-7.623203005,0,-223.9997403,0,0,0,0,-82.86359536,235.3397242,130.6946309,266.4734579,-74.20761468,598.1673241,0,0,,,,
35.77599997,139,63.2986557,-9.594329953,0,-100.5857448,0,0,0,0,-14.4506255,157.7034356,150.0349021,281.6517112,-17.07607191,356.6685309,0,0,,,,
35.78399997,139,-154.6013512,-8.314682703,0,-197.0873641,0,0,0,0,-68.85806568,242.372868,158.6478115,333.5909474,-62.49494844,595.6770947,0,0,,,,
35.79199997,139,-93.47844264,-8.852810545,0,-153.5721514,0,0,0,0,-46.32799316,178.9552197,125.8357646,241.4592152,-42.1291536,437.1462186,0,0,,,,
35.79999997,139,2.784158543,-9.308835248,0,-139.6094677,0,0,0,0,-38.66460819,198.1098308,157.1506934,317.762942,-36.15907371,467.4123676,0,0,,,,
35.80799997,139,-135.6087268,-8.873262536,0,-80.400793,0,0,0,0,-9.935841014,-3.677413252,-12.66336541,-117.5957649,-2.240529278,23.34181574,0,0,,,,
35.81599997,139,318.5860451,-17.32719588,0,103.80104,0,0,0,0,88.08213228,-143.4074942,-15.37277878,-181.8229837,86.10944563,-383.9256088,0,0,,,,
35.82399997,139,269.3195945,-23.10438594,0,-40.615359,0,0,0,0,1.36878276,139.5821441,164.367575,283.2781838,7.586980456,279.4602617,0,0,,,,
35.83199997,139,-77.28622425,-12.09137937,0,-32.9121456,0,0,0,0,-0.144198817,-66.597286,-51.4963746,-250.5263417,9.179683493,-143.9465125,0,0,,,,
35.83999997,140,387.8590978,-4.881436559,0,93.3505091,0,0,0,0,81.70353798,-62.8038637,43.18948994,-11.41408517,72.94287605,-215.6305709,0,0,,,,
35.84799997,140,122.6849107,-10.49126772,0,-76.27147196,0,0,0,0,-2.71859671,146.6100276,135.4849521,248.0027215,5.374781577,327.5414324,0,0,,,,
35.85599997,140,20.53079636,-15.08695263,0,23.72065103,0,0,0,0,51.51692466,-168.3780055,-84.61537083,-378.9416481,60.44642751,-376.0515827,0,0,,,,
35.86399997,140,515.1859906,-9.292224173,0,34.19161613,0,0,0,0,56.26613769,83.7745064,181.8203499,294.7368778,52.60308169,129.9659133,0,0,,,,
35.87199997,140,-78.18128423,-14.90949723,0,-82.80732633,0,0,0,0,-15.96648022,-1.731052639,-12.48641029,-146.6055822,-0.961846085,38.29413936,0,0,,,,
35.87999997,140,401.8077938,-33.54644315,0,73.29592526,0,0,0,0,72.47513533,-133.0815511,18.34010572,-169.792683,69.39276357,-334.4499765,0,0,,,,
35.88799997,140,341.3713222,-16.17048216,0,-81.20535572,0,0,0,0,-15.46611672,167.7095848,216.610007,347.1731749,-9.836789197,387.6237327,0,0,,,,
35.89599997,140,-60.70699441,-0.816489095,0,-11.61221614,0,0,0,0,17.25746893,-181.8974922,-116.923923,-462.6970812,34.28730946,-361.6261522,0,0,,,,
35.90399997,140,648.258063,-8.715012617,0,56.57965529,0,0,0,0,61.18362962,57.67784283,183.7267162,300.1845088,62.13105569,67.79133046,0,0,,,,
35.91199997,140,-55.28835142,-5.672759595,0,-109.4463253,0,0,0,0,-32.43128919,23.31341354,4.502536262,-104.351069,-13.57245101,94.93522979,0,0,,,,
35.91999997,140,631.3219368,-9.412247413,0,208.0081113,0,0,0,0,148.7768578,-288.2736624,-57.14789888,-353.3000394,138.4033337,-754.5682367,0,0,,,,
35.92799997,140,1125.082689,-8.932360396,0,178.5830722,0,0,0,0,134.0799738,54.03453326,274.5135542,499.4260212,116.30012,-34.76167385,0,0,,,,
35.93599997,140,328.9011245,-7.083244045,0,64.13814299,0,0,0,0,64.51071587,-145.4307003,-32.47469967,-238.9091503,68.22641576,-364.6607112,0,0,,,,
35.94399997,140,934.3894313,-10.21254314,0,203.4430513,0,0,0,0,145.2197183,-114.968091,117.1173797,97.11224546,131.1483409,-395.884308,0,0,,,,
35.95199997,140,688.4458512,-7.552936238,0,98.31585498,0,0,0,0,83.97067856,-21.35385429,123.1250213,150.871301,80.08428187,-133.0605809,0,0,,,,
35.95999997,140,612.8139431,-9.314791959,0,139.9177443,0,0,0,0,106.0151546,-160.5841491,12.79789155,-140.9175243,102.3148441,-445.1819964,0,0,,,,
35.96799997,140,866.9400189,-8.992146958,0,147.8433836,0,0,0,0,111.0697896,-35.27022268,148.5743451,204.2460879,102.4877659,-193.9169217,0,0,,,,
35.97599997,140,580.7140678,-8.540566193,0,106.3565413,0,0,0,0,85.29667366,-107.7020327,36.40050994,-63.76860025,84.78913319,-313.3809011,0,0,,,,
35.98399997,140,791.3873685,-9.629972738,0,150.9916451,0,0,0,0,110.7249406,-90.03957757,91.93338287,64.56827748,104.5771782,-306.9653011,0,0,,,,
35.99199997,140,430.9292271,-6.325318671,0,-11.54021563,0,0,0,0,17.56477733,64.94430603,115.3934318,185.3536447,23.28458126,116.1883335,0,0,,,,
35.99999997,140,-47.9983095,-6.156917299,0,-110.021559,0,0,0,0,-39.75879607,17.01950056,-23.28955105,-112.4251601,-19.8544317,84.75110924,0,0,,,,
36.00799997,140,350.5765954,-11.40820052,0,45.0099689,0,0,0,0,48.59422709,-91.96471571,-12.25932586,-138.9086459,66.69402445,-238.7694741,0,0,,,,
36.01599997,140,438.8378323,-1.769126458,0,-5.936426244,0,0,0,0,13.1343065,82.66677585,123.4834129,197.2724907,40.53898526,152.96629,0,0,,,,
36.02399997,140,17.24655708,13.69924317,0,-54.81547846,0,0,0,0,-21.81919478,-14.71133651,-47.00250618,-174.0213216,13.92426991,-8.757276029,0,0,,,,
36.03199997,140,479.5642978,10.77980633,0,92.17239064,0,0,0,0,73.92337249,-63.21201635,11.68267551,-52.1801415,95.27811202,-221.095928,0,0,,,,
36.03999997,140,283.6864772,17.60280601,0,-54.69279057,0,0,0,0,-2.23634369,159.9156359,127.5825469,267.1735319,21.52345375,323.6572118,0,0,,,,
36.04799997,140,52.34256412,8.993891617,0,6.000982066,0,0,0,0,30.541134,-115.0657724,-109.9567652,-333.2827978,50.02517115,-265.1874101,0,0,,,,
36.05599997,140,644.3644778,-12.56720756,0,48.95856523,0,0,0,0,53.07395276,74.55215018,135.1830955,264.1696078,71.03210967,90.96454106,0,0,,,,
36.06399997,140,11.44829313,-1.023848833,0,-93.38459701,0,0,0,0,-42.86304249,46.3861801,-29.58107309,-84.82221574,-9.257055104,124.9525501,0,0,,,,
36.07199997,140,404.548468,-11.17924586,0,82.90751441,0,0,0,0,57.82711676,-124.741327,-65.26576891,-198.3760908,67.45658822,-342.5094938,0,0,,,,
36.07999997,140,453.7044696,-21.71940867,0,-62.03051148,0,0,0,0,-28.48051741,185.7126493,154.6558293,390.4863731,-1.201791918,403.0920455,0,0,,,,
36.08799997,140,22.71758999,-13.22513709,0,-24.21195321,0,0,0,0,-19.05574515,-131.5260442,-152.7040379,-404.8384297,25.86541466,-250.6297374,0,0,,,,
36.09599997,141,764.8668145,-3.832151445,0,76.16883155,0,0,0,0,36.04340489,69.98531757,135.9882681,285.5559519,61.29240421,101.1639423,0,0,,,,
36.10399997,141,56.89563283,31.85073183,0,-74.63619915,0,0,0,0,-55.41465759,78.39873909,-38.19077906,-19.01047344,-15.75548604,228.1371765,0,0,,,,
36.11199997,141,417.7506644,31.32769165,0,126.5427556,0,0,0,0,77.6294768,-119.9781251,-114.6729747,-201.4246616,99.04068384,-333.4793243,0,0,,,,
36.11999997,141,534.4380195,13.7776153,0,-26.10373492,0,0,0,0,-0.944772363,231.3882479,153.6126427,485.4816717,22.71130148,473.9965539,0,0,,,,
36.12799997,141,-9.224677678,13.45662783,0,-16.25035285,0,0,0,0,-2.283077846,-115.1960357,-183.4126151,-400.4234366,20.97139041,-224.2851728,0,0,,,,
36.13599997,141,779.5381512,-0.53618258,0,83.29317195,0,0,0,0,53.95274613,68.8087371,112.6747679,303.1370949,59.98356723,87.10566957,0,0,,,,
36.14399997,141,75.28414636,-1.768740908,0,-107.3343577,0,0,0,0,-69.98934389,72.60798108,-46.8536858,-9.809802153,-30.20674334,241.128705,0,0,,,,
36.15199997,141,417.402222,-2.164739342,0,96.71128672,0,0,0,0,48.77998063,-162.100253,-123.3583728,-263.6311449,64.07818836,-364.9306553,0,0,,,,
36.15999997,141,537.521511,-0.151159736,0,-22.56114523,0,0,0,0,-19.56061449,195.1169743,147.0846316,462.1431681,-12.06788168,437.7601026,0,0,,,,
36.16799997,141,-47.70071393,-5.608768534,0,-10.90460785,0,0,0,0,-17.45216585,-148.1878532,-202.142731,-427.4165924,8.356715387,-257.0461117,0,0,,,,
36.17599997,141,753.6109574,-13.90358406,0,97.43491308,0,0,0,0,49.80097024,35.28296034,107.8772131,271.3507886,61.3999332,53.54894571,0,0,,,,
36.18399997,141,51.48136539,-8.13745378,0,-91.47493771,0,0,0,0,-64.21346471,58.54027812,-47.10741618,-15.29434133,-38.87154415,225.1920625,0,0,,,,
36.19199997,141,398.3516972,-27.48402456,0,96.01705378,0,0,0,0,48.97462985,-182.0920348,-118.578608,-289.7372643,56.03951549,-398.2757338,0,0,,,,
36.19999997,141,547.9992407,-19.65226193,0,-29.23692839,0,0,0,0,-30.88301706,173.9064759,171.6001561,439.4940941,-20.84943772,419.026381,0,0,,,,
36.20799997,141,-56.70067265,-10.82244312,0,-10.2302497,0,0,0,0,-23.61781345,-160.5531719,-193.6838708,-452.8578262,-10.39869464,-279.0838724,0,0,,,,
36.21599997,141,762.631059,-24.23249468,0,108.7697738,0,0,0,0,52.28251089,25.6230452,115.5280062,245.0123009,55.04990323,-4.016277727,0,0,,,,
36.22399997,141,59.01572151,2.545707268,0,-80.35131368,0,0,0,0,-72.98390221,61.71320992,-21.30808199,-21.38335489,-43.68375986,191.4321669,0,0,,,,
36.23199997,141,361.7751379,-0.923298856,0,121.0940902,0,0,0,0,51.15400842,-180.6300851,-118.1774023,-316.1397104,57.1682364,-455.5537815,0,0,,,,
36.23999997,141,546.5771252,-13.21084026,0,-5.063729764,0,0,0,0,-17.02107072,180.0619152,173.363618,434.8302611,6.587734102,360.0361189,0,0,,,,
36.24799997,141,-65.85695252,-2.758296967,0,-9.209238287,0,0,0,0,-28.27782904,-155.6896296,-172.0618204,-463.1590957,14.90257923,-305.0240337,0,0,,,,
36.25599997,141,736.8605404,-3.53123785,0,131.4305954,0,0,0,0,50.34321916,21.52796983,125.3575612,219.4922489,71.6754629,-49.76099983,0,0,,,,
36.26399997,141,66.21834099,7.545218119,0,-52.41808638,0,0,0,0,-74.77525876,70.70275812,-8.996277539,-8.444039147,-24.23077218,173.2353821,0,0,,,,
36.27199997,141,353.1379623,8.783214869,0,136.9787112,0,0,0,0,41.57777423,-180.0093459,-103.0247371,-331.2994292,70.98160121,-462.8664255,0,0,,,,
36.27999997,141,554.6051758,6.649517828,0,24.57766503,0,0,0,0,-18.43663572,192.1708419,190.3911471,443.0866729,8.74651735,359.4714114,0,0,,,,
36.28799997,141,-34.02154665,-2.436911524,0,8.776264867,0,0,0,0,-32.3494538,-131.9466642,-148.8054661,-435.5958308,7.641245038,-287.320146,0,0,,,,
36.29599997,141,755.9696263,11.23725826,0,145.3018163,0,0,0,0,51.20026618,25.42661978,150.7554752,207.4315962,63.169518,-48.37137744,0,0,,,,
36.30399997,141,69.52341812,45.03774555,0,-23.02922466,0,0,0,0,-65.65214658,92.20385478,4.898151619,9.039187008,-26.43047176,187.736556,0,0,,,,
36.31199997,141,352.7548383,27.45128443,0,165.5065853,0,0,0,0,38.53947812,-159.0390123,-104.4221619,-318.6377904,81.13583427,-468.4543807,0,0,,,,
36.31999997,141,544.9854829,36.11913759,0,52.2825326,0,0,0,0,-33.49744906,196.4991333,190.6203993,445.4050468,24.10101294,349.224846,0,0,,,,
36.32799997,141,-107.8485505,47.84209607,0,43.12444193,0,0,0,0,-40.47796218,-127.4127676,-189.8645144,-433.6282795,23.5806863,-300.9573646,0,0,,,,
36.33599997,141,722.4327519,22.55955169,0,167.3428792,0,0,0,0,45.60823961,28.72107333,106.0714886,214.7572615,89.56775968,-83.08464899,0,0,,,,
36.34399997,141,93.53431674,25.89462759,0,-40.85717729,0,0,0,0,-96.8655982,98.20771,11.08166153,23.34498568,-16.47672791,201.1145237,0,0,,,,
36.35199997,142,336.5779158,13.06541822,0,130.8893937,0,0,0,0,1.704428459,-175.9374234,-113.2788713,-362.4330962,61.00750738,-469.2915286,0,0,,,,
36.35999997,142,736.2611921,14.06169818,0,-39.13848077,0,0,0,0,-92.67189546,397.2245248,369.2332844,886.6824113,-33.47513543,820.5080678,0,0,,,,
36.36799997,142,-31.5581521,26.12893302,0,-165.117322,0,0,0,0,-177.178741,251.7566641,87.80705315,258.6274187,-93.76701878,611.6224074,0,0,,,,
36.37599997,142,566.0578844,12.17478629,0,38.58582243,0,0,0,0,-48.32168657,132.7545183,146.3847914,315.4794986,8.918212615,227.6095026,0,0,,,,
36.38399997,142,341.2143159,19.71870131,0,-115.4739377,0,0,0,0,-141.8427672,340.282461,233.4543391,593.7471784,-69.67168818,758.7802176,0,0,,,,
36.39199997,142,246.0741213,17.7983041,0,-51.31799575,0,0,0,0,-104.9442561,146.9482275,77.98647118,191.3624373,-36.0541735,320.3726263,0,0,,,,
36.39999997,142,524.9864813,13.95578972,0,-32.35676688,0,0,0,0,-89.3979546,254.7391321,215.9584072,519.0229455,-27.16168096,527.4315165,0,0,,,,
36.40799997,142,48.68405752,24.36131925,0,-36.27137954,0,0,0,0,-93.24838874,13.80219129,-66.4219173,-134.6294994,-27.09845694,38.93714001,0,0,,,,
36.41599997,142,363.9956969,17.83385209,0,144.3202784,0,0,0,0,25.51413019,-193.5773886,-144.4187409,-350.6907764,60.37898259,-515.2812067,0,0,,,,
36.42399997,142,941.886222,2.588934462,0,96.79746485,0,0,0,0,4.636795622,207.2118872,261.313227,654.9719156,25.55963439,327.8006037,0,0,,,,
36.43199997,142,923.0769388,1.05799763,0,93.6228029,0,0,0,0,0.908664111,196.8006723,251.0446496,620.2883746,24.99808446,310.6018132,0,0,,,,
36.43999997,142,758.7329826,6.683165441,0,118.0110719,0,0,0,0,15.60985709,60.52174398,117.222445,297.1637114,40.73762473,18.14492508,0,0,,,,
36.44799997,142,890.352491,1.591949775,0,86.01598934,0,0,0,0,-2.589937964,191.4707646,236.8523107,595.4323149,21.43830622,306.0239007,0,0,,,,
36.45599997,142,843.4834374,2.891378733,0,108.5054103,0,0,0,0,10.65448931,117.2162682,174.6532918,435.9679874,35.00140986,140.9751957,0,0,,,,
36.46399997,142,799.8713372,3.750121981,0,95.04819772,0,0,0,0,2.915366674,120.7268247,165.2394086,422.6724067,28.18290373,157.8757133,0,0,,,,
36.47199997,142,876.5613846,0.848140337,0,95.04724927,0,0,0,0,3.418235458,156.6658886,207.5145752,521.2282889,27.52919926,231.3760807,0,0,,,,
36.47999997,142,793.3462445,3.165682679,0,99.50238378,0,0,0,0,5.987231669,102.2793553,149.6257254,383.1870345,31.35247199,118.8350588,0,0,,,,
36.48799997,142,364.8587235,6.160620982,0,8.781165665,0,0,0,0,-55.43465268,63.0533947,17.25434538,114.524403,-8.517507094,104.3558555,0,0,,,,
36.49599997,142,-58.95173509,3.582909332,0,-8.113627929,0,0,0,0,-73.93985632,-152.4405084,-233.9418128,-471.7585358,-2.875723773,-321.7507239,0,0,,,,
36.50399997,142,480.3807794,-7.706505158,0,70.74367392,0,0,0,0,-20.23233472,-66.80489271,-46.95118009,-52.73434487,38.07012284,-207.8739719,0,0,,,,
36.51199997,142,237.185291,-1.643300536,0,-40.80792324,0,0,0,0,-89.75859883,47.03454588,-28.71487527,67.23991777,-20.28956165,102.1938403,0,0,,,,
36.51999997,142,-46.79479888,-6.6021657,0,4.852647072,0,0,0,0,-71.77961202,-190.0175439,-256.7692771,-478.4731477,5.025183325,-407.0377417,0,0,,,,
36.52799997,142,523.7977152,-9.614361096,0,68.34713471,0,0,0,0,-33.40469225,3.79199778,5.002826296,155.9868111,26.05246306,-53.37022976,0,0,,,,
36.53599997,142,-100.451389,5.351374904,0,-57.03346338,0,0,0,0,-105.1496212,-38.49974989,-193.023677,-204.0755051,-34.36943758,-53.91201025,0,0,,,,
36.54399997,142,210.6871981,-6.585285033,0,78.20307979,0,0,0,0,-7.246058256,-182.1461845,-220.1820818,-326.9379832,34.7316111,-450.9671528,0,0,,,,
36.55199997,142,297.431606,15.28446843,0,-11.11727142,0,0,0,0,-64.11225739,93.80143971,-12.30060415,238.0627059,-28.29153802,167.2204476,0,0,,,,
36.55999997,142,-271.5766823,32.34931312,0,-1.993898604,0,0,0,0,-61.10429404,-160.8494832,-334.6000265,-477.0904549,-11.53202236,-366.2510157,0,0,,,,
36.56799997,142,425.5028097,20.66344749,0,115.8929682,0,0,0,0,26.70720277,-20.02253837,-72.49885086,108.6157199,66.09071457,-163.7145231,0,0,,,,
36.57599997,142,-178.7765414,33.03190522,0,-57.09049521,0,0,0,0,-86.29989487,35.08918961,-184.5597356,-54.92166269,-24.78766984,77.41461717,0,0,,,,
36.58399997,142,29.1502348,11.05947269,0,105.0123406,0,0,0,0,12.81090657,-203.3313721,-298.410189,-396.4497963,48.09430494,-518.9551901,0,0,,,,
36.59199997,142,269.4292093,14.49026624,0,13.54253576,0,0,0,0,-40.32545906,125.8974936,6.170316777,327.0324637,-6.443486286,217.970109,0,0,,,,
36.59999997,142,-408.8167224,43.96805679,0,-6.474507719,0,0,0,0,-55.41467044,-147.363862,-337.9900783,-459.8057918,-11.26364175,-329.5598017,0,0,,,,
36.60799997,143,341.397658,28.49778766,0,142.2322968,0,0,0,0,47.51060531,-30.7010199,-88.11919743,108.2562235,65.5953409,-194.282923,0,0,,,,
36.61599997,143,-197.8105908,12.60745017,0,-64.9856004,0,0,0,0,-88.69538046,67.99492232,-132.364693,23.96589169,-44.02004364,167.5425829,0,0,,,,
36.62399997,143,-41.33978571,5.503885075,0,92.36505864,0,0,0,0,5.144903967,-220.0178106,-275.6539565,-433.5853434,34.31017153,-517.8242052,0,0,,,,
36.63199997,143,250.0540251,13.63240357,0,16.39550062,0,0,0,0,-31.33917176,130.3743409,32.30942704,359.3070023,-0.701516606,253.9486566,0,0,,,,
36.63999997,143,-419.0559058,12.82907796,0,-32.2332565,0,0,0,0,-60.49699271,-137.129147,-294.0565045,-445.5682578,-15.69128013,-258.945439,0,0,,,,
36.64799997,143,366.1163482,-6.563859602,0,108.9920413,0,0,0,0,33.42794787,-36.35647275,-38.28237959,81.77953625,54.13191947,-151.5445547,0,0,,,,
36.65599997,143,-163.6415894,-8.120220134,0,-95.14658857,0,0,0,0,-97.89203794,80.72048937,-87.69120946,31.42842082,-46.29940967,238.8201988,0,0,,,,
36.66399997,143,-35.79229695,4.003407961,0,63.72908048,0,0,0,0,3.119625512,-217.5982751,-244.1308462,-459.0646636,33.82771342,-472.6368309,0,0,,,,
36.67199997,143,291.8003622,12.29131335,0,1.513857601,0,0,0,0,-23.73734858,138.5999383,55.79183959,364.9103184,-4.93580472,300.9970097,0,0,,,,
36.67999997,143,-378.8476785,-1.555950139,0,-53.51511104,0,0,0,0,-60.76675782,-128.4109695,-271.7550949,-441.1483974,-18.65833975,-202.8511171,0,0,,,,
36.68799997,143,410.7626694,-6.229217074,0,88.58726957,0,0,0,0,32.48072982,-37.85238584,0.281073196,66.36515245,51.51314771,-119.8780602,0,0,,,,
36.69599997,143,-117.2720768,4.182559522,0,-97.34193916,0,0,0,0,-85.86207134,91.45168317,-54.44581467,52.052682,-50.33829291,286.1377829,0,0,,,,
36.70399997,143,-22.48378223,9.243689086,0,70.77066655,0,0,0,0,12.84467051,-219.1845299,-231.5363009,-460.5270205,35.6068406,-449.1359372,0,0,,,,
36.71199997,143,338.6037266,9.173436175,0,5.651226312,0,0,0,0,-19.59875523,139.9730813,87.17642657,379.8015446,1.035191491,315.4694546,0,0,,,,
36.71999997,143,-333.0871178,-10.6710866,0,-65.67169768,0,0,0,0,-60.14317081,-120.2886473,-232.9399892,-425.9055965,-19.89049236,-171.8427094,0,0,,,,
36.72799997,143,424.5869343,-3.651301557,0,84.44037517,0,0,0,0,31.16110248,-50.61657548,13.06159048,44.37651142,52.91513658,-127.9668701,0,0,,,,
36.73599997,143,-102.3070042,3.889808669,0,-96.8020171,0,0,0,0,-87.89333527,87.06158352,-51.07786216,62.210313,-46.04783799,283.7690573,0,0,,,,
36.74399997,143,20.61549591,-27.40845519,0,45.96388935,0,0,0,0,4.634462631,-224.7551172,-217.0134597,-468.5083077,28.4613564,-441.877507,0,0,,,,
36.75199997,143,404.5236116,-19.68356111,0,-22.02874985,0,0,0,0,-36.24651082,127.0781518,110.9513927,355.3969484,-14.64922519,324.0537256,0,0,,,,
36.75999997,143,-332.233145,-19.86830027,0,-73.18771561,0,0,0,0,-72.21314105,-134.0549194,-253.1250492,-443.7884134,-32.8609307,-168.6893409,0,0,,,,
36.76799997,143,437.8523881,-45.50104984,0,80.82782621,0,0,0,0,22.32710884,-73.4375092,-18.51792053,21.85873078,37.89526726,-141.8098826,0,0,,,,
36.77599997,143,-45.90316631,-46.02744936,0,-112.3852925,0,0,0,0,-114.7590022,75.6960618,-48.29748455,54.37779355,-66.66708842,306.0457304,0,0,,,,
36.78399997,143,49.25613265,-65.38005944,0,128.1347462,0,0,0,0,34.27379651,-431.4955828,-353.153392,-845.9354685,80.38991657,-892.4972376,0,0,,,,
36.79199997,143,748.6855054,-66.19635292,0,185.9540429,0,0,0,0,77.41661083,-179.5806796,-10.69247343,-59.44416912,105.8024716,-422.5929384,0,0,,,,
36.79999997,143,11.57841036,-55.6053876,0,16.54080928,0,0,0,0,-34.6928746,-198.5504449,-213.5241323,-435.7057259,13.29064399,-342.0930345,0,0,,,,
36.80799997,143,446.1222878,-65.53901982,0,169.6438135,0,0,0,0,64.8839438,-313.0880361,-177.2803265,-450.1090336,99.45093884,-683.165996,0,0,,,,
36.81599997,143,383.1825209,-58.54752207,0,82.3429475,0,0,0,0,10.04954844,-149.1291064,-87.60579339,-177.8445574,48.60977561,-289.1082793,0,0,,,,
36.82399997,143,189.2911685,-59.68456594,0,92.32878489,0,0,0,0,14.87242546,-280.5638024,-223.9734038,-512.045251,56.14664825,-563.5783235,0,0,,,,
36.83199997,143,455.6620088,-49.54860098,0,43.041235,0,0,0,0,-19.02863299,-15.19885969,16.31797777,106.8057685,24.79837669,13.68953941,0,0,,,,
36.83999997,143,-144.871235,-29.2936167,0,-123.5962365,0,0,0,0,-138.3940541,75.59830119,-83.86258337,30.30182998,-68.710357,322.5174977,0,0,,,,
36.84799997,143,9.322803242,-54.44517069,0,43.30765972,0,0,0,0,-37.55853369,-186.3201365,-224.5295007,-357.4920975,22.13802882,-337.9813378,0,0,,,,
36.85599997,143,315.3773464,-76.58150238,0,6.293820106,0,0,0,0,-69.27024278,39.94580395,6.199485975,185.7175328,-15.25783759,136.0184685,0,0,,,,
36.86399997,144,-175.997778,-64.7817229,0,-92.79386895,0,0,0,0,-155.1444801,-12.47610558,-142.0600214,-138.4515373,-79.23725739,126.4365244,0,0,,,,
36.87199997,144,136.7300943,-68.38263089,0,70.72933806,0,0,0,0,-54.03003429,-176.9871503,-179.0341083,-277.3745015,12.29801312,-304.5796961,0,0,,,,
36.87999997,144,161.934285,-72.37161301,0,-40.79173959,0,0,0,0,-119.6231322,96.01257067,7.153897038,249.8274062,-50.57747053,320.9496243,0,0,,,,
36.88799997,144,-271.1589985,-74.82963997,0,-33.12710309,0,0,0,0,-126.0079722,-145.2565184,-246.7979658,-374.5991743,-38.78635793,-170.4224934,0,0,,,,
36.89599997,144,292.1030257,-85.61619665,0,67.79429649,0,0,0,0,-65.39050924,-52.7474863,-49.82180029,59.54289246,17.78565758,-60.94991509,0,0,,,,
36.90399997,144,-143.1515497,-78.62047886,0,-93.76737956,0,0,0,0,-169.4878994,52.95411165,-90.60942266,45.9762659,-71.14466573,273.8294391,0,0,,,,
36.91199997,144,-30.92394417,-91.51834071,0,46.86280955,0,0,0,0,-78.03088274,-220.8831164,-235.8262525,-410.5383963,9.574160006,-364.3834501,0,0,,,,
36.91999997,144,600.440654,-97.90339892,0,-46.72058958,0,0,0,0,-128.4784907,304.4813839,274.1107933,835.7761357,-50.64947895,755.1991445,0,0,,,,
36.92799997,144,-14.47291109,-84.41849058,0,-186.1847507,0,0,0,0,-219.9175064,274.2021668,103.4835802,494.4749074,-125.4640765,791.794862,0,0,,,,
36.93599997,144,314.6650974,-92.74518209,0,-8.170165994,0,0,0,0,-105.2599715,66.19963131,42.36066073,262.6819133,-24.89998575,247.6399954,0,0,,,,
36.94399997,144,311.680241,-88.43447126,0,-121.8987376,0,0,0,0,-174.6802458,306.477239,201.9109325,697.4817006,-90.73474299,808.9249834,0,0,,,,
36.95199997,144,110.3724005,-85.7516003,0,-92.47597234,0,0,0,0,-157.3130309,132.2807085,36.22800145,283.2418027,-71.37359026,437.7182419,0,0,,,,
36.95999997,144,384.9014306,-89.21027069,0,-53.44266033,0,0,0,0,-129.3868438,194.531252,142.6612247,520.5609621,-51.11109851,533.802683,0,0,,,,
36.96799997,144,163.8484044,-83.6288712,0,-120.2652284,0,0,0,0,-171.8457643,216.2657569,103.766848,455.4816037,-87.52897499,623.7198915,0,0,,,,
36.97599997,144,286.9220988,-85.94372426,0,-54.86963093,0,0,0,0,-129.0774711,140.1427473,81.3160835,370.0991824,-50.44933096,423.6461261,0,0,,,,
36.98399997,144,276.2558208,-83.72204044,0,-94.80898676,0,0,0,0,-152.8447452,218.0553818,130.2355358,504.7817628,-73.31241214,607.174529,0,0,,,,
36.99199997,144,-56.59441224,-89.36344099,0,-65.8106967,0,0,0,0,-133.5249167,-48.71481451,-125.6786952,-144.2493342,-47.97896701,40.47020382,0,0,,,,
36.99999997,144,48.69884692,-109.3079789,0,14.36662426,0,0,0,0,-77.18299017,-222.6851011,-205.0053881,-430.8201383,5.668374637,-374.0218588,0,0,,,,
37.00799997,144,318.4760517,-91.37010916,0,-36.7862266,0,0,0,0,-106.4164011,23.00885412,33.70197121,137.4920338,-29.46527406,176.8159207,0,0,,,,
37.01599997,144,-78.55462877,-51.19734865,0,-63.62434908,0,0,0,0,-124.7038591,-75.38946432,-148.1555358,-214.0902712,-56.603434,1.778269884,0,0,,,,
37.02399997,144,138.5157522,-63.66217972,0,43.08214497,0,0,0,0,-47.18126623,-183.6107446,-188.0397491,-320.5226729,5.537152627,-313.263631,0,0,,,,
37.03199997,144,313.5755909,-63.39818733,0,-43.37548003,0,0,0,0,-83.98163219,72.03660339,37.96950986,213.0285792,-18.47521086,259.3679302,0,0,,,,
37.03999997,144,-173.653324,-47.49630576,0,-42.92278198,0,0,0,0,-77.2123406,-162.1080854,-238.9594011,-433.7708027,-18.32758374,-222.0011783,0,0,,,,
37.04799997,144,409.7509621,-61.73809534,0,64.92876066,0,0,0,0,-6.666976323,-64.48355459,-42.7816754,13.02764826,20.43635977,-98.616237,0,0,,,,
37.05599997,144,25.56204194,-36.04042011,0,-81.6554063,0,0,0,0,-100.7886873,40.82713082,-58.04659172,20.27177956,-55.05445775,223.9710385,0,0,,,,
37.06399997,144,-266.4059936,-28.64469747,0,61.50543059,0,0,0,0,-6.748903281,-415.6376717,-444.6719611,-959.680561,29.96823886,-828.1394577,0,0,,,,
37.07199997,144,407.3015688,-41.55389179,0,75.77676514,0,0,0,0,18.82118405,-101.8150901,-74.82805813,-84.00075817,40.49081695,-218.1422814,0,0,,,,
37.07999997,144,156.3691284,-22.30985432,0,-95.92758779,0,0,0,0,-88.22279751,129.1236749,20.15294103,227.6476,-58.36436294,374.5117903,0,0,,,,
37.08799997,144,32.84184253,-20.98248896,0,3.831816993,0,0,0,0,-29.08266349,-148.4170214,-206.2417745,-346.4215525,-5.814173827,-265.6991034,0,0,,,,
37.09599997,144,257.187027,-17.38223832,0,8.726257427,0,0,0,0,-13.93499731,-61.54558726,-90.73554851,-92.09710022,6.681876152,-97.19808454,0,0,,,,
37.10399997,144,219.3968286,-8.587864522,0,-50.92381248,0,0,0,0,-42.99656819,45.6904173,-27.4451906,96.21293317,-25.50488865,160.5743165,0,0,,,,
37.11199997,144,-6.731452134,-20.65825946,0,-29.81542305,0,0,0,0,-30.66982862,-136.0301411,-198.5287755,-341.6029357,-3.06781071,-228.580077,0,0,,,,
37.11999997,145,344.6354717,-16.3712567,0,8.93941338,0,0,0,0,-4.19697202,-28.27523244,-34.56561189,28.11001065,15.3158634,-35.0725928,0,0,,,,
37.12799997,145,48.23152021,1.257688637,0,-67.95840035,0,0,0,0,-50.01088624,19.54043283,-88.06990872,-10.93307056,-34.35895487,110.7511135,0,0,,,,
37.13599997,145,52.32408126,-17.6036693,0,14.88029578,0,0,0,0,3.501063671,-174.6944483,-223.8891584,-371.8983832,17.3699191,-355.1580016,0,0,,,,
37.14399997,145,407.2935259,-12.65806698,0,-17.92138851,0,0,0,0,-18.36744121,73.41668454,38.49011194,252.0000779,-3.974156931,175.3908483,0,0,,,,
37.15199997,145,-208.7684811,9.615201793,0,-76.41954235,0,0,0,0,-53.91664374,-102.747399,-222.1152489,-345.5521749,-31.98504733,-143.0465231,0,0,,,,
37.15999997,145,383.9330946,-13.10241467,0,60.88211964,0,0,0,0,45.33879438,-77.33986468,-61.50595049,-30.4210823,42.62931438,-200.5356651,0,0,,,,
37.16799997,145,90.37006149,-12.5009524,0,-99.73924801,0,0,0,0,-52.69917195,92.1722811,-8.8144581,129.0628984,-49.56655904,265.2184806,0,0,,,,
37.17599997,145,-30.49197947,-7.468962849,0,8.568183859,0,0,0,0,16.35044684,-211.4557425,-236.7832617,-484.8490449,5.56807552,-423.1399528,0,0,,,,
37.18399997,145,467.9629122,-13.6708329,0,-0.32192821,0,0,0,0,16.15030798,87.01490969,74.41618226,308.1291905,0.452760788,181.9320337,0,0,,,,
37.19199997,145,-250.0973287,-10.14529125,0,-102.6033599,0,0,0,0,-53.15681874,-93.33541824,-210.4597615,-347.2594832,-47.10714292,-112.2319827,0,0,,,,
37.19999997,145,385.3840705,-3.549499271,0,77.87295184,0,0,0,0,59.88060638,-109.6648332,-66.07904513,-76.88293149,42.00079505,-275.836892,0,0,,,,
37.20799997,145,34.36965183,29.85008642,0,-75.72265586,0,0,0,0,-42.90668042,112.5092028,-14.3657291,178.8874574,-38.30943809,286.0930852,0,0,,,,
37.21599997,145,-106.5968241,34.6235201,0,54.98898147,0,0,0,0,42.41797588,-212.0819631,-267.5136227,-485.5591693,41.69648947,-472.7880567,0,0,,,,
37.22399997,145,458.1549163,23.12984664,0,45.06134105,0,0,0,0,51.41307019,113.3646237,81.98108868,364.1258451,37.38501957,177.2549941,0,0,,,,
37.23199997,145,-308.3240858,23.43382239,0,-79.68591593,0,0,0,0,-32.90254491,-71.23705301,-206.4003631,-317.5722992,-20.69486011,-99.87697894,0,0,,,,
37.23999997,145,350.9026368,12.59861338,0,100.4979661,0,0,0,0,77.58878117,-113.9072012,-54.81274283,-69.5698783,60.17389512,-297.0775827,0,0,,,,
37.24799997,145,35.84466617,14.03892534,0,-80.74707714,0,0,0,0,-39.02845533,120.5914201,25.50030532,216.1208849,-50.5516578,316.6168461,0,0,,,,
37.25599997,145,-118.397179,10.15600845,0,37.51363505,0,0,0,0,30.05619982,-230.2413596,-242.6533158,-505.5401169,17.94910739,-474.0954454,0,0,,,,
37.26399997,145,458.8142066,9.334394594,0,42.07368178,0,0,0,0,36.48434861,92.60633161,106.6990001,353.375966,30.09398843,169.6274757,0,0,,,,
37.27199997,145,-314.5889719,3.198905341,0,-83.61137943,0,0,0,0,-46.23097184,-73.37400006,-179.5884789,-315.7782892,-25.77110463,-87.45849439,0,0,,,,
37.27999997,145,348.8618019,-4.799453688,0,99.15597921,0,0,0,0,65.41791084,-118.0598622,-39.35225782,-89.4888897,55.85006555,-314.8477192,0,0,,,,
37.28799997,145,42.91252728,12.05134918,0,-83.18847613,0,0,0,0,-59.54874247,130.6138392,46.00667141,228.2863791,-44.40784373,318.5817454,0,0,,,,
37.29599997,145,-144.7910872,9.652060712,0,29.70922091,0,0,0,0,10.28322381,-223.2948361,-236.9316569,-510.3406135,18.66055594,-470.1228067,0,0,,,,
37.30399997,145,448.7667391,0.035430197,0,34.97578008,0,0,0,0,24.52612521,94.85814884,107.7024295,350.1399698,13.44710896,163.695132,0,0,,,,
37.31199997,145,-327.1203645,-4.054899503,0,-97.94805557,0,0,0,0,-64.06524403,-69.81825048,-177.5441878,-308.6681909,-53.2201298,-84.65286907,0,0,,,,
37.31999997,145,308.2440672,0.569910724,0,94.53102203,0,0,0,0,64.8064542,-130.5996998,-58.07365721,-110.2184391,46.21373485,-328.4212955,0,0,,,,
37.32799997,145,18.20005769,16.81084367,0,-77.05806066,0,0,0,0,-40.96590728,129.3788211,31.35322264,237.0317882,-34.57369141,324.5119532,0,0,,,,
37.33599997,145,-169.6288243,13.00597414,0,32.11732227,0,0,0,0,9.273598928,-225.2424186,-241.0605355,-511.6088228,23.44160591,-471.7996199,0,0,,,,
37.34399997,145,434.7570707,24.0470338,0,49.21939488,0,0,0,0,10.50054556,86.9639888,112.8992181,349.250384,25.6011991,159.5134425,0,0,,,,
37.35199997,145,-355.9018493,33.06276079,0,-68.91634975,0,0,0,0,-73.33768324,-59.27066329,-185.7270465,-283.6598813,-26.32069083,-67.61655614,0,0,,,,
37.35999997,145,288.3750867,24.41686802,0,122.3611728,0,0,0,0,45.42128162,-118.2198699,-66.4437719,-97.89564859,62.34308446,-331.9493806,0,0,,,,
37.36799997,145,28.08577534,33.48439259,0,-66.64651538,0,0,0,0,-77.77277153,149.3497918,56.80891481,265.9495643,-41.37751439,345.5700489,0,0,,,,
37.37599997,146,-340.2925558,23.94949207,0,91.2492386,0,0,0,0,14.65127513,-418.9091292,-406.6516627,-966.545517,46.45949654,-928.9214468,0,0,,,,
37.38399997,146,427.5786853,19.44374945,0,217.0445343,0,0,0,0,99.9931639,-272.3066915,-125.5360095,-341.2711552,106.3709223,-716.8934068,0,0,,,,
37.39199997,146,-163.841022,27.43718695,0,16.21649849,0,0,0,0,-28.35025784,-156.8172382,-192.5343386,-401.9896395,5.191415695,-338.7209495,0,0,,,,
37.39999997,146,75.95024214,19.71663248,0,165.8294029,0,0,0,0,65.78404448,-361.3081444,-271.0498262,-673.9655339,82.38042553,-862.2950774,0,0,,,,
37.40799997,146,171.4692209,23.04329594,0,103.0482323,0,0,0,0,28.89001282,-169.7928398,-121.5680569,-276.4200151,48.46815588,-425.7161526,0,0,,,,
37.41599997,146,66.61602714,20.02506956,0,25.31156913,0,0,0,0,-18.47956554,-67.37059175,-84.9423822,-145.1652582,4.449929744,-158.2794459,0,0,,,,
37.42399997,146,628.8367894,13.47110793,0,-6.72717122,0,0,0,0,-30.56943895,300.5362614,286.1778339,781.4783771,-23.33267359,621.9537338,0,0,,,,
37.43199997,146,383.8179653,16.55633084,0,-66.8073778,0,0,0,0,-69.51604927,297.1405769,225.0310895,661.8685503,-52.14591809,657.1472258,0,0,,,,
37.43999997,146,411.1718269,14.68220749,0,9.71372146,0,0,0,0,-22.5488962,142.2492176,130.3620713,388.0195822,-10.21799108,285.3761817,0,0,,,,
37.44799997,146,503.0574113,14.61811952,0,-41.18410007,0,0,0,0,-51.89529026,300.6803817,254.8477081,718.8265281,-39.47376235,647.0403622,0,0,,,,
37.45599997,146,374.6292222,14.72335185,0,-26.57925917,0,0,0,0,-44.2053908,196.2631152,155.3650213,466.135066,-29.44574935,422.5348111,0,0,,,,
37.46399997,146,482.6044807,13.68402422,0,-11.16105344,0,0,0,0,-33.2784587,219.1284063,195.9239827,555.9326067,-22.21276378,458.8838687,0,0,,,,
37.47199997,146,420.8753184,14.00564945,0,-40.45893222,0,0,0,0,-51.34900826,246.7122472,198.1980662,575.9874372,-37.45249686,536.5493366,0,0,,,,
37.47999997,146,434.2080445,13.25388329,0,-10.9073932,0,0,0,0,-32.98141675,187.247627,162.4129595,471.25802,-21.08682868,393.7968144,0,0,,,,
37.48799997,146,454.0632143,13.09197673,0,-30.46230497,0,0,0,0,-44.22025486,238.2734063,199.7929232,572.0627492,-32.03369397,512.7055504,0,0,,,,
37.49599997,146,24.24256176,20.71306867,0,-40.32622673,0,0,0,0,-49.36037195,19.78114721,-39.87538988,-29.22322344,-20.87666914,70.14029244,0,0,,,,
37.50399997,146,-118.6662307,20.02977075,0,16.59061773,0,0,0,0,-4.513475423,-187.9774533,-204.9761644,-466.5791469,28.59815159,-397.6934574,0,0,,,,
37.51199997,146,330.6955593,-3.128548158,0,23.1156294,0,0,0,0,8.489736051,32.59611242,42.66881763,161.2241435,24.62048808,57.83362269,0,0,,,,
37.51999997,146,-47.94363856,-6.629823598,0,-67.05573092,0,0,0,0,-56.03872797,-5.866166005,-58.44624657,-92.35422297,-23.61567016,66.71245014,0,0,,,,
37.52799997,146,20.66907948,8.088304502,0,31.14076282,0,0,0,0,-0.866226183,-178.0802146,-145.3718,-383.5773438,24.85356386,-340.0058131,0,0,,,,
37.53599997,146,332.3877927,14.33496299,0,15.21506743,0,0,0,0,-13.16681437,75.8690729,69.78030402,237.6608909,-4.216476216,179.2932647,0,0,,,,
37.54399997,146,-237.1100364,9.286980181,0,-49.0537862,0,0,0,0,-65.99013655,-108.9361292,-189.7595631,-366.2604308,-34.03398269,-161.5553984,0,0,,,,
37.55199997,146,317.3835068,4.094499492,0,66.56544577,0,0,0,0,6.08156554,-88.47670628,-27.20700876,-74.69507713,27.09030987,-200.5026839,0,0,,,,
37.55999997,146,47.734437,27.47073282,0,-66.05330441,0,0,0,0,-77.44317137,91.77555191,14.73988581,135.0880322,-52.59057163,261.3205141,0,0,,,,
37.56799997,146,-130.7873378,39.21907252,0,34.25871714,0,0,0,0,-19.42502786,-198.4695679,-226.077529,-480.8150581,-2.928596347,-400.157207,0,0,,,,
37.57599997,146,409.4286668,45.45117357,0,52.17642319,0,0,0,0,-0.937342661,78.29215011,78.35471059,284.7673865,11.0068489,143.0718266,0,0,,,,
37.58399997,146,-305.7621253,46.64785419,0,-63.49939838,0,0,0,0,-68.98620179,-55.88551185,-189.8213149,-284.7550802,-37.05728988,-56.39550752,0,0,,,,
37.59199997,146,282.3436431,20.72052554,0,93.33360786,0,0,0,0,41.03451029,-119.9603032,-69.93380471,-135.6295912,40.36827305,-295.2341887,0,0,,,,
37.59999997,146,88.33647124,25.58158493,0,-79.08020421,0,0,0,0,-62.42277292,129.7219336,63.68496545,225.8039603,-43.9996034,340.9619737,0,0,,,,
37.60799997,146,-162.4650505,13.91374913,0,5.703287388,0,0,0,0,-14.1495976,-214.9625873,-223.4646006,-532.9358636,6.654086549,-407.466358,0,0,,,,
37.61599997,146,510.862176,-9.459229837,0,32.74752315,0,0,0,0,5.67578812,58.81249785,124.8407849,266.7853395,5.469237054,144.4863381,0,0,,,,
37.62399997,146,-262.4057603,6.613414511,0,-101.0383656,0,0,0,0,-84.48253196,-62.83617251,-140.4362537,-302.5902614,-67.61874872,3.504855403,0,0,,,,
37.63199997,147,297.4147222,-0.104630322,0,96.33548762,0,0,0,0,42.91915118,-164.4906454,-79.76198022,-206.9477418,33.03806735,-344.9029613,0,0,,,,
37.63999997,147,161.9095376,-13.93004888,0,-82.9382004,0,0,0,0,-67.646401,121.2401342,80.14595897,242.7113679,-54.23871405,358.35906,0,0,,,,
37.64799997,147,-122.5292315,-21.15680266,0,-12.17161437,0,0,0,0,-33.32893286,-239.7112313,-212.7326091,-569.5627964,-17.40488272,-404.1289538,0,0,,,,
37.65599997,147,564.7156278,-28.41140156,0,29.20605092,0,0,0,0,-0.168099699,32.51509616,129.2415585,244.8457174,-8.295562773,127.2545824,0,0,,,,
37.66399997,147,-199.1801037,-18.46884789,0,-119.920545,0,0,0,0,-83.12758016,-69.32060074,-124.8709476,-298.342056,-68.38665759,16.91296016,0,0,,,,
37.67199997,147,352.8942842,-7.031339907,0,78.31178916,0,0,0,0,52.40495023,-179.3773642,-60.88432373,-236.999309,34.57931167,-344.3919319,0,0,,,,
37.67999997,147,197.6015445,21.53947686,0,-69.41539984,0,0,0,0,-35.08050089,130.900815,89.19793174,259.8101646,-52.53732401,377.5537999,0,0,,,,
37.68799997,147,-143.4137777,37.91659316,0,28.63937537,0,0,0,0,31.48554696,-213.2164537,-235.381374,-540.0522285,8.417562109,-410.9350504,0,0,,,,
37.69599997,147,540.7938652,26.12843641,0,77.12378536,0,0,0,0,72.67808983,71.16673117,108.7372674,294.4802702,30.42499735,118.9040066,0,0,,,,
37.70399997,147,-229.3670387,17.05786366,0,-85.96550635,0,0,0,0,-37.4770737,-19.88259522,-139.6218305,-240.7661199,-50.96456312,39.75693824,0,0,,,,
37.71199997,147,293.9659657,25.63760588,0,107.6862725,0,0,0,0,83.15356208,-149.8395457,-90.64850883,-222.9249477,42.94846133,-355.5881102,0,0,,,,
37.71999997,147,144.592083,43.59029541,0,-49.09796557,0,0,0,0,-10.84701056,158.8775005,70.16830173,301.5123959,-40.78155801,382.5428635,0,0,,,,
37.72799997,147,-187.8382502,21.99087394,0,23.15821704,0,0,0,0,33.90159331,-193.9425881,-243.025594,-516.4571924,13.68972146,-394.4116512,0,0,,,,
37.73599997,147,510.8884272,13.82605223,0,69.34718952,0,0,0,0,63.03413435,75.3809903,108.3350777,283.1022852,28.98603628,112.4080218,0,0,,,,
37.74399997,147,-263.878763,17.42280086,0,-88.88698058,0,0,0,0,-44.74024412,-7.423152575,-139.4421393,-225.1127291,-51.32994833,49.72951895,0,0,,,,
37.75199997,147,278.6210758,1.853320318,0,99.7219532,0,0,0,0,79.64438663,-146.1461016,-86.03129948,-217.7682355,52.08007329,-360.4612361,0,0,,,,
37.75999997,147,150.1922529,19.13623886,0,-62.80031155,0,0,0,0,-19.32428164,160.6415514,92.46204452,302.4407406,-34.38561166,378.8695569,0,0,,,,
37.76799997,147,-208.0581309,4.385442178,0,6.722655262,0,0,0,0,18.92297092,-195.666071,-235.3891446,-529.6486309,5.195532977,-397.3409504,0,0,,,,
37.77599997,147,525.1288719,-8.588755637,0,53.77495572,0,0,0,0,48.72265431,67.81049381,123.9825885,273.716414,16.15025535,106.9020956,0,0,,,,
37.78399997,147,-268.7038959,13.27954494,0,-104.8885492,0,0,0,0,-56.64972192,-10.89412108,-122.6528163,-225.0215122,-57.44476438,61.51422071,0,0,,,,
37.79199997,147,251.3584287,-8.81681622,0,93.44219694,0,0,0,0,76.27032024,-158.4374873,-104.9154925,-239.1854396,50.11594054,-379.8136036,0,0,,,,
37.79999997,147,190.0233658,-16.39901868,0,-81.35731301,0,0,0,0,-25.77711934,159.9592607,101.8360535,309.5995331,-45.45622996,386.3421297,0,0,,,,
37.80799997,147,-211.0795555,-4.964590901,0,-24.63186864,0,0,0,0,9.069402274,-203.9130185,-221.6098713,-545.4101185,-2.498254172,-380.8634242,0,0,,,,
37.81599997,147,510.4377898,-14.33982742,0,44.52028347,0,0,0,0,55.36914511,44.7099944,103.0301635,253.633807,21.50278321,82.29439538,0,0,,,,
37.82399997,147,-234.6793796,-21.89477141,0,-123.4971279,0,0,0,0,-55.10917888,-18.41272012,-122.5715718,-216.8768169,-65.74775379,64.13677726,0,0,,,,
37.83199997,147,270.3525717,-25.17240608,0,63.29104119,0,0,0,0,66.68611219,-174.0628647,-88.09802243,-272.4128152,35.11132478,-383.874257,0,0,,,,
37.83999997,147,195.8910935,-9.359428279,0,-92.11991503,0,0,0,0,-27.30296884,144.2570381,103.854001,298.740522,-53.45548824,380.8574362,0,0,,,,
37.84799997,147,-227.29218,-8.738185543,0,-29.97291903,0,0,0,0,10.1414403,-216.42775,-240.1813517,-548.6982463,-8.410886204,-386.7629786,0,0,,,,
37.85599997,147,530.9951993,-23.01200205,0,37.98959484,0,0,0,0,56.38582468,36.97644203,105.5698849,244.1411049,24.93915059,73.55209429,0,0,,,,
37.86399997,147,-205.2480883,-17.17941377,0,-133.3063031,0,0,0,0,-55.92053048,-10.5898119,-99.19050949,-206.0080752,-71.53638572,96.76175802,0,0,,,,
37.87199997,147,264.9482344,-12.18338272,0,63.16050106,0,0,0,0,74.45626178,-177.4534564,-89.67372297,-286.3097353,28.85077088,-374.69056,0,0,,,,
37.87999997,147,223.4873469,8.014086196,0,-75.06243009,0,0,0,0,-8.823305057,157.0391989,110.3529068,313.971947,-42.36333743,393.8778986,0,0,,,,
37.88799997,148,-204.6948402,11.52464078,0,-11.9095798,0,0,0,0,23.53910953,-188.1708057,-223.8530043,-526.594038,-7.380114169,-353.8631171,0,0,,,,
37.89599997,148,527.6237126,4.191071281,0,66.32650262,0,0,0,0,71.68000669,53.24450695,106.7903975,253.8821526,23.63888331,81.76898515,0,0,,,,
37.90399997,148,-228.9287676,11.52138974,0,-95.19253416,0,0,0,0,-38.20518769,13.15211625,-114.3727491,-170.6193056,-56.79937056,105.2703507,0,0,,,,
37.91199997,148,268.6356842,-15.49360807,0,88.66086456,0,0,0,0,82.66168317,-154.0032432,-99.18206427,-263.7765876,37.9996824,-376.0445152,0,0,,,,
37.91999997,148,277.5571626,-20.15221117,0,-80.22627115,0,0,0,0,-23.18682721,176.5360914,141.2401393,333.6080086,-57.76308698,418.9280133,0,0,,,,
37.92799997,148,-203.7292122,1.933860017,0,-28.6464699,0,0,0,0,0.088930783,-184.6813748,-204.7605006,-538.8331439,-22.00478631,-338.3265194,0,0,,,,
37.93599997,148,529.7399686,4.544216755,0,67.61039653,0,0,0,0,68.49394565,50.51107854,107.7493527,240.7860189,24.14989071,63.88888836,0,0,,,,
37.94399997,148,-215.3913775,3.678997868,0,-99.2511351,0,0,0,0,-43.52945094,23.5584933,-96.59254646,-157.2855123,-68.35310869,122.1417533,0,0,,,,
37.95199997,148,215.4117509,-7.855667027,0,93.16608849,0,0,0,0,78.17624998,-161.2738171,-108.5734161,-284.3576313,38.08517506,-391.378459,0,0,,,,
37.95999997,148,247.3502,-24.25167384,0,-57.79095836,0,0,0,0,-10.04286633,175.879185,118.1552642,349.0974179,-33.7648956,396.1974048,0,0,,,,
37.96799997,148,-494.5844286,-37.48116397,0,-11.97777557,0,0,0,0,6.877175565,-379.6901533,-408.4838345,-1028.824447,-1.084574058,-751.9502676,0,0,,,,
37.97599997,148,220.1230157,-35.34807678,0,155.9810447,0,0,0,0,116.4591567,-354.3048857,-215.8770008,-647.8157279,84.89590059,-818.9864397,0,0,,,,
37.98399997,148,-148.5954221,-31.52667223,0,-35.2292635,0,0,0,0,-2.733451451,-122.5308119,-163.4423446,-393.3628794,-16.75233334,-217.9853521,0,0,,,,
37.99199997,148,-129.0737385,-35.89460681,0,82.16913724,0,0,0,0,67.0326714,-387.5511929,-324.4068243,-874.8122017,46.98614918,-833.8151741,0,0,,,,
37.99999997,148,100.2398638,-32.34992352,0,55.95994225,0,0,0,0,54.4185996,-194.3365855,-146.3878142,-411.8902936,31.30950384,-425.9804733,0,0,,,,
38.00799997,148,-196.6764453,-33.26849583,0,11.86168627,0,0,0,0,23.70899444,-263.9924501,-264.8366686,-680.1730717,9.021538326,-535.4166141,0,0,,,,
38.01599997,148,356.8931855,-28.99447045,0,63.51102356,0,0,0,0,55.95840743,-82.87817229,-2.03800562,-96.7349245,29.26819904,-200.4585261,0,0,,,,
38.02399997,148,248.5611445,-14.7970491,0,-84.21954263,0,0,0,0,-44.89983457,196.8943588,148.636669,360.3600523,-62.17758507,472.8342107,0,0,,,,
38.03199997,148,-99.98175607,-16.91089222,0,-13.64734572,0,0,0,0,-6.841657462,-138.848756,-170.6035644,-409.0893547,-23.02623763,-264.3834231,0,0,,,,
38.03999997,148,362.1452473,-20.19256336,0,35.85213836,0,0,0,0,38.39713404,-0.71248264,37.32470247,81.62194253,9.009207264,-30.33378336,0,0,,,,
38.04799997,148,55.9932452,-9.988549721,0,-97.33336503,0,0,0,0,-36.992517,115.6335529,47.36120868,168.8964028,-59.79910576,297.7470424,0,0,,,,
38.05599997,148,-26.47339853,-19.45087016,0,1.901982261,0,0,0,0,27.65946081,-157.9217341,-155.6280247,-378.2366714,-0.990947454,-329.9246909,0,0,,,,
38.06399997,148,424.1473347,-16.61843003,0,-2.870007094,0,0,0,0,21.86506897,108.4177687,125.8376873,303.8600272,-13.61685681,211.9230344,0,0,,,,
38.07199997,148,-143.0907717,-12.22002068,0,-91.75392216,0,0,0,0,-38.6165423,-7.587243919,-97.01574378,-179.416265,-57.70678161,35.86700618,0,0,,,,
38.07999997,148,275.9913855,-33.07546357,0,33.63784992,0,0,0,0,53.81634819,-97.07072173,-45.92884072,-156.4482146,28.62871344,-240.7844592,0,0,,,,
38.08799997,148,211.527944,-5.777419682,0,-87.5132661,0,0,0,0,-23.10862497,162.1067959,118.0812723,305.5743442,-42.55411076,380.1241761,0,0,,,,
38.09599997,148,-176.8866122,-0.032937016,0,-28.71278199,0,0,0,0,8.777085688,-145.9146675,-185.393161,-426.5862953,-15.85738628,-282.7300398,0,0,,,,
38.10399997,148,496.7211622,-17.35250016,0,31.70386094,0,0,0,0,47.54342523,77.64475004,124.0306309,275.2274773,11.73197768,116.3995705,0,0,,,,
38.11199997,148,-161.9829327,-1.66927558,0,-113.5497936,0,0,0,0,-56.19828155,44.5979201,-63.53406016,-96.08772915,-67.18878114,147.078497,0,0,,,,
38.11999997,148,222.6932223,-17.66824562,0,53.15949466,0,0,0,0,61.58659535,-130.4351788,-81.54078065,-230.2332075,28.09195855,-325.286007,0,0,,,,
38.12799997,148,267.8063644,-6.905969244,0,-75.83164829,0,0,0,0,-16.09886848,185.8949967,154.9051357,385.4531058,-50.33449899,417.2241865,0,0,,,,
38.13599997,148,-232.2543297,0.807069211,0,-41.62426142,0,0,0,0,-10.34948208,-143.469539,-182.8856417,-438.5497029,-38.23160569,-269.7866058,0,0,,,,
38.14399997,149,517.5896984,-15.42716042,0,51.06984073,0,0,0,0,51.39035655,57.33149596,120.3554067,268.8645337,5.914142424,70.90757467,0,0,,,,
38.15199997,149,-159.8593136,-6.725328208,0,-122.6512361,0,0,0,0,-56.72160091,60.81907744,-43.91159996,-47.09016438,-80.98460555,201.8387047,0,0,,,,
38.15999997,149,218.0316923,-18.83280867,0,53.55190147,0,0,0,0,67.54569239,-144.5066261,-83.15944561,-256.4249598,24.83252041,-349.7885689,0,0,,,,
38.16799997,149,295.3099334,2.889423321,0,-66.43248812,0,0,0,0,-5.605854996,200.1879416,167.8698837,415.9537995,-39.43387429,431.6325813,0,0,,,,
38.17599997,149,-246.6232667,17.8671817,0,-30.12752691,0,0,0,0,9.086173237,-119.0387612,-180.6945372,-421.4193633,-19.42244057,-248.6620233,0,0,,,,
38.18399997,149,550.5738935,-0.681465356,0,70.18532926,0,0,0,0,84.36586333,85.90411824,137.1203529,288.4667906,31.28289545,74.23525637,0,0,,,,
38.19199997,149,-140.0010553,6.088787702,0,-124.6111653,0,0,0,0,-38.52580588,102.2955502,-12.15949024,-16.92430547,-62.98275135,243.8079313,0,0,,,,
38.19999997,149,183.4413071,-5.798497075,0,54.70232872,0,0,0,0,80.05765755,-136.5587914,-89.80019181,-274.6250663,35.52979869,-359.4863045,0,0,,,,
38.20799997,149,300.890325,-6.411228109,0,-70.59512484,0,0,0,0,4.971857944,206.633326,164.1824493,431.3327513,-36.91830518,428.0625766,0,0,,,,
38.21599997,149,-242.2734619,-3.98742798,0,-56.01974016,0,0,0,0,5.170197854,-121.4557065,-170.3714885,-428.8017438,-23.03500987,-242.5051265,0,0,,,,
38.22399997,149,530.6355555,-3.027192561,0,63.30647886,0,0,0,0,79.42980042,59.2634159,131.2676315,258.653245,32.55335626,50.03072548,0,0,,,,
38.23199997,149,-153.4190041,5.801098802,0,-116.3282392,0,0,0,0,-42.22400422,92.27106428,-24.45705133,-3.372040098,-65.1003543,248.4213238,0,0,,,,
38.23999997,149,183.880514,-10.39933524,0,58.27538154,0,0,0,0,69.68387281,-141.0493477,-88.40138175,-282.7237965,26.15744274,-352.6258876,0,0,,,,
38.24799997,149,307.4858684,0.42807165,0,-64.01951791,0,0,0,0,-3.671836348,207.1317543,173.9657426,432.9027297,-38.69202031,441.1593209,0,0,,,,
38.25599997,149,-278.5324245,5.516720384,0,-50.319475,0,0,0,0,8.397277746,-118.7291289,-186.5959,-423.1459352,-18.11720095,-228.8851449,0,0,,,,
38.26399997,149,511.9516254,-6.841019976,0,63.2489834,0,0,0,0,90.18643804,58.06650388,119.5160128,252.9070378,28.04950323,44.8844935,0,0,,,,
38.27199997,149,-139.5150786,-11.84029999,0,-129.3464231,0,0,0,0,-38.55709521,100.0849493,-12.46098666,6.068739076,-68.97853362,258.6359888,0,0,,,,
38.27999997,149,182.7886192,-25.64398359,0,43.39277726,0,0,0,0,75.82726853,-141.8849419,-83.29066844,-300.1520122,46.60374017,-365.3372492,0,0,,,,
38.28799997,149,321.3702384,-8.299928576,0,-75.68881229,0,0,0,0,8.439201727,213.0992081,188.7449281,429.6951366,-21.76118577,439.149371,0,0,,,,
38.29599997,149,-286.1174427,-4.716175001,0,-65.83833337,0,0,0,0,14.15055242,-111.6471479,-178.7513893,-427.9586769,-14.8155142,-216.4445636,0,0,,,,
38.30399997,149,505.5439604,-17.70908011,0,57.90609488,0,0,0,0,98.96221222,55.14219329,119.2870391,240.7550672,42.95293983,32.80862224,0,0,,,,
38.31199997,149,-153.009737,-11.42590633,0,-133.7437321,0,0,0,0,-35.10911051,106.9641472,-9.965921924,19.84183184,-69.90205924,272.665036,0,0,,,,
38.31999997,149,306.2958244,-29.15458222,0,153.5378175,0,0,0,0,146.781964,-301.8366869,-168.4075217,-520.9163818,89.35984437,-759.8891613,0,0,,,,
38.32799997,149,893.2996648,-31.53784764,0,157.8343409,0,0,0,0,157.6572609,15.15573032,182.9956654,330.7734665,88.19096832,-124.2095138,0,0,,,,
38.33599997,149,94.98719781,-21.52738432,0,20.88192127,0,0,0,0,61.21472799,-115.3005887,-96.7164816,-276.8719135,15.48981804,-286.3664384,0,0,,,,
38.34399997,149,648.6097171,-30.38313985,0,168.8270083,0,0,0,0,159.0486803,-146.4178785,17.25959533,-78.62356255,95.73899645,-455.0046971,0,0,,,,
38.35199997,149,461.8029464,-25.30725852,0,67.36869292,0,0,0,0,93.74972459,-19.11446721,55.62466569,67.5901582,39.30179,-125.1542803,0,0,,,,
38.35999997,149,338.0611242,-25.53572918,0,99.66733624,0,0,0,0,110.7401137,-161.1830849,-67.75776825,-249.5300381,58.35191387,-432.7705464,0,0,,,,
38.36799997,149,611.8108105,-27.8613478,0,118.2069192,0,0,0,0,125.52585,-52.57246114,70.09236813,75.0243135,66.95765267,-227.3435609,0,0,,,,
38.37599997,149,156.2295776,-13.88319026,0,-43.87837791,0,0,0,0,20.01129348,54.60935207,34.76381804,68.98823847,-13.3498225,109.5836479,0,0,,,,
38.38399997,149,-65.23050124,1.510021834,0,-115.475171,0,0,0,0,-20.62302786,92.66835491,12.57647981,53.24710276,-40.49371551,239.6496746,0,0,,,,
38.39199997,149,36.81843329,2.96528205,0,-15.5479099,0,0,0,0,48.56632726,-54.11975737,-61.3761533,-165.9921011,6.715553034,-134.1925076,0,0,,,,
38.39999997,150,255.9828933,-0.100362049,0,-26.86521196,0,0,0,0,39.12599164,90.91118784,85.02646391,186.9953125,-8.800386544,163.4472524,0,0,,,,
38.40799997,150,-119.0339034,5.70761401,0,-116.0771459,0,0,0,0,-25.3657207,63.50803502,-21.30859842,-46.61404423,-55.0575799,172.6888913,0,0,,,,
38.41599997,150,163.8846008,6.199025013,0,16.88141462,0,0,0,0,63.60396995,-78.99145949,-45.81252875,-166.3028023,8.065224068,-206.206369,0,0,,,,
38.42399997,150,154.8427162,11.00627199,0,-91.21645909,0,0,0,0,0.895678007,172.3629005,120.3945525,318.2404042,-44.56687731,386.0140423,0,0,,,,
38.43199997,150,-205.8058933,2.311385941,0,-66.80045879,0,0,0,0,12.60704328,-82.83697239,-126.6940445,-316.6729462,-14.30178743,-147.2696229,0,0,,,,
38.43999997,150,403.8064451,-2.656656827,0,14.26992467,0,0,0,0,68.63723121,55.9649204,118.4141268,198.298998,22.38423189,75.99763973,0,0,,,,
38.44799997,150,-156.2999219,15.4796358,0,-134.2680236,0,0,0,0,-35.2589267,93.79317147,0.140837733,14.34340592,-61.62064691,267.9517509,0,0,,,,
38.45599997,150,102.0955668,-1.421933533,0,25.528053,0,0,0,0,62.81366797,-131.3047238,-87.73008393,-284.5845877,23.80245175,-311.8415539,0,0,,,,
38.46399997,150,292.0030537,-6.420181977,0,-88.06963322,0,0,0,0,2.596674783,196.6281236,193.1811088,398.3016677,-31.49997179,428.2606419,0,0,,,,
38.47199997,150,-278.1589583,6.663024084,0,-89.87228876,0,0,0,0,-1.030478362,-96.91088243,-126.4198095,-386.7732412,-22.98462983,-143.0468174,0,0,,,,
38.47999997,150,455.6388151,4.676460995,0,37.5705216,0,0,0,0,78.98763498,39.31237162,134.9666022,186.3635709,33.16909056,36.76399206,0,0,,,,
38.48799997,150,-135.3323395,35.54168907,0,-121.7921415,0,0,0,0,-31.01009545,123.4342572,31.7514632,54.43264195,-52.90020653,314.1306084,0,0,,,,
38.49599997,150,53.40013379,47.08682526,0,68.43383018,0,0,0,0,93.62761636,-131.8168269,-100.9822893,-308.978246,55.91247301,-341.5991004,0,0,,,,
38.50399997,150,296.0447713,33.26862076,0,-36.51120535,0,0,0,0,45.36396461,226.7577099,204.2991393,476.0035266,0.795991961,440.5737285,0,0,,,,
38.51199997,150,-334.3313829,26.51225276,0,-63.71654484,0,0,0,0,24.40140586,-76.40383429,-139.4628961,-363.3386047,-6.0021456,-148.8841012,0,0,,,,
38.51999997,150,450.3195196,14.50224083,0,66.69712008,0,0,0,0,97.1077029,43.46149669,132.7267307,203.2245491,61.68607683,10.99609727,0,0,,,,
38.52799997,150,-119.5872182,13.75464754,0,-134.3080996,0,0,0,0,-44.31426355,130.9969209,65.24299698,86.02229687,-43.92932114,338.0598851,0,0,,,,
38.53599997,150,70.44888312,7.827778548,0,32.92569272,0,0,0,0,64.34152019,-155.8797509,-77.49339568,-341.4011362,42.91484783,-355.179111,0,0,,,,
38.54399997,150,330.4546238,17.84679049,0,-50.32338199,0,0,0,0,19.10315538,203.5907283,209.0712528,450.519584,-11.0928179,424.7368855,0,0,,,,
38.55199997,150,-739.0163395,28.1838151,0,-97.33667492,0,0,0,0,-21.25591741,-261.2443575,-354.1508967,-890.4821414,-27.44776887,-484.9233058,0,0,,,,
38.55999997,150,-146.3430679,18.2010258,0,87.6405339,0,0,0,0,98.3328928,-360.4818612,-272.8359447,-799.9519286,70.78285458,-813.7262586,0,0,,,,
38.56799997,150,-244.3009618,23.24497514,0,-75.61864296,0,0,0,0,-4.637393075,-45.82998216,-93.95903518,-269.9127377,-20.71905788,-61.4832262,0,0,,,,
38.57599997,150,-453.3782118,21.61786395,0,2.33724177,0,0,0,0,40.89347603,-334.2302568,-332.1401863,-894.3914629,24.9330288,-699.6477797,0,0,,,,
38.58399997,150,-107.8482,19.26731341,0,10.5323836,0,0,0,0,48.51465813,-166.6515343,-139.0343202,-428.7581885,25.87633592,-364.9121547,0,0,,,,
38.59199997,150,11.7894577,9.649720745,0,-29.3795571,0,0,0,0,23.87233497,-14.89334474,-11.7607036,-98.71731163,-0.681638096,-29.22036976,0,0,,,,
38.59999997,150,408.6855434,-9.638007771,0,-6.066880385,0,0,0,0,37.09997803,126.2164001,182.7839772,338.0371603,7.32840924,255.8226669,0,0,,,,
38.60799997,150,-111.1434857,0.210352041,0,-90.02529962,0,0,0,0,-26.65636043,16.14225244,-12.89077038,-105.6695011,-34.77543072,113.6162406,0,0,,,,
38.61599997,150,217.2860281,0.23192413,0,34.29404881,0,0,0,0,56.99310262,-75.9745357,-2.244539846,-122.3831808,24.2360244,-174.8768796,0,0,,,,
38.62399997,150,287.4976736,-6.967842074,0,-66.91979318,0,0,0,0,-0.070640507,181.4758076,183.0291359,387.356132,-36.24268206,408.4363641,0,0,,,,
38.63199997,150,-601.5526642,5.710221837,0,-81.99008609,0,0,0,0,-20.90571308,-271.7535703,-318.9072822,-845.0511732,-33.83338151,-478.0039983,0,0,,,,
38.63999997,150,-131.4194491,2.107453582,0,58.84733072,0,0,0,0,70.45611901,-322.4242888,-241.0779617,-723.1789477,37.64663134,-683.483305,0,0,,,,
38.64799997,150,-193.6656458,-0.346826073,0,-67.66214849,0,0,0,0,-8.489643063,-79.15281018,-98.90814931,-307.9865541,-31.46753506,-105.610071,0,0,,,,
38.65599997,151,-370.0567223,3.85218624,0,-8.60304657,0,0,0,0,24.68012924,-304.836518,-286.6938648,-800.852666,3.373856475,-597.2643143,0,0,,,,
38.66399997,151,-94.53426463,-0.348106143,0,0.658214969,0,0,0,0,33.19396542,-173.7759453,-137.0260059,-435.7531121,4.551458415,-343.2951563,0,0,,,,
38.67199997,151,-319.3481282,1.812222458,0,-48.75005693,0,0,0,0,-0.677737322,-188.4295175,-200.0606837,-565.8033413,-19.71448392,-335.2517228,0,0,,,,
38.67999997,151,-184.7343956,1.120301412,0,10.44880029,0,0,0,0,36.62611063,-243.9404394,-204.1781733,-605.5644568,10.90940464,-488.9295232,0,0,,,,
38.68799997,151,-199.7207207,0.095280978,0,-34.19185562,0,0,0,0,8.389624849,-153.9835489,-149.9327305,-448.5915897,-13.61899804,-276.646597,0,0,,,,
38.69599997,151,-249.4237966,1.33995062,0,-12.91378219,0,0,0,0,20.09802914,-227.4566639,-209.3475247,-605.5875634,-1.337342569,-437.8890718,0,0,,,,
38.70399997,151,240.2730773,6.015579885,0,19.46188859,0,0,0,0,43.78083868,-7.448454381,51.99323689,24.47901369,8.246493856,-25.38628317,0,0,,,,
38.71199997,151,351.8142686,14.35116565,0,-30.42650185,0,0,0,0,11.57872362,206.9400699,210.8626563,470.3473796,-25.60685792,429.5792502,0,0,,,,
38.71999997,151,-74.42978224,3.357885939,0,-40.69356613,0,0,0,0,0.205654832,-15.39912803,-49.64269218,-139.6227336,-27.9747761,-8.362574117,0,0,,,,
38.72799997,151,298.3429186,-0.342859587,0,28.91478184,0,0,0,0,48.33940667,4.384151769,58.28789525,69.77362744,9.439473216,-4.874843633,0,0,,,,
38.73599997,151,247.1480916,15.98207683,0,-43.91890638,0,0,0,0,4.127294762,178.4861054,161.3970194,381.6355751,-25.66649851,397.9653662,0,0,,,,
38.74399997,151,-88.89797206,0.418419123,0,-12.96606965,0,0,0,0,21.9890384,-58.72119705,-76.23926166,-215.1800219,3.150804711,-100.2996325,0,0,,,,
38.75199997,151,526.6301108,-16.61337772,0,42.95500937,0,0,0,0,60.75036769,109.5832804,204.3725321,347.9474088,23.92237145,213.5724207,0,0,,,,
38.75999997,151,20.99726791,-2.830830683,0,-92.07888398,0,0,0,0,-36.44434219,106.8939642,89.09859924,103.0099654,-54.22105958,317.4975211,0,0,,,,
38.76799997,151,201.608804,1.928654259,0,47.71888558,0,0,0,0,49.70320945,-93.81878632,-11.87367173,-166.5096438,28.32366237,-183.7374671,0,0,,,,
38.77599997,151,422.9659943,7.07373056,0,-19.47816801,0,0,0,0,12.42548307,205.3655532,233.9104,495.0600294,-13.60890465,460.1083382,0,0,,,,
38.78399997,151,-159.7839254,9.768862649,0,-44.86998576,0,0,0,0,-11.50050346,-47.83486837,-62.32294434,-234.719008,-32.00997773,-33.42330916,0,0,,,,
38.79199997,151,530.0643161,10.53849313,0,84.37182869,0,0,0,0,78.02718481,57.18105081,173.6630765,282.8800678,29.47386146,91.00580139,0,0,,,,
38.79999997,151,18.70536696,7.995313461,0,-86.44697966,0,0,0,0,-30.49926646,151.1675902,104.2002039,213.0863671,-58.20369965,403.9470416,0,0,,,,
38.80799997,151,163.1333821,-12.1903952,0,54.31425865,0,0,0,0,53.42226881,-121.9477591,-31.55175031,-229.367955,26.07217211,-244.6632651,0,0,,,,
38.81599997,151,477.3373815,-9.715168264,0,-18.0749829,0,0,0,0,11.34927687,207.6434465,261.1544412,536.278556,-19.7612852,470.3948465,0,0,,,,
38.82399997,151,-189.240073,-9.220924805,0,-70.18789377,0,0,0,0,-24.0992995,-52.92026213,-67.44455242,-250.1727923,-36.42870984,-28.44836967,0,0,,,,
38.83199997,151,562.8041497,-15.3778024,0,68.5188292,0,0,0,0,68.11898536,33.72649507,179.2757835,239.6065213,35.23823858,33.76069386,0,0,,,,
38.83999997,151,35.43960054,-5.916466406,0,-115.4210668,0,0,0,0,-53.87286931,159.6568929,119.3330235,226.4161327,-72.01988147,416.0764779,0,0,,,,
38.84799997,151,139.2721535,-17.16244103,0,44.69842287,0,0,0,0,45.3902625,-145.0630123,-60.0773784,-281.6880283,26.20974848,-302.9382501,0,0,,,,
38.85599997,151,519.2556335,-25.21688556,0,-22.82644242,0,0,0,0,5.786066557,207.0559157,270.0915602,539.8048373,-10.54090532,461.5380472,0,0,,,,
38.86399997,151,-182.0275803,-20.87526833,0,-81.03066939,0,0,0,0,-35.72929122,-53.33934329,-65.436273,-261.4128775,-35.61252098,-22.84072548,0,0,,,,
38.87199997,151,566.4574168,-12.35345221,0,72.61689067,0,0,0,0,71.79389353,17.00490961,161.9934317,217.7674855,45.39596271,8.990315757,0,0,,,,
38.87999997,151,53.36358086,3.807826456,0,-115.3002146,0,0,0,0,-46.9330573,165.9539216,124.7021351,250.1950239,-65.65798713,445.0007353,0,0,,,,
38.88799997,151,119.3335376,4.05173965,0,45.1001951,0,0,0,0,58.69100026,-145.397062,-69.55736805,-288.6546897,24.06242292,-299.3421476,0,0,,,,
38.89599997,151,495.6793152,2.904063779,0,-16.23667822,0,0,0,0,27.02721476,207.6435982,247.3431003,553.6926775,-10.8941214,448.8141309,0,0,,,,
38.90399997,151,-206.216351,-11.49293633,0,-79.99760073,0,0,0,0,-22.90065703,-48.75318851,-88.38568155,-240.4759156,-38.31804687,-22.23591199,0,0,,,,
38.91199997,152,577.7461231,-25.6035706,0,68.53378956,0,0,0,0,73.73966784,13.37433868,156.4258209,211.9305907,54.56369579,7.689153602,0,0,,,,
38.91999997,152,75.32109915,-7.310868704,0,-121.9967662,0,0,0,0,-61.24168781,165.9145362,134.5844482,251.4882491,-58.55136442,464.0509155,0,0,,,,
38.92799997,152,111.8343576,0.200677872,0,46.3159777,0,0,0,0,38.57295459,-157.0895594,-77.8380747,-308.2096297,14.50788529,-299.2780126,0,0,,,,
38.93599997,152,518.8697703,-5.073692046,0,-10.95035505,0,0,0,0,17.16869178,203.3953764,248.9812353,550.5169284,-7.833139699,457.0893005,0,0,,,,
38.94399997,152,-193.6978783,-21.44390926,0,-85.81078069,0,0,0,0,-30.16011048,-41.57019072,-79.3457166,-239.298923,-37.12118964,-1.121358151,0,0,,,,
38.95199997,152,563.813079,-21.96121203,0,66.93297807,0,0,0,0,76.16826664,9.025884806,151.8538525,196.4338808,35.85711226,-2.099045822,0,0,,,,
38.95999997,152,68.84622187,-2.144124049,0,-121.7959647,0,0,0,0,-43.75930773,175.4382452,129.6461854,269.1034805,-66.82296043,470.0015203,0,0,,,,
38.96799997,152,117.8039053,-18.29347324,0,28.87980286,0,0,0,0,50.66263187,-145.7703036,-76.94347725,-309.1133106,19.14712004,-302.1402307,0,0,,,,
38.97599997,152,558.547391,-25.86448904,0,-38.40544721,0,0,0,0,14.8082613,208.3753551,270.4581993,540.5269322,-15.68533332,455.0446259,0,0,,,,
38.98399997,152,-185.5129594,-25.24650125,0,-109.6574486,0,0,0,0,-38.24835467,-36.56465727,-71.56078814,-252.2628565,-51.91212859,8.522525414,0,0,,,,
38.99199997,152,562.7216199,-28.43027112,0,60.06627038,0,0,0,0,68.43006974,2.825160787,143.1202638,169.4408801,30.88522217,-29.3548474,0,0,,,,
38.99999997,152,97.15682432,-17.25587421,0,-129.3247838,0,0,0,0,-60.60728531,175.4929399,141.6513767,270.6875468,-67.45221877,470.8722043,0,0,,,,
39.00799997,152,114.7995434,-26.70654958,0,19.15146936,0,0,0,0,29.07983514,-155.4555745,-80.19018412,-333.2342723,14.82483051,-299.2820903,0,0,,,,
39.01599997,152,559.0878176,-25.04818917,0,-30.73894326,0,0,0,0,1.135072707,195.3535449,263.5309143,526.9747515,-19.6947669,437.2424113,0,0,,,,
39.02399997,152,-199.1757162,-15.45398106,0,-99.06552034,0,0,0,0,-43.98583033,-35.92465159,-71.71436188,-240.1048983,-52.20194499,11.51500882,0,0,,,,
39.03199997,152,529.9897723,-16.07825975,0,75.90469545,0,0,0,0,80.08620537,3.562468832,118.5176145,166.2292689,35.6291837,-45.37419401,0,0,,,,
39.03999997,152,70.65509766,-6.943002648,0,-122.7954063,0,0,0,0,-46.70094708,191.9151488,123.2000437,295.2555496,-64.51636055,463.5243084,0,0,,,,
39.04799997,152,61.81347982,-10.04765936,0,15.2951446,0,0,0,0,44.31650248,-143.5319056,-98.2218635,-322.9104696,23.03104307,-313.9471997,0,0,,,,
39.05599997,152,528.8823071,-11.29874838,0,-27.78164173,0,0,0,0,32.82712575,204.7376123,238.3556353,538.1096081,1.210767911,416.2184161,0,0,,,,
39.06399997,152,-221.8136419,-16.92953654,0,-113.3616921,0,0,0,0,-26.97353915,-20.83535877,-88.95340944,-223.0712167,-39.50991945,16.09711677,0,0,,,,
39.07199997,152,530.8366227,-36.16200883,0,46.46311746,0,0,0,0,74.12487231,-1.277902194,118.1380237,156.7605465,42.28482049,-50.25321177,0,0,,,,
39.07999997,152,107.9650923,-30.64287991,0,-157.8232079,0,0,0,0,-63.68081809,181.7547367,140.2186341,291.43466,-66.7137763,481.5050198,0,0,,,,
39.08799997,152,76.56971211,-29.20323683,0,-12.91161463,0,0,0,0,24.66082527,-164.1658326,-100.3244605,-354.9661605,9.1144201,-303.9061011,0,0,,,,
39.09599997,152,565.4636426,-31.93745517,0,-43.08853669,0,0,0,0,13.44636039,185.4106283,247.0354227,515.4536003,-14.35986072,417.6783717,0,0,,,,
39.10399997,152,-207.9402109,-25.46319313,0,-125.4552688,0,0,0,0,-48.26993673,-32.54802783,-78.29791662,-234.4223386,-55.56169003,26.59063081,0,0,,,,
39.11199997,152,517.5589369,-36.49424922,0,53.41929543,0,0,0,0,74.04727423,-22.46593133,95.85769265,131.5059585,47.54235669,-83.75366597,0,0,,,,
39.11999997,152,107.5199254,-31.3304009,0,-146.3391109,0,0,0,0,-52.96730991,178.9993025,130.8962228,302.9214779,-51.99350952,460.585194,0,0,,,,
39.12799997,152,43.51760485,-29.38495189,0,-5.541101855,0,0,0,0,28.07086877,-163.5604062,-110.1248713,-356.6454644,15.10318541,-324.9873085,0,0,,,,
39.13599997,152,546.1831305,-36.9367514,0,-30.5045923,0,0,0,0,23.51751417,180.5229872,226.4231804,519.1699225,-1.59131377,383.6964854,0,0,,,,
39.14399997,152,-684.3030555,-26.71637559,0,-180.8534476,0,0,0,0,-76.9549753,-153.9987427,-288.8473054,-660.0164245,-69.33969659,-186.9300704,0,0,,,,
39.15199997,152,-285.8448966,-31.12016015,0,13.34699508,0,0,0,0,45.32194583,-357.1332689,-327.316941,-847.4798707,31.88122311,-729.8009162,0,0,,,,
39.15999997,152,326.6402329,-26.38339069,0,-54.00605256,0,0,0,0,4.566702214,123.6488586,142.3179611,324.7403363,-14.1683209,286.1186265,0,0,,,,
39.16799997,153,225.2385038,0.960397126,0,-24.40573115,0,0,0,0,15.96425282,51.35864606,70.41846402,156.3218168,1.24113834,119.4128729,0,0,,,,
39.17599997,153,-161.456738,21.5596938,0,-141.4879652,0,0,0,0,-60.65941517,171.604591,36.59612609,194.1425327,-52.43035281,440.8787679,0,0,,,,
39.18399997,153,-525.8700963,19.68171353,0,-221.5467414,0,0,0,0,-113.4793443,139.1878445,-70.70778098,-37.1758175,-93.21266572,431.9434938,0,0,,,,
39.19199997,153,-44.37855997,13.50528632,0,-82.90056493,0,0,0,0,-24.86559275,83.27335113,15.04040322,88.48967456,-25.05014778,224.3715685,0,0,,,,
39.19999997,153,-321.4751813,19.24701912,0,-186.1774269,0,0,0,0,-91.75728842,178.7569398,5.234845616,132.1205649,-76.91886472,488.1739573,0,0,,,,
39.20799997,153,-63.08864531,15.19937258,0,-23.29279262,0,0,0,0,11.9961244,-42.63821126,-72.99311167,-156.6817591,9.337171104,-77.90971992,0,0,,,,
39.21599997,153,523.074166,13.46680783,0,102.6683752,0,0,0,0,97.13396145,20.86580957,108.2851353,226.2470415,77.24153576,-51.99780705,0,0,,,,
39.22399997,153,31.44934061,3.768476253,0,-81.47184865,0,0,0,0,-19.30638471,162.6672253,76.67099268,251.0871301,-13.14328923,353.1922344,0,0,,,,
39.23199997,153,61.53241911,-19.38892437,0,1.316261222,0,0,0,0,31.04389669,-40.9222229,-33.49168065,-121.3177739,28.41913683,-126.3056182,0,0,,,,
39.23999997,153,417.0482147,-10.5465325,0,32.34731308,0,0,0,0,48.03909621,86.69757491,154.6845015,271.8321319,28.14768278,111.0533144,0,0,,,,
39.24799997,153,-24.00016667,0.055630933,0,-85.05255762,0,0,0,0,-31.3479115,124.1248094,64.94124299,143.2944181,-41.10856663,290.2471303,0,0,,,,
39.25599997,153,220.2658515,-20.0442908,0,46.43739313,0,0,0,0,56.16006297,-78.5551055,1.554538263,-131.89368,39.76303234,-205.5249794,0,0,,,,
39.26399997,153,399.4688201,-16.52516026,0,-42.47218647,0,0,0,0,3.88149292,176.4648803,233.9141776,418.1721456,-11.99101975,379.1943413,0,0,,,,
39.27199997,153,-142.8501376,-13.42255615,0,-73.28894578,0,0,0,0,-20.5737509,-22.4835454,-47.04594213,-160.4057752,-32.90015809,6.795513152,0,0,,,,
39.27999997,153,423.8111877,-33.82301222,0,48.427191,0,0,0,0,59.50109223,-8.053358321,103.2816908,145.9180814,34.79639175,-47.84659313,0,0,,,,
39.28799997,153,72.98180587,-26.05344288,0,-124.4196243,0,0,0,0,-55.71984698,156.5642839,137.040254,282.1557123,-61.28378779,424.2177389,0,0,,,,
39.29599997,153,31.90735786,-22.28087174,0,13.76007803,0,0,0,0,31.01610492,-142.6997208,-87.41039127,-290.1833113,22.51454464,-275.4742841,0,0,,,,
39.30399997,153,465.287725,-16.60880236,0,-13.75874888,0,0,0,0,22.6898837,163.4201137,220.295709,475.2417039,12.29429479,351.0585191,0,0,,,,
39.31199997,153,-240.4982061,-7.733450234,0,-94.70660973,0,0,0,0,-38.26772939,-14.43091782,-71.47580015,-163.072425,-38.93149588,40.32863652,0,0,,,,
39.31999997,153,381.3864325,-13.97388346,0,73.94238212,0,0,0,0,67.55822257,-28.95900533,70.08505705,104.9554888,56.06430629,-111.0967976,0,0,,,,
39.32799997,153,31.4469577,8.692506341,0,-96.26190335,0,0,0,0,-39.12014411,188.4598285,123.8236292,351.1769212,-39.82082376,456.5362837,0,0,,,,
39.33599997,153,-80.29930407,-6.674087074,0,33.02273273,0,0,0,0,48.65346238,-146.06192,-140.6424311,-315.2086997,15.19695239,-316.135156,0,0,,,,
39.34399997,153,496.6420454,-36.67759344,0,0.37336038,0,0,0,0,32.87541735,176.215397,233.8335557,518.2367459,3.61375423,352.841925,0,0,,,,
39.35199997,153,-273.7132461,-14.13581516,0,-108.7166156,0,0,0,0,-49.24061892,-5.132585498,-57.55557083,-169.1246553,-49.29258229,67.45969768,0,0,,,,
39.35999997,153,361.9030388,-10.13577066,0,78.84217573,0,0,0,0,83.70659143,-38.74380585,61.20530899,80.92493503,48.18179353,-140.544915,0,0,,,,
39.36799997,153,60.7829954,-19.25265619,0,-109.0576507,0,0,0,0,-33.25669174,202.2937873,146.148361,379.9660941,-51.34235091,478.1642448,0,0,,,,
39.37599997,153,-92.06302765,-25.5442139,0,1.718266505,0,0,0,0,29.19401972,-154.9106178,-116.5337108,-347.0694988,0.680467252,-310.0171349,0,0,,,,
39.38399997,153,480.0293301,-27.90838257,0,-1.716068904,0,0,0,0,37.25623332,159.9311641,226.6409993,500.6869473,-1.962737345,335.7105077,0,0,,,,
39.39199997,153,-276.2968514,-35.7982156,0,-115.390866,0,0,0,0,-41.13923572,-6.80190371,-69.68299536,-163.6433963,-50.92575214,75.11595285,0,0,,,,
39.39999997,153,389.4866881,-41.96303081,0,50.71064272,0,0,0,0,69.14458928,-54.15971081,82.39673981,54.0244804,30.93069837,-135.2707539,0,0,,,,
39.40799997,153,63.07449673,-16.64677055,0,-124.1777018,0,0,0,0,-45.71467973,184.0573709,153.9338093,356.075359,-70.4854179,490.760425,0,0,,,,
39.41599997,153,-111.6162453,-15.60674059,0,12.2354774,0,0,0,0,30.50557723,-167.7185591,-141.245666,-369.8987946,4.020483149,-304.5558761,0,0,,,,
39.42399997,154,481.2553233,5.335259472,0,24.71696858,0,0,0,0,43.15215479,161.705945,222.0053283,499.7646248,5.096548914,345.5902067,0,0,,,,
39.43199997,154,-322.7502654,40.75549839,0,-67.21035348,0,0,0,0,-13.30710335,13.06012286,-90.58360298,-138.1639113,-25.15788753,82.94092058,0,0,,,,
39.43999997,154,346.5204639,27.92336629,0,122.4268245,0,0,0,0,121.4727645,-24.9573543,37.00250448,95.24130054,90.6165281,-159.9233407,0,0,,,,
39.44799997,154,60.64878741,38.33765078,0,-78.08417285,0,0,0,0,-7.318611945,235.5531369,160.8545628,423.9660294,-24.97540618,502.4518037,0,0,,,,
39.45599997,154,-141.8934218,32.11377308,0,26.67345038,0,0,0,0,57.18354268,-123.4961182,-129.5875753,-334.9001162,28.33612305,-298.6229905,0,0,,,,
39.46399997,154,486.6202525,7.541736696,0,28.1806287,0,0,0,0,63.97421369,185.6584991,218.5703402,521.2716058,18.63240152,328.0580983,0,0,,,,
39.47199997,154,-292.6506932,6.205567295,0,-110.0723181,0,0,0,0,-31.47814033,27.00663053,-49.50502595,-133.3584506,-44.06895388,114.725084,0,0,,,,
39.47999997,154,352.8931842,-0.884774568,0,66.17486049,0,0,0,0,83.24354889,-42.63984095,71.22618208,42.2425056,53.2812819,-148.9189704,0,0,,,,
39.48799997,154,74.43929803,17.32148953,0,-107.1181315,0,0,0,0,-35.45536493,211.3759413,162.2076686,389.0068929,-49.78571034,492.8996472,0,0,,,,
39.49599997,154,-127.4647183,8.836008197,0,3.733961961,0,0,0,0,31.49171871,-141.8491103,-123.8917896,-364.6432514,25.52004017,-297.0586504,0,0,,,,
39.50399997,154,517.8681887,-7.167756747,0,9.2790636,0,0,0,0,36.22291982,166.148176,238.2150229,492.7769495,20.98693128,324.3031309,0,0,,,,
39.51199997,154,-283.6197361,13.2817887,0,-119.922792,0,0,0,0,-54.99212292,13.00532207,-47.38305963,-146.4924923,-54.56916738,107.7238181,0,0,,,,
39.51999997,154,367.0873325,1.454529286,0,73.21859478,0,0,0,0,79.88712396,-53.42165855,54.93940265,26.98889561,49.11088156,-169.570709,0,0,,,,
39.52799997,154,152.8582345,-9.075728977,0,-117.7471791,0,0,0,0,-44.49065549,215.2537344,194.0826118,404.4871874,-63.19967657,510.3144361,0,0,,,,
39.53599997,154,-87.86902043,0.078363622,0,-33.4493432,0,0,0,0,9.846360717,-151.4156542,-82.04158869,-384.6271704,-6.936665429,-289.1739979,0,0,,,,
39.54399997,154,518.090199,12.13917728,0,-0.729147299,0,0,0,0,46.80018948,145.0597949,229.7780882,465.1729659,17.65179264,292.6801539,0,0,,,,
39.55199997,154,-287.4584225,13.7622973,0,-121.7592396,0,0,0,0,-42.0081968,4.005798759,-67.58132584,-138.2313908,-49.93346314,96.08989295,0,0,,,,
39.55999997,154,323.1940733,11.25582623,0,61.3453069,0,0,0,0,75.08467467,-73.03746336,36.85101242,8.150669062,42.58186543,-203.1752872,0,0,,,,
39.56799997,154,83.34167945,21.71665228,0,-110.8320981,0,0,0,0,-28.7555085,199.1424097,148.6129879,408.9979973,-43.36900642,474.1918132,0,0,,,,
39.57599997,154,-161.3065886,4.485934168,0,-21.67060577,0,0,0,0,20.29707123,-166.0791531,-140.0990219,-374.448368,17.01828704,-317.7558758,0,0,,,,
39.58399997,154,489.6164846,-2.355535772,0,-1.613369369,0,0,0,0,33.06105985,130.2878701,207.1702205,460.4653034,17.80864672,260.4076081,0,0,,,,
39.59199997,154,-278.1291349,-13.62327378,0,-138.4608273,0,0,0,0,-56.46685143,-3.536115722,-68.70814499,-140.7513698,-53.65855781,92.0357552,0,0,,,,
39.59999997,154,352.2066035,-31.42958258,0,35.30388236,0,0,0,0,47.43646095,-96.65680858,46.30767896,-25.45836117,43.09902568,-210.4006371,0,0,,,,
39.60799997,154,123.5194292,-4.33842012,0,-130.2693987,0,0,0,0,-69.85359235,184.388113,168.0332767,384.4650771,-51.16114849,471.5971212,0,0,,,,
39.61599997,154,-145.6751426,-6.684531981,0,-32.69513593,0,0,0,0,-0.547017714,-171.7714526,-143.0670532,-400.8934176,6.615850399,-324.0815063,0,0,,,,
39.62399997,154,552.8685744,-23.97224194,0,-15.31670412,0,0,0,0,20.18382269,122.6868638,221.8958646,443.5675194,11.2993411,261.7031182,0,0,,,,
39.63199997,154,-210.1244572,-17.79376424,0,-158.3578843,0,0,0,0,-79.39593745,-1.190226111,-35.95337368,-144.5250625,-66.73098342,120.4631192,0,0,,,,
39.63999997,154,357.2986207,-2.35388972,0,32.35916396,0,0,0,0,54.87746394,-100.859545,41.4014812,-48.98776047,35.80530787,-210.7165833,0,0,,,,
39.64799997,154,165.3587086,3.097394409,0,-130.9663062,0,0,0,0,-48.41756345,188.4992795,166.4035913,404.4498235,-57.3336382,487.9491033,0,0,,,,
39.65599997,154,-79.42056273,-22.71718471,0,-53.89223713,0,0,0,0,-11.85404128,-166.6043277,-118.0530196,-388.3311018,-12.61789995,-294.9029457,0,0,,,,
39.66399997,154,581.1867246,-12.58156294,0,-27.03494212,0,0,0,0,13.88701395,117.3329547,236.9720694,428.2463805,4.599646607,259.0610885,0,0,,,,
39.67199997,154,-217.4584395,1.442529254,0,-152.0656917,0,0,0,0,-61.92639939,0.478010269,-52.05383468,-135.8742669,-59.37713814,114.3937446,0,0,,,,
39.67999997,155,372.1134784,-8.360480043,0,36.22721447,0,0,0,0,58.13224132,-100.1801338,35.23786458,-45.85539999,39.99020284,-224.3451752,0,0,,,,
39.68799997,155,101.5936104,10.87494526,0,-235.441229,0,0,0,0,-119.4121463,373.3229462,283.9306404,699.8981442,-108.6431547,925.6772116,0,0,,,,
39.69599997,155,-554.2518264,9.840082824,0,-263.0783326,0,0,0,0,-139.9561726,88.14710746,-69.96217517,-124.3850799,-121.2171381,367.498317,0,0,,,,
39.70399997,155,313.9501063,-4.531836663,0,-3.038196406,0,0,0,0,23.04591303,-22.54227254,74.08499985,75.21150114,15.48811108,-32.73944102,0,0,,,,
39.71199997,155,167.2102428,-6.054631114,0,-33.86982343,0,0,0,0,-8.87958263,-23.22415129,32.78991976,8.86257678,1.860238216,-0.8592539,0,0,,,,
39.71999997,155,198.7556945,-6.58873876,0,-59.9518428,0,0,0,0,-33.74076855,40.51313892,80.68393583,127.1297089,-6.877674756,142.2386759,0,0,,,,
39.72799997,155,79.93990946,-4.185508221,0,-72.25817624,0,0,0,0,-44.36791465,-1.314889893,17.07755444,-12.37019768,-16.89574345,53.12601559,0,0,,,,
39.73599997,155,233.9339438,-10.85413297,0,-10.51387253,0,0,0,0,3.716893046,-54.12455867,11.61078402,-35.95990634,16.1836804,-109.5711855,0,0,,,,
39.74399997,155,192.0187844,-4.013140857,0,-104.1233696,0,0,0,0,-62.67359155,136.3958799,129.3234269,287.8769032,-32.99596268,330.6569114,0,0,,,,
39.75199997,155,-26.03547804,-1.544237131,0,-41.97076723,0,0,0,0,-26.87639277,-114.839236,-95.39840031,-277.7383911,-6.626502719,-226.1438233,0,0,,,,
39.75999997,155,442.7276176,-1.051557242,0,-25.48032468,0,0,0,0,-3.760242749,84.95282396,141.5624395,303.3839135,2.38870616,168.4996626,0,0,,,,
39.76799997,155,-107.0745063,3.751156623,0,-129.4541239,0,0,0,0,-82.62987195,21.2531027,-42.92193889,-72.71349138,-44.21412653,102.184214,0,0,,,,
39.77599997,155,302.5423813,-11.73093333,0,13.45251962,0,0,0,0,10.13788081,-91.26791492,-11.74489728,-80.39031708,26.56275342,-229.5254326,0,0,,,,
39.78399997,155,217.6897033,-0.671994835,0,-127.3827986,0,0,0,0,-76.23825756,174.4286262,147.5372437,376.416078,-46.50971213,423.2244932,0,0,,,,
39.79199997,155,-110.3311183,8.571343894,0,-42.7875903,0,0,0,0,-34.69348898,-138.4516361,-151.7946025,-363.2186434,8.47788847,-281.0755768,0,0,,,,
39.79999997,155,533.8572739,-1.011907998,0,-6.680944399,0,0,0,0,-13.12301796,113.6873314,167.3363777,383.2333057,19.11503845,186.9356148,0,0,,,,
39.80799997,155,-176.3411687,11.72333796,0,-148.2635584,0,0,0,0,-108.1918249,31.8709393,-61.05417,-80.39292764,-51.92174069,135.5196439,0,0,,,,
39.81599997,155,292.7828025,6.406137847,0,36.66945491,0,0,0,0,17.61822455,-102.0043564,-43.84575375,-93.23883904,43.5432986,-262.592575,0,0,,,,
39.82399997,155,232.7602272,-6.16854795,0,-131.5515835,0,0,0,0,-91.91522297,204.7636826,145.7375097,428.1905444,-56.07851326,468.7814969,0,0,,,,
39.83199997,155,-149.6567883,3.967807962,0,-65.26915549,0,0,0,0,-56.45547949,-148.3975017,-175.1660388,-390.8346289,-8.727369747,-290.6783446,0,0,,,,
39.83999997,155,504.6464931,13.35308721,0,-1.840062234,0,0,0,0,1.468174057,103.6361718,122.5221962,392.5200603,33.65854011,163.6237041,0,0,,,,
39.84799997,155,-196.7773398,-6.954729038,0,-166.0688888,0,0,0,0,-97.72538799,38.58066726,-94.11157312,-65.28142898,-45.84749422,137.2818667,0,0,,,,
39.85599997,155,334.3588858,-27.3081285,0,-0.786350496,0,0,0,0,14.12235343,-104.2223476,-27.67441094,-101.8242314,37.13285948,-267.0471447,0,0,,,,
39.86399997,155,252.629028,-12.64692473,0,-161.1386101,0,0,0,0,-78.45655539,206.2461219,151.854562,418.4445657,-44.22020584,476.1887938,0,0,,,,
39.87199997,155,-120.9861332,-6.695079861,0,-95.82582775,0,0,0,0,-39.28360354,-150.6848542,-170.4462791,-408.0009405,-3.480257705,-282.2250096,0,0,,,,
39.87999997,155,555.4243733,23.56731967,0,-16.03655245,0,0,0,0,9.379451433,102.6230925,144.2657198,382.1142879,21.33816614,180.8517835,0,0,,,,
39.88799997,155,-193.8612569,39.87298111,0,-146.7300061,0,0,0,0,-70.22513704,52.39132908,-102.7056909,-59.85766567,-21.53046939,152.4466773,0,0,,,,
39.89599997,155,331.6759704,13.75243737,0,31.74212772,0,0,0,0,50.82135228,-85.77092468,-48.71678764,-83.8750324,89.59940357,-277.2110461,0,0,,,,
39.90399997,155,236.7794658,29.72260904,0,-128.2774341,0,0,0,0,-60.21966956,229.5504721,136.7124092,452.3074252,-19.29073931,478.6938927,0,0,,,,
39.91199997,155,-153.3789457,18.71586754,0,-70.149579,0,0,0,0,-30.24270963,-127.7292092,-192.7719591,-380.7386719,14.53580334,-285.5015923,0,0,,,,
39.91999997,155,573.5127234,3.038869323,0,-17.1517016,0,0,0,0,3.244553933,118.5917174,140.9395156,398.6869216,38.02897016,161.970693,0,0,,,,
39.92799997,155,-198.1300556,18.61291842,0,-171.8475053,0,0,0,0,-97.72469136,57.90831585,-101.6815267,-68.20510394,-38.94346808,148.2098887,0,0,,,,
39.93599997,156,286.9889854,5.069991069,0,17.41891177,0,0,0,0,30.10606094,-97.91323096,-77.67717242,-116.3524817,68.96206981,-304.2684945,0,0,,,,
39.94399997,156,257.9427705,-2.447050824,0,-145.9641654,0,0,0,0,-77.85831769,223.596657,122.7764927,451.7500796,-34.55456148,465.4613121,0,0,,,,
39.95199997,156,-133.2301567,-3.775240395,0,-102.3045907,0,0,0,0,-51.2490313,-135.4233122,-184.6864489,-408.3178072,-5.858370173,-278.0783199,0,0,,,,
39.95999997,156,572.7266894,5.482339861,0,-29.34866717,0,0,0,0,-2.88582341,103.9879606,144.5540826,360.2243643,35.81848553,164.372707,0,0,,,,
39.96799997,156,-170.7224167,-0.339611341,0,-180.9986116,0,0,0,0,-104.2479447,53.21369148,-99.59753755,-70.97709771,-50.30610667,167.8866176,0,0,,,,
39.97599997,156,305.0547178,-12.64076557,0,1.14787541,0,0,0,0,19.72170463,-115.9620914,-78.72566948,-150.184898,46.05541271,-302.6065152,0,0,,,,
39.98399997,156,259.4785847,7.224142201,0,-145.8603381,0,0,0,0,-75.52547014,211.0401977,118.544741,437.066574,-28.04280981,472.903724,0,0,,,,
39.99199997,156,-153.4635137,-4.369753649,0,-86.48623235,0,0,0,0,-37.84339699,-133.6819639,-213.2488088,-402.8562102,3.588610993,-281.3386389,0,0,,,,
39.99999997,156,566.2393135,0.476132872,0,-10.63227687,0,0,0,0,10.09777423,107.3026755,114.1839997,364.116056,32.18011796,140.7914541,0,0,,,,
40.00799997,156,-178.4262266,17.63023867,0,-173.962647,0,0,0,0,-103.9786528,71.72613433,-104.5829527,-49.51464112,-48.44550594,178.6517693,0,0,,,,
40.01599997,156,263.1450918,6.366361233,0,8.155780459,0,0,0,0,24.0212331,-101.751497,-93.8821593,-150.3322921,51.33695067,-319.662244,0,0,,,,
40.02399997,156,226.2480247,13.20378278,0,-135.2326723,0,0,0,0,-60.06542985,223.6012363,91.46924219,454.2405299,-18.3002628,444.0847565,0,0,,,,
40.03199997,156,-182.6262065,-13.0068171,0,-96.95903026,0,0,0,0,-37.11109993,-126.4017738,-225.6360931,-392.2800807,14.15909202,-283.7634591,0,0,,,,
40.03999997,156,552.198861,-19.99547271,0,-33.11433748,0,0,0,0,-2.149752574,95.81629122,122.3464062,344.976944,30.41169348,135.4451706,0,0,,,,
40.04799997,156,-193.1316678,-1.812185172,0,-187.8142551,0,0,0,0,-109.542187,54.91812017,-113.7566958,-60.8871572,-54.32191726,172.0287183,0,0,,,,
40.05599997,156,255.1725176,-19.49235608,0,0.43224005,0,0,0,0,26.96419323,-125.1579883,-110.5711782,-174.1829378,55.75575064,-337.2070351,0,0,,,,
40.06399997,156,249.458077,-11.34866414,0,-146.5625218,0,0,0,0,-61.01104613,208.6818907,110.4252021,445.2772679,-24.63966537,452.8496199,0,0,,,,
40.07199997,156,-188.8117557,-20.79701123,0,-102.3236204,0,0,0,0,-42.95226155,-142.1563805,-224.5867259,-408.0024762,-0.705553377,-283.4859073,0,0,,,,
40.07999997,156,555.6581512,-21.90475774,0,-24.01616522,0,0,0,0,6.070578185,78.54600131,106.562627,330.4453943,31.32572572,108.5223342,0,0,,,,
40.08799997,156,-179.115001,-0.456322793,0,-187.4384235,0,0,0,0,-93.17293633,54.1861463,-106.7766023,-50.22847705,-52.40069891,180.3318525,0,0,,,,
40.09599997,156,250.2398515,-15.99048846,0,1.872610132,0,0,0,0,31.23786761,-133.1413337,-114.7978938,-189.6639565,50.65279445,-346.3197165,0,0,,,,
40.10399997,156,277.2933237,-10.43774547,0,-138.4749441,0,0,0,0,-65.04108136,211.6798248,110.7924014,450.0942515,-31.75748359,444.8468892,0,0,,,,
40.11199997,156,-183.8083158,-5.375498751,0,-100.4427597,0,0,0,0,-41.30684947,-129.447305,-213.5965002,-398.9064563,-9.003738558,-269.006947,0,0,,,,
40.11999997,156,550.2795586,2.80465691,0,-1.846155999,0,0,0,0,16.59829589,85.56754951,101.3171028,335.568659,22.94894815,108.1163698,0,0,,,,
40.12799997,156,-160.7780268,10.34469122,0,-160.1927302,0,0,0,0,-86.19814421,78.18153788,-109.2941264,-13.63378082,-63.41730546,208.9745934,0,0,,,,
40.13599997,156,245.6445696,-8.173495333,0,14.51365603,0,0,0,0,36.62283096,-119.9589434,-112.6428044,-183.4546347,38.08627775,-323.8669105,0,0,,,,
40.14399997,156,271.9521363,-4.953983053,0,-124.0541133,0,0,0,0,-55.85042952,211.540897,105.8211958,457.6214427,-44.0605587,455.2648894,0,0,,,,
40.15199997,156,-204.4994641,-11.1139017,0,-83.05336049,0,0,0,0,-29.62106037,-135.3627765,-233.6035672,-392.9055108,-5.485773177,-255.2492803,0,0,,,,
40.15999997,156,532.6963738,-9.632299413,0,6.41546858,0,0,0,0,28.30889423,70.12033373,92.12650181,322.3237598,35.04299361,103.9474145,0,0,,,,
40.16799997,156,-159.8463156,-8.447820239,0,-170.2393809,0,0,0,0,-82.88336821,72.13266846,-102.2103301,-16.7558978,-62.64757942,215.0031456,0,0,,,,
40.17599997,156,241.2189653,-22.70506523,0,15.1449786,0,0,0,0,43.83228485,-133.7579487,-119.2363755,-208.7940132,54.56432517,-332.0965896,0,0,,,,
40.18399997,156,283.3822836,-6.325024848,0,-115.3411034,0,0,0,0,-50.89935606,202.8164633,117.9437532,450.2546735,-31.95274591,461.2198492,0,0,,,,
40.19199997,157,-205.5581474,-7.672461672,0,-85.37741654,0,0,0,0,-34.36222602,-132.3035733,-217.7513604,-394.2025511,-23.7716059,-239.9757153,0,0,,,,
40.19999997,157,529.4790008,4.976561584,0,24.3439025,0,0,0,0,35.10449643,66.89468433,91.45004191,316.7091365,29.55483131,98.48538019,0,0,,,,
40.20799997,157,-173.5648489,28.65635348,0,-131.3883861,0,0,0,0,-70.67263738,75.77833965,-96.51996246,6.280854086,-57.49156912,232.8290399,0,0,,,,
40.21599997,157,224.3003304,5.4234928,0,49.45395296,0,0,0,0,55.40781811,-128.689704,-108.6218168,-191.6874489,44.2687481,-332.0913998,0,0,,,,
40.22399997,157,290.3598051,13.07511771,0,-87.52972034,0,0,0,0,-38.23270441,211.6613728,139.0525577,480.7334396,-42.81153896,461.2043885,0,0,,,,
40.23199997,157,-231.4251236,23.21151722,0,-57.91019947,0,0,0,0,-23.42892475,-125.6060243,-210.3565794,-374.716964,-23.27127439,-235.3813409,0,0,,,,
40.23999997,157,526.369391,14.54208771,0,41.10779655,0,0,0,0,44.61279547,71.36906708,106.694062,329.5329923,33.80531077,82.85714499,0,0,,,,
40.24799997,157,-169.8750096,26.44182007,0,-135.3283257,0,0,0,0,-74.07841132,82.32247271,-69.24281308,27.78804281,-55.90910956,236.3742587,0,0,,,,
40.25599997,157,182.3840824,19.06200703,0,50.97627534,0,0,0,0,58.15641848,-139.1123453,-117.6189315,-205.7411669,46.3402135,-354.6968554,0,0,,,,
40.26399997,157,265.3175101,22.82456269,0,-76.3713874,0,0,0,0,-17.65140224,212.5773871,125.7079755,487.3300763,-29.52393178,435.1474729,0,0,,,,
40.27199997,157,-280.9128126,26.68304813,0,-51.77173227,0,0,0,0,-7.625247797,-119.1411917,-225.2989924,-370.1654548,-10.1474341,-251.6510177,0,0,,,,
40.27999997,157,474.6147819,17.79926661,0,59.61338636,0,0,0,0,65.21460812,68.40949884,81.41464643,320.1096244,30.47273884,48.44801692,0,0,,,,
40.28799997,157,-187.1386649,14.36130969,0,-119.3798224,0,0,0,0,-54.4054708,94.82008201,-79.01119909,43.32759305,-64.53271058,232.4512493,0,0,,,,
40.29599997,157,161.2616952,1.292255468,0,55.33568643,0,0,0,0,61.38361757,-135.9288923,-120.5803338,-217.8763175,42.05551742,-354.8309721,0,0,,,,
40.30399997,157,267.9593124,12.2505769,0,-66.21130885,0,0,0,0,-15.66868588,210.6193688,129.6527541,484.7008078,-36.48298119,442.2739917,0,0,,,,
40.31199997,157,-276.8192646,13.1382064,0,-49.16843058,0,0,0,0,-13.11659275,-121.1423635,-218.1527612,-372.6671175,-21.91779967,-241.2863482,0,0,,,,
40.31999997,157,474.9343785,12.56137192,0,61.44979691,0,0,0,0,48.88848576,49.90223144,84.93288931,297.5714865,27.43248596,40.08672519,0,0,,,,
40.32799997,157,-182.6985997,19.13051902,0,-112.1035796,0,0,0,0,-66.37462561,81.9527775,-78.65590598,44.29194481,-66.49718201,240.8499365,0,0,,,,
40.33599997,157,163.2380282,1.509233901,0,63.17719532,0,0,0,0,57.60330781,-149.007866,-123.1962818,-232.7905875,41.4642081,-371.6835535,0,0,,,,
40.34399997,157,375.59322,23.22532698,0,-122.9058754,0,0,0,0,-64.67588491,408.6407655,288.3883188,899.9194647,-70.34407028,895.6442202,0,0,,,,
40.35199997,157,-474.5334607,31.5007991,0,-151.2428905,0,0,0,0,-88.122298,26.804203,-176.6467346,-192.795985,-81.4572157,141.6087561,0,0,,,,
40.35999997,157,344.5278976,12.47748493,0,153.7834286,0,0,0,0,113.2928826,-195.2409194,-101.2167102,-215.9215995,80.6402617,-539.6129477,0,0,,,,
40.36799997,157,183.501462,18.51508975,0,-72.25284952,0,0,0,0,-46.45025778,237.6827571,120.4994721,499.6632938,-56.67950827,517.4990459,0,0,,,,
40.37599997,157,-190.7579119,2.54026147,0,-42.24801117,0,0,0,0,-32.49877304,-88.20732436,-169.3292155,-313.7958909,-32.2933456,-156.4263001,0,0,,,,
40.38399997,157,421.7443161,-2.603260774,0,74.59009921,0,0,0,0,50.8181073,-28.10143792,37.34801117,70.51679226,29.99900755,-115.7854219,0,0,,,,
40.39199997,157,15.89272984,9.687200263,0,-103.1718405,0,0,0,0,-70.03619145,162.3975967,47.44795078,250.1448343,-73.83988909,406.8534772,0,0,,,,
40.39999997,157,-33.35419661,11.80090302,0,25.1435662,0,0,0,0,7.456505373,-148.4191983,-149.7110018,-332.5051937,-5.069161613,-309.7133003,0,0,,,,
40.40799997,157,375.716541,33.00224314,0,48.80701431,0,0,0,0,14.02151765,95.48766962,99.21595446,317.6306317,-2.904348506,187.4017345,0,0,,,,
40.41599997,157,-162.6386864,51.96330999,0,-31.74332443,0,0,0,0,-39.95064648,42.69073652,-90.90620008,-45.83299772,-34.54509698,127.2205972,0,0,,,,
40.42399997,157,199.4224916,42.55900357,0,117.3841409,0,0,0,0,77.01381012,-85.58308595,-80.36599679,-123.2786681,58.98850431,-285.698454,0,0,,,,
40.43199997,157,203.4935726,27.72491995,0,-23.52844974,0,0,0,0,-10.90682445,203.833096,106.4299934,425.8248016,-21.96916601,400.0337597,0,0,,,,
40.43999997,157,-196.5631738,24.74056275,0,2.138417698,0,0,0,0,-6.835779419,-104.5526421,-170.6811753,-325.4669,-0.011955001,-220.3868984,0,0,,,,
40.44799997,158,426.923662,29.46682635,0,87.62446757,0,0,0,0,46.03222127,68.52042241,92.34842619,276.8274091,42.75985506,67.99097797,0,0,,,,
40.45599997,158,-137.4029145,21.39937925,0,-70.25609583,0,0,0,0,-56.18722361,94.67414274,-49.88403087,47.84452036,-38.73653284,222.1923597,0,0,,,,
40.46399997,158,148.6883007,6.356753125,0,79.26843318,0,0,0,0,41.37682495,-133.6086547,-101.2199855,-237.3512161,42.18460199,-344.7322402,0,0,,,,
40.47199997,158,300.0472362,6.320174937,0,-30.08557294,0,0,0,0,-37.44702821,190.1499913,148.0623585,445.0777368,-30.78204877,410.9641792,0,0,,,,
40.47999997,158,-217.163425,-0.49454749,0,-28.70076866,0,0,0,0,-44.98369988,-115.1176267,-162.6586022,-366.0209084,-29.57657916,-195.5641626,0,0,,,,
40.48799997,158,490.7572099,25.01845028,0,101.8289097,0,0,0,0,31.6527334,29.40809075,116.8171754,235.1722338,25.13705921,28.36266776,0,0,,,,
40.49599997,158,-128.2211918,57.37108431,0,-38.61745603,0,0,0,0,-68.57085614,93.56280279,-27.64092335,79.0258582,-45.55887979,270.1451472,0,0,,,,
40.50399997,158,129.8803356,41.13458473,0,131.5403963,0,0,0,0,50.02857125,-142.9512406,-113.7397935,-245.6345716,60.83935934,-366.1003029,0,0,,,,
40.51199997,158,700.4029886,39.10727243,0,31.04834409,0,0,0,0,-11.93666657,392.3267476,372.8135039,997.8727989,-4.720687489,776.8224445,0,0,,,,
40.51999997,158,-101.8446196,31.29829058,0,-54.42868583,0,0,0,0,-74.55376622,119.8782288,0.805106604,111.3742395,-45.77874105,297.2398757,0,0,,,,
40.52799997,158,49.09341209,25.08985669,0,109.8886942,0,0,0,0,31.63907496,-182.0178926,-146.4121477,-373.7020675,45.42285784,-419.8731879,0,0,,,,
40.53599997,158,267.2995989,30.6522456,0,31.60662396,0,0,0,0,-12.87482452,128.2731709,99.70312195,313.3943891,-1.342406432,269.6261852,0,0,,,,
40.54399997,158,30.68487956,18.13390251,0,5.706010772,0,0,0,0,-23.59014723,35.06883791,-11.36553011,30.6664532,-14.60753152,81.97008232,0,0,,,,
40.55199997,158,16.23776281,17.14245905,0,43.84411885,0,0,0,0,0.819340645,-62.7512466,-71.65503161,-159.9816823,14.55665194,-146.6483265,0,0,,,,
40.55999997,158,282.3317637,29.32005974,0,50.18067505,0,0,0,0,4.754097801,92.79523077,100.2527866,254.132364,22.97874099,177.2259421,0,0,,,,
40.56799997,158,-67.00798215,27.58182515,0,7.456590152,0,0,0,0,-23.78739521,10.44723528,-52.68439279,-62.05893523,-4.246672799,40.61127166,0,0,,,,
40.57599997,158,161.1223979,2.985384516,0,76.5613969,0,0,0,0,23.36094602,-67.67014402,-36.5829696,-105.4770081,35.17524161,-163.3495819,0,0,,,,
40.58399997,158,248.4508842,23.78676782,0,3.501002959,0,0,0,0,-21.64516965,126.8263091,137.3085516,313.9670134,-14.47450287,296.3761625,0,0,,,,
40.59199997,158,-227.7456153,40.04376845,0,13.30037155,0,0,0,0,-13.64521634,-92.57001728,-138.4047455,-283.6107811,-14.83092155,-160.8766388,0,0,,,,
40.59999997,158,744.0122369,13.33378085,0,222.8593787,0,0,0,0,125.8079519,-36.46818863,144.4011247,261.6227341,103.4284661,-204.6156625,0,0,,,,
40.60799997,158,387.9628826,21.22260702,0,35.18978555,0,0,0,0,5.262590031,147.607719,177.9564915,407.2214224,-0.210057785,308.133516,0,0,,,,
40.61599997,158,-315.7309167,13.58645167,0,-52.07975193,0,0,0,0,-43.81173999,-55.60521986,-132.1376254,-289.4214311,-42.61722193,-35.88115703,0,0,,,,
40.62399997,158,342.2244477,-13.64244634,0,79.04656388,0,0,0,0,44.03526355,-21.97521883,82.36693412,82.81508813,44.15707393,-56.38294961,0,0,,,,
40.63199997,158,206.5922687,-7.045624729,0,12.63827952,0,0,0,0,-8.939386492,49.22528628,100.0320778,129.0367636,0.014815441,143.8311955,0,0,,,,
40.63999997,158,-83.19869363,8.147168673,0,-14.67171477,0,0,0,0,-33.65161949,-18.89880031,-33.3790888,-124.0070546,-35.78032807,33.32377161,0,0,,,,
40.64799997,158,269.5306579,-2.020753807,0,88.41106284,0,0,0,0,40.55086635,-61.2591138,19.92540501,-20.01032852,24.88429776,-131.334956,0,0,,,,
40.65599997,158,132.0186714,-3.287560945,0,-11.07986137,0,0,0,0,-17.9414665,78.21325577,76.72212639,177.9738476,-28.95162535,222.9340151,0,0,,,,
40.66399997,158,-81.86598456,-2.609349645,0,2.350427456,0,0,0,0,-10.60957666,-81.31210773,-64.37357711,-210.4383209,-16.45423556,-110.7039572,0,0,,,,
40.67199997,158,354.1117082,-3.632630393,0,78.23583638,0,0,0,0,38.76956608,-5.746595977,88.32822635,133.505567,26.77397017,-12.41208379,0,0,,,,
40.67999997,158,-86.67582383,6.786560688,0,-51.61510729,0,0,0,0,-50.53889407,56.67320628,5.411248054,41.71030795,-47.12677108,216.1950721,0,0,,,,
40.68799997,158,122.7753789,-15.79574742,0,81.25193532,0,0,0,0,35.25631285,-152.8108372,-62.67750588,-253.9011581,30.33865175,-307.3966758,0,0,,,,
40.69599997,158,269.8352207,0.439987219,0,10.91857879,0,0,0,0,-14.13042806,126.2629792,151.493171,343.2443983,-27.80818445,314.802196,0,0,,,,
40.70399997,159,-266.8920438,9.011911242,0,-3.202736143,0,0,0,0,-28.68549769,-99.65923062,-132.7210627,-304.214571,-41.55623381,-135.4806345,0,0,,,,
40.71199997,159,391.3419937,-15.9415843,0,114.4693746,0,0,0,0,51.72321634,-16.84025132,87.12403488,140.7333583,32.77259327,-74.53101317,0,0,,,,
40.71999997,159,-102.2923128,-4.067016573,0,-61.75720526,0,0,0,0,-64.22658148,100.7053122,30.24022705,100.6161056,-50.86505264,276.0147967,0,0,,,,
40.72799997,159,56.15306314,-23.27532535,0,82.41193508,0,0,0,0,26.34129317,-178.3084584,-96.38294916,-340.7673683,25.7044918,-387.6831103,0,0,,,,
40.73599997,159,341.9143007,-21.87526684,0,3.868648509,0,0,0,0,-32.26929454,146.823373,194.0819409,407.5478106,-29.23071748,341.3746203,0,0,,,,
40.74399997,159,-286.9761226,-13.98936588,0,-27.95767324,0,0,0,0,-58.83895104,-105.4329335,-121.2321497,-352.8091184,-35.46294153,-154.0482781,0,0,,,,
40.75199997,159,429.9753565,-20.74955541,0,120.5385338,0,0,0,0,42.23963906,-25.15781117,112.2662739,131.498868,30.3900203,-90.95635675,0,0,,,,
40.75999997,159,-100.9517674,-7.867366663,0,-66.67036185,0,0,0,0,-76.24722469,101.8794032,47.58827991,119.3181258,-72.6654116,306.6753824,0,0,,,,
40.76799997,159,37.52754626,-23.55649874,0,87.69571693,0,0,0,0,28.9853279,-196.1385499,-104.0402013,-371.9708088,25.19393376,-412.5537832,0,0,,,,
40.77599997,159,353.22196,-11.25550392,0,17.4480547,0,0,0,0,-8.575371244,150.4631409,204.7507091,427.6267056,-17.48602423,352.0790242,0,0,,,,
40.78399997,159,-330.0960192,-9.06452964,0,-27.90089589,0,0,0,0,-30.54736171,-113.6188854,-133.1116078,-361.4241841,-28.17804159,-158.4358475,0,0,,,,
40.79199997,159,412.1890633,-18.38604247,0,132.1702993,0,0,0,0,72.9702779,-38.58421117,104.0571803,126.1021473,48.17783276,-113.76427,0,0,,,,
40.79999997,159,-111.2419467,-2.792321128,0,-56.44387839,0,0,0,0,-55.64164802,107.6074992,59.09878609,136.2547919,-61.09346021,319.9795548,0,0,,,,
40.80799997,159,4.568114782,-26.51037149,0,89.2942685,0,0,0,0,37.38086911,-197.8070825,-104.0007959,-379.0376303,24.7342721,-427.6139231,0,0,,,,
40.81599997,159,343.207266,-22.60640045,0,17.92482033,0,0,0,0,-12.54000865,149.8818563,206.029712,434.9182484,-18.31824361,336.6653324,0,0,,,,
40.82399997,159,-355.8760877,-18.60266451,0,-36.91176755,0,0,0,0,-44.87360832,-112.0473986,-132.5832838,-359.4521151,-43.51286947,-154.9206227,0,0,,,,
40.83199997,159,382.014316,-30.26248323,0,123.7250107,0,0,0,0,59.38288788,-45.19528039,97.30595753,118.7541087,25.92063903,-133.1321423,0,0,,,,
40.83999997,159,-136.8234469,-11.25655735,0,-56.67730071,0,0,0,0,-65.1836628,104.4322421,46.98052321,141.3245281,-65.78341814,311.0591465,0,0,,,,
40.84799997,159,-37.98123416,-26.6667304,0,92.52840861,0,0,0,0,43.63984184,-208.4062232,-125.1634459,-393.5756078,32.68760622,-435.0225869,0,0,,,,
40.85599997,159,329.8593829,-26.04056337,0,23.8418569,0,0,0,0,6.941035026,145.40059,200.1010849,438.8994073,-8.284676404,331.540803,0,0,,,,
40.86399997,159,-374.277519,-18.52076253,0,-33.16586838,0,0,0,0,-26.76383178,-102.7624221,-132.8986849,-349.9957781,-29.4509184,-151.3211368,0,0,,,,
40.87199997,159,356.2677724,-32.55888672,0,122.9495807,0,0,0,0,79.53072281,-45.77829609,87.5921351,106.9978789,37.21707523,-147.0086513,0,0,,,,
40.87999997,159,-136.0722848,-21.14060849,0,-60.40908125,0,0,0,0,-52.3422877,109.6121242,51.32035836,149.3261426,-67.46882107,317.8552105,0,0,,,,
40.88799997,159,-38.01977016,-34.10324827,0,90.32945172,0,0,0,0,44.07141885,-200.983498,-111.2925682,-397.7621552,30.04158259,-431.2521083,0,0,,,,
40.89599997,159,343.7558116,-35.97776957,0,25.1163165,0,0,0,0,-0.569569539,144.9568177,212.0802296,436.2564671,-17.36064234,328.7731648,0,0,,,,
40.90399997,159,-388.3019095,-13.43517319,0,-19.77411692,0,0,0,0,-39.88612436,-102.4307325,-135.8087879,-350.6450235,-43.00476777,-136.9669322,0,0,,,,
40.91199997,159,344.5142096,-20.24834299,0,155.1804317,0,0,0,0,78.45071135,-40.55083394,84.64103033,110.8899603,56.15725897,-141.4496764,0,0,,,,
40.91999997,159,-109.5238017,-27.78973169,0,-44.03066481,0,0,0,0,-57.21429927,124.8685532,74.98696623,184.2146062,-52.0284689,348.7847456,0,0,,,,
40.92799997,159,-67.31327403,-20.52171577,0,104.5570502,0,0,0,0,36.07115809,-195.7558294,-110.0144011,-401.6491213,19.15776432,-424.6117298,0,0,,,,
40.93599997,159,306.1535504,-12.25435457,0,60.26514152,0,0,0,0,19.37879508,155.2137703,189.3111102,444.6175399,-11.31475659,307.672644,0,0,,,,
40.94399997,159,-393.6008465,-24.58581735,0,-15.36402549,0,0,0,0,-25.25535406,-85.63816214,-133.7506467,-323.91641,-40.09514546,-126.5437698,0,0,,,,
40.95199997,159,327.2731372,-25.68024542,0,151.5393317,0,0,0,0,79.32344263,-44.11113337,85.78838281,92.24362851,39.87278357,-153.2286138,0,0,,,,
40.95999997,160,-134.0704927,-18.56049532,0,-28.68839046,0,0,0,0,-43.03800891,124.4504606,56.19581796,182.2971568,-59.47882669,342.048829,0,0,,,,
40.96799997,160,-83.75203501,-30.49973172,0,109.5735053,0,0,0,0,49.28909183,-199.0929316,-124.5968061,-406.2910221,17.48818658,-411.4531981,0,0,,,,
40.97599997,160,305.9404576,-13.50949587,0,69.70933755,0,0,0,0,23.70844438,150.2819991,190.3279509,438.3667352,-9.059104912,323.8333151,0,0,,,,
40.98399997,160,-416.4355541,-5.8898863,0,9.630932528,0,0,0,0,-15.96983595,-80.13270477,-147.8570247,-316.8444596,-20.16007673,-105.9355688,0,0,,,,
40.99199997,160,313.461045,-7.393229639,0,184.7365411,0,0,0,0,98.7301683,-35.65372641,67.95151948,94.34609032,58.67160198,-149.5129369,0,0,,,,
40.99999997,160,-145.5313902,25.60561822,0,12.52173624,0,0,0,0,-17.10010125,152.3974332,59.44735353,208.010872,-42.63345214,359.7455675,0,0,,,,
41.00799997,160,-140.8370039,32.21352904,0,163.1169589,0,0,0,0,93.764076,-170.2381664,-136.9791425,-379.3591158,54.12265375,-402.726476,0,0,,,,
41.01599997,160,271.098214,23.14222283,0,111.9868355,0,0,0,0,71.12603936,177.3488888,183.7778052,477.0452674,14.30255812,325.0802887,0,0,,,,
41.02399997,160,-434.7364126,0.984724374,0,17.47763048,0,0,0,0,1.011504604,-53.67114453,-133.587937,-291.6533797,-24.21078619,-106.1768856,0,0,,,,
41.03199997,160,302.3782761,-17.56208802,0,173.0769314,0,0,0,0,97.54291276,-32.64550061,94.1077217,86.15903273,63.09268583,-166.2280999,0,0,,,,
41.03999997,160,-154.4737091,14.91568268,0,-10.01314672,0,0,0,0,-27.12574963,151.9889503,91.44176244,209.5762982,-39.98488931,359.6451574,0,0,,,,
41.04799997,160,-168.5189488,19.04606256,0,141.1658064,0,0,0,0,70.98797583,-173.2932868,-121.3003,-399.6192612,43.37912311,-432.9726106,0,0,,,,
41.05599997,160,260.0569438,10.93338167,0,103.5660578,0,0,0,0,49.59446443,170.2142007,205.8352836,462.2154147,11.78227495,292.3996623,0,0,,,,
41.06399997,160,-487.1022774,13.8122015,0,23.34295858,0,0,0,0,-8.701220265,-57.18752558,-128.1212276,-292.5895495,-18.35030765,-108.282516,0,0,,,,
41.07199997,160,469.7772618,-7.477716551,0,307.2736548,0,0,0,0,168.0928411,-162.8962027,59.57593469,-38.20643412,120.2316012,-528.9288444,0,0,,,,
41.07999997,160,229.9395851,-8.86384087,0,101.0213262,0,0,0,0,22.97945845,150.519092,196.3990542,419.9394863,-4.415779699,283.8577118,0,0,,,,
41.08799997,160,-513.1924701,-4.605694735,0,-8.620239827,0,0,0,0,-48.2659434,-37.23301652,-111.0749208,-277.8183189,-22.93889018,-19.33421931,0,0,,,,
41.09599997,160,80.54108032,-9.1987862,0,144.5110537,0,0,0,0,49.43526596,-37.20091184,50.21589132,24.08174293,53.96511426,-140.6189935,0,0,,,,
41.10399997,160,-61.20740622,-6.191036135,0,78.94749495,0,0,0,0,-3.228723156,34.7676309,62.20204055,104.8444435,-7.042250759,69.58159577,0,0,,,,
41.11199997,160,-262.9593892,-1.482755416,0,38.61132167,0,0,0,0,-24.34315849,6.300233584,-6.281651128,-48.75541439,-16.47346971,47.06221799,0,0,,,,
41.11999997,160,-18.27615053,-2.606180098,0,137.3441677,0,0,0,0,45.31713536,-69.03380826,10.01958293,-82.23007152,28.4676168,-188.0413121,0,0,,,,
41.12799997,160,-46.4675891,-0.753168956,0,67.03290486,0,0,0,0,6.27446502,85.43195086,94.11721448,193.205786,-14.31007123,172.8737486,0,0,,,,
41.13599997,160,-313.2055655,0.703733526,0,54.6487462,0,0,0,0,2.231752922,-35.4767868,-45.89247434,-156.3012961,-10.00293931,-71.43814262,0,0,,,,
41.14399997,160,89.97334097,-11.79931531,0,144.9106632,0,0,0,0,57.71114598,-20.00161463,79.17499848,51.79867504,40.21992402,-107.2935595,0,0,,,,
41.15199997,160,-213.3699471,-9.916376016,0,0.340062813,0,0,0,0,-41.66698639,110.9408785,82.22199829,154.9902272,-24.77701255,286.2884935,0,0,,,,
41.15999997,160,-206.1524936,-13.82281985,0,121.1752459,0,0,0,0,26.91261223,-155.9950621,-94.06181225,-328.7566407,30.12381646,-339.9055346,0,0,,,,
41.16799997,160,135.3015554,-17.22072062,0,89.99697419,0,0,0,0,9.712587945,121.0944293,161.8030056,334.7377368,1.766912082,232.7178605,0,0,,,,
41.17599997,160,-440.744153,-7.391463345,0,13.48338129,0,0,0,0,-38.23654911,-42.89577908,-79.09210315,-243.3767676,-27.20487938,-41.0298126,0,0,,,,
41.18399997,160,136.9104479,-14.92000334,0,169.7869694,0,0,0,0,60.26337237,-60.59237605,65.43515491,10.21602352,42.63583274,-181.8218136,0,0,,,,
41.19199997,160,-188.660861,-6.5526013,0,-3.943985829,0,0,0,0,-51.98720448,140.166017,106.160513,223.8479446,-51.69511425,357.9960441,0,0,,,,
41.19999997,160,-254.203148,-3.064461413,0,117.7698488,0,0,0,0,23.38012347,-182.7882884,-114.0666814,-414.6084005,20.03135537,-390.4205716,0,0,,,,
41.20799997,160,202.6568686,3.105512514,0,99.64802243,0,0,0,0,11.08646892,132.368936,195.2800743,393.2304297,3.495313178,257.0861715,0,0,,,,
41.21599997,161,-513.3615278,18.04458356,0,9.027680515,0,0,0,0,-48.17684734,-49.31335505,-105.136021,-263.3563118,-26.67416333,-58.91529491,0,0,,,,
41.22399997,161,109.1575556,10.65283682,0,193.6479666,0,0,0,0,70.84550498,-69.6851428,41.05745997,15.34144026,71.99363796,-238.589569,0,0,,,,
41.23199997,161,-222.6772083,15.12092932,0,10.32359503,0,0,0,0,-49.44310052,149.0964795,94.21649668,262.3326669,-38.84317266,371.6399738,0,0,,,,
41.23999997,161,-288.6751812,4.042634206,0,127.3458467,0,0,0,0,27.84238406,-195.7848501,-126.4637674,-424.6185675,19.05243138,-400.582272,0,0,,,,
41.24799997,161,221.8419794,3.29195687,0,111.8582425,0,0,0,0,27.12259994,137.5307361,210.6292267,423.300963,11.48166892,266.3039277,0,0,,,,
41.25599997,161,-516.9144876,15.45677762,0,1.096641808,0,0,0,0,-36.66938666,-44.65069335,-94.70384324,-260.2382791,-19.42013619,-34.12242381,0,0,,,,
41.26399997,161,135.9424587,7.80735837,0,174.7791682,0,0,0,0,80.99693631,-75.80973221,62.83725126,15.67198505,69.01206568,-219.5817165,0,0,,,,
41.27199997,161,-199.0200473,19.61176861,0,-13.09568293,0,0,0,0,-41.98498772,162.3888334,110.1064726,288.8185533,-42.1895984,389.2253111,0,0,,,,
41.27999997,161,-295.1617225,14.93004784,0,97.95302372,0,0,0,0,25.38572138,-183.5182694,-128.4691013,-417.3529124,29.84655945,-409.3670579,0,0,,,,
41.28799997,161,223.5555306,7.756966955,0,75.21401532,0,0,0,0,16.03452427,133.9784425,214.7715947,439.8281134,12.76856697,258.3758669,0,0,,,,
41.29599997,161,-523.9433692,3.896856653,0,-37.13405241,0,0,0,0,-45.44880259,-53.76172036,-99.73261519,-244.7369955,-37.46119767,-45.22791306,0,0,,,,
41.30399997,161,136.8930324,-10.28345521,0,143.1572611,0,0,0,0,74.33562172,-88.00798945,57.78405904,14.39155429,49.81125224,-242.3558557,0,0,,,,
41.31199997,161,-197.3550986,4.820972731,0,-50.22162121,0,0,0,0,-54.49194974,148.9635541,112.3540314,296.8227019,-59.33402503,386.1154295,0,0,,,,
41.31999997,161,-303.536204,-5.340757034,0,62.84915769,0,0,0,0,28.46827108,-210.6017474,-144.7567659,-425.9627117,15.20604177,-431.7178228,0,0,,,,
41.32799997,161,256.5963775,-17.99789297,0,47.59295098,0,0,0,0,26.55258338,104.7202267,208.0417127,430.2475472,-4.974190956,243.0308685,0,0,,,,
41.33599997,161,-497.4928691,-4.49178957,0,-65.73165984,0,0,0,0,-55.13332771,-75.6523391,-98.92256003,-257.1674466,-64.30668154,-35.69507371,0,0,,,,
41.34399997,161,149.723096,-5.625474754,0,128.5215823,0,0,0,0,69.93392941,-115.35486,48.52644173,-8.755437238,28.93259541,-257.7023763,0,0,,,,
41.35199997,161,-143.6407685,-5.601754748,0,-63.29090223,0,0,0,0,-55.29912202,135.9574795,125.0693713,300.47068,-75.28138636,399.2105778,0,0,,,,
41.35999997,161,-259.0327838,-16.67721576,0,50.05283694,0,0,0,0,15.424996,-210.0992409,-126.8135354,-441.596218,-4.454466763,-416.6679854,0,0,,,,
41.36799997,161,277.3822512,1.788207937,0,57.24279155,0,0,0,0,22.74577871,112.8141219,217.7570124,414.961894,-9.859148957,236.0712399,0,0,,,,
41.37599997,161,-478.4644442,18.0367328,0,-52.89057275,0,0,0,0,-48.88423554,-58.4249073,-91.81526246,-248.0392388,-53.68323576,-26.01246302,0,0,,,,
41.38399997,161,150.3797023,25.12034731,0,148.08767,0,0,0,0,91.94726433,-100.0153604,48.10749652,-13.50936803,47.23781276,-272.1542322,0,0,,,,
41.39199997,161,-191.2460028,70.37955878,0,-11.40065662,0,0,0,0,0.367943428,163.1085754,101.7897418,323.9181993,-37.61441307,375.2771405,0,0,,,,
41.39999997,161,-308.557431,42.24878883,0,111.7946748,0,0,0,0,80.84113302,-181.3884041,-158.8672664,-396.7129717,38.27782646,-434.0242714,0,0,,,,
41.40799997,161,294.1316776,20.74035346,0,96.64795781,0,0,0,0,76.74243511,140.4876343,240.2737431,464.1592093,14.48851744,242.2292149,0,0,,,,
41.41599997,161,-493.7225213,62.43773685,0,-15.1140433,0,0,0,0,4.48107419,-23.3409357,-68.54084232,-211.9283982,-21.00639595,-6.35012324,0,0,,,,
41.42399997,161,117.9647555,60.60642078,0,193.9249445,0,0,0,0,136.1697333,-64.60729236,41.90061352,14.25062397,90.55397539,-278.4667371,0,0,,,,
41.43199997,161,-153.3499931,51.85594953,0,-4.614917866,0,0,0,0,14.45127226,205.3108135,147.6431774,369.8823711,-16.67015585,404.3692277,0,0,,,,
41.43999997,161,-317.7335615,39.75502689,0,107.5153939,0,0,0,0,88.18915562,-157.2700175,-113.5609671,-403.1995744,65.80595347,-405.8451457,0,0,,,,
41.44799997,161,241.7739773,38.88298728,0,122.5867577,0,0,0,0,95.9343962,155.4765902,232.1793039,456.8476867,50.00548573,234.9939135,0,0,,,,
41.45599997,161,-507.1952274,37.27206393,0,-9.3376932,0,0,0,0,0.149183328,-3.156319881,-68.90143466,-194.9099832,-19.45488086,3.533763243,0,0,,,,
41.46399997,161,135.2308013,13.12102501,0,180.7011884,0,0,0,0,109.7323149,-67.82897503,72.25303205,-9.871441084,76.74210677,-263.978664,0,0,,,,
41.47199997,162,-135.459501,37.20693824,0,-9.787727183,0,0,0,0,-11.35051427,193.3995716,181.9892035,349.1228547,-33.19252123,437.7724946,0,0,,,,
41.47999997,162,-461.5457668,44.41428677,0,162.9021254,0,0,0,0,92.78017991,-389.5826137,-269.0900885,-898.8696556,79.21759001,-874.4621428,0,0,,,,
41.48799997,162,384.0811523,28.12466438,0,232.5071248,0,0,0,0,138.1485152,-21.9308289,183.3777158,207.5501477,94.50317883,-183.8947567,0,0,,,,
41.49599997,162,-366.7297682,38.93687926,0,-87.21727991,0,0,0,0,-58.21585132,249.1176725,149.689901,373.3216463,-80.28597071,598.6607679,0,0,,,,
41.50399997,162,-281.739183,21.81533333,0,139.5185129,0,0,0,0,73.04518676,-231.0613009,-130.5277798,-472.0196026,51.39304784,-546.5835388,0,0,,,,
41.51199997,162,161.2749418,19.81964972,0,115.14874,0,0,0,0,52.4841091,100.6228076,205.8484915,367.9272494,30.60699769,168.1751166,0,0,,,,
41.51999997,162,-428.2089124,35.14305579,0,-30.99381257,0,0,0,0,-32.75782956,73.79423932,37.28678814,23.11204689,-27.52245923,220.7224308,0,0,,,,
41.52799997,162,-86.48971808,12.64357085,0,156.1142742,0,0,0,0,83.07705342,-159.7394323,-27.90652539,-251.8414459,68.4077895,-393.8251589,0,0,,,,
41.53599997,162,9.059542097,5.41579194,0,33.54017266,0,0,0,0,-0.341325987,153.7139765,200.5037054,391.1226795,-16.07461449,358.3867777,0,0,,,,
41.54399997,162,-412.0252272,4.542227081,0,14.72589593,0,0,0,0,-19.10917148,-91.75574187,-60.76658362,-283.1162683,-12.1696447,-135.6117147,0,0,,,,
41.55199997,162,110.6284412,-6.192715597,0,135.076212,0,0,0,0,64.10236805,-45.00907647,107.948864,62.078639,43.69066192,-127.148847,0,0,,,,
41.55999997,162,-216.8557332,3.510822993,0,-36.60729843,0,0,0,0,-35.75822415,124.2635664,136.9220512,227.9096655,-54.99166962,361.4770604,0,0,,,,
41.56799997,162,-243.611745,-5.634455137,0,79.42577581,0,0,0,0,25.80642489,-191.9723082,-69.01769052,-393.0607151,14.48141966,-377.9306004,0,0,,,,
41.57599997,162,180.0676634,-9.507696343,0,62.01909895,0,0,0,0,19.7802604,101.0301616,231.7838504,364.473411,7.687729297,238.85175,0,0,,,,
41.58399997,162,-433.4639667,-17.73705454,0,-39.18265438,0,0,0,0,-39.8418422,-58.39471119,-38.72453921,-243.355054,-44.15804893,-20.36255526,0,0,,,,
41.59199997,162,116.2905435,-35.16177907,0,136.206442,0,0,0,0,58.97170662,-106.2536663,76.65241803,-67.55556551,26.74132847,-241.2400768,0,0,,,,
41.59999997,162,-142.1291696,-9.45213843,0,-39.79934719,0,0,0,0,-48.20284691,142.7109065,171.6520876,288.8458027,-57.14928301,413.1357751,0,0,,,,
41.60799997,162,-340.2725703,-9.556601714,0,57.23676505,0,0,0,0,14.31579106,-208.0807025,-117.5514346,-462.0088075,0.156822016,-395.1689398,0,0,,,,
41.61599997,162,200.0325815,-12.39807338,0,87.42300509,0,0,0,0,35.63533101,80.57217746,196.3955794,368.3983133,-0.102245246,179.6618448,0,0,,,,
41.62399997,162,-489.7234892,-11.17934529,0,-47.78772758,0,0,0,0,-48.75437195,-46.27907212,-70.04850293,-214.8996958,-51.3000365,2.904007307,0,0,,,,
41.63199997,162,84.90516336,-30.51036808,0,140.1503926,0,0,0,0,64.18152862,-130.7192583,43.73133366,-98.12819908,38.22828951,-309.2743605,0,0,,,,
41.63999997,162,-137.7138838,-4.666090383,0,-39.57708806,0,0,0,0,-44.93807837,143.1497308,164.6925266,327.2577897,-52.89225572,408.3025284,0,0,,,,
41.64799997,162,-384.0973176,-1.1066071,0,55.60742495,0,0,0,0,6.069115497,-217.7989097,-142.0716011,-477.0172775,4.879374162,-424.3885644,0,0,,,,
41.65599997,162,201.7511801,-12.07567811,0,100.2576896,0,0,0,0,29.47255883,75.80210478,191.0305024,378.6797338,4.090745325,161.2213791,0,0,,,,
41.66399997,162,-528.9836156,2.226823364,0,-49.87614818,0,0,0,0,-62.83756686,-42.29123955,-84.54972354,-198.10692,-51.53460024,28.29144233,0,0,,,,
41.67199997,162,21.49763203,-8.786357171,0,145.676039,0,0,0,0,63.49127223,-140.974822,3.816475974,-108.6779016,43.40110229,-343.4022556,0,0,,,,
41.67999997,162,-169.4297579,-14.18046848,0,-43.90250104,0,0,0,0,-45.33347775,151.2344509,144.4375962,361.2205735,-64.80787997,416.7265816,0,0,,,,
41.68799997,162,-408.7466175,-25.70822022,0,39.45038003,0,0,0,0,-8.940423227,-221.2140596,-153.3402206,-476.8627456,-5.251039635,-411.6585409,0,0,,,,
41.69599997,162,203.5327604,-30.23553985,0,90.75240053,0,0,0,0,18.914569,75.01334937,192.8887024,368.1220128,7.726813581,140.1864649,0,0,,,,
41.70399997,162,-539.0291995,-15.09625967,0,-64.43299381,0,0,0,0,-71.43975473,-25.99009291,-78.39882845,-199.4443655,-49.4224931,36.07467341,0,0,,,,
41.71199997,162,0.773450162,-29.96557885,0,146.1377815,0,0,0,0,53.87745625,-142.6841506,-12.40008827,-133.0533854,50.69229666,-348.660408,0,0,,,,
41.71999997,162,-152.5323689,-40.63836613,0,-40.82470259,0,0,0,0,-55.69411279,158.394697,141.7560053,359.1403514,-62.08661976,423.207551,0,0,,,,
41.72799997,163,-399.1308581,-35.85881929,0,35.50481587,0,0,0,0,-16.01462157,-210.6635284,-140.565149,-494.0595678,-10.80731824,-381.7446302,0,0,,,,
41.73599997,163,187.4189732,-14.86417826,0,109.9817722,0,0,0,0,22.91522249,73.9328193,186.5296373,354.3332604,4.628586465,169.1883912,0,0,,,,
41.74399997,163,-560.3581982,0.335849672,0,-37.02344108,0,0,0,0,-61.47982359,-20.91146888,-101.3626253,-180.0728792,-54.76488478,65.04989448,0,0,,,,
41.75199997,163,-23.31577233,-12.21601376,0,167.3701509,0,0,0,0,63.96528002,-144.8765092,-28.63192602,-132.0747511,39.44904455,-347.7794902,0,0,,,,
41.75999997,163,-206.2330172,4.121504138,0,-10.27214734,0,0,0,0,-39.779382,161.8797026,123.3900381,373.868093,-55.94404565,417.2507845,0,0,,,,
41.76799997,163,-470.010791,4.764485294,0,75.49814689,0,0,0,0,23.17011023,-192.785456,-182.3218336,-462.617563,31.93061741,-400.4475831,0,0,,,,
41.77599997,163,168.3379216,-9.684883966,0,129.8821591,0,0,0,0,59.18626636,91.98803463,172.6214446,387.7966817,38.06357306,153.801208,0,0,,,,
41.78399997,163,-565.0730239,-10.03045827,0,-53.25704099,0,0,0,0,-57.73669416,-10.50343176,-86.05353391,-162.087827,-48.59498974,70.88740753,0,0,,,,
41.79199997,163,-15.82050033,-33.04541652,0,146.1502138,0,0,0,0,64.35364862,-149.3625029,-19.5478428,-141.4515712,55.16668683,-354.7333899,0,0,,,,
41.79999997,163,-175.0201583,-18.57478783,0,-25.31813028,0,0,0,0,-44.29257771,158.4154062,142.5932663,381.2308446,-50.02881702,434.8974052,0,0,,,,
41.80799997,163,-496.5253439,-6.963208634,0,59.02169522,0,0,0,0,-2.11021376,-213.187505,-189.606005,-484.6503909,10.6971525,-399.4589771,0,0,,,,
41.81599997,163,140.3792211,-19.35832924,0,125.5454555,0,0,0,0,36.06312445,60.57970408,146.7414316,359.5071422,9.772204094,131.4160595,0,0,,,,
41.82399997,163,-566.5682939,-17.27717168,0,-48.24205944,0,0,0,0,-74.13018403,-14.24497299,-94.13112419,-157.5766915,-75.410843,81.84366343,0,0,,,,
41.83199997,163,-41.7176978,-27.11969856,0,159.7202163,0,0,0,0,60.64458647,-146.0433906,-31.41869912,-158.2634035,51.67776919,-367.7420747,0,0,,,,
41.83999997,163,-184.5861356,-6.155505788,0,-10.64167526,0,0,0,0,-28.0526219,172.8441849,139.2210703,388.3294467,-40.18640474,431.3344095,0,0,,,,
41.84799997,163,-486.775144,-4.786378894,0,58.95035294,0,0,0,0,6.440541462,-186.163412,-179.4513707,-468.3034216,2.145474824,-379.3541148,0,0,,,,
41.85599997,163,151.329509,-2.903311599,0,129.9618035,0,0,0,0,38.85577233,87.76043902,166.1544666,366.5522622,11.10998728,140.5795328,0,0,,,,
41.86399997,163,-596.0347525,29.48940004,0,-34.93422001,0,0,0,0,-54.83358289,16.47582591,-85.22982427,-131.5876672,-56.07579466,99.71354014,0,0,,,,
41.87199997,163,-105.1857083,3.89644589,0,167.4189635,0,0,0,0,74.31244147,-131.6495058,-52.41943927,-142.3531984,47.43993557,-375.5159107,0,0,,,,
41.87999997,163,-221.7636548,-9.727989309,0,-15.46794791,0,0,0,0,-42.20337326,182.1007179,124.0628592,413.6384418,-66.72107133,430.5270172,0,0,,,,
41.88799997,163,-545.5982456,-12.59518057,0,51.4066524,0,0,0,0,-7.637871759,-186.2222544,-197.6833471,-466.1435742,-4.764113805,-380.9137858,0,0,,,,
41.89599997,163,99.94300504,-23.15443703,0,124.4964126,0,0,0,0,36.77793263,73.80557462,137.4384304,352.5568664,21.73178543,119.9958232,0,0,,,,
41.90399997,163,-600.1721879,-3.533033797,0,-56.9120124,0,0,0,0,-72.25713871,10.29158444,-91.57624662,-134.9707159,-59.13681728,119.1438747,0,0,,,,
41.91199997,163,-129.2431757,10.15752791,0,165.4850503,0,0,0,0,67.56092751,-141.2594593,-58.25367508,-173.3199908,56.46326712,-369.7260028,0,0,,,,
41.91999997,163,-267.00046,30.99253658,0,21.65823914,0,0,0,0,-14.74730514,184.6152184,99.15869056,419.9739457,-26.86994698,427.0431586,0,0,,,,
41.92799997,163,-598.6027987,30.91311981,0,84.00624691,0,0,0,0,23.99029251,-168.0725047,-221.3126601,-434.8676762,27.88827199,-367.7681074,0,0,,,,
41.93599997,163,44.18805974,20.35626308,0,156.8844892,0,0,0,0,73.10451838,95.45260892,116.3162902,378.1818123,31.10798766,116.9470032,0,0,,,,
41.94399997,163,-911.5658807,13.94556335,0,-59.77009579,0,0,0,0,-51.182953,-63.93269177,-249.7229617,-393.0938241,-58.94201203,-47.48729908,0,0,,,,
41.95199997,163,-538.2332512,-16.56967741,0,208.8530352,0,0,0,0,119.8874627,-490.3537617,-395.506586,-998.735803,121.2149222,-1126.54587,0,0,,,,
41.95999997,163,-164.8146896,-12.77685813,0,163.391855,0,0,0,0,92.5029878,-113.9232171,-52.11477205,-86.85698188,73.07601917,-306.7390699,0,0,,,,
41.96799997,163,-752.5693503,-4.421433063,0,81.14594134,0,0,0,0,37.6983724,-305.4864913,-339.3944716,-755.3646947,38.69457075,-648.676446,0,0,,,,
41.97599997,163,-76.24548226,-11.80091962,0,173.3862816,0,0,0,0,94.57376881,-77.53871022,2.728372415,29.4296311,69.63424828,-232.8124282,0,0,,,,
41.98399997,164,-329.8056803,6.244021474,0,-20.8832151,0,0,0,0,-28.04729324,219.1957196,112.797641,466.2112724,-58.09874348,537.6253564,0,0,,,,
41.99199997,164,-611.2047634,-0.688701481,0,63.75895495,0,0,0,0,24.52060952,-185.8378886,-224.3931397,-448.9559883,4.662399827,-371.4983171,0,0,,,,
