Time:125Hz,Epoch,FP1,FP2,C3,C4,P7,P8,O1,O2,F7,F8,F3,F4,T7,T8,P3,P4,,,,
153.6719999,600,-9826.010367,0,0,0,-0.378700815,160.6484294,-0.044005995,0,15.57209348,47.94699549,-2.179206526,0,-351.1615231,-118.052624,0,0,,,,
153.6799999,600,-7429.568123,0,0,0,-0.378235879,785.464413,-0.043949138,0,82.43860276,355.9391423,-2.176375237,0,32.18877494,223.2756359,0,0,,,,
153.6879999,600,-9243.460217,0,0,0,-0.377763181,217.6623722,-0.04389139,0,-53.44174934,312.7536175,-2.17349989,0,-171.1366437,13.99393121,0,0,,,,
153.6959999,600,-8688.255959,0,0,0,-0.377282764,515.3534767,-0.043832756,0,96.17387454,87.97563673,-2.170580725,0,-214.483416,-5.854996508,0,0,,,,
153.7039999,600,-7773.802265,0,0,0,-0.376794669,594.9842435,-0.043773241,0,-34.28313424,501.325369,-2.167617985,0,48.86407178,208.8866151,0,0,,,,
153.7119999,600,-9848.73331,0,0,0,-0.376298938,146.1295535,-0.04371285,0,6.185892012,48.98606692,-2.164611911,0,-363.2233846,-130.500003,0,0,,,,
153.7199999,600,-7444.690821,0,0,0,-0.375795613,774.2209372,-0.043651587,0,62.89806001,342.8383343,-2.161562748,0,11.86699935,206.9220073,0,0,,,,
153.7279999,600,-9306.21925,0,0,0,-0.375284736,203.6207558,-0.043589458,0,-69.27013621,288.5256201,-2.158470736,0,-210.9936696,-1.338394846,0,0,,,,
153.7359999,600,-8798.165683,0,0,0,-0.374766349,492.6119989,-0.043526468,0,90.5318785,56.90418408,-2.155336119,0,-263.7873581,-7.472713159,0,0,,,,
153.7439999,600,-7938.236808,0,0,0,-0.374240494,568.0909388,-0.04346262,0,-31.19728446,476.575554,-2.15215914,0,8.156477953,214.8816868,0,0,,,,
153.7519999,600,-10022.90617,0,0,0,-0.373707213,134.0933171,-0.043397921,0,10.75902618,44.03230025,-2.148940041,0,-388.332617,-121.4293528,0,0,,,,
153.7599999,600,-7609.070637,0,0,0,-0.373166547,760.8893905,-0.043332375,0,59.93766446,342.1238129,-2.145679067,0,-4.152154676,215.6663213,0,0,,,,
153.7679999,600,-9460.194878,0,0,0,-0.37261854,188.7646252,-0.043265987,0,-73.27903952,285.4279995,-2.14237646,0,-219.4043238,5.869792915,0,0,,,,
153.7759999,600,-8871.140047,0,0,0,-0.372063232,499.1179459,-0.043198762,0,75.19099008,59.20653827,-2.139032463,0,-266.2591465,-7.643402303,0,0,,,,
153.7839999,600,-7998.052036,0,0,0,-0.371500666,567.2504994,-0.043130705,0,-55.85777561,468.0735514,-2.13564732,0,-10.59635495,198.498206,0,0,,,,
153.7919999,600,-10126.29847,0,0,0,-0.370930884,120.1342621,-0.04306182,0,5.638048015,29.96139348,-2.132221275,0,-416.0436825,-135.3694635,0,0,,,,
153.7999999,600,-7723.652171,0,0,0,-0.370353929,747.9106927,-0.042992114,0,57.01217637,333.4181782,-2.128754571,0,-31.7601618,204.8814208,0,0,,,,
153.8079999,600,-9632.920888,0,0,0,-0.369769841,158.3532407,-0.04292159,0,-75.10462906,276.8076869,-2.125247452,0,-256.1791754,-9.877356741,0,0,,,,
153.8159999,600,-9101.71833,0,0,0,-0.369178664,463.3740434,-0.042850253,0,93.3498064,62.18741621,-2.121700163,0,-281.4500748,-9.505490755,0,0,,,,
153.8239999,600,-8231.375407,0,0,0,-0.36858044,539.9992811,-0.042778109,0,-41.65570288,479.6694409,-2.118112946,0,-9.835334082,206.62863,0,0,,,,
153.8319999,600,-10335.51634,0,0,0,-0.367975211,89.81143096,-0.042705163,0,11.38970829,41.92046571,-2.114486046,0,-435.9905144,-134.506983,0,0,,,,
153.8399999,600,-7903.797008,0,0,0,-0.367363018,724.9317598,-0.042631418,0,62.20979534,351.1238006,-2.110819707,0,-57.34791759,195.8703349,0,0,,,,
153.8479999,600,-9778.958529,0,0,0,-0.366743905,145.1212342,-0.042556881,0,-77.47205946,295.6776511,-2.107114173,0,-280.9295056,-26.89158467,0,0,,,,
153.8559999,601,-9236.055093,0,0,0,-0.366117913,435.1243291,-0.042481556,0,95.37930825,77.89450359,-2.103369688,0,-313.8745928,-34.00451481,0,0,,,,
153.8639999,601,-8365.010909,0,0,0,-0.365485085,509.4613469,-0.042405449,0,-36.42163494,491.3650409,-2.099586497,0,-36.57636047,178.5831558,0,0,,,,
153.8719999,601,-10449.78503,0,0,0,-0.364845463,71.17182757,-0.042328563,0,10.87822989,48.27833466,-2.095764843,0,-455.2049337,-158.1236927,0,0,,,,
153.8799999,601,-8041.986454,0,0,0,-0.364199089,698.6819891,-0.042250904,0,68.90757661,348.761346,-2.091904971,0,-72.90669269,180.7603292,0,0,,,,
153.8879999,601,-9909.369783,0,0,0,-0.363546005,128.1243685,-0.042172477,0,-72.65160643,281.506554,-2.088007126,0,-296.0637756,-26.33591545,0,0,,,,
153.8959999,601,-9293.16108,0,0,0,-0.362886255,442.1862811,-0.042093287,0,86.20823231,58.26319287,-2.084071551,0,-342.8710332,-25.4683365,0,0,,,,
153.9039999,601,-8392.085048,0,0,0,-0.362219879,520.8997679,-0.042013339,0,-52.26032979,470.0771148,-2.080098491,0,-70.81115029,178.8085551,0,0,,,,
153.9119999,601,-10462.69102,0,0,0,-0.36154692,78.0420178,-0.041932637,0,-8.146678519,24.46997098,-2.076088191,0,-480.6825282,-163.0509301,0,0,,,,
153.9199999,601,-8059.529947,0,0,0,-0.360867421,704.5683965,-0.041851187,0,64.50487252,327.4380307,-2.072040893,0,-97.60568832,176.6261266,0,0,,,,
153.9279999,601,-9949.746405,0,0,0,-0.360181424,143.1498958,-0.041768993,0,-69.0089049,264.1731601,-2.067956844,0,-318.8874248,-30.30664904,0,0,,,,
153.9359999,601,-9308.926981,0,0,0,-0.359488971,459.7974737,-0.041686061,0,66.20686049,39.99028113,-2.063836287,0,-358.9954976,-32.43959475,0,0,,,,
153.9439999,601,-8405.812945,0,0,0,-0.358790105,527.4483957,-0.041602396,0,-63.25108706,450.9371717,-2.059679467,0,-87.93284798,171.4732516,0,0,,,,
153.9519999,601,-10482.44298,0,0,0,-0.358084867,88.37625825,-0.041518002,0,4.920736139,11.91746585,-2.055486627,0,-496.3567112,-164.1399144,0,0,,,,
153.9599999,601,-8023.497518,0,0,0,-0.3573733,716.2157114,-0.041432884,0,50.38694537,317.5644264,-2.051258013,0,-111.9750377,169.9669906,0,0,,,,
153.9679999,601,-9884.256185,0,0,0,-0.356655446,132.6747614,-0.041347047,0,-82.17143705,250.8003061,-2.046993868,0,-341.6881528,-46.87798112,0,0,,,,
153.9759999,601,-9249.688232,0,0,0,-0.355931348,440.5012468,-0.041260496,0,91.46815199,35.18931052,-2.042694436,0,-375.2109915,-38.79008044,0,0,,,,
153.9839999,601,-8319.390877,0,0,0,-0.355201047,516.3759488,-0.041173237,0,-48.04847331,452.6526121,-2.038359961,0,-95.64060715,172.4644227,0,0,,,,
153.9919999,601,-10370.51056,0,0,0,-0.354464587,75.7053476,-0.041085273,0,6.649943351,2.17419754,-2.033990688,0,-517.2829366,-171.6681056,0,0,,,,
153.9999999,601,-7928.453603,0,0,0,-0.353722009,701.2368855,-0.04099661,0,58.07480018,296.4669997,-2.029586861,0,-145.9785547,155.0758644,0,0,,,,
154.0079999,601,-9781.698933,0,0,0,-0.352973356,129.0261245,-0.040907254,0,-82.44180488,237.2209002,-2.025148723,0,-376.5271717,-64.05693786,0,0,,,,
154.0159999,601,-9159.352067,0,0,0,-0.352218669,435.8318793,-0.040817208,0,87.65459555,26.77487898,-2.020676519,0,-415.4561281,-59.66151473,0,0,,,,
154.0239999,601,-8294.784011,0,0,0,-0.351457992,498.5092419,-0.040726477,0,-55.56997877,434.0741369,-2.016170492,0,-152.2161552,151.0807412,0,0,,,,
154.0319999,601,-10313.51594,0,0,0,-0.350691365,69.40391456,-0.040635067,0,-9.4771075,-4.856514942,-2.011630885,0,-573.4903847,-175.1733465,0,0,,,,
154.0399999,601,-7829.540483,0,0,0,-0.349918833,701.9536472,-0.040542983,0,41.74640029,309.1250237,-2.007057943,0,-204.2529645,164.6923495,0,0,,,,
154.0479999,601,-9710.74512,0,0,0,-0.349140436,119.2824494,-0.040450229,0,-99.42072584,243.9981859,-2.002451909,0,-456.730887,-60.0882046,0,0,,,,
154.0559999,601,-9092.925054,0,0,0,-0.348356216,424.8904081,-0.040356811,0,75.21517045,28.66459573,-1.997813027,0,-501.0791309,-55.94870812,0,0,,,,
154.0639999,601,-8264.179633,0,0,0,-0.347566217,485.4688688,-0.040262732,0,-49.45897086,440.6778924,-1.993141539,0,-233.2266883,157.3177503,0,0,,,,
154.0719999,601,-10337.05872,0,0,0,-0.34677048,56.09075219,-0.040167999,0,12.17914691,2.125611004,-1.988437688,0,-641.701061,-166.8700975,0,0,,,,
154.0799999,601,-7891.188138,0,0,0,-0.345969047,686.3548501,-0.040072616,0,76.68523004,314.7681363,-1.983701719,0,-239.9682125,183.8285322,0,0,,,,
154.0879999,601,-9792.432889,0,0,0,-0.345161961,105.867943,-0.039976588,0,-64.97684394,247.8850371,-1.978933873,0,-464.8588484,-32.24561696,0,0,,,,
154.0959999,601,-9162.510681,0,0,0,-0.344349263,427.040766,-0.03987992,0,92.40490342,33.41201028,-1.974134394,0,-502.5437203,-29.96823451,0,0,,,,
154.1039999,601,-8335.325358,0,0,0,-0.343530996,484.7225914,-0.039782617,0,-36.13276472,440.2647098,-1.969303525,0,-234.4884794,176.3031812,0,0,,,,
154.1119999,602,-10402.05624,0,0,0,-0.342707201,47.12179144,-0.039684683,0,21.31338265,-6.668642024,-1.964441507,0,-635.6095073,-156.7401449,0,0,,,,
154.1199999,602,-7952.688372,0,0,0,-0.341877921,681.3191534,-0.039586124,0,73.19815342,305.7729337,-1.959548584,0,-246.9901486,181.1763135,0,0,,,,
154.1279999,602,-9878.204582,0,0,0,-0.341043197,96.98130236,-0.039486944,0,-58.9626604,236.5996549,-1.954624997,0,-490.9167811,-40.33191592,0,0,,,,
154.1359999,602,-9258.005145,0,0,0,-0.340203072,412.4233803,-0.039387149,0,110.7540561,20.77806309,-1.949670988,0,-512.5195442,-29.3127471,0,0,,,,
154.1439999,602,-8422.425644,0,0,0,-0.339357588,471.551232,-0.039286743,0,-28.1292977,430.4317499,-1.9446868,0,-235.6305807,176.5310736,0,0,,,,
154.1519999,602,-10490.3373,0,0,0,-0.338506786,33.97877198,-0.03918573,0,29.28112031,-14.01166409,-1.939672674,0,-646.4545992,-162.6711699,0,0,,,,
154.1599999,602,-8063.170794,0,0,0,-0.337650709,665.9653076,-0.039084117,0,90.04457241,299.5991498,-1.934628852,0,-249.5295724,181.5373139,0,0,,,,
154.1679999,602,-9983.781301,0,0,0,-0.336789398,88.79947088,-0.038981908,0,-47.92431396,234.8921713,-1.929555575,0,-481.6186426,-37.55666908,0,0,,,,
154.1759999,602,-9350.428137,0,0,0,-0.335922895,409.9481306,-0.038879108,0,113.2864249,26.18099564,-1.924453085,0,-510.7706776,-33.40688299,0,0,,,,
154.1839999,602,-8532.509167,0,0,0,-0.335051242,464.9134249,-0.038775721,0,-19.60255331,437.1095595,-1.919321622,0,-242.1088942,175.3626881,0,0,,,,
154.1919999,602,-10592.60765,0,0,0,-0.334174481,28.36823141,-0.038671753,0,39.76157556,-5.586896621,-1.914161427,0,-649.7930071,-152.9903747,0,0,,,,
154.1999999,602,-8153.111443,0,0,0,-0.333292653,657.4559517,-0.038567208,0,93.39161726,302.5919946,-1.90897274,0,-259.6334706,189.2903914,0,0,,,,
154.2079999,602,-10063.54904,0,0,0,-0.3324058,74.06140432,-0.038462091,0,-34.59548461,232.9770372,-1.903755803,0,-492.931536,-29.52797463,0,0,,,,
154.2159999,602,-9411.279416,0,0,0,-0.331513964,393.9795624,-0.038356407,0,126.825578,27.77871713,-1.898510856,0,-517.9053824,-17.11652762,0,0,,,,
154.2239999,602,-8611.283449,0,0,0,-0.330617187,448.3729752,-0.038250161,0,-11.81800491,432.3608113,-1.893238138,0,-257.2022377,186.9859506,0,0,,,,
154.2319999,602,-10678.77177,0,0,0,-0.32971551,21.33286844,-0.038143357,0,49.61547661,-7.010704206,-1.887937889,0,-661.2224656,-142.7043297,0,0,,,,
154.2399999,602,-8211.945656,0,0,0,-0.328808975,657.0004827,-0.038036002,0,93.47863773,310.2032613,-1.882610348,0,-268.6075462,200.9533674,0,0,,,,
154.2479999,602,-10092.90313,0,0,0,-0.327897623,70.79495125,-0.037928098,0,-35.85948081,230.5784612,-1.877255756,0,-508.0300973,-23.64350301,0,0,,,,
154.2559999,602,-9435.420602,0,0,0,-0.326981496,392.2257831,-0.037819652,0,127.025549,20.01903934,-1.871874351,0,-533.5626535,-8.254093118,0,0,,,,
154.2639999,602,-8633.4588,0,0,0,-0.326060635,448.5815579,-0.037710668,0,-15.65264242,431.2424467,-1.866466372,0,-274.6845918,199.561742,0,0,,,,
154.2719999,602,-10659.69714,0,0,0,-0.325135081,19.4265406,-0.037601151,0,47.53621566,-9.118933097,-1.861032057,0,-681.5933152,-135.7087763,0,0,,,,
154.2799999,602,-8185.387907,0,0,0,-0.324204877,648.4396016,-0.037491105,0,92.14810728,300.2657699,-1.855571645,0,-296.5322412,202.1846346,0,0,,,,
154.2879999,602,-10083.42919,0,0,0,-0.323270063,62.4497805,-0.037380536,0,-31.72475239,220.6889625,-1.850085373,0,-536.083734,-21.00229713,0,0,,,,
154.2959999,602,-9394.106277,0,0,0,-0.322330681,389.9561791,-0.037269448,0,135.5253337,14.41980239,-1.84457348,0,-550.9080735,-6.070598862,0,0,,,,
154.3039999,602,-8550.952583,0,0,0,-0.321386772,448.7873561,-0.037157846,0,-17.68440385,421.2122348,-1.839036204,0,-288.4756245,194.1187011,0,0,,,,
154.3119999,602,-10568.32006,0,0,0,-0.320438377,22.61780647,-0.037045735,0,40.61346625,-22.28480547,-1.833473781,0,-688.6681281,-140.6800417,0,0,,,,
154.3199999,602,-8114.300429,0,0,0,-0.319485537,652.3598447,-0.036933119,0,90.46516966,286.7180727,-1.827886448,0,-285.5569737,199.4406004,0,0,,,,
154.3279999,602,-10045.36515,0,0,0,-0.318528294,64.10758684,-0.036820004,0,-37.13728401,206.2341165,-1.822274442,0,-513.4438659,-25.50658156,0,0,,,,
154.3359999,602,-9409.383026,0,0,0,-0.317566688,387.9737683,-0.036706394,0,131.3105544,0.831333315,-1.816638,0,-533.3803688,-5.14770854,0,0,,,,
154.3439999,602,-8603.027849,0,0,0,-0.316600761,447.2755376,-0.036592294,0,-9.283046658,405.4727926,-1.810977358,0,-271.1107884,198.4408581,0,0,,,,
154.3519999,602,-10614.22833,0,0,0,-0.315630553,27.31453847,-0.036477709,0,44.60780516,-37.14918542,-1.80529275,0,-666.0314598,-138.816943,0,0,,,,
154.3599999,602,-8168.894475,0,0,0,-0.314656106,658.8388124,-0.036362644,0,86.14816041,273.1042441,-1.799584414,0,-273.2617549,197.7604547,0,0,,,,
154.3679999,603,-10097.66154,0,0,0,-0.31367746,70.18027439,-0.036247102,0,-26.85769961,198.0988769,-1.793852584,0,-498.190076,-21.87061993,0,0,,,,
154.3759999,603,-9416.776806,0,0,0,-0.312694657,397.2659076,-0.03613109,0,134.9981539,0.905639492,-1.788097495,0,-500.4455603,5.151183499,0,0,,,,
154.3839999,603,-8595.026247,0,0,0,-0.311707736,446.2999759,-0.036014611,0,-17.90835329,401.7179458,-1.782319382,0,-246.3575246,195.8016981,0,0,,,,
154.3919999,603,-10617.24851,0,0,0,-0.310716739,10.99492218,-0.03589767,0,63.42826593,-37.65002718,-1.776518478,0,-648.6245869,-141.6423638,0,0,,,,
154.3999999,603,-8163.993979,0,0,0,-0.309721706,646.3094517,-0.035780273,0,109.3409088,290.2339065,-1.770695019,0,-243.2474585,211.8249696,0,0,,,,
154.4079999,603,-10062.73567,0,0,0,-0.308722678,69.00596693,-0.035662424,0,-33.30728529,220.8575449,-1.764849237,0,-477.8718312,-18.99928327,0,0,,,,
154.4159999,603,-9370.436906,0,0,0,-0.307719696,394.6692721,-0.035544127,0,126.7760041,12.45858676,-1.758981365,0,-495.680296,-12.7459773,0,0,,,,
154.4239999,603,-8581.921119,0,0,0,-0.306712799,433.8078235,-0.035425388,0,-7.916910306,404.615258,-1.753091638,0,-228.4134499,184.20771,0,0,,,,
154.4319999,603,-10589.38918,0,0,0,-0.305702029,8.42660464,-0.03530621,0,65.66115439,-35.41392205,-1.747180286,0,-618.0294793,-141.6404742,0,0,,,,
154.4399999,603,-8107.385353,0,0,0,-0.304687426,641.5608142,-0.035186599,0,87.47533365,280.4363328,-1.741247543,0,-229.5754463,199.0010448,0,0,,,,
154.4479999,603,-10035.97936,0,0,0,-0.30366903,40.10228481,-0.03506656,0,-45.44105132,193.643582,-1.73529364,0,-484.4343491,-35.85114194,0,0,,,,
154.4559999,603,-9360.010531,0,0,0,-0.302646881,368.2990469,-0.034946096,0,137.8120502,-7.997330178,-1.72931881,0,-498.4621928,-6.431763089,0,0,,,,
154.4639999,603,-8553.716429,0,0,0,-0.301621021,420.2000373,-0.034825214,0,-15.11996359,394.6822181,-1.723323282,0,-233.3549794,193.721168,0,0,,,,
154.4719999,603,-10555.02215,0,0,0,-0.300591487,-4.632411283,-0.034703916,0,46.67614137,-49.14664863,-1.717307288,0,-635.7026618,-143.1676931,0,0,,,,
154.4799999,603,-8094.824215,0,0,0,-0.299558322,623.9249788,-0.034582209,0,98.49666075,270.4928415,-1.711271059,0,-240.2402832,203.4731956,0,0,,,,
154.4879999,603,-10013.84052,0,0,0,-0.298521565,21.45565764,-0.034460096,0,-31.29263358,190.9978556,-1.705214824,0,-478.8699063,-32.41773198,0,0,,,,
154.4959999,603,-9329.061233,0,0,0,-0.297481255,345.6169852,-0.034337583,0,136.7097874,-5.987423513,-1.699138813,0,-497.683161,-14.06196573,0,0,,,,
154.5039999,603,-8536.737565,0,0,0,-0.296437433,396.3866807,-0.034214673,0,-2.263620634,409.5850222,-1.693043255,0,-235.2244819,195.0302985,0,0,,,,
154.5119999,603,-10504.88354,0,0,0,-0.295390139,-12.45844003,-0.034091372,0,51.07222006,-30.70481016,-1.686928379,0,-630.7734989,-137.7072994,0,0,,,,
154.5199999,603,-8043.142205,0,0,0,-0.294339412,624.022922,-0.033967685,0,73.1844585,270.6710664,-1.680794414,0,-261.3533891,191.934496,0,0,,,,
154.5279999,603,-10008.0094,0,0,0,-0.293285292,18.1620088,-0.033843615,0,-49.20369536,172.6176294,-1.674641589,0,-517.8698766,-45.86587834,0,0,,,,
154.5359999,603,-9334.522467,0,0,0,-0.292227819,340.8720719,-0.033719167,0,135.7855428,-31.42122107,-1.668470129,0,-517.6673545,-18.82885681,0,0,,,,
154.5439999,603,-8568.0028,0,0,0,-0.291167032,379.0625978,-0.033594346,0,-2.02494355,380.155443,-1.662280264,0,-253.877285,190.4547996,0,0,,,,
154.5519999,603,-10580.02464,0,0,0,-0.290102971,-44.12197965,-0.033469157,0,63.69673912,-59.31164478,-1.656072219,0,-649.731844,-135.9089904,0,0,,,,
154.5599999,603,-8106.324922,0,0,0,-0.289035675,600.3688266,-0.033343604,0,97.74990043,261.1993434,-1.649846222,0,-251.523182,211.2403612,0,0,,,,
154.5679999,603,-10024.36244,0,0,0,-0.287965183,11.42602303,-0.033217692,0,-37.5615676,184.5832557,-1.643602498,0,-495.8974795,-19.6116139,0,0,,,,
154.5759999,603,-9321.192408,0,0,0,-0.286891536,341.1411844,-0.033091425,0,120.5882706,-19.52131299,-1.637341273,0,-510.7800447,-3.386297575,0,0,,,,
154.5839999,603,-8542.488924,0,0,0,-0.285814771,380.4884409,-0.032964808,0,-30.30202368,381.7872469,-1.631062772,0,-261.8543261,190.3555008,0,0,,,,
154.5919999,603,-10549.61133,0,0,0,-0.284734928,-44.59130294,-0.032837845,0,53.28720847,-60.10044337,-1.62476722,0,-658.1415533,-141.9754734,0,0,,,,
154.5999999,603,-8081.437819,0,0,0,-0.283652047,594.2420062,-0.032710541,0,96.81643152,257.7358899,-1.618454842,0,-252.7719806,206.263589,0,0,,,,
154.6079999,603,-9995.814796,0,0,0,-0.282566166,1.866154844,-0.0325829,0,-47.37568747,176.549405,-1.61212586,0,-507.2645308,-25.85079335,0,0,,,,
154.6159999,603,-9286.343582,0,0,0,-0.281477324,326.5461554,-0.032454928,0,125.8271051,-24.26913563,-1.6057805,0,-525.6031422,-7.836733954,0,0,,,,
154.6239999,604,-8505.567898,0,0,0,-0.28038556,363.0369996,-0.032326627,0,-12.05630822,377.0238866,-1.599418983,0,-262.7529838,189.2033132,0,0,,,,
154.6319999,604,-10481.17876,0,0,0,-0.279290913,-54.50790907,-0.032198004,0,51.06464994,-66.10110133,-1.593041533,0,-662.7953591,-142.1729564,0,0,,,,
154.6399999,604,-8012.990454,0,0,0,-0.278193421,576.89764,-0.032069062,0,83.08401531,243.1345177,-1.586648372,0,-267.4688041,192.6833171,0,0,,,,
154.6479999,604,-9956.828635,0,0,0,-0.277093124,-24.07717683,-0.031939806,0,-47.57821762,147.4285212,-1.58023972,0,-506.6488443,-51.30097418,0,0,,,,
154.6559999,604,-9242.316759,0,0,0,-0.275990059,314.6606614,-0.03181024,0,119.8302544,-46.91507529,-1.5738158,0,-510.8437154,-21.1218834,0,0,,,,
154.6639999,604,-8476.324006,0,0,0,-0.274884265,360.8236064,-0.031680369,0,-31.81829707,365.1577624,-1.567376832,0,-264.5532133,182.5003592,0,0,,,,
154.6719999,604,-10467.85757,0,0,0,-0.273775781,-57.35651955,-0.031550197,0,35.95271275,-78.54665426,-1.560923037,0,-677.1052173,-154.8874952,0,0,,,,
154.6799999,604,-7993.534491,0,0,0,-0.272664644,572.3029736,-0.031419729,0,74.92979024,234.5717982,-1.554454633,0,-277.1635837,186.0244512,0,0,,,,
154.6879999,604,-9933.956469,0,0,0,-0.271550894,-23.95476157,-0.031288969,0,-42.77802173,153.1990842,-1.547971842,0,-513.5792074,-39.90536148,0,0,,,,
154.6959999,604,-9195.521606,0,0,0,-0.270434568,316.9706256,-0.031157922,0,123.0360508,-40.63277556,-1.54147488,0,-512.8534173,-12.97628234,0,0,,,,
154.7039999,604,-8427.942359,0,0,0,-0.269315703,347.4802668,-0.031026591,0,-31.20762656,356.3349411,-1.534963968,0,-257.7682967,172.688741,0,0,,,,
154.7119999,604,-10431.74619,0,0,0,-0.26819434,-74.37266236,-0.030894982,0,50.67488062,-84.98642326,-1.528439322,0,-654.887049,-157.1005084,0,0,,,,
154.7199999,604,-7954.199156,0,0,0,-0.267070514,564.0250973,-0.030763099,0,78.18678345,233.4123994,-1.52190116,0,-245.3945936,190.9579863,0,0,,,,
154.7279999,604,-9932.137867,0,0,0,-0.265944264,-42.98263427,-0.030630945,0,-47.73994269,144.3932302,-1.5153497,0,-498.5845348,-47.19009133,0,0,,,,
154.7359999,604,-9240.57534,0,0,0,-0.264815628,289.8519579,-0.030498526,0,132.0975322,-53.67498464,-1.508785156,0,-506.1237125,-22.68073163,0,0,,,,
154.7439999,604,-8466.4037,0,0,0,-0.263684643,331.4649531,-0.030365847,0,-24.55872277,342.3023335,-1.502207746,0,-236.7334021,168.1877646,0,0,,,,
154.7519999,604,-10430.74426,0,0,0,-0.262551347,-79.33637938,-0.03023291,0,44.13575566,-95.02780039,-1.495617685,0,-636.8588592,-160.269699,0,0,,,,
154.7599999,604,-7934.086177,0,0,0,-0.261415777,559.2840485,-0.030099721,0,67.6325639,225.9936026,-1.489015187,0,-242.0892677,183.9607354,0,0,,,,
154.7679999,604,-9877.567493,0,0,0,-0.260277971,-44.38948841,-0.029966283,0,-57.67789647,132.1725328,-1.482400467,0,-492.3482464,-58.68624312,0,0,,,,
154.7759999,604,-9112.622427,0,0,0,-0.259137966,301.1620376,-0.029832602,0,123.2929553,-55.55940838,-1.475773738,0,-489.345004,-26.4247034,0,0,,,,
154.7839999,604,-8350.643966,0,0,0,-0.257995799,326.8133873,-0.029698682,0,-25.54870647,349.1300223,-1.469135215,0,-229.8344827,166.9569691,0,0,,,,
154.7919999,604,-10364.14113,0,0,0,-0.256851507,-104.0594066,-0.029564526,0,57.43694837,-99.87667625,-1.46248511,0,-635.0789937,-162.1777268,0,0,,,,
154.7999999,604,-7849.743136,0,0,0,-0.255705128,548.008064,-0.029430139,0,73.30694937,217.4550899,-1.455823635,0,-225.9973227,187.5330516,0,0,,,,
154.8079999,604,-9834.219664,0,0,0,-0.254556699,-68.34744394,-0.029295526,0,-69.63446875,121.6493738,-1.449151002,0,-482.1654652,-63.81268724,0,0,,,,
154.8159999,604,-9134.838639,0,0,0,-0.253406255,262.2170442,-0.02916069,0,124.3975266,-69.83987659,-1.442467422,0,-484.1113907,-28.60577016,0,0,,,,
154.8239999,604,-8373.539417,0,0,0,-0.252253834,308.6909435,-0.029025636,0,-26.56139515,338.6153135,-1.435773106,0,-220.3924634,175.6881125,0,0,,,,
154.8319999,604,-10413.66239,0,0,0,-0.251099473,-125.4332505,-0.028890368,0,49.50725548,-110.4763449,-1.429068264,0,-636.5411697,-161.560661,0,0,,,,
154.8399999,604,-7894.1871,0,0,0,-0.249943209,528.0945572,-0.028754891,0,84.52626328,216.7470101,-1.422353105,0,-227.1421262,194.2757108,0,0,,,,
154.8479999,604,-9787.984279,0,0,0,-0.248785076,-64.1355638,-0.028619208,0,-73.75949894,127.0084992,-1.41562784,0,-488.0896845,-55.00786072,0,0,,,,
154.8559999,604,-9052.590199,0,0,0,-0.247625113,257.4588916,-0.028483325,0,100.8605278,-82.80589952,-1.408892675,0,-510.8223324,-47.05919783,0,0,,,,
154.8639999,604,-8308.542658,0,0,0,-0.246463356,294.0044877,-0.028347244,0,-34.02197022,321.1540496,-1.40214782,0,-232.5242866,152.1538204,0,0,,,,
154.8719999,604,-10301.11993,0,0,0,-0.24529984,-124.2753547,-0.02821097,0,43.08484133,-115.1364725,-1.395393482,0,-624.6767503,-170.1967394,0,0,,,,
154.8799999,605,-7767.643816,0,0,0,-0.244134601,520.9066118,-0.028074508,0,71.68736966,208.3768132,-1.388629867,0,-221.3503624,178.8283308,0,0,,,,
154.8879999,605,-9737.378639,0,0,0,-0.242967677,-89.17012999,-0.027937861,0,-63.27344271,117.1020367,-1.381857182,0,-472.3972043,-63.02444155,0,0,,,,
154.8959999,605,-9012.015617,0,0,0,-0.241799102,250.9819037,-0.027801034,0,112.5184127,-79.99753085,-1.375075632,0,-481.5815546,-27.42930741,0,0,,,,
154.9039999,605,-8221.69441,0,0,0,-0.240628912,302.5776913,-0.027664031,0,-51.85294551,324.4935815,-1.368285423,0,-220.5675934,174.1811564,0,0,,,,
154.9119999,605,-10208.80765,0,0,0,-0.239457144,-130.2920837,-0.027526855,0,26.4853741,-119.1363823,-1.361486759,0,-621.8974506,-154.521145,0,0,,,,
154.9199999,605,-7689.03456,0,0,0,-0.238283832,506.8452232,-0.027389512,0,68.3539871,199.2796776,-1.354679845,0,-211.3808572,196.6074235,0,0,,,,
154.9279999,605,-9626.804676,0,0,0,-0.237109013,-80.96131295,-0.027252005,0,-74.58864494,110.843356,-1.347864883,0,-454.0453334,-41.83254831,0,0,,,,
154.9359999,605,-8852.715851,0,0,0,-0.235932722,266.9671238,-0.027114339,0,83.17873427,-83.03266025,-1.341042077,0,-463.2971131,-23.6351662,0,0,,,,
154.9439999,605,-8077.77093,0,0,0,-0.234754993,288.3900187,-0.026976516,0,-72.27527416,309.4137808,-1.334211629,0,-218.3725287,147.3466084,0,0,,,,
154.9519999,605,-10073.95716,0,0,0,-0.233575864,-143.9572441,-0.026838543,0,23.23915924,-128.7584772,-1.327373741,0,-623.3306103,-174.3535566,0,0,,,,
154.9599999,605,-7526.622287,0,0,0,-0.232395367,506.2678057,-0.026700421,0,45.61781166,206.2327587,-1.320528613,0,-220.0501222,185.7103214,0,0,,,,
154.9679999,605,-9469.636952,0,0,0,-0.231213539,-107.6120902,-0.026562157,0,-99.38902037,109.7148842,-1.313676447,0,-497.8575013,-69.9413962,0,0,,,,
154.9759999,605,-8719.057942,0,0,0,-0.230030415,227.5362998,-0.026423753,0,90.264388,-82.237613,-1.306817442,0,-512.5405759,-37.70496527,0,0,,,,
154.9839999,605,-7939.573841,0,0,0,-0.228846029,268.6922959,-0.026285214,0,-62.07504707,326.6491025,-1.299951797,0,-249.6598121,162.8708581,0,0,,,,
154.9919999,605,-9927.710517,0,0,0,-0.227660416,-157.7794904,-0.026146543,0,17.44500234,-122.4547114,-1.293079711,0,-672.6447105,-161.9934341,0,0,,,,
154.9999999,605,-7410.48846,0,0,0,-0.226473611,481.4739271,-0.026007745,0,47.27806159,194.1536981,-1.286201383,0,-291.3349359,192.8073036,0,0,,,,
155.0079999,605,-9373.314007,0,0,0,-0.225285647,-126.3645304,-0.025868824,0,-84.40174475,97.69202885,-1.27931701,0,-555.3226727,-52.14976131,0,0,,,,
155.0159999,605,-8616.103539,0,0,0,-0.224096561,218.2963534,-0.025729783,0,100.2688168,-95.83216417,-1.272426789,0,-567.3373811,-15.58653089,0,0,,,,
155.0239999,605,-7848.093054,0,0,0,-0.222906385,248.2160985,-0.025590627,0,-61.89161437,303.1400882,-1.265530916,0,-326.5607591,175.835151,0,0,,,,
155.0319999,605,-9833.608453,0,0,0,-0.221715155,-177.9479061,-0.02545136,0,21.58121177,-144.3925873,-1.258629587,0,-730.2827398,-159.2030432,0,0,,,,
155.0399999,605,-7305.868456,0,0,0,-0.220522903,474.4315941,-0.025311985,0,55.00418799,186.2896506,-1.251722997,0,-321.4436654,190.2698732,0,0,,,,
155.0479999,605,-9291.886959,0,0,0,-0.219329665,-143.7588092,-0.025172506,0,-78.27354505,97.58715558,-1.244811341,0,-587.2472229,-63.38952358,0,0,,,,
155.0559999,605,-8524.434811,0,0,0,-0.218135475,197.5809362,-0.025032928,0,109.1163401,-94.61314852,-1.237894812,0,-576.6601136,-32.97580294,0,0,,,,
155.0639999,605,-7712.054819,0,0,0,-0.216940365,240.8096868,-0.024893254,0,-60.41475912,301.3388402,-1.230973603,0,-313.6391344,151.7561947,0,0,,,,
155.0719999,605,-9689.50253,0,0,0,-0.21574437,-192.9799258,-0.024753489,0,14.19269643,-153.0378684,-1.224047908,0,-714.1726997,-194.7735305,0,0,,,,
155.0799999,605,-7160.702647,0,0,0,-0.214547522,451.9112824,-0.024613635,0,47.18110144,172.5929115,-1.217117918,0,-287.5074993,156.9685237,0,0,,,,
155.0879999,605,-9138.968408,0,0,0,-0.213349857,-160.0448137,-0.024473697,0,-87.57207888,81.89693551,-1.210183824,0,-537.6092504,-80.38138779,0,0,,,,
155.0959999,605,-8398.537558,0,0,0,-0.212151407,176.1853712,-0.024333679,0,104.0074663,-107.2176502,-1.203245818,0,-524.2621039,-40.20261749,0,0,,,,
155.1039999,605,-7617.631222,0,0,0,-0.210952205,220.8296107,-0.024193585,0,-52.52935298,301.5230134,-1.196304089,0,-250.2535559,156.7749042,0,0,,,,
155.1119999,605,-9601.82042,0,0,0,-0.209752284,-199.1542367,-0.024053417,0,19.45081514,-142.3383077,-1.189358827,0,-641.7927688,-174.5252558,0,0,,,,
155.1199999,605,-7092.064153,0,0,0,-0.208551678,438.0791307,-0.023913182,0,41.09824693,174.007203,-1.18241022,0,-227.2161855,169.9548427,0,0,,,,
155.1279999,605,-9058.305257,0,0,0,-0.207350419,-175.3451774,-0.023772881,0,-81.78739182,75.5234825,-1.175458458,0,-479.7755937,-72.28651381,0,0,,,,
155.1359999,606,-8267.433112,0,0,0,-0.206148541,175.9676534,-0.023632519,0,109.1241265,-110.4489363,-1.168503726,0,-464.1560896,-26.88935442,0,0,,,,
155.1439999,606,-7495.730419,0,0,0,-0.204946075,205.4122411,-0.0234921,0,-65.5655301,287.6840118,-1.161546213,0,-208.547321,155.2243433,0,0,,,,
155.1519999,606,-9483.345813,0,0,0,-0.203743055,-225.405055,-0.023351627,0,15.94756039,-165.670639,-1.154586105,0,-604.4250497,-182.020341,0,0,,,,
155.1599999,606,-6932.632153,0,0,0,-0.202539514,428.8379344,-0.023211104,0,54.56492378,164.6916777,-1.147623586,0,-180.0229371,170.369996,0,0,,,,
155.1679999,606,-8928.371074,0,0,0,-0.201335482,-186.2460324,-0.023070535,0,-67.03299694,79.60665453,-1.140658843,0,-433.3643418,-84.06866355,0,0,,,,
155.1759999,606,-8176.474793,0,0,0,-0.200130993,156.4562231,-0.022929924,0,122.2730858,-104.7840252,-1.133692059,0,-418.0718204,-42.27507715,0,0,,,,
155.1839999,606,-7379.164547,0,0,0,-0.198926079,196.5453569,-0.022789274,0,-43.37021846,296.0984504,-1.126723418,0,-159.3372715,153.220161,0,0,,,,
155.1919999,606,-9374.790407,0,0,0,-0.197720771,-228.7771783,-0.022648589,0,46.73700665,-154.3667432,-1.119753103,0,-561.0080524,-185.9036621,0,0,,,,
155.1999999,606,-6866.303514,0,0,0,-0.196515103,413.2405984,-0.022507872,0,77.96141791,169.7763027,-1.112781296,0,-141.2337361,163.9718349,0,0,,,,
155.2079999,606,-8846.775779,0,0,0,-0.195309105,-202.114187,-0.022367128,0,-53.0622847,72.02193371,-1.105808178,0,-390.1569908,-81.9743398,0,0,,,,
155.2159999,606,-8066.022221,0,0,0,-0.194102809,149.4537002,-0.02222636,0,125.8308318,-122.6424568,-1.098833932,0,-377.536602,-45.67436621,0,0,,,,
155.2239999,606,-7282.173042,0,0,0,-0.192896247,182.1925725,-0.022085572,0,-40.39351005,271.9629664,-1.091858737,0,-118.0285808,140.3235336,0,0,,,,
155.2319999,606,-9291.289602,0,0,0,-0.191689451,-250.4086584,-0.021944767,0,58.98045011,-177.209205,-1.084882773,0,-516.2961446,-190.2311233,0,0,,,,
155.2399999,606,-6772.678058,0,0,0,-0.190482451,392.5110583,-0.021803948,0,80.23089252,147.2257622,-1.077906218,0,-103.4315398,164.3411029,0,0,,,,
155.2479999,606,-8745.551083,0,0,0,-0.189275279,-227.3017085,-0.02166312,0,-55.13172731,50.09728168,-1.070929252,0,-352.6917617,-88.6871622,0,0,,,,
155.2559999,606,-7985.161678,0,0,0,-0.188067966,121.4001669,-0.021522287,0,141.2026492,-128.3551624,-1.063952051,0,-331.1389099,-47.98319777,0,0,,,,
155.2639999,606,-7186.467555,0,0,0,-0.186860543,171.3916163,-0.021381451,0,-34.36167385,279.6387322,-1.056974793,0,-69.38383363,147.6148598,0,0,,,,
155.2719999,606,-9161.320794,0,0,0,-0.185653041,-246.6774847,-0.021240616,0,29.84260277,-173.4034224,-1.049997654,0,-482.3034885,-193.6553784,0,0,,,,
155.2799999,606,-6678.237494,0,0,0,-0.18444549,391.9643079,-0.021099786,0,52.06040942,150.2796659,-1.04302081,0,-79.10347272,150.3198875,0,0,,,,
155.2879999,606,-8680.771917,0,0,0,-0.183237922,-220.666875,-0.020958965,0,-67.14728097,58.66628234,-1.036044435,0,-333.4135011,-92.64588072,0,0,,,,
155.2959999,606,-7934.551189,0,0,0,-0.182030367,132.2037985,-0.020818155,0,120.740877,-127.8464686,-1.029068704,0,-338.2424777,-51.41199811,0,0,,,,
155.3039999,606,-7209.445534,0,0,0,-0.180822855,155.2027094,-0.02067736,0,-42.91783389,267.5730921,-1.02209379,0,-88.7689713,136.5464653,0,0,,,,
155.3119999,606,-9233.470166,0,0,0,-0.179615417,-279.8375366,-0.020536585,0,52.67226562,-181.7752304,-1.015119866,0,-487.2769688,-192.6227983,0,0,,,,
155.3199999,606,-6722.749393,0,0,0,-0.178408083,371.4990609,-0.020395831,0,86.36208847,156.3042406,-1.008147104,0,-78.95564943,167.5693472,0,0,,,,
155.3279999,606,-8691.499038,0,0,0,-0.177200882,-235.4694437,-0.020255104,0,-42.36337303,72.22047089,-1.001175676,0,-326.5409708,-72.75914044,0,0,,,,
155.3359999,606,-7914.78308,0,0,0,-0.175993845,121.3806625,-0.020114405,0,123.4527892,-116.0935339,-0.994205753,0,-318.890859,-37.43118449,0,0,,,,
155.3439999,606,-7145.479462,0,0,0,-0.174787002,158.2051925,-0.01997374,0,-47.58803829,283.1908954,-0.987237505,0,-73.0513002,141.7643325,0,0,,,,
155.3519999,606,-9136.998514,0,0,0,-0.173580382,-268.1367682,-0.01983311,0,52.45292803,-163.3544539,-0.9802711,0,-469.1131896,-189.6981727,0,0,,,,
155.3599999,606,-6617.991158,0,0,0,-0.172374015,383.399725,-0.01969252,0,70.87078561,158.9021641,-0.973306708,0,-49.6884948,161.7206653,0,0,,,,
155.3679999,606,-8595.546023,0,0,0,-0.171167931,-238.9535934,-0.019551973,0,-65.78370036,57.23902957,-0.966344497,0,-305.8445621,-103.6851698,0,0,,,,
155.3759999,606,-7825.080658,0,0,0,-0.169962158,103.0614531,-0.019411472,0,120.186485,-133.7703301,-0.959384634,0,-299.3910534,-71.60673744,0,0,,,,
155.3839999,606,-7064.063953,0,0,0,-0.168756726,140.2999724,-0.019271021,0,-40.44415153,267.1711621,-0.952427286,0,-35.24842212,128.8741311,0,0,,,,
155.3919999,607,-9055.834584,0,0,0,-0.167551664,-289.6180735,-0.019130623,0,50.80883321,-176.3264094,-0.945472618,0,-432.3855694,-195.9673935,0,0,,,,
155.3999999,607,-6524.310221,0,0,0,-0.166347002,356.3168422,-0.018990281,0,72.69421146,152.1580667,-0.938520796,0,-29.32162778,157.9251772,0,0,,,,
155.4079999,607,-8494.094955,0,0,0,-0.165142767,-253.6193166,-0.018849999,0,-48.87405202,55.9569402,-0.931571984,0,-283.2092196,-87.44813269,0,0,,,,
155.4159999,607,-7683.998501,0,0,0,-0.163938989,102.8060103,-0.01870978,0,126.0435915,-133.4558955,-0.924626346,0,-266.1940083,-50.79107899,0,0,,,,
155.4239999,607,-6877.798197,0,0,0,-0.162735696,139.5335558,-0.018569627,0,-60.98038156,263.0739079,-0.917684046,0,-15.22400445,126.7668617,0,0,,,,
155.4319999,607,-8861.686708,0,0,0,-0.161532917,-285.0395167,-0.018429543,0,29.94068592,-185.8274383,-0.910745244,0,-430.1879182,-210.0496273,0,0,,,,
155.4399999,607,-6322.485875,0,0,0,-0.16033068,364.1576534,-0.018289533,0,61.16684417,142.6785898,-0.903810104,0,-27.82679398,143.0675374,0,0,,,,
155.4479999,607,-8306.22994,0,0,0,-0.159129014,-257.0364401,-0.018149598,0,-52.27421535,52.33438708,-0.896878786,0,-291.6012789,-103.7269256,0,0,,,,
155.4559999,607,-7566.525103,0,0,0,-0.157927946,91.30480276,-0.018009743,0,139.0214074,-128.1020279,-0.88995145,0,-285.9891449,-55.8334076,0,0,,,,
155.4639999,607,-6819.846066,0,0,0,-0.156727505,121.865993,-0.01786997,0,-39.563792,272.3941278,-0.883028256,0,-32.62976813,134.4469988,0,0,,,,
155.4719999,607,-8810.257786,0,0,0,-0.155527718,-305.6491306,-0.017730284,0,49.32050854,-178.843122,-0.876109362,0,-445.9830347,-198.8009492,0,0,,,,
155.4799999,607,-6267.852414,0,0,0,-0.154328613,350.2462174,-0.017590686,0,60.552847,143.421508,-0.869194927,0,-40.55419448,151.7938773,0,0,,,,
155.4879999,607,-8250.132345,0,0,0,-0.153130218,-270.4474028,-0.01745118,0,-74.36055153,36.44692701,-0.862285108,0,-306.1989696,-110.1586111,0,0,,,,
155.4959999,607,-7485.856851,0,0,0,-0.151932561,74.90737852,-0.017311769,0,128.2801723,-156.9008606,-0.855380062,0,-305.5965233,-71.58490395,0,0,,,,
155.5039999,607,-6706.991262,0,0,0,-0.150735668,115.8588525,-0.017172457,0,-42.20978108,242.5417823,-0.848479944,0,-50.03479399,121.436638,0,0,,,,
155.5119999,607,-8684.989633,0,0,0,-0.149539567,-305.1740378,-0.017033247,0,40.70234366,-207.5699517,-0.84158491,0,-463.645116,-212.7020733,0,0,,,,
155.5199999,607,-6148.520857,0,0,0,-0.148344285,346.7202129,-0.016894141,0,66.58752654,125.4598045,-0.834695114,0,-51.84270426,150.2459408,0,0,,,,
155.5279999,607,-8131.846842,0,0,0,-0.14714985,-267.8359392,-0.016755143,0,-69.63790959,31.79598175,-0.827810709,0,-307.7105363,-94.90552481,0,0,,,,
155.5359999,607,-7361.454278,0,0,0,-0.145956288,80.52532129,-0.016616256,0,109.0278058,-166.3949011,-0.82093185,0,-314.9211006,-64.43646164,0,0,,,,
155.5439999,607,-6618.306211,0,0,0,-0.144763625,107.824383,-0.016477483,0,-44.41744066,228.9314188,-0.814058688,0,-58.99853359,126.4529647,0,0,,,,
155.5519999,607,-8635.268885,0,0,0,-0.143571889,-316.672166,-0.016338827,0,57.65046644,-207.0395118,-0.807191375,0,-461.6989852,-190.3131841,0,0,,,,
155.5599999,607,-6102.546453,0,0,0,-0.142381106,335.5693623,-0.016200291,0,59.44924465,126.9338163,-0.800330061,0,-64.56961149,164.3182386,0,0,,,,
155.5679999,607,-8117.754146,0,0,0,-0.141191302,-288.8790952,-0.016061878,0,-78.26708856,19.27925732,-0.793474897,0,-328.3344585,-97.83493937,0,0,,,,
155.5759999,607,-7373.296046,0,0,0,-0.140002504,64.45942407,-0.015923592,0,119.7893336,-173.879777,-0.786626031,0,-312.0291221,-57.62185955,0,0,,,,
155.5839999,607,-6597.949605,0,0,0,-0.138814737,103.7069932,-0.015785434,0,-50.88375058,234.0321215,-0.779783614,0,-46.57502595,136.5893777,0,0,,,,
155.5919999,607,-8592.397819,0,0,0,-0.137628029,-321.9194488,-0.015647409,0,33.3961667,-208.8993001,-0.772947792,0,-455.7231128,-199.5386411,0,0,,,,
155.5999999,607,-6069.069774,0,0,0,-0.136442404,331.9657634,-0.015509518,0,52.73491813,125.0890457,-0.766118713,0,-51.94997852,149.1806516,0,0,,,,
155.6079999,607,-8058.713022,0,0,0,-0.135257888,-285.7505663,-0.015371766,0,-70.8923988,39.45517882,-0.759296522,0,-316.7851158,-94.16248264,0,0,,,,
155.6159999,607,-7266.711656,0,0,0,-0.134074507,67.04224891,-0.015234155,0,109.4831598,-151.054533,-0.752481367,0,-315.9786215,-48.90760552,0,0,,,,
155.6239999,607,-6496.265573,0,0,0,-0.132892287,102.2507973,-0.015096688,0,-70.49273935,243.7595029,-0.745673392,0,-54.8714091,132.9086901,0,0,,,,
155.6319999,607,-8529.12578,0,0,0,-0.131711253,-331.3742727,-0.014959368,0,42.81747824,-199.3235397,-0.73887274,0,-459.7553659,-201.9105058,0,0,,,,
155.6399999,607,-5996.420495,0,0,0,-0.13053143,324.0703181,-0.014822197,0,72.22731496,130.8193084,-0.732079556,0,-45.58309463,157.3038752,0,0,,,,
155.6479999,608,-7964.786419,0,0,0,-0.129352843,-282.188225,-0.014685179,0,-72.14163519,30.85791337,-0.725293982,0,-298.0594819,-94.02273383,0,0,,,,
155.6559999,608,-7183.354148,0,0,0,-0.128175518,71.86710203,-0.014548317,0,107.2628648,-167.8482188,-0.71851616,0,-299.6939889,-64.2013104,0,0,,,,
155.6639999,608,-6409.424425,0,0,0,-0.126999478,105.4318229,-0.014411613,0,-63.6730864,224.8920829,-0.711746232,0,-51.44308209,117.5866707,0,0,,,,
155.6719999,608,-8433.596137,0,0,0,-0.12582475,-324.9992939,-0.01427507,0,40.26395436,-217.5485509,-0.704984338,0,-460.5244198,-209.0747002,0,0,,,,
155.6799999,608,-5888.252327,0,0,0,-0.124651357,338.7435255,-0.014138692,0,54.16971313,116.1791854,-0.698230617,0,-44.67168579,158.1681125,0,0,,,,
155.6879999,608,-7871.116506,0,0,0,-0.123479324,-275.0702447,-0.01400248,0,-83.903669,17.18492454,-0.69148521,0,-316.1131519,-100.4722364,0,0,,,,
155.6959999,608,-7134.325407,0,0,0,-0.122308675,63.09704443,-0.013866438,0,115.5834263,-171.1197299,-0.684748253,0,-324.4914405,-71.12430704,0,0,,,,
155.7039999,608,-6329.00581,0,0,0,-0.121139435,112.0628862,-0.013730568,0,-63.27033214,232.1218946,-0.678019885,0,-54.90643885,126.530265,0,0,,,,
155.7119999,608,-8303.63596,0,0,0,-0.119971627,-308.103233,-0.013594874,0,17.94884712,-219.6647344,-0.671300243,0,-473.4168978,-217.7578693,0,0,,,,
155.7199999,608,-5784.522353,0,0,0,-0.118805276,334.7371416,-0.013459357,0,45.85912437,112.624606,-0.664589462,0,-70.86086774,127.5645517,0,0,,,,
155.7279999,608,-7769.01693,0,0,0,-0.117640405,-277.4995609,-0.013324022,0,-68.90919195,28.49749541,-0.657887677,0,-315.0433333,-108.4002935,0,0,,,,
155.7359999,608,-6992.310134,0,0,0,-0.116477039,77.25021189,-0.013188869,0,120.42341,-159.7890364,-0.651195024,0,-303.3242253,-68.34911914,0,0,,,,
155.7439999,608,-6209.334945,0,0,0,-0.1153152,115.5055872,-0.013053903,0,-58.84840911,236.4398838,-0.644511637,0,-37.23128001,119.4768241,0,0,,,,
155.7519999,608,-8214.720678,0,0,0,-0.114154912,-305.7805263,-0.012919126,0,29.10635333,-212.0860187,-0.637837647,0,-446.3706743,-207.2160311,0,0,,,,
155.7599999,608,-5685.394787,0,0,0,-0.112996199,342.56052,-0.01278454,0,37.66485399,110.73964,-0.631173188,0,-38.91560467,138.9274805,0,0,,,,
155.7679999,608,-7674.33822,0,0,0,-0.111839084,-286.639491,-0.012650148,0,-76.06929009,15.91643823,-0.624518391,0,-301.5994745,-111.9675017,0,0,,,,
155.7759999,608,-6890.99807,0,0,0,-0.110683589,66.8952492,-0.012515953,0,128.7679415,-159.377372,-0.617873387,0,-294.4532226,-61.81383038,0,0,,,,
155.7839999,608,-6108.848362,0,0,0,-0.109529738,105.1964191,-0.012381957,0,-45.27546682,247.3724658,-0.611238306,0,-19.85724474,122.2666719,0,0,,,,
155.7919999,608,-8129.688169,0,0,0,-0.108377553,-330.7802314,-0.012248164,0,58.83233369,-199.7481582,-0.604613278,0,-427.6045853,-212.6113569,0,0,,,,
155.7999999,608,-5587.207809,0,0,0,-0.107227058,324.6597552,-0.012114575,0,74.01540828,130.7244628,-0.59799843,0,-20.54122794,144.1526658,0,0,,,,
155.8079999,608,-7603.478197,0,0,0,-0.106078274,-301.7397372,-0.011981193,0,-53.17814121,38.14516982,-0.591393891,0,-279.0284788,-106.0501994,0,0,,,,
155.8159999,608,-6852.72681,0,0,0,-0.104931225,40.3107683,-0.011848022,0,145.0311554,-143.0407288,-0.584799788,0,-266.2944458,-54.53464587,0,0,,,,
155.8239999,608,-6036.215138,0,0,0,-0.103785931,86.33271034,-0.011715062,0,-38.37040056,257.4810759,-0.578216247,0,-1.284785279,140.2561497,0,0,,,,
155.8319999,608,-8046.637195,0,0,0,-0.102642417,-348.2525367,-0.011582318,0,57.4796157,-196.5179952,-0.571643394,0,-416.8187412,-195.181923,0,0,,,,
155.8399999,608,-5485.133472,0,0,0,-0.101500703,299.651026,-0.01144979,0,77.54301784,129.8344137,-0.565081353,0,7.534283662,156.6855507,0,0,,,,
155.8479999,608,-7423.208407,0,0,0,-0.100360811,-314.0820907,-0.011317483,0,-64.48586393,28.20094243,-0.558530249,0,-247.3666396,-99.19323008,0,0,,,,
155.8559999,608,-6672.704836,0,0,0,-0.099222764,33.47747392,-0.011185398,0,125.7586481,-166.4911297,-0.551990205,0,-252.6685426,-62.43799843,0,0,,,,
155.8639999,608,-5894.94694,0,0,0,-0.098086582,72.96356493,-0.011053539,0,-54.32119328,235.4642373,-0.545461343,0,9.309206955,122.5111553,0,0,,,,
155.8719999,608,-7896.682479,0,0,0,-0.096952288,-362.2502583,-0.010921906,0,26.41444352,-214.2717133,-0.538943785,0,-414.2303875,-216.9592892,0,0,,,,
155.8799999,608,-5375.614583,0,0,0,-0.095819903,281.8216052,-0.010790503,0,53.97148719,113.5411737,-0.532437653,0,-2.665531137,134.896946,0,0,,,,
155.8879999,608,-7355.09688,0,0,0,-0.094689447,-328.817673,-0.010659333,0,-74.00986958,26.93588369,-0.525943067,0,-256.074702,-103.985277,0,0,,,,
155.8959999,608,-6577.69047,0,0,0,-0.093560943,26.66139009,-0.010528397,0,116.5742327,-155.3220357,-0.519460145,0,-257.4210583,-54.02548707,0,0,,,,
155.9039999,609,-5768.917174,0,0,0,-0.092434411,66.48719797,-0.010397698,0,-44.60040974,248.0824535,-0.512989008,0,15.06890372,132.0455868,0,0,,,,
155.9119999,609,-7721.942961,0,0,0,-0.091309872,-360.4854972,-0.010267239,0,45.72488766,-203.3805597,-0.506529772,0,-399.2978729,-199.2937384,0,0,,,,
155.9199999,609,-5137.894476,0,0,0,-0.090187346,298.1693997,-0.010137022,0,62.00529333,121.6096051,-0.500082556,0,15.29082925,158.5005611,0,0,,,,
155.9279999,609,-7110.575611,0,0,0,-0.089066855,-315.9853263,-0.010007048,0,-67.95225606,23.24412921,-0.493647476,0,-241.4944605,-94.20750655,0,0,,,,
155.9359999,609,-6341.976169,0,0,0,-0.087948418,24.33653296,-0.009877322,0,127.1054784,-175.9101219,-0.487224647,0,-255.9447372,-60.00485507,0,0,,,,
155.9439999,609,-5542.329486,0,0,0,-0.086832057,60.93737741,-0.009747844,0,-35.00671393,231.0119251,-0.480814185,0,3.2741554,132.2159741,0,0,,,,
155.9519999,609,-7555.582873,0,0,0,-0.085717791,-369.51635,-0.009618617,0,46.85848332,-207.6262521,-0.474416204,0,-426.6422174,-192.836999,0,0,,,,
155.9599999,609,-4999.973724,0,0,0,-0.08460564,280.3692341,-0.009489644,0,60.60180651,126.9626143,-0.468030817,0,-26.92781685,162.9705907,0,0,,,,
155.9679999,609,-6944.333305,0,0,0,-0.083495624,-331.7302369,-0.009360926,0,-70.86489763,40.12599121,-0.461658138,0,-292.4387112,-89.95981859,0,0,,,,
155.9759999,609,-6160.852003,0,0,0,-0.082387764,18.46219095,-0.009232467,0,100.2809209,-156.7681134,-0.455298278,0,-315.297971,-64.21429768,0,0,,,,
155.9839999,609,-5355.814657,0,0,0,-0.081282078,57.22459247,-0.009104267,0,-82.25899294,241.2657253,-0.448951348,0,-65.56631177,110.6865522,0,0,,,,
155.9919999,609,-7411.280421,0,0,0,-0.080178587,-387.0955778,-0.008976331,0,19.76034501,-206.4288441,-0.442617459,0,-492.7188654,-228.050006,0,0,,,,
155.9999999,609,-4938.147129,0,0,0,-0.079077309,252.1783085,-0.008848659,0,69.65005532,125.7000053,-0.436296721,0,-72.22392377,136.5974483,0,0,,,,
156.0079999,609,-6934.976478,0,0,0,-0.077978264,-358.1133371,-0.008721254,0,-48.95244455,42.44426875,-0.429989243,0,-318.0111853,-96.49633248,0,0,,,,
156.0159999,609,-6183.853417,0,0,0,-0.076881472,-8.554770912,-0.008594118,0,125.7087436,-151.8406358,-0.423695133,0,-332.9699526,-61.74763669,0,0,,,,
156.0239999,609,-5386.472122,0,0,0,-0.075786951,30.06124608,-0.008467253,0,-43.75905838,246.474301,-0.417414498,0,-67.11366432,124.2282026,0,0,,,,
156.0319999,609,-7410.151657,0,0,0,-0.07469472,-404.493149,-0.008340662,0,58.27505688,-196.000207,-0.411147445,0,-468.0874476,-205.1928296,0,0,,,,
156.0399999,609,-4884.065671,0,0,0,-0.073604797,247.9151021,-0.008214346,0,82.79676689,140.8899896,-0.404894081,0,-40.60009595,152.6513948,0,0,,,,
156.0479999,609,-6829.921357,0,0,0,-0.072517203,-354.5901511,-0.008088308,0,-52.69611173,55.18962733,-0.39865451,0,-282.9084333,-91.2133946,0,0,,,,
156.0559999,609,-6060.985386,0,0,0,-0.071431954,-5.899036659,-0.00796255,0,122.5524539,-143.8321068,-0.392428838,0,-288.0961142,-65.56829494,0,0,,,,
156.0639999,609,-5275.557989,0,0,0,-0.07034907,29.16278812,-0.007837074,0,-49.44348142,252.5501732,-0.386217167,0,-18.3459174,118.8354962,0,0,,,,
156.0719999,609,-7302.463336,0,0,0,-0.069268568,-401.2939499,-0.007711882,0,46.83410441,-195.8477373,-0.3800196,0,-415.290958,-205.3475008,0,0,,,,
156.0799999,609,-4782.12702,0,0,0,-0.068190467,246.7552223,-0.007586976,0,61.90419191,123.3278598,-0.373836241,0,1.464917118,141.0094001,0,0,,,,
156.0879999,609,-6778.89741,0,0,0,-0.067114785,-375.3811187,-0.007462358,0,-60.15420433,23.7477296,-0.36766719,0,-243.6929255,-106.9551836,0,0,,,,
156.0959999,609,-6040.040671,0,0,0,-0.06604154,-27.20847371,-0.00733803,0,132.8199494,-178.5075921,-0.361512548,0,-231.6789777,-61.46456133,0,0,,,,
156.1039999,609,-5225.441655,0,0,0,-0.064970749,19.92294195,-0.007213994,0,-59.64776516,215.8462301,-0.355372415,0,34.6463806,120.3352776,0,0,,,,
156.1119999,609,-7252.529967,0,0,0,-0.063902429,-419.9392652,-0.007090253,0,35.7648077,-232.5959846,-0.34924689,0,-374.9150106,-213.3605264,0,0,,,,
156.1199999,609,-4721.312142,0,0,0,-0.0628366,229.2145635,-0.006966808,0,72.14632305,89.63949493,-0.343136072,0,37.7123508,146.9632385,0,0,,,,
156.1279999,609,-6660.927588,0,0,0,-0.061773276,-377.9188461,-0.006843661,0,-65.22415712,-5.083259084,-0.337040059,0,-223.2703958,-105.9142672,0,0,,,,
156.1359999,609,-5907.238742,0,0,0,-0.060712477,-36.19505289,-0.006720814,0,115.9080384,-198.0791085,-0.330958948,0,-221.1591668,-74.55017965,0,0,,,,
156.1439999,609,-5111.068061,0,0,0,-0.059654219,2.54473551,-0.006598269,0,-50.01469099,208.536886,-0.324892834,0,56.68002129,121.3492279,0,0,,,,
156.1519999,609,-7131.132143,0,0,0,-0.058598519,-429.6636396,-0.006476029,0,52.09123938,-235.8813474,-0.318841813,0,-348.7282469,-205.0170821,0,0,,,,
156.1599999,610,-4584.551614,0,0,0,-0.057545394,230.8910665,-0.006354094,0,68.10435979,89.80434699,-0.312805981,0,66.33816483,148.3594319,0,0,,,,
156.1679999,610,-6559.246195,0,0,0,-0.05649486,-380.5684822,-0.006232467,0,-64.07002942,4.298630525,-0.30678543,0,-187.7586914,-100.8535381,0,0,,,,
156.1759999,610,-5814.123699,0,0,0,-0.055446934,-40.72820133,-0.00611115,0,125.2155615,-188.4213841,-0.300780255,0,-194.9144514,-65.96290498,0,0,,,,
156.1839999,610,-4972.013751,0,0,0,-0.054401633,8.39732016,-0.005990144,0,-54.64264702,210.7971712,-0.294790547,0,65.41086906,121.3177095,0,0,,,,
156.1919999,610,-6982.300083,0,0,0,-0.053358972,-427.3690606,-0.005869452,0,34.04754539,-243.1461384,-0.288816399,0,-345.7795941,-216.6919725,0,0,,,,
156.1999999,610,-4420.605607,0,0,0,-0.052318968,222.9055406,-0.005749075,0,47.02167585,76.16546579,-0.282857902,0,75.80369871,136.9747864,0,0,,,,
156.2079999,610,-6383.362686,0,0,0,-0.051281637,-396.0570646,-0.005629015,0,-81.65905402,-13.10862104,-0.276915145,0,-171.9686257,-112.5968178,0,0,,,,
156.2159999,610,-5639.92727,0,0,0,-0.050246996,-54.74227538,-0.005509274,0,106.8389854,-206.5672709,-0.270988218,0,-168.543397,-78.08545493,0,0,,,,
156.2239999,610,-4778.928888,0,0,0,-0.049215059,1.648828709,-0.005389854,0,-85.52538117,197.6680684,-0.265077211,0,93.09209906,117.2326295,0,0,,,,
156.2319999,610,-6803.131396,0,0,0,-0.048185842,-432.4073309,-0.005270757,0,-9.966122118,-254.127605,-0.259182211,0,-340.1438433,-224.7187259,0,0,,,,
156.2399999,610,-4250.972166,0,0,0,-0.047159361,224.0194374,-0.005151984,0,4.951441004,69.83830197,-0.253303305,0,68.09257172,128.0523887,0,0,,,,
156.2479999,610,-6190.739422,0,0,0,-0.046135631,-389.4871284,-0.005033537,0,-127.2982783,-22.63925571,-0.24744058,0,-186.5010021,-116.0793509,0,0,,,,
156.2559999,610,-5463.214081,0,0,0,-0.045114668,-49.88702925,-0.004915417,0,51.49580084,-231.0245986,-0.241594122,0,-197.4704609,-91.29223962,0,0,,,,
156.2639999,610,-4632.104273,0,0,0,-0.044096486,2.641764457,-0.004797627,0,-129.9142005,173.4182208,-0.235764016,0,68.25052964,101.6010586,0,0,,,,
156.2719999,610,-6673.821699,0,0,0,-0.043081102,-443.4751538,-0.004680168,0,-40.58072539,-273.9939946,-0.229950346,0,-359.3158015,-233.7607916,0,0,,,,
156.2799999,610,-4160.412039,0,0,0,-0.042068528,207.3305972,-0.004563043,0,-24.13619663,50.30322842,-0.224153196,0,42.80840077,124.9564679,0,0,,,,
156.2879999,610,-6137.565445,0,0,0,-0.041058781,-401.0917301,-0.004446251,0,-158.6477906,-36.05738255,-0.218372648,0,-211.6140516,-108.3405337,0,0,,,,
156.2959999,610,-5426.707512,0,0,0,-0.040051875,-67.1927796,-0.004329796,0,29.39722368,-243.0401716,-0.212608785,0,-222.5646181,-80.42998811,0,0,,,,
156.3039999,610,-4602.689011,0,0,0,-0.039047825,-12.54839191,-0.004213679,0,-135.8864777,169.190238,-0.206861689,0,53.64385587,113.056259,0,0,,,,
156.3119999,610,-6648.780238,0,0,0,-0.038046644,-449.9497988,-0.004097902,0,-38.62513605,-271.6332277,-0.201131439,0,-357.4590814,-223.9736068,0,0,,,,
156.3199999,610,-4120.528207,0,0,0,-0.037048347,193.6031609,-0.003982465,0,-13.62312163,43.58702828,-0.195418116,0,53.86500169,121.4694447,0,0,,,,
156.3279999,610,-6071.040201,0,0,0,-0.036052949,-414.2930856,-0.003867371,0,-143.2978212,-36.73213229,-0.189721799,0,-198.7378993,-120.4388591,0,0,,,,
156.3359999,610,-5355.0783,0,0,0,-0.035060463,-76.26219597,-0.003752622,0,51.61115609,-231.4581292,-0.184042567,0,-218.599976,-93.20145239,0,0,,,,
156.3439999,610,-4539.316138,0,0,0,-0.034070902,-39.49029453,-0.003638218,0,-102.7929432,175.9384372,-0.178380496,0,53.80578219,100.6712246,0,0,,,,
156.3519999,610,-6592.196227,0,0,0,-0.033084282,-482.329188,-0.003524162,0,-2.055181644,-263.0987927,-0.172735665,0,-352.1526698,-225.4357585,0,0,,,,
156.3599999,610,-4053.960957,0,0,0,-0.032100615,179.1663726,-0.003410455,0,22.96943779,60.10731338,-0.167108148,0,65.07818176,127.2385339,0,0,,,,
156.3679999,610,-6003.380914,0,0,0,-0.031119915,-430.6204846,-0.003297098,0,-106.7430585,-26.81326047,-0.161498023,0,-181.4685319,-123.7084334,0,0,,,,
156.3759999,610,-5286.65838,0,0,0,-0.030142195,-89.35794911,-0.003184094,0,83.86467345,-229.0954798,-0.155905364,0,-188.2833373,-90.46539724,0,0,,,,
156.3839999,610,-4440.183961,0,0,0,-0.029167468,-30.05881954,-0.003071443,0,-86.40055459,176.2918343,-0.150330244,0,88.8245089,113.6166777,0,0,,,,
156.3919999,610,-6491.289413,0,0,0,-0.028195748,-474.6664237,-0.002959147,0,8.413725353,-274.4158241,-0.144772737,0,-330.7372097,-226.9990718,0,0,,,,
156.3999999,610,-3941.79361,0,0,0,-0.027227048,188.4687499,-0.002847208,0,38.22909161,41.72259714,-0.139232916,0,86.21496609,122.8125944,0,0,,,,
156.4079999,610,-5878.343798,0,0,0,-0.02626138,-419.8296763,-0.002735626,0,-92.37937847,-43.06963614,-0.133710853,0,-160.9520992,-124.0636725,0,0,,,,
156.4159999,611,-5181.084076,0,0,0,-0.025298757,-97.64161373,-0.002624404,0,107.1055389,-245.9859507,-0.128206618,0,-176.8196696,-106.1205681,0,0,,,,
156.4239999,611,-4300.747262,0,0,0,-0.024339192,-30.00601464,-0.002513543,0,-58.81109677,170.594545,-0.122720282,0,108.8616706,98.02246128,0,0,,,,
156.4319999,611,-6336.174376,0,0,0,-0.023382697,-465.6553797,-0.002403044,0,26.7524864,-262.8527338,-0.117251916,0,-309.6715087,-231.7690157,0,0,,,,
156.4399999,611,-3811.300535,0,0,0,-0.022429284,184.314396,-0.002292909,0,62.56160123,63.68237326,-0.111801587,0,99.24329678,115.4603015,0,0,,,,
156.4479999,611,-5743.126851,0,0,0,-0.021478967,-418.6515467,-0.002183138,0,-66.62283847,-17.69067483,-0.106369365,0,-148.7945538,-129.7335078,0,0,,,,
156.4559999,611,-5047.808144,0,0,0,-0.020531756,-83.49534487,-0.002073734,0,112.3532241,-225.9429186,-0.100955316,0,-176.221805,-107.8778498,0,0,,,,
156.4639999,611,-4196.592919,0,0,0,-0.019587664,-25.17231852,-0.001964698,0,-55.99207914,184.1648375,-0.095559508,0,97.12169567,90.72296808,0,0,,,,
156.4719999,611,-6270.563924,0,0,0,-0.018646702,-469.5341033,-0.001856031,0,40.44234838,-256.8722088,-0.090182007,0,-315.0980825,-232.8616708,0,0,,,,
156.4799999,611,-3746.33241,0,0,0,-0.017708884,190.477308,-0.001747734,0,63.97989155,62.3696027,-0.084822878,0,98.90958851,128.896831,0,0,,,,
156.4879999,611,-5660.649203,0,0,0,-0.016774219,-408.2036255,-0.001639809,0,-79.40678976,-18.87310787,-0.079482186,0,-150.2279565,-114.9499682,0,0,,,,
156.4959999,611,-4979.806951,0,0,0,-0.015842719,-76.68726975,-0.001532257,0,109.420506,-229.567552,-0.074159995,0,-162.2783577,-92.37744238,0,0,,,,
156.5039999,611,-4134.177121,0,0,0,-0.014914397,-23.52465865,-0.00142508,0,-50.46645422,174.4841341,-0.068856368,0,129.4294731,111.1255961,0,0,,,,
156.5119999,611,-6180.624946,0,0,0,-0.013989262,-471.0346076,-0.001318278,0,38.0868862,-267.5205699,-0.063571368,0,-280.8257813,-216.89697,0,0,,,,
156.5199999,611,-3627.400952,0,0,0,-0.013067327,191.4392962,-0.001211852,0,54.22878596,47.40599555,-0.058305056,0,131.392033,134.3439975,0,0,,,,
156.5279999,611,-5538.518565,0,0,0,-0.012148602,-414.9089085,-0.001105805,0,-83.782429,-31.54026587,-0.053057494,0,-115.5633428,-104.3836816,0,0,,,,
156.5359999,611,-4845.671206,0,0,0,-0.011233098,-87.99020631,-0.001000137,0,113.6608078,-235.9509624,-0.047828742,0,-131.3594699,-71.75451002,0,0,,,,
156.5439999,611,-3944.207965,0,0,0,-0.010320825,-18.41919679,-0.000894849,0,-60.99336494,160.2668477,-0.04261886,0,142.3968821,117.1501335,0,0,,,,
156.5519999,611,-5978.523328,0,0,0,-0.009411795,-467.3593739,-0.000789944,0,18.48283,-288.1518415,-0.037427906,0,-289.3774437,-233.6412496,0,0,,,,
156.5599999,611,-3461.886383,0,0,0,-0.008506018,183.3281518,-0.000685421,0,64.32452767,33.70320569,-0.03225594,0,131.1323487,121.2972587,0,0,,,,
156.5679999,611,-5383.923564,0,0,0,-0.007603504,-411.3726979,-0.000581282,0,-55.91105358,-35.62787678,-0.027103019,0,-95.69739852,-106.4861989,0,0,,,,
156.5759999,611,-4694.080921,0,0,0,-0.006704264,-79.96922665,-0.000477528,0,127.7116147,-238.5196039,-0.0219692,0,-120.8784734,-80.32869625,0,0,,,,
156.5839999,611,-3801.513394,0,0,0,-0.005808307,-16.52189371,-0.000374161,0,-49.15587971,161.0161792,-0.016854538,0,145.2035266,112.2669524,0,0,,,,
156.5919999,611,-5854.786395,0,0,0,-0.004915644,-462.3305544,-0.000271181,0,39.42494311,-281.7736889,-0.01175909,0,-275.7245999,-224.9756634,0,0,,,,
156.5999999,611,-3319.309176,0,0,0,-0.004026284,198.4106428,-0.00016859,0,68.64148479,41.85361655,-0.006682911,0,141.2700709,131.4441736,0,0,,,,
156.6079999,611,-5208.334867,0,0,0,-0.003140237,-396.7037682,-6.64E-05,0,-72.18229682,-35.62840063,-0.001626053,0,-106.243937,-106.6843912,0,0,,,,
156.6159999,611,-4543.140647,0,0,0,-0.002257514,-75.79028001,3.54E-05,0,121.1303454,-253.4087335,0.003411428,0,-132.1119101,-86.20158365,0,0,,,,
156.6239999,611,-3669.728337,0,0,0,-0.001378122,-13.1603392,0.000136842,0,-43.56278452,155.4390928,0.008429481,0,149.9821831,118.4415462,0,0,,,,
156.6319999,611,-5716.369357,0,0,0,-0.000502073,-454.6481121,0.000237868,0,42.43262025,-272.2656858,0.013428053,0,-274.435897,-212.1176798,0,0,,,,
156.6399999,611,-3184.396325,0,0,0,0.000370625,201.5513191,0.000338501,0,63.82739022,38.64235946,0.018407093,0,133.9577138,128.334887,0,0,,,,
156.6479999,611,-5095.212367,0,0,0,0.001239964,-406.1453023,0.000438738,0,-79.71693969,-48.71518586,0.023366551,0,-108.7041811,-125.322058,0,0,,,,
156.6559999,611,-4431.096744,0,0,0,0.002105932,-78.22829141,0.00053858,0,122.1620115,-250.7785972,0.028306376,0,-120.75338,-95.05556138,0,0,,,,
156.6639999,611,-3529.192368,0,0,0,0.002968523,-3.83556827,0.000638024,0,-53.89904368,158.2966431,0.033226519,0,164.9223499,113.4205188,0,0,,,,
156.6719999,612,-5565.523524,0,0,0,0.003827727,-456.4061228,0.000737071,0,11.28434118,-290.1080781,0.038126931,0,-274.5642326,-236.7340933,0,0,,,,
156.6799999,612,-3035.166763,0,0,0,0.004683535,191.4709907,0.000835718,0,56.73172775,27.65849167,0.043007565,0,137.9665394,105.9765831,0,0,,,,
156.6879999,612,-4952.974556,0,0,0,0.005535938,-419.1533212,0.000933966,0,-67.32644264,-48.06554612,0.047868374,0,-95.01584696,-131.0170484,0,0,,,,
156.6959999,612,-4277.451376,0,0,0,0.00638493,-95.13262786,0.001031813,0,114.9235267,-259.21534,0.05270931,0,-120.1431095,-108.4837376,0,0,,,,
156.7039999,612,-3381.09049,0,0,0,0.0072305,-28.603722,0.001129258,0,-47.76201975,154.5597015,0.057530329,0,165.4912823,92.54065731,0,0,,,,
156.7119999,612,-5473.075626,0,0,0,0.008072641,-488.1640769,0.001226301,0,42.09449291,-283.3095292,0.062331384,0,-263.6382017,-240.2021023,0,0,,,,
156.7199999,612,-2952.058001,0,0,0,0.008911345,173.2884416,0.00132294,0,66.58851343,34.23443432,0.067112431,0,147.3709238,119.3861886,0,0,,,,
156.7279999,612,-4852.123572,0,0,0,0.009746603,-419.9921458,0.001419175,0,-65.89160133,-30.64999819,0.071873427,0,-88.65246494,-110.1945111,0,0,,,,
156.7359999,612,-4185.625324,0,0,0,0.010578408,-93.66284585,0.001515004,0,119.3791221,-235.2935024,0.076614328,0,-118.9042079,-82.65135803,0,0,,,,
156.7439999,612,-3284.468506,0,0,0,0.011406753,-28.00727875,0.001610427,0,-58.41596124,165.6482161,0.081335091,0,160.1394748,117.9557061,0,0,,,,
156.7519999,612,-5355.506759,0,0,0,0.012231629,-480.3936612,0.001705443,0,40.5007393,-271.6390025,0.086035676,0,-264.1327622,-214.3214684,0,0,,,,
156.7599999,612,-2817.630515,0,0,0,0.013053029,180.6851977,0.001800051,0,71.52484168,54.84841817,0.09071604,0,154.3104801,139.887995,0,0,,,,
156.7679999,612,-4731.343987,0,0,0,0.013870946,-424.2003696,0.001894251,0,-72.63273835,-21.85154784,0.095376144,0,-94.58447242,-106.4962427,0,0,,,,
156.7759999,612,-4085.951001,0,0,0,0.014685372,-96.43672381,0.00198804,0,112.9504011,-240.9643582,0.100015947,0,-136.597703,-95.09319119,0,0,,,,
156.7839999,612,-3201.672796,0,0,0,0.0154963,-29.60960262,0.00208142,0,-60.01690265,167.0126925,0.10463541,0,152.7091765,100.5817328,0,0,,,,
156.7919999,612,-5303.631248,0,0,0,0.016303724,-487.4235656,0.002174389,0,32.4771909,-269.3490079,0.109234496,0,-272.6655001,-229.5510868,0,0,,,,
156.7999999,612,-2774.453877,0,0,0,0.017107636,181.0422028,0.002266946,0,53.30066221,44.86657227,0.113813165,0,141.3213277,130.0060603,0,0,,,,
156.8079999,612,-4702.338031,0,0,0,0.017908029,-423.8935757,0.00235909,0,-81.77000144,-27.02582955,0.118371381,0,-90.03323101,-104.0027308,0,0,,,,
156.8159999,612,-4059.864911,0,0,0,0.018704897,-101.5282841,0.002450821,0,106.0243799,-241.5037342,0.122909107,0,-118.3026085,-83.51157801,0,0,,,,
156.8239999,612,-3144.187038,0,0,0,0.019498234,-34.88508259,0.002542137,0,-74.77716367,156.1177938,0.127426308,0,170.7919056,113.4111661,0,0,,,,
156.8319999,612,-5251.432912,0,0,0,0.020288032,-496.5637205,0.002633039,0,30.9033517,-290.7932806,0.131922949,0,-254.1972692,-220.2033281,0,0,,,,
156.8399999,612,-2717.320863,0,0,0,0.021074285,177.3882098,0.002723526,0,53.66917991,22.23540714,0.136398994,0,156.9179722,129.3018339,0,0,,,,
156.8479999,612,-4637.638623,0,0,0,0.021856988,-432.3064385,0.002813596,0,-95.55072628,-45.20851046,0.140854409,0,-91.17088241,-116.5068508,0,0,,,,
156.8559999,612,-4023.48785,0,0,0,0.022636134,-119.1473418,0.002903249,0,116.695158,-253.2572136,0.145289163,0,-120.5823341,-90.83148143,0,0,,,,
156.8639999,612,-3091.668005,0,0,0,0.023411717,-27.50176035,0.002992485,0,-45.97991947,160.1244268,0.149703221,0,189.6506511,124.9884429,0,0,,,,
156.8719999,612,-5202.014348,0,0,0,0.024183731,-477.4873038,0.003081303,0,27.44032552,-277.9151069,0.154096553,0,-239.0738653,-207.9208389,0,0,,,,
156.8799999,612,-2694.71057,0,0,0,0.02495217,179.4696302,0.003169702,0,58.57107359,33.99610613,0.158469126,0,171.3113553,140.8895094,0,0,,,,
156.8879999,612,-4566.55116,0,0,0,0.025717029,-425.7386943,0.003257682,0,-63.96880568,-32.71426775,0.162820911,0,-48.05487878,-91.02816652,0,0,,,,
156.8959999,612,-3893.403242,0,0,0,0.026478303,-101.7393021,0.003345241,0,115.9035033,-243.4402476,0.167151876,0,-78.12060686,-67.97553986,0,0,,,,
156.9039999,612,-2908.105926,0,0,0,0.027235985,-12.16212066,0.00343238,0,-75.75309115,167.2224188,0.171461993,0,209.5793932,127.9324382,0,0,,,,
156.9119999,612,-4950.609167,0,0,0,0.02799007,-466.7703942,0.003519098,0,5.561734586,-274.6442894,0.175751234,0,-226.154157,-220.4698295,0,0,,,,
156.9199999,612,-2390.293766,0,0,0,0.028740553,194.6495326,0.003605394,0,38.44404633,35.54056213,0.180019569,0,178.4635093,125.5032375,0,0,,,,
156.9279999,613,-4274.373816,0,0,0,0.02948743,-407.2766332,0.003691267,0,-92.43593086,-31.92118259,0.184266972,0,-63.42323651,-113.1230631,0,0,,,,
156.9359999,613,-3657.092969,0,0,0,0.030230695,-91.68907236,0.003776718,0,101.6262298,-245.8286372,0.188493415,0,-113.9965663,-97.31646674,0,0,,,,
156.9439999,613,-2681.491567,0,0,0,0.030970342,-5.791064595,0.003861745,0,-74.35261879,170.5386142,0.192698873,0,173.8289044,105.9291375,0,0,,,,
156.9519999,613,-4760.986534,0,0,0,0.031706368,-468.6266691,0.003946348,0,10.66550221,-267.3542864,0.196883319,0,-276.6058418,-241.0045999,0,0,,,,
156.9599999,613,-2219.763087,0,0,0,0.032438768,195.0195771,0.004030527,0,44.28340071,46.25460857,0.20104673,0,113.4149943,113.4316144,0,0,,,,
156.9679999,613,-4057.074678,0,0,0,0.033167537,-397.0577651,0.004114281,0,-103.0632536,-20.33185014,0.20518908,0,-118.8725644,-113.4260976,0,0,,,,
156.9759999,613,-3453.870131,0,0,0,0.033892671,-87.60300765,0.00419761,0,89.70658077,-250.2255144,0.209310346,0,-174.1681226,-105.1733436,0,0,,,,
156.9839999,613,-2503.666417,0,0,0,0.034614164,1.974518359,0.004280512,0,-71.32916014,162.8007654,0.213410505,0,109.6160173,107.4202331,0,0,,,,
156.9919999,613,-4594.155733,0,0,0,0.035332014,-461.056655,0.004362989,0,12.14385804,-277.0730139,0.217489535,0,-325.1402814,-224.6221772,0,0,,,,
156.9999999,613,-2082.914502,0,0,0,0.036046216,187.9411173,0.004445038,0,42.35687305,14.91453668,0.221547413,0,63.50681061,118.4057026,0,0,,,,
157.0079999,613,-3948.022016,0,0,0,0.036756766,-414.8915599,0.00452666,0,-91.63667549,-53.53790231,0.225584119,0,-169.7965057,-115.5184062,0,0,,,,
157.0159999,613,-3370.815013,0,0,0,0.03746366,-115.5571036,0.004607855,0,125.7147451,-266.0306532,0.229599631,0,-195.6251815,-95.87951646,0,0,,,,
157.0239999,613,-2420.849797,0,0,0,0.038166895,-29.6940252,0.004688621,0,-32.1125044,160.1862264,0.23359393,0,112.3399896,121.8713663,0,0,,,,
157.0319999,613,-4499.109585,0,0,0,0.038866465,-487.2050396,0.004768959,0,29.9608367,-271.3054635,0.237566997,0,-320.0440586,-222.9528572,0,0,,,,
157.0399999,613,-1970.76065,0,0,0,0.039562369,172.6913773,0.004848869,0,52.65487894,32.7904607,0.241518812,0,73.59524263,116.7549384,0,0,,,,
157.0479999,613,-3817.295974,0,0,0,0.040254602,-416.8311154,0.004928349,0,-81.30970646,-25.73782026,0.245449358,0,-143.3344258,-107.0850962,0,0,,,,
157.0559999,613,-3220.310537,0,0,0,0.040943162,-107.2841348,0.005007399,0,107.3051279,-244.7615551,0.249358617,0,-170.5974955,-93.10891965,0,0,,,,
157.0639999,613,-2261.548851,0,0,0,0.041628044,-25.84129669,0.00508602,0,-67.51103808,175.2133049,0.253246572,0,125.7051572,112.7303479,0,0,,,,
157.0719999,613,-4377.916174,0,0,0,0.042309245,-492.4857906,0.00516421,0,24.41828264,-257.3391517,0.257113207,0,-287.1735896,-226.406948,0,0,,,,
157.0799999,613,-1860.368149,0,0,0,0.042986764,176.4359255,0.00524197,0,55.74428551,44.37328714,0.260958506,0,125.4559445,123.8221343,0,0,,,,
157.0879999,613,-3705.71664,0,0,0,0.043660596,-411.3703181,0.005319299,0,-99.17806044,-20.52443719,0.264782454,0,-107.469738,-110.3918386,0,0,,,,
157.0959999,613,-3138.184241,0,0,0,0.044330738,-108.5906986,0.005396196,0,95.47741483,-246.9878386,0.268585036,0,-144.6954679,-105.8952941,0,0,,,,
157.1039999,613,-2180.287714,0,0,0,0.044997189,-26.93504287,0.005472663,0,-67.98941455,171.1814215,0.272366238,0,160.6851164,105.6933526,0,0,,,,
157.1119999,613,-4312.535777,0,0,0,0.045659945,-505.5319749,0.005548697,0,26.84712719,-265.3974199,0.276126048,0,-258.8522098,-233.1935294,0,0,,,,
157.1199999,613,-1832.153345,0,0,0,0.046319004,150.9118022,0.0056243,0,77.3666329,44.13242363,0.279864452,0,154.7040255,128.2067896,0,0,,,,
157.1279999,613,-3702.408695,0,0,0,0.046974364,-444.3536952,0.00569947,0,-62.65448154,-2.871818011,0.283581438,0,-59.82699203,-87.1719969,0,0,,,,
157.1359999,613,-3110.056328,0,0,0,0.047626021,-132.6695905,0.005774208,0,119.2119907,-223.3338706,0.287276995,0,-95.62370753,-77.46010861,0,0,,,,
157.1439999,613,-2096.09437,0,0,0,0.048273975,-24.27709545,0.005848513,0,-65.65276167,200.0569428,0.290951111,0,199.7149687,134.4989687,0,0,,,,
157.1519999,613,-4230.859036,0,0,0,0.048918222,-497.8226579,0.005922385,0,16.13489588,-234.9223899,0.294603776,0,-230.1794747,-215.6647094,0,0,,,,
157.1599999,613,-1705.582834,0,0,0,0.04955876,164.7930578,0.005995824,0,54.13391811,64.60859611,0.298234981,0,182.6807062,131.0658354,0,0,,,,
157.1679999,613,-3482.834402,0,0,0,0.050195589,-415.2634646,0.00606883,0,-99.60053356,3.289057328,0.301844716,0,-39.99370053,-91.51779273,0,0,,,,
157.1759999,613,-2873.534169,0,0,0,0.050828705,-114.3105213,0.006141403,0,85.50180342,-234.6200257,0.305432972,0,-97.83728677,-93.42938762,0,0,,,,
157.1839999,614,-1845.173675,0,0,0,0.051458107,-14.91242729,0.006213541,0,-79.39453211,183.2189645,0.308999741,0,207.5022261,123.1914818,0,0,,,,
157.1919999,614,-3952.834144,0,0,0,0.052083794,-484.5396808,0.006285246,0,7.084163845,-254.2820601,0.312545017,0,-205.9229037,-214.7653566,0,0,,,,
157.1999999,614,-1447.671422,0,0,0,0.052705765,166.9682895,0.006356517,0,53.5373301,35.66659645,0.316068791,0,197.511403,128.022523,0,0,,,,
157.2079999,614,-3293.509211,0,0,0,0.053324016,-427.6284375,0.006427354,0,-73.69422175,-21.02571528,0.319571057,0,-23.71554092,-87.66330929,0,0,,,,
157.2159999,614,-2744.582896,0,0,0,0.053938548,-122.0991607,0.006497756,0,109.9672933,-249.6639135,0.32305181,0,-68.86523723,-83.0674844,0,0,,,,
157.2239999,614,-1728.746038,0,0,0,0.054549359,-21.08948165,0.006567724,0,-71.1169125,172.5447938,0.326511044,0,233.2270648,118.9435228,0,0,,,,
157.2319999,614,-3856.155805,0,0,0,0.055156448,-502.1268641,0.006637258,0,20.52033487,-256.8253791,0.329948755,0,-191.1142927,-227.4038267,0,0,,,,
157.2399999,614,-1344.942827,0,0,0,0.055759814,158.687228,0.006706358,0,63.20031436,43.14117656,0.333364939,0,213.3923412,114.6839085,0,0,,,,
157.2479999,614,-3149.195475,0,0,0,0.056359456,-424.1257574,0.006775022,0,-84.60169527,-6.926445947,0.336759591,0,-8.664681705,-113.2028261,0,0,,,,
157.2559999,614,-2593.029508,0,0,0,0.056955372,-124.1014562,0.006843253,0,100.322886,-238.2591861,0.340132709,0,-60.07877809,-112.0283954,0,0,,,,
157.2639999,614,-1598.069732,0,0,0,0.057547564,-18.7593569,0.006911048,0,-72.67064529,176.1727584,0.343484291,0,248.4537944,106.2120671,0,0,,,,
157.2719999,614,-3745.217958,0,0,0,0.058136029,-491.3076219,0.006978409,0,14.39649781,-263.8441553,0.346814334,0,-172.3073745,-229.4851178,0,0,,,,
157.2799999,614,-1238.216947,0,0,0,0.058720767,171.749718,0.007045334,0,48.91860664,23.10307006,0.350122838,0,223.3493026,112.8168138,0,0,,,,
157.2879999,614,-3085.81792,0,0,0,0.059301778,-414.6642018,0.007111826,0,-100.8391997,-31.21478921,0.353409801,0,0.051777255,-111.0679214,0,0,,,,
157.2959999,614,-2568.964109,0,0,0,0.059879061,-114.9788986,0.007177882,0,101.0983028,-258.6338988,0.356675223,0,-45.64727712,-96.69610831,0,0,,,,
157.3039999,614,-1566.974458,0,0,0,0.060452616,-12.02210876,0.007243503,0,-64.60796375,159.3278154,0.359919104,0,256.6895222,121.1758926,0,0,,,,
157.3119999,614,-3734.155286,0,0,0,0.061022443,-498.0634191,0.00730869,0,18.70566093,-275.0742825,0.363141446,0,-173.4111676,-227.6829019,0,0,,,,
157.3199999,614,-1208.330862,0,0,0,0.061588543,165.6596567,0.007373442,0,62.80219841,24.14755037,0.366342249,0,227.8579031,123.4029819,0,0,,,,
157.3279999,614,-3034.851292,0,0,0,0.062150914,-429.0556182,0.007437759,0,-80.64254554,-25.99568147,0.369521516,0,6.867861494,-93.54773542,0,0,,,,
157.3359999,614,-2528.90815,0,0,0,0.062709557,-143.9723466,0.007501642,0,123.5057434,-263.4601314,0.372679249,0,-39.49698278,-88.8911581,0,0,,,,
157.3439999,614,-1476.245065,0,0,0,0.063264472,-24.97329552,0.00756509,0,-46.46131729,151.201251,0.37581545,0,270.7743037,131.1747406,0,0,,,,
157.3519999,614,-3623.119777,0,0,0,0.06381566,-499.2635157,0.007628103,0,20.55008759,-287.1923231,0.378930124,0,-167.4418531,-216.3823081,0,0,,,,
157.3599999,614,-1117.332637,0,0,0,0.064363121,164.7587634,0.007690682,0,58.22223303,3.979153341,0.382023274,0,223.0826488,128.7270117,0,0,,,,
157.3679999,614,-2940.996071,0,0,0,0.064906855,-425.1065337,0.007752826,0,-79.54574557,-39.71418104,0.385094906,0,7.480667122,-86.42086705,0,0,,,,
157.3759999,614,-2443.921032,0,0,0,0.065446864,-138.4876739,0.007814537,0,124.1944301,-266.613488,0.388145023,0,-36.58916247,-80.68349173,0,0,,,,
157.3839999,614,-1401.613124,0,0,0,0.065983147,-19.06691421,0.007875813,0,-49.20563175,150.3330704,0.391173633,0,272.0558661,134.7248422,0,0,,,,
157.3919999,614,-3566.350437,0,0,0,0.066515705,-498.1792343,0.007936655,0,25.35739318,-287.3989912,0.39418074,0,-163.2413274,-212.595175,0,0,,,,
157.3999999,614,-1064.786162,0,0,0,0.06704454,162.9536699,0.007997063,0,75.20833263,11.5763267,0.397166351,0,240.0749357,137.912094,0,0,,,,
157.4079999,614,-2874.433406,0,0,0,0.067569652,-425.5994982,0.008057037,0,-66.73452608,-32.78154106,0.400130474,0,29.54677587,-82.72846174,0,0,,,,
157.4159999,614,-2373.195315,0,0,0,0.068091042,-140.1704461,0.008116577,0,124.6991285,-264.3861859,0.403073117,0,-24.68207919,-83.14174022,0,0,,,,
157.4239999,614,-1322.739891,0,0,0,0.068608712,-20.98796793,0.008175684,0,-42.0683035,164.3508568,0.405994287,0,283.2142926,143.7236176,0,0,,,,
157.4319999,614,-3484.890396,0,0,0,0.069122662,-507.0854533,0.008234358,0,34.43836191,-273.0065823,0.408893993,0,-151.8994151,-198.0556797,0,0,,,,
157.4399999,615,-955.1418438,0,0,0,0.069632895,156.7381862,0.008292599,0,72.76986505,17.16206051,0.411772245,0,247.1478844,151.8095305,0,0,,,,
157.4479999,615,-2740.55643,0,0,0,0.07013941,-418.5325096,0.008350407,0,-74.44016789,-27.80696077,0.414629051,0,26.66950813,-66.13214022,0,0,,,,
157.4559999,615,-2243.238007,0,0,0,0.070642211,-132.9130882,0.008407782,0,113.3311237,-270.4701006,0.417464424,0,-41.19923772,-71.70903933,0,0,,,,
157.4639999,615,-1172.950021,0,0,0,0.071141298,-16.71181459,0.008464724,0,-54.26529289,145.4560597,0.420278372,0,268.3481356,151.6960687,0,0,,,,
157.4719999,615,-3338.3017,0,0,0,0.071636673,-505.2269124,0.008521234,0,20.1780153,-296.9721032,0.423070908,0,-173.2363751,-203.1430738,0,0,,,,
157.4799999,615,-828.3515114,0,0,0,0.072128338,155.8687192,0.008577312,0,66.00138254,-3.183069785,0.425842042,0,216.3189523,134.9197753,0,0,,,,
157.4879999,615,-2615.671703,0,0,0,0.072616294,-421.0442151,0.008632959,0,-71.01653204,-38.32164021,0.428591788,0,9.987239189,-72.47200231,0,0,,,,
157.4959999,615,-2103.672252,0,0,0,0.073100544,-132.3017221,0.008688174,0,111.6832249,-274.2594339,0.431320158,0,-46.73970905,-78.95712777,0,0,,,,
157.5039999,615,-1018.617833,0,0,0,0.07358109,-14.66882825,0.008742957,0,-56.18824814,153.1634546,0.434027165,0,258.1937201,137.4992735,0,0,,,,
157.5119999,615,-3200.910277,0,0,0,0.074057933,-509.7294764,0.00879731,0,24.48845582,-280.6107467,0.436712823,0,-182.5040581,-204.2975993,0,0,,,,
157.5199999,615,-692.9457781,0,0,0,0.074531076,152.3500494,0.008851231,0,67.17690348,15.28994687,0.439377146,0,220.3223218,142.3380573,0,0,,,,
157.5279999,615,-2496.088933,0,0,0,0.075000521,-429.1887748,0.008904723,0,-68.3684005,-22.07159413,0.442020149,0,19.51009752,-68.48656759,0,0,,,,
157.5359999,615,-2008.429489,0,0,0,0.075466271,-145.7758911,0.008957784,0,127.8063185,-263.4276538,0.444641846,0,-39.27254164,-68.26964723,0,0,,,,
157.5439999,615,-910.8371795,0,0,0,0.075928328,-22.15490921,0.009010415,0,-51.09948488,163.7581928,0.447242254,0,264.6112593,152.6079423,0,0,,,,
157.5519999,615,-3101.467271,0,0,0,0.076386694,-516.2303064,0.009062617,0,7.326585395,-285.5408121,0.449821389,0,-188.5266798,-205.4143903,0,0,,,,
157.5599999,615,-582.3437268,0,0,0,0.076841372,157.9962212,0.009114389,0,45.32204299,-3.44931953,0.452379266,0,209.0585918,131.6978673,0,0,,,,
157.5679999,615,-2385.660539,0,0,0,0.077292364,-413.6483146,0.009165733,0,-93.18400665,-32.08423561,0.454915904,0,7.706171377,-77.81754101,0,0,,,,
157.5759999,615,-1932.603331,0,0,0,0.077739674,-136.1844279,0.009216648,0,110.4105059,-272.498712,0.45743132,0,-58.48638829,-85.53385351,0,0,,,,
157.5839999,615,-837.5361444,0,0,0,0.078183305,-8.084937631,0.009267135,0,-56.2480097,160.529539,0.45992553,0,261.4925173,136.2492077,0,0,,,,
157.5919999,615,-3067.025524,0,0,0,0.078623258,-504.9016766,0.009317195,0,14.85736535,-273.8004204,0.462398556,0,-175.3400461,-212.1703144,0,0,,,,
157.5999999,615,-551.7660568,0,0,0,0.079059538,161.0186188,0.009366827,0,69.16049791,10.2243268,0.464850414,0,217.5834616,132.1476317,0,0,,,,
157.6079999,615,-2315.47528,0,0,0,0.079492147,-413.5386987,0.009416032,0,-83.01080868,-25.4564615,0.467281124,0,10.61778453,-77.10380007,0,0,,,,
157.6159999,615,-1899.466028,0,0,0,0.079921089,-146.934245,0.00946481,0,97.09334473,-282.0386434,0.469690707,0,-65.37209838,-94.44990786,0,0,,,,
157.6239999,615,-845.345356,0,0,0,0.080346366,-23.23653396,0.009513162,0,-61.29571081,142.6308439,0.472079182,0,246.1066404,130.2304825,0,0,,,,
157.6319999,615,-3096.454174,0,0,0,0.080767983,-511.2073315,0.009561089,0,18.89771693,-285.6103425,0.474446571,0,-188.8499439,-206.3155093,0,0,,,,
157.6399999,615,-604.021286,0,0,0,0.081185942,164.685834,0.00960859,0,62.43281335,3.740393143,0.476792893,0,213.810904,142.1757784,0,0,,,,
157.6479999,615,-2372.864904,0,0,0,0.081600247,-412.2511409,0.009655666,0,-89.97712193,-25.01652145,0.479118172,0,0.246292884,-66.74592918,0,0,,,,
157.6559999,615,-1920.038694,0,0,0,0.082010901,-140.4384725,0.009702318,0,104.5073921,-274.4294935,0.481422429,0,-90.34786021,-82.44881379,0,0,,,,
157.6639999,615,-789.1698776,0,0,0,0.082417909,5.384583549,0.009748545,0,-60.79078283,157.1788997,0.483705687,0,234.4783654,149.0418763,0,0,,,,
157.6719999,615,-2991.123566,0,0,0,0.082821274,-477.6829558,0.009794349,0,-4.93703479,-277.0099667,0.485967969,0,-208.8383498,-193.7403873,0,0,,,,
157.6799999,615,-541.7639694,0,0,0,0.083220999,195.5395569,0.00983973,0,38.28613878,-0.478362462,0.488209297,0,163.8158766,135.6023944,0,0,,,,
157.6879999,615,-2452.315759,0,0,0,0.083617089,-380.2192088,0.009884689,0,-91.5577588,-29.592567,0.490429697,0,-43.48728695,-71.97409748,0,0,,,,
157.6959999,616,-2082.163708,0,0,0,0.084009548,-105.9620736,0.009929225,0,105.1712578,-283.651735,0.492629192,0,-120.377988,-81.07176056,0,0,,,,
157.7039999,616,-994.2693412,0,0,0,0.084398379,44.19335732,0.00997334,0,-76.91052588,140.6492736,0.494807807,0,190.8217866,140.5741372,0,0,,,,
157.7119999,616,-3298.637615,0,0,0,0.084783587,-453.3222351,0.010017033,0,-11.08644001,-298.1412187,0.496965567,0,-264.1693838,-202.7913167,0,0,,,,
157.7199999,616,-823.1447213,0,0,0,0.085165176,219.5838713,0.010060306,0,44.67388726,-14.42939207,0.499102498,0,136.3926174,143.3605226,0,0,,,,
157.7279999,616,-2628.934735,0,0,0,0.08554315,-345.1747075,0.010103159,0,-105.9723354,-31.20955059,0.501218625,0,-59.23382714,-59.29232143,0,0,,,,
157.7359999,616,-2219.744431,0,0,0,0.085917513,-77.45641025,0.010145592,0,83.48134822,-286.1146715,0.503313976,0,-146.9677769,-69.45146412,0,0,,,,
157.7439999,616,-1105.941909,0,0,0,0.08628827,75.64368354,0.010187606,0,-82.1153884,148.3162646,0.505388577,0,182.3040956,162.9288765,0,0,,,,
157.7519999,616,-3366.385323,0,0,0,0.086655426,-429.1008352,0.010229202,0,-12.97637837,-284.2600561,0.507442455,0,-265.3040832,-185.0054188,0,0,,,,
157.7599999,616,-799.0311726,0,0,0,0.087018985,246.5805624,0.01027038,0,27.81364639,-11.65817133,0.509475639,0,130.0664779,146.7535889,0,0,,,,
157.7679999,616,-2611.319147,0,0,0,0.087378951,-309.8182443,0.01031114,0,-139.9702508,-35.36510071,0.511488155,0,-77.9515069,-69.45616003,0,0,,,,
157.7759999,616,-2259.582786,0,0,0,0.08773533,-63.54010175,0.010351484,0,56.33575873,-299.8342721,0.513480034,0,-177.8359592,-93.40978349,0,0,,,,
157.7839999,616,-1102.864253,0,0,0,0.088088125,98.43181727,0.010391412,0,-97.15462572,132.7922438,0.515451303,0,171.5211656,150.7836499,0,0,,,,
157.7919999,616,-3404.846277,0,0,0,0.088437343,-396.316482,0.010430924,0,-37.57642414,-297.4534263,0.517401992,0,-269.6762823,-184.4354783,0,0,,,,
157.7999999,616,-929.8621061,0,0,0,0.088782988,262.1438223,0.010470021,0,1.088261297,-34.17835962,0.519332131,0,112.1411806,148.2133392,0,0,,,,
157.8079999,616,-2750.890892,0,0,0,0.089125064,-290.0359448,0.010508703,0,-154.3961996,-57.43849368,0.52124175,0,-81.23862754,-51.1850898,0,0,,,,
157.8159999,616,-2376.290199,0,0,0,0.089463577,-43.00038929,0.010546972,0,44.18242082,-317.2777834,0.52313088,0,-158.2697121,-71.57604547,0,0,,,,
157.8239999,616,-1196.278646,0,0,0,0.089798532,114.0193936,0.010584827,0,-113.2993442,117.4160902,0.524999551,0,188.7785883,157.4555568,0,0,,,,
157.8319999,616,-3419.58766,0,0,0,0.090129935,-374.6663914,0.010622271,0,-55.48414114,-312.1491495,0.526847795,0,-259.332857,-192.9360199,0,0,,,,
157.8399999,616,-822.8774461,0,0,0,0.090457789,285.5270716,0.010659302,0,-17.30229041,-48.81787135,0.528675643,0,130.9425492,122.2743344,0,0,,,,
157.8479999,616,-2613.645576,0,0,0,0.090782102,-261.4889991,0.010695922,0,-171.0296181,-60.29199475,0.530483129,0,-65.18666288,-75.82861942,0,0,,,,
157.8559999,616,-2233.251724,0,0,0,0.091102878,-11.55418543,0.010732131,0,25.8743683,-322.3627359,0.532270284,0,-166.0469593,-95.14061699,0,0,,,,
157.8639999,616,-1091.972995,0,0,0,0.091420123,130.7222122,0.01076793,0,-141.3583264,102.7381226,0.534037141,0,166.6836229,124.2307262,0,0,,,,
157.8719999,616,-3447.819851,0,0,0,0.091733842,-378.7438675,0.01080332,0,-73.2500475,-319.7786427,0.535783734,0,-277.8875488,-218.194777,0,0,,,,
157.8799999,616,-910.2130008,0,0,0,0.092044041,279.4859476,0.010838302,0,-5.773001903,-41.160868,0.537510096,0,115.8317906,115.0001263,0,0,,,,
157.8879999,616,-2745.920201,0,0,0,0.092350725,-272.1600314,0.010872876,0,-158.9897797,-36.09047429,0.539216261,0,-85.04749486,-75.34644975,0,0,,,,
157.8959999,616,-2384.186882,0,0,0,0.092653901,-33.0701098,0.010907042,0,29.99370254,-297.191244,0.540902264,0,-185.9592944,-103.8817218,0,0,,,,
157.9039999,616,-1182.034567,0,0,0,0.092953574,130.8599796,0.010940802,0,-134.5695622,132.3505653,0.54256814,0,147.4894469,117.9880627,0,0,,,,
157.9119999,616,-3526.214899,0,0,0,0.09324975,-374.1069546,0.010974156,0,-64.89871567,-286.99133,0.544213924,0,-307.3111629,-211.1546322,0,0,,,,
157.9199999,616,-952.5564805,0,0,0,0.093542435,278.4055943,0.011007105,0,1.998998199,-33.80454883,0.545839652,0,89.99412968,117.1203405,0,0,,,,
157.9279999,616,-2761.345171,0,0,0,0.093831635,-257.6619281,0.01103965,0,-160.6996832,-47.77383638,0.547445359,0,-92.70500158,-71.15745953,0,0,,,,
157.9359999,616,-2439.56879,0,0,0,0.094117356,-28.38424803,0.011071791,0,39.87850452,-317.8442129,0.549031081,0,-188.5733102,-90.89276459,0,0,,,,
157.9439999,616,-1266.955,0,0,0,0.094399605,130.7325446,0.011103529,0,-107.2014472,105.4378331,0.550596856,0,151.7834164,129.9370316,0,0,,,,
157.9519999,617,-3675.825307,0,0,0,0.094678386,-372.2680563,0.011134865,0,-39.69174734,-299.1841181,0.552142721,0,-293.1826611,-195.9226185,0,0,,,,
157.9599999,617,-1145.166473,0,0,0,0.094953708,268.5494475,0.0111658,0,42.01367781,-24.44083427,0.553668712,0,90.2278924,139.6899898,0,0,,,,
157.9679999,617,-2947.175092,0,0,0,0.095225575,-265.2116425,0.011196334,0,-118.5005134,-28.44647774,0.555174869,0,-105.9088504,-45.04446093,0,0,,,,
157.9759999,617,-2582.70296,0,0,0,0.095493995,-26.944913,0.011226468,0,53.71524846,-296.9562525,0.556661228,0,-198.8941874,-66.32592977,0,0,,,,
157.9839999,617,-1344.008898,0,0,0,0.095758974,129.84571,0.011256203,0,-103.6798876,131.9862731,0.558127828,0,134.2368771,153.9699773,0,0,,,,
157.9919999,617,-3714.041104,0,0,0,0.096020518,-384.2744674,0.01128554,0,-37.38492298,-281.0135687,0.559574708,0,-311.9989365,-181.2191412,0,0,,,,
157.9999999,617,-1105.967638,0,0,0,0.096278634,266.5137646,0.011314479,0,37.16101926,-17.7997203,0.561001908,0,101.1905407,145.5795719,0,0,,,,
158.0079999,617,-2866.432632,0,0,0,0.096533328,-259.2978574,0.011343022,0,-125.9167557,-9.773693881,0.562409466,0,-85.56706098,-41.87981099,0,0,,,,
158.0159999,617,-2523.76479,0,0,0,0.096784608,-37.3907828,0.011371169,0,60.39711062,-274.2591942,0.563797423,0,-190.2328052,-72.82277482,0,0,,,,
158.0239999,617,-1259.503194,0,0,0,0.09703248,129.9471705,0.01139892,0,-81.05945342,154.5035985,0.565165819,0,165.9816684,158.3074619,0,0,,,,
158.0319999,617,-3606.548,0,0,0,0.097276951,-367.1030209,0.011426277,0,-34.46571505,-263.7380803,0.566514694,0,-278.0280843,-174.7998834,0,0,,,,
158.0399999,617,-1006.915035,0,0,0,0.097518028,270.5876473,0.011453241,0,23.78716549,-21.60090803,0.56784409,0,110.3722441,134.0498241,0,0,,,,
158.0479999,617,-2781.341559,0,0,0,0.097755718,-261.208407,0.011479812,0,-123.4043123,-18.28045861,0.569154047,0,-57.99557566,-40.53451969,0,0,,,,
158.0559999,617,-2428.632184,0,0,0,0.097990027,-31.12457478,0.011505992,0,60.49463056,-280.616204,0.570444607,0,-149.6215124,-65.71288817,0,0,,,,
158.0639999,617,-1197.488053,0,0,0,0.098220963,121.9223527,0.01153178,0,-84.31790164,142.5214626,0.571715812,0,185.008006,145.3188467,0,0,,,,
158.0719999,617,-3645.751365,0,0,0,0.098448533,-389.5806188,0.011557178,0,-12.43952711,-266.0822389,0.572967704,0,-258.5383783,-179.3889741,0,0,,,,
158.0799999,617,-1065.424742,0,0,0,0.098672744,268.6443957,0.011582187,0,37.05641846,-3.272080476,0.574200326,0,133.2932256,144.5313706,0,0,,,,
158.0879999,617,-2856.517001,0,0,0,0.098893604,-267.100303,0.011606808,0,-134.7752086,-3.309964666,0.575413721,0,-62.23416216,-50.07028128,0,0,,,,
158.0959999,617,-2514.354364,0,0,0,0.099111119,-52.85884652,0.011631041,0,62.47786836,-282.7768084,0.576607931,0,-154.5283422,-79.03757616,0,0,,,,
158.1039999,617,-1180.704501,0,0,0,0.099325297,118.3083638,0.011654887,0,-79.09910909,140.4616564,0.577783,0,204.8295711,152.3496121,0,0,,,,
158.1119999,617,-3561.322639,0,0,0,0.099536145,-399.2897143,0.011678348,0,-19.40458205,-276.1274633,0.578938972,0,-244.9230709,-176.8209677,0,0,,,,
158.1199999,617,-905.9255486,0,0,0,0.099743671,252.2930785,0.011701424,0,35.81222715,-32.70140656,0.580075892,0,154.7584965,140.4572116,0,0,,,,
158.1279999,617,-2616.979017,0,0,0,0.099947883,-267.8766169,0.011724115,0,-123.0648827,-33.39272501,0.581193803,0,-20.11117788,-49.9438701,0,0,,,,
158.1359999,617,-2287.332429,0,0,0,0.100148787,-50.89759201,0.011746424,0,73.93586653,-305.8732003,0.58229275,0,-128.0846733,-81.79031202,0,0,,,,
158.1439999,617,-958.4564154,0,0,0,0.100346392,128.0333535,0.011768351,0,-87.85222749,121.7589096,0.583372779,0,217.2794871,144.2334186,0,0,,,,
158.1519999,617,-3372.237422,0,0,0,0.100540706,-386.1293571,0.011789896,0,-28.47828455,-289.5002423,0.584433934,0,-235.2257474,-191.9765337,0,0,,,,
158.1599999,617,-753.5876657,0,0,0,0.100731735,264.347766,0.011811061,0,47.40112877,-26.12976793,0.585476262,0,166.0874281,132.950527,0,0,,,,
158.1679999,617,-2482.561871,0,0,0,0.100919488,-263.6727127,0.011831846,0,-111.3428176,-6.942889728,0.586499808,0,-14.77806268,-43.8939596,0,0,,,,
158.1759999,617,-2185.206371,0,0,0,0.101103972,-64.09446873,0.011852253,0,94.31729432,-283.2767287,0.587504618,0,-130.389053,-73.32024974,0,0,,,,
158.1839999,617,-793.5552786,0,0,0,0.101285196,116.7562184,0.011872283,0,-62.0423888,145.7613754,0.58849074,0,233.49426,157.2611755,0,0,,,,
158.1919999,617,-3142.158698,0,0,0,0.101463167,-398.9738525,0.011891936,0,-22.97741195,-272.7877381,0.589458219,0,-218.2757017,-188.1519892,0,0,,,,
158.1999999,617,-502.1334214,0,0,0,0.101637894,249.8163004,0.011911213,0,54.33549255,-26.36986422,0.590407104,0,173.9134759,131.531444,0,0,,,,
158.2079999,618,-2209.246383,0,0,0,0.101809384,-271.4499802,0.011930115,0,-105.9373825,-9.30620348,0.591337441,0,-0.761048784,-40.22096002,0,0,,,,
158.2159999,618,-1940.050107,0,0,0,0.101977646,-72.03155923,0.011948644,0,81.10886906,-296.9827649,0.592249279,0,-116.7152853,-76.66693505,0,0,,,,
158.2239999,618,-573.6829311,0,0,0,0.102142687,112.9820041,0.0119668,0,-71.11426803,129.5863828,0.593142665,0,251.5261091,161.4923961,0,0,,,,
158.2319999,618,-2958.599877,0,0,0,0.102304516,-408.7017899,0.011984584,0,-16.22479925,-275.422947,0.594017647,0,-198.5452702,-170.8224678,0,0,,,,
158.2399999,618,-350.5995954,0,0,0,0.102463141,235.4125356,0.012001998,0,65.6190166,-24.55066387,0.594874274,0,196.1920547,154.4640034,0,0,,,,
158.2479999,618,-2054.735858,0,0,0,0.102618571,-281.3122275,0.012019041,0,-98.67068838,-3.60962082,0.595712595,0,32.79231636,-12.2483304,0,0,,,,
158.2559999,618,-1768.211881,0,0,0,0.102770813,-80.71691405,0.012035716,0,90.68593382,-284.6619208,0.596532659,0,-90.04910847,-58.19403839,0,0,,,,
158.2639999,618,-366.6517738,0,0,0,0.102919877,103.8241038,0.012052023,0,-66.86015168,145.4938749,0.597334516,0,259.0287851,164.4939986,0,0,,,,
158.2719999,618,-2750.94576,0,0,0,0.10306577,-424.3262765,0.012067963,0,-17.24170585,-260.5303314,0.598118214,0,-200.8787381,-173.8909158,0,0,,,,
158.2799999,618,-94.29668605,0,0,0,0.103208501,233.116413,0.012083537,0,65.63031652,-13.04313515,0.598883804,0,190.3251262,142.3547321,0,0,,,,
158.2879999,618,-1739.230186,0,0,0,0.103348079,-272.1138761,0.012098746,0,-117.7637946,2.652763667,0.599631337,0,9.278093438,-40.45406025,0,0,,,,
158.2959999,618,-1485.105944,0,0,0,0.103484512,-81.92756273,0.012113592,0,74.92726093,-282.4652839,0.600360862,0,-122.04201,-82.60313395,0,0,,,,
158.3039999,618,-114.3642712,0,0,0,0.103617808,111.9356087,0.012128074,0,-53.30221556,150.4898809,0.60107243,0,250.909589,158.8120963,0,0,,,,
158.3119999,618,-2554.398541,0,0,0,0.103747978,-415.5229545,0.012142195,0,-7.982157615,-262.3468548,0.601766092,0,-201.8305766,-176.4594494,0,0,,,,
158.3199999,618,31.50445223,0,0,0,0.103875028,217.9689749,0.012155956,0,82.88693046,-24.04021792,0.6024419,0,188.941286,145.3937247,0,0,,,,
158.3279999,618,-1666.920997,0,0,0,0.103998968,-292.5406386,0.012169356,0,-73.63188287,-5.03119723,0.603099904,0,27.12139504,-21.07046739,0,0,,,,
158.3359999,618,-1446.707158,0,0,0,0.104119807,-93.38675605,0.012182398,0,98.10491232,-296.4129574,0.603740158,0,-96.29364178,-64.54832279,0,0,,,,
158.3439999,618,-40.39294887,0,0,0,0.104237554,103.9075643,0.012195082,0,-51.98723724,130.4908431,0.604362711,0,270.2445063,170.2311771,0,0,,,,
158.3519999,618,-2444.119954,0,0,0,0.104352217,-417.4924726,0.01220741,0,-20.382223,-282.8007934,0.604967618,0,-205.9576284,-170.7695942,0,0,,,,
158.3599999,618,177.0291619,0,0,0,0.104463806,229.2847199,0.012219382,0,39.04301078,-44.93474517,0.60555493,0,165.863087,140.8382324,0,0,,,,
158.3679999,618,-1501.663382,0,0,0,0.104572329,-283.4760783,0.012231,0,-118.3155297,-17.78919037,0.606124699,0,7.349413029,-27.39726216,0,0,,,,
158.3759999,618,-1277.517257,0,0,0,0.104677795,-85.9939008,0.012242264,0,59.38667945,-303.4923657,0.60667698,0,-120.9550365,-69.4360465,0,0,,,,
158.3839999,618,150.706735,0,0,0,0.104780214,116.5374723,0.012253176,0,-105.1820763,128.297367,0.607211825,0,240.4621959,163.2334851,0,0,,,,
158.3919999,618,-2315.546987,0,0,0,0.104879595,-424.4039025,0.012263737,0,-56.35855377,-288.1708003,0.607729287,0,-227.8006532,-180.1377699,0,0,,,,
158.3999999,618,255.2252571,0,0,0,0.104975946,217.1040261,0.012273948,0,19.04304149,-54.34052808,0.60822942,0,159.9194405,139.1725232,0,0,,,,
158.4079999,618,-1431.845102,0,0,0,0.105069278,-290.6009121,0.012283809,0,-157.9793945,-24.62832492,0.608712278,0,9.768843187,-26.06006769,0,0,,,,
158.4159999,618,-1268.405252,0,0,0,0.105159598,-103.1362323,0.012293323,0,24.16119193,-318.1454802,0.609177916,0,-123.1475054,-68.82481448,0,0,,,,
158.4239999,618,137.6404735,0,0,0,0.105246918,107.0571249,0.01230249,0,-127.4939218,119.11954,0.609626387,0,248.2175931,181.3516775,0,0,,,,
158.4319999,618,-2336.038238,0,0,0,0.105331245,-427.026552,0.012311311,0,-80.64538162,-285.2044716,0.610057746,0,-213.0078768,-155.6536938,0,0,,,,
158.4399999,618,253.727253,0,0,0,0.105412589,217.1591401,0.012319787,0,-2.979086272,-54.67319986,0.610472048,0,170.3413792,153.3011618,0,0,,,,
158.4479999,618,-1376.85047,0,0,0,0.10549096,-279.7382822,0.01232792,0,-185.1396422,-24.90856905,0.610869348,0,20.05511751,-21.49605062,0,0,,,,
158.4559999,618,-1205.111028,0,0,0,0.105566366,-95.21973744,0.01233571,0,-2.157448328,-319.8685233,0.6112497,0,-127.5240831,-84.29608884,0,0,,,,
158.4639999,619,231.6357085,0,0,0,0.105638818,112.7957372,0.012343159,0,-142.882897,112.9210207,0.611613162,0,237.5000478,153.4394212,0,0,,,,
158.4719999,619,-2213.638644,0,0,0,0.105708326,-417.0600885,0.012350268,0,-101.3096687,-298.1824884,0.611959787,0,-219.2826126,-185.0165598,0,0,,,,
158.4799999,619,365.3918977,0,0,0,0.105774897,226.0507368,0.012357038,0,-25.96079854,-75.61460491,0.612289633,0,157.8922877,125.1559665,0,0,,,,
158.4879999,619,-1271.260391,0,0,0,0.105838543,-275.9393983,0.01236347,0,-182.6758673,-37.85832402,0.612602755,0,11.52692325,-32.54222805,0,0,,,,
158.4959999,619,-1086.932498,0,0,0,0.105899273,-93.02622562,0.012369565,0,23.67801262,-322.105384,0.612899209,0,-119.4199635,-82.96586209,0,0,,,,
158.5039999,619,412.1247897,0,0,0,0.105957096,122.3903412,0.012375324,0,-118.9776405,117.7902596,0.613179052,0,258.7313866,154.5015416,0,0,,,,
158.5119999,619,-2011.032848,0,0,0,0.106012022,-413.9625252,0.012380749,0,-71.14696754,-282.5901863,0.61344234,0,-202.0684154,-186.6626071,0,0,,,,
158.5199999,619,585.0998672,0,0,0,0.10606406,224.4722066,0.01238584,0,22.59967009,-48.64596332,0.613689131,0,172.0082042,122.1961159,0,0,,,,
158.5279999,619,-1002.119505,0,0,0,0.106113222,-269.8172858,0.0123906,0,-144.8622977,-8.71850528,0.613919482,0,23.19223113,-35.97042693,0,0,,,,
158.5359999,619,-830.3968255,0,0,0,0.106159516,-87.56177999,0.012395028,0,46.53736785,-304.8466337,0.614133449,0,-125.9016808,-85.70286453,0,0,,,,
158.5439999,619,643.0340446,0,0,0,0.106202952,124.2230074,0.012399126,0,-91.06016861,129.8083679,0.614331091,0,241.994033,161.7004331,0,0,,,,
158.5519999,619,-1800.491398,0,0,0,0.10624354,-413.0218485,0.012402895,0,-41.46742935,-267.945545,0.614512464,0,-210.7558817,-167.1345132,0,0,,,,
158.5599999,619,793.197838,0,0,0,0.10628129,235.523549,0.012406337,0,43.72502567,-31.91206347,0.614677628,0,175.9379645,148.1672771,0,0,,,,
158.5679999,619,-799.7142409,0,0,0,0.106316212,-257.3176252,0.012409452,0,-132.394987,10.47664703,0.614826639,0,23.04124467,-18.09900756,0,0,,,,
158.5759999,619,-642.5055117,0,0,0,0.106348316,-80.62026677,0.012412243,0,55.57955482,-291.4839439,0.614959557,0,-135.6249157,-79.44472209,0,0,,,,
158.5839999,619,855.1455095,0,0,0,0.106377612,130.1034963,0.012414709,0,-92.07053789,135.4473337,0.615076439,0,234.7874194,162.6287823,0,0,,,,
158.5919999,619,-1596.07745,0,0,0,0.10640411,-418.3502388,0.012416852,0,-48.27944875,-268.8038555,0.615177344,0,-224.8532879,-177.4360934,0,0,,,,
158.5999999,619,984.1248487,0,0,0,0.10642782,222.9727696,0.012418673,0,44.55889553,-37.61539345,0.615262331,0,158.6170722,135.2914657,0,0,,,,
158.6079999,619,-616.6061924,0,0,0,0.106448752,-278.3959146,0.012420174,0,-120.9729017,4.970434227,0.615331459,0,28.5450275,-20.47126663,0,0,,,,
158.6159999,619,-488.8520026,0,0,0,0.106466917,-107.5722914,0.012421356,0,81.29399594,-293.2503453,0.615384786,0,-104.0695338,-80.4348869,0,0,,,,
158.6239999,619,1026.222168,0,0,0,0.106482323,116.0594262,0.01242222,0,-56.27873907,150.6571238,0.615422373,0,280.1224185,159.9005414,0,0,,,,
158.6319999,619,-1412.905333,0,0,0,0.106494983,-426.1169142,0.012422766,0,-17.84045243,-249.8599857,0.615444279,0,-187.0961352,-181.4221525,0,0,,,,
158.6399999,619,1177.951018,0,0,0,0.106504905,216.1743184,0.012422997,0,69.46634352,-32.99272248,0.615450563,0,182.9577117,130.5566551,0,0,,,,
158.6479999,619,-381.9843019,0,0,0,0.1065121,-274.672368,0.012422914,0,-103.5921233,9.300594569,0.615441285,0,47.37662162,-18.58263717,0,0,,,,
158.6559999,619,-254.0036408,0,0,0,0.106516579,-94.68703635,0.012422517,0,79.35291079,-293.1964325,0.615416505,0,-101.2065922,-79.37080357,0,0,,,,
158.6639999,619,1257.899544,0,0,0,0.106518352,131.2822844,0.012421808,0,-64.00066462,143.9204764,0.615376284,0,274.4123668,158.2617914,0,0,,,,
158.6719999,619,-1205.269348,0,0,0,0.106517428,-417.7383257,0.012420788,0,-22.52624335,-256.863049,0.615320681,0,-190.918303,-183.1076493,0,0,,,,
158.6799999,619,1353.834103,0,0,0,0.106513819,228.8492642,0.012419458,0,63.65235074,-34.86665952,0.615249756,0,183.0712877,125.1290751,0,0,,,,
158.6879999,619,-224.2133387,0,0,0,0.106507535,-264.9145939,0.01241782,0,-107.1442361,24.00478669,0.615163572,0,49.35547508,-27.13563198,0,0,,,,
158.6959999,619,-143.8222493,0,0,0,0.106498586,-110.0477223,0.012415875,0,83.47143143,-274.2353942,0.615062187,0,-103.0190217,-89.119602,0,0,,,,
158.7039999,619,1362.869389,0,0,0,0.106486982,112.8315962,0.012413624,0,-51.32414745,162.712397,0.614945664,0,288.8538999,156.4437109,0,0,,,,
158.7119999,619,-1079.846829,0,0,0,0.106472735,-431.7203715,0.012411068,0,-3.470889106,-230.2980463,0.614814062,0,-156.3653179,-171.8324376,0,0,,,,
158.7199999,620,1522.066525,0,0,0,0.106455854,213.8338242,0.012408209,0,82.02448357,-7.993141162,0.614667445,0,223.6061267,140.5136699,0,0,,,,
158.7279999,620,-21.8834402,0,0,0,0.106436351,-280.9098637,0.012405047,0,-92.20524126,44.95501898,0.614505871,0,90.13579907,-18.46639842,0,0,,,,
158.7359999,620,91.24814695,0,0,0,0.106414236,-113.5887907,0.012401584,0,96.70240269,-255.4055506,0.614329404,0,-65.82035888,-79.35288833,0,0,,,,
158.7439999,620,1668.48096,0,0,0,0.106389518,133.5336299,0.012397821,0,-60.24812659,182.2675075,0.614138105,0,306.6883501,164.308852,0,0,,,,
158.7519999,620,-813.8268725,0,0,0,0.10636221,-413.3329948,0.01239376,0,-28.20910984,-223.326351,0.613932035,0,-175.1455691,-183.2764914,0,0,,,,
158.7599999,620,1760.072832,0,0,0,0.106332321,235.9535641,0.012389402,0,58.60224421,-11.45007088,0.613711257,0,185.8631841,127.3367601,0,0,,,,
158.7679999,620,240.2052159,0,0,0,0.106299863,-257.0357718,0.012384747,0,-115.7377601,45.14091788,0.613475832,0,38.7041413,-24.5986652,0,0,,,,
158.7759999,620,300.0153088,0,0,0,0.106264845,-111.033362,0.012379798,0,84.30252016,-258.8982597,0.613225823,0,-134.8049119,-89.4120588,0,0,,,,
158.7839999,620,1863.240737,0,0,0,0.106227279,130.0037878,0.012374555,0,-65.44215844,179.1452751,0.612961291,0,240.5406746,160.6824207,0,0,,,,
158.7919999,620,-631.8375635,0,0,0,0.106187176,-426.3998575,0.01236902,0,-29.62049096,-220.7295596,0.6126823,0,-241.1359514,-183.4766356,0,0,,,,
158.7999999,620,1930.671299,0,0,0,0.106144545,218.1394912,0.012363194,0,61.81214867,-11.07140845,0.612388912,0,120.9374356,125.5353613,0,0,,,,
158.8079999,620,432.9983615,0,0,0,0.106099399,-263.9708166,0.012357078,0,-124.2173167,41.75287788,0.612081189,0,-6.471538198,-29.94359589,0,0,,,,
158.8159999,620,457.1973005,0,0,0,0.106051747,-118.8627097,0.012350674,0,75.83130641,-268.9780038,0.611759194,0,-162.8444733,-107.4521183,0,0,,,,
158.8239999,620,2020.302875,0,0,0,0.1060016,128.7254708,0.012343982,0,-52.3238393,175.6656889,0.61142299,0,239.977828,152.8297398,0,0,,,,
158.8319999,620,-468.275996,0,0,0,0.10594897,-423.9931676,0.012337004,0,-19.33450829,-211.9004228,0.611072641,0,-217.6451553,-182.2916259,0,0,,,,
158.8399999,620,2047.450036,0,0,0,0.105893867,212.1061803,0.012329742,0,70.44663798,0.574017726,0.610708208,0,147.7535034,115.3561016,0,0,,,,
158.8479999,620,533.0435598,0,0,0,0.105836303,-265.7358335,0.012322196,0,-104.6068392,62.44132924,0.610329757,0,34.93646274,-31.68117099,0,0,,,,
158.8559999,620,543.3518662,0,0,0,0.105776287,-121.5971055,0.012314369,0,82.92234157,-249.3377135,0.609937349,0,-121.5824932,-102.893865,0,0,,,,
158.8639999,620,2094.43406,0,0,0,0.105713831,114.2170168,0.01230626,0,-48.395931,190.6801965,0.609531048,0,268.6068361,146.4332649,0,0,,,,
158.8719999,620,-384.8395986,0,0,0,0.105648946,-434.5273584,0.012297872,0,-15.92785668,-196.553486,0.609110919,0,-181.375168,-190.6907113,0,0,,,,
158.8799999,620,2157.285876,0,0,0,0.105581642,212.4201005,0.012289205,0,57.03405802,2.978107554,0.608677023,0,183.0428368,105.184105,0,0,,,,
158.8879999,620,639.9299487,0,0,0,0.105511932,-276.1628654,0.012280261,0,-117.340811,52.73792402,0.608229427,0,53.11373986,-53.71194402,0,0,,,,
158.8959999,620,619.2088647,0,0,0,0.105439825,-135.0527669,0.012271042,0,81.28046981,-264.4406951,0.607768192,0,-106.5236864,-124.1121244,0,0,,,,
158.9039999,620,2181.601171,0,0,0,0.105365333,109.0624932,0.012261549,0,-49.33099904,176.1783768,0.607293384,0,301.0966166,140.0098539,0,0,,,,
158.9119999,620,-318.805504,0,0,0,0.105288467,-455.8529303,0.012251782,0,-1.790672866,-207.8629769,0.606805066,0,-133.0822828,-190.7507304,0,0,,,,
158.9199999,620,2209.414768,0,0,0,0.105209238,188.9500827,0.012241743,0,82.86754724,-2.787439312,0.606303302,0,248.8395907,115.0472374,0,0,,,,
158.9279999,620,711.1238401,0,0,0,0.105127656,-295.6204047,0.012231434,0,-105.2562528,57.63781095,0.605788158,0,138.9854427,-36.25218375,0,0,,,,
158.9359999,620,697.4429731,0,0,0,0.105043734,-161.8090149,0.012220856,0,94.88364036,-256.3178792,0.605259696,0,-12.82766961,-113.4151698,0,0,,,,
158.9439999,620,2312.383076,0,0,0,0.104957482,100.2753465,0.01221001,0,-44.1454329,186.8124899,0.604717981,0,389.4791316,143.9521009,0,0,,,,
158.9519999,620,-194.2991353,0,0,0,0.104868911,-459.1556592,0.012198897,0,-16.352199,-196.3654461,0.604163079,0,-69.50409615,-201.9372825,0,0,,,,
158.9599999,620,2315.515119,0,0,0,0.104778032,174.2102016,0.012187518,0,78.72011527,9.850401962,0.603595054,0,293.7677532,96.6575719,0,0,,,,
158.9679999,620,849.191765,0,0,0,0.104684857,-308.7248921,0.012175876,0,-95.4870829,80.86313058,0.603013969,0,184.6310426,-43.29687197,0,0,,,,
158.9759999,621,839.8310501,0,0,0,0.104589396,-170.5692866,0.012163971,0,102.5754215,-231.7790581,0.602419891,0,26.9980069,-112.8289931,0,0,,,,
158.9839999,621,2493.806576,0,0,0,0.104491662,95.10938952,0.012151805,0,-49.59417708,203.7825127,0.601812884,0,416.2317643,151.0874371,0,0,,,,
158.9919999,621,-0.500989318,0,0,0,0.104391664,-469.6211003,0.012139378,0,-20.87970467,-192.3517274,0.601193013,0,-55.80450419,-194.3044635,0,0,,,,
158.9999999,621,2534.007836,0,0,0,0.104289415,172.4973073,0.012126693,0,84.24118113,-3.377801977,0.600560342,0,308.3191879,102.7472337,0,0,,,,
159.0079999,621,1119.791326,0,0,0,0.104184926,-299.0352337,0.01211375,0,-103.6539267,54.74098419,0.599914938,0,191.0336273,-40.18413675,0,0,,,,
159.0159999,621,1068.778151,0,0,0,0.104078207,-171.5719037,0.012100551,0,88.1679935,-268.3982686,0.599256865,0,7.479502346,-125.8591922,0,0,,,,
159.0239999,621,2713.349118,0,0,0,0.10396927,93.36215103,0.012087098,0,-45.53897268,174.4591542,0.598586188,0,410.7304855,134.0610608,0,0,,,,
159.0319999,621,221.804544,0,0,0,0.103858126,-472.9083899,0.012073391,0,-15.33980846,-209.0200929,0.597902973,0,-48.33176776,-206.5388318,0,0,,,,
159.0399999,621,2703.342241,0,0,0,0.103744787,165.1067687,0.012059431,0,84.72610761,-12.86946529,0.597207285,0,300.9951474,91.82752922,0,0,,,,
159.0479999,621,1253.545063,0,0,0,0.103629263,-298.9384403,0.012045221,0,-97.91408267,61.22022057,0.59649919,0,196.8676812,-41.33914849,0,0,,,,
159.0559999,621,1155.739475,0,0,0,0.103511567,-173.9133281,0.012030761,0,93.17070508,-258.1156618,0.595778752,0,16.47552093,-115.0663583,0,0,,,,
159.0639999,621,2757.494891,0,0,0,0.103391709,81.6786279,0.012016053,0,-35.68502841,178.6829565,0.595046038,0,397.418778,152.6851919,0,0,,,,
159.0719999,621,246.8153045,0,0,0,0.103269701,-484.5027153,0.012001098,0,-9.344735223,-209.9459024,0.594301113,0,-69.88064499,-192.3232547,0,0,,,,
159.0799999,621,2724.378722,0,0,0,0.103145553,154.5066771,0.011985897,0,81.72317299,-20.40489466,0.593544043,0,282.4601778,96.59306991,0,0,,,,
159.0879999,621,1259.280621,0,0,0,0.103019279,-322.9337056,0.011970452,0,-91.68333074,55.61916631,0.592774893,0,176.4956463,-41.52553547,0,0,,,,
159.0959999,621,1170.637962,0,0,0,0.102890888,-193.2763546,0.011954764,0,105.6150432,-257.9282009,0.59199373,0,-0.785440888,-116.0189379,0,0,,,,
159.1039999,621,2840.390887,0,0,0,0.102760392,86.45592378,0.011938835,0,-35.64520756,185.6703408,0.591200619,0,397.7674401,154.4369098,0,0,,,,
159.1119999,621,320.9096018,0,0,0,0.102627802,-484.1426707,0.011922665,0,-28.63130992,-201.9911687,0.590395625,0,-76.1535212,-197.7757315,0,0,,,,
159.1199999,621,2785.645545,0,0,0,0.102493131,154.2034141,0.011906256,0,69.63787373,-9.076900763,0.589578816,0,262.1143516,98.06642132,0,0,,,,
159.1279999,621,1362.223049,0,0,0,0.102356388,-312.1204124,0.01188961,0,-91.64239497,72.87228154,0.588750256,0,157.6828782,-23.07071316,0,0,,,,
159.1359999,621,1267.472976,0,0,0,0.102217587,-185.1730075,0.011872727,0,91.91440672,-255.0879833,0.587910012,0,-27.93928066,-109.2248501,0,0,,,,
159.1439999,621,2941.253073,0,0,0,0.102076737,95.28792753,0.01185561,0,-49.68398946,179.5133799,0.58705815,0,367.6919663,148.5560816,0,0,,,,
159.1519999,621,400.4678604,0,0,0,0.101933851,-485.2669864,0.011838259,0,-23.15211018,-205.61266,0.586194736,0,-99.86647518,-203.9249367,0,0,,,,
159.1599999,621,2857.929282,0,0,0,0.101788939,156.1645579,0.011820675,0,80.02606577,-15.40975305,0.585319835,0,256.6706779,92.74428879,0,0,,,,
159.1679999,621,1461.003458,0,0,0,0.101642014,-296.2499184,0.011802861,0,-98.67834889,64.47036883,0.584433516,0,164.247589,-31.00449092,0,0,,,,
159.1759999,621,1318.366484,0,0,0,0.101493087,-182.6596694,0.011784817,0,81.89178583,-272.5764704,0.583535842,0,-28.96187349,-126.4822308,0,0,,,,
159.1839999,621,2975.080507,0,0,0,0.101342169,99.18037395,0.011766545,0,-44.02218227,165.2762626,0.582626881,0,380.9233929,138.6210581,0,0,,,,
159.1919999,621,453.576461,0,0,0,0.101189272,-467.0404174,0.011748045,0,-18.73043147,-208.0890758,0.581706699,0,-72.3992268,-201.3240299,0,0,,,,
159.1999999,621,2916.870643,0,0,0,0.101034407,168.8354206,0.011729321,0,75.62141375,-18.74211116,0.580775362,0,272.3855279,89.90098897,0,0,,,,
159.2079999,621,1507.084229,0,0,0,0.100877585,-297.6365078,0.011710371,0,-99.40324747,72.16216831,0.579832937,0,170.569192,-35.3904218,0,0,,,,
159.2159999,621,1351.489181,0,0,0,0.100718818,-181.4084247,0.011691199,0,90.03559944,-252.3815594,0.57887949,0,-28.66113437,-119.0022727,0,0,,,,
159.2239999,621,3060.594172,0,0,0,0.100558118,112.9839866,0.011671806,0,-48.44902842,182.928767,0.577915086,0,371.2195459,146.8966299,0,0,,,,
159.2319999,622,535.9555488,0,0,0,0.100395496,-464.0440648,0.011652192,0,-35.13272195,-201.0389031,0.576939794,0,-95.09022627,-208.5912841,0,0,,,,
159.2399999,622,2983.373858,0,0,0,0.100230963,169.556349,0.011632359,0,72.64450201,-22.02391352,0.575953678,0,248.7163617,78.96347789,0,0,,,,
159.2479999,622,1588.395855,0,0,0,0.100064531,-292.2646602,0.011612309,0,-99.88132834,63.41142984,0.574956805,0,159.331221,-42.55153337,0,0,,,,
159.2559999,622,1385.517675,0,0,0,0.099896211,-190.3799367,0.011592042,0,98.83298374,-266.2103513,0.573949243,0,-30.92899984,-128.3965445,0,0,,,,
159.2639999,622,3096.671612,0,0,0,0.099726016,108.16252,0.011571561,0,-22.79179225,178.5438849,0.572931056,0,385.4621937,149.2808699,0,0,,,,
159.2719999,622,562.9891568,0,0,0,0.099553956,-463.3880395,0.011550866,0,-25.19008037,-202.7658365,0.571902313,0,-73.93941597,-198.0906156,0,0,,,,
159.2799999,622,2973.515872,0,0,0,0.099380043,167.6013261,0.011529959,0,75.9744555,-32.16514371,0.570863078,0,265.0337029,86.56756601,0,0,,,,
159.2879999,622,1601.457864,0,0,0,0.099204288,-286.332572,0.011508841,0,-87.87700202,58.06680941,0.56981342,0,174.7388274,-31.88718879,0,0,,,,
159.2959999,622,1394.008674,0,0,0,0.099026703,-182.6689653,0.011487513,0,99.23582324,-273.1564068,0.568753403,0,-24.47520618,-121.4157407,0,0,,,,
159.3039999,622,3116.028695,0,0,0,0.098847299,117.6487953,0.011465977,0,-22.92967877,174.0541896,0.567683096,0,394.9611035,153.5812602,0,0,,,,
159.3119999,622,611.498256,0,0,0,0.098666089,-452.6114601,0.011444235,0,-17.28546792,-200.3513143,0.566602563,0,-64.20860656,-196.945728,0,0,,,,
159.3199999,622,3049.806834,0,0,0,0.098483083,179.5228694,0.011422286,0,77.02569001,-29.42503376,0.565511872,0,265.5495096,82.69105056,0,0,,,,
159.3279999,622,1705.907706,0,0,0,0.098298292,-278.2651625,0.011400134,0,-87.7633326,67.61189681,0.564411089,0,182.1469494,-37.79071363,0,0,,,,
159.3359999,622,1505.112765,0,0,0,0.09811173,-182.0511351,0.011377779,0,99.4141314,-267.4307905,0.563300281,0,-21.83097618,-133.706663,0,0,,,,
159.3439999,622,3252.712412,0,0,0,0.097923406,120.3531541,0.011355223,0,-30.61417153,171.3219538,0.562179515,0,378.4494122,143.3835644,0,0,,,,
159.3519999,622,706.7654256,0,0,0,0.097733332,-456.4308259,0.011332466,0,-17.76304299,-200.950162,0.561048856,0,-89.384059,-198.8856825,0,0,,,,
159.3599999,622,3121.572481,0,0,0,0.097541521,181.8315117,0.011309511,0,77.95667094,-24.64183478,0.559908371,0,245.4480134,89.93755685,0,0,,,,
159.3679999,622,1808.996951,0,0,0,0.097347983,-264.0698648,0.011286358,0,-105.1617218,74.34353407,0.558758127,0,159.6277732,-28.80371163,0,0,,,,
159.3759999,622,1590.193915,0,0,0,0.09715273,-167.5285645,0.011263009,0,81.51686148,-267.5408134,0.55759819,0,-52.0208483,-132.8627905,0,0,,,,
159.3839999,622,3371.399812,0,0,0,0.096955774,138.2306089,0.011239465,0,-48.80234329,169.6339651,0.556428627,0,355.201792,137.5538995,0,0,,,,
159.3919999,622,828.4857622,0,0,0,0.096757125,-459.3782925,0.011215728,0,-30.98353769,-206.1901653,0.555249504,0,-118.4557649,-213.0063095,0,0,,,,
159.3999999,622,3226.835295,0,0,0,0.096556796,167.4328648,0.011191799,0,84.21998878,-39.33310348,0.554060887,0,218.6723509,80.41587453,0,0,,,,
159.4079999,622,1943.36844,0,0,0,0.096354798,-273.5647083,0.011167679,0,-101.0564975,62.15505438,0.552862844,0,153.3980292,-25.35916002,0,0,,,,
159.4159999,622,1689.316341,0,0,0,0.096151143,-188.9438733,0.01114337,0,89.50030462,-273.6737564,0.55165544,0,-57.98571646,-120.8811917,0,0,,,,
159.4239999,622,3453.161344,0,0,0,0.095945842,121.1590456,0.011118873,0,-32.42178105,174.3865093,0.550438741,0,362.2288427,161.2492217,0,0,,,,
159.4319999,622,903.0614469,0,0,0,0.095738906,-467.7226228,0.011094189,0,-20.91961103,-192.9403336,0.549212815,0,-92.82143683,-192.5244768,0,0,,,,
159.4399999,622,3274.321781,0,0,0,0.095530347,162.6426839,0.011069319,0,104.2947986,-22.34293491,0.547977727,0,237.8155136,89.92939317,0,0,,,,
159.4479999,622,1982.765044,0,0,0,0.095320177,-269.1026493,0.011044266,0,-71.67207047,86.9534589,0.546733544,0,162.3787888,-17.39704438,0,0,,,,
159.4559999,622,1729.53372,0,0,0,0.095108407,-181.6607616,0.01101903,0,109.8034352,-254.59841,0.545480333,0,-57.80843924,-121.341053,0,0,,,,
159.4639999,622,3515.262396,0,0,0,0.094895048,131.5009521,0.010993612,0,-14.5985496,187.8707265,0.544218158,0,357.9607874,158.446714,0,0,,,,
159.4719999,622,938.65271,0,0,0,0.094680112,-458.5244827,0.010968015,0,-8.379063226,-186.0947878,0.542947088,0,-110.5895973,-189.4023204,0,0,,,,
159.4799999,622,3312.362333,0,0,0,0.094463611,170.1948886,0.010942239,0,104.3866747,-28.33721572,0.541667187,0,213.0359346,96.04208687,0,0,,,,
159.4879999,623,2049.039735,0,0,0,0.094245556,-267.0753857,0.010916285,0,-72.38035879,88.42467954,0.540378522,0,147.853944,-3.209349838,0,0,,,,
159.4959999,623,1747.722643,0,0,0,0.094025957,-189.4855788,0.010890156,0,110.7251344,-251.4581698,0.53908116,0,-73.48199936,-109.3676887,0,0,,,,
159.5039999,623,3534.36033,0,0,0,0.093804828,125.7736575,0.010863852,0,-14.59618703,178.6334386,0.537775166,0,348.3533585,161.8073533,0,0,,,,
159.5119999,623,977.456492,0,0,0,0.093582179,-466.9967944,0.010837374,0,-9.908705443,-196.0001221,0.536460606,0,-116.4696017,-188.0788437,0,0,,,,
159.5199999,623,3375.573663,0,0,0,0.093358022,168.4918584,0.010810725,0,94.45540428,-33.49645509,0.535137547,0,200.7654301,94.81795876,0,0,,,,
159.5279999,623,2143.168541,0,0,0,0.093132368,-262.7141375,0.010783904,0,-100.1935387,77.43194781,0.533806054,0,133.0670752,-17.26946056,0,0,,,,
159.5359999,623,1830.902259,0,0,0,0.092905229,-190.3172255,0.010756915,0,65.63938782,-275.6637713,0.532466194,0,-97.49409401,-134.2102884,0,0,,,,
159.5439999,623,3659.72771,0,0,0,0.092676615,137.2026407,0.010729757,0,-72.18936311,160.0055832,0.531118032,0,324.4107886,150.7007327,0,0,,,,
159.5519999,623,1099.176836,0,0,0,0.092446539,-460.2665543,0.010702433,0,-84.27538622,-209.4958952,0.529761634,0,-140.817451,-195.438324,0,0,,,,
159.5599999,623,3463.8647,0,0,0,0.092215013,167.1124382,0.010674944,0,13.80921483,-53.83915056,0.528397067,0,168.2496495,75.79140106,0,0,,,,
159.5679999,623,2214.707318,0,0,0,0.091982046,-263.2144016,0.01064729,0,-168.5960889,64.80630894,0.527024395,0,98.57771693,-33.26125896,0,0,,,,
159.5759999,623,1828.381295,0,0,0,0.091747651,-203.7576432,0.010619474,0,20.52916294,-276.101457,0.525643685,0,-136.2761837,-144.2153389,0,0,,,,
159.5839999,623,3640.385564,0,0,0,0.091511839,119.9011337,0.010591496,0,-93.72608862,174.4902545,0.524255002,0,288.1171465,142.591598,0,0,,,,
159.5919999,623,1070.159898,0,0,0,0.091274622,-482.0988701,0.010563358,0,-90.70567935,-188.8155735,0.522858412,0,-173.1369408,-205.5291069,0,0,,,,
159.5999999,623,3437.173821,0,0,0,0.091036011,151.2439466,0.010535062,0,12.14089532,-34.01565318,0.521453981,0,135.4172686,69.59694116,0,0,,,,
159.6079999,623,2225.449108,0,0,0,0.090796017,-272.0979037,0.010506608,0,-172.586378,91.21451131,0.520041774,0,63.44280802,-37.6874011,0,0,,,,
159.6159999,623,1822.372593,0,0,0,0.090554651,-220.0191773,0.010477998,0,26.93077743,-256.1390075,0.518621856,0,-179.7278122,-151.1559684,0,0,,,,
159.6239999,623,3660.962372,0,0,0,0.090311925,118.5948596,0.010449234,0,-85.53125408,190.3239184,0.517194293,0,247.3379311,149.6228492,0,0,,,,
159.6319999,623,1074.831021,0,0,0,0.090067851,-481.3921714,0.010420316,0,-84.59972224,-180.0652124,0.515759151,0,-209.2761809,-192.7966341,0,0,,,,
159.6399999,623,3397.838432,0,0,0,0.08982244,142.508356,0.010391245,0,39.72259172,-36.47188901,0.514316494,0,113.3956405,88.51116434,0,0,,,,
159.6479999,623,2212.984791,0,0,0,0.089575702,-272.7670399,0.010362024,0,-144.680005,95.21790996,0.512866388,0,69.31216156,-7.356618,0,0,,,,
159.6559999,623,1808.742523,0,0,0,0.08932765,-218.3343711,0.010332654,0,42.82562767,-256.397688,0.511408898,0,-162.6484038,-138.4027866,0,0,,,,
159.6639999,623,3679.754937,0,0,0,0.089078294,122.206061,0.010303135,0,-62.63821615,187.7227451,0.50994409,0,268.2878035,141.8118021,0,0,,,,
159.6719999,623,1113.452142,0,0,0,0.088827646,-481.3328312,0.01027347,0,-53.40506367,-169.7637447,0.508472027,0,-185.2291729,-210.8169119,0,0,,,,
159.6799999,623,3443.288564,0,0,0,0.088575718,146.4545595,0.010243659,0,75.43567109,-18.46496646,0.506992776,0,153.2055445,64.58704492,0,0,,,,
159.6879999,623,2299.746631,0,0,0,0.08832252,-259.5844159,0.010213704,0,-115.6952946,115.1346473,0.505506401,0,128.7637872,-30.18960917,0,0,,,,
159.6959999,623,1881.007061,0,0,0,0.088068063,-211.5727142,0.010183606,0,64.5933013,-250.7996864,0.504012967,0,-112.0633135,-161.9745975,0,0,,,,
159.7039999,623,3758.949271,0,0,0,0.08781236,132.5413806,0.010153366,0,-41.68550131,184.956977,0.502512539,0,323.2000862,134.8819269,0,0,,,,
159.7119999,623,1183.849302,0,0,0,0.08755542,-467.9134158,0.010122986,0,-37.44664946,-167.038354,0.501005181,0,-116.197598,-197.5259815,0,0,,,,
159.7199999,623,3501.235296,0,0,0,0.087297257,160.295588,0.010092467,0,86.78368781,-17.51719394,0.499490958,0,208.9906086,81.04159534,0,0,,,,
159.7279999,623,2382.514249,0,0,0,0.087037879,-245.6433804,0.01006181,0,-108.0656218,117.2558976,0.497969935,0,181.1253438,-8.994948769,0,0,,,,
159.7359999,623,1937.885852,0,0,0,0.0867773,-209.0043572,0.010031017,0,74.40673139,-249.4569681,0.496442176,0,-38.3588294,-139.697934,0,0,,,,
159.7439999,624,3842.910982,0,0,0,0.08651553,138.8551625,0.010000088,0,-29.57132603,189.1439713,0.494907746,0,413.0820159,155.3497686,0,0,,,,
159.7519999,624,1278.316697,0,0,0,0.08625258,-465.4236749,0.009969026,0,-33.86900637,-166.132663,0.493366708,0,-36.22666284,-187.0975061,0,0,,,,
159.7599999,624,3572.664793,0,0,0,0.085988461,156.3677102,0.009937832,0,89.65563357,-27.26306535,0.491819128,0,295.9685978,85.40564108,0,0,,,,
159.7679999,624,2486.091443,0,0,0,0.085723185,-242.7662978,0.009906506,0,-96.10980138,118.5354357,0.490265069,0,287.4756345,5.556071511,0,0,,,,
159.7759999,624,2052.037325,0,0,0,0.085456762,-208.0919327,0.00987505,0,81.28353483,-239.8377256,0.488704595,0,48.57260552,-127.4027604,0,0,,,,
159.7839999,624,4003.391783,0,0,0,0.085189204,147.8299319,0.009843466,0,-35.51163161,195.2913459,0.487137771,0,489.3797659,161.4195825,0,0,,,,
159.7919999,624,1454.460316,0,0,0,0.084920522,-456.128313,0.009811755,0,-41.36974542,-172.7440871,0.48556466,0,30.87322928,-191.4966734,0,0,,,,
159.7999999,624,3745.686641,0,0,0,0.084650727,166.8367489,0.009779917,0,80.32398579,-47.63028033,0.483985326,0,332.3728116,69.23975101,0,0,,,,
159.8079999,624,2671.055599,0,0,0,0.084379831,-232.0063843,0.009747954,0,-109.3513495,92.77728527,0.482399833,0,306.8353823,-15.34754187,0,0,,,,
159.8159999,624,2178.15021,0,0,0,0.084107843,-213.6963152,0.009715869,0,78.67444976,-280.1913037,0.480808244,0,61.8836169,-156.0257614,0,0,,,,
159.8239999,624,4126.571941,0,0,0,0.083834775,153.058518,0.009683661,0,-30.41691696,162.7461079,0.479210623,0,511.6820824,139.6209705,0,0,,,,
159.8319999,624,1573.304151,0,0,0,0.083560639,-450.1312675,0.009651332,0,-42.16462592,-183.26982,0.477607034,0,53.10500975,-207.0161128,0,0,,,,
159.8399999,624,3851.30229,0,0,0,0.083285445,161.508503,0.009618883,0,80.75269796,-53.26897229,0.47599754,0,346.8004326,56.89809491,0,0,,,,
159.8479999,624,2800.435858,0,0,0,0.083009204,-229.5713859,0.009586316,0,-110.4189717,96.40901959,0.474382204,0,320.2149924,-18.43710616,0,0,,,,
159.8559999,624,2293.698908,0,0,0,0.082731928,-210.5265673,0.009553632,0,64.95383558,-274.2582201,0.472761089,0,53.83886134,-161.0669636,0,0,,,,
159.8639999,624,4259.171458,0,0,0,0.082453626,159.2432498,0.009520833,0,-42.76640124,168.8739683,0.471134259,0,503.3581389,140.1328333,0,0,,,,
159.8719999,624,1673.077532,0,0,0,0.082174311,-449.1589731,0.009487918,0,-51.83514946,-174.1724327,0.469501776,0,59.49775419,-197.1551935,0,0,,,,
159.8799999,624,3908.041407,0,0,0,0.081893993,154.1197163,0.009454891,0,61.47413768,-53.49413161,0.467863704,0,343.8611457,67.21057726,0,0,,,,
159.8879999,624,2865.754397,0,0,0,0.081612683,-232.6936164,0.009421751,0,-138.4469637,92.14339578,0.466220104,0,316.8753576,-6.424586711,0,0,,,,
159.8959999,624,2323.351042,0,0,0,0.081330391,-209.7465665,0.009388501,0,26.2786302,-284.6163305,0.464571041,0,60.19516889,-153.3787034,0,0,,,,
159.9039999,624,4259.700577,0,0,0,0.08104713,156.9892701,0.009355141,0,-81.35041948,149.1878822,0.462916576,0,508.8758762,139.0387204,0,0,,,,
159.9119999,624,1641.539044,0,0,0,0.080762909,-455.1131094,0.009321674,0,-86.18581715,-198.5277209,0.461256771,0,53.01241821,-202.0392204,0,0,,,,
159.9199999,624,3892.721125,0,0,0,0.08047774,167.7804398,0.009288099,0,18.35182791,-76.60950696,0.45959169,0,339.9182502,62.34383081,0,0,,,,
159.9279999,624,2864.797914,0,0,0,0.080191633,-219.9158494,0.009254418,0,-183.1828199,78.73544853,0.457921395,0,312.0064406,-18.97177829,0,0,,,,
159.9359999,624,2275.1811,0,0,0,0.0799046,-216.3350937,0.009220634,0,-0.386727998,-300.3393609,0.456245947,0,36.3573602,-166.5855304,0,0,,,,
159.9439999,624,4264.333358,0,0,0,0.07961665,165.6701558,0.009186746,0,-102.0365689,135.242653,0.454565408,0,494.8531163,137.1619447,0,0,,,,
159.9519999,624,1668.819,0,0,0,0.079327795,-451.276383,0.009152756,0,-112.7089979,-206.6399874,0.452879842,0,43.24871234,-215.7798677,0,0,,,,
159.9599999,624,3889.875746,0,0,0,0.079038046,155.8072829,0.009118665,0,21.44935326,-87.00732681,0.451189309,0,328.0518461,46.01685767,0,0,,,,
159.9679999,624,2882.747211,0,0,0,0.078747413,-223.2058849,0.009084475,0,-151.9886695,73.90270847,0.449493871,0,326.033717,-12.75109325,0,0,,,,
159.9759999,624,2265.422722,0,0,0,0.078455907,-222.6410102,0.009050187,0,25.259435,-309.0356547,0.44779359,0,50.57598946,-161.1704786,0,0,,,,
159.9839999,624,4259.162269,0,0,0,0.078163539,160.8196977,0.009015802,0,-75.89931086,128.404748,0.446088527,0,496.6915501,147.0573,0,0,,,,
159.9919999,624,1685.525486,0,0,0,0.077870319,-444.9235809,0.008981321,0,-84.89864964,-205.2132431,0.444378745,0,43.85843414,-192.7914409,0,0,,,,
159.9999999,625,3913.556492,0,0,0,0.077576258,170.970633,0.008946746,0,38.52313477,-93.57591728,0.442664303,0,324.3356077,57.23147303,0,0,,,,
160.0079999,625,2945.594304,0,0,0,0.077281367,-203.648485,0.008912077,0,-148.9736441,68.99933431,0.440945263,0,318.7155926,-6.904535148,0,0,,,,
160.0159999,625,2341.010412,0,0,0,0.076985657,-201.2251982,0.008877317,0,22.11493887,-307.2185644,0.439221686,0,27.4998016,-155.220405,0,0,,,,
160.0239999,625,4338.976663,0,0,0,0.076689137,183.3950222,0.008842466,0,-59.6412771,137.8499867,0.437493634,0,474.0828309,148.7999189,0,0,,,,
160.0319999,625,1722.839129,0,0,0,0.076391819,-442.7295404,0.008807525,0,-37.50155917,-186.2031625,0.435761166,0,33.33867219,-186.2525221,0,0,,,,
160.0399999,625,3947.751801,0,0,0,0.076093713,172.6317924,0.008772496,0,84.52587293,-72.44858014,0.434024344,0,313.8750693,69.07787675,0,0,,,,
160.0479999,625,2995.312217,0,0,0,0.075794829,-191.4480255,0.00873738,0,-115.7994178,98.07050103,0.432283227,0,313.3762092,-0.236997802,0,0,,,,
160.0559999,625,2312.403656,0,0,0,0.075495179,-209.2513969,0.008702178,0,75.06281573,-274.6122554,0.430537878,0,32.48613686,-156.732963,0,0,,,,
160.0639999,625,4334.970679,0,0,0,0.075194772,182.3240402,0.008666891,0,-14.80537627,168.6283448,0.428788355,0,496.2018935,148.5029442,0,0,,,,
160.0719999,625,1746.358017,0,0,0,0.07489362,-432.7156159,0.008631521,0,-29.59309861,-162.7649707,0.427034719,0,46.36659032,-195.0735698,0,0,,,,
160.0799999,625,3939.133131,0,0,0,0.074591732,171.256426,0.008596069,0,94.33372609,-62.10576486,0.42527703,0,309.2956999,53.53809185,0,0,,,,
160.0879999,625,3018.856847,0,0,0,0.07428912,-191.3509317,0.008560536,0,-93.82606846,106.4329603,0.423515348,0,314.5542042,-4.849913555,0,0,,,,
160.0959999,625,2352.81494,0,0,0,0.073985792,-202.5461869,0.008524923,0,91.2416008,-274.043652,0.421749732,0,19.63145171,-157.6454495,0,0,,,,
160.1039999,625,4413.555187,0,0,0,0.073681761,196.0127049,0.008489231,0,-16.8345213,159.6499931,0.419980243,0,467.4290825,148.1715987,0,0,,,,
160.1119999,625,1816.424037,0,0,0,0.073377036,-426.7988667,0.008453462,0,-37.41769145,-176.502853,0.41820694,0,12.77606563,-194.3228865,0,0,,,,
160.1199999,625,3968.521129,0,0,0,0.073071628,171.2964645,0.008417617,0,105.991227,-71.67554476,0.416429882,0,266.8328479,62.52838033,0,0,,,,
160.1279999,625,3043.352142,0,0,0,0.072765546,-190.5735042,0.008381697,0,-69.06925556,116.5662115,0.414649128,0,281.1144507,19.07183681,0,0,,,,
160.1359999,625,2368.35226,0,0,0,0.072458802,-198.4477944,0.008345703,0,109.4285528,-258.1807171,0.412864738,0,3.609777719,-132.582348,0,0,,,,
160.1439999,625,4483.989987,0,0,0,0.072151406,214.8016149,0.008309636,0,-9.126500613,177.4176429,0.411076771,0,453.7587922,165.4719756,0,0,,,,
160.1519999,625,1891.959687,0,0,0,0.071843367,-415.9476889,0.008273498,0,-19.94127751,-159.2060766,0.409285285,0,-3.565713397,-191.0298144,0,0,,,,
160.1599999,625,4052.87526,0,0,0,0.071534696,186.2928349,0.00823729,0,126.1537029,-64.49584215,0.407490339,0,264.6145255,56.76418724,0,0,,,,
160.1679999,625,3163.535892,0,0,0,0.071225403,-169.050592,0.008201013,0,-74.1193855,112.3796135,0.405691993,0,282.8830033,2.849524109,0,0,,,,
160.1759999,625,2424.36942,0,0,0,0.070915499,-199.970949,0.008164668,0,106.6326033,-280.8945857,0.403890303,0,-7.776541874,-160.9108551,0,0,,,,
160.1839999,625,4533.537885,0,0,0,0.070604994,218.5782882,0.008128256,0,-1.145792415,158.4867434,0.402085328,0,452.4587161,154.5826486,0,0,,,,
160.1919999,625,1930.152968,0,0,0,0.070293897,-406.670954,0.008091778,0,-29.90397013,-166.0165738,0.400277128,0,4.296673834,-183.8604296,0,0,,,,
160.1999999,625,4070.438261,0,0,0,0.069982219,191.7973537,0.008055237,0,111.7238398,-69.86717956,0.398465759,0,272.4245835,69.35781162,0,0,,,,
160.2079999,625,3201.782371,0,0,0,0.06966997,-161.0009308,0.008018632,0,-90.03140657,120.7944814,0.396651279,0,291.784641,22.63431665,0,0,,,,
160.2159999,625,2408.677527,0,0,0,0.069357161,-204.492511,0.007981965,0,101.3246529,-263.9291955,0.394833747,0,-10.34403794,-138.6945064,0,0,,,,
160.2239999,625,4542.069383,0,0,0,0.0690438,222.282428,0.007945237,0,13.03898351,182.02228,0.39301322,0,444.4446864,183.2417544,0,0,,,,
160.2319999,625,1974.552922,0,0,0,0.068729898,-398.0705409,0.00790845,0,-34.90085512,-141.8487116,0.391189755,0,-25.64990325,-166.6133125,0,0,,,,
160.2399999,625,4081.869073,0,0,0,0.068415466,193.0270486,0.007871604,0,102.5282928,-60.61772229,0.389363409,0,214.1892835,67.11042914,0,0,,,,
