Time:125Hz,Epoch,FP1,FP2,C3,C4,P7,P8,O1,O2,F7,F8,F3,F4,T7,T8,P3,P4,,,,
672.8559995,2628,0,0,0,-105.726037,0,0,2838.152465,-8.606768501,-42.81738967,76.06192787,0,0,0,37.81211126,0,0,,,,
672.8639995,2628,0,0,0,76.73630796,0,0,2276.528893,1.785033133,-63.05829091,217.505785,0,0,0,-17.06579478,0,0,,,,
672.8719995,2628,0,0,0,-9.339042321,0,0,2582.368266,76.64296067,57.04429331,38.98010555,0,0,0,70.95996398,0,0,,,,
672.8799995,2628,0,0,0,-38.26955317,0,0,2663.593844,-59.389501,-119.3764239,270.3662569,0,0,0,46.95331506,0,0,,,,
672.8879995,2628,0,0,0,94.52109539,0,0,2251.323499,103.819655,41.14541259,157.5318724,0,0,0,21.56248265,0,0,,,,
672.8959995,2628,0,0,0,-103.1540096,0,0,2856.614042,-17.65295269,-37.28116124,170.8717097,0,0,0,87.54627111,0,0,,,,
672.9039995,2628,0,0,0,53.99640479,0,0,2281.845572,-19.49851402,-48.3671113,279.8824904,0,0,0,-4.471409968,0,0,,,,
672.9119995,2628,0,0,0,-34.92482956,0,0,2599.716791,84.96818653,64.1648421,70.38149754,0,0,0,55.00723205,0,0,,,,
672.9199995,2628,0,0,0,-45.21103839,0,0,2648.693829,-61.08366991,-94.29886476,283.4997684,0,0,0,49.41312658,0,0,,,,
672.9279995,2628,0,0,0,85.84172339,0,0,2205.010677,93.29106459,91.77831933,153.6885308,0,0,0,19.99457525,0,0,,,,
672.9359995,2628,0,0,0,-111.8311944,0,0,2819.526303,-9.405764197,-8.46242568,154.492205,0,0,0,70.48386736,0,0,,,,
672.9439995,2628,0,0,0,71.96503887,0,0,2246.170039,13.31497715,-14.07957189,270.7475081,0,0,0,18.45505369,0,0,,,,
672.9519995,2628,0,0,0,-20.39968388,0,0,2564.980494,121.4478526,109.1899918,71.77951108,0,0,0,104.3177713,0,0,,,,
672.9599995,2628,0,0,0,-70.17228458,0,0,2635.275999,-75.03980763,-93.59388566,271.6112684,0,0,0,63.12336082,0,0,,,,
672.9679995,2628,0,0,0,55.19152908,0,0,2223.259571,71.21237794,77.58266245,123.3211119,0,0,0,17.36277972,0,0,,,,
672.9759995,2628,0,0,0,-104.1551354,0,0,2844.619596,13.04501129,-12.54106582,120.5273761,0,0,0,90.71602872,0,0,,,,
672.9839995,2628,0,0,0,81.00888368,0,0,2257.906111,-4.600911753,-17.21084009,223.7411307,0,0,0,29.76102904,0,0,,,,
672.9919995,2628,0,0,0,-28.47615711,0,0,2560.559185,65.41032761,122.5872124,3.408322042,0,0,0,72.69968359,0,0,,,,
672.9999995,2628,0,0,0,-61.20098527,0,0,2629.063506,-76.89769115,-78.85139209,201.8617808,0,0,0,43.34394771,0,0,,,,
673.0079995,2628,0,0,0,73.63401867,0,0,2217.172702,86.62036605,80.96943456,59.10176243,0,0,0,21.54750566,0,0,,,,
673.0159995,2628,0,0,0,-99.08323648,0,0,2816.515653,-0.667240104,9.768893763,52.31989414,0,0,0,79.78660242,0,0,,,,
673.0239995,2629,0,0,0,82.73358887,0,0,2231.777471,9.197256076,13.51435703,162.4877705,0,0,0,30.65970525,0,0,,,,
673.0319995,2629,0,0,0,-16.20666242,0,0,2541.7032,115.10797,130.5807047,-37.84769705,0,0,0,90.67248279,0,0,,,,
673.0399995,2629,0,0,0,-47.96824559,0,0,2590.989951,-31.46332628,-60.48513084,163.0869722,0,0,0,56.42087922,0,0,,,,
673.0479995,2629,0,0,0,74.34154396,0,0,2174.350698,98.80102316,107.008156,18.97627162,0,0,0,39.32928457,0,0,,,,
673.0559995,2629,0,0,0,-116.2713681,0,0,2782.283209,-16.67524049,5.190212552,19.85406794,0,0,0,87.27553203,0,0,,,,
673.0639995,2629,0,0,0,50.7579287,0,0,2213.141125,-9.112706823,-6.91010459,124.3560157,0,0,0,8.113198541,0,0,,,,
673.0719995,2629,0,0,0,-46.00057024,0,0,2532.608325,64.7449423,109.934353,-80.34667258,0,0,0,54.29013667,0,0,,,,
673.0799995,2629,0,0,0,-57.52852215,0,0,2572.186684,-89.00670333,-71.22490665,126.2828082,0,0,0,28.84355058,0,0,,,,
673.0879995,2629,0,0,0,74.81844105,0,0,2167.591353,80.59969183,102.4404047,-9.77995991,0,0,0,19.41473192,0,0,,,,
673.0959995,2629,0,0,0,-114.1772336,0,0,2792.336451,-26.08876508,-13.86653603,0.106623285,0,0,0,67.67358614,0,0,,,,
673.1039995,2629,0,0,0,76.3222893,0,0,2215.334193,-1.433307686,-22.68114691,107.6649341,0,0,0,10.69903858,0,0,,,,
673.1119995,2629,0,0,0,-16.58792471,0,0,2536.508866,98.37765125,109.2479481,-92.96590022,0,0,0,73.42355102,0,0,,,,
673.1199995,2629,0,0,0,-60.54395469,0,0,2582.785538,-79.35077731,-84.24447525,115.4244852,0,0,0,31.51680849,0,0,,,,
673.1279995,2629,0,0,0,75.40217547,0,0,2161.681576,69.42372896,81.66975171,-24.70437902,0,0,0,3.090495097,0,0,,,,
673.1359995,2629,0,0,0,-97.60578411,0,0,2763.629518,-25.44011127,-8.08481361,-13.70352786,0,0,0,53.59938808,0,0,,,,
673.1439995,2629,0,0,0,60.47321957,0,0,2189.420493,-22.75107397,-6.120869069,96.13758029,0,0,0,-4.31600751,0,0,,,,
673.1519995,2629,0,0,0,-30.48198714,0,0,2497.194078,61.53767283,106.4953827,-107.3246384,0,0,0,34.78593171,0,0,,,,
673.1599995,2629,0,0,0,-28.42467502,0,0,2508.536385,-61.98889267,-75.90251633,97.39393456,0,0,0,0.14818852,0,0,,,,
673.1679995,2629,0,0,0,96.26289111,0,0,2094.975872,121.3942511,113.3350916,-40.81654876,0,0,0,17.51928818,0,0,,,,
673.1759995,2629,0,0,0,-106.2348583,0,0,2710.884302,0.663524636,-3.605562934,-20.23929408,0,0,0,89.15025298,0,0,,,,
673.1839995,2629,0,0,0,59.43975223,0,0,2147.195887,2.957803096,-34.19213396,89.52759643,0,0,0,16.812525,0,0,,,,
673.1919995,2629,0,0,0,-43.22376743,0,0,2495.7256,87.75642724,81.51570333,-116.4290187,0,0,0,65.38796134,0,0,,,,
673.1999995,2629,0,0,0,-62.89011625,0,0,2539.985357,-83.0400443,-107.1691385,93.44258004,0,0,0,30.29233002,0,0,,,,
673.2079995,2629,0,0,0,83.44572161,0,0,2125.660043,86.7620825,80.18096295,-50.42043704,0,0,0,9.610054742,0,0,,,,
673.2159995,2629,0,0,0,-100.5780386,0,0,2722.932372,-15.27236322,-4.598290548,-38.55309658,0,0,0,64.19271696,0,0,,,,
673.2239995,2629,0,0,0,57.55120822,0,0,2156.255725,-18.9535273,-28.70292107,75.10672378,0,0,0,-16.459425,0,0,,,,
673.2319995,2629,0,0,0,-26.53691602,0,0,2495.344265,78.81366043,87.91849655,-118.6999929,0,0,0,41.67703229,0,0,,,,
673.2399995,2629,0,0,0,-20.41097714,0,0,2503.009867,-54.42821762,-65.75419768,98.54197778,0,0,0,42.32551672,0,0,,,,
673.2479995,2629,0,0,0,100.3459948,0,0,2094.377865,103.4147549,101.65406,-36.66217632,0,0,0,26.26122545,0,0,,,,
673.2559995,2629,0,0,0,-111.659136,0,0,2724.63497,-25.17917503,-20.51213687,-22.46124858,0,0,0,54.51601481,0,0,,,,
673.2639995,2629,0,0,0,55.29202452,0,0,2153.61637,-21.66924909,-26.28185965,77.19281945,0,0,0,-25.33568887,0,0,,,,
673.2719995,2629,0,0,0,-31.42131098,0,0,2481.571628,83.92382872,90.58927572,-123.9489094,0,0,0,39.49878034,0,0,,,,
673.2799995,2630,0,0,0,-54.4720757,0,0,2510.767993,-64.1239652,-86.95574946,88.81525677,0,0,0,21.64643585,0,0,,,,
673.2879995,2630,0,0,0,57.7545047,0,0,2116.556244,81.33202494,80.38791337,-54.27847277,0,0,0,-5.366637562,0,0,,,,
673.2959995,2630,0,0,0,-116.0055184,0,0,2701.144265,-14.24967518,-21.96229597,-40.13481459,0,0,0,44.08040334,0,0,,,,
673.3039995,2630,0,0,0,46.05894581,0,0,2115.528112,-16.36059427,-25.46861908,64.2778117,0,0,0,-12.88654561,0,0,,,,
673.3119995,2630,0,0,0,-78.22230567,0,0,2477.664405,39.75286831,75.71086311,-130.1876448,0,0,0,27.64787856,0,0,,,,
673.3199995,2630,0,0,0,-80.88562972,0,0,2494.188043,-110.1203111,-102.676461,84.27733611,0,0,0,-15.96266797,0,0,,,,
673.3279995,2630,0,0,0,52.49667846,0,0,2102.367967,61.36114079,67.04273533,-55.9551102,0,0,0,-23.95751268,0,0,,,,
673.3359995,2630,0,0,0,-119.8108513,0,0,2707.956647,-4.778979381,-26.86043515,-30.12260198,0,0,0,56.66258226,0,0,,,,
673.3439995,2630,0,0,0,53.31787045,0,0,2104.365837,0.889901555,-19.63562513,75.87151421,0,0,0,1.653710203,0,0,,,,
673.3519995,2630,0,0,0,-63.42884252,0,0,2451.7073,46.89562082,72.11222771,-126.9882375,0,0,0,18.53113875,0,0,,,,
673.3599995,2630,0,0,0,-45.31188146,0,0,2457.963921,-75.58946833,-97.79746003,88.57057774,0,0,0,-5.452441188,0,0,,,,
673.3679995,2630,0,0,0,86.33117037,0,0,2066.490428,112.8347023,83.4149376,-41.67672852,0,0,0,24.71693421,0,0,,,,
673.3759995,2630,0,0,0,-127.1480491,0,0,2687.866271,-8.878123715,-38.94813476,-12.87437952,0,0,0,57.23613682,0,0,,,,
673.3839995,2630,0,0,0,41.18193837,0,0,2094.99124,-19.05118947,-46.57847353,87.27694164,0,0,0,-33.57880618,0,0,,,,
673.3919995,2630,0,0,0,-58.90869143,0,0,2451.156177,66.46877461,53.31542832,-108.0091364,0,0,0,25.60287237,0,0,,,,
673.3999995,2630,0,0,0,-54.80864286,0,0,2449.772396,-88.03385509,-110.8248123,122.943998,0,0,0,-15.61476612,0,0,,,,
673.4079995,2630,0,0,0,79.27725629,0,0,2037.786376,79.44203682,83.92611997,-2.833164563,0,0,0,-27.65722942,0,0,,,,
673.4159995,2630,0,0,0,-101.4333969,0,0,2650.580942,7.751221656,-30.74693139,40.13841358,0,0,0,54.17974488,0,0,,,,
673.4239995,2630,0,0,0,72.52069821,0,0,2054.317676,0.53758044,-25.58098078,161.5733552,0,0,0,-4.978897742,0,0,,,,
673.4319995,2630,0,0,0,-21.00603026,0,0,2389.541703,90.58037938,91.13210961,-30.65971342,0,0,0,29.77462563,0,0,,,,
673.4399995,2630,0,0,0,-21.07260482,0,0,2394.13204,-28.89369361,-87.22975031,191.6693654,0,0,0,31.52682468,0,0,,,,
673.4479995,2630,0,0,0,62.65695502,0,0,2015.217697,84.0467185,71.82098216,50.77444081,0,0,0,21.33547919,0,0,,,,
673.4559995,2630,0,0,0,-136.0510474,0,0,2621.748339,-41.8367787,-57.1576232,69.97654028,0,0,0,18.61075323,0,0,,,,
673.4639995,2630,0,0,0,41.85320941,0,0,2022.876673,-21.21262098,-41.09808499,168.6423108,0,0,0,-42.5065727,0,0,,,,
673.4719995,2630,0,0,0,-64.09301689,0,0,2374.077552,67.28057108,69.22669219,-27.5340561,0,0,0,11.75509922,0,0,,,,
673.4799995,2630,0,0,0,-52.0449834,0,0,2378.934864,-51.642436,-113.4420325,200.7056103,0,0,0,-13.56941424,0,0,,,,
673.4879995,2630,0,0,0,60.55926504,0,0,1993.449654,93.17153621,76.35830674,58.879113,0,0,0,7.352214501,0,0,,,,
673.4959995,2630,0,0,0,-126.1134697,0,0,2592.989286,-29.03708976,-39.14564248,83.37525435,0,0,0,35.64518699,0,0,,,,
673.5039995,2630,0,0,0,44.71970011,0,0,2019.374318,-3.006669847,-46.55703792,183.9989882,0,0,0,-35.36230645,0,0,,,,
673.5119995,2630,0,0,0,-69.336328,0,0,2381.542646,68.49749429,60.23012809,-24.74553468,0,0,0,40.43536854,0,0,,,,
673.5199995,2630,0,0,0,-47.61011545,0,0,2354.116467,-73.64781644,-103.6558006,191.6879925,0,0,0,-1.225680169,0,0,,,,
673.5279995,2630,0,0,0,62.97311385,0,0,1980.110709,91.05562852,81.95088682,49.45452595,0,0,0,-10.14818124,0,0,,,,
673.5359995,2631,0,0,0,-141.3915434,0,0,2591.911627,-33.67570555,-48.93549401,71.89091153,0,0,0,30.11264495,0,0,,,,
673.5439995,2631,0,0,0,60.30053085,0,0,1979.401186,-15.0454277,-44.63521607,168.0637654,0,0,0,-57.37510115,0,0,,,,
673.5519995,2631,0,0,0,-19.15052099,0,0,2330.213074,108.037797,91.17479051,-22.82593665,0,0,0,29.5191608,0,0,,,,
673.5599995,2631,0,0,0,-37.06499766,0,0,2331.192575,-34.44981272,-89.60385773,206.5415593,0,0,0,26.84518395,0,0,,,,
673.5679995,2631,0,0,0,49.41849385,0,0,1964.01594,64.92389024,57.10776266,47.71405289,0,0,0,-14.37770981,0,0,,,,
673.5759995,2631,0,0,0,-111.8104739,0,0,2543.210925,-17.65634768,-41.78487664,61.69415745,0,0,0,19.68382525,0,0,,,,
673.5839995,2631,0,0,0,83.0132581,0,0,1924.48425,31.37035549,-8.363280321,164.5936869,0,0,0,-22.93981683,0,0,,,,
673.5919995,2631,0,0,0,-52.86976953,0,0,2302.999348,62.85546529,77.69762025,-29.67751839,0,0,0,19.91390121,0,0,,,,
673.5999995,2631,0,0,0,-49.93319175,0,0,2303.278969,-67.56765945,-115.036263,189.4317901,0,0,0,-21.6582329,0,0,,,,
673.6079995,2631,0,0,0,74.09250265,0,0,1940.355928,106.5816769,68.67966164,40.9240852,0,0,0,-3.774921193,0,0,,,,
673.6159995,2631,0,0,0,-115.5073336,0,0,2539.959635,-22.32837741,-42.1299664,71.08835486,0,0,0,35.29892556,0,0,,,,
673.6239995,2631,0,0,0,73.50586077,0,0,1924.321197,8.857781051,-23.83293677,164.9822666,0,0,0,-40.68641082,0,0,,,,
673.6319995,2631,0,0,0,-41.83814259,0,0,2290.227851,88.58892459,76.11786501,-31.97686856,0,0,0,32.33245514,0,0,,,,
673.6399995,2631,0,0,0,-52.9720781,0,0,2279.60226,-58.28731956,-110.8548621,194.3086239,0,0,0,-3.520736331,0,0,,,,
673.6479995,2631,0,0,0,64.5205241,0,0,1908.822909,95.56958156,80.19464482,40.34826054,0,0,0,-11.66591932,0,0,,,,
673.6559995,2631,0,0,0,-115.3910105,0,0,2491.981274,-31.4346896,-24.2870338,71.34387477,0,0,0,27.44810983,0,0,,,,
673.6639995,2631,0,0,0,68.43629839,0,0,1888.737992,5.313502072,-12.58558131,171.3406098,0,0,0,-41.59865923,0,0,,,,
673.6719995,2631,0,0,0,-45.2581672,0,0,2268.537742,100.1620774,91.283171,-28.36973873,0,0,0,45.69254931,0,0,,,,
673.6799995,2631,0,0,0,-56.76515866,0,0,2250.405684,-63.35124055,-95.28902393,191.0120194,0,0,0,10.72156234,0,0,,,,
673.6879995,2631,0,0,0,63.62491958,0,0,1892.445561,107.6754024,84.37516821,37.91648379,0,0,0,-0.342848368,0,0,,,,
673.6959995,2631,0,0,0,-112.152464,0,0,2482.074927,2.095483293,-9.923544859,74.43670349,0,0,0,66.62794322,0,0,,,,
673.7039995,2631,0,0,0,52.12369365,0,0,1879.836419,-9.115598715,1.743224847,168.8472678,0,0,0,-13.14699998,0,0,,,,
673.7119995,2631,0,0,0,-52.71338047,0,0,2265.753436,81.61011188,99.26622875,-30.05254278,0,0,0,38.10877778,0,0,,,,
673.7199995,2631,0,0,0,-55.75415808,0,0,2245.042021,-69.25717352,-67.3307514,195.3820584,0,0,0,15.62446901,0,0,,,,
673.7279995,2631,0,0,0,30.14551584,0,0,1899.646779,58.17756614,101.943522,31.18495665,0,0,0,-15.99406622,0,0,,,,
673.7359995,2631,0,0,0,-146.9395921,0,0,2495.573888,-43.42076818,-19.23528063,55.15049106,0,0,0,18.64846296,0,0,,,,
673.7439995,2631,0,0,0,29.43175816,0,0,1887.191552,-25.60860813,-1.694059276,144.5054724,0,0,0,-31.14947424,0,0,,,,
673.7519995,2631,0,0,0,-83.08517918,0,0,2274.071839,62.45389875,94.20103485,-58.82431142,0,0,0,11.26780789,0,0,,,,
673.7599995,2631,0,0,0,-58.63589264,0,0,2240.853785,-58.57651974,-77.11832731,164.2296884,0,0,0,-15.13015835,0,0,,,,
673.7679995,2631,0,0,0,43.50609102,0,0,1881.918912,72.47887905,109.3835512,9.941770094,0,0,0,2.393598474,0,0,,,,
673.7759995,2631,0,0,0,-136.7416633,0,0,2474.896393,-36.42441489,-9.011049322,45.24164437,0,0,0,15.70459031,0,0,,,,
673.7839995,2631,0,0,0,70.10845023,0,0,1863.834817,16.6974626,2.880731436,132.7896357,0,0,0,-45.73435076,0,0,,,,
673.7919995,2632,0,0,0,-51.25271108,0,0,2244.59894,76.01957416,108.3357044,-61.78267259,0,0,0,45.74149308,0,0,,,,
673.7999995,2632,0,0,0,-70.55781753,0,0,2223.621265,-84.70936305,-74.22833723,161.185885,0,0,0,-11.57738528,0,0,,,,
673.8079995,2632,0,0,0,45.4940822,0,0,1884.130128,70.51686809,96.79101312,-11.20781031,0,0,0,-32.85340503,0,0,,,,
673.8159995,2632,0,0,0,-114.519328,0,0,2461.403502,-32.21602392,-5.600369567,24.33873231,0,0,0,12.32446252,0,0,,,,
673.8239995,2632,0,0,0,76.90147277,0,0,1843.158935,14.26804561,14.62247774,112.6192834,0,0,0,-44.14083163,0,0,,,,
673.8319995,2632,0,0,0,-31.89736028,0,0,2221.877933,98.27013381,115.9644706,-87.50975939,0,0,0,40.39338711,0,0,,,,
673.8399995,2632,0,0,0,-25.85041135,0,0,2170.648665,-46.40819796,-53.60241964,139.2100658,0,0,0,0.94221936,0,0,,,,
673.8479995,2632,0,0,0,82.28518426,0,0,1816.622315,101.1480048,116.6287837,-27.57432458,0,0,0,-11.66478303,0,0,,,,
673.8559995,2632,0,0,0,-97.24649948,0,0,2394.32058,-14.10463023,-5.366836634,9.839411482,0,0,0,34.49248467,0,0,,,,
673.8639995,2632,0,0,0,78.79597927,0,0,1790.28503,14.7597291,11.68214106,100.4760991,0,0,0,-31.27136492,0,0,,,,
673.8719995,2632,0,0,0,-46.58119161,0,0,2188.976873,71.1109065,96.12395509,-94.65918482,0,0,0,28.56283056,0,0,,,,
673.8799995,2632,0,0,0,-46.19990973,0,0,2137.135337,-91.59163309,-86.6897097,126.057281,0,0,0,-31.24816296,0,0,,,,
673.8879995,2632,0,0,0,74.99535328,0,0,1789.408602,83.60067383,99.79309759,-45.49334984,0,0,0,-46.93369734,0,0,,,,
673.8959995,2632,0,0,0,-100.0595071,0,0,2373.794947,-0.650223515,-18.27847032,-0.804487763,0,0,0,21.35489025,0,0,,,,
673.9039995,2632,0,0,0,69.21436551,0,0,1759.967491,13.56069914,5.12580374,84.76937191,0,0,0,-44.99258092,0,0,,,,
673.9119995,2632,0,0,0,-29.24357457,0,0,2137.681198,84.33223851,111.5913808,-112.0729356,0,0,0,2.501278735,0,0,,,,
673.9199995,2632,0,0,0,-5.515052499,0,0,2079.435803,-24.93712414,-61.21776771,125.6295701,0,0,0,3.755061252,0,0,,,,
673.9279995,2632,0,0,0,81.14535942,0,0,1751.217796,120.2669091,115.6738017,-34.89306309,0,0,0,16.01036386,0,0,,,,
673.9359995,2632,0,0,0,-103.0935367,0,0,2322.990219,-21.10832131,-10.13401412,5.168063877,0,0,0,27.03872799,0,0,,,,
673.9439995,2632,0,0,0,88.18083791,0,0,1699.904236,21.31488513,8.224070211,86.61880319,0,0,0,-41.04204176,0,0,,,,
673.9519995,2632,0,0,0,-31.38932963,0,0,2102.919075,101.0008821,102.34475,-104.9436885,0,0,0,37.1300871,0,0,,,,
673.9599995,2632,0,0,0,-27.94631257,0,0,2038.380446,-54.38941763,-69.12499888,124.2793579,0,0,0,1.426497174,0,0,,,,
673.9679995,2632,0,0,0,65.18419947,0,0,1700.317348,90.99898553,112.3561262,-51.69468819,0,0,0,-21.62473986,0,0,,,,
673.9759995,2632,0,0,0,-120.4325796,0,0,2286.127651,-36.31694052,-19.93485746,-9.621326651,0,0,0,6.578892193,0,0,,,,
673.9839995,2632,0,0,0,60.51572234,0,0,1671.366085,-24.97521013,-7.409546443,68.82252985,0,0,0,-64.04121627,0,0,,,,
673.9919995,2632,0,0,0,-52.50080044,0,0,2061.215259,46.15458273,86.81492696,-132.6155229,0,0,0,-4.864656908,0,0,,,,
673.9999995,2632,0,0,0,-38.99783999,0,0,2001.467893,-73.96091226,-85.4939641,98.29919903,0,0,0,-32.67835729,0,0,,,,
674.0079995,2632,0,0,0,60.53285794,0,0,1698.938804,109.7800837,85.48237745,-68.05192514,0,0,0,-33.35458693,0,0,,,,
674.0159995,2632,0,0,0,-94.65890499,0,0,2274.044666,13.39394438,-33.15152651,-15.1360978,0,0,0,23.34518253,0,0,,,,
674.0239995,2632,0,0,0,85.76139742,0,0,1649.353695,22.82806715,2.696467661,70.28321617,0,0,0,-30.99255245,0,0,,,,
674.0319995,2632,0,0,0,-53.19597717,0,0,2059.902513,76.63582458,88.55492952,-124.904944,0,0,0,8.295203468,0,0,,,,
674.0399995,2632,0,0,0,-20.1489654,0,0,1978.613076,-44.973563,-77.2791183,103.7640207,0,0,0,-32.55360463,0,0,,,,
674.0479995,2633,0,0,0,77.12966198,0,0,1651.917543,116.1312245,107.0703644,-67.32436996,0,0,0,-19.2075515,0,0,,,,
674.0559995,2633,0,0,0,-121.9556501,0,0,2235.724536,-10.21275214,-31.44925751,-16.65195091,0,0,0,10.47368216,0,0,,,,
674.0639995,2633,0,0,0,65.49485684,0,0,1622.298464,10.32975732,-12.02148994,56.53876423,0,0,0,-71.25221535,0,0,,,,
674.0719995,2633,0,0,0,-47.05540471,0,0,2027.758452,70.55903871,69.20399096,-138.8039997,0,0,0,1.188550432,0,0,,,,
674.0799995,2633,0,0,0,-32.81472144,0,0,1937.552991,-73.6051182,-91.86851886,89.99873276,0,0,0,-30.87231763,0,0,,,,
674.0879995,2633,0,0,0,58.21757576,0,0,1627.559134,79.82986896,99.13608111,-88.83000855,0,0,0,-51.27190538,0,0,,,,
674.0959995,2633,0,0,0,-116.6713453,0,0,2218.822108,-38.97045028,-51.83202955,-29.20668463,0,0,0,-16.73245901,0,0,,,,
674.1039995,2633,0,0,0,79.41664213,0,0,1594.320089,-2.428150037,-21.16987981,46.19412013,0,0,0,-62.96660551,0,0,,,,
674.1119995,2633,0,0,0,-38.1691181,0,0,2003.453366,79.70817012,81.78282842,-151.6127776,0,0,0,10.90080658,0,0,,,,
674.1199995,2633,0,0,0,-26.67383774,0,0,1923.510001,-46.32669208,-96.35064325,83.15933709,0,0,0,-14.03097655,0,0,,,,
674.1279995,2633,0,0,0,54.80900811,0,0,1619.210887,94.64939885,79.95368468,-96.42906359,0,0,0,-11.56953313,0,0,,,,
674.1359995,2633,0,0,0,-130.8847526,0,0,2188.431641,-58.08229116,-60.19842641,-48.69012034,0,0,0,-13.63031036,0,0,,,,
674.1439995,2633,0,0,0,67.85670795,0,0,1554.199942,-9.915151357,-22.79324468,22.24998295,0,0,0,-91.61832441,0,0,,,,
674.1519995,2633,0,0,0,-34.41565272,0,0,1970.674997,83.79242915,78.99800278,-160.5178393,0,0,0,5.692516131,0,0,,,,
674.1599995,2633,0,0,0,-5.235956021,0,0,1882.543002,-51.73137126,-97.48328737,87.23834401,0,0,0,-11.13932721,0,0,,,,
674.1679995,2633,0,0,0,93.57698489,0,0,1576.469545,138.7689344,90.27720191,-84.28871873,0,0,0,0.391002835,0,0,,,,
674.1759995,2633,0,0,0,-87.63410261,0,0,2130.212317,15.82954832,-32.52528038,-27.71482509,0,0,0,28.34531213,0,0,,,,
674.1839995,2633,0,0,0,63.50850644,0,0,1527.53098,4.291590983,-22.31007342,40.69233374,0,0,0,-59.6283012,0,0,,,,
674.1919995,2633,0,0,0,-63.20836293,0,0,1967.575283,69.50631421,47.44150749,-154.9990781,0,0,0,-6.162409146,0,0,,,,
674.1999995,2633,0,0,0,-15.16485529,0,0,1826.215754,-64.6130719,-96.7222642,75.27759131,0,0,0,-52.04978229,0,0,,,,
674.2079995,2633,0,0,0,43.90853627,0,0,1527.246637,64.83211095,88.69103667,-108.345073,0,0,0,-74.24633948,0,0,,,,
674.2159995,2633,0,0,0,-131.0787342,0,0,2093.29356,-44.00457498,-58.63670458,-55.1214275,0,0,0,-52.53566073,0,0,,,,
674.2239995,2633,0,0,0,89.34886854,0,0,1463.248755,29.13264851,-15.35946447,15.07839487,0,0,0,-65.54891264,0,0,,,,
674.2319995,2633,0,0,0,-63.28459946,0,0,1929.103465,62.55433272,50.46822611,-167.8018471,0,0,0,19.71433176,0,0,,,,
674.2399995,2633,0,0,0,-36.98580964,0,0,1820.099673,-64.98245654,-124.3032394,68.02151667,0,0,0,-48.8725936,0,0,,,,
674.2479995,2633,0,0,0,77.42173016,0,0,1517.100171,144.3094027,77.51807843,-114.3748285,0,0,0,-22.23082892,0,0,,,,
674.2559995,2633,0,0,0,-111.1264046,0,0,2091.51562,-8.950442308,-59.51053333,-46.94671868,0,0,0,13.82049174,0,0,,,,
674.2639995,2633,0,0,0,65.2801763,0,0,1474.922726,12.43098437,-28.67101263,26.89071698,0,0,0,-69.21312765,0,0,,,,
674.2719995,2633,0,0,0,-52.57225324,0,0,1893.496059,81.2797253,55.96795379,-168.5380477,0,0,0,-5.247449022,0,0,,,,
674.2799995,2633,0,0,0,-16.1626134,0,0,1747.023112,-58.92795706,-98.82068859,59.81709137,0,0,0,-69.05938316,0,0,,,,
674.2879995,2633,0,0,0,61.29843,0,0,1452.571698,105.7903463,84.37283495,-118.8847518,0,0,0,-62.345846,0,0,,,,
674.2959995,2633,0,0,0,-130.1805794,0,0,1998.485705,-41.02818411,-59.94899309,-55.49654617,0,0,0,-23.01373706,0,0,,,,
674.3039995,2634,0,0,0,49.46387879,0,0,1375.543133,1.846402035,-33.87345318,13.71550672,0,0,0,-107.253844,0,0,,,,
674.3119995,2634,0,0,0,-52.91346806,0,0,1823.823709,109.9113794,41.96910039,-163.7169278,0,0,0,-12.70815775,0,0,,,,
674.3199995,2634,0,0,0,-9.759030705,0,0,1686.19953,-33.12607938,-109.2192559,82.57698772,0,0,0,-3.77069347,0,0,,,,
674.3279995,2634,0,0,0,36.13938332,0,0,1427.88778,77.32653265,56.43929442,-90.26010872,0,0,0,-27.00329565,0,0,,,,
674.3359995,2634,0,0,0,-135.9499562,0,0,2001.08608,-32.79529896,-91.98492651,-25.40180814,0,0,0,-25.70237635,0,0,,,,
674.3439995,2634,0,0,0,74.03297269,0,0,1362.418107,51.78748467,-28.29905459,43.8122507,0,0,0,-70.1040683,0,0,,,,
674.3519995,2634,0,0,0,-76.09699805,0,0,1824.735636,98.3313573,55.71348945,-133.0899138,0,0,0,-14.45778846,0,0,,,,
674.3599995,2634,0,0,0,-43.4713006,0,0,1697.57072,-56.95329969,-109.5775612,98.22794631,0,0,0,-77.5614521,0,0,,,,
674.3679995,2634,0,0,0,54.77853146,0,0,1402.169681,111.1955954,93.8001435,-88.16194745,0,0,0,-73.53385899,0,0,,,,
674.3759995,2634,0,0,0,-129.1518463,0,0,1970.228307,-14.8630293,-35.05245172,-14.98187199,0,0,0,-35.50646267,0,0,,,,
674.3839995,2634,0,0,0,46.9336018,0,0,1355.558251,4.210634798,-12.93989731,45.89439712,0,0,0,-97.48138843,0,0,,,,
674.3919995,2634,0,0,0,-90.84621927,0,0,1812.726674,47.14808697,60.77068072,-150.1299183,0,0,0,-31.51397557,0,0,,,,
674.3999995,2634,0,0,0,-45.710786,0,0,1696.200607,-63.231436,-93.66056767,80.67350353,0,0,0,-76.71830813,0,0,,,,
674.4079995,2634,0,0,0,66.49200059,0,0,1409.759662,116.2198101,98.8270688,-110.8357854,0,0,0,-60.32450555,0,0,,,,
674.4159995,2634,0,0,0,-93.01672554,0,0,1940.391946,-10.53068185,-19.62512588,-50.88071767,0,0,0,5.177205689,0,0,,,,
674.4239995,2634,0,0,0,88.91122359,0,0,1301.062293,20.07137585,24.89082251,10.88544772,0,0,0,-77.46615129,0,0,,,,
674.4319995,2634,0,0,0,-62.58734639,0,0,1760.106625,64.41932979,94.17624132,-173.8837689,0,0,0,-31.27314051,0,0,,,,
674.4399995,2634,0,0,0,-29.99434476,0,0,1646.131485,-54.98915752,-75.5483137,55.66722542,0,0,0,-50.67333273,0,0,,,,
674.4479995,2634,0,0,0,71.03530847,0,0,1366.802777,100.141234,111.175978,-135.2794383,0,0,0,-42.90511405,0,0,,,,
674.4559995,2634,0,0,0,-102.701515,0,0,1908.194063,-17.53763457,-11.81314207,-66.43897105,0,0,0,-3.006505089,0,0,,,,
674.4639995,2634,0,0,0,71.6761288,0,0,1283.727335,31.19878161,21.34378606,-6.143903971,0,0,0,-66.65577767,0,0,,,,
674.4719995,2634,0,0,0,-75.18331214,0,0,1732.28919,50.18291248,86.99107833,-188.9077052,0,0,0,-28.29554154,0,0,,,,
674.4799995,2634,0,0,0,-50.23593018,0,0,1607.972671,-69.62676654,-77.81859283,45.23648463,0,0,0,-75.55072463,0,0,,,,
674.4879995,2634,0,0,0,31.36591868,0,0,1357.861946,97.05819791,96.40105544,-143.1817106,0,0,0,-63.66030895,0,0,,,,
674.4959995,2634,0,0,0,-122.9979815,0,0,1881.677278,-40.97501375,-26.93024428,-75.69544881,0,0,0,-36.88898782,0,0,,,,
674.5039995,2634,0,0,0,70.772833,0,0,1244.874956,14.75518757,24.36888188,-17.23865506,0,0,0,-96.79566413,0,0,,,,
674.5119995,2634,0,0,0,-53.78038381,0,0,1712.06209,72.21184636,94.64449552,-184.9819233,0,0,0,-13.54018885,0,0,,,,
674.5199995,2634,0,0,0,1.947810529,0,0,1545.08134,-40.19399314,-43.49973787,58.93239483,0,0,0,-36.39485154,0,0,,,,
674.5279995,2634,0,0,0,55.47319849,0,0,1296.621785,114.1894693,123.551493,-125.3432853,0,0,0,-45.21760332,0,0,,,,
674.5359995,2634,0,0,0,-105.2767217,0,0,1856.79595,-16.84841262,-35.3186877,-45.45702101,0,0,0,-21.74346665,0,0,,,,
674.5439995,2634,0,0,0,92.44825946,0,0,1211.396137,26.39681731,31.51865702,13.89270489,0,0,0,-60.23069992,0,0,,,,
674.5519995,2634,0,0,0,-67.81551166,0,0,1678.553497,57.85924494,86.94836712,-170.5698941,0,0,0,-13.10646496,0,0,,,,
674.5599995,2635,0,0,0,3.072657168,0,0,1514.288384,-32.38113014,-69.80897804,58.25035458,0,0,0,-62.88701654,0,0,,,,
674.5679995,2635,0,0,0,79.03724969,0,0,1250.674646,140.3244579,133.192635,-128.4398339,0,0,0,-32.70068351,0,0,,,,
674.5759995,2635,0,0,0,-106.5743451,0,0,1789.548974,-33.1324655,-22.47623911,-56.75393655,0,0,0,-13.23923751,0,0,,,,
674.5839995,2635,0,0,0,99.23836597,0,0,1133.665221,6.372102165,38.6024136,-4.279640625,0,0,0,-90.40397416,0,0,,,,
674.5919995,2635,0,0,0,-41.37479591,0,0,1597.727079,74.81357827,110.2671769,-174.6322871,0,0,0,-15.78537687,0,0,,,,
674.5999995,2635,0,0,0,-6.866389344,0,0,1443.988902,-68.80318644,-71.40839795,59.60597008,0,0,0,-39.85628087,0,0,,,,
674.6079995,2635,0,0,0,55.59372762,0,0,1201.794005,77.36827085,111.9382951,-133.8362763,0,0,0,-42.58733684,0,0,,,,
674.6159995,2635,0,0,0,-102.8719457,0,0,1755.214188,-6.660715198,-34.61885359,-57.50716116,0,0,0,-14.85260469,0,0,,,,
674.6239995,2635,0,0,0,96.91484546,0,0,1113.805742,45.47774784,18.75216097,-3.133975363,0,0,0,-53.26459789,0,0,,,,
674.6319995,2635,0,0,0,-60.39677933,0,0,1569.219431,56.07089208,94.91562185,-184.5591248,0,0,0,-6.571856898,0,0,,,,
674.6399995,2635,0,0,0,-28.16258579,0,0,1404.094287,-79.91263526,-73.19509074,30.88629551,0,0,0,-77.8221833,0,0,,,,
674.6479995,2635,0,0,0,36.1411358,0,0,1163.237808,58.40117594,104.6740897,-168.6184895,0,0,0,-89.49020872,0,0,,,,
674.6559995,2635,0,0,0,-126.496697,0,0,1706.449296,-68.7118561,-47.83997774,-88.13747581,0,0,0,-74.21877629,0,0,,,,
674.6639995,2635,0,0,0,79.79193758,0,0,1073.656109,1.726060257,2.456403699,-37.80210185,0,0,0,-100.2292439,0,0,,,,
674.6719995,2635,0,0,0,-52.08969655,0,0,1535.668203,37.27728305,80.16433626,-207.44779,0,0,0,-2.679165197,0,0,,,,
674.6799995,2635,0,0,0,-12.42727272,0,0,1364.275589,-80.51019583,-73.77942026,23.40152952,0,0,0,-60.5564767,0,0,,,,
674.6879995,2635,0,0,0,66.2557722,0,0,1122.554173,114.2276126,118.9028655,-172.6554575,0,0,0,-42.81761508,0,0,,,,
674.6959995,2635,0,0,0,-101.1223343,0,0,1651.776324,-24.72812199,-26.05459181,-88.6033965,0,0,0,-2.965490391,0,0,,,,
674.7039995,2635,0,0,0,62.8902449,0,0,1033.318017,-6.629961457,3.833791466,-43.71829061,0,0,0,-92.18309794,0,0,,,,
674.7119995,2635,0,0,0,-60.90731859,0,0,1520.061246,50.08323902,57.52893687,-209.9822689,0,0,0,-14.38740414,0,0,,,,
674.7199995,2635,0,0,0,3.158275195,0,0,1326.020831,-57.75821493,-72.91257278,25.45404692,0,0,0,-44.50285559,0,0,,,,
674.7279995,2635,0,0,0,63.38824008,0,0,1071.459911,99.06627904,124.9458845,-177.8276511,0,0,0,-49.55696289,0,0,,,,
674.7359995,2635,0,0,0,-105.0354167,0,0,1610.184831,-45.91757044,-49.20407241,-91.00354718,0,0,0,-6.054803363,0,0,,,,
674.7439995,2635,0,0,0,71.73569294,0,0,977.1985373,-20.38105838,-0.824715706,-40.48086079,0,0,0,-83.29317307,0,0,,,,
674.7519995,2635,0,0,0,-68.62416631,0,0,1445.797435,31.18572867,75.11232602,-207.8336302,0,0,0,-33.02899852,0,0,,,,
674.7599995,2635,0,0,0,-16.68699103,0,0,1282.593551,-82.59336261,-90.50756749,30.3205503,0,0,0,-43.54549938,0,0,,,,
674.7679995,2635,0,0,0,43.37544745,0,0,1081.507355,65.59290897,76.4776069,-161.3307881,0,0,0,-32.33626995,0,0,,,,
674.7759995,2635,0,0,0,-106.6928512,0,0,1609.73815,-48.27440523,-61.84461706,-73.47192109,0,0,0,-3.756000388,0,0,,,,
674.7839995,2635,0,0,0,85.42635677,0,0,962.7508284,2.353674055,13.49217016,-30.00713575,0,0,0,-53.19193196,0,0,,,,
674.7919995,2635,0,0,0,-77.53680155,0,0,1459.646511,33.35098236,53.95260722,-195.9508914,0,0,0,-4.517758378,0,0,,,,
674.7999995,2635,0,0,0,-27.78917776,0,0,1294.769653,-72.80321242,-112.9318503,30.20802207,0,0,0,-56.45973069,0,0,,,,
674.8079995,2635,0,0,0,51.8000134,0,0,1073.218667,75.27428012,77.86160221,-172.8994639,0,0,0,-44.55684263,0,0,,,,
674.8159995,2636,0,0,0,-106.7414673,0,0,1597.96241,-62.05982443,-73.67442537,-80.18436914,0,0,0,-9.576113484,0,0,,,,
674.8239995,2636,0,0,0,81.26519215,0,0,960.1137669,10.27205822,-9.569667741,-38.37320921,0,0,0,-69.51038245,0,0,,,,
674.8319995,2636,0,0,0,-57.02835995,0,0,1440.297255,54.12255023,50.43237637,-204.687752,0,0,0,2.466705426,0,0,,,,
674.8399995,2636,0,0,0,-11.988784,0,0,1262.469622,-90.59324749,-103.8502312,30.27434837,0,0,0,-31.71749465,0,0,,,,
674.8479995,2636,0,0,0,59.43234215,0,0,1047.756201,56.25605536,76.05988002,-168.0894728,0,0,0,-38.96568512,0,0,,,,
674.8559995,2636,0,0,0,-66.83239615,0,0,1542.232079,-41.57251366,-53.97451302,-76.79650834,0,0,0,5.787047891,0,0,,,,
674.8639995,2636,0,0,0,117.068392,0,0,898.5434687,31.53303688,33.89699191,-28.549644,0,0,0,-34.42293562,0,0,,,,
674.8719995,2636,0,0,0,-41.36475027,0,0,1392.309551,69.84865054,73.03719763,-186.3153627,0,0,0,13.32578069,0,0,,,,
674.8799995,2636,0,0,0,14.93702859,0,0,1204.940418,-50.23456668,-97.47819853,48.62351473,0,0,0,-28.1069748,0,0,,,,
674.8879995,2636,0,0,0,70.35758146,0,0,996.2430539,94.99511624,89.36765637,-146.1969081,0,0,0,-3.725882355,0,0,,,,
674.8959995,2636,0,0,0,-88.17190656,0,0,1486.295069,-44.92638338,-51.73726461,-60.4282059,0,0,0,8.503446318,0,0,,,,
674.9039995,2636,0,0,0,109.5382399,0,0,839.9134688,19.4965069,8.891100632,-22.31147445,0,0,0,-74.41150204,0,0,,,,
674.9119995,2636,0,0,0,-27.38088672,0,0,1326.87975,59.33597031,62.22017219,-172.0495611,0,0,0,16.33574933,0,0,,,,
674.9199995,2636,0,0,0,5.391334523,0,0,1123.675902,-78.88608558,-84.94041032,60.4562333,0,0,0,-26.49223405,0,0,,,,
674.9279995,2636,0,0,0,52.40628134,0,0,942.0885459,84.78708198,79.04889808,-138.441749,0,0,0,-36.38698185,0,0,,,,
674.9359995,2636,0,0,0,-86.6701919,0,0,1456.013712,-50.78198284,-75.88932377,-42.03222317,0,0,0,11.55024399,0,0,,,,
674.9439995,2636,0,0,0,92.89309533,0,0,822.8755092,-16.76920032,-9.409947834,-8.046451744,0,0,0,-58.04110258,0,0,,,,
674.9519995,2636,0,0,0,-43.29802648,0,0,1322.2227,41.34787742,39.74613986,-167.3432967,0,0,0,-1.250551303,0,0,,,,
674.9599995,2636,0,0,0,28.68986291,0,0,1113.820909,-48.67755793,-99.71494826,65.87505847,0,0,0,-42.29999329,0,0,,,,
674.9679995,2636,0,0,0,57.75694617,0,0,927.9633167,80.44371237,67.39226818,-133.4556108,0,0,0,-41.40380962,0,0,,,,
674.9759995,2636,0,0,0,-99.95476714,0,0,1417.111179,-88.01398362,-88.57980551,-47.89563286,0,0,0,-25.86993077,0,0,,,,
674.9839995,2636,0,0,0,104.5030264,0,0,769.8958296,-2.206215491,-10.74913314,-22.57842101,0,0,0,-97.99577059,0,0,,,,
674.9919995,2636,0,0,0,-39.53539132,0,0,1274.474966,55.5140948,34.39559481,-184.8002927,0,0,0,-6.189026194,0,0,,,,
674.9999995,2636,0,0,0,19.54644629,0,0,1064.517104,-73.99717263,-112.0163303,33.78332942,0,0,0,-47.61873202,0,0,,,,
675.0079995,2636,0,0,0,71.99791483,0,0,885.9205419,71.22018295,64.02140784,-167.9825455,0,0,0,-47.37948314,0,0,,,,
675.0159995,2636,0,0,0,-71.92181351,0,0,1374.54749,-56.58895719,-75.40819633,-68.67021039,0,0,0,-2.560489751,0,0,,,,
675.0239995,2636,0,0,0,98.76644242,0,0,742.7028297,-11.29467786,-3.48999827,-34.38910034,0,0,0,-78.25018869,0,0,,,,
675.0319995,2636,0,0,0,-61.35074695,0,0,1276.051277,-4.009623738,15.19640243,-179.730172,0,0,0,-28.63214754,0,0,,,,
675.0399995,2636,0,0,0,47.36600384,0,0,1048.345337,-46.56513188,-103.8680681,50.82950394,0,0,0,-53.57265794,0,0,,,,
675.0479995,2636,0,0,0,112.3681749,0,0,838.2530393,134.6721172,106.2817216,-145.8606892,0,0,0,-9.863689441,0,0,,,,
675.0559995,2636,0,0,0,-65.92741531,0,0,1334.883138,-58.17517301,-59.09369186,-43.56837803,0,0,0,16.91773261,0,0,,,,
675.0639995,2636,0,0,0,122.8813473,0,0,710.668788,20.45404181,16.82951494,-11.49128545,0,0,0,-58.56887873,0,0,,,,
675.0719995,2637,0,0,0,-35.30588326,0,0,1214.063708,49.54058343,65.52697106,-156.1678307,0,0,0,20.14539106,0,0,,,,
675.0799995,2637,0,0,0,18.56788961,0,0,984.7062096,-82.75072378,-82.72629876,64.91490364,0,0,0,-28.37263973,0,0,,,,
675.0879995,2637,0,0,0,66.5211615,0,0,818.201204,79.52029354,103.152744,-132.2351373,0,0,0,-15.85688193,0,0,,,,
675.0959995,2637,0,0,0,-100.6461853,0,0,1316.789384,-72.24112525,-49.58321702,-21.94704196,0,0,0,11.53409329,0,0,,,,
675.1039995,2637,0,0,0,90.04348244,0,0,681.7576946,2.918103007,23.74263343,4.015919558,0,0,0,-55.62009427,0,0,,,,
675.1119995,2637,0,0,0,-66.71917821,0,0,1213.646705,31.2041739,63.34067943,-136.8287634,0,0,0,24.64434653,0,0,,,,
675.1199995,2637,0,0,0,-12.00016252,0,0,988.7524935,-117.082539,-93.91657362,86.59035789,0,0,0,-43.81050947,0,0,,,,
675.1279995,2637,0,0,0,59.71909809,0,0,796.7872017,59.2881853,110.6333811,-120.9411603,0,0,0,-45.44589709,0,0,,,,
675.1359995,2637,0,0,0,-77.93387365,0,0,1300.84752,-47.74128326,-28.32086931,-6.339542102,0,0,0,10.2267172,0,0,,,,
675.1439995,2637,0,0,0,101.1952583,0,0,680.2869061,-0.453079924,19.97739275,27.85053161,0,0,0,-40.06571839,0,0,,,,
675.1519995,2637,0,0,0,-57.23664622,0,0,1176.070681,21.94998359,72.57544953,-122.9328904,0,0,0,13.35648721,0,0,,,,
675.1599995,2637,0,0,0,22.08037953,0,0,938.6082153,-79.86011508,-65.29570342,96.61299611,0,0,0,-41.74936314,0,0,,,,
675.1679995,2637,0,0,0,85.24834696,0,0,788.3703026,88.11614688,108.3556101,-96.24466673,0,0,0,-0.597381471,0,0,,,,
675.1759995,2637,0,0,0,-65.63192053,0,0,1265.529883,-48.68115328,-33.46233996,13.84109325,0,0,0,45.801284,0,0,,,,
675.1839995,2637,0,0,0,118.2515768,0,0,608.30819,9.33414632,43.15906591,30.0980591,0,0,0,-40.54829513,0,0,,,,
675.1919995,2637,0,0,0,-47.65048742,0,0,1139.395656,51.09095285,81.82006338,-112.3864021,0,0,0,21.87448839,0,0,,,,
675.1999995,2637,0,0,0,15.7741168,0,0,905.7785858,-74.8392267,-68.08012651,109.1642879,0,0,0,-7.808342785,0,0,,,,
675.2079995,2637,0,0,0,75.35706732,0,0,726.8213863,58.4634595,111.1237935,-101.5923978,0,0,0,-20.54012894,0,0,,,,
675.2159995,2637,0,0,0,-59.28899751,0,0,1203.784316,-50.38152284,-33.29896872,6.463537668,0,0,0,-7.76407509,0,0,,,,
675.2239995,2637,0,0,0,135.5961347,0,0,559.8245182,17.46152631,54.01473772,36.12944748,0,0,0,-34.64502076,0,0,,,,
675.2319995,2637,0,0,0,-32.59509385,0,0,1079.186448,25.73741462,92.07386247,-97.20722708,0,0,0,28.75885839,0,0,,,,
675.2399995,2637,0,0,0,33.38731238,0,0,833.2213029,-63.11191674,-58.64914161,116.633707,0,0,0,-38.13842317,0,0,,,,
675.2479995,2637,0,0,0,89.1129069,0,0,672.0069644,95.32300537,128.1750918,-93.44679756,0,0,0,-5.385332296,0,0,,,,
675.2559995,2637,0,0,0,-66.65494063,0,0,1158.748081,-56.99581505,-37.29383711,20.21270787,0,0,0,32.43311033,0,0,,,,
675.2639995,2637,0,0,0,113.7825885,0,0,518.632458,10.43353569,34.50338002,31.97688274,0,0,0,-50.59541708,0,0,,,,
675.2719995,2637,0,0,0,-35.08168162,0,0,1032.798936,43.19215605,83.32964279,-110.7111804,0,0,0,6.673303843,0,0,,,,
675.2799995,2637,0,0,0,36.40679866,0,0,785.0420217,-59.6434416,-64.59968713,108.8411004,0,0,0,-25.03872021,0,0,,,,
675.2879995,2637,0,0,0,65.09512862,0,0,641.5455493,73.22291626,112.6020621,-105.9749795,0,0,0,-18.97077163,0,0,,,,
675.2959995,2637,0,0,0,-89.81728569,0,0,1135.807282,-73.47818418,-61.06894346,-0.348459788,0,0,0,-4.028563667,0,0,,,,
675.3039995,2637,0,0,0,99.4859108,0,0,501.2866529,10.82748567,10.66128926,6.050396463,0,0,0,-59.10323279,0,0,,,,
675.3119995,2637,0,0,0,-47.331539,0,0,999.0544172,39.12164069,67.45047361,-146.8784942,0,0,0,1.636596853,0,0,,,,
675.3199995,2637,0,0,0,30.7993333,0,0,743.6613199,-70.65797127,-68.54243203,66.04448655,0,0,0,-44.91439326,0,0,,,,
675.3279995,2638,0,0,0,57.32956341,0,0,617.6692831,50.03612806,105.9536368,-140.4177633,0,0,0,-34.68835467,0,0,,,,
675.3359995,2638,0,0,0,-81.59092036,0,0,1091.549846,-85.44634965,-66.05935006,-33.0380945,0,0,0,-13.95335481,0,0,,,,
675.3439995,2638,0,0,0,115.940701,0,0,466.1230409,17.3635577,15.72256276,-23.60899617,0,0,0,-54.96509849,0,0,,,,
675.3519995,2638,0,0,0,-44.40269318,0,0,989.1954675,16.67529081,64.65061846,-159.8240211,0,0,0,11.34173039,0,0,,,,
675.3599995,2638,0,0,0,27.15381068,0,0,715.3494965,-81.65080322,-73.95490746,52.93489416,0,0,0,-47.27926481,0,0,,,,
675.3679995,2638,0,0,0,50.49080497,0,0,595.1465443,84.59655356,92.7397154,-156.7813102,0,0,0,-40.52213658,0,0,,,,
675.3759995,2638,0,0,0,-76.9834607,0,0,1061.545782,-67.19323786,-72.61153739,-42.54615544,0,0,0,-16.3735867,0,0,,,,
675.3839995,2638,0,0,0,125.199032,0,0,415.2729491,24.43250066,14.35165694,-34.50977025,0,0,0,-53.11671164,0,0,,,,
675.3919995,2638,0,0,0,-30.14433184,0,0,944.3799658,62.93889485,58.2423791,-170.1306896,0,0,0,16.46655395,0,0,,,,
675.3999995,2638,0,0,0,68.97337183,0,0,672.0626395,-25.91760885,-56.0417654,54.28179194,0,0,0,-10.06185306,0,0,,,,
675.4079995,2638,0,0,0,87.23685129,0,0,556.6289046,102.9740919,103.6504939,-143.0487577,0,0,0,36.04602307,0,0,,,,
675.4159995,2638,0,0,0,-70.74220408,0,0,1016.24274,-75.46926182,-68.91776115,-34.01414194,0,0,0,20.08291727,0,0,,,,
675.4239995,2638,0,0,0,129.01218,0,0,371.60105,9.393612125,27.75968389,-34.12431943,0,0,0,-55.04733334,0,0,,,,
675.4319995,2638,0,0,0,-33.56566586,0,0,903.3159688,27.63530543,46.7420888,-170.5363541,0,0,0,25.11090068,0,0,,,,
675.4399995,2638,0,0,0,50.89956091,0,0,614.9746004,-67.46042852,-78.25214644,35.70799145,0,0,0,-40.44441298,0,0,,,,
675.4479995,2638,0,0,0,88.23464921,0,0,506.3893073,111.6102373,105.1096292,-167.2016646,0,0,0,2.545612316,0,0,,,,
675.4559995,2638,0,0,0,-70.22499209,0,0,976.3766917,-46.60036871,-69.06607359,-44.99377305,0,0,0,32.18673254,0,0,,,,
675.4639995,2638,0,0,0,113.5355154,0,0,344.2412515,17.07425492,8.184312224,-44.82706071,0,0,0,-67.12928253,0,0,,,,
675.4719995,2638,0,0,0,-27.24820643,0,0,892.6711246,45.53862726,34.00104251,-169.9273704,0,0,0,13.66793517,0,0,,,,
675.4799995,2638,0,0,0,55.98892018,0,0,606.1141111,-65.56869405,-90.89768752,49.03939462,0,0,0,-13.0760546,0,0,,,,
675.4879995,2638,0,0,0,82.40044335,0,0,477.5107143,82.92148421,94.08575229,-158.1354241,0,0,0,-8.356023701,0,0,,,,
675.4959995,2638,0,0,0,-60.08366459,0,0,924.9744166,-54.00310032,-63.27443431,-36.70612292,0,0,0,-0.338758336,0,0,,,,
675.5039995,2638,0,0,0,121.5242512,0,0,298.3105251,24.23858147,14.84727942,-36.97623118,0,0,0,-59.65064149,0,0,,,,
675.5119995,2638,0,0,0,-23.85289345,0,0,834.1496036,41.82982157,43.80371099,-166.443708,0,0,0,30.21372651,0,0,,,,
675.5199995,2638,0,0,0,57.60051058,0,0,529.6332055,-55.0756133,-67.29071308,42.56961166,0,0,0,-10.03185497,0,0,,,,
675.5279995,2638,0,0,0,66.76682481,0,0,427.2986513,96.49398238,100.5700303,-168.5867089,0,0,0,-18.68174741,0,0,,,,
675.5359995,2638,0,0,0,-73.00628997,0,0,897.3880628,-57.74705266,-86.99692111,-43.06174221,0,0,0,-2.346796595,0,0,,,,
675.5439995,2638,0,0,0,118.1361976,0,0,271.1918405,22.63022689,-7.114226017,-49.02274337,0,0,0,-40.08266548,0,0,,,,
675.5519995,2638,0,0,0,-48.06928849,0,0,820.3877132,43.64506492,29.47841798,-176.2468396,0,0,0,34.07678431,0,0,,,,
675.5599995,2638,0,0,0,37.91257862,0,0,531.6565751,-54.49136917,-87.43287108,43.91932735,0,0,0,-27.42619723,0,0,,,,
675.5679995,2638,0,0,0,57.23538816,0,0,429.6128482,88.55324735,81.1442501,-169.7594981,0,0,0,-17.2660824,0,0,,,,
675.5759995,2638,0,0,0,-99.00334638,0,0,886.3511366,-79.71972155,-86.90054858,-51.32619909,0,0,0,-3.576027685,0,0,,,,
675.5839995,2639,0,0,0,107.442149,0,0,226.2600676,-4.721911377,14.02494913,-57.31898462,0,0,0,-73.26991133,0,0,,,,
675.5919995,2639,0,0,0,-47.76649331,0,0,759.6825517,26.403246,43.65043645,-186.1001443,0,0,0,8.423320578,0,0,,,,
675.5999995,2639,0,0,0,32.62432715,0,0,495.0241472,-55.54206493,-98.12902553,30.20336689,0,0,0,-30.57535494,0,0,,,,
675.6079995,2639,0,0,0,74.81014232,0,0,382.1028787,100.3218703,81.34238985,-178.3624396,0,0,0,0.48229054,0,0,,,,
675.6159995,2639,0,0,0,-79.3868116,0,0,824.6442286,-50.84709637,-76.02874539,-55.27596671,0,0,0,24.68392914,0,0,,,,
675.6239995,2639,0,0,0,102.5209955,0,0,215.1348426,20.81290094,-10.56546417,-59.15364676,0,0,0,-48.99167135,0,0,,,,
675.6319995,2639,0,0,0,-41.32335659,0,0,752.3368353,29.93352424,13.6646321,-181.5045981,0,0,0,32.75232057,0,0,,,,
675.6399995,2639,0,0,0,39.07332577,0,0,447.3560975,-64.16034251,-95.15675469,31.00743899,0,0,0,-32.04971532,0,0,,,,
675.6479995,2639,0,0,0,63.89984777,0,0,343.3103341,88.02745314,84.72691143,-182.5927527,0,0,0,-36.6571883,0,0,,,,
675.6559995,2639,0,0,0,-66.28231959,0,0,780.3416385,-46.69428799,-84.97101819,-55.26965602,0,0,0,5.213961403,0,0,,,,
675.6639995,2639,0,0,0,108.9539708,0,0,165.080948,39.07099861,2.686596719,-55.91617491,0,0,0,-38.67068625,0,0,,,,
675.6719995,2639,0,0,0,-67.74051557,0,0,738.3947344,29.39131817,20.30707458,-172.9859127,0,0,0,22.89151563,0,0,,,,
675.6799995,2639,0,0,0,32.43447397,0,0,440.0326892,-77.45578077,-118.0084161,38.63204357,0,0,0,-43.42147508,0,0,,,,
675.6879995,2639,0,0,0,62.9833059,0,0,330.5287263,67.18631691,75.24469175,-176.5164749,0,0,0,-25.71070309,0,0,,,,
675.6959995,2639,0,0,0,-70.61627806,0,0,775.6418003,-70.59428185,-82.42402936,-44.47424271,0,0,0,-0.131722068,0,0,,,,
675.7039995,2639,0,0,0,135.627188,0,0,150.2903364,43.88192321,5.448330945,-50.32143901,0,0,0,-46.30025759,0,0,,,,
675.7119995,2639,0,0,0,-48.85490734,0,0,714.5487277,53.59919658,22.52858449,-171.8224423,0,0,0,45.11476593,0,0,,,,
675.7199995,2639,0,0,0,29.74180878,0,0,431.9617705,-60.70554553,-122.6816985,39.84611749,0,0,0,-20.50294936,0,0,,,,
675.7279995,2639,0,0,0,82.55342883,0,0,328.7130045,82.5115782,63.01789103,-174.2851248,0,0,0,-15.04382884,0,0,,,,
675.7359995,2639,0,0,0,-44.11304874,0,0,742.6999332,-58.61699085,-86.62965176,-44.57150256,0,0,0,28.19057364,0,0,,,,
675.7439995,2639,0,0,0,129.4317602,0,0,113.4541025,18.8716575,9.788623474,-52.57431397,0,0,0,-31.69602894,0,0,,,,
675.7519995,2639,0,0,0,-61.60701317,0,0,689.608334,20.75745052,12.6265039,-170.8880054,0,0,0,8.986802874,0,0,,,,
675.7599995,2639,0,0,0,36.24825909,0,0,399.4060679,-42.91032492,-124.9323267,32.88073221,0,0,0,-29.94499697,0,0,,,,
675.7679995,2639,0,0,0,74.59278987,0,0,312.1923989,97.9903216,66.4801561,-183.5924144,0,0,0,29.70108425,0,0,,,,
675.7759995,2639,0,0,0,-80.2922844,0,0,748.1250351,-72.84392828,-97.40619052,-46.84018327,0,0,0,57.04497132,0,0,,,,
675.7839995,2639,0,0,0,103.1585629,0,0,124.9796047,28.3684653,13.15726928,-51.34634914,0,0,0,-13.01262632,0,0,,,,
675.7919995,2639,0,0,0,-68.85325124,0,0,683.3750806,20.98945558,40.73426869,-159.239364,0,0,0,47.99422853,0,0,,,,
675.7999995,2639,0,0,0,11.0358809,0,0,388.9802221,-84.02467866,-90.93510907,54.8937067,0,0,0,-2.345149203,0,0,,,,
675.8079995,2639,0,0,0,60.42836251,0,0,296.4367516,82.52585,110.8821571,-147.4830799,0,0,0,24.80992448,0,0,,,,
675.8159995,2639,0,0,0,-44.93572708,0,0,678.5469306,-47.44227156,-25.02670276,9.492964979,0,0,0,54.34650307,0,0,,,,
675.8239995,2639,0,0,0,127.9984966,0,0,58.01868655,44.63610176,75.63503752,19.77495339,0,0,0,10.50182453,0,0,,,,
675.8319995,2639,0,0,0,-63.68403889,0,0,638.2362117,22.43364148,73.47206911,-80.17687565,0,0,0,75.17157635,0,0,,,,
675.8399995,2640,0,0,0,30.89335022,0,0,319.2399129,-76.44461798,-55.70021079,129.1803203,0,0,0,15.10842782,0,0,,,,
675.8479995,2640,0,0,0,64.66790493,0,0,241.0368889,100.9212424,133.198601,-83.49690289,0,0,0,35.71949039,0,0,,,,
675.8559995,2640,0,0,0,-58.40484953,0,0,646.4751299,-44.70518186,-26.95287931,57.86803709,0,0,0,56.94064123,0,0,,,,
675.8639995,2640,0,0,0,125.985432,0,0,25.89510624,34.56977672,69.24050975,46.03706053,0,0,0,-0.43423048,0,0,,,,
675.8719995,2640,0,0,0,-54.91156697,0,0,600.0883008,35.24369369,64.37226162,-63.20725452,0,0,0,55.30191143,0,0,,,,
675.8799995,2640,0,0,0,40.84078664,0,0,278.7587096,-56.05218563,-64.26068865,142.6654473,0,0,0,-2.382689864,0,0,,,,
675.8879995,2640,0,0,0,78.16575681,0,0,207.0788824,111.4285046,129.7638896,-73.01801794,0,0,0,28.31659743,0,0,,,,
675.8959995,2640,0,0,0,-53.2405148,0,0,606.8275914,-48.12458592,-31.35123992,65.95703606,0,0,0,51.27203991,0,0,,,,
675.9039995,2640,0,0,0,112.2264164,0,0,-11.38571238,18.10270602,62.64384305,44.60509242,0,0,0,-15.11156475,0,0,,,,
675.9119995,2640,0,0,0,-68.44676915,0,0,562.5557329,23.63999186,65.11984631,-71.0246841,0,0,0,45.80469202,0,0,,,,
675.9199995,2640,0,0,0,25.68705952,0,0,231.7948562,-74.17652403,-56.04293883,125.2065943,0,0,0,-17.12271698,0,0,,,,
675.9279995,2640,0,0,0,40.88843147,0,0,182.05843,70.70732796,123.134162,-96.06177751,0,0,0,5.574123154,0,0,,,,
675.9359995,2640,0,0,0,-95.78260045,0,0,599.9346462,-81.80443875,-55.00463683,44.67898689,0,0,0,41.41547015,0,0,,,,
675.9439995,2640,0,0,0,90.02589432,0,0,-27.7800879,14.67969513,46.92617027,17.95117174,0,0,0,-29.55031759,0,0,,,,
675.9519995,2640,0,0,0,-79.66360599,0,0,534.0519375,32.36367512,56.71138601,-97.93807049,0,0,0,24.95938327,0,0,,,,
675.9599995,2640,0,0,0,17.28938891,0,0,203.1937243,-55.66710254,-71.35240821,107.2546005,0,0,0,-21.04814623,0,0,,,,
675.9679995,2640,0,0,0,41.62487491,0,0,152.1366268,85.29702997,102.8319544,-105.6712702,0,0,0,6.884204567,0,0,,,,
675.9759995,2640,0,0,0,-85.18972635,0,0,551.8178472,-84.13914925,-74.38611475,34.75352213,0,0,0,25.51181155,0,0,,,,
675.9839995,2640,0,0,0,111.393239,0,0,-73.87423135,23.20984279,32.13265388,15.27245191,0,0,0,-30.63299401,0,0,,,,
675.9919995,2640,0,0,0,-58.3821306,0,0,498.9493082,43.39138616,51.86187357,-86.92538179,0,0,0,55.30906317,0,0,,,,
675.9999995,2640,0,0,0,15.38736095,0,0,175.1823321,-78.48243644,-79.54121078,109.9042168,0,0,0,-12.55853559,0,0,,,,
676.0079995,2640,0,0,0,38.5597808,0,0,135.78214,66.616569,88.44799746,-107.6506945,0,0,0,-10.2130031,0,0,,,,
676.0159995,2640,0,0,0,-63.51785977,0,0,530.373185,-52.43141665,-74.66855317,37.70519784,0,0,0,27.83237982,0,0,,,,
676.0239995,2640,0,0,0,109.1570471,0,0,-88.06254055,28.33565894,33.04709087,9.314087952,0,0,0,-19.0428313,0,0,,,,
676.0319995,2640,0,0,0,-72.16946455,0,0,485.9842873,17.05115032,42.82688527,-96.22214764,0,0,0,29.28465317,0,0,,,,
676.0399995,2640,0,0,0,47.26892361,0,0,138.1174338,-57.77328648,-78.85966493,105.2846673,0,0,0,-32.08686464,0,0,,,,
676.0479995,2640,0,0,0,62.40684514,0,0,90.02151231,81.89739038,104.7194868,-109.5925332,0,0,0,19.37122005,0,0,,,,
676.0559995,2640,0,0,0,-63.91725682,0,0,484.043461,-49.57754936,-56.34973558,37.57926784,0,0,0,33.06157215,0,0,,,,
676.0639995,2640,0,0,0,128.1310664,0,0,-121.9019934,58.79769308,42.38085175,15.9952932,0,0,0,-27.16990609,0,0,,,,
676.0719995,2640,0,0,0,-56.21572875,0,0,467.8617411,31.03507457,43.34769851,-81.67012594,0,0,0,57.86256402,0,0,,,,
676.0799995,2640,0,0,0,34.66178339,0,0,145.0112712,-64.20174335,-84.1386264,114.1556974,0,0,0,-10.74943683,0,0,,,,
676.0879995,2640,0,0,0,34.6370241,0,0,124.7100476,53.52792171,86.60038727,-107.2063266,0,0,0,-7.827393665,0,0,,,,
676.0959995,2641,0,0,0,-65.37409526,0,0,483.4270187,-90.35723242,-60.06414294,35.90683211,0,0,0,-5.88812567,0,0,,,,
676.1039995,2641,0,0,0,147.9525088,0,0,-151.9719208,45.94267477,69.00153079,12.87561645,0,0,0,-20.55021286,0,0,,,,
676.1119995,2641,0,0,0,-61.33708453,0,0,447.187438,13.03242022,57.27959016,-82.6706385,0,0,0,62.02961076,0,0,,,,
676.1199995,2641,0,0,0,36.70871041,0,0,105.7147014,-76.70070965,-73.99290976,106.3912336,0,0,0,-21.87939307,0,0,,,,
676.1279995,2641,0,0,0,67.10697525,0,0,69.37424488,80.60897512,109.0257516,-112.1912153,0,0,0,30.41582608,0,0,,,,
676.1359995,2641,0,0,0,-66.98222973,0,0,455.1589241,-67.49074582,-64.69702974,34.16528679,0,0,0,40.19638851,0,0,,,,
676.1439995,2641,0,0,0,118.1180445,0,0,-156.5730477,50.00073227,37.51928939,-2.560980946,0,0,0,-11.11115725,0,0,,,,
676.1519995,2641,0,0,0,-62.48293466,0,0,410.7268639,10.12951566,40.46180673,-104.2880831,0,0,0,58.32487628,0,0,,,,
676.1599995,2641,0,0,0,37.66167623,0,0,55.5049996,-70.17749955,-81.10873661,88.92245025,0,0,0,-32.2267698,0,0,,,,
676.1679995,2641,0,0,0,62.60157366,0,0,31.40855954,98.45599533,93.18529914,-124.1737417,0,0,0,33.90279861,0,0,,,,
676.1759995,2641,0,0,0,-61.61766726,0,0,394.5324036,-79.79553727,-68.71874875,25.47355399,0,0,0,44.91050483,0,0,,,,
676.1839995,2641,0,0,0,123.8959337,0,0,-213.6337539,43.62652508,44.46551746,-3.334719565,0,0,0,-30.76854661,0,0,,,,
676.1919995,2641,0,0,0,-45.23871815,0,0,362.9845636,36.33372433,50.40844602,-86.82093151,0,0,0,74.65917276,0,0,,,,
676.1999995,2641,0,0,0,50.28370466,0,0,-8.091727831,-74.56658604,-62.06020326,104.8254367,0,0,0,-0.021276517,0,0,,,,
676.2079995,2641,0,0,0,71.88993791,0,0,-29.7998064,99.27003839,113.6688509,-119.3558784,0,0,0,20.89175083,0,0,,,,
676.2159995,2641,0,0,0,-47.98096988,0,0,333.0333292,-59.5008017,-57.93696127,30.24988875,0,0,0,47.03436061,0,0,,,,
676.2239995,2641,0,0,0,117.2496813,0,0,-272.3416455,16.9725725,34.66165297,-12.32951804,0,0,0,-32.38488031,0,0,,,,
676.2319995,2641,0,0,0,-39.94059919,0,0,306.9980783,28.39263272,38.34564273,-108.9244493,0,0,0,37.99162984,0,0,,,,
676.2399995,2641,0,0,0,67.2185944,0,0,-68.37294476,-40.19807595,-62.1326627,88.71765392,0,0,0,-2.166001641,0,0,,,,
676.2479995,2641,0,0,0,48.83163271,0,0,-62.82550791,79.72034267,85.93345161,-128.166346,0,0,0,23.11308368,0,0,,,,
676.2559995,2641,0,0,0,-73.1295004,0,0,329.4644583,-80.76989756,-108.5560306,20.73161477,0,0,0,17.20302314,0,0,,,,
676.2639995,2641,0,0,0,122.4849736,0,0,-281.1443435,38.3098607,5.577185543,-18.85789999,0,0,0,-25.48659804,0,0,,,,
676.2719995,2641,0,0,0,-43.4511397,0,0,282.783161,15.58127687,10.97785079,-113.2430001,0,0,0,61.76164029,0,0,,,,
676.2799995,2641,0,0,0,63.90387928,0,0,-93.03005277,-46.44803981,-92.91741475,74.35477919,0,0,0,-17.39702163,0,0,,,,
676.2879995,2641,0,0,0,71.19038934,0,0,-103.5460625,108.250215,85.45291763,-141.8119127,0,0,0,27.96533852,0,0,,,,
676.2959995,2641,0,0,0,-64.96646577,0,0,256.6464471,-86.40066385,-95.10083842,11.25061536,0,0,0,37.13114269,0,0,,,,
676.3039995,2641,0,0,0,97.84548001,0,0,-335.1643457,19.07371483,0.30543246,-31.52017529,0,0,0,-47.15719503,0,0,,,,
676.3119995,2641,0,0,0,-62.40139387,0,0,250.6890405,12.66305417,-4.75741337,-119.306462,0,0,0,38.72710925,0,0,,,,
676.3199995,2641,0,0,0,42.11417435,0,0,-129.1433242,-73.2955532,-99.05239553,68.70947598,0,0,0,-34.74210591,0,0,,,,
676.3279995,2641,0,0,0,50.57839367,0,0,-128.133681,97.56148208,77.59337419,-146.3187761,0,0,0,-8.885749681,0,0,,,,
676.3359995,2641,0,0,0,-40.29698153,0,0,209.3434586,-49.74669607,-88.00342898,16.29302541,0,0,0,43.6291026,0,0,,,,
676.3439995,2641,0,0,0,121.9247088,0,0,-398.9258188,32.98764463,33.32967649,-21.29905398,0,0,0,-13.37584691,0,0,,,,
676.3519995,2642,0,0,0,-71.18815319,0,0,221.5040708,17.80589548,-0.849746312,-101.5715846,0,0,0,43.5845727,0,0,,,,
676.3599995,2642,0,0,0,47.36006642,0,0,-156.76916,-53.26438115,-116.7956269,85.20158849,0,0,0,3.950321357,0,0,,,,
676.3679995,2642,0,0,0,53.71374611,0,0,-177.9665592,75.73029575,77.63504341,-138.4362455,0,0,0,18.99996123,0,0,,,,
676.3759995,2642,0,0,0,-64.85066515,0,0,185.8810966,-84.20470645,-102.2128471,23.34647625,0,0,0,11.64490845,0,0,,,,
676.3839995,2642,0,0,0,102.3578491,0,0,-390.4522803,32.15950606,-4.746151341,-17.06146529,0,0,0,-19.89833637,0,0,,,,
676.3919995,2642,0,0,0,-95.66428877,0,0,217.6135086,-5.776266189,-25.55588122,-105.9768611,0,0,0,29.26879963,0,0,,,,
676.3999995,2642,0,0,0,9.715368904,0,0,-158.8738137,-98.86722293,-129.7088271,71.69631591,0,0,0,-59.6700479,0,0,,,,
676.4079995,2642,0,0,0,36.67343545,0,0,-167.3174022,62.87890355,62.01048532,-154.7308427,0,0,0,-8.993500813,0,0,,,,
676.4159995,2642,0,0,0,-61.42979411,0,0,175.2214286,-68.36871152,-109.3836541,8.396685496,0,0,0,27.00534701,0,0,,,,
676.4239995,2642,0,0,0,111.1144599,0,0,-419.9338896,54.59167107,7.570223077,-29.7763213,0,0,0,-12.5155834,0,0,,,,
676.4319995,2642,0,0,0,-79.35554309,0,0,173.6812831,1.04632698,-9.500652173,-111.7418827,0,0,0,43.40514283,0,0,,,,
676.4399995,2642,0,0,0,25.66090854,0,0,-200.5619065,-89.54727591,-131.1772201,70.96933962,0,0,0,-32.52583583,0,0,,,,
676.4479995,2642,0,0,0,25.90053943,0,0,-182.8247093,61.67434196,55.05745276,-148.5610886,0,0,0,0.404051642,0,0,,,,
676.4559995,2642,0,0,0,-95.83873309,0,0,169.5917731,-123.9826876,-126.7814013,16.28754264,0,0,0,-11.68009421,0,0,,,,
676.4639995,2642,0,0,0,81.21860847,0,0,-408.2283367,10.39577117,-25.90262651,-30.97397054,0,0,0,-69.15442551,0,0,,,,
676.4719995,2642,0,0,0,-85.26473945,0,0,189.2391691,16.63231564,-32.09452563,-114.5364439,0,0,0,26.9951053,0,0,,,,
676.4799995,2642,0,0,0,40.81683652,0,0,-203.6436474,-63.07336322,-141.0387407,69.85063047,0,0,0,-30.401848,0,0,,,,
676.4879995,2642,0,0,0,47.74136921,0,0,-199.8755616,84.01577066,62.45167008,-150.1278615,0,0,0,4.897387509,0,0,,,,
676.4959995,2642,0,0,0,-41.25415871,0,0,115.3999628,-71.63197113,-78.40477032,19.07531012,0,0,0,19.30419956,0,0,,,,
676.5039995,2642,0,0,0,158.6230245,0,0,-497.1563835,69.07687802,50.02378574,-17.54691409,0,0,0,-12.24376501,0,0,,,,
676.5119995,2642,0,0,0,-37.36497246,0,0,73.22760387,39.66111982,57.8873271,-92.13565522,0,0,0,73.7700713,0,0,,,,
676.5199995,2642,0,0,0,55.62178137,0,0,-321.0047194,-57.26278365,-54.38354828,97.0249256,0,0,0,-20.7845548,0,0,,,,
676.5279995,2642,0,0,0,35.29469542,0,0,-265.7797184,86.73162798,95.99378778,-110.6511164,0,0,0,6.32219529,0,0,,,,
676.5359995,2642,0,0,0,-72.55354679,0,0,74.66733996,-92.22571519,-82.38145041,58.19636786,0,0,0,24.85083085,0,0,,,,
676.5439995,2642,0,0,0,109.8321231,0,0,-518.4574197,20.71407483,33.47007292,7.836490131,0,0,0,-37.76000272,0,0,,,,
676.5519995,2642,0,0,0,-83.55210644,0,0,93.45690504,8.464956388,21.93975572,-66.65276804,0,0,0,36.72924959,0,0,,,,
676.5599995,2642,0,0,0,53.92046678,0,0,-309.1077218,-67.22099897,-65.91533564,119.3102776,0,0,0,-4.794894597,0,0,,,,
676.5679995,2642,0,0,0,44.70206016,0,0,-270.9478271,70.0245964,107.1220434,-98.02259863,0,0,0,37.00360688,0,0,,,,
676.5759995,2642,0,0,0,-78.50127855,0,0,66.72348654,-97.61555639,-76.65241544,62.85366902,0,0,0,26.38110161,0,0,,,,
676.5839995,2642,0,0,0,122.5854561,0,0,-535.6287259,27.86107931,44.28535062,4.638049153,0,0,0,-20.55542694,0,0,,,,
676.5919995,2642,0,0,0,-65.80718041,0,0,83.62507337,13.49232074,21.65658508,-67.13259759,0,0,0,62.32484868,0,0,,,,
676.5999995,2642,0,0,0,50.7370161,0,0,-308.4981365,-59.97260733,-80.53421637,114.2371338,0,0,0,-7.18498411,0,0,,,,
676.6079995,2643,0,0,0,53.69760535,0,0,-275.273487,80.39866624,92.42290852,-106.3966911,0,0,0,21.50706699,0,0,,,,
676.6159995,2643,0,0,0,-56.03959739,0,0,48.08742987,-93.385057,-79.41992616,62.68523866,0,0,0,16.03226434,0,0,,,,
676.6239995,2643,0,0,0,129.5558301,0,0,-543.5748196,34.043291,51.22672219,8.669197261,0,0,0,-35.44650688,0,0,,,,
676.6319995,2643,0,0,0,-62.585498,0,0,81.19339052,8.703499209,21.96550193,-55.6526545,0,0,0,47.83674444,0,0,,,,
676.6399995,2643,0,0,0,42.75531718,0,0,-323.7148459,-108.0038332,-80.09784244,120.5529464,0,0,0,-23.49372635,0,0,,,,
676.6479995,2643,0,0,0,35.59492203,0,0,-282.4665076,38.17189689,91.87695126,-110.1570851,0,0,0,-9.695801249,0,0,,,,
676.6559995,2643,0,0,0,-53.3530401,0,0,44.04517786,-97.90698515,-78.00838272,64.55772472,0,0,0,4.406507357,0,0,,,,
676.6639995,2643,0,0,0,145.8824752,0,0,-548.2706204,23.37085848,60.93118467,14.70738927,0,0,0,-17.85014576,0,0,,,,
676.6719995,2643,0,0,0,-52.71856774,0,0,76.00597474,3.692035353,23.70959557,-51.6849134,0,0,0,53.96539552,0,0,,,,
676.6799995,2643,0,0,0,53.21831851,0,0,-327.9269299,-93.39240663,-83.69913201,124.097313,0,0,0,-29.28103173,0,0,,,,
676.6879995,2643,0,0,0,73.45153385,0,0,-295.2424338,66.70017591,98.00089841,-103.4941942,0,0,0,3.102395849,0,0,,,,
676.6959995,2643,0,0,0,-24.03118162,0,0,17.3291351,-44.77382917,-76.83040604,69.63699175,0,0,0,12.65131121,0,0,,,,
676.7039995,2643,0,0,0,122.7408949,0,0,-554.3996695,42.02874942,34.4937765,10.97623439,0,0,0,-54.78197351,0,0,,,,
676.7119995,2643,0,0,0,-55.4107124,0,0,61.87167427,-4.694611201,-0.51883591,-62.05374265,0,0,0,5.05158215,0,0,,,,
676.7199995,2643,0,0,0,82.50781215,0,0,-375.8380879,-63.13546782,-73.23135997,114.4024474,0,0,0,-50.16535516,0,0,,,,
676.7279995,2643,0,0,0,66.838214,0,0,-331.2595344,75.81076343,105.5002892,-107.5069512,0,0,0,-17.92406119,0,0,,,,
676.7359995,2643,0,0,0,-23.37369302,0,0,-17.0701597,-66.4412973,-80.33905278,66.05991422,0,0,0,3.59087503,0,0,,,,
676.7439995,2643,0,0,0,154.1355308,0,0,-624.683266,46.8788978,59.91918599,5.213070838,0,0,0,-27.97591388,0,0,,,,
676.7519995,2643,0,0,0,-41.22314179,0,0,-18.32418007,18.45395439,36.09797279,-64.57063588,0,0,0,20.75317392,0,0,,,,
676.7599995,2643,0,0,0,92.52874077,0,0,-429.9316027,-29.16125906,-64.29820054,115.6587475,0,0,0,-32.61237141,0,0,,,,
676.7679995,2643,0,0,0,71.36584633,0,0,-379.8808601,91.1927808,107.5166055,-106.4365327,0,0,0,25.23892309,0,0,,,,
676.7759995,2643,0,0,0,-52.3356725,0,0,-64.64844813,-90.8130953,-74.16162587,59.35223291,0,0,0,4.601149976,0,0,,,,
676.7839995,2643,0,0,0,138.8894457,0,0,-645.2417043,44.06036694,41.46919822,-5.549075653,0,0,0,-60.86917523,0,0,,,,
676.7919995,2643,0,0,0,-28.37189477,0,0,-42.70488299,36.60964896,22.29365612,-66.19803399,0,0,0,31.04373335,0,0,,,,
676.7999995,2643,0,0,0,79.09830775,0,0,-453.5963641,-55.65248857,-60.02159754,116.1092792,0,0,0,-30.35537396,0,0,,,,
676.8079995,2643,0,0,0,58.14225317,0,0,-371.4242412,76.48329341,88.00444237,-105.356521,0,0,0,-8.799309316,0,0,,,,
676.8159995,2643,0,0,0,-38.85624965,0,0,-66.43667773,-70.6322579,-89.20243603,65.23383169,0,0,0,9.334348275,0,0,,,,
676.8239995,2643,0,0,0,135.4449127,0,0,-659.7980778,15.56897804,51.81045623,-0.989540019,0,0,0,-53.92952459,0,0,,,,
676.8319995,2643,0,0,0,-26.88831959,0,0,-48.32366839,13.06002066,28.79195766,-60.56401471,0,0,0,8.98277495,0,0,,,,
676.8399995,2643,0,0,0,104.131956,0,0,-472.9095241,-21.75974625,-48.36946511,118.6602979,0,0,0,0.170783906,0,0,,,,
676.8479995,2643,0,0,0,57.60822025,0,0,-402.6496108,84.81476215,95.80442546,-108.4041464,0,0,0,37.98184869,0,0,,,,
676.8559995,2643,0,0,0,-42.89796892,0,0,-107.0377498,-73.45470121,-87.5631008,57.52634371,0,0,0,8.133716055,0,0,,,,
676.8639995,2644,0,0,0,140.859176,0,0,-712.7225315,38.23491134,61.65092731,-13.51398146,0,0,0,-37.74359177,0,0,,,,
676.8719995,2644,0,0,0,-69.05756716,0,0,-100.7112655,-8.369145288,6.90003795,-76.87834542,0,0,0,9.357180422,0,0,,,,
676.8799995,2644,0,0,0,56.09873336,0,0,-514.5698834,-52.59793473,-82.56749135,99.90369682,0,0,0,-47.41088592,0,0,,,,
676.8879995,2644,0,0,0,43.82885408,0,0,-425.7850987,88.84166909,88.75460979,-110.7173409,0,0,0,35.40582103,0,0,,,,
676.8959995,2644,0,0,0,-70.21287116,0,0,-119.4820144,-93.15784214,-118.3327108,63.57937533,0,0,0,11.49728565,0,0,,,,
676.9039995,2644,0,0,0,122.7474033,0,0,-717.0926185,29.72929803,26.73116563,-14.14004368,0,0,0,-49.73140806,0,0,,,,
676.9119995,2644,0,0,0,-69.78334285,0,0,-91.07997187,2.833620944,3.281118697,-67.56775782,0,0,0,37.93149893,0,0,,,,
676.9199995,2644,0,0,0,33.47814605,0,0,-508.3263645,-80.51200277,-107.3311932,99.53720457,0,0,0,-62.64345839,0,0,,,,
676.9279995,2644,0,0,0,47.69659759,0,0,-461.2391305,65.45389631,82.16155402,-134.9142233,0,0,0,-26.83625486,0,0,,,,
676.9359995,2644,0,0,0,-43.14256431,0,0,-169.992438,-90.50438978,-83.4000073,47.55267522,0,0,0,7.039491206,0,0,,,,
676.9439995,2644,0,0,0,113.8970959,0,0,-724.3140225,18.8334787,19.77529189,-12.01260553,0,0,0,-34.39418949,0,0,,,,
676.9519995,2644,0,0,0,-62.03914664,0,0,-115.5549976,8.530207782,-4.093704717,-68.25900406,0,0,0,22.73997215,0,0,,,,
676.9599995,2644,0,0,0,62.22911077,0,0,-550.1721179,-57.68347915,-76.12804688,99.55364226,0,0,0,-54.91634838,0,0,,,,
676.9679995,2644,0,0,0,41.84904595,0,0,-452.4121677,53.66099969,73.80552161,-115.5036208,0,0,0,-0.612740762,0,0,,,,
676.9759995,2644,0,0,0,-44.55635223,0,0,-170.0589317,-92.30557004,-101.6966942,61.68322226,0,0,0,4.888026082,0,0,,,,
676.9839995,2644,0,0,0,120.2579565,0,0,-741.5832763,37.53840944,29.0866912,-16.27375505,0,0,0,-44.02309521,0,0,,,,
676.9919995,2644,0,0,0,-74.3768623,0,0,-116.8188294,-3.275491058,-11.91600941,-70.33234916,0,0,0,35.41310701,0,0,,,,
676.9999995,2644,0,0,0,56.22082273,0,0,-562.2508406,-71.01165438,-90.54347763,92.95816689,0,0,0,-47.68070954,0,0,,,,
677.0079995,2644,0,0,0,43.57023465,0,0,-477.2118712,63.85378258,76.35045317,-125.610465,0,0,0,-24.97524142,0,0,,,,
677.0159995,2644,0,0,0,-44.47835021,0,0,-196.4611533,-80.45545602,-95.67621905,62.82985159,0,0,0,-9.87762991,0,0,,,,
677.0239995,2644,0,0,0,123.7990155,0,0,-765.6981467,29.34649235,28.63354773,-9.384294686,0,0,0,-40.18904359,0,0,,,,
677.0319995,2644,0,0,0,-70.55393856,0,0,-147.8154401,-28.440408,-13.84731878,-63.3095482,0,0,0,21.06765146,0,0,,,,
677.0399995,2644,0,0,0,59.61952877,0,0,-582.0627515,-60.85164915,-89.76401275,96.61065639,0,0,0,-62.22792488,0,0,,,,
677.0479995,2644,0,0,0,41.35949223,0,0,-466.3615893,86.8153097,76.57552539,-124.0285548,0,0,0,-9.13960622,0,0,,,,
677.0559995,2644,0,0,0,-66.47504693,0,0,-178.6935688,-115.4200189,-114.6005138,61.41433354,0,0,0,7.26627249,0,0,,,,
677.0639995,2644,0,0,0,114.5587526,0,0,-747.9914129,22.66180647,6.85205712,-21.86545374,0,0,0,-53.55288928,0,0,,,,
677.0719995,2644,0,0,0,-49.79985945,0,0,-140.2994944,19.54807211,2.053407021,-71.48425117,0,0,0,23.29390484,0,0,,,,
677.0799995,2644,0,0,0,65.59044716,0,0,-596.1779436,-61.90619665,-59.72302563,105.8436961,0,0,0,-32.21468223,0,0,,,,
677.0879995,2644,0,0,0,29.28724482,0,0,-491.1829563,59.54960279,78.25499573,-112.9411644,0,0,0,-14.07141543,0,0,,,,
677.0959995,2644,0,0,0,-67.02639273,0,0,-223.3859406,-109.5285084,-107.2126887,64.4757191,0,0,0,-21.63769877,0,0,,,,
677.1039995,2644,0,0,0,110.6307313,0,0,-796.8823826,26.65121079,32.28778342,-14.60933294,0,0,0,-58.42131793,0,0,,,,
677.1119995,2644,0,0,0,-76.12828016,0,0,-161.6001242,2.261438623,-15.4335649,-61.41480187,0,0,0,28.30459473,0,0,,,,
677.1199995,2645,0,0,0,28.4873641,0,0,-604.7265452,-80.61032185,-98.05399467,97.92772337,0,0,0,-39.17907061,0,0,,,,
677.1279995,2645,0,0,0,1.566170762,0,0,-488.6275331,50.04570028,48.51246798,-130.5291949,0,0,0,-28.56064091,0,0,,,,
677.1359995,2645,0,0,0,-60.28151214,0,0,-206.1174652,-82.18534642,-139.1587302,51.61460976,0,0,0,-16.86680424,0,0,,,,
677.1439995,2645,0,0,0,110.9419185,0,0,-790.1258833,34.78197658,18.96032988,-29.49870148,0,0,0,-33.70752892,0,0,,,,
677.1519995,2645,0,0,0,-101.3050448,0,0,-171.859293,-37.32177268,-22.81598999,-83.3033548,0,0,0,14.00494952,0,0,,,,
677.1599995,2645,0,0,0,44.31524193,0,0,-625.1542504,-77.79655961,-105.4706911,77.66589276,0,0,0,-67.44719637,0,0,,,,
677.1679995,2645,0,0,0,36.59236264,0,0,-526.9117075,82.06950543,64.53648072,-136.8759004,0,0,0,-10.13206945,0,0,,,,
677.1759995,2645,0,0,0,-60.77444799,0,0,-244.9023495,-83.31425918,-112.8459092,55.87501255,0,0,0,-0.024106139,0,0,,,,
677.1839995,2645,0,0,0,102.550373,0,0,-797.8385293,18.07916668,25.504366,-19.72628739,0,0,0,-42.29572745,0,0,,,,
677.1919995,2645,0,0,0,-79.42657429,0,0,-179.9013271,-16.42626325,-17.47138735,-66.34496112,0,0,0,19.10320477,0,0,,,,
677.1999995,2645,0,0,0,61.37329044,0,0,-637.8626295,-45.19005682,-76.85155354,97.99503227,0,0,0,-38.92986104,0,0,,,,
677.2079995,2645,0,0,0,19.01610674,0,0,-517.4860023,51.78114825,90.28146141,-117.4364647,0,0,0,15.6667528,0,0,,,,
677.2159995,2645,0,0,0,-68.39768141,0,0,-235.5580196,-114.2903856,-106.7081247,71.89176023,0,0,0,16.90654712,0,0,,,,
677.2239995,2645,0,0,0,110.4187921,0,0,-783.2902189,48.51377332,35.15797554,-2.552835971,0,0,0,-6.447171667,0,0,,,,
677.2319995,2645,0,0,0,-79.86076805,0,0,-165.898371,-3.17828852,6.776765924,-44.34553057,0,0,0,62.3347062,0,0,,,,
677.2399995,2645,0,0,0,58.37952924,0,0,-639.2619196,-57.44090936,-60.31374482,113.605428,0,0,0,-12.42047068,0,0,,,,
677.2479995,2645,0,0,0,17.24362228,0,0,-528.7604872,64.38696165,102.1563456,-110.0534616,0,0,0,29.92522989,0,0,,,,
677.2559995,2645,0,0,0,-73.23541082,0,0,-260.9627719,-104.9794498,-79.90258659,76.72344253,0,0,0,11.79324527,0,0,,,,
677.2639995,2645,0,0,0,108.4723468,0,0,-803.2230822,48.90106841,57.6372766,3.203501481,0,0,0,-21.75707754,0,0,,,,
677.2719995,2645,0,0,0,-79.45774239,0,0,-186.1566689,-2.433352045,16.96367753,-37.97416086,0,0,0,54.84026083,0,0,,,,
677.2799995,2645,0,0,0,46.13746022,0,0,-655.07087,-68.84681229,-53.61940945,113.550897,0,0,0,-31.46270219,0,0,,,,
677.2879995,2645,0,0,0,13.08232621,0,0,-524.2836822,63.45127559,98.53040525,-109.0657011,0,0,0,8.559790628,0,0,,,,
677.2959995,2645,0,0,0,-70.88942051,0,0,-262.5848647,-106.2505356,-86.57789652,82.16867911,0,0,0,14.88630597,0,0,,,,
677.3039995,2645,0,0,0,93.63225289,0,0,-801.5093439,14.97396238,43.73212086,6.918248069,0,0,0,-35.17706978,0,0,,,,
677.3119995,2645,0,0,0,-80.97173017,0,0,-182.5811559,-32.22746714,0.577983473,-33.36541037,0,0,0,27.40371461,0,0,,,,
677.3199995,2645,0,0,0,63.45277245,0,0,-665.2892772,-66.06663378,-52.43038892,119.0033432,0,0,0,-20.05320836,0,0,,,,
677.3279995,2645,0,0,0,30.18595857,0,0,-546.400838,76.45767876,92.41719712,-104.7865116,0,0,0,32.45408746,0,0,,,,
677.3359995,2645,0,0,0,-62.85978267,0,0,-303.9899673,-93.80488292,-102.8976647,74.90797789,0,0,0,26.18897211,0,0,,,,
677.3439995,2645,0,0,0,76.06075243,0,0,-832.385836,41.12891739,15.31349288,-18.11123102,0,0,0,-21.76340334,0,0,,,,
677.3519995,2645,0,0,0,-106.4726424,0,0,-193.9976695,1.17604134,-64.28214496,-69.05164185,0,0,0,36.38429535,0,0,,,,
677.3599995,2645,0,0,0,41.51560508,0,0,-676.7979861,-56.05062078,-113.7786585,79.41268326,0,0,0,-20.60830042,0,0,,,,
677.3679995,2645,0,0,0,-9.436366886,0,0,-549.4456847,62.73569856,49.62978973,-141.7606882,0,0,0,17.22376487,0,0,,,,
677.3759995,2646,0,0,0,-93.91175761,0,0,-309.2719979,-105.6492946,-143.8399167,37.33649285,0,0,0,-7.892698257,0,0,,,,
677.3839995,2646,0,0,0,85.98207303,0,0,-857.3704422,46.9351746,22.12455309,-50.24338678,0,0,0,-38.11776933,0,0,,,,
677.3919995,2646,0,0,0,-91.40178337,0,0,-231.5424925,4.695590556,-15.19644578,-81.18529666,0,0,0,53.57081271,0,0,,,,
677.3999995,2646,0,0,0,33.0180029,0,0,-705.6487368,-80.14488518,-79.89002532,75.45789634,0,0,0,-16.80462713,0,0,,,,
677.4079995,2646,0,0,0,-5.341697542,0,0,-562.9062049,47.96100424,77.65079294,-139.821265,0,0,0,-0.519419462,0,0,,,,
677.4159995,2646,0,0,0,-65.75457595,0,0,-320.864596,-94.38485014,-111.2269769,54.80407251,0,0,0,3.636689368,0,0,,,,
677.4239995,2646,0,0,0,84.49782512,0,0,-852.4449374,29.38803129,38.08108436,-27.82524295,0,0,0,-20.38859671,0,0,,,,
677.4319995,2646,0,0,0,-118.6812671,0,0,-198.5033855,-35.0431853,-25.02705218,-62.37394048,0,0,0,21.8646549,0,0,,,,
677.4399995,2646,0,0,0,30.78334413,0,0,-674.8550468,-90.7271868,-92.2164147,89.35615822,0,0,0,-45.93547654,0,0,,,,
677.4479995,2646,0,0,0,9.247503772,0,0,-557.6532247,62.55518848,97.40894284,-128.5035471,0,0,0,7.004168134,0,0,,,,
677.4559995,2646,0,0,0,-43.6905422,0,0,-335.6154446,-75.36485957,-78.99810005,65.25630295,0,0,0,8.38686815,0,0,,,,
677.4639995,2646,0,0,0,121.2144275,0,0,-893.6359561,43.18502841,69.45905455,-15.95810422,0,0,0,-7.054751226,0,0,,,,
677.4719995,2646,0,0,0,-83.92534263,0,0,-266.767112,-10.44256605,19.36297568,-44.00434892,0,0,0,46.51388079,0,0,,,,
677.4799995,2646,0,0,0,63.87260389,0,0,-730.6179216,-37.77646065,-64.24617809,113.3686815,0,0,0,-24.89589749,0,0,,,,
677.4879995,2646,0,0,0,29.89176168,0,0,-584.6941582,96.43183928,99.87514693,-101.9838309,0,0,0,49.91975568,0,0,,,,
677.4959995,2646,0,0,0,-50.62435325,0,0,-353.1839247,-79.24695079,-79.39688994,86.86560472,0,0,0,34.2946826,0,0,,,,
677.5039995,2646,0,0,0,108.0394062,0,0,-904.0202205,40.20801171,61.97602308,-4.150207515,0,0,0,-31.06687815,0,0,,,,
677.5119995,2646,0,0,0,-90.39114479,0,0,-277.3819162,-21.44201955,17.52724388,-41.65899967,0,0,0,31.28099598,0,0,,,,
677.5199995,2646,0,0,0,53.01605354,0,0,-747.1763598,-69.18364918,-50.3550607,111.0416362,0,0,0,-23.94920223,0,0,,,,
677.5279995,2646,0,0,0,6.490075723,0,0,-596.9219712,65.1331705,99.46119313,-102.0447975,0,0,0,29.94964167,0,0,,,,
677.5359995,2646,0,0,0,-75.13963295,0,0,-365.7402334,-95.59941539,-89.62603447,85.76182953,0,0,0,7.115229178,0,0,,,,
677.5439995,2646,0,0,0,92.99425824,0,0,-915.9316302,43.89230833,55.92474218,-6.818528868,0,0,0,-44.89334447,0,0,,,,
677.5519995,2646,0,0,0,-91.31095097,0,0,-296.8525819,-0.529645951,7.201741358,-44.21510308,0,0,0,20.44496384,0,0,,,,
677.5599995,2646,0,0,0,61.80756699,0,0,-775.3373521,-44.06871172,-53.45469623,109.638984,0,0,0,-27.6667395,0,0,,,,
677.5679995,2646,0,0,0,5.881635877,0,0,-613.4358931,92.31863867,104.9884936,-100.3210018,0,0,0,44.4691738,0,0,,,,
677.5759995,2646,0,0,0,-91.27767666,0,0,-363.5482749,-86.69061937,-99.66499668,88.36618944,0,0,0,14.78742498,0,0,,,,
677.5839995,2646,0,0,0,87.91345661,0,0,-906.2433107,20.65308666,31.77397851,-3.9022371,0,0,0,-48.64782916,0,0,,,,
677.5919995,2646,0,0,0,-89.23938948,0,0,-294.0165725,-16.78058662,-8.559314359,-45.18062327,0,0,0,15.44139245,0,0,,,,
677.5999995,2646,0,0,0,62.38794023,0,0,-767.8893753,-52.59747737,-71.59906954,101.7156747,0,0,0,-57.84125874,0,0,,,,
677.6079995,2646,0,0,0,35.79351367,0,0,-618.0941427,69.53260445,83.26837431,-103.1231812,0,0,0,3.108948165,0,0,,,,
677.6159995,2646,0,0,0,-46.56719327,0,0,-394.3965496,-95.87752179,-103.0076975,91.40054516,0,0,0,0.276633336,0,0,,,,
677.6239995,2646,0,0,0,125.3683991,0,0,-924.7960199,35.84899316,39.25267633,2.547227688,0,0,0,-32.42016031,0,0,,,,
677.6319995,2647,0,0,0,-75.98432374,0,0,-299.7369755,-26.0455917,-14.12345544,-27.97981113,0,0,0,36.86680757,0,0,,,,
677.6399995,2647,0,0,0,51.63654556,0,0,-780.5061072,-69.22747292,-85.93540796,112.8217705,0,0,0,-56.62990619,0,0,,,,
677.6479995,2647,0,0,0,38.33429892,0,0,-623.8656591,95.43862732,69.61023379,-101.428911,0,0,0,12.26312927,0,0,,,,
677.6559995,2647,0,0,0,-54.70035593,0,0,-390.2476993,-83.47374481,-120.3897701,92.21160125,0,0,0,23.18488488,0,0,,,,
677.6639995,2647,0,0,0,95.71837198,0,0,-918.1243755,22.35643935,26.15144269,-7.233076556,0,0,0,-38.35950803,0,0,,,,
677.6719995,2647,0,0,0,-69.72431444,0,0,-294.3500662,-1.737430141,-25.46929473,-39.12151392,0,0,0,30.28529324,0,0,,,,
677.6799995,2647,0,0,0,68.31645396,0,0,-768.0495461,-46.0171009,-98.95485459,112.8260615,0,0,0,-28.43668565,0,0,,,,
677.6879995,2647,0,0,0,20.704292,0,0,-610.1923161,63.96165635,65.27687698,-98.71515451,0,0,0,20.11112555,0,0,,,,
677.6959995,2647,0,0,0,-48.56879803,0,0,-396.2771177,-94.55254364,-116.1136944,93.52794693,0,0,0,3.767993295,0,0,,,,
677.7039995,2647,0,0,0,130.1401707,0,0,-918.1065468,58.74612792,29.40725139,7.199811109,0,0,0,-23.40656061,0,0,,,,
677.7119995,2647,0,0,0,-52.20459612,0,0,-294.2391011,4.099250698,-16.72602711,-11.58849752,0,0,0,59.27459799,0,0,,,,
677.7199995,2647,0,0,0,86.36038641,0,0,-785.1388285,-58.4589749,-79.66123185,134.9260413,0,0,0,-17.85639279,0,0,,,,
677.7279995,2647,0,0,0,40.29691133,0,0,-621.2245634,68.12871632,78.2343987,-78.50704525,0,0,0,37.18481036,0,0,,,,
677.7359995,2647,0,0,0,-44.40115323,0,0,-407.4347975,-89.32811133,-107.5880135,113.5468969,0,0,0,19.89319712,0,0,,,,
677.7439995,2647,0,0,0,127.3590319,0,0,-923.8995063,63.17437434,29.39088397,17.24257401,0,0,0,-14.76492921,0,0,,,,
677.7519995,2647,0,0,0,-58.14782234,0,0,-301.81344,7.505565036,-19.91979081,-11.64435877,0,0,0,73.6518787,0,0,,,,
677.7599995,2647,0,0,0,72.07287651,0,0,-809.4330248,-47.16737176,-67.47225041,126.9787388,0,0,0,-14.92185221,0,0,,,,
677.7679995,2647,0,0,0,43.05277188,0,0,-644.6349923,91.32012896,81.723071,-81.85979138,0,0,0,29.44958973,0,0,,,,
677.7759995,2647,0,0,0,-14.06615,0,0,-439.1150299,-64.16368696,-97.97891548,121.1521611,0,0,0,30.79942039,0,0,,,,
677.7839995,2647,0,0,0,134.4763502,0,0,-971.7611663,58.29041491,57.18545729,22.24085301,0,0,0,-3.944882205,0,0,,,,
677.7919995,2647,0,0,0,-51.74749885,0,0,-360.1958394,14.54566513,-8.248296099,-10.05834706,0,0,0,64.46362202,0,0,,,,
677.7999995,2647,0,0,0,92.35017403,0,0,-849.5708147,-9.431085884,-70.04626286,133.5875103,0,0,0,-5.819464548,0,0,,,,
677.8079995,2647,0,0,0,20.0009973,0,0,-654.2203107,73.46291439,73.25679496,-80.27668942,0,0,0,41.11730264,0,0,,,,
677.8159995,2647,0,0,0,-36.63177753,0,0,-459.0378648,-88.07929613,-110.1606023,109.8410472,0,0,0,16.29879072,0,0,,,,
677.8239995,2647,0,0,0,130.8019183,0,0,-988.977813,62.2560004,43.76190726,11.73433137,0,0,0,-12.92950468,0,0,,,,
677.8319995,2647,0,0,0,-83.01528834,0,0,-356.7380254,-30.30978028,-22.64055771,-17.43862725,0,0,0,52.23105959,0,0,,,,
677.8399995,2647,0,0,0,68.38498009,0,0,-856.7320125,-62.13749277,-80.9155366,120.6746443,0,0,0,-37.336814,0,0,,,,
677.8479995,2647,0,0,0,23.41073638,0,0,-674.9853581,70.46368985,72.45333304,-88.56006447,0,0,0,32.09566235,0,0,,,,
677.8559995,2647,0,0,0,-47.29014718,0,0,-476.7656641,-98.38087863,-108.2875215,112.1019203,0,0,0,27.96026534,0,0,,,,
677.8639995,2647,0,0,0,123.5301244,0,0,-999.9308872,48.25461325,42.42838565,16.87028119,0,0,0,-15.83225734,0,0,,,,
677.8719995,2647,0,0,0,-67.70767595,0,0,-355.0885998,0.674137904,-27.63782319,-6.184116092,0,0,0,68.44660845,0,0,,,,
677.8799995,2647,0,0,0,77.38315767,0,0,-849.1492338,-35.66158653,-92.4712554,137.942746,0,0,0,-10.161526,0,0,,,,
677.8879995,2648,0,0,0,28.447179,0,0,-678.5812963,75.30115879,71.09224637,-79.15833038,0,0,0,17.11414936,0,0,,,,
677.8959995,2648,0,0,0,-54.44014745,0,0,-462.056229,-86.62082259,-123.7879592,113.0917615,0,0,0,5.220527414,0,0,,,,
677.9039995,2648,0,0,0,109.9898325,0,0,-968.8714862,54.52555661,9.900974961,17.64520672,0,0,0,-15.06342536,0,0,,,,
677.9119995,2648,0,0,0,-79.66365674,0,0,-346.4013365,-12.67864793,-32.32127386,-11.31558711,0,0,0,45.59651494,0,0,,,,
677.9199995,2648,0,0,0,48.12460065,0,0,-814.9445531,-55.75726562,-101.2272206,130.4769771,0,0,0,-47.02300145,0,0,,,,
677.9279995,2648,0,0,0,30.8552614,0,0,-634.814295,69.3056821,55.0842364,-71.94968356,0,0,0,30.59381726,0,0,,,,
677.9359995,2648,0,0,0,-14.67826352,0,0,-484.175357,-75.77778257,-76.44770878,127.6847757,0,0,0,39.01997419,0,0,,,,
677.9439995,2648,0,0,0,106.6157298,0,0,-987.5689054,62.78402938,81.70562906,34.9032093,0,0,0,-5.618144465,0,0,,,,
677.9519995,2648,0,0,0,-84.3610685,0,0,-359.7565341,-12.07573223,9.480754804,8.894273139,0,0,0,62.29142763,0,0,,,,
677.9599995,2648,0,0,0,74.95476385,0,0,-879.9080028,-49.73785236,-36.1260169,139.9535888,0,0,0,-14.2505125,0,0,,,,
677.9679995,2648,0,0,0,-0.127410514,0,0,-654.8416038,69.56818035,110.3976708,-61.48376791,0,0,0,43.57399335,0,0,,,,
677.9759995,2648,0,0,0,-65.13855638,0,0,-444.1677627,-88.22536258,-87.83851182,141.1574,0,0,0,38.6914081,0,0,,,,
677.9839995,2648,0,0,0,107.9178178,0,0,-977.1276549,43.45855477,72.55013525,36.381111,0,0,0,-0.289483008,0,0,,,,
677.9919995,2648,0,0,0,-70.5834113,0,0,-371.555953,-12.7532459,33.72619588,17.87781089,0,0,0,73.0937405,0,0,,,,
677.9999995,2648,0,0,0,85.39862831,0,0,-886.0303705,-18.79218487,-12.33097606,164.531478,0,0,0,7.179103749,0,0,,,,
678.0079995,2648,0,0,0,23.14541559,0,0,-696.2997644,93.98889413,137.7242285,-37.80017283,0,0,0,52.51855171,0,0,,,,
678.0159995,2648,0,0,0,-43.55852591,0,0,-513.2551436,-71.99299126,-50.80971231,163.395312,0,0,0,32.73137388,0,0,,,,
678.0239995,2648,0,0,0,114.5554848,0,0,-1010.554963,78.30150899,92.56259462,61.89528581,0,0,0,9.731146687,0,0,,,,
678.0319995,2648,0,0,0,-78.28742182,0,0,-379.8568792,7.519818019,27.92043559,39.92200915,0,0,0,91.90151373,0,0,,,,
678.0399995,2648,0,0,0,59.37518304,0,0,-880.0753584,-33.96087164,-28.57849216,172.4692285,0,0,0,4.582343043,0,0,,,,
678.0479995,2648,0,0,0,-3.91630784,0,0,-673.6515729,76.74212564,117.8940493,-44.77895102,0,0,0,33.55067936,0,0,,,,
678.0559995,2648,0,0,0,-66.03310935,0,0,-500.8602349,-92.76849804,-74.29549029,145.9757326,0,0,0,15.55518835,0,0,,,,
678.0639995,2648,0,0,0,91.64337176,0,0,-998.2834463,55.99385112,68.9304255,39.31858136,0,0,0,-15.85881824,0,0,,,,
678.0719995,2648,0,0,0,-97.40114618,0,0,-359.439984,-4.009851128,14.84825368,19.56898233,0,0,0,62.92721308,0,0,,,,
678.0799995,2648,0,0,0,45.29842595,0,0,-873.0917202,-58.10967122,-39.19402415,156.3939468,0,0,0,-12.74492492,0,0,,,,
678.0879995,2648,0,0,0,-16.19689204,0,0,-666.622966,55.22440771,101.793365,-57.13538665,0,0,0,24.87746675,0,0,,,,
678.0959995,2648,0,0,0,-78.2014714,0,0,-473.8030143,-94.24747442,-79.25744209,142.2169954,0,0,0,23.08581129,0,0,,,,
678.1039995,2648,0,0,0,90.72759139,0,0,-978.6730334,39.35019165,72.3483143,44.56436097,0,0,0,-4.88808266,0,0,,,,
678.1119995,2648,0,0,0,-80.39296981,0,0,-364.5766457,-15.57698781,24.76901579,25.57724931,0,0,0,66.61628443,0,0,,,,
678.1199995,2648,0,0,0,67.07614963,0,0,-880.0953569,-39.56705509,-13.24284349,164.1869187,0,0,0,13.31484833,0,0,,,,
678.1279995,2648,0,0,0,5.598531866,0,0,-678.2039439,67.82400243,120.165074,-44.9883608,0,0,0,51.24586661,0,0,,,,
678.1359995,2648,0,0,0,-52.88623488,0,0,-501.310613,-66.5739565,-64.6751116,150.7725698,0,0,0,38.56388277,0,0,,,,
678.1439995,2649,0,0,0,94.10136214,0,0,-989.2321325,91.6061677,94.79632591,52.67680249,0,0,0,30.3460965,0,0,,,,
678.1519995,2649,0,0,0,-98.77183092,0,0,-367.0045172,-9.706549229,18.81294277,32.38238677,0,0,0,75.77940267,0,0,,,,
678.1599995,2649,0,0,0,49.54522473,0,0,-893.4069766,-57.36757677,-35.38433877,157.2220794,0,0,0,-24.16361283,0,0,,,,
678.1679995,2649,0,0,0,-1.492456825,0,0,-686.8285581,93.38550719,120.2699967,-57.59881331,0,0,0,30.21730012,0,0,,,,
678.1759995,2649,0,0,0,-57.87062465,0,0,-519.2192203,-69.18198522,-65.09212508,139.6233389,0,0,0,33.54903197,0,0,,,,
678.1839995,2649,0,0,0,70.47775442,0,0,-1009.514895,40.24082291,67.41063779,32.37713514,0,0,0,-4.671210121,0,0,,,,
678.1919995,2649,0,0,0,-117.7181452,0,0,-377.0590232,-15.52120558,-3.445514571,8.800979724,0,0,0,49.77544382,0,0,,,,
678.1999995,2649,0,0,0,45.42625633,0,0,-889.6587648,-40.60333271,-38.17547931,143.6496157,0,0,0,-14.75093721,0,0,,,,
678.2079995,2649,0,0,0,-11.37855548,0,0,-671.1946427,70.69613388,104.0082109,-65.16420105,0,0,0,30.94566135,0,0,,,,
678.2159995,2649,0,0,0,-62.72417976,0,0,-507.6080934,-85.90227329,-77.65296839,132.312827,0,0,0,31.3251221,0,0,,,,
678.2239995,2649,0,0,0,70.03201851,0,0,-989.1503146,34.96887088,74.17695411,34.26080183,0,0,0,1.162911097,0,0,,,,
678.2319995,2649,0,0,0,-124.6855632,0,0,-355.5584844,-35.11031048,-14.22577189,12.37735858,0,0,0,21.88121499,0,0,,,,
678.2399995,2649,0,0,0,46.50637572,0,0,-873.7197722,-31.23125207,-58.83207637,137.2741811,0,0,0,-43.88877637,0,0,,,,
678.2479995,2649,0,0,0,-2.569599519,0,0,-650.797187,84.05930328,95.4151515,-61.21919559,0,0,0,47.13079193,0,0,,,,
678.2559995,2649,0,0,0,-53.8563263,0,0,-494.5749871,-90.24904942,-90.71352077,142.1433826,0,0,0,29.68334938,0,0,,,,
678.2639995,2649,0,0,0,101.4424553,0,0,-978.4578525,75.4711132,64.51160353,38.82306155,0,0,0,-1.347263494,0,0,,,,
678.2719995,2649,0,0,0,-78.27591588,0,0,-346.117497,12.38930938,0.592394401,28.58591073,0,0,0,75.56376946,0,0,,,,
678.2799995,2649,0,0,0,65.64595413,0,0,-862.1122304,-35.87026992,-42.28691894,158.7718113,0,0,0,-3.22952851,0,0,,,,
678.2879995,2649,0,0,0,9.141043145,0,0,-641.3366117,85.84913056,98.82332628,-49.92790104,0,0,0,41.30238479,0,0,,,,
678.2959995,2649,0,0,0,-30.29479523,0,0,-508.459937,-70.15098613,-75.85276687,148.3523598,0,0,0,28.33756163,0,0,,,,
678.3039995,2649,0,0,0,85.47645971,0,0,-973.3779854,49.26742323,70.72598387,47.68730455,0,0,0,-0.455232754,0,0,,,,
678.3119995,2649,0,0,0,-119.6523713,0,0,-308.7014704,-29.68332368,-26.70686014,35.38313812,0,0,0,48.97620008,0,0,,,,
678.3199995,2649,0,0,0,57.00481116,0,0,-843.0326984,-46.06394697,-68.50323339,159.0363276,0,0,0,-21.60396211,0,0,,,,
678.3279995,2649,0,0,0,-5.475714809,0,0,-622.0921765,69.18093115,85.49138667,-48.04189976,0,0,0,41.81871615,0,0,,,,
678.3359995,2649,0,0,0,-62.74491234,0,0,-477.045731,-83.65340411,-92.60059599,149.7559462,0,0,0,9.810674315,0,0,,,,
678.3439995,2649,0,0,0,78.00456966,0,0,-975.7333636,59.29923203,59.11551212,39.38361267,0,0,0,-31.59330651,0,0,,,,
678.3519995,2649,0,0,0,-117.8946292,0,0,-339.0812846,-30.37249845,-23.60078729,23.98573433,0,0,0,20.50583786,0,0,,,,
678.3599995,2649,0,0,0,64.6299431,0,0,-866.6405237,-35.62376658,-62.99965928,152.7927158,0,0,0,-47.24508657,0,0,,,,
678.3679995,2649,0,0,0,-3.134774486,0,0,-624.6977736,89.58005074,79.84313047,-49.3108933,0,0,0,28.13443086,0,0,,,,
678.3759995,2649,0,0,0,-66.96289434,0,0,-452.9260706,-91.42302756,-110.3011434,147.6871487,0,0,0,8.343995192,0,0,,,,
678.3839995,2649,0,0,0,125.0849159,0,0,-961.6698301,60.55702353,50.66236491,38.84273051,0,0,0,-0.440413288,0,0,,,,
678.3919995,2649,0,0,0,-54.97037592,0,0,-362.433782,-5.8656749,4.799439605,34.78731809,0,0,0,75.07522917,0,0,,,,
678.3999995,2650,0,0,0,94.14924879,0,0,-900.2091436,-6.674494966,-10.98720092,167.996841,0,0,0,-11.66558519,0,0,,,,
678.4079995,2650,0,0,0,31.25136004,0,0,-667.4994349,127.6465518,112.6234013,-29.13258525,0,0,0,77.47376882,0,0,,,,
678.4159995,2650,0,0,0,-59.46967864,0,0,-500.5014494,-77.67553225,-104.7696255,174.3665126,0,0,0,58.19907881,0,0,,,,
678.4239995,2650,0,0,0,81.56643625,0,0,-979.2201831,45.80170955,37.13615542,54.9174731,0,0,0,-12.01264614,0,0,,,,
678.4319995,2650,0,0,0,-86.30207182,0,0,-362.861325,-5.196462415,-25.5835416,39.73774482,0,0,0,58.74355784,0,0,,,,
678.4399995,2650,0,0,0,62.68998411,0,0,-909.2191995,-35.06814119,-38.63368146,166.5650748,0,0,0,-3.938747159,0,0,,,,
678.4479995,2650,0,0,0,-4.448072084,0,0,-679.3441298,61.6910307,94.28022342,-43.53649579,0,0,0,36.06765383,0,0,,,,
678.4559995,2650,0,0,0,-48.46715521,0,0,-515.06746,-73.83861385,-102.8433955,161.5124417,0,0,0,15.64105579,0,0,,,,
678.4639995,2650,0,0,0,99.222774,0,0,-989.9204016,91.64252219,61.7772918,62.59478145,0,0,0,18.88103351,0,0,,,,
678.4719995,2650,0,0,0,-85.8644777,0,0,-359.8706444,-13.32251527,-20.76414685,51.23160852,0,0,0,90.16933873,0,0,,,,
678.4799995,2650,0,0,0,76.71579088,0,0,-884.8179408,-29.6248941,-60.68494974,172.5826144,0,0,0,0.748104412,0,0,,,,
678.4879995,2650,0,0,0,11.77107508,0,0,-649.8618862,118.3843978,88.61020569,-28.90472666,0,0,0,63.53854601,0,0,,,,
678.4959995,2650,0,0,0,-46.56344559,0,0,-515.4101231,-74.31752418,-97.21598919,172.2075633,0,0,0,31.59654898,0,0,,,,
678.5039995,2650,0,0,0,91.76518542,0,0,-995.9550807,46.75050022,47.75450163,55.49581387,0,0,0,-21.2484098,0,0,,,,
678.5119995,2650,0,0,0,-87.12142046,0,0,-357.8567087,-5.187391197,-29.42820688,44.16339616,0,0,0,46.95318856,0,0,,,,
678.5199995,2650,0,0,0,63.13476385,0,0,-878.8931916,-36.42099522,-67.13027927,173.8384026,0,0,0,-15.69445529,0,0,,,,
678.5279995,2650,0,0,0,-25.1005859,0,0,-620.260401,59.1469539,54.29809571,-31.97002389,0,0,0,39.0092794,0,0,,,,
678.5359995,2650,0,0,0,-64.61486999,0,0,-476.8011652,-100.1765724,-116.5634,161.4474395,0,0,0,8.285904564,0,0,,,,
678.5439995,2650,0,0,0,89.13863561,0,0,-957.4212178,35.16036909,56.80874598,47.86488257,0,0,0,-31.3719891,0,0,,,,
678.5519995,2650,0,0,0,-91.92456152,0,0,-329.0291694,-20.52201558,-26.34604571,35.66439291,0,0,0,40.12831407,0,0,,,,
678.5599995,2650,0,0,0,76.30841181,0,0,-876.7570065,-2.510185124,-52.66675487,151.8972333,0,0,0,-18.54448238,0,0,,,,
678.5679995,2650,0,0,0,3.153321765,0,0,-626.9179755,94.62212951,85.7695062,-51.2165621,0,0,0,46.41707059,0,0,,,,
678.5759995,2650,0,0,0,-36.45428011,0,0,-491.165617,-79.91467388,-94.25489654,155.7005672,0,0,0,48.13215754,0,0,,,,
678.5839995,2650,0,0,0,102.5010473,0,0,-984.1250918,83.9051911,69.02443813,42.36232917,0,0,0,12.1416481,0,0,,,,
678.5919995,2650,0,0,0,-100.7832279,0,0,-345.7201916,-9.198834535,-29.22208581,32.28973061,0,0,0,55.756506,0,0,,,,
678.5999995,2650,0,0,0,63.12716665,0,0,-875.7749834,-39.04930802,-75.37986161,153.4341536,0,0,0,-11.94097038,0,0,,,,
678.6079995,2650,0,0,0,-16.33850097,0,0,-622.0532965,92.32651699,66.59585553,-50.10793453,0,0,0,40.13673213,0,0,,,,
678.6159995,2650,0,0,0,-62.00356231,0,0,-494.1832925,-78.72076081,-113.8062027,148.1494801,0,0,0,22.15494301,0,0,,,,
678.6239995,2650,0,0,0,98.33552108,0,0,-995.9010946,59.32561572,49.0465529,27.71407175,0,0,0,-9.299867705,0,0,,,,
678.6319995,2650,0,0,0,-107.2367723,0,0,-359.5067987,-15.80490084,-23.06020228,25.53454749,0,0,0,46.92100406,0,0,,,,
678.6399995,2650,0,0,0,34.01954044,0,0,-882.8868325,-54.99028066,-69.51708713,151.8428904,0,0,0,-35.5681175,0,0,,,,
678.6479995,2650,0,0,0,-44.92484063,0,0,-612.2705407,42.42543958,47.87671284,-43.19069924,0,0,0,-0.931257073,0,0,,,,
678.6559995,2651,0,0,0,-101.543771,0,0,-445.5290034,-122.8794846,-145.4898641,174.7610878,0,0,0,-27.69183095,0,0,,,,
678.6639995,2651,0,0,0,69.64820796,0,0,-916.6956374,38.54204162,9.758972649,63.25090204,0,0,0,-45.32186349,0,0,,,,
678.6719995,2651,0,0,0,-79.51857984,0,0,-298.5072862,-8.722749293,-38.03203855,64.42584853,0,0,0,45.88162136,0,0,,,,
678.6799995,2651,0,0,0,79.74051995,0,0,-841.2125544,-19.39338309,-48.67279501,196.9978827,0,0,0,-25.93971956,0,0,,,,
678.6879995,2651,0,0,0,-0.944050559,0,0,-585.6459903,86.5718342,69.76958366,-5.469769395,0,0,0,33.7543083,0,0,,,,
678.6959995,2651,0,0,0,-42.890841,0,0,-453.7614767,-64.17265137,-116.4816754,198.413947,0,0,0,39.97913264,0,0,,,,
678.7039995,2651,0,0,0,96.85152832,0,0,-936.2683591,91.33914391,47.25365498,84.59627704,0,0,0,-5.450433441,0,0,,,,
678.7119995,2651,0,0,0,-92.7930855,0,0,-322.8337641,2.566154128,-19.22611587,80.81154918,0,0,0,51.00825621,0,0,,,,
678.7199995,2651,0,0,0,59.21002073,0,0,-868.9110764,-23.38062259,-38.41744302,202.8693668,0,0,0,-24.25871505,0,0,,,,
678.7279995,2651,0,0,0,-29.42334622,0,0,-596.1271853,84.40673201,75.51820732,0.872756651,0,0,0,14.72889501,0,0,,,,
678.7359995,2651,0,0,0,-64.87245543,0,0,-464.2201741,-78.83986912,-106.3688947,205.5662559,0,0,0,12.82125814,0,0,,,,
678.7439995,2651,0,0,0,66.40300172,0,0,-930.746553,49.47875866,69.83345097,88.45829175,0,0,0,-17.78010182,0,0,,,,
678.7519995,2651,0,0,0,-140.1596655,0,0,-288.9113306,-39.93151158,-15.67247772,78.86471745,0,0,0,26.72691781,0,0,,,,
678.7599995,2651,0,0,0,47.04506353,0,0,-849.1380949,-18.03507859,-33.76456487,196.2361393,0,0,0,-31.62134238,0,0,,,,
678.7679995,2651,0,0,0,-28.46033492,0,0,-573.5067565,112.5692311,100.6257502,1.333085844,0,0,0,54.02053017,0,0,,,,
678.7759995,2651,0,0,0,-78.96076855,0,0,-428.7806394,-77.96953415,-96.32672015,208.1045855,0,0,0,46.60892755,0,0,,,,
678.7839995,2651,0,0,0,81.60525754,0,0,-926.5268495,65.35384921,74.20922196,88.56838332,0,0,0,11.28870178,0,0,,,,
678.7919995,2651,0,0,0,-127.7307612,0,0,-284.2505098,-13.12727563,-12.79814651,87.03498654,0,0,0,70.72965473,0,0,,,,
678.7999995,2651,0,0,0,27.83991189,0,0,-819.9241509,-53.68041579,-49.00885304,206.5200626,0,0,0,-13.34559279,0,0,,,,
678.8079995,2651,0,0,0,-19.93255663,0,0,-585.8484969,83.31468622,103.5572321,0.156224845,0,0,0,31.67404572,0,0,,,,
678.8159995,2651,0,0,0,-57.58085272,0,0,-467.201594,-44.61163154,-65.19570947,196.750178,0,0,0,21.69868828,0,0,,,,
678.8239995,2651,0,0,0,79.19417817,0,0,-927.9613101,86.12385211,93.25475952,78.72463527,0,0,0,12.82820187,0,0,,,,
678.8319995,2651,0,0,0,-133.2903777,0,0,-270.833239,-19.44829974,-6.351841404,76.1724359,0,0,0,62.07701313,0,0,,,,
678.8399995,2651,0,0,0,25.78097904,0,0,-810.5963031,-43.70261677,-44.75238711,183.2878186,0,0,0,-33.25718904,0,0,,,,
678.8479995,2651,0,0,0,-6.750820775,0,0,-581.8734863,102.2042542,104.2493464,-24.58383124,0,0,0,45.4185953,0,0,,,,
678.8559995,2651,0,0,0,-51.47796747,0,0,-463.786629,-48.61669282,-60.27972654,179.3596343,0,0,0,39.13471249,0,0,,,,
678.8639995,2651,0,0,0,76.53354023,0,0,-933.2878861,66.78116301,100.3700636,58.62197415,0,0,0,1.425989934,0,0,,,,
678.8719995,2651,0,0,0,-92.61875371,0,0,-312.6751207,5.185020725,16.63435529,55.71133881,0,0,0,75.29245739,0,0,,,,
678.8799995,2651,0,0,0,56.90037254,0,0,-849.9120518,-1.291256157,-8.946227666,169.5363633,0,0,0,27.38945241,0,0,,,,
678.8879995,2651,0,0,0,-42.87615795,0,0,-590.455917,66.90804877,108.879089,-42.12650089,0,0,0,56.4667119,0,0,,,,
678.8959995,2651,0,0,0,-88.07653669,0,0,-455.4764529,-93.27160768,-91.6896437,155.7137061,0,0,0,0.423414836,0,0,,,,
678.9039995,2651,0,0,0,69.10034597,0,0,-903.4227803,88.754733,73.26739053,41.07177481,0,0,0,10.03320248,0,0,,,,
678.9119995,2652,0,0,0,-114.1555598,0,0,-282.3842558,2.720006711,6.389162973,42.97971047,0,0,0,81.07171022,0,0,,,,
678.9199995,2652,0,0,0,40.2846671,0,0,-825.1935904,-34.99497269,-22.69271998,157.5057009,0,0,0,-16.97197824,0,0,,,,
678.9279995,2652,0,0,0,-31.96085396,0,0,-553.9320797,65.92182763,98.81422443,-45.79387183,0,0,0,41.86239644,0,0,,,,
678.9359995,2652,0,0,0,-85.93579501,0,0,-409.5367429,-90.00743373,-92.81556461,157.7732792,0,0,0,15.49964333,0,0,,,,
678.9439995,2652,0,0,0,61.0637421,0,0,-852.0697417,83.4908257,58.1645669,39.22430885,0,0,0,-3.394710092,0,0,,,,
678.9519995,2652,0,0,0,-107.9308828,0,0,-247.5342959,-4.048622593,-15.43729179,37.17715189,0,0,0,65.51815717,0,0,,,,
678.9599995,2652,0,0,0,49.35606776,0,0,-795.0257838,-40.19199305,-34.81503744,156.318028,0,0,0,-24.13515476,0,0,,,,
678.9679995,2652,0,0,0,-24.88402389,0,0,-520.0260175,76.32232227,91.607145,-39.07573401,0,0,0,34.60600321,0,0,,,,
678.9759995,2652,0,0,0,-61.61936782,0,0,-420.7937994,-92.37294714,-88.48985111,159.7662785,0,0,0,12.5974952,0,0,,,,
678.9839995,2652,0,0,0,72.07646438,0,0,-871.5443194,56.42044532,75.29732167,35.6596461,0,0,0,-7.976962004,0,0,,,,
678.9919995,2652,0,0,0,-121.7503741,0,0,-230.6792236,-7.806753295,-11.17070326,36.04494159,0,0,0,66.55961023,0,0,,,,
678.9999995,2652,0,0,0,56.59316664,0,0,-791.4880587,-11.48301309,-36.75252988,147.5349915,0,0,0,-19.5012062,0,0,,,,
679.0079995,2652,0,0,0,-12.48189088,0,0,-532.0200635,102.5683787,102.6666745,-56.82757903,0,0,0,53.7555739,0,0,,,,
679.0159995,2652,0,0,0,-75.39314517,0,0,-420.8884088,-78.66232857,-81.09340294,141.6143575,0,0,0,42.3461828,0,0,,,,
679.0239995,2652,0,0,0,54.75248268,0,0,-873.2443884,52.05725546,70.62567048,16.62467541,0,0,0,-4.43858663,0,0,,,,
679.0319995,2652,0,0,0,-127.4683158,0,0,-252.4081299,-17.93744208,-14.86576951,9.593487487,0,0,0,61.0425856,0,0,,,,
679.0399995,2652,0,0,0,39.41328623,0,0,-820.846729,-27.09207172,-38.59278126,117.807299,0,0,0,-7.314070576,0,0,,,,
679.0479995,2652,0,0,0,-42.60498731,0,0,-544.7548978,67.0558584,86.85024673,-77.15718135,0,0,0,35.11193996,0,0,,,,
679.0559995,2652,0,0,0,-89.42987345,0,0,-417.6144229,-85.26504957,-105.3815888,124.9601266,0,0,0,3.659537311,0,0,,,,
679.0639995,2652,0,0,0,72.67491261,0,0,-871.4360017,80.37497109,55.31587714,5.103059457,0,0,0,7.115151407,0,0,,,,
679.0719995,2652,0,0,0,-84.50150493,0,0,-268.7136337,2.883362054,3.708696946,9.491347221,0,0,0,90.2941402,0,0,,,,
679.0799995,2652,0,0,0,68.85610455,0,0,-827.8424418,3.906248524,3.78281722,120.0111302,0,0,0,11.86544026,0,0,,,,
679.0879995,2652,0,0,0,-23.75776533,0,0,-544.563778,105.4474353,102.2856161,-74.14000993,0,0,0,72.08126199,0,0,,,,
679.0959995,2652,0,0,0,-53.56869387,0,0,-460.325298,-65.29124633,-82.02280472,124.4940774,0,0,0,32.38578377,0,0,,,,
679.1039995,2652,0,0,0,79.95551193,0,0,-926.1948649,81.3993727,102.1442481,-2.471607614,0,0,0,-4.508227463,0,0,,,,
679.1119995,2652,0,0,0,-130.5149705,0,0,-289.7143982,-28.48270521,-4.476585237,0.758750653,0,0,0,47.16146609,0,0,,,,
679.1199995,2652,0,0,0,22.42221209,0,0,-817.4588701,-39.89867806,-50.55040396,107.6136666,0,0,0,-45.85203026,0,0,,,,
679.1279995,2652,0,0,0,-46.62863119,0,0,-515.303819,89.45974363,59.2542336,-89.93721329,0,0,0,35.9154403,0,0,,,,
679.1359995,2652,0,0,0,-70.15738954,0,0,-435.0358883,-74.80612783,-113.6760234,104.1718455,0,0,0,28.12367331,0,0,,,,
679.1439995,2652,0,0,0,75.82502083,0,0,-899.1159356,71.06809217,75.73399902,-22.75746476,0,0,0,-8.276852095,0,0,,,,
679.1519995,2652,0,0,0,-109.8951326,0,0,-270.7244585,-23.68619287,-21.74869664,-8.200684409,0,0,0,51.53715691,0,0,,,,
679.1599995,2652,0,0,0,52.82769318,0,0,-837.5631751,-40.08928523,-44.82021428,96.58880666,0,0,0,-28.4825961,0,0,,,,
679.1679995,2653,0,0,0,-28.58929114,0,0,-540.4360297,90.52722287,80.33483603,-103.5916462,0,0,0,43.35351527,0,0,,,,
679.1759995,2653,0,0,0,-71.78224328,0,0,-432.8635826,-78.44846228,-114.6704376,100.0570206,0,0,0,26.94891045,0,0,,,,
679.1839995,2653,0,0,0,64.01826746,0,0,-886.4262779,46.10863997,54.27740387,-29.40684954,0,0,0,-21.43629478,0,0,,,,
679.1919995,2653,0,0,0,-110.9331067,0,0,-253.4436636,-14.17139518,-37.25556214,-13.04078582,0,0,0,44.37411141,0,0,,,,
679.1999995,2653,0,0,0,58.79745969,0,0,-813.3299822,-0.448148728,-50.26163041,100.438635,0,0,0,-4.33941145,0,0,,,,
679.2079995,2653,0,0,0,-31.88639315,0,0,-527.5577604,84.28581915,83.16868588,-97.16282645,0,0,0,46.91702176,0,0,,,,
679.2159995,2653,0,0,0,-71.79522657,0,0,-428.4773378,-90.86060632,-105.7606124,112.4567888,0,0,0,-1.270047512,0,0,,,,
679.2239995,2653,0,0,0,57.89650753,0,0,-865.2478999,70.70423879,55.20074199,-20.1599282,0,0,0,-33.23784088,0,0,,,,
679.2319995,2653,0,0,0,-136.2158814,0,0,-228.2281716,-15.27572068,-45.76134511,-21.32113899,0,0,0,32.87621937,0,0,,,,
679.2399995,2653,0,0,0,49.46552602,0,0,-810.7065845,-25.53296305,-49.74100849,77.24568213,0,0,0,-29.60188655,0,0,,,,
679.2479995,2653,0,0,0,-23.44594735,0,0,-545.7126767,83.23733668,95.99231268,-122.5670352,0,0,0,33.01453071,0,0,,,,
679.2559995,2653,0,0,0,-79.50081617,0,0,-449.6028637,-92.3469911,-97.21297863,87.37648108,0,0,0,-5.752083123,0,0,,,,
679.2639995,2653,0,0,0,49.87242902,0,0,-876.8529262,60.11337244,54.37393438,-43.12067579,0,0,0,-47.16344024,0,0,,,,
679.2719995,2653,0,0,0,-123.6164679,0,0,-239.3116627,-5.629689436,-42.69552126,-32.76134445,0,0,0,31.7863337,0,0,,,,
679.2799995,2653,0,0,0,43.57300818,0,0,-816.5304062,-27.73687328,-55.43173267,71.54975868,0,0,0,-22.50136128,0,0,,,,
679.2879995,2653,0,0,0,-46.08687913,0,0,-529.5169563,70.75185857,67.872714,-133.4073111,0,0,0,17.15164824,0,0,,,,
679.2959995,2653,0,0,0,-82.62430039,0,0,-432.1413377,-82.95239654,-118.8028025,72.85386133,0,0,0,-7.977382342,0,0,,,,
679.3039995,2653,0,0,0,38.36317806,0,0,-870.3789693,45.59114955,41.13300245,-59.88173154,0,0,0,-37.71892361,0,0,,,,
679.3119995,2653,0,0,0,-136.6468464,0,0,-239.8186031,-22.08305176,-60.32289692,-54.46852402,0,0,0,18.22550487,0,0,,,,
679.3199995,2653,0,0,0,46.2801401,0,0,-822.0113678,-6.004557999,-62.89305433,53.01245327,0,0,0,-29.53893674,0,0,,,,
679.3279995,2653,0,0,0,-49.44907717,0,0,-535.0106016,84.20797226,66.8261558,-145.0107797,0,0,0,20.1713468,0,0,,,,
679.3359995,2653,0,0,0,-79.41952269,0,0,-449.4124954,-81.66945111,-123.0730019,61.57047343,0,0,0,-7.090728981,0,0,,,,
679.3439995,2653,0,0,0,46.28666894,0,0,-902.2439522,56.15361159,46.82589892,-62.31996099,0,0,0,-36.16625701,0,0,,,,
679.3519995,2653,0,0,0,-152.5425114,0,0,-247.982391,-20.00696358,-55.15394087,-34.39073421,0,0,0,6.457940299,0,0,,,,
679.3599995,2653,0,0,0,8.850046357,0,0,-779.1970983,-43.60923087,-90.31403465,94.25137664,0,0,0,-37.09765492,0,0,,,,
679.3679995,2653,0,0,0,-89.34912068,0,0,-479.9289536,18.36165411,26.83902298,-97.7992918,0,0,0,-7.980285301,0,0,,,,
679.3759995,2653,0,0,0,-95.20440512,0,0,-401.3901952,-97.93822333,-144.0567924,108.2552415,0,0,0,-62.14517817,0,0,,,,
679.3839995,2653,0,0,0,61.22861336,0,0,-849.8110923,82.21849336,34.0198426,-9.036125739,0,0,0,-31.340566,0,0,,,,
679.3919995,2653,0,0,0,-151.1955151,0,0,-218.782444,-36.35483682,-75.87254104,14.21634927,0,0,0,21.87015975,0,0,,,,
679.3999995,2653,0,0,0,11.24578262,0,0,-785.2913035,-45.37935844,-105.1870935,122.3720431,0,0,0,-73.3231129,0,0,,,,
679.4079995,2653,0,0,0,-61.76410869,0,0,-496.5384184,62.14796662,18.21261812,-71.25205651,0,0,0,-8.061790651,0,0,,,,
679.4159995,2653,0,0,0,-91.54567936,0,0,-420.3828773,-84.40075883,-170.2712771,139.1941528,0,0,0,-46.11711017,0,0,,,,
679.4239995,2654,0,0,0,41.97301886,0,0,-862.5065658,77.03928261,-4.434269241,12.60409014,0,0,0,-50.31208448,0,0,,,,
679.4319995,2654,0,0,0,-150.8029269,0,0,-223.9952624,-36.7723043,-113.9933654,28.89380571,0,0,0,27.1225209,0,0,,,,
679.4399995,2654,0,0,0,36.6900735,0,0,-806.5002297,-24.91694327,-129.539927,127.8897798,0,0,0,-53.04175972,0,0,,,,
679.4479995,2654,0,0,0,-47.80079157,0,0,-518.7980844,101.338319,1.865850658,-66.88296668,0,0,0,16.08817815,0,0,,,,
679.4559995,2654,0,0,0,-110.1998585,0,0,-420.1027478,-84.30665336,-206.6414188,144.2418434,0,0,0,-14.1215014,0,0,,,,
679.4639995,2654,0,0,0,21.20912231,0,0,-863.4236422,48.92847184,-40.86988266,6.207964964,0,0,0,-62.42495654,0,0,,,,
679.4719995,2654,0,0,0,-163.4514996,0,0,-232.2582505,-44.22264962,-124.7971113,21.77264164,0,0,0,-8.829593419,0,0,,,,
679.4799995,2654,0,0,0,-0.284462023,0,0,-780.9303123,-35.34722778,-141.3608998,124.5407918,0,0,0,-74.99062073,0,0,,,,
679.4879995,2654,0,0,0,-86.86743908,0,0,-478.1951574,68.40766164,-5.609418522,-75.11294104,0,0,0,3.14201454,0,0,,,,
679.4959995,2654,0,0,0,-114.3091195,0,0,-394.0313052,-98.09551764,-179.7254461,137.4090368,0,0,0,-24.93214587,0,0,,,,
679.5039995,2654,0,0,0,24.52218675,0,0,-818.0623543,72.97963942,5.827692015,11.2028127,0,0,0,-56.41701089,0,0,,,,
679.5119995,2654,0,0,0,-163.2175624,0,0,-188.553942,-34.32320955,-74.72527876,35.36488025,0,0,0,23.32525296,0,0,,,,
679.5199995,2654,0,0,0,10.31504218,0,0,-757.5984624,-57.85546162,-90.99410758,138.5330096,0,0,0,-59.60162868,0,0,,,,
679.5279995,2654,0,0,0,-60.55079786,0,0,-455.92112,75.50660999,56.90468395,-52.51285545,0,0,0,15.26462611,0,0,,,,
679.5359995,2654,0,0,0,-85.68840437,0,0,-378.5492054,-83.44265337,-109.4599161,169.7741585,0,0,0,20.51130615,0,0,,,,
679.5439995,2654,0,0,0,39.01505972,0,0,-810.6935367,54.68047848,57.43420478,36.30008365,0,0,0,-18.4040748,0,0,,,,
679.5519995,2654,0,0,0,-143.2273346,0,0,-187.5991467,-13.74319256,-18.88613272,54.20505231,0,0,0,39.66468219,0,0,,,,
679.5599995,2654,0,0,0,35.2491706,0,0,-753.9851717,-14.96662647,-23.16723141,164.2647128,0,0,0,-30.64077841,0,0,,,,
679.5679995,2654,0,0,0,-57.97087618,0,0,-454.8295914,65.50660137,104.4975332,-26.74218471,0,0,0,33.00171622,0,0,,,,
679.5759995,2654,0,0,0,-92.39030861,0,0,-387.5400427,-81.60092858,-71.23959695,183.4393121,0,0,0,11.63395238,0,0,,,,
679.5839995,2654,0,0,0,54.01532709,0,0,-818.6533009,96.65779482,88.22759874,45.41128643,0,0,0,-16.70806269,0,0,,,,
679.5919995,2654,0,0,0,-117.1159711,0,0,-203.2549846,1.113713708,3.393492269,66.36937909,0,0,0,52.39947432,0,0,,,,
679.5999995,2654,0,0,0,47.24214312,0,0,-777.3961508,-18.24088964,8.658064567,175.0117155,0,0,0,-14.45468668,0,0,,,,
679.6079995,2654,0,0,0,-57.30692132,0,0,-479.3458545,70.91637392,121.6062145,-20.59369468,0,0,0,35.63564785,0,0,,,,
679.6159995,2654,0,0,0,-98.76074831,0,0,-403.6013586,-90.40426577,-70.7401958,184.7295653,0,0,0,0.442829653,0,0,,,,
679.6239995,2654,0,0,0,34.45404316,0,0,-808.6535548,62.41308586,96.00262591,46.53357001,0,0,0,-21.25527804,0,0,,,,
679.6319995,2654,0,0,0,-136.0590993,0,0,-195.8032082,-29.29042426,4.321103841,63.52522257,0,0,0,32.43345547,0,0,,,,
679.6399995,2654,0,0,0,32.05074832,0,0,-768.1586555,-32.51255804,-5.46825755,163.2606217,0,0,0,-45.01461217,0,0,,,,
679.6479995,2654,0,0,0,-76.70002157,0,0,-440.6441107,58.42300262,104.0503442,-30.46747648,0,0,0,18.28688068,0,0,,,,
679.6559995,2654,0,0,0,-98.23906939,0,0,-376.0466703,-89.76304842,-82.77762419,179.3401293,0,0,0,-8.616966753,0,0,,,,
679.6639995,2654,0,0,0,39.16360533,0,0,-795.7278021,70.9938228,95.23507108,42.09534866,0,0,0,-26.47697158,0,0,,,,
679.6719995,2654,0,0,0,-154.9000742,0,0,-165.9010847,-35.23825638,1.03071105,63.34752339,0,0,0,31.793764,0,0,,,,
679.6799995,2655,0,0,0,19.51730723,0,0,-741.3660101,-49.61741272,-12.63759622,161.3353392,0,0,0,-52.19005385,0,0,,,,
679.6879995,2655,0,0,0,-58.52578475,0,0,-444.7328937,57.35746131,115.9983155,-39.97262214,0,0,0,3.954281907,0,0,,,,
679.6959995,2655,0,0,0,-70.57717532,0,0,-395.154412,-72.49719687,-53.94376211,173.5487345,0,0,0,-3.927644409,0,0,,,,
679.7039995,2655,0,0,0,55.8284903,0,0,-808.5869072,69.72257207,118.3663317,43.38536897,0,0,0,-16.32224733,0,0,,,,
679.7119995,2655,0,0,0,-129.8155593,0,0,-182.3872149,-40.63983657,14.92974268,67.18152711,0,0,0,33.12065559,0,0,,,,
679.7199995,2655,0,0,0,27.79820027,0,0,-739.0231697,-39.48518254,-1.238644904,170.1572738,0,0,0,-42.29101687,0,0,,,,
679.7279995,2655,0,0,0,-78.4361312,0,0,-403.8908092,48.2006541,99.39830711,-30.60296251,0,0,0,1.122247369,0,0,,,,
679.7359995,2655,0,0,0,-62.32743296,0,0,-375.1880414,-88.08312958,-78.33119465,173.6155496,0,0,0,-20.5846236,0,0,,,,
679.7439995,2655,0,0,0,61.45393503,0,0,-804.1139289,83.03805646,119.4443818,37.79317944,0,0,0,-15.02330025,0,0,,,,
679.7519995,2655,0,0,0,-164.8817903,0,0,-138.4563114,-38.50053648,-14.29746912,62.35260031,0,0,0,33.36284118,0,0,,,,
679.7599995,2655,0,0,0,22.19108612,0,0,-718.3128885,-53.17636515,-40.56763916,157.9053378,0,0,0,-59.69349175,0,0,,,,
679.7679995,2655,0,0,0,-55.72513981,0,0,-420.0630685,62.7296419,108.820295,-45.98714218,0,0,0,8.040429948,0,0,,,,
679.7759995,2655,0,0,0,-78.07531894,0,0,-350.359606,-90.91196326,-79.50515038,167.424022,0,0,0,9.956333963,0,0,,,,
679.7839995,2655,0,0,0,59.29391204,0,0,-778.8439825,61.92063151,102.1460848,34.09956044,0,0,0,-17.14302346,0,0,,,,
679.7919995,2655,0,0,0,-125.7084364,0,0,-165.3118059,-27.41321381,17.47874435,57.84262041,0,0,0,19.69982139,0,0,,,,
679.7999995,2655,0,0,0,38.00393542,0,0,-736.8217301,-46.7823677,0.806937078,160.6801754,0,0,0,-41.72998677,0,0,,,,
679.8079995,2655,0,0,0,-57.28998778,0,0,-409.6106873,63.08463906,121.2672481,-32.86980017,0,0,0,25.11457823,0,0,,,,
679.8159995,2655,0,0,0,-75.15774436,0,0,-348.4988131,-82.14971557,-69.78128772,180.8206804,0,0,0,10.28641454,0,0,,,,
679.8239995,2655,0,0,0,57.40913685,0,0,-778.3252074,53.40173511,97.81649164,42.68908601,0,0,0,-13.29719115,0,0,,,,
679.8319995,2655,0,0,0,-119.8911973,0,0,-149.341192,-16.38444806,5.008985737,67.49363556,0,0,0,39.06599479,0,0,,,,
679.8399995,2655,0,0,0,57.89322035,0,0,-712.4011268,-7.292893032,-8.537700003,169.4273986,0,0,0,-2.759575885,0,0,,,,
679.8479995,2655,0,0,0,-37.96436972,0,0,-398.7598673,65.31792909,107.8327327,-30.1204788,0,0,0,53.13161874,0,0,,,,
679.8559995,2655,0,0,0,-61.58871287,0,0,-353.8329111,-77.51892243,-70.07556794,175.0932529,0,0,0,11.45680404,0,0,,,,
679.8639995,2655,0,0,0,55.56243583,0,0,-761.1354059,91.75678253,96.98176302,31.03346889,0,0,0,5.817409192,0,0,,,,
679.8719995,2655,0,0,0,-147.5957006,0,0,-118.6553423,-35.95300697,-20.64067062,49.91089408,0,0,0,41.59261235,0,0,,,,
679.8799995,2655,0,0,0,45.67094947,0,0,-712.7271492,-34.29923625,-29.75426585,142.6119227,0,0,0,-50.56049468,0,0,,,,
679.8879995,2655,0,0,0,-34.56653659,0,0,-404.3118542,102.9659069,111.9272341,-52.99837871,0,0,0,54.83617885,0,0,,,,
679.8959995,2655,0,0,0,-78.202358,0,0,-332.70609,-76.03562219,-82.64702388,162.5956595,0,0,0,35.64773014,0,0,,,,
679.9039995,2655,0,0,0,61.83229216,0,0,-754.0974098,64.69471554,76.43387504,19.46839523,0,0,0,-14.2029885,0,0,,,,
679.9119995,2655,0,0,0,-120.0614248,0,0,-131.155953,-13.13083534,-11.36021743,45.02106191,0,0,0,50.5393379,0,0,,,,
679.9199995,2655,0,0,0,42.83913464,0,0,-701.5529489,-37.16455346,-29.00704472,146.2112582,0,0,0,-28.1065246,0,0,,,,
679.9279995,2655,0,0,0,-46.93010279,0,0,-381.6719497,59.17413083,99.6681873,-51.14331697,0,0,0,29.84474918,0,0,,,,
679.9359995,2656,0,0,0,-88.18469397,0,0,-291.8608612,-86.21566138,-93.36223775,164.2169775,0,0,0,6.086680889,0,0,,,,
679.9439995,2656,0,0,0,46.79540175,0,0,-693.9805486,56.44823391,48.91406894,18.69618462,0,0,0,-14.72852696,0,0,,,,
679.9519995,2656,0,0,0,-115.7302928,0,0,-104.618667,-23.87199442,-22.40937426,32.76574016,0,0,0,43.42056158,0,0,,,,
679.9599995,2656,0,0,0,51.94595937,0,0,-668.3040295,-13.66868566,-28.41891075,135.533316,0,0,0,-39.08097401,0,0,,,,
679.9679995,2656,0,0,0,-32.72803165,0,0,-334.9010829,87.15544768,79.8572865,-52.35543916,0,0,0,52.47819732,0,0,,,,
679.9759995,2656,0,0,0,-47.18298061,0,0,-308.0875171,-67.76860187,-82.33418163,158.8192052,0,0,0,36.21744446,0,0,,,,
679.9839995,2656,0,0,0,72.44507652,0,0,-723.346451,71.09126315,80.98731949,18.77132173,0,0,0,-4.595888748,0,0,,,,
679.9919995,2656,0,0,0,-117.1051304,0,0,-99.26674067,-25.7329506,-23.36519445,45.06675708,0,0,0,61.68569367,0,0,,,,
679.9999995,2656,0,0,0,53.29969767,0,0,-675.3442596,-23.11603876,-36.28382872,138.9588863,0,0,0,-29.89885326,0,0,,,,
680.0079995,2656,0,0,0,-19.15740246,0,0,-360.2703533,98.40524591,87.66585151,-55.85057344,0,0,0,30.99185376,0,0,,,,
680.0159995,2656,0,0,0,-38.84964899,0,0,-317.4619828,-52.81590422,-73.28387959,158.2283111,0,0,0,29.79059098,0,0,,,,
680.0239995,2656,0,0,0,71.3990723,0,0,-714.0589302,72.1905502,70.61982867,16.26837928,0,0,0,-14.32479262,0,0,,,,
680.0319995,2656,0,0,0,-96.59381882,0,0,-97.66498212,-4.441399019,-30.02665069,45.8745735,0,0,0,50.26921363,0,0,,,,
680.0399995,2656,0,0,0,64.43685562,0,0,-672.4070117,-9.147798557,-24.77661048,139.6018243,0,0,0,-7.253659117,0,0,,,,
680.0479995,2656,0,0,0,-36.40874716,0,0,-341.3553734,64.21131626,63.54677683,-66.4083896,0,0,0,23.14286712,0,0,,,,
680.0559995,2656,0,0,0,-25.18912767,0,0,-311.631075,-71.19629493,-97.92274959,146.7121814,0,0,0,16.11656558,0,0,,,,
680.0639995,2656,0,0,0,102.5722439,0,0,-731.1663335,87.86721789,97.21809594,12.55704761,0,0,0,13.278473,0,0,,,,
680.0719995,2656,0,0,0,-100.3920718,0,0,-111.873861,-15.50884284,-13.77111818,41.96887611,0,0,0,46.98447135,0,0,,,,
680.0799995,2656,0,0,0,57.98680398,0,0,-680.3311256,-29.50956812,-24.78072543,133.0845212,0,0,0,-29.45483828,0,0,,,,
680.0879995,2656,0,0,0,-23.75823109,0,0,-352.3628782,77.5413499,76.45957046,-68.024946,0,0,0,28.44239184,0,0,,,,
680.0959995,2656,0,0,0,-26.71056044,0,0,-307.3969929,-48.90901761,-105.1700847,147.653662,0,0,0,14.63581358,0,0,,,,
680.1039995,2656,0,0,0,79.81496235,0,0,-698.4950962,81.03605031,66.59859049,6.645434034,0,0,0,7.85240245,0,0,,,,
680.1119995,2656,0,0,0,-119.7966086,0,0,-77.18558498,-38.11732494,-47.78654475,29.0190951,0,0,0,46.47300403,0,0,,,,
680.1199995,2656,0,0,0,68.04330084,0,0,-667.8752898,-17.85543381,-47.2726575,114.1746115,0,0,0,-33.63045806,0,0,,,,
680.1279995,2656,0,0,0,-22.00606629,0,0,-346.9882846,86.03409121,81.08996038,-83.39383533,0,0,0,43.73460795,0,0,,,,
680.1359995,2656,0,0,0,-58.90143201,0,0,-299.1408942,-85.49207437,-106.740205,133.5719813,0,0,0,4.125881806,0,0,,,,
680.1439995,2656,0,0,0,74.70251747,0,0,-705.8461766,65.99187397,55.48574843,-22.38594159,0,0,0,-28.88549854,0,0,,,,
680.1519995,2656,0,0,0,-109.6312293,0,0,-93.37446684,-26.00215924,-35.09170288,-2.222533729,0,0,0,46.0172503,0,0,,,,
680.1599995,2656,0,0,0,50.80899105,0,0,-666.2457153,-29.48843108,-36.66377164,93.27283727,0,0,0,-38.47918128,0,0,,,,
680.1679995,2656,0,0,0,-35.0284658,0,0,-339.9406681,52.44072754,70.80764023,-104.1536053,0,0,0,15.12908762,0,0,,,,
680.1759995,2656,0,0,0,-53.00024185,0,0,-305.6918938,-95.36711201,-110.8339668,109.6307846,0,0,0,-5.242091507,0,0,,,,
680.1839995,2656,0,0,0,78.57791389,0,0,-711.8233296,92.49217334,76.10162497,-34.65497007,0,0,0,-19.30447569,0,0,,,,
680.1919995,2657,0,0,0,-108.8623881,0,0,-92.33286749,-18.61555651,-32.73698417,0.760444926,0,0,0,41.81081279,0,0,,,,
680.1999995,2657,0,0,0,54.76114173,0,0,-652.0037945,-35.43242757,-68.71575671,93.74406283,0,0,0,-37.7857915,0,0,,,,
680.2079995,2657,0,0,0,-34.18068474,0,0,-317.0642532,73.95014468,65.99852997,-102.9671889,0,0,0,40.34059277,0,0,,,,
680.2159995,2657,0,0,0,-53.70403261,0,0,-282.603881,-77.67485542,-103.3206096,119.237452,0,0,0,6.656965455,0,0,,,,
680.2239995,2657,0,0,0,65.0128157,0,0,-662.4630093,73.54666882,49.81551726,-22.85235562,0,0,0,-23.9533594,0,0,,,,
680.2319995,2657,0,0,0,-126.0346052,0,0,-43.91696219,-36.15374761,-45.6527262,14.40453559,0,0,0,37.26816001,0,0,,,,
680.2399995,2657,0,0,0,44.23954233,0,0,-636.7694801,-32.18897471,-41.32096219,104.8147662,0,0,0,-51.38927164,0,0,,,,
680.2479995,2657,0,0,0,-57.02963399,0,0,-298.2567608,55.75974856,78.49361689,-98.49023239,0,0,0,14.57289879,0,0,,,,
680.2559995,2657,0,0,0,-75.12165467,0,0,-255.7862256,-109.4591915,-105.3762763,118.4165363,0,0,0,-3.355294878,0,0,,,,
680.2639995,2657,0,0,0,51.33772458,0,0,-642.794028,56.68273285,73.39822942,-27.06326218,0,0,0,-10.70729101,0,0,,,,
680.2719995,2657,0,0,0,-134.3105365,0,0,-20.79634259,-40.10526504,-26.19327677,11.08200335,0,0,0,52.2785177,0,0,,,,
680.2799995,2657,0,0,0,40.76989322,0,0,-601.3138083,-28.96878351,-32.64541319,104.5263208,0,0,0,-24.23095534,0,0,,,,
680.2879995,2657,0,0,0,-66.19111158,0,0,-253.5904126,53.00257215,95.89933094,-87.41102806,0,0,0,46.80439254,0,0,,,,
680.2959995,2657,0,0,0,-72.70558987,0,0,-222.4024125,-97.86346199,-91.18547742,145.7908048,0,0,0,8.241113298,0,0,,,,
680.3039995,2657,0,0,0,66.46087527,0,0,-630.3042192,92.85148419,87.73348771,5.935331698,0,0,0,-6.15315836,0,0,,,,
680.3119995,2657,0,0,0,-119.7810977,0,0,-28.66844035,-14.92574045,3.962918647,47.25532001,0,0,0,65.06866106,0,0,,,,
680.3199995,2657,0,0,0,55.87278136,0,0,-622.2968714,-19.42176159,1.819047846,147.5201353,0,0,0,-18.85408458,0,0,,,,
680.3279995,2657,0,0,0,-47.59247521,0,0,-270.286156,69.06541323,111.0719566,-45.0827592,0,0,0,48.64460531,0,0,,,,
680.3359995,2657,0,0,0,-53.22546072,0,0,-241.9765719,-94.48829263,-69.66776073,178.541195,0,0,0,22.56257298,0,0,,,,
680.3439995,2657,0,0,0,61.04944111,0,0,-637.4914663,61.41784573,106.2948434,31.5488727,0,0,0,-11.93093179,0,0,,,,
680.3519995,2657,0,0,0,-136.0206287,0,0,1.392887121,-40.12128989,-16.57859734,68.67074569,0,0,0,43.67511343,0,0,,,,
680.3599995,2657,0,0,0,44.96237884,0,0,-577.6233227,-39.34424523,-20.81005475,160.2550393,0,0,0,-25.80425284,0,0,,,,
680.3679995,2657,0,0,0,-69.94736485,0,0,-227.8972505,36.26947026,101.2381919,-41.99436732,0,0,0,24.71132331,0,0,,,,
680.3759995,2657,0,0,0,-58.22261813,0,0,-200.3095518,-92.80914809,-84.05668166,176.3495985,0,0,0,2.629757014,0,0,,,,
680.3839995,2657,0,0,0,69.80553106,0,0,-601.6855855,86.11166278,96.5448114,25.97352731,0,0,0,-5.301401295,0,0,,,,
680.3919995,2657,0,0,0,-135.4287696,0,0,26.25848109,-26.46678847,-6.587187043,60.95628475,0,0,0,35.58631424,0,0,,,,
680.3999995,2657,0,0,0,78.34674784,0,0,-566.6488216,1.738732432,-3.586648778,159.1157006,0,0,0,-23.91119306,0,0,,,,
680.4079995,2657,0,0,0,-21.10685013,0,0,-244.2174708,91.63666995,119.1447285,-28.24161141,0,0,0,54.10152967,0,0,,,,
680.4159995,2657,0,0,0,-54.26867977,0,0,-228.5885062,-88.59135965,-54.80591752,198.0525805,0,0,0,7.37637066,0,0,,,,
680.4239995,2657,0,0,0,68.58714374,0,0,-616.6816648,76.73028287,114.6783493,50.43910799,0,0,0,-14.51696584,0,0,,,,
680.4319995,2657,0,0,0,-117.1952365,0,0,6.612414599,-16.78624169,-2.479606602,88.60394762,0,0,0,51.96646514,0,0,,,,
680.4399995,2657,0,0,0,62.98850844,0,0,-579.4177527,-22.71848873,-2.124468261,183.1243133,0,0,0,-23.22257031,0,0,,,,
680.4479995,2658,0,0,0,-52.4481683,0,0,-226.6630783,53.16103716,103.9639555,-14.02385839,0,0,0,21.2142549,0,0,,,,
680.4559995,2658,0,0,0,-54.16676694,0,0,-206.7538302,-102.3352505,-80.80559697,201.9661164,0,0,0,-19.55444176,0,0,,,,
680.4639995,2658,0,0,0,88.57025691,0,0,-603.9871822,77.06196113,104.0969586,53.39503098,0,0,0,-19.08108584,0,0,,,,
680.4719995,2658,0,0,0,-114.1884377,0,0,22.81873562,-18.35570018,-3.653220738,91.49291748,0,0,0,54.38857739,0,0,,,,
680.4799995,2658,0,0,0,50.25273266,0,0,-558.6957987,-37.11085464,-16.67405902,174.2975415,0,0,0,-40.46407074,0,0,,,,
680.4879995,2658,0,0,0,-52.57781164,0,0,-185.4084235,72.84434094,85.38915456,-26.09924956,0,0,0,21.44043714,0,0,,,,
680.4959995,2658,0,0,0,-64.65561251,0,0,-142.9517023,-76.87584142,-98.42185554,197.5140841,0,0,0,15.72834117,0,0,,,,
680.5039995,2658,0,0,0,66.40869909,0,0,-551.8996486,46.62917634,91.93586846,45.24925445,0,0,0,-17.83580402,0,0,,,,
680.5119995,2658,0,0,0,-126.305472,0,0,70.22393811,-45.52233943,-11.29207812,79.08870843,0,0,0,31.57946807,0,0,,,,
680.5199995,2658,0,0,0,47.56534362,0,0,-505.7925693,-41.25248442,-26.78568292,165.2173242,0,0,0,-44.69632273,0,0,,,,
680.5279995,2658,0,0,0,-24.06909249,0,0,-165.019915,60.5755651,96.77238538,-31.92558085,0,0,0,6.527092627,0,0,,,,
680.5359995,2658,0,0,0,-19.72365712,0,0,-149.242786,-62.95889018,-66.9147941,195.6813876,0,0,0,4.707252918,0,0,,,,
680.5439995,2658,0,0,0,101.0716919,0,0,-547.4915207,90.28180243,117.8748285,42.30218885,0,0,0,3.258398003,0,0,,,,
680.5519995,2658,0,0,0,-96.22194141,0,0,79.17194614,-20.4944847,6.944361549,80.15022451,0,0,0,56.86507485,0,0,,,,
680.5599995,2658,0,0,0,62.5656198,0,0,-485.5476407,-20.46324516,-17.58815561,174.4324186,0,0,0,-22.03332514,0,0,,,,
680.5679995,2658,0,0,0,-26.56094411,0,0,-132.6315663,74.69743073,93.49628759,-32.75263965,0,0,0,23.98579472,0,0,,,,
680.5759995,2658,0,0,0,-30.55768986,0,0,-123.084485,-82.19648084,-78.19972276,181.6155683,0,0,0,2.302243982,0,0,,,,
680.5839995,2658,0,0,0,83.81743839,0,0,-525.460267,56.76358489,94.7850071,22.60640087,0,0,0,-18.05808711,0,0,,,,
680.5919995,2658,0,0,0,-94.68548546,0,0,74.3273551,-29.34730841,-2.796198489,48.79099805,0,0,0,17.43849978,0,0,,,,
680.5999995,2658,0,0,0,82.25607303,0,0,-516.3120615,3.935836554,-1.44800305,138.0706864,0,0,0,-40.05115521,0,0,,,,
680.6079995,2658,0,0,0,-33.77186755,0,0,-155.9732769,72.44877112,92.97237949,-61.19059366,0,0,0,40.70203124,0,0,,,,
680.6159995,2658,0,0,0,-48.30199732,0,0,-132.4880948,-101.489845,-96.19040415,156.9568961,0,0,0,-15.2015158,0,0,,,,
680.6239995,2658,0,0,0,93.19195021,0,0,-516.6809581,76.9073989,78.32759203,8.183993944,0,0,0,-39.28309069,0,0,,,,
680.6319995,2658,0,0,0,-88.62974881,0,0,91.470957,-8.777735592,-20.92723921,44.17698008,0,0,0,49.67325004,0,0,,,,
680.6399995,2658,0,0,0,66.20917242,0,0,-503.8538535,-16.16629999,-22.18217123,128.4998869,0,0,0,-39.69195041,0,0,,,,
680.6479995,2658,0,0,0,-49.0161018,0,0,-130.9563229,44.83316811,71.6713508,-66.30797509,0,0,0,-7.552310703,0,0,,,,
680.6559995,2658,0,0,0,-49.29804514,0,0,-101.841414,-102.7723223,-108.4296621,158.4641666,0,0,0,-28.3000713,0,0,,,,
680.6639995,2658,0,0,0,94.93209005,0,0,-505.5160943,80.95458275,82.23342243,5.122387836,0,0,0,-26.40684245,0,0,,,,
680.6719995,2658,0,0,0,-97.82847832,0,0,102.4776192,-19.26341903,-7.591007154,39.91035215,0,0,0,33.67736285,0,0,,,,
680.6799995,2658,0,0,0,60.07645181,0,0,-477.657089,-24.78816981,-20.43845657,133.1368011,0,0,0,-58.77655763,0,0,,,,
680.6879995,2658,0,0,0,-38.90640431,0,0,-126.125885,46.92597433,77.24709188,-60.99256498,0,0,0,-5.70447915,0,0,,,,
680.6959995,2658,0,0,0,-25.89966402,0,0,-141.1290407,-82.27006183,-75.37526476,148.1467165,0,0,0,-29.96012234,0,0,,,,
680.7039995,2659,0,0,0,99.59658867,0,0,-545.7246665,95.75842573,105.0332202,-0.583254129,0,0,0,-20.68205742,0,0,,,,
680.7119995,2659,0,0,0,-134.7445734,0,0,94.60751797,-55.2571793,-31.25920321,40.13949973,0,0,0,25.67708174,0,0,,,,
680.7199995,2659,0,0,0,35.95212759,0,0,-482.0889116,-44.67301061,-57.07857753,111.622626,0,0,0,-88.88906218,0,0,,,,
680.7279995,2659,0,0,0,-44.41040626,0,0,-120.6787792,78.82281265,56.15004308,-80.21227569,0,0,0,-2.569961351,0,0,,,,
680.7359995,2659,0,0,0,-75.6318942,0,0,-78.17149962,-100.3776097,-123.9358938,144.1637347,0,0,0,-20.14185161,0,0,,,,
680.7439995,2659,0,0,0,55.34274043,0,0,-461.3187911,50.05020166,35.23402556,-20.94747802,0,0,0,-43.03615892,0,0,,,,
680.7519995,2659,0,0,0,-114.6344602,0,0,141.0503366,-42.43849723,-52.58735313,11.04974795,0,0,0,22.94614436,0,0,,,,
680.7599995,2659,0,0,0,43.97588033,0,0,-445.3644496,-37.86762773,-40.94882102,93.13806837,0,0,0,-69.67961298,0,0,,,,
680.7679995,2659,0,0,0,-62.66778786,0,0,-80.40668349,46.76493027,54.23156376,-101.6317799,0,0,0,-10.35729779,0,0,,,,
680.7759995,2659,0,0,0,-55.00224442,0,0,-74.89875865,-109.1819122,-113.0002068,118.741973,0,0,0,-30.18272841,0,0,,,,
680.7839995,2659,0,0,0,74.61603849,0,0,-473.8059548,64.0866134,80.87805324,-42.10804447,0,0,0,-41.04673199,0,0,,,,
680.7919995,2659,0,0,0,-122.265197,0,0,144.0709193,-32.47655224,-28.19874518,-6.475834167,0,0,0,16.82522595,0,0,,,,
680.7999995,2659,0,0,0,60.96601918,0,0,-454.6995594,-29.25533924,-29.87845241,78.93167054,0,0,0,-78.07674284,0,0,,,,
680.8079995,2659,0,0,0,-17.49978897,0,0,-109.9707317,59.79983571,84.49173366,-110.1910476,0,0,0,-4.593745153,0,0,,,,
680.8159995,2659,0,0,0,-25.78846509,0,0,-97.9415616,-98.13666163,-90.51005457,119.4454756,0,0,0,-5.201671468,0,0,,,,
680.8239995,2659,0,0,0,77.34536968,0,0,-474.9113191,70.96113768,75.26795963,-37.38790333,0,0,0,-33.04138562,0,0,,,,
680.8319995,2659,0,0,0,-110.8322115,0,0,151.9787429,-22.45824067,-41.97475514,-1.464862732,0,0,0,22.7139832,0,0,,,,
680.8399995,2659,0,0,0,56.46228104,0,0,-430.2587848,-46.73969401,-44.23346763,83.27302405,0,0,0,-55.44591064,0,0,,,,
680.8479995,2659,0,0,0,-56.09520624,0,0,-48.83842815,36.1886407,40.39006609,-120.1029723,0,0,0,-16.39311787,0,0,,,,
680.8559995,2659,0,0,0,-42.26162509,0,0,-22.9197441,-75.96918524,-144.9563449,94.79706217,0,0,0,-17.19805187,0,0,,,,
680.8639995,2659,0,0,0,79.61490366,0,0,-413.2856861,84.58204366,47.86795039,-65.497185,0,0,0,-18.103116,0,0,,,,
680.8719995,2659,0,0,0,-125.3114429,0,0,214.1979739,-38.20762912,-65.92518851,-37.34674042,0,0,0,10.79234954,0,0,,,,
680.8799995,2659,0,0,0,47.72309574,0,0,-364.2531015,-51.71783113,-66.54717972,46.46635297,0,0,0,-67.43276966,0,0,,,,
680.8879995,2659,0,0,0,-58.50339864,0,0,-11.09728821,20.88389346,51.66304362,-148.4219225,0,0,0,-22.43507117,0,0,,,,
680.8959995,2659,0,0,0,-51.85153221,0,0,3.696622639,-100.0254009,-119.604307,67.62383644,0,0,0,-65.00784,0,0,,,,
680.9039995,2659,0,0,0,94.8065356,0,0,-379.7900401,66.03316392,64.23041696,-84.71263144,0,0,0,-46.39515762,0,0,,,,
680.9119995,2659,0,0,0,-87.69018359,0,0,213.5427708,-48.99995997,-36.42073594,-45.45168811,0,0,0,34.41945551,0,0,,,,
680.9199995,2659,0,0,0,94.18530033,0,0,-395.1087446,10.03845543,-21.44531592,40.44873819,0,0,0,-42.33479743,0,0,,,,
680.9279995,2659,0,0,0,-10.73627277,0,0,-27.54935658,109.0608607,79.0062028,-147.7180354,0,0,0,21.67616263,0,0,,,,
680.9359995,2659,0,0,0,-30.51168861,0,0,-10.27333535,-86.17799435,-120.4412892,70.27328102,0,0,0,-15.24167215,0,0,,,,
680.9439995,2659,0,0,0,102.4559633,0,0,-413.4720704,75.3028346,67.49102234,-87.42883346,0,0,0,-45.91740889,0,0,,,,
680.9519995,2659,0,0,0,-88.94396663,0,0,201.6368628,-21.98972864,-38.66761313,-43.78292988,0,0,0,8.772841062,0,0,,,,
680.9599995,2660,0,0,0,76.70329736,0,0,-371.033776,-14.85376356,-64.623219,44.9999645,0,0,0,-60.76168062,0,0,,,,
680.9679995,2660,0,0,0,-20.23638833,0,0,-16.61663661,64.31548785,48.31207927,-151.2977323,0,0,0,6.739497794,0,0,,,,
680.9759995,2660,0,0,0,-34.01594046,0,0,1.342785928,-96.10825981,-121.0448108,65.0480844,0,0,0,-35.20624258,0,0,,,,
680.9839995,2660,0,0,0,106.3296728,0,0,-380.3017687,104.6262876,45.59344558,-85.81866847,0,0,0,-42.18673835,0,0,,,,
680.9919995,2660,0,0,0,-75.925433,0,0,202.1909424,-4.750878066,-41.78416314,-47.15445982,0,0,0,43.13158654,0,0,,,,
680.9999995,2660,0,0,0,71.09499311,0,0,-389.227331,-43.71569391,-38.80135128,29.84418504,0,0,0,-59.74535925,0,0,,,,
681.0079995,2660,0,0,0,-26.24320981,0,0,-10.13119119,60.17877071,50.14940951,-159.8187939,0,0,0,-0.675687583,0,0,,,,
681.0159995,2660,0,0,0,-36.17539765,0,0,-6.230400458,-88.34823419,-119.6361622,61.04942875,0,0,0,-2.112364616,0,0,,,,
681.0239995,2660,0,0,0,74.38109136,0,0,-391.3023198,64.09744889,63.83940245,-102.2570669,0,0,0,-35.60586718,0,0,,,,
681.0319995,2660,0,0,0,-123.1288876,0,0,249.7307796,-33.23142965,-44.75290325,-60.53320107,0,0,0,25.6864812,0,0,,,,
681.0399995,2660,0,0,0,36.39521858,0,0,-332.6300712,-52.40828122,-54.61795304,25.41334749,0,0,0,-53.83705012,0,0,,,,
681.0479995,2660,0,0,0,-54.73311133,0,0,8.16412603,32.56165347,73.78622483,-167.5784714,0,0,0,-8.916837489,0,0,,,,
681.0559995,2660,0,0,0,-80.74867265,0,0,41.82639697,-118.4872613,-88.17884464,66.64043505,0,0,0,-36.54853285,0,0,,,,
681.0639995,2660,0,0,0,37.91917177,0,0,-326.9892081,36.11574027,60.9064803,-75.03296372,0,0,0,-63.22197741,0,0,,,,
681.0719995,2660,0,0,0,-119.0696873,0,0,265.0231746,-45.60049143,-31.71482898,-36.08432378,0,0,0,24.41332181,0,0,,,,
681.0799995,2660,0,0,0,51.27259488,0,0,-329.7867929,-38.73265643,-19.36117881,48.73754038,0,0,0,-40.34906944,0,0,,,,
681.0879995,2660,0,0,0,-27.24607245,0,0,4.798573788,65.06462307,95.20877212,-134.8626048,0,0,0,14.07129902,0,0,,,,
681.0959995,2660,0,0,0,-32.61797725,0,0,5.782838487,-86.76241269,-62.55891206,94.69144414,0,0,0,8.984352627,0,0,,,,
681.1039995,2660,0,0,0,52.99523691,0,0,-354.4678878,33.780428,88.14934303,-49.8971831,0,0,0,-36.37731295,0,0,,,,
681.1119995,2660,0,0,0,-121.0560833,0,0,247.5978528,-45.90237619,-18.97589696,-2.446313233,0,0,0,11.53612177,0,0,,,,
681.1199995,2660,0,0,0,53.73494001,0,0,-345.5242108,-21.67045929,-8.499739677,91.72002192,0,0,0,-40.63835209,0,0,,,,
681.1279995,2660,0,0,0,-55.80843503,0,0,22.97714854,55.15718688,85.45526714,-95.25712902,0,0,0,4.673670187,0,0,,,,
681.1359995,2660,0,0,0,-54.45549933,0,0,30.14805659,-98.37878919,-79.62111585,120.1483465,0,0,0,-23.81556283,0,0,,,,
681.1439995,2660,0,0,0,44.7292079,0,0,-331.7057112,21.5963582,82.44395226,-28.15864563,0,0,0,-46.03646471,0,0,,,,
681.1519995,2660,0,0,0,-145.7623356,0,0,288.9371882,-89.26310745,-40.04388266,10.01816833,0,0,0,-25.46754321,0,0,,,,
681.1599995,2660,0,0,0,56.41110003,0,0,-313.0466475,-48.29249085,-16.79346382,99.16577059,0,0,0,-86.87802157,0,0,,,,
