Time:125Hz,Epoch,FP1,FP2,C3,C4,P7,P8,O1,O2,F7,F8,F3,F4,T7,T8,P3,P4,,,,
568.0559996,2218,0,0,0,143.7840045,0,0,-1033.921351,0.403521158,40.71363189,-98.62035576,0,0,0,-112.3687392,0,0,,,,
568.0639996,2219,0,0,0,-84.82223006,0,0,-314.4812896,37.05594464,40.3891783,-80.6258578,0,0,0,28.23786716,0,0,,,,
568.0719996,2219,0,0,0,25.89100279,0,0,-663.1541621,-140.2854361,-144.0607319,231.113278,0,0,0,-21.37670768,0,0,,,,
568.0799996,2219,0,0,0,80.20420375,0,0,-804.8012459,89.2909321,136.8635226,-270.569115,0,0,0,-70.67592787,0,0,,,,
568.0879996,2219,0,0,0,-116.2661458,0,0,-199.0302043,-94.26470486,-130.5418495,228.1342069,0,0,0,53.62336608,0,0,,,,
568.0959996,2219,0,0,0,137.761009,0,0,-980.3041167,18.34424749,23.13476218,-77.28754787,0,0,0,-72.76601902,0,0,,,,
568.1039996,2219,0,0,0,-108.9291505,0,0,-267.9355377,3.166052674,11.89188968,-76.65290261,0,0,0,29.71706765,0,0,,,,
568.1119996,2219,0,0,0,21.93788525,0,0,-623.1099991,-136.0622415,-158.0345835,223.1564697,0,0,0,-48.74914172,0,0,,,,
568.1199996,2219,0,0,0,83.94980515,0,0,-765.8811823,100.2564602,124.5278482,-276.4265978,0,0,0,-68.864309,0,0,,,,
568.1279996,2219,0,0,0,-112.2469779,0,0,-187.6231739,-124.0123092,-130.4632219,212.4588601,0,0,0,40.6816913,0,0,,,,
568.1359996,2219,0,0,0,150.2512106,0,0,-995.7919428,14.20176775,47.16817684,-100.0666982,0,0,0,-104.0553367,0,0,,,,
568.1439996,2219,0,0,0,-109.0999507,0,0,-261.228479,25.43109296,26.24203098,-87.0444236,0,0,0,36.20331665,0,0,,,,
568.1519996,2219,0,0,0,6.805237973,0,0,-585.3871955,-140.2393394,-160.7980802,224.0963192,0,0,0,-32.95658074,0,0,,,,
568.1599996,2219,0,0,0,62.24268909,0,0,-709.511148,96.73260313,119.7335521,-274.9866282,0,0,0,-59.2478529,0,0,,,,
568.1679996,2219,0,0,0,-143.0677147,0,0,-114.1138669,-128.1830427,-143.9693996,218.3651919,0,0,0,62.04508017,0,0,,,,
568.1759996,2219,0,0,0,144.1526166,0,0,-935.5282467,-1.621955284,46.41259651,-92.32630122,0,0,0,-101.0051267,0,0,,,,
568.1839996,2219,0,0,0,-82.26987809,0,0,-221.9489771,30.72776151,58.61143626,-82.4985108,0,0,0,44.47456396,0,0,,,,
568.1919996,2219,0,0,0,17.16790893,0,0,-554.2758793,-141.7227962,-115.9335662,230.8363207,0,0,0,4.098087312,0,0,,,,
568.1999996,2219,0,0,0,67.26137876,0,0,-695.7656475,79.62140542,154.8185332,-269.6941254,0,0,0,-47.94910144,0,0,,,,
568.2079996,2219,0,0,0,-110.2654639,0,0,-105.9330601,-98.56830333,-97.77884332,225.6327846,0,0,0,68.81520227,0,0,,,,
568.2159996,2219,0,0,0,168.4719859,0,0,-914.1837667,52.35732972,92.98015057,-73.75761463,0,0,0,-50.9648778,0,0,,,,
568.2239996,2219,0,0,0,-101.9453114,0,0,-192.1904157,31.75940958,63.50680121,-61.1038526,0,0,0,69.21710804,0,0,,,,
568.2319996,2219,0,0,0,-6.999668844,0,0,-530.6238592,-157.4192308,-124.8344696,243.6983194,0,0,0,-30.07469892,0,0,,,,
568.2399996,2219,0,0,0,68.11744704,0,0,-678.3424644,96.79373156,159.4993909,-262.6282579,0,0,0,-60.88444719,0,0,,,,
568.2479996,2219,0,0,0,-131.2389536,0,0,-76.46317174,-109.3530602,-110.6300265,232.9436389,0,0,0,85.85230727,0,0,,,,
568.2559996,2219,0,0,0,128.5145397,0,0,-877.073806,1.849472291,60.1449997,-72.61997144,0,0,0,-70.82420731,0,0,,,,
568.2639996,2219,0,0,0,-100.2739306,0,0,-161.410394,29.83808289,52.95894964,-67.80739096,0,0,0,41.45517141,0,0,,,,
568.2719996,2219,0,0,0,7.807420864,0,0,-488.9559114,-127.9581494,-125.4755804,244.5416286,0,0,0,-11.65631408,0,0,,,,
568.2799996,2219,0,0,0,56.99526556,0,0,-626.5571009,83.50600819,145.3210867,-259.0765261,0,0,0,-46.12301196,0,0,,,,
568.2879996,2219,0,0,0,-127.5854928,0,0,-38.8178384,-116.2147531,-110.2428995,227.2461914,0,0,0,65.31814271,0,0,,,,
568.2959996,2219,0,0,0,131.256619,0,0,-837.589698,-1.056598823,63.4883631,-77.81407992,0,0,0,-78.9519218,0,0,,,,
568.3039996,2219,0,0,0,-109.516558,0,0,-129.9642413,-4.899607638,44.71469041,-76.35344002,0,0,0,40.67266991,0,0,,,,
568.3119996,2219,0,0,0,36.63823703,0,0,-497.7237001,-112.6771315,-107.4154771,229.2398107,0,0,0,-17.40639126,0,0,,,,
568.3199996,2220,0,0,0,90.83610278,0,0,-639.7888641,133.8386734,174.3307655,-267.4215576,0,0,0,-24.88954699,0,0,,,,
568.3279996,2220,0,0,0,-119.4538776,0,0,-30.64140562,-94.39258632,-109.1835451,225.3336757,0,0,0,91.18414287,0,0,,,,
568.3359996,2220,0,0,0,153.4985662,0,0,-831.505789,42.00993549,75.94690984,-81.61728579,0,0,0,-51.20700544,0,0,,,,
568.3439996,2220,0,0,0,-99.66258073,0,0,-98.32003625,33.56286184,62.68474901,-74.87132352,0,0,0,81.11629379,0,0,,,,
568.3519996,2220,0,0,0,17.91149834,0,0,-430.5625966,-131.8145945,-126.0068813,236.5873836,0,0,0,-16.42651549,0,0,,,,
568.3599996,2220,0,0,0,86.46431087,0,0,-581.8126098,112.9262169,163.2343336,-269.3770021,0,0,0,-48.98973008,0,0,,,,
568.3679996,2220,0,0,0,-125.3117731,0,0,35.81927867,-106.8867341,-112.4458959,222.6988798,0,0,0,88.13056672,0,0,,,,
568.3759996,2220,0,0,0,164.0230056,0,0,-781.6180191,34.5946495,67.40876416,-81.54813312,0,0,0,-62.24790829,0,0,,,,
568.3839996,2220,0,0,0,-67.26592315,0,0,-83.2316514,59.62725252,82.78062999,-80.77903497,0,0,0,70.98891168,0,0,,,,
568.3919996,2220,0,0,0,10.00454397,0,0,-387.5108394,-122.9226912,-118.1454395,237.2478696,0,0,0,-2.40577648,0,0,,,,
568.3999996,2220,0,0,0,59.32182586,0,0,-526.8465883,91.3078805,143.0460539,-268.119615,0,0,0,-58.55143307,0,0,,,,
568.4079996,2220,0,0,0,-130.6762727,0,0,74.86993435,-108.341139,-118.356047,216.4189583,0,0,0,48.17932121,0,0,,,,
568.4159996,2220,0,0,0,158.7529448,0,0,-737.4552555,34.28271211,68.2322947,-87.21207061,0,0,0,-90.91467991,0,0,,,,
568.4239996,2220,0,0,0,-78.81886779,0,0,-35.50684639,47.48721684,76.39276334,-85.66778679,0,0,0,54.03244714,0,0,,,,
568.4319996,2220,0,0,0,21.97810695,0,0,-356.4152002,-110.0349877,-120.7261199,236.2834067,0,0,0,-10.60932508,0,0,,,,
568.4399996,2220,0,0,0,83.14100563,0,0,-502.8446657,126.1510861,154.6192215,-265.5494112,0,0,0,-44.96932457,0,0,,,,
568.4479996,2220,0,0,0,-116.2284194,0,0,109.6090095,-79.71848732,-108.3612266,220.1746699,0,0,0,69.27619134,0,0,,,,
568.4559996,2220,0,0,0,157.0720046,0,0,-692.608787,37.83168123,57.74135925,-82.39497622,0,0,0,-78.70695683,0,0,,,,
568.4639996,2220,0,0,0,-105.6574521,0,0,34.73082036,30.87853412,52.27921017,-86.5902141,0,0,0,41.28759082,0,0,,,,
568.4719996,2220,0,0,0,8.861003767,0,0,-268.3373378,-126.7948797,-146.6746868,231.3950361,0,0,0,-36.9146682,0,0,,,,
568.4799996,2220,0,0,0,90.7669096,0,0,-423.4539434,99.49452237,137.8323813,-269.9340954,0,0,0,-43.24119711,0,0,,,,
568.4879996,2220,0,0,0,-115.0828313,0,0,180.9419001,-97.15195423,-110.9712484,218.1049947,0,0,0,75.40301973,0,0,,,,
568.4959996,2220,0,0,0,167.4164305,0,0,-620.2374319,54.79057268,58.02268712,-80.41061703,0,0,0,-74.60552865,0,0,,,,
568.5039996,2220,0,0,0,-83.45615542,0,0,98.62308973,44.31986267,56.09167425,-82.02968195,0,0,0,76.63267103,0,0,,,,
568.5119996,2220,0,0,0,20.34505439,0,0,-221.0304331,-118.7293311,-128.5263877,233.9754765,0,0,0,-15.90276444,0,0,,,,
568.5199996,2220,0,0,0,79.63833872,0,0,-355.0953845,115.3372192,132.9392539,-270.9533205,0,0,0,-54.34583035,0,0,,,,
568.5279996,2220,0,0,0,-138.2583756,0,0,277.4681224,-114.140315,-150.6691694,218.2887148,0,0,0,70.88377391,0,0,,,,
568.5359996,2220,0,0,0,161.896703,0,0,-544.2202006,25.4285195,38.21426093,-84.87795528,0,0,0,-94.8722206,0,0,,,,
568.5439996,2220,0,0,0,-72.20177607,0,0,169.1088369,55.66730424,53.02927442,-86.60779705,0,0,0,57.92401218,0,0,,,,
568.5519996,2220,0,0,0,17.63871591,0,0,-125.8247496,-93.69836666,-153.892389,240.6748685,0,0,0,5.346547105,0,0,,,,
568.5599996,2220,0,0,0,83.86745919,0,0,-286.7150689,127.391528,122.7708682,-266.8956234,0,0,0,-47.80593075,0,0,,,,
568.5679996,2220,0,0,0,-116.4089534,0,0,317.0204925,-105.0996045,-129.4161601,220.8081297,0,0,0,61.20659577,0,0,,,,
568.5759996,2221,0,0,0,161.3503194,0,0,-477.6689049,34.56519998,42.23173276,-75.38024283,0,0,0,-90.44172587,0,0,,,,
568.5839996,2221,0,0,0,-73.84311569,0,0,221.8290804,51.71693708,50.4546163,-87.58331448,0,0,0,45.67690202,0,0,,,,
568.5919996,2221,0,0,0,41.8920514,0,0,-117.4801613,-104.5908134,-137.4095837,228.4132877,0,0,0,-13.51934499,0,0,,,,
568.5999996,2221,0,0,0,109.0283925,0,0,-264.3157149,157.4513932,146.1168728,-275.7250898,0,0,0,-39.39988259,0,0,,,,
568.6079996,2221,0,0,0,-124.0982902,0,0,373.2416842,-78.4369437,-127.6310416,215.2728679,0,0,0,83.78110924,0,0,,,,
568.6159996,2221,0,0,0,120.9701754,0,0,-409.254131,-0.062260713,4.109446052,-89.8658687,0,0,0,-97.70431624,0,0,,,,
568.6239996,2221,0,0,0,-100.4373423,0,0,306.3854856,28.52543164,4.407746491,-108.4370251,0,0,0,21.52469419,0,0,,,,
568.6319996,2221,0,0,0,27.42194198,0,0,-18.24398796,-97.4421315,-163.7070123,220.1605297,0,0,0,-10.94865242,0,0,,,,
568.6399996,2221,0,0,0,83.22959293,0,0,-184.3368898,132.7113841,126.7569247,-280.2369057,0,0,0,-46.76473713,0,0,,,,
568.6479996,2221,0,0,0,-150.5763624,0,0,441.2096,-109.945255,-142.6245182,203.9875097,0,0,0,52.76640165,0,0,,,,
568.6559996,2221,0,0,0,98.32270902,0,0,-328.1304363,10.54735381,-5.270432964,-94.40075629,0,0,0,-106.2817269,0,0,,,,
568.6639996,2221,0,0,0,-128.6894006,0,0,387.6516062,23.87421769,-8.726702909,-111.4423511,0,0,0,14.99874696,0,0,,,,
568.6719996,2221,0,0,0,-5.846684511,0,0,67.40100478,-136.0259208,-174.5015867,210.7284358,0,0,0,-45.95647755,0,0,,,,
568.6799996,2221,0,0,0,74.66063118,0,0,-95.97177765,121.0993931,114.2760504,-290.0999463,0,0,0,-74.63176377,0,0,,,,
568.6879996,2221,0,0,0,-123.826101,0,0,511.6724544,-101.0447868,-144.473451,197.0052605,0,0,0,48.82065053,0,0,,,,
568.6959996,2221,0,0,0,131.7211001,0,0,-274.9673566,14.97606246,21.32147538,-99.16032395,0,0,0,-100.9286708,0,0,,,,
568.7039996,2221,0,0,0,-103.243946,0,0,433.2086319,31.60945137,13.40129377,-114.2429248,0,0,0,26.06654879,0,0,,,,
568.7119996,2221,0,0,0,15.56708118,0,0,106.4187499,-137.5152474,-169.9720027,211.8855109,0,0,0,-28.31820837,0,0,,,,
568.7199996,2221,0,0,0,78.72853092,0,0,-52.87091753,113.5741135,118.9321585,-292.8967884,0,0,0,-65.32551112,0,0,,,,
568.7279996,2221,0,0,0,-126.2797763,0,0,567.7837977,-93.66485752,-156.9591745,190.3082634,0,0,0,49.72165225,0,0,,,,
568.7359996,2221,0,0,0,160.1584535,0,0,-233.4524557,28.39762843,10.43355247,-101.0322506,0,0,0,-71.29076023,0,0,,,,
568.7439996,2221,0,0,0,-77.2426203,0,0,473.5590611,58.80301241,29.04791424,-111.3072028,0,0,0,54.05452412,0,0,,,,
568.7519996,2221,0,0,0,9.28591478,0,0,172.2624456,-109.7160482,-178.3836184,217.3201557,0,0,0,-31.94274332,0,0,,,,
568.7599996,2221,0,0,0,72.56744428,0,0,20.74158273,115.302486,91.71990285,-291.0023519,0,0,0,-49.47762859,0,0,,,,
568.7679996,2221,0,0,0,-144.0643794,0,0,656.8643536,-110.2925266,-175.0605705,190.5871263,0,0,0,56.17463113,0,0,,,,
568.7759996,2221,0,0,0,129.9284609,0,0,-146.8086332,3.398755392,-13.78560252,-108.1243858,0,0,0,-121.2973509,0,0,,,,
568.7839996,2221,0,0,0,-87.54826267,0,0,542.3622848,43.52481486,14.3003159,-129.7249756,0,0,0,18.69490522,0,0,,,,
568.7919996,2221,0,0,0,14.18311903,0,0,236.7214301,-109.4881264,-164.9366676,204.3710408,0,0,0,-31.86865136,0,0,,,,
568.7999996,2221,0,0,0,91.06847472,0,0,59.80638081,131.4066869,121.7055244,-297.8465965,0,0,0,-63.40583265,0,0,,,,
568.8079996,2221,0,0,0,-121.2617377,0,0,679.398167,-78.32582018,-140.1544671,192.4315329,0,0,0,66.48885138,0,0,,,,
568.8159996,2221,0,0,0,134.136534,0,0,-115.4337417,27.76329576,22.00878789,-91.48727029,0,0,0,-77.18649769,0,0,,,,
568.8239996,2221,0,0,0,-83.94425463,0,0,567.7222316,44.94325891,43.66413512,-108.0198449,0,0,0,50.9292201,0,0,,,,
568.8319996,2222,0,0,0,19.85594407,0,0,250.2729221,-113.0910268,-130.6263078,228.1980315,0,0,0,-1.657377646,0,0,,,,
568.8399996,2222,0,0,0,73.71391951,0,0,78.27307772,127.8532708,152.0318932,-276.4824527,0,0,0,-39.66616753,0,0,,,,
568.8479996,2222,0,0,0,-126.9441638,0,0,686.0061003,-78.26459046,-113.4132297,202.542015,0,0,0,74.83125478,0,0,,,,
568.8559996,2222,0,0,0,142.7898292,0,0,-112.7452528,35.70737849,53.90024947,-79.39763329,0,0,0,-67.15335933,0,0,,,,
568.8639996,2222,0,0,0,-84.01495365,0,0,579.4391717,47.1009954,64.39339396,-85.48361492,0,0,0,60.8768353,0,0,,,,
568.8719996,2222,0,0,0,42.04786079,0,0,230.9324157,-92.66219343,-104.4298643,247.108277,0,0,0,2.605036615,0,0,,,,
568.8799996,2222,0,0,0,80.1967432,0,0,68.64943281,140.2779235,165.6224252,-257.3073149,0,0,0,-31.20024276,0,0,,,,
568.8879996,2222,0,0,0,-143.8572158,0,0,697.2476298,-108.0898186,-120.4157505,225.5555377,0,0,0,80.97386879,0,0,,,,
568.8959996,2222,0,0,0,159.5397706,0,0,-146.7842606,28.76751262,67.45020284,-70.10474865,0,0,0,-75.46583166,0,0,,,,
568.9039996,2222,0,0,0,-77.38812964,0,0,546.5143056,61.96262426,73.84552715,-88.47282848,0,0,0,55.21451694,0,0,,,,
568.9119996,2222,0,0,0,22.36559204,0,0,228.3560691,-107.2810994,-116.3009645,246.2751488,0,0,0,-3.30552817,0,0,,,,
568.9199996,2222,0,0,0,92.01958982,0,0,45.76921293,135.5516195,168.0519572,-253.5405794,0,0,0,-38.68734066,0,0,,,,
568.9279996,2222,0,0,0,-124.1118622,0,0,675.8461351,-84.9599612,-112.06483,233.9943608,0,0,0,95.7225402,0,0,,,,
568.9359996,2222,0,0,0,157.6826572,0,0,-155.4951292,37.32094089,69.66221801,-59.81201039,0,0,0,-64.4871001,0,0,,,,
568.9439996,2222,0,0,0,-61.91513817,0,0,513.2521126,69.90542367,89.91389415,-80.08505364,0,0,0,57.56548295,0,0,,,,
568.9519996,2222,0,0,0,48.77034742,0,0,185.2301698,-84.11790862,-92.65542525,254.5844268,0,0,0,30.12172767,0,0,,,,
568.9599996,2222,0,0,0,93.01600363,0,0,4.14602755,148.9911939,181.6391537,-249.6079612,0,0,0,-19.64134615,0,0,,,,
568.9679996,2222,0,0,0,-138.4712536,0,0,643.6062864,-77.72963191,-114.6458173,235.9097696,0,0,0,78.71570889,0,0,,,,
568.9759996,2222,0,0,0,140.1171706,0,0,-151.5373507,37.82539723,50.26260774,-51.10871974,0,0,0,-54.59637841,0,0,,,,
568.9839996,2222,0,0,0,-88.06174757,0,0,542.2350464,52.34257125,62.65897595,-73.01902027,0,0,0,69.20846552,0,0,,,,
568.9919996,2222,0,0,0,24.42348754,0,0,233.1255573,-102.9684609,-122.6439471,258.3880725,0,0,0,1.85205365,0,0,,,,
568.9999996,2222,0,0,0,79.73806022,0,0,81.10654242,128.2205279,145.3976505,-243.4940435,0,0,0,-36.77499493,0,0,,,,
569.0079996,2222,0,0,0,-135.7870214,0,0,707.4229053,-116.2221666,-140.5560556,234.7302091,0,0,0,69.7669111,0,0,,,,
569.0159996,2222,0,0,0,152.662896,0,0,-119.5307573,13.32021084,46.39623345,-61.49678927,0,0,0,-87.32023383,0,0,,,,
569.0239996,2222,0,0,0,-88.31428673,0,0,589.8780773,70.98287202,56.91540572,-81.24880512,0,0,0,49.21623904,0,0,,,,
569.0319996,2222,0,0,0,23.07585469,0,0,265.2545343,-88.65918646,-136.2287596,248.9958605,0,0,0,-2.112909078,0,0,,,,
569.0399996,2222,0,0,0,84.56944887,0,0,61.39279404,129.9814402,154.8004512,-263.5788581,0,0,0,-41.66644378,0,0,,,,
569.0479996,2222,0,0,0,-141.0909027,0,0,700.5420922,-80.47242054,-119.3695142,216.6846633,0,0,0,66.95627664,0,0,,,,
569.0559996,2222,0,0,0,154.356715,0,0,-104.9436097,45.00589336,48.6768553,-66.76947687,0,0,0,-84.85306041,0,0,,,,
569.0639996,2222,0,0,0,-88.79047669,0,0,610.6357495,54.17039341,47.31812484,-82.22885218,0,0,0,56.004136,0,0,,,,
569.0719996,2222,0,0,0,5.280237214,0,0,318.7849343,-111.1833677,-158.2208239,251.2002548,0,0,0,-1.440823512,0,0,,,,
569.0799996,2222,0,0,0,84.08280064,0,0,126.6835032,140.2521592,145.1490926,-259.1480047,0,0,0,-27.86450372,0,0,,,,
569.0879996,2223,0,0,0,-145.9096118,0,0,770.785617,-84.87711269,-123.9784192,225.0720346,0,0,0,86.26090969,0,0,,,,
569.0959996,2223,0,0,0,131.5910328,0,0,-31.76025802,12.33410258,24.35708666,-56.55435209,0,0,0,-94.08129703,0,0,,,,
569.1039996,2223,0,0,0,-86.72617931,0,0,655.6985987,52.41408113,52.52341352,-79.08121861,0,0,0,47.2905797,0,0,,,,
569.1119996,2223,0,0,0,19.37214931,0,0,352.9363506,-94.96617339,-137.161704,258.7090632,0,0,0,2.339076799,0,0,,,,
569.1199996,2223,0,0,0,99.59887513,0,0,157.5981283,139.8351424,149.1145332,-245.8432741,0,0,0,-40.94951655,0,0,,,,
569.1279996,2223,0,0,0,-126.6979439,0,0,778.8339079,-85.36001574,-108.0590172,233.5988842,0,0,0,79.26381293,0,0,,,,
569.1359996,2223,0,0,0,127.8577043,0,0,-17.58533453,28.76949072,32.33602693,-55.25916408,0,0,0,-86.25731162,0,0,,,,
569.1439996,2223,0,0,0,-88.34229885,0,0,680.9474702,74.98198173,44.10878524,-85.5397462,0,0,0,45.75507138,0,0,,,,
569.1519996,2223,0,0,0,37.37166825,0,0,351.9817394,-87.53242833,-117.755063,252.4732227,0,0,0,3.669294287,0,0,,,,
569.1599996,2223,0,0,0,86.42197245,0,0,163.4530559,132.6233996,158.2016352,-250.3606669,0,0,0,-52.38808062,0,0,,,,
569.1679996,2223,0,0,0,-147.0090967,0,0,817.6449022,-88.56231284,-135.2170661,228.1882892,0,0,0,54.86270038,0,0,,,,
569.1759996,2223,0,0,0,153.3037658,0,0,5.952880545,31.73926561,28.78912179,-53.5211042,0,0,0,-74.67486666,0,0,,,,
569.1839996,2223,0,0,0,-81.68756681,0,0,699.9677462,55.44505932,43.92531463,-75.62556515,0,0,0,64.19157799,0,0,,,,
569.1919996,2223,0,0,0,0.509266337,0,0,410.6224328,-108.2819129,-153.8552482,256.2246767,0,0,0,-8.267004256,0,0,,,,
569.1999996,2223,0,0,0,77.1588549,0,0,229.4617745,137.3903738,125.0932999,-259.6969318,0,0,0,-50.42956494,0,0,,,,
569.2079996,2223,0,0,0,-130.8704697,0,0,856.5370963,-82.59248997,-142.1560726,217.3576452,0,0,0,76.1554407,0,0,,,,
569.2159996,2223,0,0,0,161.0191994,0,0,22.15176337,48.41265511,39.689824,-65.36697126,0,0,0,-68.82720641,0,0,,,,
569.2239996,2223,0,0,0,-69.03284182,0,0,705.0743141,84.13063872,66.60572362,-90.73946731,0,0,0,64.40255884,0,0,,,,
569.2319996,2223,0,0,0,24.2898058,0,0,413.9848572,-91.75602856,-139.6198211,252.6522857,0,0,0,6.653191434,0,0,,,,
569.2399996,2223,0,0,0,102.4815888,0,0,215.2665982,140.0387442,134.1952367,-255.7774125,0,0,0,-28.55431199,0,0,,,,
569.2479996,2223,0,0,0,-128.9573421,0,0,846.3965251,-75.50576394,-132.8910886,217.1920385,0,0,0,82.41085007,0,0,,,,
569.2559996,2223,0,0,0,124.42787,0,0,57.32900268,41.70139689,6.089483084,-63.5984272,0,0,0,-86.72162715,0,0,,,,
569.2639996,2223,0,0,0,-87.86309324,0,0,740.443467,62.2413262,21.48933808,-93.26387897,0,0,0,39.74320073,0,0,,,,
569.2719996,2223,0,0,0,38.73195995,0,0,429.3446196,-77.90442204,-133.4086153,244.9999448,0,0,0,0.825886607,0,0,,,,
569.2799996,2223,0,0,0,90.1261948,0,0,260.3987041,147.7327238,129.4295237,-255.5663073,0,0,0,-29.54444454,0,0,,,,
569.2879996,2223,0,0,0,-136.2884162,0,0,896.4878264,-94.32221411,-158.4575228,220.3836904,0,0,0,65.27444211,0,0,,,,
569.2959996,2223,0,0,0,150.7969026,0,0,77.60986186,47.88325898,36.25773676,-63.20196797,0,0,0,-95.43563702,0,0,,,,
569.3039996,2223,0,0,0,-101.9833031,0,0,793.8645409,57.97661601,34.41294837,-86.58877025,0,0,0,37.19651675,0,0,,,,
569.3119996,2223,0,0,0,-15.28052588,0,0,519.9397343,-122.706816,-181.5588265,251.4502559,0,0,0,-25.61277923,0,0,,,,
569.3199996,2223,0,0,0,60.06517803,0,0,323.2619413,110.6034627,112.5303384,-259.7916188,0,0,0,-70.61234236,0,0,,,,
569.3279996,2223,0,0,0,-155.633295,0,0,967.1772152,-100.1962072,-161.2992922,220.6940201,0,0,0,37.08941795,0,0,,,,
569.3359996,2223,0,0,0,142.4007514,0,0,155.8689483,58.85574268,17.95655966,-59.73578445,0,0,0,-95.52836431,0,0,,,,
569.3439996,2224,0,0,0,-71.93270887,0,0,813.7004312,80.8506853,49.6993118,-92.69550559,0,0,0,56.71795841,0,0,,,,
569.3519996,2224,0,0,0,10.04852834,0,0,524.8305268,-98.25903758,-157.5047035,246.1980848,0,0,0,-14.87987947,0,0,,,,
569.3599996,2224,0,0,0,72.6132789,0,0,336.5220296,134.8266039,119.6465099,-265.7511953,0,0,0,-64.40573423,0,0,,,,
569.3679996,2224,0,0,0,-129.7429555,0,0,953.2059395,-84.83942436,-143.1880803,209.4475856,0,0,0,53.44859457,0,0,,,,
569.3759996,2224,0,0,0,156.2104742,0,0,145.3137649,60.06372382,30.09905315,-65.92650833,0,0,0,-92.98475043,0,0,,,,
569.3839996,2224,0,0,0,-86.00086825,0,0,830.002036,81.18130337,44.97342015,-95.10254068,0,0,0,46.23092656,0,0,,,,
569.3919996,2224,0,0,0,-7.680263164,0,0,550.8074458,-110.0133255,-167.1419612,243.7653732,0,0,0,-21.79993714,0,0,,,,
569.3999996,2224,0,0,0,77.28000532,0,0,370.9322928,133.9051866,108.8994513,-266.5061878,0,0,0,-65.44890825,0,0,,,,
569.4079996,2224,0,0,0,-129.3625503,0,0,999.8476922,-81.91026361,-147.1566096,210.3049446,0,0,0,57.85977989,0,0,,,,
569.4159996,2224,0,0,0,139.9639127,0,0,199.2761363,29.11626674,17.1781996,-65.52038145,0,0,0,-95.34981411,0,0,,,,
569.4239996,2224,0,0,0,-80.44287247,0,0,879.4767244,66.97204773,32.82254939,-95.63254504,0,0,0,51.88313838,0,0,,,,
569.4319996,2224,0,0,0,16.78383485,0,0,586.4102981,-91.82233713,-163.8300633,244.2376573,0,0,0,-4.567406041,0,0,,,,
569.4399996,2224,0,0,0,80.63761761,0,0,408.5461527,138.340024,107.9384772,-267.1828935,0,0,0,-58.59408783,0,0,,,,
569.4479996,2224,0,0,0,-142.8552937,0,0,1040.213943,-93.06313366,-158.5113817,203.5090844,0,0,0,54.80606782,0,0,,,,
569.4559996,2224,0,0,0,133.7249167,0,0,235.7951726,26.62750385,-4.58394888,-76.89792375,0,0,0,-107.8865264,0,0,,,,
569.4639996,2224,0,0,0,-99.11024419,0,0,939.8438427,61.50351929,4.176401765,-107.3570884,0,0,0,34.90912563,0,0,,,,
569.4719996,2224,0,0,0,-0.282120623,0,0,647.9211052,-108.1003959,-187.1450707,231.7071912,0,0,0,-19.25328926,0,0,,,,
569.4799996,2224,0,0,0,88.59269519,0,0,441.0016946,140.142803,111.5334203,-277.0536352,0,0,0,-70.63770352,0,0,,,,
569.4879996,2224,0,0,0,-138.0908371,0,0,1076.908838,-83.97166919,-135.6758818,205.5872424,0,0,0,50.68722899,0,0,,,,
569.4959996,2224,0,0,0,142.4567358,0,0,264.4677532,34.47731436,20.04488429,-66.69436524,0,0,0,-107.6414501,0,0,,,,
569.5039996,2224,0,0,0,-77.3791684,0,0,931.3353352,77.66690121,67.65813016,-96.13150408,0,0,0,46.97276014,0,0,,,,
569.5119996,2224,0,0,0,1.611531688,0,0,635.8368674,-109.6648036,-113.1191876,246.1124116,0,0,0,4.98160349,0,0,,,,
569.5199996,2224,0,0,0,79.61143992,0,0,448.7786414,138.038688,134.8948049,-263.6407288,0,0,0,-51.03899684,0,0,,,,
569.5279996,2224,0,0,0,-130.9459486,0,0,1081.909873,-55.64422481,-113.470292,212.7694515,0,0,0,88.0194091,0,0,,,,
569.5359996,2224,0,0,0,145.6067828,0,0,258.2526253,49.30044824,55.25211355,-66.49433757,0,0,0,-56.68741873,0,0,,,,
569.5439996,2224,0,0,0,-91.11553198,0,0,943.5342383,73.44213217,64.17667727,-98.01920976,0,0,0,60.11088722,0,0,,,,
569.5519996,2224,0,0,0,-16.22447256,0,0,666.7061444,-108.5795428,-132.2167787,247.4652988,0,0,0,-8.442640282,0,0,,,,
569.5599996,2224,0,0,0,76.93346662,0,0,448.7652264,122.5767011,145.0677128,-264.860348,0,0,0,-59.03717805,0,0,,,,
569.5679996,2224,0,0,0,-131.3669761,0,0,1064.617457,-83.11762345,-96.85071246,213.4769613,0,0,0,73.55041049,0,0,,,,
569.5759996,2224,0,0,0,118.6004221,0,0,275.1133834,26.49951549,49.46542698,-54.54338011,0,0,0,-81.77469532,0,0,,,,
569.5839996,2224,0,0,0,-90.6667791,0,0,947.4893366,72.10340871,58.80865689,-88.11976835,0,0,0,51.25532228,0,0,,,,
569.5919996,2224,0,0,0,11.84439641,0,0,644.1873974,-95.5403093,-113.931369,253.9702416,0,0,0,16.59917828,0,0,,,,
569.5999996,2225,0,0,0,67.86383771,0,0,463.7450748,120.6138658,158.6539295,-248.1625086,0,0,0,-35.91244535,0,0,,,,
569.6079996,2225,0,0,0,-124.4218036,0,0,1080.443091,-80.40424821,-99.853819,230.3886115,0,0,0,77.06701762,0,0,,,,
569.6159996,2225,0,0,0,154.0130898,0,0,253.4737116,48.17320809,75.09719019,-44.04025825,0,0,0,-61.11593876,0,0,,,,
569.6239996,2225,0,0,0,-89.09819674,0,0,940.5831068,83.17716091,87.05434472,-72.66218299,0,0,0,79.23897277,0,0,,,,
569.6319996,2225,0,0,0,16.03387788,0,0,638.1967489,-98.47740222,-109.7465409,267.851673,0,0,0,21.53578332,0,0,,,,
569.6399996,2225,0,0,0,95.03000674,0,0,420.0598386,123.7181526,182.9560611,-242.6874545,0,0,0,-33.40686835,0,0,,,,
569.6479996,2225,0,0,0,-123.6986607,0,0,1054.02496,-63.04497926,-79.57314595,239.9412335,0,0,0,87.55899376,0,0,,,,
569.6559996,2225,0,0,0,146.7544467,0,0,257.5589012,70.86654729,67.74829105,-31.28603437,0,0,0,-53.15101291,0,0,,,,
569.6639996,2225,0,0,0,-82.82917002,0,0,936.2399551,82.6614987,81.06338153,-63.91886058,0,0,0,74.39250232,0,0,,,,
569.6719996,2225,0,0,0,16.00701876,0,0,640.5709009,-83.93846003,-111.6883242,277.2054192,0,0,0,3.871805363,0,0,,,,
569.6799996,2225,0,0,0,87.70009524,0,0,440.3473147,156.7786144,171.0176965,-232.5220918,0,0,0,-34.20652466,0,0,,,,
569.6879996,2225,0,0,0,-146.0849177,0,0,1082.684433,-85.89185943,-102.868818,246.5864829,0,0,0,82.37412276,0,0,,,,
569.6959996,2225,0,0,0,138.2987792,0,0,269.5947261,31.14939998,51.96595114,-35.78482214,0,0,0,-86.79600928,0,0,,,,
569.7039996,2225,0,0,0,-66.19510133,0,0,928.5823896,74.2536295,80.3158602,-72.07187321,0,0,0,69.19299968,0,0,,,,
569.7119996,2225,0,0,0,19.97645888,0,0,641.0009324,-93.1990947,-113.4739373,277.9589138,0,0,0,23.29459328,0,0,,,,
569.7199996,2225,0,0,0,102.0567437,0,0,433.9510726,160.4565384,174.8743191,-233.2764122,0,0,0,-34.6268158,0,0,,,,
569.7279996,2225,0,0,0,-103.2470353,0,0,1059.791017,-54.96632724,-81.60844864,247.7384173,0,0,0,99.80083367,0,0,,,,
569.7359996,2225,0,0,0,157.1899218,0,0,259.4689924,50.16902901,73.11985919,-21.64898765,0,0,0,-53.63047968,0,0,,,,
569.7439996,2225,0,0,0,-88.9631252,0,0,947.1754536,73.46579546,79.45261564,-59.82122201,0,0,0,61.43274161,0,0,,,,
569.7519996,2225,0,0,0,5.81340655,0,0,662.9316972,-106.7666853,-133.955262,277.9772627,0,0,0,5.149272762,0,0,,,,
569.7599996,2225,0,0,0,95.08707485,0,0,448.4524449,150.7410227,161.0206398,-238.3626086,0,0,0,-32.48679157,0,0,,,,
569.7679996,2225,0,0,0,-143.4144849,0,0,1094.822161,-59.95099987,-102.0660767,236.4327985,0,0,0,89.28134263,0,0,,,,
569.7759996,2225,0,0,0,118.7208419,0,0,306.5504089,21.2271637,26.73276291,-42.37345676,0,0,0,-68.00252005,0,0,,,,
569.7839996,2225,0,0,0,-85.2286742,0,0,978.7605491,76.95901513,57.89888722,-81.41119187,0,0,0,71.1365052,0,0,,,,
569.7919996,2225,0,0,0,-0.070030614,0,0,700.032479,-77.01715795,-128.07551,264.7384169,0,0,0,25.9405542,0,0,,,,
569.7999996,2225,0,0,0,52.30398131,0,0,508.7128868,112.0880283,129.1882939,-249.2659414,0,0,0,-34.6249446,0,0,,,,
569.8079996,2225,0,0,0,-146.8119543,0,0,1123.305211,-92.32950847,-128.0476159,213.3028583,0,0,0,67.74099288,0,0,,,,
569.8159996,2225,0,0,0,155.331793,0,0,296.2619852,55.01005636,52.46908585,-67.64298379,0,0,0,-68.92584178,0,0,,,,
569.8239996,2225,0,0,0,-73.37968041,0,0,983.1358678,74.88234177,60.16713852,-94.90640936,0,0,0,88.15787774,0,0,,,,
569.8319996,2225,0,0,0,12.77556836,0,0,703.2435155,-104.3828517,-162.0699517,248.91422,0,0,0,29.24568047,0,0,,,,
569.8399996,2225,0,0,0,82.80763498,0,0,509.9374359,143.7012602,104.6328557,-268.8656938,0,0,0,-25.91800893,0,0,,,,
569.8479996,2225,0,0,0,-140.9069826,0,0,1163.197115,-52.55295297,-167.1430991,199.2342736,0,0,0,104.9157904,0,0,,,,
569.8559996,2226,0,0,0,120.4541177,0,0,372.1600673,34.88431158,-31.9552902,-83.06573951,0,0,0,-61.12704269,0,0,,,,
569.8639996,2226,0,0,0,-112.5387532,0,0,1054.908948,48.60784567,-25.12795809,-120.7492098,0,0,0,44.64071312,0,0,,,,
569.8719996,2226,0,0,0,-1.601796828,0,0,750.0424054,-96.62422567,-205.0327856,215.7966738,0,0,0,-3.638014186,0,0,,,,
569.8799996,2226,0,0,0,74.56383232,0,0,546.9630551,143.8053451,90.27692566,-291.1904873,0,0,0,-42.60718666,0,0,,,,
569.8879996,2226,0,0,0,-151.3480955,0,0,1187.483828,-62.73720037,-166.3460344,195.7633451,0,0,0,77.5530894,0,0,,,,
569.8959996,2226,0,0,0,123.6430803,0,0,370.4632201,38.03925984,-15.98998884,-84.65940661,0,0,0,-76.35613448,0,0,,,,
569.9039996,2226,0,0,0,-106.4774256,0,0,1045.723699,52.77564629,10.29775512,-125.5094621,0,0,0,46.30922624,0,0,,,,
569.9119996,2226,0,0,0,-11.61476768,0,0,752.7002805,-104.0684391,-169.4046163,219.7512703,0,0,0,-10.42734423,0,0,,,,
569.9199996,2226,0,0,0,60.28791416,0,0,556.1225454,122.7449613,103.1012243,-286.0782189,0,0,0,-52.43610228,0,0,,,,
569.9279996,2226,0,0,0,-165.4547236,0,0,1197.580287,-109.1430019,-160.1768549,192.6384041,0,0,0,59.41718419,0,0,,,,
569.9359996,2226,0,0,0,123.2803813,0,0,366.7249537,4.413069631,10.49806121,-86.09727581,0,0,0,-110.6032799,0,0,,,,
569.9439996,2226,0,0,0,-87.37183989,0,0,1030.243571,64.33727669,47.55953766,-114.5191906,0,0,0,31.72882771,0,0,,,,
569.9519996,2226,0,0,0,5.11881992,0,0,747.6809642,-87.27561571,-153.0552583,237.9421507,0,0,0,1.059277986,0,0,,,,
569.9599996,2226,0,0,0,100.4855113,0,0,529.4034564,151.059698,125.4473195,-268.5967272,0,0,0,-25.82979917,0,0,,,,
569.9679996,2226,0,0,0,-99.74530381,0,0,1135.255194,-37.95343318,-95.16861108,211.7263476,0,0,0,114.8892672,0,0,,,,
569.9759996,2226,0,0,0,146.2943458,0,0,337.4660689,60.57279047,53.14974846,-63.86590261,0,0,0,-45.9884369,0,0,,,,
569.9839996,2226,0,0,0,-103.108385,0,0,1042.001849,52.51099501,25.04579479,-95.92633987,0,0,0,59.28400948,0,0,,,,
569.9919996,2226,0,0,0,1.231368781,0,0,746.3332761,-111.7803274,-167.3158319,241.3826527,0,0,0,-6.599275255,0,0,,,,
569.9999996,2226,0,0,0,68.48913691,0,0,549.2585496,118.3349673,116.8997392,-271.27373,0,0,0,-36.08644071,0,0,,,,
570.0079996,2226,0,0,0,-168.7202472,0,0,1196.733587,-114.2281105,-152.3892782,212.1110153,0,0,0,84.76012731,0,0,,,,
570.0159996,2226,0,0,0,121.7137945,0,0,367.7603047,19.13929442,10.64011201,-73.10973484,0,0,0,-97.22721542,0,0,,,,
570.0239996,2226,0,0,0,-81.2592296,0,0,1028.283589,69.76914176,45.10715459,-104.5387808,0,0,0,48.59275211,0,0,,,,
570.0319996,2226,0,0,0,-4.107487515,0,0,736.4745421,-117.2222224,-139.1610454,245.2022068,0,0,0,10.03401023,0,0,,,,
570.0399996,2226,0,0,0,46.27418921,0,0,548.0855305,107.9221641,116.188835,-273.476033,0,0,0,-59.64204161,0,0,,,,
570.0479996,2226,0,0,0,-156.0340121,0,0,1194.007508,-82.79168998,-156.3459866,205.6727791,0,0,0,69.56275177,0,0,,,,
570.0559996,2226,0,0,0,125.8102665,0,0,370.5177588,28.2108625,15.36078867,-71.16481835,0,0,0,-70.80973435,0,0,,,,
570.0639996,2226,0,0,0,-108.9035916,0,0,1041.087746,46.63868106,26.47887225,-108.999037,0,0,0,40.46178232,0,0,,,,
570.0719996,2226,0,0,0,-13.08407721,0,0,765.8156212,-109.065357,-173.424153,236.1913149,0,0,0,-9.75724824,0,0,,,,
570.0799996,2226,0,0,0,57.17099628,0,0,577.4324821,124.6526722,110.4124399,-275.5105097,0,0,0,-46.31171137,0,0,,,,
570.0879996,2226,0,0,0,-143.9053963,0,0,1198.80352,-90.67166336,-143.4884612,201.8251493,0,0,0,68.60884345,0,0,,,,
570.0959996,2226,0,0,0,142.1268633,0,0,374.748877,33.8155334,32.89259169,-76.3772138,0,0,0,-74.69049474,0,0,,,,
570.1039996,2226,0,0,0,-85.43144077,0,0,1053.851147,76.71781306,56.80014441,-105.1356653,0,0,0,61.34043281,0,0,,,,
570.1119996,2227,0,0,0,20.29975766,0,0,751.0031043,-89.49280751,-139.2479325,246.0410769,0,0,0,4.539014982,0,0,,,,
570.1199996,2227,0,0,0,71.14821189,0,0,552.4967939,126.2200852,139.6049066,-268.8321157,0,0,0,-37.52010733,0,0,,,,
570.1279996,2227,0,0,0,-155.1085537,0,0,1194.770312,-91.67127457,-135.9904176,205.0930153,0,0,0,82.46063516,0,0,,,,
570.1359996,2227,0,0,0,152.342485,0,0,357.3613295,35.8078452,26.72714828,-75.05652301,0,0,0,-72.95145455,0,0,,,,
570.1439996,2227,0,0,0,-73.91575192,0,0,1022.272216,70.42716632,60.18140954,-106.115128,0,0,0,54.03321813,0,0,,,,
570.1519996,2227,0,0,0,17.70029193,0,0,731.9681118,-90.1051915,-138.1197907,241.2014952,0,0,0,-6.649444163,0,0,,,,
570.1599996,2227,0,0,0,96.69521285,0,0,538.2245322,147.7618791,125.7503468,-267.6825419,0,0,0,-37.05396624,0,0,,,,
570.1679996,2227,0,0,0,-120.6232757,0,0,1177.997326,-73.17818865,-144.2759736,213.0993676,0,0,0,99.09752463,0,0,,,,
570.1759996,2227,0,0,0,166.3508853,0,0,335.6025626,42.96744269,44.05612227,-78.7939367,0,0,0,-66.0649099,0,0,,,,
570.1839996,2227,0,0,0,-67.68831929,0,0,1009.646727,75.09832542,71.3643159,-114.9109031,0,0,0,56.90235951,0,0,,,,
570.1919996,2227,0,0,0,21.92036623,0,0,743.455754,-84.57990677,-147.1805836,235.6405479,0,0,0,6.577743832,0,0,,,,
570.1999996,2227,0,0,0,95.02372879,0,0,558.124087,138.9049781,129.8148468,-276.2177705,0,0,0,-32.18358817,0,0,,,,
570.2079996,2227,0,0,0,-119.9169392,0,0,1200.581481,-93.94537286,-128.8675384,210.5300658,0,0,0,86.57690673,0,0,,,,
570.2159996,2227,0,0,0,161.8621872,0,0,387.8068049,33.69508618,47.01838122,-72.5689976,0,0,0,-59.83369874,0,0,,,,
570.2239996,2227,0,0,0,-88.71055487,0,0,1079.60426,51.04341723,70.38062627,-112.9156374,0,0,0,72.33369512,0,0,,,,
570.2319996,2227,0,0,0,12.13972446,0,0,782.5857148,-119.5373687,-125.609919,232.1809756,0,0,0,-4.357835909,0,0,,,,
570.2399996,2227,0,0,0,93.98002445,0,0,576.483603,132.085946,169.8270102,-276.7768089,0,0,0,-41.85919901,0,0,,,,
570.2479996,2227,0,0,0,-139.44039,0,0,1227.137342,-94.11755507,-94.97625028,209.5290127,0,0,0,90.22771306,0,0,,,,
570.2559996,2227,0,0,0,141.7134585,0,0,406.2765232,14.73685203,70.04553875,-73.04514335,0,0,0,-65.30836406,0,0,,,,
570.2639996,2227,0,0,0,-103.7198605,0,0,1100.359818,26.39133077,81.70143155,-104.4409667,0,0,0,54.00871282,0,0,,,,
570.2719996,2227,0,0,0,-8.771086211,0,0,832.3975101,-142.2770496,-129.402995,245.7150964,0,0,0,-25.60501724,0,0,,,,
570.2799996,2227,0,0,0,92.34808509,0,0,617.7024096,120.9504136,163.2097619,-269.7699882,0,0,0,-56.59277307,0,0,,,,
570.2879996,2227,0,0,0,-132.298383,0,0,1250.315711,-95.1222744,-90.97386277,212.7594432,0,0,0,83.55934351,0,0,,,,
570.2959996,2227,0,0,0,132.0936487,0,0,456.7439021,16.26828536,60.72537617,-61.71673716,0,0,0,-82.55560498,0,0,,,,
570.3039996,2227,0,0,0,-95.92016725,0,0,1148.068537,46.59198713,63.03839289,-91.53461537,0,0,0,46.12513807,0,0,,,,
570.3119996,2227,0,0,0,10.27023474,0,0,853.3873943,-120.497806,-114.3990548,251.5194293,0,0,0,-7.547814376,0,0,,,,
570.3199996,2227,0,0,0,90.51412969,0,0,670.8026485,120.8922391,171.8915279,-255.7353641,0,0,0,-54.39571407,0,0,,,,
570.3279996,2227,0,0,0,-130.1967768,0,0,1324.39193,-101.7496357,-109.863578,235.2508875,0,0,0,72.91795855,0,0,,,,
570.3359996,2227,0,0,0,151.3384139,0,0,493.0908588,13.64914246,69.87601731,-52.28997549,0,0,0,-84.60229622,0,0,,,,
570.3439996,2227,0,0,0,-79.06119454,0,0,1170.223858,50.02463146,87.27691655,-87.91001308,0,0,0,52.73033207,0,0,,,,
570.3519996,2227,0,0,0,6.889019481,0,0,889.8318697,-117.930538,-119.109338,258.8124779,0,0,0,9.078806639,0,0,,,,
570.3599996,2227,0,0,0,67.99891458,0,0,698.9278666,117.1814433,160.9327731,-260.7198768,0,0,0,-41.2444825,0,0,,,,
570.3679996,2228,0,0,0,-147.3457278,0,0,1345.843342,-103.4997992,-119.6811172,224.1248456,0,0,0,76.99801861,0,0,,,,
570.3759996,2228,0,0,0,152.8886055,0,0,520.3571652,19.69824672,46.30489879,-51.6444382,0,0,0,-78.49619051,0,0,,,,
570.3839996,2228,0,0,0,-81.75240735,0,0,1197.168859,57.02778024,78.13378688,-89.41828409,0,0,0,55.40725566,0,0,,,,
570.3919996,2228,0,0,0,4.211707872,0,0,909.5589718,-120.0012678,-127.1036354,250.0224413,0,0,0,-4.613119244,0,0,,,,
570.3999996,2228,0,0,0,96.21950564,0,0,699.0914152,126.95672,157.3706864,-265.3345517,0,0,0,-51.89772341,0,0,,,,
570.4079996,2228,0,0,0,-111.487752,0,0,1340.002497,-63.97470167,-96.27165653,219.250113,0,0,0,95.58661262,0,0,,,,
570.4159996,2228,0,0,0,167.9447003,0,0,540.2376756,55.02907026,49.50869582,-53.81329876,0,0,0,-47.72828129,0,0,,,,
570.4239996,2228,0,0,0,-68.3354229,0,0,1231.880904,66.98236745,65.38716731,-79.15667215,0,0,0,62.60164057,0,0,,,,
570.4319996,2228,0,0,0,37.8103359,0,0,926.469701,-97.97080546,-115.7933151,267.2261593,0,0,0,-0.862994665,0,0,,,,
570.4399996,2228,0,0,0,112.9848707,0,0,713.9723573,142.7004198,168.5978211,-246.5600199,0,0,0,-34.15771816,0,0,,,,
570.4479996,2228,0,0,0,-141.7299606,0,0,1382.162706,-101.6005353,-110.6551431,236.0661939,0,0,0,83.20918452,0,0,,,,
570.4559996,2228,0,0,0,144.6810488,0,0,574.3812658,15.26575638,35.22883647,-47.78547631,0,0,0,-87.09997514,0,0,,,,
570.4639996,2228,0,0,0,-67.59941178,0,0,1235.379253,56.88090544,69.33430163,-82.05398567,0,0,0,38.59538343,0,0,,,,
570.4719996,2228,0,0,0,3.739732097,0,0,962.7789758,-119.6607976,-125.7071727,266.4604727,0,0,0,-20.57070548,0,0,,,,
570.4799996,2228,0,0,0,75.31616712,0,0,773.332405,124.3323017,133.0610003,-247.8950332,0,0,0,-70.99208625,0,0,,,,
570.4879996,2228,0,0,0,-126.6408202,0,0,1396.584986,-79.34466905,-120.1613866,229.1328525,0,0,0,61.24878495,0,0,,,,
570.4959996,2228,0,0,0,158.5009344,0,0,577.4175836,47.3605434,55.20163302,-49.73233922,0,0,0,-68.625965,0,0,,,,
570.5039996,2228,0,0,0,-77.25711306,0,0,1250.455009,77.27267452,73.98059123,-78.4679981,0,0,0,70.55299608,0,0,,,,
570.5119996,2228,0,0,0,1.08976427,0,0,960.0214673,-118.1015667,-125.5614577,264.2356326,0,0,0,12.80251201,0,0,,,,
570.5199996,2228,0,0,0,81.23965865,0,0,755.8845609,118.4994641,154.3000438,-250.3000029,0,0,0,-37.77664743,0,0,,,,
570.5279996,2228,0,0,0,-139.4157738,0,0,1392.047208,-75.96515521,-102.0835611,230.3055168,0,0,0,74.13267792,0,0,,,,
570.5359996,2228,0,0,0,111.2173215,0,0,600.2851505,16.34065281,34.20965609,-58.08918732,0,0,0,-84.88552665,0,0,,,,
570.5439996,2228,0,0,0,-122.1858587,0,0,1293.103193,36.8105541,34.42098426,-97.08203377,0,0,0,31.92044941,0,0,,,,
570.5519996,2228,0,0,0,-18.78417698,0,0,1003.490705,-131.9569253,-155.1692487,242.029088,0,0,0,-32.05437294,0,0,,,,
570.5599996,2228,0,0,0,73.28494626,0,0,783.9618639,99.53792932,134.1853025,-279.1130743,0,0,0,-75.53106332,0,0,,,,
570.5679996,2228,0,0,0,-141.4742237,0,0,1416.103034,-81.67355334,-121.9075047,201.7473387,0,0,0,52.1150265,0,0,,,,
570.5759996,2228,0,0,0,116.0426436,0,0,636.3125879,26.80945721,18.25209071,-72.62005974,0,0,0,-95.82839737,0,0,,,,
570.5839996,2228,0,0,0,-105.4510471,0,0,1326.127393,39.99732931,42.0370658,-98.59251607,0,0,0,20.51949128,0,0,,,,
570.5919996,2228,0,0,0,-4.572910834,0,0,1036.042776,-121.5281377,-144.217824,244.2197003,0,0,0,-30.55002843,0,0,,,,
570.5999996,2228,0,0,0,64.01062443,0,0,833.7184367,101.8263075,123.9407257,-276.8778671,0,0,0,-68.22828232,0,0,,,,
570.6079996,2228,0,0,0,-142.7167269,0,0,1459.829478,-97.46484583,-125.4600633,206.0329355,0,0,0,49.37930226,0,0,,,,
570.6159996,2228,0,0,0,138.7869672,0,0,659.2437827,27.04122647,30.15877487,-64.81301653,0,0,0,-83.60879961,0,0,,,,
570.6239996,2229,0,0,0,-84.23877865,0,0,1323.982094,51.78925542,48.29307976,-92.8424378,0,0,0,39.21842571,0,0,,,,
570.6319996,2229,0,0,0,17.24885278,0,0,1009.499356,-99.04062301,-127.2399615,246.0199514,0,0,0,-26.5922749,0,0,,,,
570.6399996,2229,0,0,0,76.2830029,0,0,823.6237379,126.0829671,138.7699434,-266.5221815,0,0,0,-64.54776805,0,0,,,,
570.6479996,2229,0,0,0,-147.0386964,0,0,1470.562261,-104.8275683,-136.7377844,216.5935224,0,0,0,40.77510425,0,0,,,,
570.6559996,2229,0,0,0,129.1537283,0,0,670.697869,11.05541544,25.56233294,-71.83006297,0,0,0,-105.0340544,0,0,,,,
570.6639996,2229,0,0,0,-106.5245598,0,0,1354.734303,40.42398838,33.35367408,-103.1857399,0,0,0,30.5500172,0,0,,,,
570.6719996,2229,0,0,0,16.58160194,0,0,1032.883901,-97.54582047,-153.2979441,241.9615505,0,0,0,-23.75555607,0,0,,,,
570.6799996,2229,0,0,0,116.8844753,0,0,802.253146,165.7387595,168.0548433,-272.1813078,0,0,0,-41.66558588,0,0,,,,
570.6879996,2229,0,0,0,-121.1631725,0,0,1445.837812,-66.60136388,-101.4895325,218.6965088,0,0,0,77.78970318,0,0,,,,
570.6959996,2229,0,0,0,134.1391531,0,0,652.1190941,19.29245364,21.85315636,-61.83044566,0,0,0,-81.9872708,0,0,,,,
570.7039996,2229,0,0,0,-91.33179015,0,0,1320.197659,56.39811081,51.38781153,-100.5516664,0,0,0,49.49844186,0,0,,,,
570.7119996,2229,0,0,0,13.22911982,0,0,1023.479745,-97.43251691,-145.1320264,244.8561293,0,0,0,-8.824975797,0,0,,,,
570.7199996,2229,0,0,0,78.60635014,0,0,840.0868929,127.8652602,122.297772,-264.2931248,0,0,0,-52.0910765,0,0,,,,
570.7279996,2229,0,0,0,-148.9747002,0,0,1489.738419,-77.81714955,-148.0324208,217.3977299,0,0,0,45.79545102,0,0,,,,
570.7359996,2229,0,0,0,138.2488839,0,0,687.9955724,44.09542129,2.435426913,-65.39256757,0,0,0,-106.4034318,0,0,,,,
570.7439996,2229,0,0,0,-83.55241458,0,0,1354.00828,65.43216862,34.42816605,-98.74541098,0,0,0,42.37425021,0,0,,,,
570.7519996,2229,0,0,0,13.21987099,0,0,1043.404456,-100.337917,-156.8634308,235.4916888,0,0,0,-28.78207304,0,0,,,,
570.7599996,2229,0,0,0,81.19769651,0,0,858.2856595,136.401401,123.4973925,-276.0257902,0,0,0,-67.78017969,0,0,,,,
570.7679996,2229,0,0,0,-145.7294947,0,0,1500.626121,-87.1179089,-148.6473229,214.1766762,0,0,0,61.97731967,0,0,,,,
570.7759996,2229,0,0,0,131.4453322,0,0,678.8854528,16.40991578,2.814561539,-74.51662511,0,0,0,-100.6759166,0,0,,,,
570.7839996,2229,0,0,0,-100.7666848,0,0,1351.834845,46.99783113,31.60421767,-108.1262834,0,0,0,30.14071155,0,0,,,,
570.7919996,2229,0,0,0,-9.892467329,0,0,1053.804882,-125.2312972,-168.9684817,231.0733039,0,0,0,-38.36423734,0,0,,,,
570.7999996,2229,0,0,0,65.66604663,0,0,851.1542637,92.81914961,110.3885097,-287.7101311,0,0,0,-93.53360745,0,0,,,,
570.8079996,2229,0,0,0,-135.2086829,0,0,1467.916787,-103.1958394,-139.3665113,199.1191694,0,0,0,42.32586407,0,0,,,,
570.8159996,2229,0,0,0,153.561323,0,0,650.013964,51.90967315,25.31156205,-79.91343995,0,0,0,-77.96834597,0,0,,,,
570.8239996,2229,0,0,0,-92.82500254,0,0,1330.712878,63.46636628,33.81349533,-110.1212221,0,0,0,60.98985949,0,0,,,,
570.8319996,2229,0,0,0,-9.422821313,0,0,1035.090624,-126.7014508,-167.7848069,222.8671925,0,0,0,-21.8824123,0,0,,,,
570.8399996,2229,0,0,0,74.36579683,0,0,844.0463864,126.8781128,107.7285974,-293.034021,0,0,0,-68.52693459,0,0,,,,
570.8479996,2229,0,0,0,-151.6303585,0,0,1474.795563,-104.2073507,-163.8135799,193.6922638,0,0,0,50.10058412,0,0,,,,
570.8559996,2229,0,0,0,101.1341097,0,0,687.2961089,-6.656439832,-14.9251044,-93.19190731,0,0,0,-125.9341845,0,0,,,,
570.8639996,2229,0,0,0,-105.4529226,0,0,1367.095321,58.09210538,-4.900055218,-120.3242667,0,0,0,13.73376971,0,0,,,,
570.8719996,2229,0,0,0,21.7911822,0,0,1007.586254,-86.75923857,-155.5915679,216.6836191,0,0,0,-21.2817845,0,0,,,,
570.8799996,2230,0,0,0,71.38082184,0,0,789.6059049,131.3012313,148.3882039,-298.3265864,0,0,0,-58.05388953,0,0,,,,
570.8879996,2230,0,0,0,-166.8774,0,0,1422.033203,-102.2612387,-143.87157,191.7261671,0,0,0,65.83341192,0,0,,,,
570.8959996,2230,0,0,0,121.946437,0,0,584.272481,16.28048308,23.70898328,-96.77728631,0,0,0,-94.34345381,0,0,,,,
570.9039996,2230,0,0,0,-103.4055003,0,0,1257.837449,65.56640478,47.44932239,-116.5655015,0,0,0,49.63862392,0,0,,,,
570.9119996,2230,0,0,0,-4.647442479,0,0,942.8583697,-106.0212036,-142.3963484,234.2127983,0,0,0,17.37902171,0,0,,,,
570.9199996,2230,0,0,0,73.79768017,0,0,721.3178054,116.133499,149.4039202,-278.5003095,0,0,0,-39.12873451,0,0,,,,
570.9279996,2230,0,0,0,-146.9158958,0,0,1352.105993,-87.29513031,-120.6006252,213.9194738,0,0,0,75.26831956,0,0,,,,
570.9359996,2230,0,0,0,135.5816208,0,0,523.6810328,21.54493484,49.95174087,-70.71697023,0,0,0,-65.39113187,0,0,,,,
570.9439996,2230,0,0,0,-96.95112054,0,0,1187.670102,38.17846854,66.01987269,-95.59076636,0,0,0,61.31526902,0,0,,,,
570.9519996,2230,0,0,0,-15.13760226,0,0,902.8028443,-108.3854844,-132.8881208,247.4590573,0,0,0,6.740714495,0,0,,,,
570.9599996,2230,0,0,0,55.43143528,0,0,714.5333507,121.2973592,148.9566609,-265.4639773,0,0,0,-40.67272514,0,0,,,,
570.9679996,2230,0,0,0,-154.4627831,0,0,1326.986039,-102.582552,-116.9248524,223.9301083,0,0,0,66.80418734,0,0,,,,
570.9759996,2230,0,0,0,131.2247088,0,0,497.1439902,33.75666634,60.13130057,-63.59374898,0,0,0,-72.2620383,0,0,,,,
570.9839996,2230,0,0,0,-99.74695707,0,0,1169.55146,55.62951226,80.4921087,-83.00091733,0,0,0,58.63122863,0,0,,,,
570.9919996,2230,0,0,0,-5.129810342,0,0,873.6784192,-107.9417431,-125.3610136,257.074363,0,0,0,-8.582786081,0,0,,,,
570.9999996,2230,0,0,0,74.00547663,0,0,679.3935717,129.5533666,149.3413398,-262.0638917,0,0,0,-31.51270861,0,0,,,,
571.0079996,2230,0,0,0,-130.6915778,0,0,1276.591144,-75.95157621,-95.79480478,224.3595979,0,0,0,87.20698675,0,0,,,,
571.0159996,2230,0,0,0,130.5001213,0,0,465.7298137,52.69971044,64.0086364,-62.83272306,0,0,0,-66.36029696,0,0,,,,
571.0239996,2230,0,0,0,-126.415234,0,0,1163.830769,35.97715569,39.08941049,-83.87503868,0,0,0,73.67730806,0,0,,,,
571.0319996,2230,0,0,0,-10.81764898,0,0,834.2017079,-127.1344939,-146.3214265,245.3175331,0,0,0,-12.09166171,0,0,,,,
571.0399996,2230,0,0,0,83.35577725,0,0,619.2815642,142.4496002,161.0590766,-272.7703327,0,0,0,-50.9386514,0,0,,,,
571.0479996,2230,0,0,0,-121.3248869,0,0,1222.762771,-64.11853721,-94.99133326,222.9211346,0,0,0,95.05012468,0,0,,,,
571.0559996,2230,0,0,0,153.5348829,0,0,403.2867613,61.22476088,65.71256208,-60.68085058,0,0,0,-56.91324792,0,0,,,,
571.0639996,2230,0,0,0,-90.86580312,0,0,1077.829494,66.5689943,65.8428352,-80.5676669,0,0,0,75.66032924,0,0,,,,
571.0719996,2230,0,0,0,7.438146535,0,0,739.830861,-108.3929007,-115.1801909,252.1724656,0,0,0,9.893600501,0,0,,,,
571.0799996,2230,0,0,0,74.89023351,0,0,557.5600982,140.7681786,160.6072791,-258.6939764,0,0,0,-41.69903849,0,0,,,,
571.0879996,2230,0,0,0,-125.4556051,0,0,1189.180066,-53.84314638,-123.4446288,236.5511324,0,0,0,87.32818876,0,0,,,,
571.0959996,2230,0,0,0,147.1367823,0,0,376.1641356,61.66844336,49.5371449,-53.43082016,0,0,0,-49.2058172,0,0,,,,
571.1039996,2230,0,0,0,-100.3337608,0,0,1065.234406,63.03579462,52.4136739,-72.2575141,0,0,0,76.68941822,0,0,,,,
571.1119996,2230,0,0,0,13.49068715,0,0,738.7138439,-102.0111018,-142.5939772,264.6470111,0,0,0,6.612712695,0,0,,,,
571.1199996,2230,0,0,0,65.96697826,0,0,549.1850353,120.8132726,150.3737582,-251.6001252,0,0,0,-39.73828284,0,0,,,,
571.1279996,2230,0,0,0,-151.4341836,0,0,1170.50384,-88.27478118,-128.6186656,233.1542142,0,0,0,71.98876887,0,0,,,,
571.1359996,2231,0,0,0,134.8769006,0,0,353.9518498,41.84146997,38.84158715,-56.15041513,0,0,0,-68.51759888,0,0,,,,
571.1439996,2231,0,0,0,-113.1216786,0,0,1040.31125,52.39093372,58.31403266,-71.43561508,0,0,0,70.98261802,0,0,,,,
571.1519996,2231,0,0,0,-2.789561515,0,0,719.1006971,-99.84845956,-139.7812197,259.71068,0,0,0,12.23922642,0,0,,,,
571.1599996,2231,0,0,0,65.38647722,0,0,534.7598852,131.7285454,147.8797979,-255.744104,0,0,0,-20.31535696,0,0,,,,
571.1679996,2231,0,0,0,-156.5871665,0,0,1150.287215,-94.83360667,-125.1397962,228.9653177,0,0,0,87.65442094,0,0,,,,
571.1759996,2231,0,0,0,130.0734723,0,0,323.1570944,39.61439273,36.02415478,-71.39472145,0,0,0,-71.34288085,0,0,,,,
571.1839996,2231,0,0,0,-99.28759707,0,0,997.0470423,69.57698743,59.28733951,-90.96553626,0,0,0,66.02524376,0,0,,,,
571.1919996,2231,0,0,0,3.151044512,0,0,687.7541246,-92.4462377,-144.5836797,242.0713395,0,0,0,11.99546446,0,0,,,,
571.1999996,2231,0,0,0,79.60148966,0,0,507.5573936,160.5080945,134.5128254,-268.9022077,0,0,0,-14.68471097,0,0,,,,
571.2079996,2231,0,0,0,-121.8438519,0,0,1100.159084,-47.18966452,-115.8278811,225.0233493,0,0,0,105.5023556,0,0,,,,
571.2159996,2231,0,0,0,135.0529065,0,0,303.406564,46.72912799,34.63235938,-65.42375571,0,0,0,-50.98984566,0,0,,,,
571.2239996,2231,0,0,0,-111.172962,0,0,1003.514032,48.70311311,26.92293717,-81.68357263,0,0,0,73.55774397,0,0,,,,
571.2319996,2231,0,0,0,21.74507257,0,0,645.5864194,-99.69553522,-139.9871887,241.8587583,0,0,0,6.404964607,0,0,,,,
571.2399996,2231,0,0,0,78.98425276,0,0,469.7433131,149.4484662,154.9468174,-265.7260853,0,0,0,-26.21830102,0,0,,,,
571.2479996,2231,0,0,0,-159.7529368,0,0,1112.81194,-83.75557386,-138.8148636,236.1961416,0,0,0,80.86860636,0,0,,,,
571.2559996,2231,0,0,0,132.9967365,0,0,298.674391,37.18304696,25.56835168,-66.38560823,0,0,0,-79.22740456,0,0,,,,
571.2639996,2231,0,0,0,-99.69188087,0,0,983.9319073,65.5368791,42.62743256,-83.46808421,0,0,0,67.25874614,0,0,,,,
571.2719996,2231,0,0,0,4.167917662,0,0,651.1598732,-106.4204081,-147.8875802,247.1560501,0,0,0,0.635076658,0,0,,,,
571.2799996,2231,0,0,0,80.20794589,0,0,463.6537345,141.0233705,144.8139192,-264.6373669,0,0,0,-43.14664409,0,0,,,,
571.2879996,2231,0,0,0,-130.4285886,0,0,1065.00843,-77.53409296,-123.2524933,235.5950996,0,0,0,84.6127309,0,0,,,,
571.2959996,2231,0,0,0,142.9652627,0,0,260.3038001,47.73615049,35.44083869,-61.86671138,0,0,0,-61.62455132,0,0,,,,
571.3039996,2231,0,0,0,-109.0051836,0,0,976.5798701,85.91143467,28.30005702,-77.53700386,0,0,0,77.40276881,0,0,,,,
571.3119996,2231,0,0,0,7.797196366,0,0,633.412074,-90.66259982,-160.8477611,245.3899762,0,0,0,13.54433521,0,0,,,,
571.3199996,2231,0,0,0,81.01335947,0,0,446.3442116,135.9928587,130.9230632,-269.6235698,0,0,0,-31.73355441,0,0,,,,
571.3279996,2231,0,0,0,-144.2584084,0,0,1061.493818,-77.14491897,-139.3992642,226.7192541,0,0,0,82.20597316,0,0,,,,
571.3359996,2231,0,0,0,139.2793592,0,0,236.4673866,39.90050713,34.26240918,-72.52215108,0,0,0,-64.31829125,0,0,,,,
571.3439996,2231,0,0,0,-101.5678345,0,0,929.3791287,66.20471048,45.23305059,-82.29951086,0,0,0,72.81431136,0,0,,,,
571.3519996,2231,0,0,0,5.987195036,0,0,602.1397377,-78.62692077,-148.5494989,243.8553766,0,0,0,6.406037635,0,0,,,,
571.3599996,2231,0,0,0,82.9725829,0,0,419.998561,150.428836,133.9352191,-267.5937283,0,0,0,-23.54170316,0,0,,,,
571.3679996,2231,0,0,0,-137.7135068,0,0,1025.668184,-85.14890144,-130.4632164,225.0821447,0,0,0,93.32073943,0,0,,,,
571.3759996,2231,0,0,0,131.4439325,0,0,214.3326384,22.62418392,23.80415169,-77.11299112,0,0,0,-79.66875414,0,0,,,,
571.3839996,2231,0,0,0,-99.1223855,0,0,902.419327,52.12707861,28.10386814,-84.17325171,0,0,0,52.37493555,0,0,,,,
571.3919996,2232,0,0,0,9.329291348,0,0,583.1023066,-76.84222706,-154.5311078,242.1249058,0,0,0,18.24129558,0,0,,,,
571.3999996,2232,0,0,0,78.95875059,0,0,414.2358208,149.7517214,115.9151778,-266.8974963,0,0,0,-25.53857671,0,0,,,,
571.4079996,2232,0,0,0,-118.7989295,0,0,998.523935,-75.06701478,-139.0963837,225.0764114,0,0,0,74.79042138,0,0,,,,
571.4159996,2232,0,0,0,146.8588401,0,0,194.3040592,50.96376378,34.74141744,-75.59249453,0,0,0,-54.00573585,0,0,,,,
571.4239996,2232,0,0,0,-93.15324448,0,0,883.26201,61.42144212,34.55613842,-81.98102312,0,0,0,75.61536456,0,0,,,,
571.4319996,2232,0,0,0,29.29940253,0,0,526.1872237,-75.70289332,-137.4816489,230.3563455,0,0,0,13.78370701,0,0,,,,
571.4399996,2232,0,0,0,82.81609677,0,0,353.6121443,157.5986032,150.4268742,-282.6280103,0,0,0,-1.285275656,0,0,,,,
571.4479996,2232,0,0,0,-140.9353296,0,0,956.4475856,-83.38267335,-125.752415,214.4762886,0,0,0,95.13133432,0,0,,,,
571.4559996,2232,0,0,0,136.2204789,0,0,150.4572808,49.39384332,24.48899385,-91.01706276,0,0,0,-69.49056154,0,0,,,,
571.4639996,2232,0,0,0,-102.5657662,0,0,842.4380101,73.37223968,36.12453835,-97.36107621,0,0,0,77.93022799,0,0,,,,
571.4719996,2232,0,0,0,-12.8501054,0,0,517.9144593,-114.5504751,-147.6131174,220.4210546,0,0,0,13.3258825,0,0,,,,
571.4799996,2232,0,0,0,55.09742818,0,0,363.7231006,101.8230526,110.0630505,-289.595424,0,0,0,-41.65236101,0,0,,,,
571.4879996,2232,0,0,0,-131.4484339,0,0,943.6744039,-101.690709,-142.3003192,206.8173789,0,0,0,72.65833171,0,0,,,,
571.4959996,2232,0,0,0,135.1938915,0,0,131.1666504,20.42022571,27.93246715,-97.01772289,0,0,0,-67.38264705,0,0,,,,
571.5039996,2232,0,0,0,-91.3855219,0,0,825.0892328,65.75416055,24.59269873,-95.17377175,0,0,0,58.93755673,0,0,,,,
571.5119996,2232,0,0,0,29.40791196,0,0,487.4223647,-70.58946166,-147.9975827,227.5452552,0,0,0,11.57460979,0,0,,,,
571.5199996,2232,0,0,0,75.12721537,0,0,337.3169612,122.4346601,117.3153246,-278.2110161,0,0,0,-2.398756178,0,0,,,,
571.5279996,2232,0,0,0,-118.5120778,0,0,901.5294177,-97.84324951,-141.3933499,212.6025751,0,0,0,90.31878413,0,0,,,,
571.5359996,2232,0,0,0,177.2985189,0,0,58.96304751,60.55866793,60.19961695,-97.33702053,0,0,0,-57.41152275,0,0,,,,
571.5439996,2232,0,0,0,-70.29272933,0,0,757.5126681,81.13060825,70.11038369,-83.27007089,0,0,0,102.3569322,0,0,,,,
571.5519996,2232,0,0,0,13.31061383,0,0,435.956614,-95.40046456,-131.6350364,241.0266497,0,0,0,34.06443213,0,0,,,,
571.5599996,2232,0,0,0,64.11273278,0,0,296.9466156,131.3460328,132.9284688,-268.4453585,0,0,0,0.333114581,0,0,,,,
571.5679996,2232,0,0,0,-121.849244,0,0,870.7482157,-87.8351038,-113.9223375,230.0331032,0,0,0,114.7086768,0,0,,,,
571.5759996,2232,0,0,0,147.4116509,0,0,67.66650951,28.81500924,66.16051335,-77.87700271,0,0,0,-42.64289364,0,0,,,,
571.5839996,2232,0,0,0,-108.633103,0,0,788.4253484,31.18560021,56.94910257,-72.22696217,0,0,0,87.31681673,0,0,,,,
571.5919996,2232,0,0,0,15.69539519,0,0,424.8989141,-130.6047379,-110.0679892,241.2166475,0,0,0,12.15040234,0,0,,,,
571.5999996,2232,0,0,0,64.35660521,0,0,289.2912418,114.828528,159.854027,-264.8792579,0,0,0,-18.15511522,0,0,,,,
571.6079996,2232,0,0,0,-137.1790949,0,0,884.7550927,-103.019139,-126.3891965,237.1836224,0,0,0,94.48618098,0,0,,,,
571.6159996,2232,0,0,0,168.3796586,0,0,40.93878846,32.90058047,84.88570092,-72.02588677,0,0,0,-46.52449125,0,0,,,,
571.6239996,2232,0,0,0,-89.64664418,0,0,748.1629782,48.8485048,93.1482788,-58.52851876,0,0,0,99.03644936,0,0,,,,
571.6319996,2232,0,0,0,13.76078517,0,0,404.6943013,-124.8211447,-115.8535288,253.2895447,0,0,0,12.16199069,0,0,,,,
571.6399996,2232,0,0,0,87.17322082,0,0,258.6202126,125.4418518,169.6478885,-254.1238035,0,0,0,-16.80747569,0,0,,,,
571.6479996,2233,0,0,0,-123.6838703,0,0,856.2699426,-76.9309001,-99.42037262,251.1356645,0,0,0,110.1571798,0,0,,,,
571.6559996,2233,0,0,0,145.3547764,0,0,33.89287053,32.99935956,67.08698543,-67.24430166,0,0,0,-45.34827368,0,0,,,,
571.6639996,2233,0,0,0,-108.7453362,0,0,740.2119337,32.83974455,65.26730426,-64.20259007,0,0,0,77.88290086,0,0,,,,
571.6719996,2233,0,0,0,-2.774328965,0,0,401.8771665,-126.2539148,-127.7389531,245.5442669,0,0,0,-2.845446843,0,0,,,,
571.6799996,2233,0,0,0,61.64830084,0,0,259.3199388,98.93342073,147.8976073,-261.9618635,0,0,0,-30.98753941,0,0,,,,
571.6879996,2233,0,0,0,-142.3878548,0,0,840.9121645,-110.1541986,-101.8027739,233.5321274,0,0,0,84.3299031,0,0,,,,
571.6959996,2233,0,0,0,144.6993881,0,0,21.48693709,37.09808714,80.96475641,-84.78481251,0,0,0,-66.40039393,0,0,,,,
571.7039996,2233,0,0,0,-96.21592484,0,0,735.0278225,54.55333284,73.7250066,-69.40444961,0,0,0,75.18449667,0,0,,,,
571.7119996,2233,0,0,0,6.179873306,0,0,392.5852029,-104.2061305,-104.0481077,241.5134222,0,0,0,11.79961951,0,0,,,,
571.7199996,2233,0,0,0,77.30328314,0,0,236.6516164,121.1622426,166.2254925,-260.2428561,0,0,0,-23.75587217,0,0,,,,
571.7279996,2233,0,0,0,-127.4613032,0,0,814.157265,-98.88264619,-96.94723684,238.8209592,0,0,0,87.52820153,0,0,,,,
571.7359996,2233,0,0,0,134.9901148,0,0,35.8792906,29.68968004,70.87303678,-77.71804676,0,0,0,-52.79076806,0,0,,,,
571.7439996,2233,0,0,0,-73.66515777,0,0,736.5657395,63.20952867,59.33215336,-53.08733075,0,0,0,83.78077779,0,0,,,,
571.7519996,2233,0,0,0,62.53847511,0,0,342.7675106,-74.42524215,-79.908641,256.3723153,0,0,0,28.89930032,0,0,,,,
571.7599996,2233,0,0,0,101.4208547,0,0,201.5958753,134.7622194,191.5220454,-247.9515981,0,0,0,1.119134682,0,0,,,,
571.7679996,2233,0,0,0,-106.7872502,0,0,768.5514775,-88.31209114,-89.39466035,245.8093227,0,0,0,101.0519897,0,0,,,,
571.7759996,2233,0,0,0,153.7548808,0,0,-41.042216,38.31294234,87.81825449,-78.24867115,0,0,0,-43.71335538,0,0,,,,
571.7839996,2233,0,0,0,-87.95560767,0,0,667.3103845,58.58562334,56.91996124,-61.94466232,0,0,0,80.86654233,0,0,,,,
571.7919996,2233,0,0,0,33.77389252,0,0,295.924037,-71.94396568,-106.6080038,234.0322093,0,0,0,16.652,0,0,,,,
571.7999996,2233,0,0,0,63.99757547,0,0,183.8826218,122.1805771,159.9480078,-263.57586,0,0,0,-8.76463355,0,0,,,,
571.8079996,2233,0,0,0,-127.0166682,0,0,750.5901717,-101.9438499,-124.4879735,237.1055578,0,0,0,85.88715111,0,0,,,,
571.8159996,2233,0,0,0,160.3114703,0,0,-73.25908264,66.75658043,70.85495106,-93.54449528,0,0,0,-50.33133853,0,0,,,,
571.8239996,2233,0,0,0,-102.1939325,0,0,639.0235494,60.52097218,58.48234738,-67.65401959,0,0,0,85.11401047,0,0,,,,
571.8319996,2233,0,0,0,11.71146701,0,0,277.8983957,-98.20731768,-116.5545419,232.2319567,0,0,0,1.490533999,0,0,,,,
571.8399996,2233,0,0,0,74.93942324,0,0,168.7834506,148.8621524,156.5599937,-270.2398355,0,0,0,-11.25855098,0,0,,,,
571.8479996,2233,0,0,0,-116.3051806,0,0,722.7804019,-75.73272897,-109.923755,233.5709313,0,0,0,109.1226289,0,0,,,,
571.8559996,2233,0,0,0,155.3494549,0,0,-95.96585369,50.98248426,72.64806263,-97.22000337,0,0,0,-46.21024578,0,0,,,,
571.8639996,2233,0,0,0,-100.3469946,0,0,631.1148476,51.05968453,50.45016086,-71.44276362,0,0,0,86.51859201,0,0,,,,
571.8719996,2233,0,0,0,13.12627492,0,0,256.6380636,-97.29606002,-119.0673768,229.1012064,0,0,0,2.493888606,0,0,,,,
571.8799996,2233,0,0,0,63.05517431,0,0,132.9827384,128.8567871,156.8748434,-272.3087397,0,0,0,-30.80970527,0,0,,,,
571.8879996,2233,0,0,0,-146.4667956,0,0,705.3188412,-112.9876016,-120.728645,230.2511149,0,0,0,82.28427426,0,0,,,,
571.8959996,2233,0,0,0,120.6363477,0,0,-91.54140078,31.09779161,46.48750513,-102.4410935,0,0,0,-73.74922416,0,0,,,,
571.9039996,2234,0,0,0,-123.3107058,0,0,624.4966151,35.61098163,24.42266295,-79.1757865,0,0,0,52.87385313,0,0,,,,
571.9119996,2234,0,0,0,-7.035458499,0,0,254.7128109,-125.9638586,-141.7396542,213.5435935,0,0,0,-27.5326404,0,0,,,,
571.9199996,2234,0,0,0,55.75522458,0,0,139.7338888,115.1743118,136.6013056,-283.4697886,0,0,0,-44.18734229,0,0,,,,
571.9279996,2234,0,0,0,-121.7292315,0,0,682.4911822,-105.4043094,-123.8311432,223.1257792,0,0,0,65.62464051,0,0,,,,
571.9359996,2234,0,0,0,160.5656986,0,0,-116.8201006,69.12717076,61.30804131,-106.0455638,0,0,0,-73.67548355,0,0,,,,
571.9439996,2234,0,0,0,-87.38062178,0,0,602.1824223,103.2299991,41.20794723,-69.99304219,0,0,0,101.2918726,0,0,,,,
571.9519996,2234,0,0,0,22.44050495,0,0,197.7208817,-84.69108918,-120.0729229,216.8081346,0,0,0,13.46475199,0,0,,,,
571.9599996,2234,0,0,0,73.41541228,0,0,74.74367341,138.3186353,156.1057731,-282.9631271,0,0,0,-33.68121836,0,0,,,,
571.9679996,2234,0,0,0,-121.3037998,0,0,629.8252543,-73.39260003,-122.8096511,232.6130861,0,0,0,82.58035966,0,0,,,,
571.9759996,2234,0,0,0,134.7097383,0,0,-165.4361594,37.68218631,53.66328869,-99.0405583,0,0,0,-79.87913039,0,0,,,,
571.9839996,2234,0,0,0,-114.2231614,0,0,560.5188504,35.86933574,33.68427802,-65.40246957,0,0,0,54.21625063,0,0,,,,
571.9919996,2234,0,0,0,36.97375121,0,0,154.7415522,-82.79936821,-122.6541995,223.1555863,0,0,0,-3.558049614,0,0,,,,
571.9999996,2234,0,0,0,91.1316626,0,0,30.60832555,147.3189074,156.77185,-272.8407839,0,0,0,-11.23490304,0,0,,,,
572.0079996,2234,0,0,0,-114.3453948,0,0,577.5491322,-88.27817676,-120.6196051,238.089037,0,0,0,87.36422623,0,0,,,,
572.0159996,2234,0,0,0,170.8029334,0,0,-227.9541223,74.91786639,70.39431177,-96.85365423,0,0,0,-73.5639225,0,0,,,,
572.0239996,2234,0,0,0,-80.89269742,0,0,503.9141896,84.76941355,51.47040057,-55.16205715,0,0,0,87.44581699,0,0,,,,
572.0319996,2234,0,0,0,36.31417262,0,0,115.4079707,-76.15669596,-128.1996778,229.0141374,0,0,0,19.0048253,0,0,,,,
572.0399996,2234,0,0,0,92.39150873,0,0,-2.388882637,161.3670371,154.6465891,-274.1154967,0,0,0,-6.64216574,0,0,,,,
572.0479996,2234,0,0,0,-105.3799473,0,0,530.674166,-60.99683847,-106.4746263,234.4860178,0,0,0,108.5840698,0,0,,,,
572.0559996,2234,0,0,0,154.975425,0,0,-266.5954349,62.71560299,63.16522737,-104.9082805,0,0,0,-53.65481559,0,0,,,,
572.0639996,2234,0,0,0,-93.2312035,0,0,462.9454981,65.47258666,41.94925949,-68.53144338,0,0,0,69.58865175,0,0,,,,
572.0719996,2234,0,0,0,24.38177859,0,0,73.77705736,-77.43086347,-120.2656746,214.8016808,0,0,0,-7.169284115,0,0,,,,
572.0799996,2234,0,0,0,49.01057734,0,0,-8.016662638,127.580475,131.8503901,-279.694504,0,0,0,-30.3848472,0,0,,,,
572.0879996,2234,0,0,0,-135.5204973,0,0,524.5686729,-111.5747945,-145.9657844,224.3948886,0,0,0,62.40936455,0,0,,,,
572.0959996,2234,0,0,0,150.9326834,0,0,-289.1787715,38.01611382,55.60743168,-119.6111733,0,0,0,-92.99552343,0,0,,,,
572.1039996,2234,0,0,0,-100.4044361,0,0,437.4044332,52.57545679,40.22277358,-70.78696226,0,0,0,55.82465437,0,0,,,,
572.1119996,2234,0,0,0,13.5039559,0,0,42.97882018,-95.56825639,-124.2793175,209.519842,0,0,0,-22.7447743,0,0,,,,
572.1199996,2234,0,0,0,61.0025447,0,0,-46.76332431,126.1789391,143.1552712,-287.4085227,0,0,0,-51.50567211,0,0,,,,
572.1279996,2234,0,0,0,-104.0759608,0,0,478.8781285,-59.92309505,-131.5017562,226.9855806,0,0,0,65.21598023,0,0,,,,
572.1359996,2234,0,0,0,154.8673821,0,0,-313.7531624,84.91961135,62.73664066,-115.3993877,0,0,0,-58.99336369,0,0,,,,
572.1439996,2234,0,0,0,-110.5568729,0,0,419.8395847,42.33746147,29.87240408,-71.20198893,0,0,0,67.2744956,0,0,,,,
572.1519996,2234,0,0,0,18.73041423,0,0,17.51209099,-101.3226707,-143.0419303,203.9292911,0,0,0,-28.36278342,0,0,,,,
572.1599996,2235,0,0,0,54.39412958,0,0,-59.29527495,124.3001991,127.5112988,-289.1814725,0,0,0,-33.64828119,0,0,,,,
572.1679996,2235,0,0,0,-125.8674754,0,0,460.3581162,-95.26973947,-147.4690342,219.0853956,0,0,0,61.04712907,0,0,,,,
572.1759996,2235,0,0,0,144.8695634,0,0,-333.346387,57.09774501,38.66804597,-129.4751197,0,0,0,-90.78136189,0,0,,,,
572.1839996,2235,0,0,0,-88.64981958,0,0,385.8049655,57.69708151,18.68955439,-76.13085431,0,0,0,68.759893,0,0,,,,
572.1919996,2235,0,0,0,51.80788641,0,0,-58.31256519,-67.50418637,-119.8528358,194.7136589,0,0,0,-7.252512881,0,0,,,,
572.1999996,2235,0,0,0,51.01563843,0,0,-112.0530666,142.7573134,131.9951097,-295.5994116,0,0,0,-28.71426621,0,0,,,,
572.2079996,2235,0,0,0,-133.9611912,0,0,426.1645429,-94.51992755,-162.7280651,216.9404875,0,0,0,75.37465462,0,0,,,,
572.2159996,2235,0,0,0,156.1505236,0,0,-394.2689562,51.38782147,54.79359254,-137.7308849,0,0,0,-74.10072024,0,0,,,,
572.2239996,2235,0,0,0,-106.4293219,0,0,346.8663791,30.77747252,25.45774444,-78.47010392,0,0,0,60.16069789,0,0,,,,
572.2319996,2235,0,0,0,30.91791675,0,0,-71.85244198,-107.5616231,-138.2121469,192.1435909,0,0,0,-30.54284194,0,0,,,,
572.2399996,2235,0,0,0,68.43489484,0,0,-147.0354106,135.6601563,137.41023,-296.4697839,0,0,0,-51.37161599,0,0,,,,
572.2479996,2235,0,0,0,-118.946325,0,0,387.8315721,-79.7000456,-151.391326,222.2046366,0,0,0,64.26723883,0,0,,,,
572.2559996,2235,0,0,0,133.7544027,0,0,-391.0347843,49.26836043,34.01607614,-132.2577107,0,0,0,-72.55631901,0,0,,,,
572.2639996,2235,0,0,0,-146.0219008,0,0,361.9648419,7.745069605,-5.284142615,-77.8388956,0,0,0,46.63735555,0,0,,,,
572.2719996,2235,0,0,0,10.93669296,0,0,-74.25455921,-125.4494333,-156.8191186,181.5281953,0,0,0,-58.27567774,0,0,,,,
572.2799996,2235,0,0,0,77.52703558,0,0,-165.8541256,135.0953564,139.9017303,-305.6706968,0,0,0,-44.48119164,0,0,,,,
572.2879996,2235,0,0,0,-109.8143427,0,0,337.6927414,-85.2592156,-115.0825468,215.6253343,0,0,0,86.1724699,0,0,,,,
572.2959996,2235,0,0,0,140.0924771,0,0,-449.9959257,42.9433034,74.93829878,-132.1736686,0,0,0,-72.08422253,0,0,,,,
572.3039996,2235,0,0,0,-122.4067568,0,0,307.704679,25.34558854,28.96240249,-62.49414281,0,0,0,64.99695999,0,0,,,,
572.3119996,2235,0,0,0,12.88500605,0,0,-106.1068596,-113.1398215,-120.0617359,198.7992157,0,0,0,-14.51380085,0,0,,,,
572.3199996,2235,0,0,0,64.83962604,0,0,-178.4843767,115.3303327,157.2845258,-282.1051015,0,0,0,-23.80701525,0,0,,,,
572.3279996,2235,0,0,0,-95.78905772,0,0,301.9802968,-86.22632323,-96.79371802,241.6752659,0,0,0,85.00372215,0,0,,,,
572.3359996,2235,0,0,0,155.3008107,0,0,-492.3404115,71.50162638,109.6651873,-106.5376909,0,0,0,-56.15523179,0,0,,,,
572.3439996,2235,0,0,0,-110.2167038,0,0,253.0280459,39.92444853,53.56718625,-33.30931737,0,0,0,79.63736962,0,0,,,,
572.3519996,2235,0,0,0,31.13459909,0,0,-180.5378805,-96.16734302,-93.97732889,215.5605392,0,0,0,-19.42214378,0,0,,,,
572.3599996,2235,0,0,0,51.71392285,0,0,-218.2775548,123.6310797,175.4264866,-262.6952356,0,0,0,-27.56349063,0,0,,,,
572.3679996,2235,0,0,0,-132.4881784,0,0,285.5380516,-122.8177224,-113.2703163,257.2279991,0,0,0,69.86508667,0,0,,,,
572.3759996,2235,0,0,0,138.3619385,0,0,-502.3791387,35.133762,82.04262933,-111.5491678,0,0,0,-80.54268486,0,0,,,,
572.3839996,2235,0,0,0,-121.7539353,0,0,260.8995541,31.35749583,37.99350002,-35.94608567,0,0,0,78.63671892,0,0,,,,
572.3919996,2235,0,0,0,13.81361699,0,0,-191.2862549,-113.6902675,-99.01099464,207.7799335,0,0,0,-15.972955,0,0,,,,
572.3999996,2235,0,0,0,42.43189347,0,0,-249.2162654,104.9745777,160.138133,-280.860666,0,0,0,-44.44210608,0,0,,,,
572.4079996,2235,0,0,0,-126.3474224,0,0,242.9793599,-114.6698053,-115.468742,238.21225,0,0,0,72.60708946,0,0,,,,
572.4159996,2236,0,0,0,142.4874124,0,0,-558.7646585,28.33387998,109.0968684,-127.2761473,0,0,0,-62.67575219,0,0,,,,
572.4239996,2236,0,0,0,-124.6445466,0,0,195.828617,13.55054989,48.62954303,-42.92125919,0,0,0,72.69681266,0,0,,,,
572.4319996,2236,0,0,0,16.51924114,0,0,-256.5247442,-104.6798847,-101.7567881,205.2278064,0,0,0,-13.46798839,0,0,,,,
572.4399996,2236,0,0,0,48.88207753,0,0,-314.6589076,109.0073171,178.2343065,-271.8342061,0,0,0,-34.37147087,0,0,,,,
572.4479996,2236,0,0,0,-106.017615,0,0,158.4636262,-103.9644399,-82.46903179,254.2040368,0,0,0,61.2064216,0,0,,,,
572.4559996,2236,0,0,0,172.4772021,0,0,-641.8581201,76.1289643,131.8196484,-106.2969217,0,0,0,-55.32349654,0,0,,,,
572.4639996,2236,0,0,0,-86.11901383,0,0,98.19160281,52.64331667,76.81980492,-18.17715654,0,0,0,105.4656911,0,0,,,,
572.4719996,2236,0,0,0,55.56640918,0,0,-372.726982,-83.26953707,-61.41843122,220.5782718,0,0,0,8.685317342,0,0,,,,
572.4799996,2236,0,0,0,59.11685245,0,0,-404.4632923,132.0712333,182.8502146,-254.6981008,0,0,0,-1.328077943,0,0,,,,
572.4879996,2236,0,0,0,-133.5402358,0,0,84.97265768,-115.0816042,-118.9561754,257.5335607,0,0,0,90.26401385,0,0,,,,
572.4959996,2236,0,0,0,124.2927519,0,0,-692.3279821,37.40182425,83.65161073,-123.0669795,0,0,0,-72.82273131,0,0,,,,
572.5039996,2236,0,0,0,-120.7003882,0,0,63.14462622,21.9502338,24.58823123,-28.37363277,0,0,0,67.86898312,0,0,,,,
572.5119996,2236,0,0,0,43.46717398,0,0,-416.542877,-97.6167499,-96.10917396,208.352708,0,0,0,-17.27372458,0,0,,,,
572.5199996,2236,0,0,0,47.80703987,0,0,-441.8845878,118.1864024,171.1924462,-263.9600054,0,0,0,-19.33534885,0,0,,,,
572.5279996,2236,0,0,0,-142.4527772,0,0,33.52593153,-141.4710128,-133.2456514,253.9572556,0,0,0,57.58595069,0,0,,,,
572.5359996,2236,0,0,0,132.6627296,0,0,-746.8510175,26.67562322,71.71507435,-123.6429131,0,0,0,-102.071969,0,0,,,,
572.5439996,2236,0,0,0,-109.2489696,0,0,28.66220321,33.76868503,21.67953925,-17.40951146,0,0,0,73.99437552,0,0,,,,
572.5519996,2236,0,0,0,50.48528413,0,0,-457.4035019,-86.24648175,-99.16258567,209.2862136,0,0,0,-4.066155711,0,0,,,,
572.5599996,2236,0,0,0,75.53256186,0,0,-500.5939022,140.8646567,179.8500046,-266.1645826,0,0,0,-13.8250695,0,0,,,,
572.5679996,2236,0,0,0,-96.68011082,0,0,-45.05073485,-87.18123816,-106.9916993,256.9776427,0,0,0,82.7298226,0,0,,,,
572.5759996,2236,0,0,0,146.1450351,0,0,-819.7996403,56.82490267,87.30070235,-128.1175607,0,0,0,-68.20502968,0,0,,,,
572.5839996,2236,0,0,0,-125.493261,0,0,-36.92973807,16.61959248,3.845534464,-26.15474078,0,0,0,79.37600119,0,0,,,,
572.5919996,2236,0,0,0,25.17566307,0,0,-513.3118103,-108.9007787,-142.8574236,191.9328702,0,0,0,-19.86020923,0,0,,,,
572.5999996,2236,0,0,0,29.4553577,0,0,-512.1767356,97.98845165,112.4427112,-288.3720707,0,0,0,-38.21574252,0,0,,,,
572.6079996,2236,0,0,0,-134.7201198,0,0,-41.99734823,-127.639696,-189.7985279,225.8050353,0,0,0,51.65664946,0,0,,,,
572.6159996,2236,0,0,0,118.762604,0,0,-819.3984591,63.34383357,7.604796584,-168.924752,0,0,0,-87.35143962,0,0,,,,
572.6239996,2236,0,0,0,-146.1305993,0,0,-54.13762129,32.43048509,-58.53153817,-68.20791216,0,0,0,65.8065096,0,0,,,,
572.6319996,2236,0,0,0,28.53448754,0,0,-565.3718226,-89.87114026,-172.366665,143.6027326,0,0,0,-27.58558126,0,0,,,,
572.6399996,2236,0,0,0,30.32697026,0,0,-573.831941,127.5560584,99.11968311,-325.69852,0,0,0,-36.40133476,0,0,,,,
572.6479996,2236,0,0,0,-147.6700101,0,0,-95.84608985,-128.4984678,-211.6211037,203.5881237,0,0,0,44.0210662,0,0,,,,
572.6559996,2236,0,0,0,116.9405639,0,0,-861.3999647,42.9062833,-12.35222951,-185.6114146,0,0,0,-97.10036182,0,0,,,,
572.6639996,2236,0,0,0,-130.5575542,0,0,-117.3442165,22.78755682,-49.8568837,-81.35341668,0,0,0,57.66011813,0,0,,,,
572.6719996,2237,0,0,0,20.50357514,0,0,-611.9676704,-98.96489924,-164.9481316,133.2494933,0,0,0,-40.26482131,0,0,,,,
572.6799996,2237,0,0,0,4.196484393,0,0,-583.4479678,117.6554009,84.24753357,-328.0943147,0,0,0,-48.66947047,0,0,,,,
572.6879996,2237,0,0,0,-143.0218656,0,0,-133.5661417,-119.6040916,-194.7256377,194.7092558,0,0,0,40.88320252,0,0,,,,
572.6959996,2237,0,0,0,127.5041251,0,0,-888.5222449,62.66181396,25.09755547,-187.7934561,0,0,0,-80.0848251,0,0,,,,
572.7039996,2237,0,0,0,-128.465343,0,0,-123.9317822,34.57723343,-26.39179669,-63.67837521,0,0,0,70.20480354,0,0,,,,
572.7119996,2237,0,0,0,33.98233688,0,0,-622.623211,-92.84735226,-144.0187944,146.3686395,0,0,0,-37.88503357,0,0,,,,
572.7199996,2237,0,0,0,14.24250927,0,0,-576.1535368,123.3349977,101.8418046,-309.4855255,0,0,0,-27.96272978,0,0,,,,
572.7279996,2237,0,0,0,-138.1214864,0,0,-144.2260693,-115.5486029,-169.9271159,216.5201859,0,0,0,49.28509061,0,0,,,,
572.7359996,2237,0,0,0,125.7042188,0,0,-901.3838405,55.96122163,52.5440786,-171.5715682,0,0,0,-101.0508826,0,0,,,,
572.7439996,2237,0,0,0,-143.5729574,0,0,-115.2860513,29.39982039,-15.68066342,-46.23590429,0,0,0,62.83005743,0,0,,,,
572.7519996,2237,0,0,0,25.72971304,0,0,-631.4090469,-90.68274389,-134.5183605,150.5546609,0,0,0,-33.8639309,0,0,,,,
572.7599996,2237,0,0,0,17.65395693,0,0,-587.6557978,129.0922626,111.9164255,-304.9737754,0,0,0,-36.08556416,0,0,,,,
572.7679996,2237,0,0,0,-139.45534,0,0,-153.8742096,-102.2781378,-159.2959275,219.048481,0,0,0,44.11822095,0,0,,,,
572.7759996,2237,0,0,0,114.1132759,0,0,-917.1836132,57.79715353,62.76370148,-180.6771412,0,0,0,-111.3303763,0,0,,,,
572.7839996,2237,0,0,0,-154.7853189,0,0,-124.9074835,13.34890513,-20.64986378,-49.067834,0,0,0,40.82404054,0,0,,,,
572.7919996,2237,0,0,0,18.95676185,0,0,-635.3880785,-106.0153204,-125.6172226,151.0611222,0,0,0,-43.22762123,0,0,,,,
572.7999996,2237,0,0,0,15.51618733,0,0,-594.4302162,119.5185585,134.0977033,-296.9131059,0,0,0,-37.48347429,0,0,,,,
572.8079996,2237,0,0,0,-150.8376506,0,0,-158.5833543,-123.0448695,-157.6899529,224.7048377,0,0,0,40.50351911,0,0,,,,
572.8159996,2237,0,0,0,91.18383016,0,0,-891.9236379,23.78504444,48.66512758,-181.1835702,0,0,0,-112.8560284,0,0,,,,
572.8239996,2237,0,0,0,-154.4503897,0,0,-103.6832631,-7.02678957,-29.58536796,-43.28135527,0,0,0,37.31567848,0,0,,,,
572.8319996,2237,0,0,0,31.08347361,0,0,-638.5527507,-111.4739375,-119.6094927,145.7072129,0,0,0,-51.245465,0,0,,,,
572.8399996,2237,0,0,0,12.88383724,0,0,-589.572767,99.74036985,136.7233599,-304.5773619,0,0,0,-49.96681935,0,0,,,,
572.8479996,2237,0,0,0,-139.2720715,0,0,-164.3346996,-119.2357846,-156.6617888,220.4810399,0,0,0,31.45176731,0,0,,,,
572.8559996,2237,0,0,0,110.8271353,0,0,-905.6620303,59.80724544,62.68722818,-185.9543135,0,0,0,-97.43825536,0,0,,,,
572.8639996,2237,0,0,0,-159.9559875,0,0,-119.7774509,-7.114838362,-20.42211337,-46.52103064,0,0,0,44.6097276,0,0,,,,
572.8719996,2237,0,0,0,29.89618544,0,0,-660.1224058,-100.1060404,-114.7035048,132.1107465,0,0,0,-66.12112783,0,0,,,,
572.8799996,2237,0,0,0,20.18766294,0,0,-594.8078699,130.3747988,141.5250671,-309.0024239,0,0,0,-41.82759131,0,0,,,,
572.8879996,2237,0,0,0,-136.1476556,0,0,-177.1564837,-135.4514353,-154.2043776,222.8822322,0,0,0,32.22157147,0,0,,,,
572.8959996,2237,0,0,0,135.6866434,0,0,-927.0091304,56.61132707,73.20074164,-185.7715721,0,0,0,-106.7884069,0,0,,,,
572.9039996,2237,0,0,0,-121.3810862,0,0,-145.7939616,29.13932686,-2.143249239,-34.66380346,0,0,0,69.59940252,0,0,,,,
572.9119996,2237,0,0,0,50.12340687,0,0,-693.3785212,-91.29187675,-101.3652093,145.54105,0,0,0,-42.86696549,0,0,,,,
572.9199996,2237,0,0,0,29.76776546,0,0,-620.872927,114.1130197,140.5199113,-289.3939661,0,0,0,-39.50598185,0,0,,,,
572.9279996,2238,0,0,0,-117.1306663,0,0,-215.1313416,-129.7095926,-143.7808843,239.9800021,0,0,0,41.28314114,0,0,,,,
572.9359996,2238,0,0,0,136.7066081,0,0,-952.2301285,48.28577504,80.13852547,-172.1807982,0,0,0,-109.2586875,0,0,,,,
572.9439996,2238,0,0,0,-122.7633551,0,0,-156.9302922,13.75647089,-18.68700335,-17.88779287,0,0,0,48.52826074,0,0,,,,
572.9519996,2238,0,0,0,65.51633635,0,0,-702.1586414,-73.9598142,-111.9435157,144.9479628,0,0,0,-41.76882933,0,0,,,,
572.9599996,2238,0,0,0,40.40005021,0,0,-615.9988781,122.013446,126.3318166,-292.1216045,0,0,0,-26.89066386,0,0,,,,
572.9679996,2238,0,0,0,-93.37800816,0,0,-229.2055372,-104.3421598,-150.7952377,233.6005633,0,0,0,52.56648555,0,0,,,,
572.9759996,2238,0,0,0,144.1472426,0,0,-960.4231469,81.45667068,82.02890075,-186.8646964,0,0,0,-86.90493023,0,0,,,,
572.9839996,2238,0,0,0,-145.8694534,0,0,-145.2823771,-7.604463589,-36.32045505,-22.58011607,0,0,0,54.99330182,0,0,,,,
572.9919996,2238,0,0,0,63.13436032,0,0,-711.682811,-91.64644469,-114.2023739,138.3800616,0,0,0,-48.88335992,0,0,,,,
572.9999996,2238,0,0,0,46.39634422,0,0,-638.0440751,136.2237124,149.5509131,-295.3481936,0,0,0,-29.99814387,0,0,,,,
573.0079996,2238,0,0,0,-105.9564072,0,0,-244.3602515,-114.0801695,-152.1094893,234.8806114,0,0,0,41.85505052,0,0,,,,
573.0159996,2238,0,0,0,148.9779215,0,0,-979.6491537,70.28900037,70.27587741,-188.3301395,0,0,0,-91.2666139,0,0,,,,
573.0239996,2238,0,0,0,-113.9650228,0,0,-198.8219554,18.0490442,-10.09284437,-20.63685452,0,0,0,66.4412684,0,0,,,,
573.0319996,2238,0,0,0,70.15876334,0,0,-774.257105,-91.10139312,-88.82594407,135.1622821,0,0,0,-47.39844806,0,0,,,,
573.0399996,2238,0,0,0,21.8732963,0,0,-663.4354532,101.0836115,130.4183698,-298.3407594,0,0,0,-48.71735022,0,0,,,,
573.0479996,2238,0,0,0,-102.611473,0,0,-275.4688922,-104.3684044,-164.9689221,229.8030467,0,0,0,27.71260963,0,0,,,,
573.0559996,2238,0,0,0,175.1870222,0,0,-1032.71135,117.5939784,94.46666837,-192.1635397,0,0,0,-79.47551108,0,0,,,,
573.0639996,2238,0,0,0,-124.8646436,0,0,-228.1753766,32.15201294,-11.82665652,-14.75562026,0,0,0,73.65263842,0,0,,,,
573.0719996,2238,0,0,0,48.69769583,0,0,-764.4025114,-83.43143927,-121.3522692,137.0937996,0,0,0,-51.95536903,0,0,,,,
573.0799996,2238,0,0,0,22.16221311,0,0,-654.9183862,116.0346895,124.6831058,-293.0428766,0,0,0,-38.10681859,0,0,,,,
573.0879996,2238,0,0,0,-114.5823887,0,0,-292.3075567,-132.4016143,-163.5353678,232.2428478,0,0,0,28.81634632,0,0,,,,
573.0959996,2238,0,0,0,151.9622914,0,0,-1035.044376,71.27648167,89.41778743,-190.9031051,0,0,0,-83.6588325,0,0,,,,
573.1039996,2238,0,0,0,-131.9165649,0,0,-247.6773347,1.898884602,7.212381963,-3.388549905,0,0,0,84.87469085,0,0,,,,
573.1119996,2238,0,0,0,45.33195212,0,0,-812.6858532,-106.4059204,-82.36825702,143.4204356,0,0,0,-38.78342885,0,0,,,,
573.1199996,2238,0,0,0,11.18355832,0,0,-685.1030179,91.08896943,163.9955066,-275.4500907,0,0,0,-12.59026744,0,0,,,,
573.1279996,2238,0,0,0,-128.0817008,0,0,-323.5016023,-163.4122664,-127.2399402,258.0511491,0,0,0,57.20343958,0,0,,,,
573.1359996,2238,0,0,0,118.3942279,0,0,-1043.125925,30.88013153,111.8798379,-171.3498727,0,0,0,-81.95955264,0,0,,,,
573.1439996,2238,0,0,0,-154.0688023,0,0,-244.3826911,-24.24870021,17.34334448,13.5238609,0,0,0,73.46596431,0,0,,,,
573.1519996,2238,0,0,0,68.57375063,0,0,-847.4976962,-77.13023554,-57.00182705,148.7030559,0,0,0,-31.19908446,0,0,,,,
573.1599996,2238,0,0,0,35.09083566,0,0,-724.8300644,153.8510364,191.3680059,-268.2040475,0,0,0,13.36817434,0,0,,,,
573.1679996,2238,0,0,0,-123.2176029,0,0,-351.6812506,-124.8622665,-118.4049398,263.321339,0,0,0,74.37160115,0,0,,,,
573.1759996,2238,0,0,0,134.0543416,0,0,-1063.80296,51.91401638,109.9025066,-168.1718712,0,0,0,-75.61771685,0,0,,,,
573.1839996,2239,0,0,0,-115.3704774,0,0,-284.2777033,7.005106935,28.11479706,20.56629242,0,0,0,86.95611521,0,0,,,,
573.1919996,2239,0,0,0,83.3432553,0,0,-883.1216532,-77.78317786,-35.36235137,148.9579777,0,0,0,-17.04370341,0,0,,,,
573.1999996,2239,0,0,0,29.99001651,0,0,-735.8639778,122.469745,187.946223,-258.7363182,0,0,0,7.602860347,0,0,,,,
573.2079996,2239,0,0,0,-94.81567598,0,0,-403.6797974,-117.8113251,-103.3337094,270.0481732,0,0,0,65.97479328,0,0,,,,
573.2159996,2239,0,0,0,150.0210259,0,0,-1116.194973,62.10426399,144.7492304,-164.7738572,0,0,0,-65.86540896,0,0,,,,
573.2239996,2239,0,0,0,-138.3919303,0,0,-301.2637805,-23.06143712,25.84726165,36.04431184,0,0,0,86.62925048,0,0,,,,
573.2319996,2239,0,0,0,55.20996039,0,0,-887.8083706,-103.0399807,-50.16451324,155.8983619,0,0,0,-46.54637434,0,0,,,,
573.2399996,2239,0,0,0,12.5785291,0,0,-725.933299,113.6854852,173.2277646,-252.7934421,0,0,0,-23.89579283,0,0,,,,
573.2479996,2239,0,0,0,-89.8158809,0,0,-406.6854738,-113.1832118,-113.5047822,274.5034905,0,0,0,65.25779527,0,0,,,,
573.2559996,2239,0,0,0,165.7473518,0,0,-1128.268659,83.16632574,146.7134833,-168.5706022,0,0,0,-53.49599598,0,0,,,,
573.2639996,2239,0,0,0,-122.9873057,0,0,-327.176493,9.073813736,30.52299852,32.21504752,0,0,0,90.50788723,0,0,,,,
573.2719996,2239,0,0,0,64.50924023,0,0,-920.9799617,-79.92314454,-48.72088206,147.609445,0,0,0,-34.0834731,0,0,,,,
573.2799996,2239,0,0,0,12.2823347,0,0,-747.5125621,101.687278,169.4061754,-255.1445969,0,0,0,-9.203864792,0,0,,,,
573.2879996,2239,0,0,0,-92.75723235,0,0,-438.8280495,-121.6648446,-120.3295529,268.8049797,0,0,0,68.13269444,0,0,,,,
573.2959996,2239,0,0,0,161.1741658,0,0,-1153.721245,88.80198752,135.9696232,-176.7197443,0,0,0,-53.76842344,0,0,,,,
573.3039996,2239,0,0,0,-112.4241077,0,0,-364.1524789,6.950157344,41.00080917,34.53631626,0,0,0,86.72280035,0,0,,,,
573.3119996,2239,0,0,0,91.19382952,0,0,-974.3872864,-52.33684379,-17.87168002,147.1514923,0,0,0,-28.6405895,0,0,,,,
573.3199996,2239,0,0,0,29.28286562,0,0,-780.418632,133.5173252,180.5509388,-247.1008603,0,0,0,6.517938607,0,0,,,,
573.3279996,2239,0,0,0,-96.78889862,0,0,-464.9216884,-129.5864037,-119.5106648,275.7822885,0,0,0,59.11968976,0,0,,,,
573.3359996,2239,0,0,0,132.7684379,0,0,-1142.117287,79.690707,128.38974,-174.0189043,0,0,0,-72.57670366,0,0,,,,
573.3439996,2239,0,0,0,-144.8977439,0,0,-323.1317978,6.710869809,-1.470895591,40.4111301,0,0,0,76.43493596,0,0,,,,
573.3519996,2239,0,0,0,68.19693681,0,0,-954.8249481,-59.63130999,-57.05257668,133.7996931,0,0,0,-47.48404359,0,0,,,,
573.3599996,2239,0,0,0,5.503563924,0,0,-764.3104875,129.8419436,161.30162,-261.0517174,0,0,0,-15.88561263,0,0,,,,
573.3679996,2239,0,0,0,-108.9533274,0,0,-458.2764938,-125.0483864,-140.2749308,263.3166926,0,0,0,37.64847687,0,0,,,,
573.3759996,2239,0,0,0,132.3408908,0,0,-1160.031999,72.89575672,123.2575301,-191.3262678,0,0,0,-90.17959729,0,0,,,,
573.3839996,2239,0,0,0,-155.9796234,0,0,-348.3128349,-14.93573696,5.101888785,34.88912598,0,0,0,57.22040648,0,0,,,,
573.3919996,2239,0,0,0,37.92422382,0,0,-944.4993108,-85.56396533,-66.89929012,131.9626935,0,0,0,-72.09133345,0,0,,,,
573.3999996,2239,0,0,0,-15.49700534,0,0,-729.1354301,104.1317562,137.0355441,-258.0537041,0,0,0,-28.42776047,0,0,,,,
573.4079996,2239,0,0,0,-103.1702122,0,0,-453.0142362,-132.12336,-148.523075,261.8295032,0,0,0,32.92086009,0,0,,,,
573.4159996,2239,0,0,0,134.1950077,0,0,-1145.236131,74.29826962,120.8848532,-195.1455467,0,0,0,-90.22654039,0,0,,,,
573.4239996,2239,0,0,0,-142.9774488,0,0,-333.0507933,-13.40259603,-4.297873271,37.57438733,0,0,0,71.19102522,0,0,,,,
573.4319996,2239,0,0,0,63.71061955,0,0,-962.5493726,-78.53534674,-57.53543942,127.8031106,0,0,0,-60.86872321,0,0,,,,
573.4399996,2240,0,0,0,-20.604899,0,0,-740.2633199,102.4230793,141.4667823,-258.2204528,0,0,0,-38.61475013,0,0,,,,
573.4479996,2240,0,0,0,-107.3387183,0,0,-474.3419232,-121.5966006,-150.2406145,256.8966961,0,0,0,15.01047159,0,0,,,,
573.4559996,2240,0,0,0,142.3184212,0,0,-1165.865247,96.08597264,130.6012422,-205.4228937,0,0,0,-93.16619023,0,0,,,,
573.4639996,2240,0,0,0,-152.5235447,0,0,-331.3190052,-9.591077493,-19.81709456,31.10913941,0,0,0,65.48353985,0,0,,,,
573.4719996,2240,0,0,0,73.81672078,0,0,-976.6005902,-65.27305617,-72.40528182,106.9299711,0,0,0,-69.59870844,0,0,,,,
573.4799996,2240,0,0,0,6.996200388,0,0,-761.9064465,118.1591779,155.4941415,-276.1012533,0,0,0,-21.09431477,0,0,,,,
573.4879996,2240,0,0,0,-114.3930716,0,0,-465.8579626,-136.1054529,-157.7086189,249.2705081,0,0,0,28.44311979,0,0,,,,
573.4959996,2240,0,0,0,137.856681,0,0,-1144.482351,102.2242189,113.0388311,-212.9803505,0,0,0,-103.1330203,0,0,,,,
573.5039996,2240,0,0,0,-129.1015557,0,0,-340.9496566,28.78333881,-4.541437851,26.44057001,0,0,0,72.56845366,0,0,,,,
573.5119996,2240,0,0,0,69.2360432,0,0,-979.3635627,-53.38378522,-68.50354939,102.217048,0,0,0,-54.07786671,0,0,,,,
573.5199996,2240,0,0,0,-15.60388215,0,0,-745.6819098,123.5930391,137.5830763,-275.3374406,0,0,0,-31.31965406,0,0,,,,
573.5279996,2240,0,0,0,-119.4164194,0,0,-471.3681013,-120.7885861,-166.1025622,240.2160326,0,0,0,12.80150005,0,0,,,,
573.5359996,2240,0,0,0,126.801141,0,0,-1136.600509,78.848581,88.95150154,-223.5521071,0,0,0,-113.1271682,0,0,,,,
573.5439996,2240,0,0,0,-134.7996738,0,0,-332.6786094,13.72913488,-21.21459252,28.42303569,0,0,0,61.03250153,0,0,,,,
573.5519996,2240,0,0,0,82.14817064,0,0,-977.5281356,-20.20217256,-67.38605247,95.72343626,0,0,0,-61.10737432,0,0,,,,
573.5599996,2240,0,0,0,3.787577691,0,0,-728.5199135,131.0316993,124.2793222,-274.9711702,0,0,0,-28.5907557,0,0,,,,
573.5679996,2240,0,0,0,-81.17562453,0,0,-487.7341428,-112.6055104,-145.2134768,244.9357166,0,0,0,33.24323902,0,0,,,,
573.5759996,2240,0,0,0,159.5955698,0,0,-1161.906385,123.9907316,122.8648753,-225.574048,0,0,0,-93.61755153,0,0,,,,
573.5839996,2240,0,0,0,-110.6985726,0,0,-357.6774572,24.94292976,-14.9241304,28.52238911,0,0,0,61.9507055,0,0,,,,
573.5919996,2240,0,0,0,106.3098721,0,0,-1008.826088,-20.20495185,-36.41913577,96.66198157,0,0,0,-46.23110678,0,0,,,,
573.5999996,2240,0,0,0,6.396390835,0,0,-728.8647567,160.8830144,144.6194863,-259.5556635,0,0,0,-2.861309138,0,0,,,,
573.6079996,2240,0,0,0,-87.91879091,0,0,-478.7047596,-100.0510082,-169.0090672,261.4505214,0,0,0,34.49269229,0,0,,,,
573.6159996,2240,0,0,0,147.2002029,0,0,-1140.386499,112.7212459,102.9320706,-217.3293327,0,0,0,-102.3448808,0,0,,,,
573.6239996,2240,0,0,0,-119.8314271,0,0,-336.9205712,32.631373,-23.1705015,31.83872448,0,0,0,54.71443583,0,0,,,,
573.6319996,2240,0,0,0,101.5083371,0,0,-1001.365308,-11.19202937,-46.45609107,91.07132238,0,0,0,-51.01795309,0,0,,,,
573.6399996,2240,0,0,0,-1.419670499,0,0,-726.9164306,145.371889,138.155623,-263.053312,0,0,0,-10.23761162,0,0,,,,
573.6479996,2240,0,0,0,-81.25508029,0,0,-492.416996,-94.44287435,-162.2630717,247.7114746,0,0,0,23.92959172,0,0,,,,
573.6559996,2240,0,0,0,148.3855899,0,0,-1130.292963,123.8460479,105.8327677,-221.6151033,0,0,0,-88.9292728,0,0,,,,
573.6639996,2240,0,0,0,-128.0416938,0,0,-329.4174402,12.52579847,-32.42301538,39.7101499,0,0,0,56.49895384,0,0,,,,
573.6719996,2240,0,0,0,112.615533,0,0,-1022.657478,-18.90433022,-39.45257751,75.6380998,0,0,0,-77.9446262,0,0,,,,
573.6799996,2240,0,0,0,15.96578318,0,0,-736.1195814,148.6906346,149.7260206,-271.6581678,0,0,0,-12.31072292,0,0,,,,
573.6879996,2240,0,0,0,-73.32887392,0,0,-502.6143193,-108.878879,-162.887661,249.6677197,0,0,0,37.11828038,0,0,,,,
573.6959996,2241,0,0,0,151.8161752,0,0,-1150.041123,117.2794294,114.2625324,-227.2967663,0,0,0,-81.58294123,0,0,,,,
573.7039996,2241,0,0,0,-142.0708891,0,0,-341.5431847,12.40310565,-34.10685314,35.12409593,0,0,0,67.9741518,0,0,,,,
573.7119996,2241,0,0,0,70.00647421,0,0,-1003.867201,-41.83336956,-73.27129828,68.38887197,0,0,0,-72.57319139,0,0,,,,
573.7199996,2241,0,0,0,-6.03218462,0,0,-729.5635085,144.3501723,131.0057478,-276.9984243,0,0,0,-18.90226375,0,0,,,,
573.7279996,2241,0,0,0,-72.3000532,0,0,-532.6096362,-82.95468399,-141.738771,237.3234449,0,0,0,31.18237103,0,0,,,,
573.7359996,2241,0,0,0,116.7841285,0,0,-1127.553792,105.6717423,101.9941385,-235.9487,0,0,0,-92.35920587,0,0,,,,
573.7439996,2241,0,0,0,-165.8530204,0,0,-311.663319,-16.48095525,-72.40646483,32.66988633,0,0,0,48.26944373,0,0,,,,
573.7519996,2241,0,0,0,82.49090995,0,0,-1016.48512,-47.59889237,-68.53178227,52.05714568,0,0,0,-83.7126688,0,0,,,,
573.7599996,2241,0,0,0,-20.78706963,0,0,-709.6885214,123.7420941,115.1434215,-281.7250925,0,0,0,-38.41179935,0,0,,,,
573.7679996,2241,0,0,0,-95.36884938,0,0,-504.5843528,-115.2063863,-184.8044684,234.2307062,0,0,0,-1.049171582,0,0,,,,
573.7759996,2241,0,0,0,126.714652,0,0,-1129.002863,99.00587194,101.9733659,-246.6066175,0,0,0,-107.2904255,0,0,,,,
573.7839996,2241,0,0,0,-145.3859807,0,0,-319.0966586,6.593076223,-56.96431493,34.79684074,0,0,0,53.54847606,0,0,,,,
573.7919996,2241,0,0,0,102.7609265,0,0,-1023.112972,-22.8418092,-59.00252598,56.36080242,0,0,0,-61.51269921,0,0,,,,
573.7999996,2241,0,0,0,4.104591346,0,0,-741.930635,130.5897596,141.5171333,-273.8046741,0,0,0,-14.99748186,0,0,,,,
573.8079996,2241,0,0,0,-77.42600235,0,0,-554.9880083,-89.04652935,-162.6362041,240.8399462,0,0,0,15.05975192,0,0,,,,
573.8159996,2241,0,0,0,136.0493917,0,0,-1150.771473,133.1747624,95.52070293,-237.9636133,0,0,0,-78.82827488,0,0,,,,
573.8239996,2241,0,0,0,-142.1127199,0,0,-350.7606583,-4.203760947,-55.51963579,43.83636353,0,0,0,63.54838968,0,0,,,,
573.8319996,2241,0,0,0,78.87888442,0,0,-1038.527738,-48.35398664,-61.34172238,55.28533936,0,0,0,-88.08947992,0,0,,,,
573.8399996,2241,0,0,0,-32.41373798,0,0,-693.3177037,112.4609183,103.7053034,-266.6779939,0,0,0,-33.40342675,0,0,,,,
573.8479996,2241,0,0,0,-84.73314408,0,0,-529.3183862,-119.1703345,-175.0036906,238.4971776,0,0,0,2.998123704,0,0,,,,
573.8559996,2241,0,0,0,127.4997947,0,0,-1130.62442,96.66729334,109.2105707,-243.6174076,0,0,0,-107.0173889,0,0,,,,
573.8639996,2241,0,0,0,-157.3670684,0,0,-309.4738123,-24.63318421,-53.48519931,53.47282131,0,0,0,44.60721192,0,0,,,,
573.8719996,2241,0,0,0,86.74273756,0,0,-1023.602025,-43.76217257,-34.05565934,58.08305123,0,0,0,-69.52533816,0,0,,,,
573.8799996,2241,0,0,0,-28.31925357,0,0,-674.7444813,119.8905413,139.4927559,-262.2701361,0,0,0,-1.792929818,0,0,,,,
573.8879996,2241,0,0,0,-89.56556891,0,0,-500.3382868,-115.4377349,-161.552764,243.7700786,0,0,0,27.15254241,0,0,,,,
573.8959996,2241,0,0,0,118.2647466,0,0,-1108.39217,91.6807165,128.1748008,-244.7311753,0,0,0,-75.48884898,0,0,,,,
573.9039996,2241,0,0,0,-171.5650401,0,0,-299.0043369,-40.40228725,-30.83702806,45.67565581,0,0,0,58.13741258,0,0,,,,
573.9119996,2241,0,0,0,81.74825378,0,0,-1007.386023,-43.57651234,-26.22176666,46.11750528,0,0,0,-81.69426991,0,0,,,,
573.9199996,2241,0,0,0,-21.78752539,0,0,-657.8503815,131.7116081,147.3997588,-260.3975069,0,0,0,-0.047533583,0,0,,,,
573.9279996,2241,0,0,0,-83.91682799,0,0,-502.3237039,-104.6728976,-137.6490733,249.1342853,0,0,0,43.04280779,0,0,,,,
573.9359996,2241,0,0,0,137.026261,0,0,-1107.180145,111.3449224,154.5974703,-232.5476771,0,0,0,-66.66964925,0,0,,,,
573.9439996,2241,0,0,0,-109.2752943,0,0,-317.7750798,18.78594823,4.322238702,68.1750855,0,0,0,82.56103848,0,0,,,,
573.9519996,2242,0,0,0,118.6391318,0,0,-1006.572468,24.46352086,7.660379242,73.02441747,0,0,0,-17.02631522,0,0,,,,
573.9599996,2242,0,0,0,-35.65322694,0,0,-629.6775351,121.9034099,146.0816321,-229.7926401,0,0,0,37.78780426,0,0,,,,
573.9679996,2242,0,0,0,-74.4112942,0,0,-500.8296263,-132.0280638,-147.1330786,260.6294112,0,0,0,24.9530867,0,0,,,,
573.9759996,2242,0,0,0,143.9863731,0,0,-1080.251557,125.6889183,150.9155083,-222.6545415,0,0,0,-71.40972342,0,0,,,,
573.9839996,2242,0,0,0,-125.9588879,0,0,-290.2514485,3.889047486,-3.086719634,76.55844963,0,0,0,81.72334923,0,0,,,,
573.9919996,2242,0,0,0,131.9962802,0,0,-1015.858627,2.1077191,18.02726276,60.59644983,0,0,0,-46.40933033,0,0,,,,
573.9999996,2242,0,0,0,0.883127128,0,0,-640.0919183,152.5509306,174.5681875,-228.2295331,0,0,0,21.17522391,0,0,,,,
574.0079996,2242,0,0,0,-58.15715729,0,0,-507.4969681,-107.027027,-121.9870671,273.8553692,0,0,0,42.01398786,0,0,,,,
574.0159996,2242,0,0,0,140.264942,0,0,-1075.692388,106.5294428,155.2941965,-210.7341261,0,0,0,-57.41684859,0,0,,,,
574.0239996,2242,0,0,0,-152.8184169,0,0,-264.2057216,-21.68438718,-28.92843631,97.61295932,0,0,0,63.89419426,0,0,,,,
574.0319996,2242,0,0,0,78.57465376,0,0,-943.3620655,-41.62693247,-40.69038971,78.28203749,0,0,0,-77.90365037,0,0,,,,
574.0399996,2242,0,0,0,-13.78537362,0,0,-573.2984472,112.6504256,123.9454451,-220.6439076,0,0,0,8.950971097,0,0,,,,
574.0479996,2242,0,0,0,-35.78029618,0,0,-492.4077396,-95.64294946,-121.4612178,268.0730598,0,0,0,42.86221761,0,0,,,,
574.0559996,2242,0,0,0,139.3130468,0,0,-1043.098628,119.1777622,159.0431812,-214.993134,0,0,0,-58.17110461,0,0,,,,
574.0639996,2242,0,0,0,-139.401452,0,0,-249.5942843,-14.06215432,-31.24129581,91.46086788,0,0,0,69.96183656,0,0,,,,
574.0719996,2242,0,0,0,111.6554198,0,0,-972.82635,-16.3958259,-12.61195669,59.61679622,0,0,0,-76.9234008,0,0,,,,
574.0799996,2242,0,0,0,-4.685168266,0,0,-599.5279097,123.0098726,149.5066787,-225.8981247,0,0,0,-5.829156813,0,0,,,,
574.0879996,2242,0,0,0,-20.14877314,0,0,-538.6311548,-74.68360537,-108.3729135,257.6413844,0,0,0,24.56672526,0,0,,,,
574.0959996,2242,0,0,0,166.3400582,0,0,-1076.116673,162.9145895,173.4346395,-226.1571534,0,0,0,-55.4142792,0,0,,,,
574.1039996,2242,0,0,0,-129.0217483,0,0,-262.6802889,5.809545264,-29.68887849,98.28498496,0,0,0,94.03643811,0,0,,,,
574.1119996,2242,0,0,0,105.5417197,0,0,-982.5907119,-22.00512588,-21.68722793,58.11873914,0,0,0,-54.91883816,0,0,,,,
574.1199996,2242,0,0,0,-38.76609987,0,0,-572.4836195,98.73609156,131.2323408,-218.8094341,0,0,0,1.25064344,0,0,,,,
574.1279996,2242,0,0,0,-72.22832052,0,0,-493.0119873,-116.9946121,-144.9747752,267.1232261,0,0,0,4.001580195,0,0,,,,
574.1359996,2242,0,0,0,118.1998115,0,0,-1004.637118,114.9553421,123.0345542,-226.6452974,0,0,0,-86.03590718,0,0,,,,
574.1439996,2242,0,0,0,-154.6341033,0,0,-194.0326498,-27.61095276,-65.8542495,101.5227354,0,0,0,69.34757067,0,0,,,,
574.1519996,2242,0,0,0,111.554017,0,0,-954.9726968,-17.02652505,-18.77502465,56.27331837,0,0,0,-77.18123609,0,0,,,,
574.1599996,2242,0,0,0,-23.94397393,0,0,-553.2605058,113.9117479,148.5783232,-214.8879375,0,0,0,-6.047548989,0,0,,,,
574.1679996,2242,0,0,0,-64.80690632,0,0,-477.2627205,-124.5590875,-137.4516032,268.3740206,0,0,0,-1.483073104,0,0,,,,
574.1759996,2242,0,0,0,131.9669615,0,0,-1004.325619,113.6753687,138.3495936,-228.7764095,0,0,0,-103.2846316,0,0,,,,
574.1839996,2242,0,0,0,-129.1547876,0,0,-225.7319465,-5.161961528,-27.7097886,104.5748307,0,0,0,57.16744854,0,0,,,,
574.1919996,2242,0,0,0,110.8361873,0,0,-973.0165837,-8.202495257,0.19919438,54.81693281,0,0,0,-81.17278761,0,0,,,,
574.1999996,2242,0,0,0,-47.72480007,0,0,-539.5333189,99.76939945,124.7691503,-211.8373017,0,0,0,-11.85973362,0,0,,,,
574.2079996,2243,0,0,0,-77.40134109,0,0,-480.3712059,-119.8077966,-154.7213441,263.1046723,0,0,0,-6.599550364,0,0,,,,
574.2159996,2243,0,0,0,117.5947584,0,0,-1004.342566,128.3984098,122.7646905,-241.9448976,0,0,0,-102.4479375,0,0,,,,
574.2239996,2243,0,0,0,-153.9182718,0,0,-226.0735847,-16.07887645,-56.8209722,86.75248445,0,0,0,56.72141453,0,0,,,,
574.2319996,2243,0,0,0,89.04001205,0,0,-967.4147949,-19.17094119,-24.23115748,34.29892423,0,0,0,-78.76605596,0,0,,,,
574.2399996,2243,0,0,0,-46.04519598,0,0,-533.7200661,113.5779106,105.2977978,-216.2156827,0,0,0,-9.812547726,0,0,,,,
574.2479996,2243,0,0,0,-54.67052551,0,0,-501.7884457,-96.09346544,-149.9350918,257.2210878,0,0,0,-6.839268415,0,0,,,,
574.2559996,2243,0,0,0,136.6626931,0,0,-1000.317062,135.4547042,130.8508103,-233.2966228,0,0,0,-83.59303547,0,0,,,,
574.2639996,2243,0,0,0,-122.3227094,0,0,-229.3251787,-13.61662868,-48.69234458,109.6173241,0,0,0,73.03339088,0,0,,,,
574.2719996,2243,0,0,0,119.216406,0,0,-978.8676863,-3.695950559,3.745108473,45.5820543,0,0,0,-73.92435101,0,0,,,,
574.2799996,2243,0,0,0,-35.24531236,0,0,-513.6297695,108.5076958,102.4060194,-194.6850114,0,0,0,6.849531362,0,0,,,,
574.2879996,2243,0,0,0,-31.72508815,0,0,-504.6352294,-103.8623847,-151.6331228,270.4962922,0,0,0,8.541072933,0,0,,,,
574.2959996,2243,0,0,0,130.3883098,0,0,-980.2709881,136.96154,151.6257154,-226.6113794,0,0,0,-78.79245357,0,0,,,,
574.3039996,2243,0,0,0,-151.858832,0,0,-177.5722734,-31.71422297,-72.58504674,121.2327816,0,0,0,58.02169964,0,0,,,,
574.3119996,2243,0,0,0,130.7728388,0,0,-948.3738541,-8.793443942,-23.20179459,36.77608274,0,0,0,-95.71476899,0,0,,,,
574.3199996,2243,0,0,0,-27.76524504,0,0,-478.7583372,121.8029682,101.6768861,-201.8742125,0,0,0,8.495100554,0,0,,,,
574.3279996,2243,0,0,0,-50.69806042,0,0,-464.2890404,-102.9591137,-171.6357674,263.1144891,0,0,0,13.51857635,0,0,,,,
574.3359996,2243,0,0,0,128.2382167,0,0,-946.7366939,134.7550541,125.234988,-244.6964928,0,0,0,-77.73659137,0,0,,,,
574.3439996,2243,0,0,0,-147.6120034,0,0,-161.6020936,-32.94131804,-83.77173442,107.9683101,0,0,0,79.25550759,0,0,,,,
574.3519996,2243,0,0,0,117.3098514,0,0,-926.8677789,-16.66006985,-33.26527776,28.50351869,0,0,0,-66.76559803,0,0,,,,
574.3599996,2243,0,0,0,-24.27734986,0,0,-457.0170223,122.9727371,101.6538905,-200.910599,0,0,0,20.28498228,0,0,,,,
574.3679996,2243,0,0,0,-22.29820237,0,0,-472.5424631,-93.63751049,-147.3793637,265.3660806,0,0,0,24.87700128,0,0,,,,
574.3759996,2243,0,0,0,142.7227364,0,0,-952.8803075,133.2333729,149.4712088,-236.643877,0,0,0,-62.90010048,0,0,,,,
574.3839996,2243,0,0,0,-134.8477321,0,0,-182.2945864,-26.83812199,-63.60404294,118.2664149,0,0,0,76.33941431,0,0,,,,
574.3919996,2243,0,0,0,129.1854751,0,0,-948.3075927,0.511127294,-11.59796905,34.2354073,0,0,0,-72.11017268,0,0,,,,
574.3999996,2243,0,0,0,-38.8182282,0,0,-453.211396,112.4847837,107.5996884,-185.2061127,0,0,0,19.18090902,0,0,,,,
574.4079996,2243,0,0,0,-53.73777561,0,0,-463.2147432,-119.7458266,-159.8739813,272.3294516,0,0,0,16.98195326,0,0,,,,
574.4159996,2243,0,0,0,115.1948521,0,0,-927.9893228,121.4555334,124.695634,-235.5559277,0,0,0,-77.5371685,0,0,,,,
574.4239996,2243,0,0,0,-147.0096972,0,0,-163.4786383,-29.83154947,-77.96715506,121.4387887,0,0,0,58.14374497,0,0,,,,
574.4319996,2243,0,0,0,117.9452652,0,0,-923.4391998,-4.890654688,-13.55674738,30.5493826,0,0,0,-77.56464225,0,0,,,,
574.4399996,2243,0,0,0,-42.58070113,0,0,-426.9728184,110.8843233,95.16658439,-182.4836587,0,0,0,23.20500564,0,0,,,,
574.4479996,2243,0,0,0,-37.98615709,0,0,-467.094646,-98.17557469,-156.5414041,268.2915948,0,0,0,22.88117978,0,0,,,,
574.4559996,2243,0,0,0,124.646406,0,0,-923.3590382,128.8525095,143.6538286,-240.1425859,0,0,0,-66.36399377,0,0,,,,
574.4639996,2244,0,0,0,-140.755593,0,0,-155.6227121,-41.91837577,-76.09426295,122.7753792,0,0,0,65.12033473,0,0,,,,
574.4719996,2244,0,0,0,132.6608363,0,0,-928.8817078,5.161961766,-7.404662174,21.58304516,0,0,0,-62.29446947,0,0,,,,
574.4799996,2244,0,0,0,-32.34139826,0,0,-438.0068505,119.8137613,118.7411666,-189.8629024,0,0,0,39.12722711,0,0,,,,
574.4879996,2244,0,0,0,-42.52253319,0,0,-458.1249679,-101.6060855,-149.7284134,263.6697156,0,0,0,21.60158728,0,0,,,,
574.4959996,2244,0,0,0,117.8880928,0,0,-886.7105396,124.8584056,123.354265,-236.9556396,0,0,0,-61.04844874,0,0,,,,
574.5039996,2244,0,0,0,-141.3749561,0,0,-154.0038784,-45.49805761,-77.93093312,123.4317915,0,0,0,72.10964847,0,0,,,,
574.5119996,2244,0,0,0,97.70275287,0,0,-915.515794,-13.30501486,-9.549621024,10.446323,0,0,0,-74.93716199,0,0,,,,
574.5199996,2244,0,0,0,-73.889409,0,0,-399.3303158,84.83320877,74.42105603,-193.4543258,0,0,0,12.79054467,0,0,,,,
574.5279996,2244,0,0,0,-58.50635235,0,0,-457.0328614,-126.6116258,-187.4372066,250.9683382,0,0,0,-0.012145778,0,0,,,,
574.5359996,2244,0,0,0,87.80911349,0,0,-866.304025,110.4792452,104.9022068,-254.7070224,0,0,0,-74.1612226,0,0,,,,
574.5439996,2244,0,0,0,-151.3930034,0,0,-131.6248383,-38.9275737,-98.26918321,109.5979495,0,0,0,65.07755039,0,0,,,,
574.5519996,2244,0,0,0,114.0154277,0,0,-910.8294004,7.368667569,-18.5678789,-5.700519955,0,0,0,-63.00077156,0,0,,,,
574.5599996,2244,0,0,0,-57.58455807,0,0,-390.15216,106.3936706,88.52582456,-197.2263546,0,0,0,35.76903315,0,0,,,,
574.5679996,2244,0,0,0,-28.72009485,0,0,-472.8410192,-91.86072615,-153.087339,248.4549559,0,0,0,24.99499069,0,0,,,,
574.5759996,2244,0,0,0,89.66267695,0,0,-855.3289743,124.6774881,125.3402841,-244.4305062,0,0,0,-49.59392676,0,0,,,,
574.5839996,2244,0,0,0,-178.960445,0,0,-94.36054674,-62.89030234,-105.9411974,127.6509731,0,0,0,60.21976974,0,0,,,,
574.5919996,2244,0,0,0,101.8397199,0,0,-885.5384476,-10.8196094,-26.29645314,-4.698437035,0,0,0,-90.75213674,0,0,,,,
574.5999996,2244,0,0,0,-68.20471146,0,0,-366.3289097,92.23294681,89.02648228,-192.7501304,0,0,0,17.50938863,0,0,,,,
574.6079996,2244,0,0,0,-36.38924744,0,0,-464.3485279,-114.9654929,-142.2323138,244.6992685,0,0,0,9.241924343,0,0,,,,
574.6159996,2244,0,0,0,104.414256,0,0,-854.9936883,117.867614,146.839495,-250.4678963,0,0,0,-57.41290665,0,0,,,,
574.6239996,2244,0,0,0,-156.282548,0,0,-113.3247239,-62.46479617,-73.65740165,135.1565094,0,0,0,69.65653047,0,0,,,,
574.6319996,2244,0,0,0,107.7178747,0,0,-888.218334,-22.63270348,5.856314371,6.217344593,0,0,0,-71.63725769,0,0,,,,
574.6399996,2244,0,0,0,-57.65833692,0,0,-343.342822,90.73568026,103.8095583,-167.8678386,0,0,0,43.80709118,0,0,,,,
574.6479996,2244,0,0,0,-6.446393165,0,0,-468.3526425,-79.54872893,-109.7961923,267.2584037,0,0,0,39.8122328,0,0,,,,
574.6559996,2244,0,0,0,119.0064846,0,0,-848.9668354,142.1826544,187.3155391,-230.4191435,0,0,0,-18.80147508,0,0,,,,
574.6639996,2244,0,0,0,-144.1561199,0,0,-106.1725438,-55.98852566,-48.37811839,156.6146837,0,0,0,113.3848557,0,0,,,,
574.6719996,2244,0,0,0,124.8667681,0,0,-895.1642056,9.1345871,42.58429019,19.77976966,0,0,0,-30.86576104,0,0,,,,
574.6799996,2244,0,0,0,-59.83918183,0,0,-340.6753567,94.40842542,130.280162,-152.217579,0,0,0,65.54608442,0,0,,,,
574.6879996,2244,0,0,0,-27.19500387,0,0,-452.2271954,-119.001432,-108.8548156,271.7659304,0,0,0,37.42347737,0,0,,,,
574.6959996,2244,0,0,0,99.99724479,0,0,-821.5561098,121.7943738,180.0703349,-228.7416264,0,0,0,-33.07842419,0,0,,,,
574.7039996,2244,0,0,0,-156.2756938,0,0,-98.39627743,-61.24293304,-57.41680904,160.4495347,0,0,0,88.87734198,0,0,,,,
574.7119996,2244,0,0,0,99.98127906,0,0,-870.0737323,-14.26630298,22.21933236,14.90408293,0,0,0,-62.11276759,0,0,,,,
574.7199996,2245,0,0,0,-65.38240309,0,0,-312.9785722,95.4335042,115.3925589,-154.3282235,0,0,0,45.63883467,0,0,,,,
574.7279996,2245,0,0,0,-13.68166971,0,0,-455.4910831,-93.67827913,-104.262797,260.6201584,0,0,0,41.31656034,0,0,,,,
574.7359996,2245,0,0,0,88.10585397,0,0,-790.2933478,97.78594046,155.6878618,-236.4589812,0,0,0,-34.97896431,0,0,,,,
574.7439996,2245,0,0,0,-144.1919866,0,0,-82.90234184,-75.24408156,-71.8675004,154.4975411,0,0,0,74.84958802,0,0,,,,
574.7519996,2245,0,0,0,134.928514,0,0,-886.1606689,18.75973272,55.34261772,-1.797093713,0,0,0,-47.97932207,0,0,,,,
574.7599996,2245,0,0,0,-62.29030074,0,0,-311.4473602,83.48489456,120.0517512,-152.8979631,0,0,0,57.59776209,0,0,,,,
574.7679996,2245,0,0,0,-2.624775357,0,0,-469.6427779,-99.23839189,-107.9676606,262.200552,0,0,0,29.84566689,0,0,,,,
574.7759996,2245,0,0,0,105.5477113,0,0,-794.9794798,146.7018868,181.9969705,-234.598266,0,0,0,-14.70446797,0,0,,,,
574.7839996,2245,0,0,0,-144.2879483,0,0,-79.4982005,-61.95279661,-65.33608708,164.3706834,0,0,0,103.4830716,0,0,,,,
574.7919996,2245,0,0,0,144.0889479,0,0,-892.342656,14.9088067,50.67297995,-0.691649942,0,0,0,-39.46480113,0,0,,,,
574.7999996,2245,0,0,0,-63.39470866,0,0,-302.185589,102.9499323,117.8943992,-149.5885674,0,0,0,78.66173078,0,0,,,,
574.8079996,2245,0,0,0,-30.43783514,0,0,-440.1681238,-107.9106557,-143.7840675,255.6365829,0,0,0,36.75073819,0,0,,,,
574.8159996,2245,0,0,0,89.5924391,0,0,-754.8406447,123.3262774,130.7555507,-248.650244,0,0,0,-31.55429482,0,0,,,,
574.8239996,2245,0,0,0,-155.9327343,0,0,-47.58961927,-69.39206513,-116.0224916,142.8420448,0,0,0,92.76971382,0,0,,,,
574.8319996,2245,0,0,0,109.2888876,0,0,-835.8084907,-6.423026171,-32.65588519,-36.61723988,0,0,0,-58.39048061,0,0,,,,
574.8399996,2245,0,0,0,-76.03412481,0,0,-252.5531393,87.46880699,29.83589823,-185.7080046,0,0,0,56.6703475,0,0,,,,
574.8479996,2245,0,0,0,-37.15336386,0,0,-421.2482438,-116.4920822,-203.6846045,211.5457253,0,0,0,27.16348401,0,0,,,,
574.8559996,2245,0,0,0,60.65728049,0,0,-721.2148281,96.56046831,70.26654158,-287.5431849,0,0,0,-56.4668881,0,0,,,,
574.8639996,2245,0,0,0,-153.3920531,0,0,-42.45315597,-57.30037523,-154.9317521,109.369891,0,0,0,66.68768441,0,0,,,,
574.8719996,2245,0,0,0,116.3345998,0,0,-832.2517476,20.01977937,-26.71610081,-61.38174452,0,0,0,-61.60856879,0,0,,,,
574.8799996,2245,0,0,0,-82.93917172,0,0,-234.4765814,74.66939097,55.14658519,-180.4117531,0,0,0,29.86715208,0,0,,,,
574.8879996,2245,0,0,0,-14.41987935,0,0,-435.1253402,-97.3738273,-150.8883142,215.9479468,0,0,0,-10.19893573,0,0,,,,
574.8959996,2245,0,0,0,81.25761883,0,0,-709.2004808,129.0553589,125.2140159,-278.1948656,0,0,0,-51.03574622,0,0,,,,
574.9039996,2245,0,0,0,-162.0246501,0,0,-1.700410742,-80.16338611,-129.6237385,133.9567621,0,0,0,71.82447803,0,0,,,,
574.9119996,2245,0,0,0,112.6759814,0,0,-801.7567412,-5.727508258,-0.110547992,-52.61278518,0,0,0,-85.98890378,0,0,,,,
574.9199996,2245,0,0,0,-66.73337756,0,0,-218.7285246,79.37798421,86.96660762,-180.4230322,0,0,0,20.81708158,0,0,,,,
574.9279996,2245,0,0,0,-2.624192622,0,0,-423.7044995,-82.22207272,-124.9227883,213.6984436,0,0,0,9.963402683,0,0,,,,
574.9359996,2245,0,0,0,91.25142182,0,0,-698.7816224,143.6998858,154.2626472,-272.2007372,0,0,0,-37.84973247,0,0,,,,
574.9439996,2245,0,0,0,-134.9399665,0,0,-30.27131997,-58.5743141,-88.47302283,143.4911824,0,0,0,71.72780348,0,0,,,,
574.9519996,2245,0,0,0,114.1221452,0,0,-805.1815174,10.04953539,24.07983055,-46.08532055,0,0,0,-75.17160909,0,0,,,,
574.9599996,2245,0,0,0,-90.24140841,0,0,-176.9689716,58.31780432,75.0268237,-159.8342289,0,0,0,20.77203573,0,0,,,,
574.9679996,2245,0,0,0,-5.977055902,0,0,-407.2994935,-112.0951448,-124.6286054,222.3504063,0,0,0,-13.46753426,0,0,,,,
574.9759996,2246,0,0,0,89.65406003,0,0,-684.9530864,128.4529195,169.6280914,-271.9650594,0,0,0,-54.78136643,0,0,,,,
574.9839996,2246,0,0,0,-131.5141786,0,0,-29.54717742,-63.11449424,-74.51534072,144.636931,0,0,0,68.41380067,0,0,,,,
574.9919996,2246,0,0,0,126.4223004,0,0,-802.2080718,20.46895993,32.88794195,-51.22088393,0,0,0,-62.45978456,0,0,,,,
574.9999996,2246,0,0,0,-78.80129683,0,0,-159.3689519,78.58782206,73.39203927,-155.9196899,0,0,0,48.55977916,0,0,,,,
575.0079996,2246,0,0,0,12.54289393,0,0,-412.648837,-102.9560734,-116.528535,218.7983882,0,0,0,14.03123095,0,0,,,,
575.0159996,2246,0,0,0,93.6502347,0,0,-660.5917907,118.4818808,162.6212433,-273.3645578,0,0,0,-35.04342927,0,0,,,,
575.0239996,2246,0,0,0,-132.0521104,0,0,7.531020116,-64.64675232,-92.0531096,148.4695555,0,0,0,77.94526388,0,0,,,,
575.0319996,2246,0,0,0,139.8705936,0,0,-796.839308,17.91979687,39.64098991,-52.03432397,0,0,0,-59.26902986,0,0,,,,
575.0399996,2246,0,0,0,-74.61606165,0,0,-163.991222,60.20436003,86.1878567,-143.9094752,0,0,0,40.34953975,0,0,,,,
575.0479996,2246,0,0,0,-4.763507648,0,0,-400.5666117,-100.0057545,-114.7477928,225.2386214,0,0,0,-6.265241129,0,0,,,,
575.0559996,2246,0,0,0,89.89506233,0,0,-642.5435942,138.3659326,155.3869323,-266.8327968,0,0,0,-48.42835977,0,0,,,,
575.0639996,2246,0,0,0,-100.7212527,0,0,-30.47648346,-56.75101425,-74.90938852,155.8329746,0,0,0,73.59035233,0,0,,,,
575.0719996,2246,0,0,0,147.8068103,0,0,-829.6824629,22.74787412,75.22461517,-51.08548301,0,0,0,-61.37307541,0,0,,,,
575.0799996,2246,0,0,0,-98.19954599,0,0,-154.657628,53.80467769,86.60792572,-129.2227804,0,0,0,35.25701935,0,0,,,,
575.0879996,2246,0,0,0,-14.55944634,0,0,-394.0549205,-116.7614835,-133.4331608,232.4959761,0,0,0,-21.45611729,0,0,,,,
575.0959996,2246,0,0,0,72.06963422,0,0,-611.9551438,121.5491833,137.5263838,-264.1744825,0,0,0,-72.0597411,0,0,,,,
575.1039996,2246,0,0,0,-136.8558829,0,0,7.974841345,-79.07750843,-102.1481796,156.9695423,0,0,0,46.72921969,0,0,,,,
575.1119996,2246,0,0,0,132.1118528,0,0,-791.3093283,11.1504836,51.50514975,-64.55952181,0,0,0,-73.24419869,0,0,,,,
575.1199996,2246,0,0,0,-75.19534415,0,0,-134.3653879,65.51112176,81.72763228,-139.5632934,0,0,0,42.9038924,0,0,,,,
575.1279996,2246,0,0,0,11.13527962,0,0,-400.4550162,-100.9734704,-116.2509293,220.5899589,0,0,0,-0.058988469,0,0,,,,
575.1359996,2246,0,0,0,77.24763664,0,0,-599.1259959,113.560831,155.2747477,-269.3216396,0,0,0,-42.39713554,0,0,,,,
575.1439996,2246,0,0,0,-130.4051312,0,0,19.0137183,-83.92675294,-92.13175606,157.7993647,0,0,0,52.6812838,0,0,,,,
575.1519996,2246,0,0,0,131.1433185,0,0,-761.0566163,23.42120249,48.3165778,-62.85695446,0,0,0,-80.32964379,0,0,,,,
575.1599996,2246,0,0,0,-73.42265171,0,0,-112.4247837,60.79176477,77.2779294,-132.0890009,0,0,0,43.35839673,0,0,,,,
575.1679996,2246,0,0,0,21.75840513,0,0,-422.385202,-104.6355201,-92.29534812,212.5029105,0,0,0,-13.22432928,0,0,,,,
575.1759996,2246,0,0,0,56.9560985,0,0,-578.3093158,112.154861,161.6374438,-269.3925924,0,0,0,-53.97602809,0,0,,,,
575.1839996,2246,0,0,0,-145.5711108,0,0,42.42012339,-98.41029753,-110.5564467,162.7470333,0,0,0,53.48285434,0,0,,,,
575.1919996,2246,0,0,0,134.4119636,0,0,-767.1367743,15.68312188,59.99885335,-75.84821038,0,0,0,-84.73718043,0,0,,,,
575.1999996,2246,0,0,0,-91.85276318,0,0,-102.6961592,54.1296626,88.25131468,-137.093015,0,0,0,33.25775711,0,0,,,,
575.2079996,2246,0,0,0,19.77922802,0,0,-422.1668939,-101.6400445,-110.9198349,208.5870459,0,0,0,-14.199174,0,0,,,,
575.2159996,2246,0,0,0,76.54949909,0,0,-584.4371874,131.3493786,152.1424825,-267.4238967,0,0,0,-33.02951304,0,0,,,,
575.2239996,2246,0,0,0,-141.2875907,0,0,43.13799463,-77.66626897,-108.7438458,169.6933409,0,0,0,80.08558054,0,0,,,,
575.2319996,2247,0,0,0,137.192091,0,0,-747.3242109,23.64844156,37.49047977,-73.29407336,0,0,0,-61.65626373,0,0,,,,
575.2399996,2247,0,0,0,-89.0514738,0,0,-67.48318198,41.32007273,54.60616566,-122.5223426,0,0,0,50.06725815,0,0,,,,
575.2479996,2247,0,0,0,11.59379191,0,0,-378.0695104,-104.7249151,-125.9071231,210.9840159,0,0,0,-13.34387793,0,0,,,,
575.2559996,2247,0,0,0,94.2209542,0,0,-555.9455167,140.8910074,146.0921613,-271.3023229,0,0,0,-32.02598165,0,0,,,,
575.2639996,2247,0,0,0,-98.79656333,0,0,12.2852693,-67.03167715,-87.52518008,171.6977759,0,0,0,83.18026765,0,0,,,,
575.2719996,2247,0,0,0,136.4765436,0,0,-752.6944269,38.63629967,66.13168966,-71.1948327,0,0,0,-65.02336124,0,0,,,,
575.2799996,2247,0,0,0,-111.6051726,0,0,-31.64206277,43.37572411,38.94765278,-112.119591,0,0,0,46.7442327,0,0,,,,
575.2879996,2247,0,0,0,9.275702848,0,0,-360.6496048,-115.8863745,-136.510201,210.8652975,0,0,0,-16.06475635,0,0,,,,
575.2959996,2247,0,0,0,75.92054216,0,0,-511.6170918,118.9174173,148.8293534,-273.0450439,0,0,0,-43.43494492,0,0,,,,
575.3039996,2247,0,0,0,-124.0954734,0,0,70.0142032,-95.63695546,-116.8308106,166.2527418,0,0,0,57.21139033,0,0,,,,
575.3119996,2247,0,0,0,140.6142621,0,0,-718.7565685,19.77113099,35.13557671,-88.73419511,0,0,0,-85.08561326,0,0,,,,
575.3199996,2247,0,0,0,-86.52902134,0,0,-36.23303208,48.61716662,41.98878094,-122.9019521,0,0,0,45.88661663,0,0,,,,
575.3279996,2247,0,0,0,19.34007675,0,0,-381.3411165,-88.31473311,-123.8389791,198.0681417,0,0,0,-6.42560958,0,0,,,,
575.3359996,2247,0,0,0,68.66043545,0,0,-511.6369844,128.2760077,142.9656539,-277.5207447,0,0,0,-35.01088903,0,0,,,,
575.3439996,2247,0,0,0,-115.1429439,0,0,45.83008474,-85.75305915,-106.4171419,164.7984403,0,0,0,64.48630449,0,0,,,,
575.3519996,2247,0,0,0,140.741346,0,0,-732.9495731,46.22401302,64.90308129,-89.58504251,0,0,0,-66.2176627,0,0,,,,
575.3599996,2247,0,0,0,-111.2086853,0,0,-16.32869629,40.91125349,56.01444102,-107.0367514,0,0,0,55.14723954,0,0,,,,
575.3679996,2247,0,0,0,8.913305331,0,0,-373.7967864,-109.9360854,-106.953621,201.3155372,0,0,0,-14.46569231,0,0,,,,
575.3759996,2247,0,0,0,58.61361981,0,0,-492.1618111,116.8360013,162.1035464,-276.3911002,0,0,0,-39.49722308,0,0,,,,
575.3839996,2247,0,0,0,-141.5615259,0,0,88.68886716,-88.86558009,-102.2998636,173.9856411,0,0,0,65.23785847,0,0,,,,
575.3919996,2247,0,0,0,129.7427986,0,0,-679.9071711,51.11225223,66.29776118,-86.47660444,0,0,0,-45.99699757,0,0,,,,
575.3999996,2247,0,0,0,-107.8392879,0,0,14.46349564,39.16948434,69.13034776,-100.9283206,0,0,0,80.49029233,0,0,,,,
575.4079996,2247,0,0,0,-0.332841643,0,0,-354.3758512,-103.7834079,-88.12485488,204.4639726,0,0,0,-0.557312979,0,0,,,,
575.4159996,2247,0,0,0,50.1286951,0,0,-457.1040307,119.0832026,169.2567171,-262.3913812,0,0,0,-16.86424176,0,0,,,,
575.4239996,2247,0,0,0,-137.2057893,0,0,90.33760311,-115.3109836,-86.44573095,193.66926,0,0,0,74.45606165,0,0,,,,
575.4319996,2247,0,0,0,130.2394867,0,0,-692.6723386,30.70684282,94.37699427,-73.24840777,0,0,0,-63.2690086,0,0,,,,
575.4399996,2247,0,0,0,-96.72320391,0,0,6.719932752,43.93987048,83.18276224,-84.09962278,0,0,0,73.77183612,0,0,,,,
575.4479996,2247,0,0,0,17.45641055,0,0,-360.4441939,-107.5995444,-81.65269323,210.5093019,0,0,0,11.7795378,0,0,,,,
575.4559996,2247,0,0,0,57.97806945,0,0,-446.1899359,116.8133616,181.8000093,-254.0956166,0,0,0,-6.083341959,0,0,,,,
575.4639996,2247,0,0,0,-134.7879914,0,0,100.50109,-107.9462675,-73.8826411,202.07552,0,0,0,78.98214662,0,0,,,,
575.4719996,2247,0,0,0,109.518702,0,0,-641.7224851,3.788788109,76.88311126,-70.34789315,0,0,0,-71.21886053,0,0,,,,
575.4799996,2247,0,0,0,-108.7384457,0,0,65.13739621,11.5886842,59.90493652,-72.89263616,0,0,0,54.36441358,0,0,,,,
575.4879996,2248,0,0,0,44.60941075,0,0,-353.8927144,-96.51103907,-58.16285804,213.2158901,0,0,0,6.890461399,0,0,,,,
575.4959996,2248,0,0,0,80.13799534,0,0,-443.1596136,125.9993697,203.915888,-243.5155544,0,0,0,4.265737191,0,0,,,,
575.5039996,2248,0,0,0,-119.0648288,0,0,89.47394728,-89.45466223,-68.06086245,217.0037284,0,0,0,89.89167322,0,0,,,,
575.5119996,2248,0,0,0,134.7221675,0,0,-661.0118364,56.51269221,102.0774963,-64.60574632,0,0,0,-43.37564906,0,0,,,,
575.5199996,2248,0,0,0,-108.9798906,0,0,59.01072045,14.00285879,62.90167882,-56.67109572,0,0,0,75.69138538,0,0,,,,
575.5279996,2248,0,0,0,6.279566086,0,0,-339.6185905,-121.0879407,-81.83182133,216.1473721,0,0,0,-12.33993938,0,0,,,,
575.5359996,2248,0,0,0,46.33785115,0,0,-395.0014523,139.1112107,182.3266176,-251.5228975,0,0,0,-15.8532828,0,0,,,,
575.5439996,2248,0,0,0,-129.0529367,0,0,115.9892604,-103.1446717,-91.48786047,215.1919592,0,0,0,85.6945236,0,0,,,,
575.5519996,2248,0,0,0,122.966927,0,0,-644.6592013,19.22204493,93.45931191,-66.64960911,0,0,0,-51.94718565,0,0,,,,
575.5599996,2248,0,0,0,-110.2822994,0,0,85.0564496,21.86180897,72.52034693,-52.11955879,0,0,0,74.56115114,0,0,,,,
575.5679996,2248,0,0,0,11.70197819,0,0,-316.7009902,-117.7384802,-88.28588317,224.7718793,0,0,0,7.082996103,0,0,,,,
575.5759996,2248,0,0,0,38.54394693,0,0,-362.4708174,112.067348,156.9734645,-236.8601833,0,0,0,-2.344347551,0,0,,,,
575.5839996,2248,0,0,0,-126.0471381,0,0,139.6806885,-96.31917637,-109.6322403,218.9265088,0,0,0,76.39507436,0,0,,,,
575.5919996,2248,0,0,0,131.2712834,0,0,-615.0799528,33.75699207,74.47329911,-71.51989796,0,0,0,-60.78195254,0,0,,,,
575.5999996,2248,0,0,0,-98.15715055,0,0,97.69971948,33.85350575,66.97339915,-48.30403249,0,0,0,67.61157536,0,0,,,,
575.6079996,2248,0,0,0,27.36253847,0,0,-327.5979251,-91.67607963,-73.17715314,217.5758928,0,0,0,-11.79280606,0,0,,,,
575.6159996,2248,0,0,0,40.70859924,0,0,-360.97249,98.61674092,163.9301117,-238.3421433,0,0,0,-25.28052164,0,0,,,,
575.6239996,2248,0,0,0,-124.1750136,0,0,133.7168678,-109.7771567,-95.61835403,223.4537361,0,0,0,64.92557897,0,0,,,,
575.6319996,2248,0,0,0,109.6208439,0,0,-579.546643,43.6843325,71.2597087,-69.03843285,0,0,0,-54.45331813,0,0,,,,
575.6399996,2248,0,0,0,-128.2875184,0,0,159.7220199,15.32390072,32.62324375,-37.52959314,0,0,0,69.72259342,0,0,,,,
575.6479996,2248,0,0,0,27.4071005,0,0,-281.6642578,-106.7783626,-90.87378433,215.8496449,0,0,0,-11.27934708,0,0,,,,
575.6559996,2248,0,0,0,28.05790892,0,0,-282.8859085,94.646801,142.8448571,-236.9365418,0,0,0,-10.07720188,0,0,,,,
575.6639996,2248,0,0,0,-149.6166134,0,0,203.2955704,-133.5472278,-125.340056,223.2731134,0,0,0,62.45215396,0,0,,,,
575.6719996,2248,0,0,0,92.02267691,0,0,-524.5333865,0.526641927,46.15761467,-81.7713851,0,0,0,-77.58776444,0,0,,,,
575.6799996,2248,0,0,0,-138.8611406,0,0,209.7012486,-18.67174628,6.770874321,-45.52781697,0,0,0,49.53100492,0,0,,,,
575.6879996,2248,0,0,0,21.1716269,0,0,-235.7819393,-101.6447317,-95.33496326,206.2586672,0,0,0,-20.97415714,0,0,,,,
575.6959996,2248,0,0,0,12.29526553,0,0,-203.5650623,91.18087473,130.3996688,-233.7847282,0,0,0,-21.00396617,0,0,,,,
575.7039996,2248,0,0,0,-136.3001812,0,0,245.4889319,-138.9908056,-136.4305607,221.5739696,0,0,0,41.57566381,0,0,,,,
575.7119996,2248,0,0,0,133.9193118,0,0,-517.7231159,48.29150606,82.63601422,-90.09273485,0,0,0,-71.89968303,0,0,,,,
575.7199996,2248,0,0,0,-131.3132415,0,0,235.9058859,13.02420269,35.35191663,-36.75242969,0,0,0,63.74397442,0,0,,,,
575.7279996,2248,0,0,0,12.62661909,0,0,-213.9590811,-112.9798589,-107.0637258,198.6410654,0,0,0,-39.06964115,0,0,,,,
575.7359996,2248,0,0,0,27.70146423,0,0,-182.5093846,108.9581187,124.357263,-241.802046,0,0,0,-26.93597187,0,0,,,,
575.7439996,2249,0,0,0,-136.6599608,0,0,278.7044728,-128.2547513,-134.2962797,226.413629,0,0,0,61.27958174,0,0,,,,
575.7519996,2249,0,0,0,110.6303789,0,0,-462.6214524,-0.54462475,62.04190146,-95.96895233,0,0,0,-85.71906394,0,0,,,,
575.7599996,2249,0,0,0,-119.638607,0,0,280.7684789,-9.532639364,21.85842539,-43.78730704,0,0,0,41.31665894,0,0,,,,
575.7679996,2249,0,0,0,27.06545366,0,0,-174.0857562,-101.1960479,-92.76418309,196.9399527,0,0,0,-10.95035624,0,0,,,,
575.7759996,2249,0,0,0,10.96254143,0,0,-136.5823392,65.67015364,121.8761887,-234.2876989,0,0,0,-12.12384219,0,0,,,,
575.7839996,2249,0,0,0,-116.7116763,0,0,270.6226163,-147.9067211,-134.393168,219.423789,0,0,0,36.81380004,0,0,,,,
575.7919996,2249,0,0,0,151.7946257,0,0,-463.6008965,62.58093139,82.34292694,-103.1327897,0,0,0,-72.89536008,0,0,,,,
575.7999996,2249,0,0,0,-98.73575993,0,0,290.6998206,24.06896615,23.18695062,-27.73831931,0,0,0,77.87293135,0,0,,,,
575.8079996,2249,0,0,0,53.65379601,0,0,-204.5685247,-89.8362234,-81.22497893,195.6099179,0,0,0,-7.404911647,0,0,,,,
575.8159996,2249,0,0,0,28.56619038,0,0,-135.4089874,116.5442311,143.4006007,-234.7146963,0,0,0,-9.729217896,0,0,,,,
575.8239996,2249,0,0,0,-130.0290447,0,0,297.9290869,-133.0767678,-144.110201,227.9218101,0,0,0,49.74800615,0,0,,,,
575.8319996,2249,0,0,0,117.2832028,0,0,-423.3826117,15.80782529,57.58265284,-105.9282933,0,0,0,-84.60396122,0,0,,,,
575.8399996,2249,0,0,0,-123.7690081,0,0,334.8648455,-1.028359801,8.235184147,-28.23433341,0,0,0,56.89949971,0,0,,,,
575.8479996,2249,0,0,0,40.49477292,0,0,-173.6934054,-99.62017655,-94.60680825,185.5559349,0,0,0,-23.58128819,0,0,,,,
575.8559996,2249,0,0,0,32.0955994,0,0,-103.5764569,89.84029798,127.100638,-243.1346771,0,0,0,-24.14857278,0,0,,,,
575.8639996,2249,0,0,0,-87.48588369,0,0,296.0113078,-101.8626287,-128.2757005,227.6249046,0,0,0,65.74682336,0,0,,,,
575.8719996,2249,0,0,0,149.1496047,0,0,-430.3258432,67.91967783,82.12815541,-104.3117976,0,0,0,-42.0441731,0,0,,,,
575.8799996,2249,0,0,0,-130.7419428,0,0,349.7405839,-20.7745947,-2.620275185,-23.80060665,0,0,0,65.79483046,0,0,,,,
575.8879996,2249,0,0,0,19.44825795,0,0,-141.4180456,-120.4338258,-112.8496242,178.2457793,0,0,0,-39.80201659,0,0,,,,
575.8959996,2249,0,0,0,1.120395283,0,0,-47.27794858,93.79986692,105.3421269,-249.6460774,0,0,0,-25.55547984,0,0,,,,
575.9039996,2249,0,0,0,-131.5159266,0,0,357.2203566,-142.1850369,-166.4905997,215.314686,0,0,0,44.58450257,0,0,,,,
575.9119996,2249,0,0,0,107.6008606,0,0,-349.1410693,25.04619036,51.39659822,-121.3052942,0,0,0,-88.06950384,0,0,,,,
575.9199996,2249,0,0,0,-150.696283,0,0,427.3973812,-12.53647353,-13.57583128,-30.17395287,0,0,0,33.53509153,0,0,,,,
575.9279996,2249,0,0,0,12.67893453,0,0,-80.43479443,-117.1133292,-116.0977342,163.9821005,0,0,0,-52.66418895,0,0,,,,
575.9359996,2249,0,0,0,10.70920454,0,0,4.081964057,76.52032725,107.9231086,-253.5696068,0,0,0,-38.31898798,0,0,,,,
575.9439996,2249,0,0,0,-115.4505998,0,0,378.4189095,-149.2453522,-146.7284343,217.4231724,0,0,0,29.8121671,0,0,,,,
575.9519996,2249,0,0,0,102.0883389,0,0,-307.7248732,15.44069666,57.18228124,-126.7780185,0,0,0,-87.51002932,0,0,,,,
575.9599996,2249,0,0,0,-144.1343395,0,0,457.8165733,-4.577776815,-26.86796689,-30.37251506,0,0,0,44.12428698,0,0,,,,
575.9679996,2249,0,0,0,33.06016382,0,0,-88.81751792,-78.21940147,-104.369219,151.6346377,0,0,0,-35.24661984,0,0,,,,
575.9759996,2249,0,0,0,0.131939083,0,0,19.46035821,97.74317929,120.9002267,-266.6726678,0,0,0,-14.60645149,0,0,,,,
575.9839996,2249,0,0,0,-132.2249506,0,0,387.3746318,-142.3115519,-152.0252939,203.4201376,0,0,0,36.22921434,0,0,,,,
575.9919996,2249,0,0,0,111.1099924,0,0,-309.932424,32.28392752,58.2589124,-140.7811973,0,0,0,-83.70245021,0,0,,,,
575.9999996,2250,0,0,0,-115.1660014,0,0,453.3219346,13.59994488,-13.35195845,-26.41596109,0,0,0,70.70021688,0,0,,,,
576.0079996,2250,0,0,0,52.67218845,0,0,-86.24295195,-69.36308317,-96.24939526,156.564615,0,0,0,-10.61888098,0,0,,,,
576.0159996,2250,0,0,0,18.46710425,0,0,25.86482763,110.0678313,122.9269994,-255.0277748,0,0,0,-5.657884354,0,0,,,,
576.0239996,2250,0,0,0,-83.44279353,0,0,351.3250799,-94.56720937,-115.9669224,215.2552948,0,0,0,60.48415389,0,0,,,,
576.0319996,2250,0,0,0,118.9993157,0,0,-315.6030846,35.24569305,86.33324497,-129.1013211,0,0,0,-53.48296101,0,0,,,,
576.0399996,2250,0,0,0,-149.1170339,0,0,468.9313846,-51.29731621,-22.80044606,-15.08547454,0,0,0,48.79354617,0,0,,,,
576.0479996,2250,0,0,0,63.53599118,0,0,-104.7611161,-74.31606827,-79.64116189,150.4678747,0,0,0,-43.71522745,0,0,,,,
576.0559996,2250,0,0,0,22.47954271,0,0,35.97259456,122.2812999,132.5432753,-244.108288,0,0,0,-2.658215422,0,0,,,,
576.0639996,2250,0,0,0,-110.2076592,0,0,366.9813025,-120.7950185,-142.3156436,222.4862774,0,0,0,38.6094155,0,0,,,,
576.0719996,2250,0,0,0,122.2896646,0,0,-313.4900615,65.89560058,71.87501819,-140.8199867,0,0,0,-75.20333832,0,0,,,,
576.0799996,2250,0,0,0,-148.7986775,0,0,481.7035321,-11.97763257,-30.79983978,-12.716617,0,0,0,81.04343841,0,0,,,,
576.0879996,2250,0,0,0,37.06420217,0,0,-86.73261763,-100.8094467,-99.62543392,141.0083823,0,0,0,-29.98642457,0,0,,,,
576.0959996,2250,0,0,0,17.64586108,0,0,51.2913327,104.4146617,122.0367398,-257.8670966,0,0,0,-12.67632001,0,0,,,,
576.1039996,2250,0,0,0,-114.5591435,0,0,384.979759,-125.745879,-144.140535,218.1154431,0,0,0,60.52713785,0,0,,,,
576.1119996,2250,0,0,0,93.7328608,0,0,-268.023058,40.24670052,61.39626999,-146.0259205,0,0,0,-59.4192571,0,0,,,,
576.1199996,2250,0,0,0,-151.5218191,0,0,499.3987514,-19.37975556,-24.52162945,-13.70625602,0,0,0,67.00842483,0,0,,,,
576.1279996,2250,0,0,0,34.58899053,0,0,-82.80843558,-94.50505165,-75.08174593,134.5938821,0,0,0,-25.25915107,0,0,,,,
576.1359996,2250,0,0,0,-13.09072202,0,0,95.812868,103.4136984,131.1290091,-254.1226656,0,0,0,19.39418605,0,0,,,,
576.1439996,2250,0,0,0,-125.0705331,0,0,416.2623261,-126.3821716,-138.3085579,227.482447,0,0,0,74.93937563,0,0,,,,
576.1519996,2250,0,0,0,94.44788389,0,0,-234.0752417,24.47826479,84.02310615,-136.1215311,0,0,0,-54.24074179,0,0,,,,
576.1599996,2250,0,0,0,-151.0808031,0,0,542.9948308,-31.54780599,0.095303497,9.076465392,0,0,0,72.79335152,0,0,,,,
576.1679996,2250,0,0,0,41.02965574,0,0,-31.26192479,-81.74056579,-55.73889009,155.631278,0,0,0,-23.14293209,0,0,,,,
576.1759996,2250,0,0,0,-16.8878848,0,0,176.3924911,85.96950865,138.3160081,-228.7756056,0,0,0,23.74104622,0,0,,,,
576.1839996,2250,0,0,0,-123.280924,0,0,486.2153593,-155.0970839,-141.3030348,241.4610869,0,0,0,66.00453944,0,0,,,,
576.1919996,2250,0,0,0,107.5020148,0,0,-157.5666658,35.46591895,89.38859085,-130.0559031,0,0,0,-50.85027523,0,0,,,,
576.1999996,2250,0,0,0,-150.1962077,0,0,623.0059261,-43.72382695,1.014987495,22.8861852,0,0,0,87.13814364,0,0,,,,
576.2079996,2250,0,0,0,37.24984494,0,0,30.01289135,-127.0399958,-69.55561056,152.8046411,0,0,0,-39.68365257,0,0,,,,
576.2159996,2250,0,0,0,13.13088749,0,0,212.2283458,80.40758932,141.4021789,-230.7557803,0,0,0,-2.800639643,0,0,,,,
576.2239996,2250,0,0,0,-80.28495093,0,0,482.7593689,-130.8793539,-104.380122,242.2691854,0,0,0,68.47965287,0,0,,,,
576.2319996,2250,0,0,0,116.8051289,0,0,-145.4788911,39.15539972,115.5978394,-132.8651128,0,0,0,-41.35747322,0,0,,,,
576.2399996,2250,0,0,0,-141.5735529,0,0,650.6745614,-33.6016759,-4.552626786,26.65372536,0,0,0,80.92388367,0,0,,,,
576.2479996,2250,0,0,0,44.93345526,0,0,61.75559586,-119.9124141,-70.56474277,149.4506854,0,0,0,-32.32043725,0,0,,,,
576.2559996,2251,0,0,0,-6.592079025,0,0,259.7989046,54.0027489,141.9017457,-235.3189634,0,0,0,-3.711379354,0,0,,,,
576.2639996,2251,0,0,0,-85.3906277,0,0,515.2452522,-121.2285891,-118.5856355,228.7929888,0,0,0,41.67153279,0,0,,,,
576.2719996,2251,0,0,0,128.4699127,0,0,-115.2370923,60.72869016,97.46029246,-148.3815127,0,0,0,-45.76134361,0,0,,,,
576.2799996,2251,0,0,0,-127.690159,0,0,646.2390449,-41.96112116,-2.95357813,14.23992413,0,0,0,79.72147211,0,0,,,,
576.2879996,2251,0,0,0,60.14780433,0,0,32.77129342,-91.2131312,-53.59390599,124.6611965,0,0,0,-51.98794272,0,0,,,,
576.2959996,2251,0,0,0,-7.556883478,0,0,267.8724332,73.56216155,128.6991232,-236.1028155,0,0,0,-0.114372705,0,0,,,,
576.3039996,2251,0,0,0,-99.15981528,0,0,511.9701315,-160.021297,-131.5430587,236.0776572,0,0,0,48.13063352,0,0,,,,
576.3119996,2251,0,0,0,114.2211416,0,0,-124.1093327,38.33648914,107.7527425,-158.8587945,0,0,0,-82.1652252,0,0,,,,
576.3199996,2251,0,0,0,-106.3148433,0,0,633.2282679,-10.91840549,4.6832472,15.99916683,0,0,0,58.85178515,0,0,,,,
576.3279996,2251,0,0,0,89.79806167,0,0,6.896709821,-61.34083085,-42.42612379,132.1763923,0,0,0,-21.87222517,0,0,,,,
576.3359996,2251,0,0,0,3.106030657,0,0,249.8980915,89.13941086,131.5249732,-223.7484376,0,0,0,6.812033467,0,0,,,,
576.3439996,2251,0,0,0,-57.74989078,0,0,465.6412325,-110.0566409,-122.0629439,247.9203908,0,0,0,48.75437787,0,0,,,,
576.3519996,2251,0,0,0,129.6806977,0,0,-147.1921348,57.74367721,111.3608121,-142.8561564,0,0,0,-48.12584359,0,0,,,,
576.3599996,2251,0,0,0,-145.0412414,0,0,642.7241741,-56.39229265,-23.03015488,38.4961413,0,0,0,56.50305514,0,0,,,,
576.3679996,2251,0,0,0,62.16380095,0,0,24.90832696,-88.17955834,-71.42106779,132.7691965,0,0,0,-54.64945719,0,0,,,,
