Time:125Hz,Epoch,FP1,FP2,C3,C4,P7,P8,O1,O2,F7,F8,F3,F4,T7,T8,P3,P4,,,,
189.0799999,738,54.38406059,128.3514721,0,0,-53.03536232,-83.0814517,-115.9167354,-98.37253457,14.9460354,-3.967139552,-196.1050945,-943.4199741,0,11.68108957,121.7168089,-57.8443062,,,,
189.0879999,738,-38.81141137,-19.41459227,0,0,-1.125274405,-155.5545869,-19.14018955,-18.15695007,-39.50045317,5.086156105,130.2192749,347.1868985,0,29.25315625,-176.9733519,-85.92529594,,,,
189.0959999,738,-201.7387058,-266.8138668,0,0,55.54245103,-125.7663901,96.19318738,8.592726441,-41.10942859,-22.17148174,-253.9045254,-900.0802147,0,-27.81645709,5.278201452,-18.61622169,,,,
189.1039999,738,158.7466013,295.4109176,0,0,-84.36970627,-80.12554404,-203.8503991,-103.9748505,25.62859619,9.257497329,46.7690307,-220.1600823,0,21.83110685,30.46740306,-105.3850387,,,,
189.1119999,738,-242.5979936,-344.1440981,0,0,106.1807445,-163.3594138,152.7377808,67.52046735,-87.65008183,-5.451814545,-57.30596345,-133.910327,0,-12.59800413,-201.0561967,-28.17278684,,,,
189.1199999,738,53.78701282,130.4099209,0,0,-33.87263878,-60.3775043,-115.3281696,-71.34592937,38.32062734,22.56114079,-189.4341649,-1024.859946,0,19.16513428,110.9713788,-37.39505952,,,,
189.1279999,738,-9.329500304,8.664106563,0,0,8.196586827,-136.4616914,-32.86131478,-3.752523284,-19.82456705,17.19398219,149.4611115,283.8830145,0,34.75792861,-175.1619708,-84.28640819,,,,
189.1359999,738,-182.4813272,-251.7284721,0,0,76.37186138,-117.9663594,112.8244215,34.01377924,-20.78534489,5.874059924,-236.1699152,-953.5730128,0,-3.045529848,-15.62080615,0.171019512,,,,
189.1439999,738,266.3312559,459.9672483,0,0,-129.0279965,-25.15645885,-279.4871116,-149.3378945,107.6946072,36.38119958,4.037191224,-673.5675656,0,54.36732755,146.1908059,-87.66082699,,,,
189.1519999,738,-199.4707518,-299.6129391,0,0,86.64752768,-101.7751071,130.4608735,32.92614801,-6.020370235,-23.35243279,-196.2140874,-931.9854845,0,-28.0439234,2.662780445,-9.843849513,,,,
189.1599999,738,-150.379989,-211.0517885,0,0,59.62728546,-43.73483491,76.81624896,-12.07121995,49.53904144,-15.76502754,-502.2857784,-2118.503623,0,-38.55535136,262.8369172,37.82434622,,,,
189.1679999,738,26.54844375,66.06225207,0,0,-17.47278511,-64.73396887,-67.24429299,-55.1069118,49.96204297,3.734699931,-101.3876233,-816.8250624,0,9.489647002,80.0610626,-44.38636832,,,,
189.1759999,738,-89.97476244,-119.53365,0,0,33.70717316,-77.89828559,31.97649733,-8.37424409,16.86115167,-13.06971556,-140.2754825,-837.3100207,0,-8.916873047,36.39137882,-27.93946987,,,,
189.1839999,739,63.62374726,130.8638728,0,0,-41.40496276,-61.3295439,-103.6288921,-52.87602102,20.38600102,2.232803661,136.824678,15.54481223,0,30.24645582,-60.79220333,-90.20963627,,,,
189.1919999,739,-170.2761596,-238.847536,0,0,66.99748435,-74.70391705,105.253217,37.83682789,-42.33094885,-14.28003978,-54.98512479,-418.3737029,0,-9.423517329,-78.92732673,-30.59446303,,,,
189.1999999,739,51.57803604,115.2737358,0,0,-12.61327615,-15.16970427,-70.73822677,-35.37661922,33.33017438,27.71345748,-107.164444,-872.7745555,0,28.16991399,99.89509069,-23.87720837,,,,
189.2079999,739,-18.46261673,-12.37302476,0,0,25.62743054,-87.88437556,5.87551581,19.98564391,-27.01846269,30.82474161,177.5855279,265.8821936,0,53.16097916,-167.5701928,-52.9331381,,,,
189.2159999,739,-140.7455069,-204.8068033,0,0,69.51397677,-63.41888106,98.08275824,26.79201643,-12.53864628,11.209986,-191.3090809,-999.7938864,0,13.21069829,40.97804038,13.99286327,,,,
189.2239999,739,148.0897619,253.8124983,0,0,-56.66266917,-43.71827596,-144.2300723,-59.77674904,42.42680753,39.21151473,102.8649725,-223.6362167,0,63.47654593,-2.685533118,-61.4592983,,,,
189.2319999,739,-184.9280718,-292.5796466,0,0,78.28507682,-124.0167839,139.4565997,65.73177641,-50.23066274,-8.35781964,-2.087924413,-213.8385159,0,6.843789322,-157.3511449,-20.80605328,,,,
189.2399999,739,67.10185249,101.4625556,0,0,-28.74864727,-45.77608489,-76.31420409,-52.5454772,53.23231581,15.29750275,-135.5368108,-1019.999236,0,24.60566441,122.6817165,-25.48469557,,,,
189.2479999,739,23.13555498,33.95692434,0,0,5.986123306,-100.9525474,-17.90873002,-0.310004743,3.570319259,30.24577856,184.3126225,228.9527628,0,45.70198085,-161.8084622,-58.32170493,,,,
189.2559999,739,-176.3567085,-260.470726,0,0,63.10643824,-85.2310975,124.1118096,32.82457888,-3.329523573,-4.51720294,-164.3717186,-922.3446276,0,-3.720817617,18.59950675,9.467163562,,,,
189.2639999,739,182.4396833,297.4775096,0,0,-90.43527633,-48.81509675,-171.060069,-82.2430541,61.95205535,33.53833551,102.6605514,-343.2788171,0,61.14615206,56.20579552,-63.11116002,,,,
189.2719999,739,-179.6766644,-295.8462898,0,0,82.7848106,-147.2716262,158.2452318,67.13988214,-58.21573368,5.583774566,19.81016083,-150.4912817,0,7.06865804,-187.2802788,-9.647592886,,,,
189.2799999,739,52.54157506,87.49280792,0,0,-35.27464188,-57.55454474,-67.01985307,-63.06251083,52.32955957,8.383476262,-140.9409507,-1075.310281,0,9.758398468,130.8938234,-22.43483121,,,,
189.2879999,739,29.9762983,50.57957343,0,0,-22.7284927,-121.7324334,-48.50660548,-27.16499932,0.076986025,8.987702224,216.1476813,249.4867431,0,32.73859175,-130.1535753,-72.78476514,,,,
189.2959999,739,-189.5073769,-288.8502442,0,0,68.78478211,-126.445422,127.0146522,30.27514147,-26.2877564,-19.68648524,-150.1663079,-861.9467944,0,-23.3114742,-8.105072003,5.225282701,,,,
189.3039999,739,196.2872729,309.975759,0,0,-97.20601958,-77.91384194,-194.4851261,-96.89982632,68.35323867,20.18764218,91.94920369,-400.7715798,0,39.44994296,53.13396538,-66.57585789,,,,
189.3119999,739,-182.9906336,-304.3313428,0,0,68.93244443,-195.4821049,135.0974376,56.07006567,-56.97263919,-5.476084624,48.84269988,-78.08050584,0,-6.244272913,-202.0566359,-21.39560013,,,,
189.3199999,739,49.80042815,77.37640188,0,0,-36.83930982,-104.6352308,-72.23943306,-55.10635518,34.53604663,9.306380346,-153.0769805,-1101.284819,0,5.013261299,109.4316335,-24.39803644,,,,
189.3279999,739,58.66675591,72.17085185,0,0,-28.19961965,-145.3356432,-50.00532843,-15.36901424,-5.192321485,18.01385165,203.9832668,223.6576798,0,43.65514653,-160.0477248,-69.54299921,,,,
189.3359999,739,-177.6439113,-292.6360112,0,0,68.97161141,-139.8305877,146.2920455,39.2689725,-29.73133232,-19.89862358,-147.4175544,-834.8044719,0,-21.64685691,-29.36562439,-1.615564442,,,,
189.3439999,739,207.3253937,325.0470192,0,0,-97.52150881,-64.9506394,-186.1220561,-95.76863655,57.05574841,18.62548478,81.7214577,-428.70941,0,38.19177275,56.82329628,-80.46552605,,,,
189.3519999,739,-171.9179486,-292.5312069,0,0,67.41676499,-156.9370181,148.4313407,63.53728034,-67.75014518,-1.597182958,52.66206504,-46.98067686,0,7.745442573,-216.503629,-26.24235084,,,,
189.3599999,739,50.47511839,67.37619972,0,0,-37.92704607,-72.45842945,-53.86838678,-55.64947712,36.45125514,8.422749214,-157.7942273,-1112.315042,0,10.90621509,109.7427177,-27.4850123,,,,
189.3679999,739,63.8985239,83.41932353,0,0,-36.47859959,-134.8662051,-62.9760541,-33.01740206,15.2235204,23.65443703,204.1364601,206.7592518,0,51.79298198,-156.7120585,-77.6405078,,,,
189.3759999,739,-188.9572268,-310.0169146,0,0,66.12331146,-146.23942,138.14739,26.64305379,-2.762505732,-17.28825033,-150.7259084,-832.0625867,0,-14.2855961,-43.72563316,-10.72537539,,,,
189.3839999,739,203.0596283,311.6466136,0,0,-97.10389576,-80.79891423,-191.1835599,-112.6345161,82.95463235,14.8803526,64.82050887,-479.098457,0,38.77968851,61.25893817,-93.35311971,,,,
189.3919999,739,-174.1994411,-292.8788673,0,0,72.99211134,-180.5659948,138.6994778,43.81641345,-53.11708951,-3.112626507,47.17623262,-51.99212424,0,8.085337343,-221.9384385,-38.4856248,,,,
189.3999999,739,34.90188543,48.36249728,0,0,-31.6687479,-91.58137965,-60.77859923,-72.47655565,33.72049643,-8.118850949,-173.395509,-1141.565627,0,-7.978109624,113.0037323,-43.09262134,,,,
189.4079999,739,60.6931867,85.27343484,0,0,-44.82953022,-146.9199628,-85.50374295,-59.05725202,-8.455659339,-1.05418275,201.8475957,186.0223105,0,29.26070738,-136.4790857,-101.1752127,,,,
189.4159999,739,-204.9727754,-325.2352501,0,0,57.68239341,-160.8909486,121.925419,1.869442401,-40.30226538,-30.21999563,-141.6938744,-816.4822473,0,-21.04849887,-35.43846561,-23.30034189,,,,
189.4239999,739,203.5494328,307.3275486,0,0,-103.8421788,-82.07559289,-207.165233,-129.094096,53.882199,7.040854897,61.03330636,-511.539489,0,29.48604293,76.73589185,-97.78109233,,,,
189.4319999,739,-158.1989727,-281.7064181,0,0,67.29909255,-167.4398476,119.3962475,30.40881897,-60.76596033,-7.217479679,62.96435705,-39.54924716,0,4.20762481,-215.1039294,-43.74782478,,,,
189.4399999,740,31.35993802,37.74441096,0,0,-35.37174655,-71.52918858,-75.52185984,-89.14515674,57.28060052,0.754664845,-156.5511951,-1149.431223,0,9.600563626,123.0052044,-37.21147819,,,,
189.4479999,740,68.60721065,95.60829429,0,0,-50.42805656,-117.922882,-105.3304515,-69.92772613,23.37030936,3.533958406,213.4938537,177.4437195,0,39.27460219,-126.0618752,-100.0735164,,,,
189.4559999,740,-215.3490208,-334.938028,0,0,58.24490075,-128.6159594,124.0041793,5.146522838,-16.02031172,-32.12492976,-139.9662089,-800.7909311,0,-25.25790155,-50.11113025,-19.91368553,,,,
189.4639999,740,184.1221879,303.2087546,0,0,-107.9271875,-44.6106062,-211.0309244,-135.9906443,85.72847905,6.039056734,53.48158234,-544.0942596,0,27.00223911,72.92054271,-89.33081775,,,,
189.4719999,740,-165.469902,-267.1092959,0,0,70.42004244,-131.0579756,109.5465372,23.10831084,-34.95583651,-4.872894731,70.76415322,-16.231001,0,8.663094323,-229.0865328,-37.60517992,,,,
189.4799999,740,15.38259941,27.44585814,0,0,-19.89774455,-49.12799414,-71.3029825,-94.34811299,66.82881579,9.640960872,-173.1973459,-1156.428212,0,14.06057224,95.10553849,-25.64645352,,,,
189.4879999,740,70.34905373,106.7275379,0,0,-39.8043282,-103.4698802,-121.4589055,-84.49595791,27.75144283,8.936297637,196.2251658,161.709407,0,34.19142256,-140.1650629,-102.2136065,,,,
189.4959999,740,-210.4224853,-329.981821,0,0,83.65116637,-102.3984012,119.6780707,10.51355342,-10.438023,-15.77960502,-143.6176392,-783.4947068,0,-15.99132919,-68.16844179,-9.625039316,,,,
189.5039999,740,190.1749189,301.8923581,0,0,-93.35142135,-18.38516122,-216.0230555,-140.4640729,85.32465849,18.70160433,40.86186195,-586.9966711,0,42.62146439,72.6725053,-72.12338271,,,,
189.5119999,740,-162.521583,-267.6765019,0,0,62.39731572,-128.8740952,91.95559071,1.90250459,-60.53809397,-20.14089072,80.21584583,-4.443440961,0,0.173473318,-212.2748964,-45.98953207,,,,
189.5199999,740,7.235698159,19.30874496,0,0,-16.41507805,-41.33770871,-62.34394786,-88.38604867,29.37086085,0.355995935,-172.8190184,-1165.92872,0,3.479998078,111.8778442,-17.41366834,,,,
189.5279999,740,79.7195922,123.2563887,0,0,-43.75607969,-83.91925432,-110.0346023,-79.15988471,1.649818868,9.552172743,193.5523855,130.0508632,0,39.28870951,-126.5583938,-78.98039433,,,,
189.5359999,740,-211.8112026,-330.3186019,0,0,77.88105649,-105.1859842,131.9202592,11.17918508,-35.33794661,-15.56083536,-131.8217839,-758.079959,0,-11.54074932,-55.12864726,5.861845268,,,,
189.5439999,740,194.427839,312.6725749,0,0,-88.92532634,-25.63601395,-210.335765,-126.1764385,66.83364028,40.90192726,35.78451304,-596.0207384,0,48.57338139,85.04939505,-46.71040689,,,,
189.5519999,740,-145.5552581,-251.4510103,0,0,65.20183784,-125.5468045,94.918198,15.67565168,-61.66535097,10.77956599,73.82524276,18.19472481,0,17.70233739,-233.28342,-15.5939048,,,,
189.5599999,740,16.27063709,14.79977311,0,0,-13.67351254,-39.65061185,-48.36764427,-75.13509562,36.00610766,31.20408492,-186.4626823,-1158.32008,0,31.6680006,90.65398996,15.85982587,,,,
189.5679999,740,104.2399564,138.0647474,0,0,-50.35161402,-88.87354599,-114.5877037,-73.90415818,8.279241245,42.23633255,186.451577,139.4017721,0,61.39862166,-142.5948677,-46.54801707,,,,
189.5759999,740,-208.2833727,-347.0387419,0,0,66.9945726,-110.5442199,127.9600158,1.817927791,-29.77512152,-19.17429784,-122.9067576,-688.2226049,0,-14.37301123,-80.8443496,13.25724884,,,,
189.5839999,740,188.9996,311.7953877,0,0,-99.63819212,-15.25139372,-211.4809342,-137.4557461,85.97929876,30.14021889,43.54744227,-554.8038827,0,57.84624353,87.81106897,-44.12327904,,,,
189.5919999,740,-143.1324108,-228.8464775,0,0,61.15136803,-121.3252786,90.42299993,11.74686519,-35.26886046,23.37435036,98.15912748,93.34780854,0,27.95650121,-234.6976275,-0.984550751,,,,
189.5999999,740,6.568228735,9.818941676,0,0,-9.451777915,-35.90518784,-51.04838186,-85.52896341,49.88982719,23.27477793,-168.087811,-1102.941955,0,4.42729889,90.96126468,12.64258989,,,,
189.6079999,740,108.5386813,166.2162768,0,0,-48.85114376,-63.98147462,-124.3509705,-85.74138987,25.23837578,42.06051385,203.1022055,178.0522136,0,58.76026538,-132.8829216,-46.9720862,,,,
189.6159999,740,-212.6384392,-335.449571,0,0,75.25802303,-106.2339961,139.4532083,4.174034749,-13.39512631,6.550615228,-103.5112775,-628.275206,0,9.449319384,-93.11007645,40.30230304,,,,
189.6239999,740,220.5161277,372.5062178,0,0,-120.9868351,-3.676471214,-243.0066827,-174.6952076,107.7501357,32.8772056,-43.54336299,-975.6776134,0,56.6445294,206.8197089,-17.3413887,,,,
189.6319999,740,-243.5085624,-362.3579527,0,0,81.4395568,-119.600908,156.3417644,13.46716111,-53.07038257,-10.47838652,-72.03984089,-528.9536722,0,9.017999405,-110.3251607,41.77425423,,,,
189.6399999,740,-360.4152832,-541.0300272,0,0,124.0549932,-95.69709209,244.7956541,24.29059017,-29.38934957,-30.6066444,-403.5171867,-1646.304665,0,-34.63221425,81.35819868,100.3631604,,,,
189.6479999,740,-24.05101111,-13.72192494,0,0,-14.01730565,-64.71976061,-31.19926451,-73.69494445,20.50335768,7.67414916,-63.70156486,-743.6383071,0,28.81183409,46.62128762,15.55130163,,,,
189.6559999,740,-129.2308348,-179.8575854,0,0,35.73679995,-85.66497719,65.02535545,-25.07966516,-13.27138137,-1.163163113,-56.80633816,-584.3256273,0,18.74549876,-31.77321257,30.02081244,,,,
189.6639999,740,141.4286781,245.502742,0,0,-63.11879117,-41.55043585,-142.569491,-97.26067526,45.27480687,35.27728684,164.6040094,-42.03400823,0,64.51630978,-17.87663695,-20.99437589,,,,
189.6719999,740,-114.9609303,-170.5119139,0,0,57.20975826,-98.04603201,91.39824417,6.680935351,-18.20372997,30.44201935,56.56348306,-115.8946995,0,34.03140762,-147.2483193,43.03993157,,,,
189.6799999,740,8.644263288,32.25760796,0,0,-8.195750806,-42.53180959,-25.3063251,-64.00993636,42.70996481,38.36964945,-92.82001064,-837.2805356,0,33.76490856,47.58524672,50.60673235,,,,
189.6879999,740,98.06534002,160.8520533,0,0,-35.76847654,-71.84112306,-83.15195509,-61.9363819,8.846783072,47.53999693,226.6643239,294.3892725,0,64.77280793,-151.3255169,-11.88405768,,,,
189.6959999,741,-179.7712845,-272.622499,0,0,78.09817827,-89.48164776,146.4453579,17.2676333,-12.42528796,14.53912229,-88.06755472,-618.3848911,0,2.640507182,-59.67108346,64.84602729,,,,
189.7039999,741,181.6399875,306.1089117,0,0,-88.16598793,-21.27232551,-169.1055357,-111.8781866,75.62523098,50.85532591,112.4800902,-307.270825,0,55.95637889,52.36973397,-2.508223656,,,,
189.7119999,741,-114.8329839,-166.9269699,0,0,46.03434267,-111.3533504,89.20637668,19.59520884,-43.90592976,33.91376218,132.3158601,169.9295447,0,35.3361893,-200.8468652,36.29996796,,,,
189.7199999,741,-20.77374379,9.911128374,0,0,-7.630503022,-42.50313153,-12.94582672,-47.89414108,29.87381409,40.03156566,-109.2432328,-893.6417949,0,29.65059426,74.02513622,61.05538893,,,,
189.7279999,741,118.5093585,213.8357134,0,0,-51.61138176,-68.16964863,-106.7984412,-59.79421138,17.555999,62.11558912,236.4720108,293.0987592,0,75.71256952,-125.7990741,-4.691682853,,,,
189.7359999,741,-192.180552,-285.6276233,0,0,96.65447661,-100.9770751,175.1936445,50.97386182,-25.07252469,33.43404324,-62.05239379,-469.9128184,0,24.92646369,-113.1713777,86.42207292,,,,
189.7439999,741,180.0312136,320.4999121,0,0,-90.11176199,-1.877146467,-164.0007941,-107.3756109,73.94013606,62.25864109,67.12400837,-447.6784946,0,74.78095923,48.32073892,21.03029083,,,,
189.7519999,741,-109.9151992,-157.6602921,0,0,39.22334499,-103.6321676,94.59485105,19.30302041,-52.99130045,21.41183704,159.2239658,280.2246751,0,37.21443021,-238.7488015,24.72296044,,,,
189.7599999,741,-9.950714124,2.955100239,0,0,10.97513941,-34.0593508,23.22642707,-27.28171781,31.87408745,32.6489988,-111.9418115,-899.6639368,0,29.11234219,71.27164242,69.19906013,,,,
189.7679999,741,134.744744,225.8092182,0,0,-66.36274383,-49.91234785,-111.4592004,-75.15087475,24.37816343,58.63552096,234.5738897,266.7525001,0,75.10712234,-121.7547865,-1.454623996,,,,
189.7759999,741,-219.9593963,-325.8676282,0,0,70.23617561,-109.6720026,156.4835237,22.82314202,-32.84780606,-8.677423349,-30.63754459,-360.5965423,0,-18.09888655,-110.6600514,45.7458282,,,,
189.7839999,741,182.2843603,323.38851,0,0,-82.55792058,-8.627630917,-171.6571319,-98.39071219,84.96964325,45.82906898,63.56712652,-459.6696748,0,43.71631254,89.57933862,8.021293416,,,,
189.7919999,741,-95.44188618,-142.6488446,0,0,48.05912018,-93.18582072,92.79319769,33.91955858,-34.54554456,41.94284996,170.3511089,353.6095154,0,43.85836591,-248.6395781,37.19644174,,,,
189.7999999,741,-32.55006368,-27.42803327,0,0,-0.320113897,-21.89129585,13.08888053,-32.10133904,38.54917073,20.01869019,-112.8459786,-859.8141279,0,20.66105177,73.88994363,56.20370072,,,,
189.8079999,741,137.1434624,239.9727698,0,0,-64.76432787,-34.98128051,-119.2376022,-61.19494709,29.10607846,54.78168937,230.979597,306.8884724,0,83.26857883,-115.1498506,-5.537209916,,,,
189.8159999,741,-215.4094587,-326.4043991,0,0,77.78181751,-89.63748305,173.4770099,42.39923584,-24.79687212,11.87838403,-27.00905173,-279.9681961,0,12.37419237,-132.3630293,63.51114391,,,,
189.8239999,741,171.8156877,303.8218334,0,0,-105.4804523,3.036564833,-178.0495074,-106.691431,81.71852063,24.36543787,70.37071954,-412.2959397,0,43.29339763,114.540693,-11.42196212,,,,
189.8319999,741,-101.2085061,-136.4609651,0,0,30.69638191,-92.45360896,81.00973301,35.96968749,-49.83036692,11.42592234,192.436037,472.6507333,0,31.87040468,-223.0366683,5.18458343,,,,
189.8399999,741,-35.84365155,-26.01821558,0,0,12.92528243,-15.27107246,35.43021185,-5.198662742,34.88523683,34.74812013,-120.700617,-797.1000204,0,35.48149425,73.25810878,64.32854769,,,,
189.8479999,741,153.5723993,264.7038884,0,0,-60.80474498,-21.21189686,-115.6589144,-40.42763526,27.48521397,64.87118005,225.8663879,352.710429,0,96.70800972,-103.2268033,-11.20120119,,,,
189.8559999,741,-201.5575445,-305.1540775,0,0,92.12319012,-72.77713092,185.5931714,79.90391261,-31.91030072,21.26996817,-26.24808777,-194.7235246,0,28.13058252,-138.9017027,58.0748172,,,,
189.8639999,741,195.5244692,328.9803134,0,0,-74.6573128,30.59954581,-144.5988291,-58.0472048,97.97944625,77.05429703,37.22925985,-430.8099184,0,92.6864089,78.33930955,26.75887421,,,,
189.8719999,741,-77.96998454,-118.8895243,0,0,36.4701068,-73.37740513,93.89448014,48.7100329,-21.38094271,40.13960878,182.1814083,487.5458127,0,59.40708313,-262.1649374,15.66073323,,,,
189.8799999,741,-38.99084919,-46.35540022,0,0,12.21858123,-11.88961543,48.76328264,-5.502627243,61.78756499,15.73863004,-119.5636752,-768.8104429,0,14.00235719,61.98825427,41.66371517,,,,
189.8879999,741,170.115854,272.4099018,0,0,-51.58754496,-11.56876967,-100.2844649,-32.7089581,60.85409094,67.24468572,215.4325288,333.6857856,0,94.98227254,-114.2408285,-5.505539939,,,,
189.8959999,741,-205.2943072,-323.9664993,0,0,96.39071014,-71.22174343,198.1671266,70.31788132,-18.644541,13.90531585,-22.63553992,-164.7182145,0,29.54427577,-156.3160399,61.43060525,,,,
189.9039999,741,173.4363663,300.4772327,0,0,-78.80880498,16.23694548,-148.1570754,-82.44059905,88.27757489,25.02428864,50.61863766,-394.0527077,0,53.11167758,113.4046209,-1.129335261,,,,
189.9119999,741,-66.97562852,-101.6643647,0,0,45.76573342,-84.17174853,89.37963672,50.49053981,-36.10652895,16.43066261,202.5793674,561.719224,0,41.20745116,-233.3265968,11.13460076,,,,
189.9199999,741,-37.90572652,-46.48088865,0,0,26.3792765,-19.02786809,27.89693546,7.83746885,37.94926683,21.03950239,-113.1449361,-714.2567283,0,20.11795227,73.6783527,62.05603795,,,,
189.9279999,741,169.5151696,289.6458978,0,0,-59.08379655,-22.62922141,-262.603892,-34.01068602,32.00117342,62.4427924,222.9161198,369.1535368,0,78.75268194,-82.78748952,0.209664335,,,,
189.9359999,741,-200.1077405,-308.577896,0,0,91.10413091,-88.28837563,-100.7813982,75.48700918,-35.99028687,13.85378914,-5.770025423,-87.69776415,0,6.43180984,-147.1720961,63.29122424,,,,
189.9439999,741,180.9880079,303.0651233,0,0,-88.12408463,1.913895173,-473.8132435,-89.16053143,86.03548184,36.7729509,49.66687418,-376.0218489,0,47.53792384,118.6237385,4.333981625,,,,
189.9519999,742,-59.96323157,-88.74223618,0,0,21.84901401,-95.33083653,-239.4572387,28.59957367,-45.13948769,27.50217983,206.4773472,604.9946441,0,45.96799354,-237.3879857,13.19751091,,,,
189.9599999,742,-59.76445766,-65.35878917,0,0,-1.297303514,-33.9914925,-278.3940473,-19.24933507,19.81702488,-0.74471241,-102.7047708,-647.0653245,0,0.748734411,78.3700972,42.40363781,,,,
189.9679999,742,164.1441014,293.8559982,0,0,-88.13179979,-36.38709185,-442.6257705,-57.79353252,14.513751,35.93745799,240.0654261,432.0669702,0,59.74537625,-49.33726192,-25.12653831,,,,
189.9759999,742,-200.3341289,-298.0295982,0,0,86.40576992,-97.5660878,-125.0019317,87.89851206,-59.85459485,23.68745429,10.53658344,8.131114348,0,19.84194715,-139.2480255,74.03539801,,,,
189.9839999,742,171.8423343,307.1451523,0,0,-74.25620651,5.124202192,-469.0950761,-65.78427957,63.24242957,45.01383383,49.49644123,-338.2169394,0,48.30585121,128.0059908,20.15586281,,,,
189.9919999,742,-52.91734075,-62.83659947,0,0,47.6587706,-88.20457863,-242.5370438,49.69711646,-62.89063605,34.35105386,221.4486338,667.6942482,0,35.10506665,-226.7097923,24.25298156,,,,
189.9999999,742,-59.66281812,-60.87523893,0,0,41.28147236,-27.64003087,-259.8019301,8.973971746,6.560523902,33.44026495,-102.5144621,-611.4849484,0,14.6902953,63.05851408,82.02058467,,,,
190.0079999,742,176.3931161,313.6755562,0,0,-53.11678984,-22.07544638,-452.3550412,-49.78249817,11.20967138,61.08164566,234.2317427,423.8307501,0,68.85017163,-63.14573922,0.477205208,,,,
190.0159999,742,-206.8936428,-299.1290563,0,0,107.7437236,-93.26099332,-134.6147407,75.66137746,-55.12482996,19.08119225,31.68043944,69.59754124,0,4.423027703,-148.2327132,66.29516034,,,,
190.0239999,742,143.1688351,283.7391793,0,0,-74.95540525,7.114925597,-479.2565112,-84.05842207,74.11351862,39.70257036,55.3323242,-313.3227495,0,39.03227337,131.1075614,16.25752709,,,,
190.0319999,742,-57.82640855,-55.21908534,0,0,38.59422974,-76.34661897,-270.5315592,44.33026659,-52.21149314,29.58064887,232.4829015,724.197959,0,37.38458359,-224.5085906,20.83446659,,,,
190.0399999,742,-65.67772995,-66.52529628,0,0,44.95752741,-15.73721615,-265.3758377,20.95540657,22.40543008,26.61978446,-84.05294766,-539.7085099,0,15.64520445,70.69429932,79.82922603,,,,
190.0479999,742,178.6041359,320.6982758,0,0,-68.30022525,-4.633565325,-474.5030433,-50.66081822,24.82308886,66.13767546,239.907272,446.5078364,0,73.89170912,-52.2597922,8.185050066,,,,
190.0559999,742,-197.0958648,-295.5393249,0,0,92.29383974,-76.59876649,-146.7398696,77.03071542,-62.45915689,21.15113344,36.30026215,123.7780457,0,7.525280831,-160.8728876,74.51061397,,,,
190.0639999,742,161.7676567,290.1132467,0,0,-70.74365234,24.98721704,-454.3681467,-62.51508916,67.90823077,39.19383157,55.00025953,-295.5320931,0,42.55521597,132.7484247,26.74955141,,,,
190.0719999,742,-43.89512751,-34.06244824,0,0,25.12200679,-60.12516705,-252.7364715,58.94658635,-51.76877848,40.74759736,243.2832905,760.4782425,0,46.87793165,-228.9589598,35.18135157,,,,
190.0799999,742,-79.3640505,-85.5824409,0,0,19.86423863,-12.42370524,-249.9533619,24.21959842,20.06459035,24.03785083,-75.75688946,-500.4977068,0,8.780678765,57.78381641,84.23316121,,,,
190.0879999,742,186.0597941,320.0928183,0,0,-90.45257669,1.354027227,-465.5182809,-47.24417717,32.30746698,51.59469606,252.3130159,473.2691188,0,61.08975144,-41.46746804,2.195852841,,,,
190.0959999,742,-197.8342736,-294.6019825,0,0,81.30345029,-70.10575001,-126.9012976,85.25136574,-54.079342,24.44394648,60.43256857,204.7702613,0,5.637572709,-159.1048288,80.84532719,,,,
190.1039999,742,126.656652,246.7832849,0,0,-57.81525584,40.23094184,-427.1757578,-66.7998718,87.75846785,44.75966866,-58.69507114,-724.7116617,0,27.33551047,233.4308795,57.70796565,,,,
190.1119999,742,29.19147069,82.54707236,0,0,10.42981057,-40.72461417,-324.0745096,17.62939461,-19.90924901,56.99447296,173.5012889,381.8692916,0,56.40269194,-109.6701831,45.72507531,,,,
190.1199999,742,-56.02552852,-58.26293222,0,0,28.03781639,-51.52367084,-257.873879,28.65821954,-24.08993314,46.99316988,74.22874497,85.795059,0,41.88342197,-82.80128796,72.89117759,,,,
190.1279999,742,-13.90193742,-15.10710227,0,0,11.72386682,-76.42251265,-267.2872277,38.20721795,-78.65434781,31.01090175,303.9131034,970.9913806,0,39.60977039,-260.5824486,13.66139531,,,,
190.1359999,742,-364.3445682,-582.7227486,0,0,177.8949288,-158.0870567,52.26482441,179.8652959,-180.0933788,2.353306812,194.0958878,1015.58172,0,-6.652307415,-450.065763,72.18753848,,,,
190.1439999,742,-61.78496604,-83.65264697,0,0,30.98888606,-70.04830891,-225.4244744,42.43160536,-58.10170514,31.26363104,168.2951659,497.3178551,0,30.13009927,-170.23244,46.55872507,,,,
190.1519999,742,-82.63805851,-119.228042,0,0,37.80472682,-75.00498306,-204.3096345,46.80067656,-61.21016584,10.90644219,146.7078718,427.1065965,0,9.423525986,-143.931037,43.41499779,,,,
190.1599999,742,55.57876248,121.4932711,0,0,-34.62540654,-20.23812159,-342.6277838,-32.74241153,25.35546203,9.57004087,7.691122187,-343.3196135,0,5.648890345,124.8806303,49.26264078,,,,
190.1679999,742,107.1020006,191.9298752,0,0,-41.4171737,-50.14349451,-359.7649456,-11.69253513,-26.4974141,31.71973424,252.4935131,615.8015411,0,44.1127135,-101.2182763,15.23266299,,,,
190.1759999,742,-152.6120087,-236.4708814,0,0,76.25564363,-85.32760198,-123.8341283,79.85370309,-47.63296058,14.76575973,36.54084428,81.01730656,0,6.450478112,-100.7562457,86.01380029,,,,
190.1839999,742,184.657109,321.5948103,0,0,-97.10708817,-11.90824411,-441.6674672,-67.95521434,58.35659885,34.58548699,110.2916229,-91.08786318,0,41.46685652,118.8692037,30.49392657,,,,
190.1919999,742,-75.64038169,-97.35128136,0,0,22.33587772,-113.259463,-211.7294451,47.82229148,-82.50936903,-1.192127492,228.9726711,768.4801621,0,9.737304733,-217.0703683,26.01799748,,,,
190.1999999,742,-35.92988312,-22.31625488,0,0,7.312073155,-54.20924638,-257.1137554,4.851088722,15.88126013,-7.267204558,-28.76073354,-336.3584347,0,-7.273823483,92.98543308,60.89270068,,,,
190.2079999,743,167.0609209,296.2718244,0,0,-63.4681722,-36.97416322,-397.8705075,-29.34646204,26.8292927,37.91641714,237.0602834,525.7194071,0,56.56292473,-44.48752241,16.29816774,,,,
190.2159999,743,-176.2481569,-268.3434829,0,0,87.18775368,-111.1602873,-86.99512988,86.55573876,-37.19204001,-2.131271386,61.77462247,272.7497436,0,-9.869461331,-150.9607851,76.12099165,,,,
190.2239999,743,153.1346329,268.3773202,0,0,-74.35846249,-42.71366554,-395.7852255,-65.9337097,82.87160665,8.271446661,70.43751003,-167.3147436,0,8.730366395,158.5134266,21.03627678,,,,
190.2319999,743,-15.78908359,-11.84508421,0,0,27.12910358,-125.0613363,-211.9481655,50.09413049,-46.35405328,18.25977847,255.9366761,865.5410199,0,27.26276907,-195.2912184,28.12598294,,,,
190.2399999,743,-64.10362248,-84.12010487,0,0,38.53348071,-75.43702432,-181.7141002,31.16994324,26.74684823,7.259287405,-43.2358012,-294.6102975,0,-9.327366867,74.67909273,83.11241913,,,,
190.2479999,743,185.2054918,323.8123201,0,0,-86.58431112,-50.38617761,-412.8336888,-65.35021413,40.52181079,33.46609443,234.2779527,513.4320557,0,36.57371318,0.645899309,1.518119912,,,,
190.2559999,743,-179.9771135,-261.8685902,0,0,94.10405667,-119.6008021,-68.64760259,83.0971423,-50.92821985,1.008573606,82.71889101,401.1119748,0,-16.81216191,-155.2699023,66.39726267,,,,
190.2639999,743,146.4741771,264.7320888,0,0,-41.89159875,-18.44582961,-337.8514261,-36.6100329,86.85350914,39.00197624,38.50552473,-204.7699462,0,24.32720995,153.3387623,54.09544348,,,,
190.2719999,743,5.199736292,27.78520006,0,0,19.2136876,-89.36441487,-193.7455732,42.61547677,-24.06571638,42.72710079,257.5505402,896.186282,0,51.55798623,-207.1302796,47.25357231,,,,
190.2799999,743,-95.89981617,-122.8439579,0,0,37.80031504,-72.4906162,-126.5258072,28.14791392,36.38193231,-2.190069156,-44.9463882,-253.8533686,0,-12.30928319,67.41396465,84.64455048,,,,
190.2879999,743,197.132434,345.1036313,0,0,-99.58311971,-57.10013719,-384.6364181,-61.43105527,46.44753741,30.66528482,223.9690557,508.9774957,0,32.70474044,17.71851045,4.848071823,,,,
190.2959999,743,-178.0338999,-263.8575491,0,0,82.74918607,-121.553249,-42.99731775,99.37966005,-70.17183968,-1.383919892,78.71177172,451.5818758,0,-13.54636566,-171.3696392,74.80781927,,,,
190.3039999,743,131.6987388,246.1201062,0,0,-46.75228139,-22.85490726,-312.1962802,-23.14440755,64.40093656,31.48402518,21.89165415,-218.2213362,0,25.27566095,151.5354807,63.77721624,,,,
190.3119999,743,9.462605336,39.05079407,0,0,1.999225279,-100.4344103,-192.7277482,42.20891504,-45.52741193,38.00641946,253.4676794,923.9619196,0,43.12918805,-213.5998464,40.88991654,,,,
190.3199999,743,-113.1852226,-147.6548421,0,0,34.08118993,-67.71378472,-113.8783193,35.28340704,6.095196651,-15.9062449,-55.32628482,-224.1991112,0,-30.94511259,48.71826031,72.77333972,,,,
190.3279999,743,207.941784,361.0964849,0,0,-90.89577512,-32.77365165,-364.9077445,-46.28734602,33.86873966,31.71505529,212.3945788,484.572735,0,34.13785182,13.58503952,8.87343389,,,,
190.3359999,743,-163.7249445,-257.2167206,0,0,83.67887846,-106.8418952,-11.91410876,106.1086039,-56.86071023,11.79105693,84.47417801,473.7000079,0,-4.398783088,-189.6013715,84.12622593,,,,
190.3439999,743,124.7242881,219.4890197,0,0,-60.64586336,-9.708523173,-294.7011949,-34.22315713,91.86140873,18.22975438,27.45974766,-223.0852576,0,8.468035608,156.7061246,59.84308046,,,,
190.3519999,743,30.72858686,49.96487794,0,0,-7.916865764,-87.44941178,-188.5013566,40.34268121,-24.36003952,17.37514717,276.2759619,954.1321132,0,23.55540682,-197.9158199,32.15186175,,,,
190.3599999,743,-89.35239727,-151.0414104,0,0,35.92140692,-62.44314201,-86.02108892,47.87322808,32.97006758,-10.62388542,-39.27975827,-190.8410963,0,-29.73907504,41.86175838,86.85637066,,,,
190.3679999,743,226.4640577,360.7626043,0,0,-102.4485498,-23.29843907,-355.5091249,-50.35315749,73.15828667,33.80687084,221.4361963,472.9848308,0,32.28287041,15.36427551,22.57269333,,,,
190.3759999,743,-156.9824512,-257.6477841,0,0,80.98791009,-107.6445009,-17.83395102,98.46883946,-41.11712063,-5.9975136,110.4329527,532.2641252,0,-22.87517593,-186.9927887,72.32247875,,,,
190.3839999,743,121.7684114,213.509589,0,0,-49.14156961,-18.22874218,-292.6803243,-36.94731152,92.09073814,8.384415541,31.0857969,-200.0276897,0,-10.39584669,164.6444912,47.45264777,,,,
190.3919999,743,34.34543701,67.29896876,0,0,1.176413624,-86.63169884,-178.2549216,45.00160856,-14.43435126,17.12780122,278.1575209,973.8789935,0,11.09339907,-195.0318131,30.18167018,,,,
190.3999999,743,-103.3699084,-154.9686804,0,0,60.36624095,-59.87028824,-56.13295979,75.50857974,46.87718131,-5.601259858,-37.03908282,-158.1461029,0,-36.3565589,37.62955926,96.36205514,,,,
190.4079999,743,223.4562207,371.0229617,0,0,-91.57007931,-24.64086737,-349.4114783,-37.26832777,80.98552668,34.48633814,213.0079043,462.7544182,0,21.37924181,29.79182806,26.07588946,,,,
190.4159999,743,-157.6485387,-247.1286633,0,0,75.29947349,-115.1920147,-7.267477327,97.54078832,-41.52908518,-17.80152582,115.9713586,573.4447612,0,-39.71631135,-177.460069,70.36576561,,,,
190.4239999,743,119.8905537,213.325313,0,0,-47.2888215,-17.24045125,-260.6147874,-17.70844236,86.87271616,16.85185901,21.48756439,-200.0778193,0,-4.853197644,174.5301627,65.12961022,,,,
190.4319999,743,61.46976247,92.77677111,0,0,2.69703565,-71.44112634,-172.2126784,67.95321011,-29.14483411,42.32537151,269.932936,975.1997965,0,38.6934962,-188.3605245,50.7358089,,,,
190.4399999,743,-99.01905165,-163.2810839,0,0,63.27425136,-49.90340752,-54.35752163,82.20149935,22.88031037,-4.18615231,-32.59597332,-115.0913692,0,-20.21328159,44.6744414,103.422603,,,,
190.4479999,743,233.7918575,376.2830946,0,0,-86.44873838,-8.224193035,-332.7045699,-30.83323494,55.25564786,42.25981483,207.2653677,463.7092042,0,44.61622044,40.88391331,39.0053991,,,,
190.4559999,743,-122.8261039,-227.1859139,0,0,90.07153729,-87.32261143,36.62597603,120.1319709,-52.94407592,18.60490352,112.4799557,596.9182209,0,2.272020186,-194.6839331,99.2009404,,,,
190.4639999,744,134.1294777,201.3057359,0,0,-43.8793316,-2.391394234,-224.9972323,-22.21736757,101.8731287,24.81358223,17.8319777,-201.355527,0,5.071542849,182.5970758,71.06439699,,,,
190.4719999,744,83.73031817,103.7581114,0,0,-6.540830452,-69.79786819,-155.4194887,43.63206124,-9.134565747,29.45431392,276.9303115,992.2646313,0,22.26185446,-157.9331112,33.54746136,,,,
190.4799999,744,-78.08986645,-163.7093049,0,0,61.75595994,-44.52024159,-13.02146123,72.61106762,42.65977227,0.873561984,-31.0909725,-83.25977512,0,-26.43542541,63.75705658,101.2473336,,,,
190.4879999,744,248.378384,373.6298035,0,0,-95.31673112,6.506353213,-310.6794161,-47.50494029,87.62032031,40.04102052,196.1970135,451.6462364,0,38.29509197,79.73247459,29.80296668,,,,
190.4959999,744,-109.1880309,-226.3455064,0,0,91.40421462,-81.82066274,44.93192311,121.5377055,-18.8653115,11.5213585,116.275629,636.3107789,0,-6.61869105,-162.145664,88.72864139,,,,
190.5039999,744,135.9691678,179.0942917,0,0,-46.70520096,-10.52689022,-212.9637818,-13.83371519,134.4157328,27.50628871,14.43155806,-195.80602,0,3.615091794,212.5733157,79.94567769,,,,
190.5119999,744,88.5591669,95.96846976,0,0,-27.85137449,-75.90101258,-165.2465318,26.39232588,19.75647316,20.3565942,280.2179439,1008.850733,0,11.73851827,-126.9116186,23.80716491,,,,
190.5199999,744,-74.05727838,-175.456315,0,0,64.02807933,-54.12127545,-8.136411229,75.56525169,74.63483236,-4.163892449,-17.3876481,-25.10361211,0,-46.98356978,89.00325929,93.83591413,,,,
190.5279999,744,266.3652344,378.9533211,0,0,-95.88661638,-10.22228403,-306.7973812,-36.18061436,119.7447209,60.76116556,195.6358775,455.2206295,0,35.66879069,110.8410833,54.47617394,,,,
190.5359999,744,-108.3553014,-227.4934474,0,0,70.36226169,-102.5527107,36.55501455,102.1744378,-17.51359116,5.921978778,120.8261847,687.2708894,0,-19.28382361,-136.3487512,84.82875247,,,,
190.5439999,744,119.4106917,164.7083689,0,0,-54.00745381,-21.84398158,-207.0147696,-33.74382554,122.1120388,4.876255195,8.644744917,-153.7334422,0,-23.28796881,256.2791962,56.92685869,,,,
190.5519999,744,98.02796268,117.4133861,0,0,-26.64053155,-78.72837992,-146.5352434,25.69346034,5.709603994,41.62196781,260.8375612,1024.468492,0,24.83324199,-105.8084154,44.45196603,,,,
190.5599999,744,-90.66636345,-186.433259,0,0,56.74652085,-67.03299984,22.92906935,66.27093337,42.17805872,6.21550195,-31.21701108,11.03319011,0,-30.33633434,92.37222545,108.3651298,,,,
190.5679999,744,245.2852658,367.992252,0,0,-115.0724098,-17.40148169,-302.6391036,-64.4644557,87.13095385,35.97039184,187.3470089,479.8168982,0,23.97132646,146.7487303,29.15548354,,,,
190.5759999,744,-107.7904356,-217.1626108,0,0,61.62314158,-98.12979735,33.18288382,83.57005721,-34.5844835,4.480272113,115.6208158,744.5510598,0,-18.73422339,-130.5944991,75.10602957,,,,
190.5839999,744,111.0101274,163.7515684,0,0,-47.68885656,-16.71090785,-194.4196915,-36.83719092,120.6939758,19.88338004,-6.223692787,-141.275275,0,-13.01249758,254.9753905,68.67595579,,,,
190.5919999,744,21.81547662,4.762820589,0,0,13.91382021,-116.8263929,-60.0584027,77.55938129,-53.23294334,45.38005767,302.5950732,1376.05541,0,31.81897462,-235.9868209,57.0202425,,,,
190.5999999,744,-227.6364983,-407.2169034,0,0,124.8451009,-117.9147216,176.0700202,134.1121159,-17.1755571,-3.807001192,-57.51261018,160.6118312,0,-40.11313637,-12.5762813,141.211752,,,,
190.6079999,744,324.1724429,520.7415709,0,0,-153.6935953,10.25591042,-368.12142,-115.1578391,157.5748597,45.08074366,113.6195603,49.63982408,0,26.47257917,338.8185296,44.03089979,,,,
190.6159999,744,-77.58698716,-151.8423143,0,0,50.53879945,-115.2494757,36.03511283,90.63110232,-51.05891043,23.93972312,230.6735088,1184.541076,0,4.834785727,-206.7591776,72.41547551,,,,
190.6239999,744,-27.52571349,-68.09792344,0,0,4.698484961,-45.33496115,-33.4258095,13.94548953,93.03528268,-5.963263715,-51.29696489,-169.0658567,0,-40.57545554,238.3528042,96.75175552,,,,
190.6319999,744,253.148517,397.2299011,0,0,-115.6721887,-31.68807098,-271.1885208,-45.92701012,59.84566874,46.91000351,238.8204263,762.4911304,0,34.05958645,93.63014558,35.73404429,,,,
190.6399999,744,-158.9709564,-292.6248151,0,0,102.8605648,-105.2249075,144.414932,129.4910062,-52.42744657,16.24733542,43.67678705,601.3238011,0,-14.63207082,-131.0945818,122.8749376,,,,
190.6479999,744,182.4635157,271.2191946,0,0,-77.3659145,-2.429690559,-208.1740547,-58.78913006,115.3560398,26.91383975,17.50722595,-64.48516887,0,5.197483001,264.2888556,74.27781395,,,,
190.6559999,744,51.73367672,55.89952562,0,0,-0.218188087,-73.76510089,-63.51514836,42.28633923,-35.57521575,32.22333258,221.0133141,1075.180402,0,23.44036186,-142.536254,61.56773277,,,,
190.6639999,744,-70.55634828,-146.6120883,0,0,61.68372127,-42.89054097,50.33388818,64.92058958,31.16310735,2.980781879,-52.26654243,34.55315458,0,-24.68525142,97.59451382,116.7871853,,,,
190.6719999,744,251.2831731,379.2633755,0,0,-90.88485133,7.451892337,-236.7841394,-45.95067752,59.22370481,56.01444794,173.3302347,543.2626378,0,49.37933313,117.5630939,58.79058241,,,,
190.6799999,744,-110.4450915,-212.9135941,0,0,79.20003669,-63.73592254,116.5873862,98.40745914,-76.54200897,22.27772052,92.75649166,762.9760045,0,-0.190620061,-154.3443778,103.2635435,,,,
190.6879999,744,117.7866022,173.1474788,0,0,-48.96944243,20.6348317,-130.0495093,-40.32107284,67.05726731,5.941795135,-7.102249447,-68.23783961,0,-22.52038596,244.8208992,68.949042,,,,
190.6959999,744,97.51655278,133.9144405,0,0,-25.66385559,-41.14242076,-75.15181627,18.28139376,-57.87375129,34.30891228,237.3139627,1074.088307,0,26.18292687,-102.6407598,49.89984923,,,,
190.7039999,744,-106.7308938,-193.4229684,0,0,58.2917588,-46.22967007,103.4276643,58.68532786,-5.498671904,-8.272036227,-23.85845206,176.9349362,0,-34.42609916,76.59779509,99.42795974,,,,
190.7119999,744,222.0446386,357.8041839,0,0,-106.1919254,-0.994724585,-228.9934086,-68.7588672,60.38566183,10.97722522,167.8571946,528.251408,0,-2.449409471,170.4578106,21.0906846,,,,
190.7199999,745,-112.5941136,-190.3955368,0,0,67.59608243,-82.55600198,96.86157211,87.64413384,-69.17269249,-2.549518381,116.6791295,891.6486304,0,-33.97405129,-145.493472,79.69977927,,,,
190.7279999,745,75.14374804,128.1252801,0,0,-21.54091883,-2.874667089,-90.66065887,-17.31588313,85.45932962,16.56722922,-33.93731056,-57.62236695,0,-24.8101509,233.5096693,93.89872161,,,,
190.7359999,745,100.289552,161.116845,0,0,-24.71536196,-44.56908324,-89.36386436,9.182267872,-31.68150156,38.6490718,223.761234,1081.722739,0,29.83475886,-101.7869379,58.50035775,,,,
190.7439999,745,-129.763236,-223.9727941,0,0,69.71585164,-48.85098164,101.8408359,53.69608196,-2.967678109,-24.95050608,-32.94180821,242.63825,0,-40.49147884,51.73990181,96.5276572,,,,
190.7519999,745,225.7803027,351.7466219,0,0,-93.25488844,-1.182886076,-230.0077329,-62.71279703,64.37280104,21.35480556,135.6337172,499.2939205,0,17.17162978,165.0144969,38.25496436,,,,
190.7599999,745,-93.02110072,-185.514179,0,0,64.99937796,-77.77568156,101.0398497,86.72698451,-77.10365493,15.11785997,105.6743776,930.043711,0,3.943809396,-176.3995932,91.24515462,,,,
190.7679999,745,77.92225158,99.62961857,0,0,-26.43253337,3.968035045,-73.21666169,-26.59178187,77.26177418,12.45965507,-42.51705096,-42.35595514,0,-2.196490756,228.3830612,87.69013551,,,,
190.7759999,745,127.5297128,180.1804687,0,0,-35.11545707,-44.89206981,-87.04592682,-4.35991105,-29.88245414,49.61015274,227.109235,1104.614258,0,45.45158482,-85.28416096,54.18203181,,,,
190.7839999,745,-131.9965925,-231.8062205,0,0,73.36752276,-49.40739151,138.902733,54.29074877,-9.281625475,-6.813867924,-27.36115741,296.5248568,0,-32.46022151,44.21997862,103.5265136,,,,
190.7919999,745,226.5307434,357.5623145,0,0,-94.46916702,10.57320636,-205.3893608,-70.94363753,51.80466304,26.37071394,138.1241983,504.8404259,0,20.85794843,180.378096,35.7873078,,,,
190.7999999,745,-75.95188812,-162.5932934,0,0,63.94286203,-73.41010435,107.8447628,70.57819918,-103.3540304,17.06907513,128.7276134,995.0752466,0,-2.325261707,-165.3484654,79.09932099,,,,
190.8079999,745,70.59223214,89.35182351,0,0,-16.05008172,-0.415899554,-57.54451018,-26.94168943,39.4885929,12.28489558,-35.47823407,-12.1049278,0,-20.4222003,231.9907096,85.3163633,,,,
190.8159999,745,132.0765076,187.7902557,0,0,-35.28649735,-47.75749083,-94.19566964,7.904799721,-80.33708545,46.8836933,222.1607215,1108.319227,0,35.66321903,-92.60063543,51.95122379,,,,
190.8239999,745,-134.0000911,-241.1576766,0,0,75.68241123,-48.27292295,138.8132709,73.59829646,-62.62675115,-11.97438605,-27.02521336,337.5936558,0,-44.92710061,24.89055513,100.0534023,,,,
190.8319999,745,215.8895274,344.1676496,0,0,-106.2958458,20.5807612,-216.9382948,-70.49392945,5.68969951,24.65170643,124.7804079,497.5805848,0,3.791954052,180.3963197,41.24019711,,,,
190.8399999,745,-83.62180107,-167.7922335,0,0,44.93108796,-70.80418143,96.4555744,69.26082217,-155.2168766,10.89131716,119.4651753,1024.719635,0,-18.4854033,-172.9628074,75.97195099,,,,
190.8479999,745,57.53048923,77.42411187,0,0,-18.92985246,-3.435579688,-34.68072819,-7.887278674,7.330847167,1.16593796,-43.59262846,15.10712112,0,-37.8677224,238.3713037,77.83395723,,,,
190.8559999,745,143.3586875,200.1293209,0,0,-47.36900896,-48.75238729,-83.91841028,15.76243997,-92.86636096,53.69437645,213.1128952,1119.263419,0,32.80731462,-85.61464382,60.25341707,,,,
190.8639999,745,-125.4985663,-253.310749,0,0,66.21773325,-58.70938076,155.2673875,75.70069366,-86.62717736,-11.29133892,-22.70138167,388.5922675,0,-52.00747369,24.29177606,101.149699,,,,
190.8719999,745,225.7060371,339.5826844,0,0,-105.6111637,15.73079169,-181.896333,-53.72954648,-17.2908035,18.7861592,130.6704782,521.0965559,0,-4.549835807,206.5797058,38.51605018,,,,
190.8799999,745,-68.66972568,-165.3068343,0,0,34.53590922,-69.84566276,115.069778,78.40424502,-172.8549943,11.15068444,131.6537472,1081.806483,0,-17.02598018,-165.1062683,79.33304514,,,,
190.8879999,745,45.93010292,47.83881935,0,0,-37.61319301,-7.534331314,-36.42613737,-20.10152872,-17.65980139,-23.28220219,-25.69293529,78.64261877,0,-64.55141564,267.0382683,57.03640398,,,,
190.8959999,745,139.6132069,206.2958684,0,0,-53.21529764,-43.48482832,-77.43376766,14.25002931,-122.8669333,34.12828789,223.3696037,1170.060367,0,8.695147251,-47.92032737,37.34671656,,,,
190.9039999,745,-128.9696319,-258.5937721,0,0,74.54652488,-51.00934545,184.9049946,88.83662037,-97.36335108,-10.38811525,-28.90125622,442.0181871,0,-45.49817938,13.81164799,96.6454937,,,,
190.9119999,745,219.8971492,329.3591623,0,0,-105.4412559,11.16988057,-177.1493474,-51.74782427,-8.423173443,9.088342217,123.0791528,535.1403952,0,-9.479274456,214.9551945,20.80647735,,,,
190.9199999,745,-64.89970264,-147.3118427,0,0,51.26124462,-73.25214286,125.3135472,92.94086891,-176.1128531,7.141263269,130.4449399,1123.089351,0,-27.21034301,-165.618786,62.42463779,,,,
190.9279999,745,47.77801239,44.61785805,0,0,-8.074163577,8.115842111,2.910576283,-2.465710133,-14.20527647,-7.098783382,-48.58427562,69.91221108,0,-49.47216132,239.2983627,64.39286978,,,,
190.9359999,745,147.9511326,212.1709096,0,0,-58.83724911,-32.25074949,-75.12607361,3.458643746,-117.2511613,30.42472332,216.7229003,1164.576636,0,9.72147706,-49.7774228,20.9142589,,,,
190.9439999,745,-135.3036825,-255.7391639,0,0,68.7200892,-53.71356511,190.2522637,84.50227315,-109.8199398,-27.99908415,-12.75950873,502.2851956,0,-70.78677854,26.762296,65.1942895,,,,
190.9519999,745,222.9046711,340.9357127,0,0,-102.3880951,21.2966993,-159.2490612,-57.12121738,-5.831154276,19.46572971,127.6911156,545.2228199,0,-10.18636482,239.4200469,17.9663121,,,,
190.9599999,745,-50.66823662,-129.2714761,0,0,38.61183402,-69.3089536,129.031903,82.8080403,-181.0355989,13.35494303,143.6190532,1172.957734,0,-23.75335919,-150.9815061,55.9648911,,,,
190.9679999,745,49.79888104,43.84206523,0,0,-14.08361981,15.65525112,25.97454735,12.39913724,-32.26662929,-6.046441054,-45.60939063,107.3814038,0,-55.0334385,246.4379457,63.46360368,,,,
190.9759999,746,162.2879968,234.0925073,0,0,-64.32989373,0.076619757,-57.03573585,14.77089713,-120.8584245,52.09057267,219.1251264,1178.936605,0,29.44922848,-42.53213949,40.81049675,,,,
190.9839999,746,-143.4972663,-262.60394,0,0,65.24278806,-34.36588166,215.2692296,97.41613741,-121.0367519,-8.213368915,-15.6696218,543.0326322,0,-42.97725772,3.182071341,88.1291453,,,,
190.9919999,746,211.9843187,324.6403788,0,0,-99.28515789,33.98458511,-116.9843182,-31.23654992,-15.60574928,23.73201787,101.1557924,530.3843821,0,6.074589402,216.3813892,35.36438723,,,,
190.9999999,746,-48.06808671,-135.6996247,0,0,32.88234343,-58.06840545,157.6499506,95.51424096,-181.9401625,11.32061762,133.3401301,1196.069547,0,-6.3918625,-174.3313158,62.41932614,,,,
191.0079999,746,32.4606635,6.907227053,0,0,-27.3180863,-2.314003269,35.40572846,10.63860847,-31.39882526,-16.87555843,-59.42384202,120.9261666,0,-50.7785816,227.997877,61.09937966,,,,
191.0159999,746,168.7679353,224.8078599,0,0,-79.68700648,-39.5829864,-59.96807657,8.503792349,-108.0070373,30.32802077,207.7712416,1184.841909,0,17.30111569,-42.90238446,26.7365499,,,,
191.0239999,746,-132.9995322,-271.4059827,0,0,57.30839791,-85.37125927,228.7301455,90.75650609,-103.2184185,-22.94170092,-11.4993492,592.3675924,0,-53.27736262,-9.654053633,75.28849611,,,,
191.0319999,746,210.1386606,322.0503708,0,0,-110.5033853,-18.99163536,-111.0737922,-40.2468032,6.701284602,21.83230574,99.08338951,528.7315186,0,-13.24560493,213.6426452,26.10647448,,,,
191.0399999,746,-41.73961556,-120.1389945,0,0,22.48738513,-110.6358567,165.9241714,96.2451643,-153.5608837,13.02315933,144.458119,1229.509374,0,-27.90765207,-182.7317494,53.99600459,,,,
191.0479999,746,26.91732091,-1.238523716,0,0,-23.21320282,-53.68288663,63.84455151,12.64291833,5.422070179,-20.10708279,-48.18693386,152.4904208,0,-65.96074498,225.7143442,58.65402953,,,,
191.0559999,746,166.8626688,234.0922561,0,0,-78.98875142,-74.74853815,-56.68695571,1.213455466,-68.75403557,32.20799025,213.0248879,1196.955074,0,0.078359115,-30.88200566,22.72492903,,,,
191.0639999,746,-143.0166219,-287.9612569,0,0,54.40817714,-108.7961285,232.7024458,92.01575818,-74.70520687,-31.50348992,-6.316364114,645.7597897,0,-80.26990387,-15.88884263,59.3439045,,,,
191.0719999,746,201.8910777,297.9511725,0,0,-117.0240949,-33.4153761,-106.1425947,-42.29584461,40.46939082,3.592088645,100.6993836,556.196252,0,-36.3423583,225.4095044,8.658398588,,,,
191.0799999,746,-174.9759161,-352.3530843,0,0,97.35264699,-163.5241293,323.526993,176.3872338,-215.3080233,21.9336872,199.3947731,1757.801242,0,-27.56504588,-419.0102422,69.46360152,,,,
191.0879999,746,-322.6186546,-597.9081756,0,0,157.418177,-145.6045309,446.6339294,187.6860542,-134.2433875,-29.65260949,-53.69755456,759.9011165,0,-92.68729107,-172.1684117,101.9466726,,,,
191.0959999,746,140.7395267,192.9295224,0,0,-68.2585882,-46.73141215,-13.56476855,7.839379768,2.372377745,21.45990275,108.2533064,730.825268,0,-23.6251632,111.4026988,36.3763419,,,,
191.1039999,746,71.11249586,76.64293473,0,0,-19.15968056,-46.24059185,75.01633821,47.73734231,-8.723246979,25.91016742,64.70994017,676.1669114,0,-22.61001127,70.63503156,62.88336766,,,,
191.1119999,746,38.87732619,21.85035368,0,0,-6.610217224,-54.1787245,102.0668326,59.37358598,-43.1804759,24.87752978,95.26722491,886.4706018,0,-20.74662225,-13.23435076,56.69432102,,,,
191.1199999,746,2.620621855,-43.26880447,0,0,0.032818649,-47.63221024,124.5457155,55.98095977,-24.79263821,10.9248445,58.01028678,751.439464,0,-46.12823462,30.91294516,58.87351266,,,,
191.1279999,746,124.6132638,153.6755794,0,0,-54.92974569,-13.63451178,8.787881902,4.460822692,32.83920863,9.304862581,76.60905156,647.4434022,0,-43.18293956,146.2943106,37.52535153,,,,
191.1359999,746,13.11993193,-48.80487586,0,0,13.89373802,-63.66682125,138.5520962,75.08213161,-75.10895141,13.36615033,127.4977831,1148.473519,0,-34.39881124,-100.911558,53.65979615,,,,
191.1439999,746,51.30494865,16.22404549,0,0,-10.30525319,-17.19952985,94.05424141,37.48815639,11.18447141,4.328538188,-23.46485883,372.1201583,0,-57.45106876,170.5015075,71.22363833,,,,
191.1519999,746,151.088943,188.489109,0,0,-52.65458975,-23.80808424,12.77291007,27.44833526,-63.37657554,42.63278704,155.9567945,1092.771847,0,-4.581025617,-14.06347113,42.3077541,,,,
191.1599999,746,-94.58184359,-207.9640558,0,0,47.72571887,-61.5360649,214.9884974,84.04420096,-90.29396486,8.535845542,12.74965548,753.3181042,0,-52.45035498,-27.16052399,80.38649114,,,,
191.1679999,746,158.7595712,231.8187474,0,0,-92.47179152,-19.82098048,-69.17944489,-37.58742075,7.062900834,8.072622496,73.817731,567.6245055,0,-50.13112371,213.8495683,19.49538453,,,,
191.1759999,746,-17.36157964,-78.02324178,0,0,21.38151848,-91.59932928,149.3351932,79.52768495,-141.2056086,4.174733469,143.6915363,1297.481399,0,-47.08301729,-150.1207784,33.73195338,,,,
191.1839999,746,-1.453294002,-40.99903188,0,0,6.300478062,-26.8380806,118.0486828,35.44577854,-10.7268763,-15.1386438,-60.76914529,278.1469625,0,-74.18694649,191.3070514,64.6922237,,,,
191.1919999,746,160.5445772,225.7288703,0,0,-76.29296031,-35.00938802,-43.1636918,-0.335921799,-74.55634761,17.30294826,177.7285552,1168.761248,0,-17.60850717,0.097533316,11.1609809,,,,
191.1999999,746,-120.1046488,-263.2833736,0,0,78.39951508,-72.32570645,246.3086918,107.9802941,-103.7171162,-23.23520427,-4.267112426,778.350837,0,-72.68145283,-48.96835158,62.12049541,,,,
191.2079999,746,183.245167,267.8387033,0,0,-71.99451409,-1.470269257,-63.3259666,-15.06682838,24.87944272,20.12953361,54.06937621,510.6643932,0,-32.45858313,207.9481173,34.79677566,,,,
191.2159999,746,-35.02755059,-84.37899378,0,0,22.70983175,-89.45039661,143.2067287,80.47704316,-143.1980578,9.017739727,144.0795042,1330.023028,0,-34.86708684,-186.0304549,37.64427446,,,,
191.2239999,746,-8.233001071,-47.34243795,0,0,32.62822198,-23.37678026,126.0695989,45.01496557,-16.26333008,-24.02417912,-69.61826003,250.3004724,0,-81.41322808,190.2914847,52.10687594,,,,
191.2319999,747,200.1044992,279.2503937,0,0,-34.34652799,-17.56749993,-29.40700638,22.85713736,-70.41144001,60.29055864,178.6778351,1153.617342,0,8.743445043,-19.24869549,36.21890857,,,,
191.2399999,747,-131.1173376,-276.9836262,0,0,96.97891107,-66.53449916,269.6497966,99.47384786,-113.7226093,6.14021165,-9.899927794,760.2808672,0,-56.56530174,-79.57809922,77.24322722,,,,
191.2479999,747,191.5129214,273.011656,0,0,-57.29204366,13.24036451,-39.98667789,-25.71797337,4.447762326,26.51631784,51.05803364,477.0638484,0,-27.70061756,218.4636105,30.7618351,,,,
191.2559999,747,-4.627695983,-62.57109565,0,0,62.13097684,-71.79732312,194.9382334,110.2317894,-151.8096721,50.39339829,137.9006255,1316.032061,0,-1.043003351,-205.3463104,74.48983595,,,,
191.2639999,747,-25.07706162,-76.41466918,0,0,32.87483926,-23.9613743,157.1546014,40.16912568,-5.16407293,-6.312844203,-85.05560155,195.8810514,0,-66.5226908,168.5504406,73.40605131,,,,
191.2719999,747,172.1419046,253.0345348,0,0,-57.46590535,-19.39958802,-17.27821522,-1.99710585,-64.73591672,32.92193715,181.7820347,1127.191672,0,-15.48963335,-1.266462924,18.43992211,,,,
191.2799999,747,-146.2267043,-287.83323,0,0,116.3979767,-59.193664,326.451314,124.6624598,-106.8613556,2.702910037,-11.02135992,763.9850117,0,-68.94514937,-79.66494412,89.68733669,,,,
191.2879999,747,174.387302,259.8517044,0,0,-60.73602743,25.57504159,-13.93799025,-25.72484657,34.67578819,23.54716824,40.16034781,434.0455593,0,-35.61906222,223.6056768,39.55321404,,,,
191.2959999,747,-23.72794868,-80.73183967,0,0,22.75379292,-59.05560738,171.9944438,70.32447525,-139.6535343,13.30829164,152.1178711,1341.168124,0,-34.12857478,-178.3695351,38.66362634,,,,
191.3039999,747,-36.85241801,-88.51873812,0,0,20.88030321,-10.07055913,160.0911047,30.66369261,-12.04016212,-27.55667352,-81.1381384,229.2723354,0,-94.84765776,195.7488916,51.38052154,,,,
191.3119999,747,176.4297668,266.7530371,0,0,-73.3463879,-11.94422923,-32.89972697,-10.63491561,-61.67677592,35.56966638,176.6410753,1126.540083,0,-20.13409416,26.89315854,13.45369695,,,,
191.3199999,747,-156.7376123,-303.2027396,0,0,91.45782261,-68.06474784,284.8080787,104.7069909,-119.7428722,-7.812579233,-4.942702453,808.0046249,0,-74.22791814,-62.01113932,74.8970203,,,,
191.3279999,747,165.0263005,243.9508686,0,0,-61.51122878,16.35892735,-41.50917227,-31.49727713,18.65449366,9.341392724,34.08820365,441.9324227,0,-44.71902155,251.4187525,32.44144665,,,,
191.3359999,747,-9.546523872,-68.84789575,0,0,38.21641464,-64.84095052,162.6291468,77.75493238,-143.5321116,18.0933964,149.0552306,1359.91853,0,-30.54609742,-165.3748068,48.90281365,,,,
191.3439999,747,-33.69556711,-105.8998656,0,0,35.38185673,-21.0259577,157.4417456,37.51392937,-17.02530446,-23.71289239,-89.13068703,234.9084412,0,-87.16555146,196.6666019,65.76819691,,,,
191.3519999,747,181.2244504,267.4135309,0,0,-66.93769702,-13.02603142,-53.2555034,-10.94754472,-65.79280674,27.92300281,161.3101039,1098.352471,0,-13.67154139,40.95191421,17.84248422,,,,
191.3599999,747,-148.163491,-293.5352257,0,0,113.4748387,-62.97617705,299.3169015,125.7967816,-119.5378511,-3.544533634,-20.17755563,806.2702921,0,-63.43467335,-70.66350813,86.61497856,,,,
191.3679999,747,174.3599244,244.9086534,0,0,-45.53090658,13.76448194,-5.584022083,-14.59843191,38.09474342,28.78243314,10.23175243,384.4423702,0,-31.28870974,247.2851483,53.07254524,,,,
191.3759999,747,-6.501810842,-62.76634752,0,0,31.23166419,-74.18162087,172.385155,67.06759587,-124.7180784,21.72796125,139.5162739,1331.276694,0,-27.94011916,-166.0906494,45.97102091,,,,
191.3839999,747,-43.45803911,-116.6153125,0,0,46.03232076,-33.29978872,188.0483908,39.81273661,-4.456934218,-29.05449555,-101.9086901,213.3336879,0,-92.70212922,187.7603049,60.21774129,,,,
191.3919999,747,197.9297592,283.3929332,0,0,-60.13405407,-22.44765017,-17.34110657,-1.84714419,-38.58053584,36.04759476,147.8361937,1042.63368,0,-14.85722184,41.11231354,24.59179265,,,,
191.3999999,747,-142.3804495,-291.0600057,0,0,99.8442148,-74.5535755,320.0544321,121.379967,-101.3352494,-3.53426037,-18.40718636,805.2115475,0,-71.74765402,-79.82807469,81.05459456,,,,
191.4079999,747,166.1140215,236.9950379,0,0,-53.500342,6.658051736,4.11330846,-16.53366806,46.16389599,25.23338324,2.980665698,356.4244382,0,-45.59653738,253.6331711,43.16723804,,,,
191.4159999,747,-0.087375438,-43.49636794,0,0,29.45671041,-73.28764907,179.8072818,86.58655613,-118.7200051,34.23461717,134.7129407,1323.660987,0,-36.42102434,-162.5085551,48.94637804,,,,
191.4239999,747,-53.66737758,-119.7645855,0,0,47.20018092,-28.05664397,210.7803027,62.67450144,1.562608929,-19.45424208,-109.7350905,209.433829,0,-98.52986712,188.303808,70.13168998,,,,
191.4319999,747,189.3431918,290.2506857,0,0,-67.68980581,-13.07484024,-17.47416339,-6.872681249,-30.13502317,38.41883771,140.1332126,1007.802599,0,-17.21217457,61.36644678,26.28200724,,,,
191.4399999,747,-164.3942691,-306.1717956,0,0,83.70221878,-75.96095465,308.1758186,104.1170844,-110.4799091,-14.02771237,-20.0076829,817.5642622,0,-82.42416272,-73.59041387,68.84093803,,,,
191.4479999,747,143.2043298,208.9094084,0,0,-70.25065233,7.954233372,-5.881985471,-32.94127071,34.52048043,-6.940145101,-0.958482956,352.9783804,0,-66.89392631,286.8613214,17.78394293,,,,
191.4559999,747,0.576769695,-38.78779188,0,0,12.62544174,-59.78809498,169.1095832,63.88323079,-130.6507244,13.14038041,148.4520295,1353.925696,0,-42.51712515,-124.2268483,27.9930286,,,,
191.4639999,747,-67.20394095,-138.3339868,0,0,39.43954698,-20.74033926,227.1729631,46.29398977,-24.5699483,-21.59732184,-104.7541922,235.0277312,0,-94.53686698,198.9007007,67.38450521,,,,
191.4719999,747,196.3985435,292.650697,0,0,-75.13907454,-8.681232087,-4.50541969,-10.20685801,-52.0102284,38.7339629,132.2320911,994.2449473,0,-7.571083081,77.87738069,27.83409239,,,,
191.4799999,747,-148.9426572,-292.252043,0,0,86.59031457,-70.94038499,326.1973683,111.327757,-126.821442,-5.198237759,-26.66734402,835.9284027,0,-62.66404233,-82.57648131,77.85419231,,,,
191.4879999,748,145.5531592,217.3542981,0,0,-51.62909627,10.63584787,23.36100281,-19.9548561,24.61375788,16.12947013,-20.5254415,311.1290024,0,-39.88331012,266.6647152,41.71300128,,,,
191.4959999,748,13.68089644,-16.94809365,0,0,17.50523852,-64.73716863,170.1138644,68.1393052,-138.749174,29.624749,138.7545954,1322.366995,0,-8.260940026,-147.1875719,41.71824286,,,,
191.5039999,748,-72.63114355,-144.5516464,0,0,32.76111532,-25.63103075,225.9049105,43.00234041,-30.74742356,-22.92740361,-111.0021346,217.8636339,0,-75.74864811,182.7414095,66.46226671,,,,
191.5119999,748,190.1360666,303.2939599,0,0,-82.1545771,4.579183398,5.653415791,-13.01603966,-54.73807706,38.86773072,133.1645409,952.4802375,0,-5.423062,92.34630144,24.00999455,,,,
191.5199999,748,-147.5714705,-285.2957337,0,0,88.0822107,-49.61614011,355.2749529,118.8459258,-138.5678384,-3.023075194,-12.12964839,841.8563774,0,-57.53215009,-75.87538888,77.02347913,,,,
191.5279999,748,150.5875528,216.221864,0,0,-44.83130151,37.37085491,68.91893577,-1.795923362,23.7009081,23.42520711,-25.19087856,263.4366555,0,-30.70315711,272.1563088,57.31850784,,,,
191.5359999,748,28.14916331,2.223141059,0,0,24.13587264,-30.10784933,218.7947488,82.60852373,-130.8075562,39.91553376,132.282162,1275.256165,0,0.526387178,-152.870044,59.52701988,,,,
191.5439999,748,-67.70834952,-155.9278886,0,0,52.28906993,5.915789002,277.3305208,52.51482517,-17.37716783,-21.55448852,-119.7697399,185.4765915,0,-70.45425222,172.678061,76.49446638,,,,
191.5519999,748,202.8554021,307.9833997,0,0,-64.65782667,23.75206819,26.98364852,-9.947975945,-32.8992515,45.45083513,117.6754577,884.6829776,0,0.971746521,92.84168913,33.51097436,,,,
191.5599999,748,-151.805246,-285.5506624,0,0,100.9604141,-48.75642486,373.2408866,115.3671824,-127.5171308,-4.682940747,-16.90376491,822.5732184,0,-55.65459456,-91.53836754,73.06169368,,,,
191.5679999,748,129.1111157,193.4974044,0,0,-37.5474767,38.16345195,86.32256587,-9.785026797,47.11282562,7.619114213,-25.09453949,235.4092206,0,-33.47114352,291.0310947,42.47630744,,,,
191.5759999,748,25.28153187,3.816653461,0,0,18.20576963,-24.76052118,209.684628,82.04923431,-104.4673792,34.95843029,148.5952781,1281.370075,0,1.969329082,-123.5333702,48.71653508,,,,
191.5839999,748,-70.46811083,-167.6407373,0,0,49.9268725,8.742180836,279.1572326,58.93260066,-7.9881192,-29.15339235,-105.1757441,207.0654997,0,-78.25274305,182.6512321,60.02174576,,,,
191.5919999,748,218.1480951,316.7452224,0,0,-66.01277116,33.43667926,31.6462184,-5.930382493,-9.727122475,44.33475975,128.6069378,868.9203113,0,-0.522458732,117.6735257,22.93264283,,,,
191.5999999,748,-137.6360852,-281.6077924,0,0,94.76279167,-43.54694521,377.8344398,121.0585035,-104.5614802,13.03401482,-3.269641759,831.9129431,0,-44.01759643,-93.04916926,82.31434113,,,,
191.6079999,748,121.4866842,168.6074167,0,0,-56.98660808,26.21157222,84.03718464,-34.1960396,54.39937374,-2.211895019,-23.35702564,205.7926622,0,-50.69020527,294.0601317,27.04176408,,,,
191.6159999,748,22.18437909,-3.877756506,0,0,1.560115402,-51.68858651,207.0102301,46.82677506,-108.2029043,8.937683273,160.7116915,1279.261716,0,-32.5721743,-113.6681256,13.28788094,,,,
191.6239999,748,-89.16993264,-197.6330819,0,0,53.2693945,-20.84961716,302.6268136,54.13187906,-16.01160878,-33.3917998,-103.9437777,207.327093,0,-92.8947954,167.1210591,50.68296562,,,,
191.6319999,748,198.641952,292.2583095,0,0,-79.499254,12.62777895,26.54581753,-19.37335681,-9.082749672,29.8017666,119.8111959,831.212399,0,-12.35976853,118.6780009,7.655759482,,,,
191.6399999,748,-152.8304971,-303.4811192,0,0,81.21114714,-64.93695084,364.6386197,106.953147,-106.2365037,-18.72486396,-3.364622084,849.5825032,0,-66.56774625,-96.11734724,53.9959415,,,,
191.6479999,748,115.683737,147.3716181,0,0,-48.97303187,15.30975254,98.4852757,-21.68081228,66.20100582,-5.982343825,-40.59701552,177.4835408,0,-49.99792942,291.7736838,29.348597,,,,
191.6559999,748,37.2221122,10.3469701,0,0,7.765889537,-45.53532872,221.8317846,67.83723891,-81.38730652,25.39965322,152.4679651,1258.909896,0,-5.587799129,-111.3488233,30.42724698,,,,
191.6639999,748,-91.76249645,-201.846354,0,0,64.44477949,-17.54525388,332.193946,70.23524043,10.33267824,-33.09413234,-106.880615,207.8330147,0,-80.71515947,167.5396354,56.34021854,,,,
191.6719999,748,203.0906731,302.5795742,0,0,-67.65331445,18.03627316,66.87723834,-16.05489912,21.25583506,38.77834912,106.3052759,782.5761099,0,-4.471218626,126.9144843,15.74876509,,,,
191.6799999,748,-148.584369,-290.9249382,0,0,86.42868369,-54.78177807,416.5746125,106.2662711,-91.15977377,-4.960015857,-4.958548372,846.4646781,0,-60.21806216,-106.862021,55.82648779,,,,
191.6879999,748,96.26538555,132.4523395,0,0,-61.55481885,22.88128867,128.2797067,-41.60584122,75.45386117,-20.49436257,-44.40697029,158.7966569,0,-76.21394269,295.6206837,6.243178908,,,,
191.6959999,748,25.26285809,11.70250101,0,0,-19.00157272,-45.0568265,220.60037,34.44980911,-69.38169839,10.08048325,148.5863046,1252.988758,0,-36.17558653,-111.4462479,6.153279137,,,,
191.7039999,748,-109.2969636,-217.9602187,0,0,42.53419866,-18.35309056,348.1355211,56.61412971,15.56282431,-47.96415643,-107.2205447,224.734328,0,-102.0093649,153.6151617,38.23880354,,,,
191.7119999,748,197.2170378,303.2314088,0,0,-89.68259238,31.05251625,67.70285255,-18.65749569,35.20306776,21.31113789,113.8311709,775.506609,0,-23.65679778,140.0975384,0.266878748,,,,
191.7199999,748,-145.0280806,-275.816062,0,0,89.62051334,-37.86345783,424.2640378,125.5118804,-70.06715342,7.154428255,1.872696563,863.8335256,0,-55.9267785,-119.3110592,73.01558886,,,,
191.7279999,748,97.441215,138.5202596,0,0,-37.17875142,44.78983772,156.3551027,-4.793119491,98.94666812,2.498615511,-57.35203776,116.7026091,0,-60.07323729,285.0277562,38.82742146,,,,
191.7359999,748,41.45130651,39.16605829,0,0,3.860652324,-18.97851248,228.7087815,61.41250662,-50.99455282,32.54021143,146.4655262,1220.250529,0,-18.40236266,-105.2064794,33.8498418,,,,
191.7439999,749,-121.01802,-224.584287,0,0,63.83623171,-9.705442224,353.1847777,58.59052556,27.97555302,-35.95179982,-111.1481508,213.219641,0,-97.18711136,149.2121032,62.18851185,,,,
191.7519999,749,172.8712576,291.217498,0,0,-93.32865904,28.24791988,51.39248655,-42.11644264,41.61905269,-7.156718563,111.7468933,748.6897998,0,-46.99100197,171.457981,-12.8175546,,,,
191.7599999,749,-153.0754683,-272.7175346,0,0,90.64524724,-36.90875566,423.7641208,124.6858067,-91.22260014,-16.4656676,11.42696353,895.3143863,0,-66.58127177,-97.30498764,62.45192532,,,,
191.7679999,749,101.4801101,142.5197039,0,0,-21.10409718,56.61286949,186.8553475,9.302534995,74.17925148,8.400636671,-62.40250953,99.54235635,0,-43.76712285,290.5865295,59.66878886,,,,
191.7759999,749,54.73402463,61.39832243,0,0,-3.334828736,-6.332998621,236.1608612,59.28377802,-68.59939641,39.62221356,155.5232202,1206.660988,0,2.935958169,-99.31127232,42.36429893,,,,
191.7839999,749,-111.3226231,-215.7516773,0,0,64.16174009,-3.080043817,376.7623312,73.14697987,3.232536511,-22.51391488,-110.9035723,204.3749524,0,-72.77308341,129.9757946,75.06899843,,,,
191.7919999,749,213.3458176,325.8633099,0,0,-87.93619415,44.71961622,73.40646868,-23.87948094,39.72241769,22.75856197,97.49756594,679.6383271,0,-10.73010358,158.0874923,16.66635352,,,,
191.7999999,749,-129.0253095,-251.885904,0,0,68.9423703,-24.25105607,409.1731613,115.3709062,-84.1537713,3.565161029,15.68431801,879.7312985,0,-44.16747697,-112.8428451,69.28920949,,,,
191.8079999,749,93.12514219,130.4285182,0,0,-43.83009469,48.6387536,164.3143811,-9.293035815,69.71605148,-3.553652801,-70.6006435,67.09497656,0,-57.78360899,286.5193343,40.09666586,,,,
191.8159999,749,76.40597067,82.84112651,0,0,-8.618404032,-12.29552801,227.4096013,55.05483947,-65.38051763,35.68756138,144.2970144,1178.132778,0,2.168760398,-108.2780696,36.07355869,,,,
191.8239999,749,-103.0031317,-221.863677,0,0,64.83455706,4.768756972,394.7140567,70.35993264,6.728236323,-17.99313637,-111.1680215,212.8222273,0,-64.25527043,113.6056134,69.35453499,,,,
191.8319999,749,216.2163082,315.4298798,0,0,-95.0509159,43.74082667,80.48153357,-41.79746368,30.20514492,7.695551469,104.4525443,670.0977034,0,-28.73392013,174.3686725,-13.98512114,,,,
191.8399999,749,-116.9167403,-255.9195733,0,0,70.69044197,-33.00497022,423.1463095,109.7207386,-103.5925465,-3.806213643,25.24392941,898.5305868,0,-51.19526874,-126.7108091,53.25849093,,,,
191.8479999,749,86.57887401,108.7498657,0,0,-38.56672491,56.37551953,184.6311413,-17.14210296,61.38616613,-8.596348951,-67.25264594,54.19993034,0,-58.55707849,273.5088069,25.53684887,,,,
191.8559999,749,74.61114134,86.75315321,0,0,-17.41113244,-5.969866345,213.9880035,36.33715188,-69.71803642,16.9617212,164.56929,1194.348965,0,-19.91606466,-99.92095179,-7.040269942,,,,
191.8639999,749,-111.1962315,-236.5966928,0,0,59.65845519,0.89429594,390.9382242,69.55512715,0.705125063,-21.40378685,-104.7384699,232.8486506,0,-72.63522375,84.76747025,49.02736543,,,,
191.8719999,749,209.449575,313.0259052,0,0,-101.2633419,47.38991514,79.51415518,-51.24709278,36.60462534,17.89343766,91.41741766,624.6213143,0,-20.13185237,143.8789469,-21.72643887,,,,
191.8799999,749,-120.1562747,-243.3070369,0,0,68.91436091,-40.32395129,427.9932591,97.07410332,-106.3817326,-3.880827186,23.73841939,908.6556162,0,-50.80919262,-159.0758163,25.21844076,,,,
191.8879999,749,69.77417888,81.98405002,0,0,-44.71535232,69.30382195,202.3637951,-45.8668137,134.7589782,-31.63797441,-220.3227898,-619.7947762,0,-86.89790981,458.087865,28.72727987,,,,
191.8959999,749,190.3652356,287.5664221,0,0,-96.68568407,36.53123877,102.5554076,-43.65159763,25.46618371,7.529410035,87.2415359,648.3484746,0,-37.0735565,133.4728487,-16.45083926,,,,
191.9039999,749,-105.7005855,-218.9785818,0,0,60.10198102,-48.47302224,428.9485595,97.96672944,-111.4650296,-5.649057505,58.04904242,1062.928159,0,-56.00028798,-196.775809,30.08287407,,,,
191.9119999,749,61.70259694,57.35640589,0,0,-21.95487017,17.48796337,263.7243429,4.456463111,21.61736477,-8.030290042,-57.98841718,249.1904921,0,-61.65946035,148.2838616,24.04674111,,,,
191.9199999,749,72.29105336,75.36117018,0,0,-13.31259488,13.99380119,271.4777949,33.32654091,-21.32791935,20.02788495,16.58643478,626.3335657,0,-36.45707433,14.47272566,29.95918832,,,,
191.9279999,749,2.170752641,-40.51016468,0,0,22.17307873,-0.184216956,337.5827846,67.84369774,-55.6193911,23.84636454,42.42458145,836.8923818,0,-25.74705142,-98.93346178,43.82045398,,,,
191.9359999,749,15.35173696,-21.51952989,0,0,-0.05838421,18.49299436,296.2027629,25.91386836,7.253695634,-5.429026544,-50.73347737,318.9316955,0,-65.25113631,97.73494964,38.56917352,,,,
191.9439999,749,106.663994,134.2222122,0,0,-39.83154964,17.15068739,215.5682382,18.33635435,-26.21058088,21.46087445,55.42076266,725.0335319,0,-38.08478695,7.394925591,16.20631921,,,,
191.9519999,749,-32.15265024,-100.7081347,0,0,48.38413575,0.487646378,380.483433,90.65245362,-70.45021609,19.56067188,-2.291055261,717.2582894,0,-35.12191601,-89.80066372,47.06951998,,,,
191.9599999,749,73.35983584,69.43271544,0,0,-8.182218578,40.3640949,274.0562955,19.99981554,16.58975791,25.13107792,-65.18487793,206.0574561,0,-36.45104301,140.0596442,46.26617101,,,,
191.9679999,749,70.49772491,72.98176781,0,0,-26.07469406,-6.029286534,264.7242778,25.07482195,-85.65888732,26.56274589,107.7915087,1021.977713,0,-24.88755845,-104.8815118,4.030929422,,,,
191.9759999,749,-85.67066014,-185.7201586,0,0,46.39058165,6.705264231,405.0375602,51.39879102,-51.31915909,-30.09152965,-88.03670681,331.8359128,0,-83.54466133,51.96050705,26.39462807,,,,
191.9839999,749,183.3058545,251.8383203,0,0,-72.3767947,50.5106465,167.6852608,-19.60895717,-17.88585845,26.1930986,54.19046557,590.7498185,0,-18.50931012,105.6430596,7.966148765,,,,
191.9919999,749,-73.87870142,-172.2728839,0,0,46.08642265,-24.96401008,423.6937317,91.80805259,-140.4412726,0.881404183,27.49437097,910.9217582,0,-46.57287059,-145.4696272,33.20868716,,,,
191.9999999,750,55.56808116,53.51124599,0,0,-29.50806632,36.90824857,271.3239759,-4.933902487,-10.90057354,-7.43132234,-96.05352076,86.64182653,0,-55.18760677,207.753459,26.26636993,,,,
192.0079999,750,106.0147026,121.3939928,0,0,-56.9720851,-0.669626813,240.4441175,11.8214757,-119.2189922,33.50886264,129.366786,1098.305495,0,1.093896185,-96.16760358,1.538543745,,,,
192.0159999,750,-119.7256392,-247.3623861,0,0,38.13458527,-3.51733071,435.9425025,59.20663726,-83.77105858,-32.5433235,-92.87384283,358.5740796,0,-73.8701822,46.66222419,28.10211096,,,,
192.0239999,750,200.0757377,295.0564199,0,0,-109.2483611,62.22493136,136.346329,-45.9171597,-17.12772673,25.15745968,54.8656903,554.2700159,0,0.229238755,153.2821475,-3.563525677,,,,
192.0319999,750,-81.41854967,-195.4499693,0,0,27.87328212,-18.27718638,444.6715837,84.59640445,-157.5892051,4.60272073,33.44194899,990.3339857,0,-27.13425917,-167.0646005,28.24577745,,,,
192.0399999,750,67.57650655,57.96058428,0,0,-38.35715888,41.29684417,293.740024,2.065540675,-6.462339131,-7.954334698,-104.1605557,61.53756961,0,-56.4493683,235.2939652,19.44036716,,,,
192.0479999,750,129.9211692,170.6122311,0,0,-42.74790627,6.013460923,271.5662812,40.89443276,-115.1038347,63.66628549,132.6403362,1115.608519,0,28.96837941,-105.395491,23.90020978,,,,
192.0559999,750,-127.6416741,-250.9439156,0,0,49.44804231,-1.805392963,486.3239874,81.57151639,-79.75665864,-8.722822402,-101.3447785,356.7648256,0,-46.46947717,16.36258845,57.31983677,,,,
192.0639999,750,208.1798838,309.3095344,0,0,-128.1476299,52.39101044,130.2827199,-54.00836839,-3.780633284,7.365752615,63.76585412,547.0925846,0,-19.24636083,178.1479562,-18.42940905,,,,
192.0719999,750,-83.82473899,-190.7401184,0,0,24.39728335,-29.55975433,430.6611616,76.53912092,-159.2465388,-10.87668001,53.79335642,1055.48262,0,-50.34345022,-163.0681561,12.33275927,,,,
192.0799999,750,49.79729087,40.69037407,0,0,-53.98105551,41.94073697,279.9559598,-18.9758876,-4.866469662,-26.70047289,-103.9727079,78.22566249,0,-76.14187368,246.8436513,8.474031647,,,,
192.0879999,750,132.7994097,167.6233272,0,0,-84.83987763,9.449518407,238.7986944,15.81462558,-112.9295922,27.89654312,142.834536,1165.942149,0,-7.463194366,-74.76546364,-9.284567394,,,,
192.0959999,750,-117.8522669,-258.7404825,0,0,32.09853337,-4.702855686,478.3744596,78.23563515,-85.61506272,-18.42234476,-98.69274616,423.9326787,0,-62.29579181,35.76592834,44.91341011,,,,
192.1039999,750,221.5028338,312.8861131,0,0,-139.1853107,40.56617997,132.2578814,-61.16782215,-11.43423422,16.41121323,44.50512582,544.4525139,0,-4.401493713,200.6214223,-9.411715426,,,,
192.1119999,750,-70.44167255,-185.405365,0,0,0.391675884,-40.01374401,437.0291658,68.06148253,-178.5714018,-9.410227262,46.44159127,1085.53767,0,-29.79861056,-149.1030969,13.19181681,,,,
192.1199999,750,57.47479832,38.23646722,0,0,-63.33965184,40.13713631,298.7941677,-20.87341745,-27.69912894,-17.58823903,-113.7127,85.61997712,0,-57.702613,275.328175,13.42009651,,,,
192.1279999,750,144.2932373,183.045873,0,0,-86.55345373,3.310060048,243.6649668,3.017573398,-143.2945556,39.79464357,131.2005268,1163.227499,0,4.374167,-44.39239843,-6.061474964,,,,
192.1359999,750,-128.4950742,-273.5314349,0,0,28.57199841,-15.42099911,480.4456858,56.84115393,-121.6646258,-30.56020859,-100.2965622,466.6852169,0,-70.67000681,56.41213467,30.60567182,,,,
192.1439999,750,214.9152941,311.6452908,0,0,-132.7640778,42.07811471,134.9582222,-63.48771122,-31.8205152,3.169735144,44.59070494,559.6462767,0,-23.59760077,243.5117384,-22.29760762,,,,
192.1519999,750,-60.83781694,-159.712245,0,0,20.901448,-37.70986071,456.3729991,106.159345,-192.0078608,13.53607978,42.94933079,1109.077859,0,-21.37050263,-140.6972643,38.97712777,,,,
192.1599999,750,52.27056995,23.0456845,0,0,-56.8852688,32.74687912,309.2044984,1.355556533,-30.83466204,-4.861191126,-126.6154935,85.33461748,0,-46.31545792,283.2139522,40.30540891,,,,
192.1679999,750,145.5213653,174.6096596,0,0,-102.4194338,3.563759784,215.8328226,-1.721962276,-141.6386446,24.5349593,129.8303714,1174.993396,0,-11.10095576,-1.990716618,-7.909720469,,,,
192.1759999,750,-129.8064607,-280.2004796,0,0,21.58442694,-5.985872552,477.7824366,80.97777402,-125.4167827,-29.6723167,-100.5900087,510.2556745,0,-84.15334825,83.28561729,42.70680741,,,,
192.1839999,750,222.7319611,307.2115634,0,0,-148.4009961,58.02920712,129.1529688,-53.68560286,-28.91672554,8.769058616,39.75868209,563.4530049,0,-29.0799636,287.1289398,-14.67452615,,,,
192.1919999,750,-48.7239207,-157.6091352,0,0,-2.485825405,-9.829834216,428.5037784,82.42318027,-201.9801457,9.546044611,46.29956867,1157.937212,0,-28.98880805,-110.0517961,25.68235124,,,,
192.1999999,750,49.49803309,17.8139347,0,0,-60.97365059,66.65978737,304.8465346,-6.633803062,-44.72641172,-4.583619302,-137.1553935,116.5149682,0,-51.16304126,294.7524484,35.74678168,,,,
192.2079999,750,170.0227353,201.4764418,0,0,-105.7865366,20.64893333,212.1860168,0.087719326,-143.2473396,32.14555739,131.6818043,1195.086179,0,-5.304803876,18.15182378,-11.06618308,,,,
192.2159999,750,-104.8668824,-269.8531757,0,0,27.08442295,-11.34505763,487.5633185,86.67330093,-132.8188304,-16.49842999,-94.89231786,559.5130692,0,-73.32126248,76.79420801,42.96794348,,,,
192.2239999,750,239.0503881,317.1069462,0,0,-129.2695762,61.4408106,144.3537284,-40.18439565,-16.58845387,30.07832003,28.33147996,556.3170172,0,-8.582707072,283.2732294,4.493659022,,,,
192.2319999,750,-33.73310425,-142.802308,0,0,11.18930919,-7.439883505,431.3083769,92.35825723,-165.3032155,16.0978504,65.21987925,1212.084093,0,-14.14329274,-95.43358873,33.60054185,,,,
192.2399999,750,44.5863743,0.334904041,0,0,-44.73535579,49.21211454,316.4009975,1.943184972,0.298721804,-19.98297961,-113.8180736,180.8480219,0,-52.33893123,327.5505558,29.8983451,,,,
192.2479999,750,162.6626964,206.9540744,0,0,-85.43944071,16.70850952,213.4062303,5.197244732,-82.38931471,28.85683119,138.4741063,1230.634441,0,13.72099209,48.0121657,-1.502141675,,,,
192.2559999,751,-135.795834,-286.1401833,0,0,43.30647859,-5.249798975,484.8068445,79.30441093,-71.46714101,-27.99028916,-86.08358601,651.0761508,0,-68.13471482,89.28915076,43.64180279,,,,
192.2639999,751,210.9249638,294.4611951,0,0,-127.2523172,52.73167419,129.3583965,-56.8837686,39.6275233,0.980918841,33.49655736,635.314204,0,-38.29691375,313.5913662,-11.80374354,,,,
192.2719999,751,-44.28862175,-139.8865484,0,0,5.28388407,-20.21274188,408.9091232,83.98473097,-121.4503479,0.015302561,68.08482088,1325.668699,0,-29.70766864,-93.67641642,24.36193374,,,,
192.2799999,751,28.24440775,-4.84172333,0,0,-41.81592507,43.85012788,315.6605123,4.26350403,32.36551795,-22.85024982,-125.4215341,282.5677239,0,-52.56590625,310.8994891,27.47731844,,,,
192.2879999,751,167.3740873,237.2750034,0,0,-76.74226326,18.47089551,214.7129351,15.45895649,-49.75224716,42.52652186,135.9033462,1315.511762,0,23.83436869,40.56505781,7.700735217,,,,
192.2959999,751,-138.4397316,-269.1859887,0,0,54.83169632,3.545828338,498.4999117,99.887253,-46.69488354,-12.15858663,-79.84260515,769.5308893,0,-46.65391147,62.862596,63.06626979,,,,
192.3039999,751,206.3273028,308.8725627,0,0,-119.0411696,73.20421649,141.3406405,-41.5910849,60.00353397,16.18539073,27.50630422,700.11361,0,-10.31836364,305.7710752,6.547159335,,,,
192.3119999,751,-35.00590781,-102.7551497,0,0,24.27050796,2.502938228,414.9990843,95.87855196,-106.1154037,24.6702361,77.50446117,1420.933149,0,-2.062317182,-100.826404,44.72991367,,,,
192.3199999,751,23.56402676,-5.308366588,0,0,-22.89201746,63.62967028,319.5158757,0.762456126,50.23838114,-20.83938833,-113.3070407,382.5504637,0,-52.52184583,309.5100112,33.56842619,,,,
192.3279999,751,170.8140347,245.2231492,0,0,-81.12096386,43.6760708,186.7417039,-7.213550906,-31.90240996,35.15076927,149.6558066,1409.494754,0,23.60464836,59.72542571,-2.260015816,,,,
192.3359999,751,-141.5202014,-269.549267,0,0,65.99429997,25.44198949,482.9772034,90.90659285,-41.09402902,-7.140064657,-64.15107657,913.5438575,0,-26.53658971,64.48821456,61.61035181,,,,
192.3439999,751,192.805376,297.8379769,0,0,-107.383084,90.9869581,130.2702241,-57.17870527,74.56557372,5.533471041,31.49860725,811.8050188,0,-15.6609679,317.1359361,-3.858988085,,,,
192.3519999,751,-46.60702052,-97.04135386,0,0,24.39102458,15.74116551,395.0193702,78.36580998,-91.01670865,10.98186742,95.93915471,1582.087942,0,-17.81707413,-92.86500422,28.21005042,,,,
192.3599999,751,-0.342566493,-17.12030799,0,0,-11.54258781,49.99266182,309.8445877,-0.615320211,52.53987548,-20.81334769,-105.2284632,541.6365081,0,-52.7385133,311.8522073,35.43906152,,,,
192.3679999,751,159.5586452,248.6045449,0,0,-88.2016267,7.616218075,140.8616979,-23.82634451,-44.00218253,29.04571449,144.8523046,1539.765483,0,4.746033887,67.66904832,-10.194876,,,,
192.3759999,751,-150.2721826,-272.3456003,0,0,63.76535557,-3.141291758,436.8709066,80.19789289,-67.55111477,-22.40461376,-54.51007519,1103.456483,0,-61.75353942,66.6187399,40.83475737,,,,
192.3839999,751,189.1721389,295.3817977,0,0,-94.04130952,67.05410777,93.90486986,-56.99832544,60.63781758,-5.188214088,44.81204893,977.7824157,0,-31.86271657,350.8630957,-13.48198968,,,,
192.3919999,751,-43.08151585,-87.51321614,0,0,27.21383833,-9.582403119,346.4180358,70.98018014,-103.3385664,8.547131772,108.1206413,1768.017342,0,-16.06041863,-65.59187203,24.29431412,,,,
192.3999999,751,-11.47158318,-32.48642611,0,0,-5.384352438,58.02062779,293.3138322,-3.768290441,44.4326662,-23.54023484,-108.5865777,714.5439709,0,-52.53187705,334.3933908,30.05084067,,,,
192.4079999,751,164.2529846,257.8234374,0,0,-78.28481513,49.08156399,143.2033846,-28.33595596,-22.33806059,26.10593804,152.1886616,1698.203973,0,12.78561666,118.7640823,-17.73147584,,,,
192.4159999,751,-150.0714811,-267.7574643,0,0,83.30125985,33.02706275,458.6495401,84.98940541,-41.39225978,-7.732647365,-48.74770585,1280.154201,0,-26.14190552,85.47831765,52.75335444,,,,
192.4239999,751,187.9330094,286.5058089,0,0,-89.34017703,104.8825977,106.6458466,-58.91184274,81.04631179,12.58944649,29.05368294,1082.055784,0,7.085967633,366.6575181,5.493162206,,,,
192.4319999,751,-30.6656887,-93.57805053,0,0,6.861531204,37.86288902,324.8124775,49.75999662,-92.3178408,-12.34686805,123.9676914,1929.641525,0,-19.02060013,-20.03292689,3.38253363,,,,
192.4399999,751,-11.8962593,-54.54490461,0,0,-7.584023759,95.33418888,282.9733557,-5.302961621,44.48079389,-47.27585743,-94.40133396,881.188078,0,-60.87111823,382.7824622,11.13681807,,,,
192.4479999,751,172.4607365,269.3979832,0,0,-73.39930939,70.60737234,132.4116647,-15.85196763,-28.19700158,37.13121437,148.2023315,1800.307752,0,34.33605128,152.1161289,-3.285065553,,,,
192.4559999,751,-152.5682662,-272.2767176,0,0,81.81085403,39.91363554,450.2335651,84.72852574,-58.63079731,-10.36307912,-43.26057436,1415.673791,0,-31.84939926,107.9096776,48.76678812,,,,
192.4639999,751,180.2589805,275.3316902,0,0,-88.14456825,105.3087254,107.5798414,-69.11084593,71.78925184,6.045932755,22.21901122,1167.036703,0,-5.411357303,406.6720459,-4.592871168,,,,
192.4719999,751,-28.28929674,-75.75834745,0,0,15.84918964,25.28470493,335.5220457,43.96524872,-94.33994189,10.32585286,117.1284124,2009.593617,0,-3.544484144,-7.067595564,19.71943945,,,,
192.4799999,751,-16.26418127,-60.27406151,0,0,8.752326136,73.26813319,304.0644775,-15.15657483,51.53656812,-33.500628,-93.92252642,957.4378561,0,-68.19937066,393.3005917,19.53494503,,,,
192.4879999,751,187.9839549,277.0423198,0,0,-74.46571213,67.28161382,122.1396782,-39.23424623,-17.04643464,38.07923686,155.09238,1852.33539,0,17.56317234,184.1727447,-11.13283987,,,,
192.4959999,751,-146.5909917,-275.3070623,0,0,77.80264204,48.02715657,428.3139373,72.67961672,-65.43882223,-14.85834591,-29.53725734,1511.022117,0,-46.15663063,119.0261794,39.62803235,,,,
192.5039999,751,177.3402502,271.4585601,0,0,-86.91780625,110.6441984,76.84648794,-71.66280192,75.26388811,-9.39511881,35.55646589,1242.440842,0,-25.62886707,442.4396536,-21.12505235,,,,
192.5119999,752,-25.73667521,-60.1585201,0,0,1.339497556,30.03892506,288.0755313,39.70569585,-86.28730327,11.00303993,134.3937119,2103.593061,0,4.397465109,15.42315622,9.82767574,,,,
192.5199999,752,-31.80073098,-72.26226253,0,0,-4.133347026,84.38577127,270.5271707,-14.9609461,50.71400757,-32.18226294,-84.7389002,1044.195872,0,-62.32414922,400.7315922,15.81181876,,,,
192.5279999,752,186.5339262,283.5197131,0,0,-85.14502679,79.11626572,85.32234802,-42.48053754,-6.946402455,20.81782162,172.4149471,1929.015125,0,3.071880277,222.0489181,-24.37984798,,,,
192.5359999,752,-152.4277549,-279.6892832,0,0,72.46866137,47.14023707,408.4920726,73.05454664,-57.14144914,-15.30617893,-13.70555954,1608.101226,0,-41.65505296,124.4258588,44.84863216,,,,
192.5439999,752,172.5785974,262.763052,0,0,-78.31139376,113.5780358,74.30349635,-70.01549334,78.25614056,6.888470143,34.76083535,1263.258159,0,-13.1270974,443.3017924,-0.259407226,,,,
192.5519999,752,-9.139376067,-44.33669253,0,0,13.97127784,40.35655099,286.4959273,40.48831985,-91.09937484,17.95969279,146.7147598,2138.971624,0,11.60757011,19.34441141,17.6561604,,,,
192.5599999,752,-32.35475492,-84.70095761,0,0,16.77981374,97.516269,290.4283125,-5.907973962,49.55218318,-28.4092237,-85.92757056,1054.280942,0,-50.79406284,388.7478567,33.68002293,,,,
192.5679999,752,191.4873795,291.9246871,0,0,-60.12164904,108.4276264,102.8644922,-30.9203738,5.248763676,32.99146665,167.6475043,1879.420569,0,19.46401584,224.563929,6.767575891,,,,
192.5759999,752,-153.1172341,-277.8023882,0,0,97.51749315,71.75518865,427.0646516,86.54948337,-59.70580869,-6.773821166,-10.80379607,1584.023989,0,-23.77260508,110.4717933,64.89716174,,,,
192.5839999,752,160.7614599,242.091216,0,0,-67.84485212,120.8986454,69.98649797,-74.25535745,73.45626017,-2.954309646,24.02556631,1188.488983,0,-15.03609002,432.3836432,-0.911710747,,,,
192.5919999,752,-12.17955013,-39.31934509,0,0,21.64366009,48.23220938,252.6010656,35.48380225,-95.87974881,9.73353004,154.7872697,2084.278507,0,-5.144815801,8.41724119,11.64493898,,,,
192.5999999,752,-44.65040825,-90.38313913,0,0,37.26290596,97.49637771,270.7076044,9.281266673,30.52106079,-19.27559955,-87.6064354,972.4546991,0,-49.71092693,354.6774834,43.44736006,,,,
192.6079999,752,198.7858341,300.0193741,0,0,-52.93598755,93.29348931,63.55308155,-33.06662001,-12.58126537,37.04267684,154.9957268,1740.957473,0,26.70829491,195.7251939,3.987038121,,,,
192.6159999,752,-148.4693516,-278.0539587,0,0,103.3714337,52.12761511,384.8962776,69.3507153,-70.60247377,-17.85180528,-4.024160585,1496.438301,0,-28.2516469,81.13763803,46.08470081,,,,
192.6239999,752,155.1214036,233.6783538,0,0,-57.48486586,112.4856205,49.79177185,-84.91978271,72.85032851,-0.890166952,17.03905075,1050.178552,0,-8.758037075,410.7382595,1.667269672,,,,
192.6319999,752,-5.913267178,-31.09136489,0,0,25.50902189,57.00696783,237.5284089,29.58955311,-104.3325016,19.9931653,146.0132582,1945.03984,0,11.94460272,-26.62322831,22.87108715,,,,
192.6399999,752,-58.54328694,-116.5744852,0,0,27.84969536,109.2822905,258.1815555,-10.78543513,16.92539322,-39.31647597,-88.57051776,851.9109139,0,-56.10695772,329.7986487,31.86866566,,,,
192.6479999,752,387.8674552,628.6450544,0,0,-182.3509011,121.3660718,-167.3940028,-134.9106382,33.28411787,43.15299947,235.1438777,1675.852645,0,42.71509071,275.0006476,-41.39427313,,,,
192.6559999,752,-10.75924232,-24.82805828,0,0,15.61634266,48.98642987,235.444734,44.79853218,-86.31048926,25.08892671,119.5378381,1804.353893,0,15.20188837,-46.80124178,32.48539667,,,,
192.6639999,752,-106.7389746,-192.3259884,0,0,47.3695431,85.64455397,289.9256161,26.04573049,17.77734512,-33.03190949,-117.8676272,772.268403,0,-57.08432587,258.462518,49.27359646,,,,
192.6719999,752,117.4135321,176.5430049,0,0,-70.83802654,99.65590303,61.48088342,-49.3743662,-16.46722705,-3.517990807,88.00746273,1367.990175,0,-24.40745979,176.1068139,-10.82293403,,,,
192.6799999,752,-0.652380559,-15.16219197,0,0,-9.887773773,83.85401382,183.392039,-2.547045095,-44.21957351,-10.2284219,32.90764355,1291.560506,0,-36.4244559,108.4774917,10.48216169,,,,
192.6879999,752,-59.65670633,-112.0513408,0,0,25.53759622,79.2613458,243.992724,24.08585719,-28.45286784,-7.707987839,-46.59859124,996.9692813,0,-42.2066468,143.3308596,39.15922914,,,,
192.6959999,752,93.97853852,152.3900893,0,0,-56.96934043,107.0454125,83.83599344,-32.88542325,3.530752571,18.47751187,31.66679778,1077.766546,0,-8.247848751,180.375008,15.97539273,,,,
192.7039999,752,-39.77690037,-82.02968647,0,0,9.513453213,86.93973307,237.553037,32.21856474,-45.09142805,9.108189982,26.82871189,1237.932047,0,-7.6933447,28.08342666,32.82384552,,,,
192.7119999,752,-30.11598456,-67.3198768,0,0,-2.469287861,108.3442367,211.2657641,1.682229864,17.10971874,-27.8021226,-63.05791433,742.2840885,0,-40.11103699,203.9368863,23.53522228,,,,
192.7199999,752,112.3942406,177.0270951,0,0,-56.45391518,112.7310686,70.8468422,-31.86843361,-1.084396505,8.130036279,63.12703292,1095.4797,0,-0.333587053,133.0890326,3.257302108,,,,
192.7279999,752,-130.2809439,-232.9606509,0,0,73.93487086,86.36715773,324.5901865,66.05577137,-53.06719499,5.826047534,-58.02249318,926.8652846,0,-15.73894129,2.835373737,59.58163739,,,,
192.7359999,752,82.45506628,139.8265433,0,0,-55.9637789,120.502035,54.7216758,-68.7098267,57.31501939,-5.980838618,-52.69970426,518.7490877,0,-15.2464329,274.5005782,4.404095518,,,,
192.7439999,752,-36.56428883,-52.45112542,0,0,0.473759011,56.91782925,172.3684939,7.964487172,-77.48524459,-5.106437274,56.8989711,1210.364815,0,-6.085132384,-52.11972355,-1.48818757,,,,
192.7519999,752,-85.90345863,-146.4623286,0,0,43.13861564,105.0919656,247.7307624,25.161013,-0.547000602,-31.31869456,-150.1331251,307.5305577,0,-45.49566899,189.3137193,33.01763475,,,,
192.7599999,752,149.600273,248.1840586,0,0,-64.41468435,129.096843,23.45394529,-42.05316411,-14.3197343,31.84916535,33.32861574,779.2504678,0,19.55665857,111.1971562,10.05911224,,,,
192.7679999,753,-175.0768258,-295.8040726,0,0,74.98437107,81.48144159,329.9135048,61.01247715,-101.7248708,-1.483665055,-93.50443136,684.5664461,0,-29.67503965,-81.18791724,46.09694407,,,,
192.7759999,753,99.86798015,147.7122454,0,0,-39.4953939,127.8656413,64.12486589,-48.69759885,38.028628,-0.273021592,-117.8598257,83.01982724,0,-22.49985423,265.5494107,0.961893882,,,,
192.7839999,753,0.999057478,-22.02519406,0,0,21.91841711,50.92805186,185.5239559,40.34054639,-107.2196147,40.21198308,38.26044542,955.4178645,0,25.31505948,-132.5117366,19.869424,,,,
192.7919999,753,-114.5749506,-205.7771979,0,0,41.46171408,67.61602661,249.3431871,6.067681927,-17.02243265,-24.02903251,-197.4998004,-77.94075048,0,-47.22589886,159.2580672,24.15422252,,,,
192.7999999,753,165.2330793,260.5519817,0,0,-74.99703633,68.51536303,-4.638421174,-56.66427144,-36.28981463,28.3872067,8.138723682,438.4847676,0,15.71783055,96.86015891,-19.72404879,,,,
192.8079999,753,-175.601626,-299.1070954,0,0,91.34916569,21.9723296,340.565583,84.42788702,-134.360514,12.69645973,-118.5836733,346.5162387,0,-11.39887887,-127.8341714,51.01329995,,,,
192.8159999,753,84.14192151,142.7100149,0,0,-41.93665936,87.43444491,44.91695439,-60.25271011,18.91515569,2.999324176,-142.8679801,-328.868009,0,-15.27463055,255.2982598,1.745695375,,,,
192.8239999,753,7.25404428,-3.836008606,0,0,21.9243647,22.10361765,162.0495256,32.8572935,-131.9991567,39.69637142,36.82623777,625.8791777,0,28.75281046,-158.9678439,13.21263796,,,,
192.8319999,753,-116.2863716,-209.7397732,0,0,52.42895342,53.48578049,257.7879068,13.9649344,-35.22012636,-15.22904889,-209.2175524,-446.7992565,0,-35.00387169,126.5903767,36.77515014,,,,
192.8399999,753,168.1377903,275.2967953,0,0,-84.04641497,55.26580991,-28.99082811,-76.8621258,-45.45522204,25.93410111,11.07676978,86.36562175,0,17.57170214,87.11216122,-26.44951862,,,,
192.8479999,753,-168.1569771,-296.4179475,0,0,94.71887732,-13.19521057,322.7830744,73.63884269,-138.5957548,10.00908578,-108.8118096,46.58796881,0,-7.964910759,-147.945846,37.24470689,,,,
192.8559999,753,84.68645963,127.7527815,0,0,-45.07946317,37.92577734,38.49627357,-73.65391309,40.15232004,13.36310149,-147.2921277,-677.5523141,0,-6.987441187,243.1959066,-1.924474356,,,,
192.8639999,753,-8.67841384,-9.500219053,0,0,-0.700069191,-38.54355091,134.8572156,1.697298374,-107.5235228,27.76443254,46.08311299,325.6217801,0,11.27150367,-160.2823595,-15.27290679,,,,
192.8719999,753,-142.2706682,-230.2985585,0,0,51.78044536,6.816974975,247.6878288,5.616120078,-5.491133064,-37.44541878,-203.5371477,-738.173074,0,-55.92363911,129.1581787,10.33280503,,,,
192.8799999,753,162.728654,269.1073909,0,0,-84.50118542,38.51317995,-40.11711533,-85.28558457,12.27120363,23.83932923,19.23308613,-219.2344613,0,17.42848156,109.8391941,-28.82500011,,,,
192.8879999,753,-188.2655594,-308.2696249,0,0,91.04539786,-22.52672411,303.7235419,54.43196406,-93.79969038,-3.662107218,-84.81238981,-190.5207688,0,-19.39339743,-129.7700374,26.39994507,,,,
192.8959999,753,64.04001006,116.0947339,0,0,-38.46879161,48.31321824,25.96249827,-84.68755946,74.69071645,-5.300195037,-131.3835799,-941.5243024,0,-19.79490698,268.2414391,-14.70347656,,,,
192.9039999,753,7.347080141,0.881241156,0,0,6.043000842,-15.60848198,125.726045,-8.055354808,-71.62158871,32.07231741,78.21411689,94.27480911,0,17.6004865,-133.0995182,-11.55780092,,,,
192.9119999,753,-141.0799889,-248.9589779,0,0,63.24744565,14.35555992,246.6967526,-7.357222242,4.97271887,-40.34362051,-164.0586908,-940.0081207,0,-69.81003113,150.5828643,10.30128911,,,,
192.9199999,753,164.8329241,268.0559268,0,0,-83.44276974,28.60734203,-57.41961831,-104.1697693,14.84173216,9.318712699,57.99402905,-445.7059939,0,-9.496772824,146.2865813,-45.93303756,,,,
192.9279999,753,-183.8913161,-313.0827011,0,0,85.89481847,-45.14001717,302.0371392,41.74298924,-93.41185676,-8.383926363,-38.16825091,-372.5818407,0,-32.53853856,-114.8197518,15.80495257,,,,
192.9359999,753,50.42757569,85.33788637,0,0,-51.55150026,29.50970013,28.92141305,-109.1265952,63.28652503,-25.57062207,-95.95238277,-1150.815816,0,-51.21956062,292.3161755,-33.69652172,,,,
192.9439999,753,3.598864485,-0.199195701,0,0,-14.55648196,-42.36389814,102.4235032,-38.08720212,-89.36659555,1.416826035,121.119265,-84.57624555,0,-18.47618083,-103.2760136,-49.95276893,,,,
192.9519999,753,-157.7335146,-268.8988516,0,0,52.88694269,-19.53082195,252.3776213,-8.005249242,-7.02900863,-44.12694894,-133.760961,-1115.712122,0,-69.75163338,145.1870225,0.353370215,,,,
192.9599999,753,154.7142799,250.1800833,0,0,-111.1747265,9.987531922,-67.54028522,-124.3747504,7.469085442,-4.915294969,80.7743379,-653.9002072,0,-17.36048185,157.701336,-62.21558467,,,,
192.9679999,753,-179.8400796,-320.9717042,0,0,68.70401126,-62.51653471,278.4582167,18.06942492,-115.3773116,-34.41854824,-8.719357153,-523.8804195,0,-63.12898438,-111.5328204,-18.99427374,,,,
192.9759999,753,55.29500489,76.76471554,0,0,-34.40799135,18.51030753,39.61729201,-90.26712504,50.35024841,-13.08190725,-96.23649158,-1368.575394,0,-45.65103226,280.1973464,-23.03537149,,,,
192.9839999,753,19.70270253,15.21640873,0,0,-8.605302858,-45.02641891,96.91463193,-30.61841867,-89.23448002,21.83426685,124.2088082,-308.5556949,0,1.215572744,-113.7468766,-28.20253377,,,,
192.9919999,753,-155.9321852,-261.5768096,0,0,63.31326793,-6.661088035,234.2555381,-24.04092191,33.10048123,-40.0051843,-221.1953039,-1792.457107,0,-85.03812418,255.7463266,16.90343612,,,,
192.9999999,753,242.9806383,406.2016213,0,0,-115.4698373,37.58356924,-152.4586519,-137.870499,59.15067096,41.34458985,18.52065861,-1375.457098,0,8.545540419,272.5870287,-37.18450778,,,,
193.0079999,753,-179.7454745,-319.1187889,0,0,90.26275094,-83.94469513,280.4552156,58.66851093,-174.1705248,15.92931485,97.77740513,-342.649696,0,-8.612376939,-324.3854648,-5.133576664,,,,
193.0159999,753,-64.61583845,-94.21165333,0,0,-5.577336691,26.44816016,91.21740168,-80.91271612,66.13836467,-45.13489258,-160.1258266,-1902.863956,0,-76.32252839,315.6208621,-25.56956371,,,,
193.0239999,754,125.1967998,231.0973345,0,0,-75.50715062,-0.352372364,-69.73115856,-88.17282994,-48.54231377,15.07194088,143.0596304,-771.336611,0,-2.91862857,21.56650953,-65.8767257,,,,
193.0319999,754,-244.9966358,-395.9413477,0,0,112.7735994,-53.98021009,303.0421441,44.29946891,-118.5513541,-31.2084196,-58.42350527,-1100.820404,0,-64.15536477,-103.0833405,2.612882372,,,,
193.0399999,754,92.19828572,182.8990589,0,0,-68.28937525,38.32019089,-74.1934799,-127.8833375,47.26497725,-11.34347853,-62.7064103,-1726.992209,0,-41.39268026,298.1944479,-43.33932405,,,,
193.0479999,754,-63.03986429,-93.22251604,0,0,24.22030065,-43.61321041,114.725138,1.493508995,-141.4197189,2.885350586,115.0968807,-599.9174975,0,-15.82620317,-186.999773,-38.84022618,,,,
193.0559999,754,-134.4537092,-216.3342159,0,0,61.94663558,10.9767186,185.5365087,4.314035962,-15.96696583,-43.48564082,-140.7035958,-1741.324886,0,-64.27047615,150.7601368,-4.322259127,,,,
193.0639999,754,153.3061641,260.8835797,0,0,-63.80459392,38.32749922,-71.67246814,-69.34926939,-21.18576226,29.37981662,72.01392546,-1175.421752,0,16.67745573,78.69992759,-36.76519264,,,,
193.0719999,754,-180.6745817,-311.3542179,0,0,89.42812515,-32.8908027,265.1234108,54.4722021,-132.9006606,-3.789372146,-30.53699058,-1085.705952,0,-33.79950902,-172.1043965,7.991823608,,,,
193.0799999,754,47.40790834,86.48625778,0,0,-48.7508321,33.87628839,-11.08061755,-95.03039455,26.99884847,-22.01909767,-99.27473537,-1869.495664,0,-49.06075949,243.4798842,-40.77028711,,,,
193.0879999,754,5.659333379,12.47127276,0,0,-10.27070748,-33.6154783,59.57073946,-28.10092299,-121.082302,16.41121125,115.6439217,-769.3045968,0,-6.445997079,-162.457244,-47.84276197,,,,
193.0959999,754,-160.6156358,-260.6657478,0,0,67.54788099,-10.80170199,210.1419842,-2.15180668,-46.30798264,-36.3673585,-131.2832482,-1724.017114,0,-72.24208184,72.41565742,-9.614668592,,,,
193.1039999,754,147.953154,270.1212953,0,0,-76.37822319,26.95230665,-97.13167829,-103.446291,-24.3068433,11.54339166,50.05024708,-1349.153288,0,5.555252817,108.4462945,-60.06297655,,,,
193.1119999,754,-167.8028514,-275.0197194,0,0,95.847265,-43.18548213,249.4654013,45.82290586,-150.1693498,-6.335917591,-17.71258207,-1087.559257,0,-11.98030994,-197.6478401,-3.836003172,,,,
193.1199999,754,27.868878,54.86386168,0,0,-9.339238609,24.92251824,33.45942048,-66.74306176,18.74904774,-19.12911867,-125.3443582,-1968.183721,0,-33.27069753,220.0561231,-25.401876,,,,
193.1279999,754,22.21988675,60.10556267,0,0,-12.02773299,-37.56521343,39.83221305,-25.02220861,-118.4006026,18.43928849,104.4849757,-866.3921569,0,18.25887467,-158.3974056,-42.04082097,,,,
193.1359999,754,-192.7864824,-297.5103583,0,0,75.79400589,-28.19194479,222.9657919,-0.903269413,-58.88002404,-48.54072051,-138.7607718,-1738.76611,0,-57.99245843,32.7572674,-8.86256754,,,,
193.1439999,754,151.2316788,266.3012515,0,0,-75.26654363,21.31323267,-100.7151776,-110.5015385,-10.6072357,-8.651867644,33.08397334,-1438.764976,0,-13.16313319,125.3868265,-70.22980192,,,,
193.1519999,754,-169.6101921,-267.5670502,0,0,86.33216081,-41.42211722,231.3378505,40.37145519,-153.8899683,-22.34526122,-11.02846383,-1067.374682,0,-38.0395351,-198.1083733,-16.60829384,,,,
193.1599999,754,-3.081992992,28.87830729,0,0,-9.057193465,33.65718891,25.30031217,-71.56702218,6.678551438,-32.43225,-136.0405297,-1981.92476,0,-53.00203526,228.4545511,-25.90151341,,,,
193.1679999,754,42.35535432,86.98899176,0,0,-5.112368704,-20.32145931,25.99673958,-17.60558072,-116.6363399,21.51128277,91.18483233,-884.0934554,0,18.62485688,-146.2489526,-30.99372024,,,,
193.1759999,754,-186.8214138,-303.2196967,0,0,92.23513578,-22.71243935,233.8929332,22.58737234,-57.18139457,-38.79260382,-153.7470559,-1727.874288,0,-51.39659354,16.2482842,12.34354144,,,,
193.1839999,754,153.4382336,272.3914677,0,0,-74.83877138,12.0471491,-119.5401804,-103.8747112,-2.317022193,-5.119189192,17.9835375,-1479.200301,0,-15.05680432,136.8462494,-58.75140059,,,,
193.1919999,754,-157.986454,-252.5757857,0,0,82.64779408,-59.21753898,210.3191213,50.85666465,-142.0770318,-10.16526837,-13.67246329,-1060.993552,0,-26.57780939,-212.1225558,-5.7904496,,,,
193.1999999,754,-3.161149239,11.60252886,0,0,-13.81801049,16.79884424,12.9494241,-71.16975149,36.8583013,-34.32211444,-145.3192537,-2016.462505,0,-50.18000261,225.6769221,-26.78880488,,,,
193.2079999,754,54.05637972,94.93069026,0,0,-17.79590017,-46.93901455,-21.11747104,-36.29753068,-86.57961471,-4.010522602,102.8137866,-896.2897221,0,-10.55683556,-120.5850507,-59.36029467,,,,
193.2159999,754,-188.4651651,-303.8743149,0,0,104.29662,-47.53419967,218.3647067,38.44183404,-42.42129305,-45.04612392,-145.1499144,-1719.598945,0,-64.88478012,9.699652507,9.215810645,,,,
193.2239999,754,145.2974581,269.688016,0,0,-75.92880501,19.13000847,-136.7203749,-100.5376876,19.14212366,-1.661172895,7.653456479,-1547.900527,0,-1.230851664,134.7887513,-46.32453769,,,,
193.2319999,754,-162.6775058,-254.0933623,0,0,79.01955942,-49.5555828,175.1507522,39.14904278,-143.3470728,-32.53225195,-8.293082984,-1068.241652,0,-38.00901133,-214.0639222,-20.5647781,,,,
193.2399999,754,4.692697905,17.28957381,0,0,28.86540388,35.52830159,21.52507502,-33.11465252,19.52423022,-27.46802184,-160.2553127,-2072.546831,0,-45.09225025,204.9655091,-8.354613574,,,,
193.2479999,754,75.06998145,120.1921982,0,0,11.90731262,-8.932922241,-17.04476172,-3.643576909,-88.44621274,48.36339983,77.30804748,-1008.660721,0,42.02834504,-165.6150573,-3.784158898,,,,
193.2559999,754,-200.1342936,-319.3133973,0,0,115.5020539,-30.41386677,204.5299056,41.81168586,-44.19761007,-30.91925336,-155.5428458,-1787.427106,0,-54.37037992,-29.11710509,23.40769043,,,,
193.2639999,754,152.7826699,275.1476998,0,0,-49.66183388,18.90535137,-149.1085245,-85.92776088,23.21656101,-12.17015061,2.748096524,-1638.749632,0,-20.27623326,137.5353889,-52.71631453,,,,
193.2719999,754,-214.8485473,-371.0358611,0,0,138.7124364,-117.8030099,257.8522431,106.4207303,-229.0551392,-5.489693485,90.57033505,-529.8483782,0,-5.345612596,-494.7041285,3.029492616,,,,
193.2799999,755,-203.4177884,-331.9130194,0,0,106.4061308,-69.94205289,192.8654541,23.10322424,-53.34148131,-59.2381677,-148.6859979,-1812.84429,0,-63.87660962,-26.53221979,7.234944166,,,,
193.2879999,755,131.3458678,241.4247861,0,0,-59.12908778,-8.399166721,-161.4640425,-107.3559751,44.34276173,-41.75319877,-20.5470663,-1810.310766,0,-32.68808312,191.6860897,-62.52417387,,,,
193.2959999,755,-110.5842282,-174.7177063,0,0,75.09883894,-75.00163139,106.0708908,28.2017677,-87.24202976,-39.18555144,-18.92617068,-1327.125248,0,-35.88612848,-147.8413729,-14.85267612,,,,
193.3039999,755,-77.01862764,-116.5671487,0,0,69.79516227,-57.80189983,75.90498811,11.39683711,-35.54284837,-42.47994128,-96.51333016,-1730.592923,0,-38.1201363,-26.60055666,-0.047373398,,,,
193.3119999,755,-1.595552602,13.24336929,0,0,20.87830109,-39.0408786,-20.01955897,-32.92387647,3.813469084,-42.95360895,-92.90803484,-1857.866066,0,-28.56877895,53.1281236,-9.909453664,,,,
193.3199999,755,-98.21205477,-147.1740378,0,0,54.9270187,-80.61121606,60.41638683,2.673825965,-77.87192921,-47.53736588,-25.46982565,-1389.937459,0,-26.55803222,-156.3386684,-11.19676348,,,,
193.3279999,755,-143.8043938,-215.583239,0,0,66.59504074,-61.74154822,77.30256552,-11.7347703,-23.05065173,-101.7490553,-123.7697608,-1876.806644,0,-74.35369745,17.13345144,-24.02503257,,,,
193.3359999,755,-16.64642925,11.0545513,0,0,0.742706235,-26.78761998,-61.82485111,-47.64018609,-11.69084906,-81.08968146,-52.64585386,-1733.673017,0,-35.87055387,32.59747042,-35.0196299,,,,
193.3439999,755,-197.2471382,-284.8558014,0,0,79.17488439,-70.43963918,103.3487272,22.03946095,-111.9783561,-88.11765806,-67.48857027,-1450.154303,0,-42.78229415,-197.8391162,-8.519293982,,,,
193.3519999,755,-125.2795678,-156.0292717,0,0,21.00110305,-24.57800985,-8.897794102,-53.82971834,-5.591066117,-127.7579368,-189.3434489,-2213.219924,0,-84.87265002,117.7116974,-33.85744445,,,,
193.3599999,755,-65.34241371,-64.49568844,0,0,0.932220372,-49.33063756,-49.59258956,-33.80289362,-103.2449348,-89.02692839,-2.051119616,-1378.056406,0,-30.02288849,-143.0492575,-49.97737186,,,,
193.3679999,755,-284.9408604,-424.0718325,0,0,98.98971085,-60.20410156,145.9368378,10.98587983,-80.66986578,-142.5841786,-185.7132897,-1962.603401,0,-90.10543433,-56.76936661,-20.8252625,,,,
193.3759999,755,-15.21866095,50.51403132,0,0,-34.23413328,-8.982391691,-128.1311222,-83.3406262,-6.302144111,-111.9765618,-92.22146141,-1985.052509,0,-50.91322503,95.37408093,-61.46740596,,,,
193.3839999,755,-232.9816716,-331.182244,0,0,85.14596255,-85.23619898,124.8174159,43.29107085,-141.5123698,-105.5887477,-69.91854737,-1457.773273,0,-42.72124111,-256.5491818,-16.68555947,,,,
193.3919999,755,-163.3587965,-210.3448041,0,0,21.8140939,-32.88924317,-0.389221028,-63.836173,0.853614519,-149.3549577,-232.1361735,-2454.119248,0,-85.82119368,140.9112094,-32.271966,,,,
193.3999999,755,-49.28266334,-13.97606146,0,0,-21.9246017,-64.82821674,-110.1631195,-65.95043792,-98.54855291,-104.6523726,6.71448189,-1474.160565,0,-33.29522944,-126.9583574,-70.54711113,,,,
193.4079999,755,-305.5885183,-451.5911407,0,0,123.6840357,-96.62956158,170.2786997,38.72459139,-71.85309792,-140.3055975,-204.3496955,-2090.593006,0,-96.04730997,-78.37276885,-9.716302041,,,,
193.4159999,755,28.04244657,110.6610957,0,0,-47.05816151,-24.9615532,-159.4081249,-101.0261042,40.0507573,-95.55225949,-101.1892347,-2180.805464,0,-51.20992093,124.4991784,-54.93391535,,,,
193.4239999,755,-203.3326789,-306.413761,0,0,80.7176961,-96.75566742,102.0179232,20.2843805,-111.6881304,-98.39830898,-56.13510654,-1534.753588,0,-60.75290693,-256.4061597,-31.57019675,,,,
193.4319999,755,-113.889569,-168.945396,0,0,46.40685442,-33.01933062,11.98847956,-41.28715467,47.93103375,-114.4828432,-241.2614872,-2628.858557,0,-85.63172341,156.9171883,-16.40776242,,,,
193.4399999,755,27.6517995,59.02549781,0,0,-17.26722073,-55.5882914,-101.9302613,-51.95585663,-46.89480925,-55.32388062,8.34083087,-1630.433211,0,-13.19655775,-119.8075619,-45.76464154,,,,
193.4479999,755,-262.9147828,-437.2037008,0,0,121.2744322,-88.48009655,177.7643758,26.83891948,-42.31466431,-132.3419476,-191.1524053,-2197.560961,0,-104.0507953,-63.20013291,-19.72313619,,,,
193.4559999,755,81.29548452,170.6891936,0,0,-28.67475728,0.403669644,-150.8265553,-87.54222775,62.0732106,-69.57158816,-91.26239306,-2320.029176,0,-35.333337,158.8001342,-44.82189165,,,,
193.4639999,755,-150.7967657,-232.1187043,0,0,115.9253949,-62.35005129,144.9760291,64.06975557,-100.484004,-34.88383696,-47.29271532,-1637.35433,0,-7.828424246,-274.5956095,16.57105202,,,,
193.4719999,755,-78.42884744,-124.221941,0,0,63.79323193,0.924771943,45.21371051,-26.4289238,65.01272885,-84.84800138,-231.6056894,-2735.736925,0,-66.27476197,148.1506223,1.114773689,,,,
193.4799999,755,68.13515249,128.8018298,0,0,-11.4988151,-15.84696083,-94.43076022,-43.49820559,-27.23630753,-39.64357274,36.1451642,-1683.912932,0,-3.136722845,-105.8938562,-46.42940873,,,,
193.4879999,755,-232.167067,-387.9892182,0,0,131.9028523,-58.37808614,200.7991964,47.99500966,-25.78514634,-97.14950723,-163.9178645,-2190.65029,0,-75.84408564,-75.08451924,-0.88059865,,,,
193.4959999,755,120.8577167,206.225272,0,0,-40.94789105,6.275165221,-162.5830631,-100.9841902,90.45121585,-59.41016683,-75.70546376,-2319.627407,0,-41.09681979,169.8205289,-53.86750852,,,,
193.5039999,755,-112.9885562,-192.0790687,0,0,93.44484364,-78.11190219,97.85467092,35.71087079,-82.06764198,-47.07464136,-21.01017507,-1544.433573,0,-37.62767845,-258.5995403,-19.95077359,,,,
193.5119999,755,-64.52214328,-99.61271906,0,0,63.24782345,-21.2695267,15.98641882,-37.67933505,81.44722225,-76.67343815,-221.5956702,-2641.450605,0,-79.87503216,153.7520007,-12.76156939,,,,
193.5199999,755,107.8813473,181.9220359,0,0,-0.923021313,-34.95713746,-120.8808055,-51.32814248,4.462783515,-10.84512238,33.67887492,-1613.104703,0,-4.022673242,-107.2268173,-44.51232422,,,,
193.5279999,755,-200.7474653,-351.3697773,0,0,142.3617229,-76.9746128,185.1306885,47.4055265,-5.614154912,-68.45749813,-161.3675919,-2080.258064,0,-74.07086342,-102.5522972,2.703069058,,,,
193.5359999,756,134.2347451,230.6671143,0,0,-40.80608951,-4.384379123,-176.2559561,-99.82054728,102.0639201,-44.52941909,-71.84926315,-2231.925342,0,-39.40461475,168.8116611,-53.18703631,,,,
193.5439999,756,-84.36372893,-152.1966942,0,0,94.29154741,-78.32509353,95.49810866,41.83405327,-74.23245238,-30.26853013,-7.8615233,-1414.429879,0,-26.69682436,-263.4866541,-12.13452738,,,,
193.5519999,756,-44.37020655,-84.75192676,0,0,72.53595958,-7.754343393,38.41848798,-21.10193577,83.19544949,-61.70145227,-217.5129804,-2527.593883,0,-65.96099922,139.3709979,3.173911406,,,,
193.5599999,756,133.4110181,213.2025845,0,0,-1.699220856,-14.15867199,-117.7291272,-41.44696504,3.593606246,-7.953882407,37.85395186,-1511.631725,0,3.635691478,-105.1063564,-35.78235014,,,,
193.5679999,756,-180.6770856,-321.9040113,0,0,153.3553752,-57.50776592,200.135257,69.40776078,-12.22068824,-56.24797218,-159.565236,-1942.65125,0,-68.4846674,-127.9773673,19.95844737,,,,
193.5759999,756,156.3946703,258.5898533,0,0,-21.26601361,31.26569677,-161.9246334,-78.6769615,109.398831,-25.87518864,-78.32352591,-2143.788494,0,-29.27927669,149.8492462,-32.71825187,,,,
193.5839999,756,-62.8256982,-119.136516,0,0,101.7607677,-36.19913261,84.16185224,45.20699976,-56.31318726,-16.21612492,4.084284755,-1282.321045,0,-15.74588655,-283.7304787,-1.412357976,,,,
193.5919999,756,-48.02712194,-80.5948434,0,0,75.33018277,25.46858972,33.76884642,-20.13950624,98.4226951,-57.98120172,-210.7799688,-2397.51022,0,-76.4200196,116.4383049,7.816076605,,,,
193.5999999,756,140.5438943,228.5224602,0,0,-16.1724365,16.50549105,-146.1015942,-66.07627426,13.35655455,-13.45460622,46.45067958,-1396.344484,0,-9.665673983,-112.8146733,-48.20741881,,,,
193.6079999,756,-175.3441152,-319.3091763,0,0,147.3317386,-29.90806455,179.4210028,45.8324828,-9.374959713,-52.23085683,-142.7934968,-1775.966051,0,-57.20057826,-158.2403665,10.58739952,,,,
193.6159999,756,163.8638106,273.5084048,0,0,-12.35003495,52.22357915,-160.9329122,-77.64797796,117.2922758,-10.45298032,-77.06587963,-2021.989161,0,-14.27172621,122.2252378,-27.10721329,,,,
193.6239999,756,-48.48974552,-90.16562261,0,0,93.38421911,-30.73413075,72.50184354,36.52431393,-63.94280432,-6.411673297,16.18278378,-1119.239596,0,-10.18300698,-317.2047088,-5.818419607,,,,
193.6319999,756,-47.99440793,-89.97817454,0,0,59.87861472,23.48066102,25.92836182,-35.88498984,74.00914095,-54.90079126,-192.8506349,-2214.771449,0,-73.233312,94.82169799,-1.635584552,,,,
193.6399999,756,149.8770679,247.8915374,0,0,-29.42084229,12.0884943,-165.845922,-76.94106726,-15.78507578,-14.99236531,75.23947677,-1213.452095,0,-19.10369847,-96.15696617,-61.35768927,,,,
193.6479999,756,-181.0633961,-308.6548003,0,0,141.8311825,-37.95861806,166.1128685,44.93864541,-49.03267168,-60.77647921,-108.820344,-1556.483624,0,-78.5816032,-157.9054914,-1.809605271,,,,
193.6559999,756,153.7074016,262.8804901,0,0,-24.34261937,54.42520425,-170.6104243,-80.34590565,94.35163924,-6.562110675,-66.84633919,-1876.334253,0,-17.65360809,127.3219766,-24.81322977,,,,
193.6639999,756,-39.80148921,-73.69869541,0,0,87.16105043,-24.59254443,56.84584263,40.34408421,-72.52792839,6.323586577,31.98205617,-952.2352682,0,-1.316528972,-309.2273415,-5.019356846,,,,
193.6719999,756,-37.90206814,-66.87904886,0,0,93.49251433,45.65186314,46.98086115,6.181563264,81.38137171,-29.90980187,-195.2774776,-2080.071909,0,-50.97548579,73.56892747,18.42648219,,,,
193.6799999,756,177.431792,294.1399647,0,0,-2.554472808,55.13148204,-146.1367,-39.04118697,17.37373118,46.40565348,46.29285835,-1162.394908,0,41.52287683,-142.8454968,-10.32369024,,,,
193.6879999,756,-171.7420404,-290.2925016,0,0,147.2203257,-8.087111836,173.838084,48.55273899,-30.59032747,-23.34047409,-118.0552252,-1456.331751,0,-38.06189083,-201.6527394,21.73460506,,,,
193.6959999,756,155.6532063,274.5953161,0,0,-14.36013467,80.89391277,-157.6885938,-85.01645076,93.39845263,-12.57818663,-61.88186381,-1777.834281,0,-15.28110239,128.4394243,-32.26497975,,,,
193.7039999,756,-24.26632414,-49.68351441,0,0,84.1470218,-1.847964752,59.25630468,23.03299377,-81.98072737,7.456456666,46.49967617,-813.492647,0,9.685376714,-312.9954049,-10.49175326,,,,
193.7119999,756,-51.03531964,-85.41740749,0,0,74.40377749,50.49520613,42.22149928,-29.84379641,66.35524806,-43.68540932,-174.7678412,-1920.430203,0,-53.00364847,86.53686936,-1.424962493,,,,
193.7199999,756,172.3849291,300.8211116,0,0,-22.21109995,65.15680208,-160.0691428,-68.8906702,8.216915779,20.37346824,73.18521666,-1004.305424,0,32.80809751,-95.5952865,-36.77591113,,,,
193.7279999,756,-170.5996464,-288.5680239,0,0,139.1313283,9.975768589,178.1435865,39.50467938,-31.77506372,-28.88762922,-95.75439438,-1261.289358,0,-39.57177847,-187.371912,15.06189138,,,,
193.7359999,756,145.130332,262.863073,0,0,-24.54951785,109.8452771,-154.2156398,-95.04298774,110.1867752,-11.09038704,-56.61402712,-1639.676853,0,-27.21966021,151.5298386,-32.151506,,,,
193.7439999,756,-28.45125898,-34.79119219,0,0,67.98272074,32.75048981,47.39927196,9.310030977,-63.75637527,10.82439201,60.94856297,-653.6621382,0,7.170792801,-296.7419938,-8.732555329,,,,
193.7519999,756,-62.50469839,-99.29855284,0,0,63.14173156,73.78905826,30.92816498,-44.23602542,79.09438722,-39.34538715,-165.7760199,-1773.494544,0,-53.4023016,82.6090877,2.98449048,,,,
193.7599999,756,175.8922332,306.4633876,0,0,-27.64548664,93.99912937,-194.7812637,-82.54553721,24.57413089,15.56456522,78.75965883,-894.1406573,0,18.46762155,-80.57123331,-46.42988855,,,,
193.7679999,756,-169.4075873,-277.137587,0,0,154.7112058,45.12397471,162.7964207,45.74463556,-19.77977856,-21.18511423,-90.53367043,-1118.154522,0,-36.13954565,-200.013157,19.34263817,,,,
193.7759999,756,145.5838761,259.5592086,0,0,-13.61597945,134.4607513,-168.3671214,-94.89731021,127.3109595,11.0643731,-69.02041836,-1563.984571,0,-11.3954924,137.1544629,-14.37925458,,,,
193.7839999,756,-1.876625171,-10.40215075,0,0,81.05097529,51.23515752,24.34897068,20.18918888,-54.33331061,25.45696202,58.22740891,-561.3365381,0,11.4773093,-305.7039283,-6.114138264,,,,
193.7919999,757,-51.61029007,-92.02113054,0,0,92.11490316,92.28572833,51.44159219,-14.90277676,83.31423484,-17.87071789,-176.9711986,-1700.963404,0,-44.69352051,57.82724832,19.62224146,,,,
193.7999999,757,185.8659327,317.7323618,0,0,-31.24498284,103.3437008,-188.2558575,-86.84385289,36.9119641,36.93743766,65.29236729,-873.0823935,0,27.75221395,-91.38670449,-37.28526788,,,,
193.8079999,757,-360.6776348,-621.0404775,0,0,246.0301037,-0.446710318,369.6367989,109.6877793,-61.27823662,-49.20568528,-175.7921263,-1129.005623,0,-70.51086026,-300.1910124,29.70937758,,,,
193.8159999,757,-13.96109947,-8.9011126,0,0,57.13119716,124.9895216,-11.74355062,-58.76185931,152.2929679,-25.59387631,-220.8561037,-2015.403017,0,-48.35299692,214.6034069,3.697249774,,,,
193.8239999,757,222.9407621,416.2790903,0,0,-63.45467679,117.7882372,-234.6200418,-83.40234463,6.115466382,63.44105118,163.5539682,-425.6445619,0,61.80893058,-192.8369901,-49.60860383,,,,
193.8319999,757,-216.327739,-335.1437073,0,0,135.7959134,60.8022207,189.8034408,37.76118944,7.335141601,-40.4626717,-124.7730676,-1157.329351,0,-60.83688813,-152.0558528,-0.338717215,,,,
193.8399999,757,100.8803666,199.1332504,0,0,-28.81103163,131.2714013,-143.0251411,-95.35053589,130.7492486,-18.71819915,-68.56255399,-1435.167987,0,-25.36302804,137.4974669,-44.3241876,,,,
193.8479999,757,74.66057448,142.9144852,0,0,-1.297657459,85.7839281,-89.00479329,-32.94785,-5.799093946,26.84618215,80.78794134,-540.5786565,0,29.60590971,-214.5449824,-36.64587077,,,,
193.8559999,757,-138.0819797,-216.0883437,0,0,91.36643402,78.9972761,108.4138874,12.02195901,48.76999395,-27.28556203,-144.9367758,-1355.228272,0,-41.16331175,-45.15600016,-0.204431854,,,,
193.8639999,757,160.355173,307.435524,0,0,-57.41114838,122.4796028,-185.8486558,-80.94167944,94.54131329,23.84642419,13.63642049,-1063.086933,0,26.69233351,33.06411483,-41.10786159,,,,
193.8719999,757,-64.22489669,-80.3459479,0,0,59.67115313,55.10238854,54.94145551,26.21023934,-15.90791735,19.53655578,-0.446694597,-660.3796435,0,10.1488576,-248.8416143,-7.124958652,,,,
193.8799999,757,-23.25949935,-2.826809855,0,0,34.42327891,100.3616634,-12.49947666,-22.35994816,103.5882273,-6.938759295,-138.4881095,-1455.522958,0,-30.90079106,58.96572853,-9.693329206,,,,
193.8879999,757,144.8158763,282.1192166,0,0,-34.78290848,106.3877341,-158.0842718,-51.10285489,48.03586126,47.88328203,56.6018535,-707.6352221,0,49.14188842,-115.9777082,-26.42637541,,,,
193.8959999,757,-145.6104532,-228.1769133,0,0,106.6651855,51.05457643,131.5978496,33.52453635,9.989791574,-18.96091602,-99.03086383,-983.2033226,0,-23.17396113,-174.3840165,5.770741482,,,,
193.9039999,757,140.54336,261.3402493,0,0,-29.52521849,115.6964299,-166.9940066,-76.4528756,128.0897046,5.600462854,-58.95141607,-1288.027355,0,-3.12478452,106.0460212,-33.16591644,,,,
193.9119999,757,1.423156885,19.76243512,0,0,56.75142392,64.4815927,3.054825815,29.9302184,-9.694139798,59.40063175,37.46515749,-479.0879627,0,46.51539559,-287.242937,13.08929622,,,,
193.9199999,757,-69.32398635,-87.66769098,0,0,62.88958805,102.0916052,31.68487272,-1.981551118,114.5662194,-4.804506436,-157.9869043,-1441.395667,0,-20.82477174,38.69222792,13.21982039,,,,
193.9279999,757,164.9917635,317.4164494,0,0,-65.07160058,120.8866888,-205.9230444,-74.50405184,85.18248342,30.7048639,55.94769872,-754.1171678,0,35.33796151,-51.93186404,-40.7615401,,,,
193.9359999,757,-157.1020649,-242.4610993,0,0,101.8379442,70.58971696,124.7611608,44.44487558,16.96571461,-1.358150662,-79.73906724,-837.2192554,0,-19.38956478,-210.6576231,12.22098946,,,,
193.9439999,757,117.6902715,228.6573313,0,0,-33.83544659,157.2309527,-170.674894,-79.25728247,165.9348184,6.083875284,-80.82155828,-1361.041504,0,-12.19277242,157.5217059,-30.12802357,,,,
193.9519999,757,8.890316965,39.53878162,0,0,34.97598727,87.23988973,-32.05853559,11.86973778,-2.752588809,31.83297001,67.62814695,-346.7058111,0,31.05939476,-264.4117761,-12.38270802,,,,
193.9599999,757,-100.1621232,-128.0956126,0,0,75.59983739,113.737672,35.41920387,-1.430036592,109.2539502,-26.35961683,-163.2665598,-1371.040884,0,-38.47778409,48.59609022,1.617439921,,,,
193.9679999,757,169.0394061,334.8876377,0,0,-56.87735492,139.6601391,-228.7043711,-76.25926157,84.33936989,20.4600352,48.27489161,-702.0901894,0,24.7720554,-28.05167164,-54.72597817,,,,
193.9759999,757,-150.9761101,-232.1072122,0,0,123.3982656,77.15573842,136.4255679,67.11571546,4.577343186,-0.490505634,-78.90685697,-694.7998797,0,-8.50855102,-234.303594,15.36238768,,,,
193.9839999,757,112.6013109,225.1262381,0,0,-29.40423457,166.5942701,-161.5180189,-73.76420115,171.9250725,15.66850078,-100.0957067,-1307.957221,0,13.02489918,153.5669093,-23.01911269,,,,
193.9919999,757,9.587742672,53.22968342,0,0,10.27158257,89.75266906,-50.4047142,-9.06282688,3.241746933,11.02238952,76.97194844,-180.4318786,0,27.34973122,-262.0363299,-44.60304898,,,,
193.9999999,757,-101.4617089,-131.2944446,0,0,74.6367219,112.3469126,56.0816712,-0.893930755,127.9451979,-38.07953048,-159.3792327,-1187.543736,0,-46.69567018,51.9985338,-7.961941583,,,,
194.0079999,757,189.8827424,362.4980917,0,0,-65.88797514,153.4228829,-226.4722203,-86.2418843,108.7361487,38.55242061,50.83487773,-551.5587112,0,40.44563442,-16.98818823,-53.50703532,,,,
194.0159999,757,-145.5197,-226.7992595,0,0,107.1906235,82.21951631,131.0425358,53.11899998,3.315130084,-10.25227364,-58.42307973,-463.4706931,0,-18.8053988,-235.2046621,-11.38490112,,,,
194.0239999,757,116.5746507,226.3495369,0,0,-20.63255601,164.3983871,-152.2591707,-63.12272757,171.9068649,7.157638536,-97.00640413,-1134.209179,0,-2.95894289,157.8388698,-25.0980216,,,,
194.0319999,757,31.09826541,82.44600367,0,0,25.24440707,100.1013584,-49.63522411,7.149826733,-6.386501818,37.61667015,77.73791313,-23.16286502,0,46.89961317,-288.0269423,-28.02050991,,,,
194.0399999,757,-102.4281322,-147.7470949,0,0,79.81653411,123.7077095,63.96977319,10.67557561,101.2101715,-29.70492865,-154.4033224,-1031.600772,0,-34.27349065,21.47333329,-7.428021393,,,,
194.0479999,758,199.0196175,358.9029704,0,0,-68.85728941,153.2859948,-238.4240697,-80.49197393,86.02507238,32.77960965,54.30059876,-445.7546761,0,41.81739262,-19.1369158,-51.62055584,,,,
194.0559999,758,-146.0542664,-231.1313912,0,0,111.237524,72.42844209,119.0280198,56.61840086,-25.97933869,-7.321832734,-51.78172591,-330.8637447,0,-6.104416851,-253.0242298,-7.932237055,,,,
194.0639999,758,98.39711792,200.4832993,0,0,-19.28463032,150.5507007,-154.4359712,-66.36325502,142.9996002,-7.301511536,-103.2128684,-1048.631529,0,-1.776693687,160.7336027,-37.90742642,,,,
194.0719999,758,35.2425549,89.16135088,0,0,16.64934385,78.51144332,-67.51269486,1.333235955,-31.58780293,27.61425817,73.91255632,61.68519492,0,43.45083943,-279.3825783,-39.31065828,,,,
194.0799999,758,-111.0579288,-152.9668443,0,0,86.11844103,98.46272576,65.15071768,21.48253376,84.45487323,-30.34160157,-156.4610246,-926.5101479,0,-31.30855793,23.14256831,-11.84432414,,,,
194.0879999,758,197.3341717,371.6788633,0,0,-64.39328259,146.7327078,-228.9165621,-60.44445283,90.07169349,35.18653602,37.3849944,-401.4966993,0,57.53740447,-14.78292508,-47.69873341,,,,
194.0959999,758,-143.9692311,-224.4593717,0,0,94.34014851,75.69781292,120.1032421,58.64020384,-18.30917666,-9.042777262,-58.79290208,-248.6996244,0,8.078883652,-270.7872781,-8.836482459,,,,
194.1039999,758,88.68208083,181.7377135,0,0,-38.94142991,150.8105753,-161.4122863,-77.06361788,164.6854793,-22.92845066,-100.6134576,-964.2107169,0,-7.190811244,179.4519299,-59.96998061,,,,
194.1119999,758,44.68667013,101.3888067,0,0,8.25197089,83.85954149,-79.4179938,8.558804143,7.504687668,24.80346855,77.76707998,151.6378918,0,48.45689488,-262.7258271,-50.5961439,,,,
194.1199999,758,-114.9919731,-165.4614317,0,0,86.73060695,98.455809,65.49069171,30.5378838,118.9772797,-40.22799279,-155.6154072,-819.5003329,0,-27.98951116,15.65287484,-15.95907981,,,,
194.1279999,758,188.3087167,364.2350846,0,0,-68.08916999,151.4509069,-248.9612464,-67.61181626,114.3757607,14.2319748,35.95709141,-330.3606021,0,55.3331808,5.598833964,-63.5399339,,,,
194.1359999,758,-145.455296,-215.3235883,0,0,105.1577355,100.493345,106.7424824,74.83916388,-5.056230301,-10.79067845,-55.76853377,-141.4171147,0,21.74675498,-273.0879967,-9.986485213,,,,
194.1439999,758,89.11396963,178.1721509,0,0,-20.27150487,191.0865229,-156.3264488,-48.37621869,183.9125183,-16.60458736,-111.6904741,-908.6191263,0,9.274071982,165.6547492,-41.43669457,,,,
194.1519999,758,48.27932281,103.5756002,0,0,2.733530324,133.0260298,-102.6903666,11.57774408,26.09668201,19.14976583,72.94663172,195.2249671,0,63.40113575,-271.2176401,-48.47538775,,,,
194.1599999,758,-136.0845252,-196.8707422,0,0,75.07756625,135.8601437,41.49377327,25.20077593,131.9704903,-56.02387617,-153.8165988,-742.7879194,0,-29.60668628,7.905878811,-30.05160783,,,,
194.1679999,758,179.4571878,350.4070146,0,0,-80.83670433,174.1868031,-276.1973412,-73.39882123,138.9286539,7.633674725,23.33277081,-306.4609414,0,39.17709006,6.953904076,-73.02340985,,,,
194.1759999,758,-148.8480561,-221.6491078,0,0,95.17289436,109.4328199,82.75127947,67.78856275,17.90667405,-21.83280552,-63.06597559,-79.03202141,0,9.537970051,-287.6999541,-25.98162132,,,,
194.1839999,758,71.84478685,150.5480507,0,0,-22.96908704,183.2118686,-166.9543445,-54.65291196,192.4717685,-38.39381287,-120.0983984,-866.4372853,0,-0.679400895,173.722909,-58.95508021,,,,
194.1919999,758,55.93154464,116.6460579,0,0,4.484323025,127.4194155,-111.4353848,21.80441328,17.58724582,20.94198795,61.10267973,221.3515943,0,75.01331099,-272.9562385,-44.53051995,,,,
194.1999999,758,-129.2181174,-195.1011383,0,0,89.10412249,141.4068574,56.4935506,48.76790793,129.270454,-45.79047673,-169.6378302,-696.7827786,0,-5.060426406,-18.24607211,-14.17383111,,,,
