Time:125Hz,Epoch,FP1,FP2,C3,C4,P7,P8,O1,O2,F7,F8,F3,F4,T7,T8,P3,P4,Aux1,Aux2,Aux3
303.0879998,1183,16.12311457,321.217761,-264.0703197,0.000157965,-96.39002113,0.000157965,-107.9000017,0.687443442,72.41960725,-14.78450231,-275.7004291,0.000157965,-76.98014988,42.07554808,0.000157965,0.000157965,0.00175484,0.002438152,0.008520406
303.0959998,1183,-57.62711796,246.1098689,309.867568,0.000186937,466.5317407,0.000186937,201.2007343,0.687844446,-64.37310262,13.36105378,80.85330267,0.000186937,-5.606363105,42.06080969,0.000186937,0.000186937,0.006058941,0.002521036,0.009892027
303.1039998,1184,41.13845564,336.5749873,-167.4773269,0.000215793,58.27137094,0.000215793,-139.1802296,0.688227099,-2.012127316,-33.27500424,218.6753193,0.000215793,-119.0674055,42.04509638,0.000215793,0.000215793,0.005777178,0.002672623,0.009648164
303.1119998,1184,-36.23369358,294.959658,7.435109984,0.000244533,127.1729477,0.000244533,52.3995381,0.68859146,57.34585758,11.65179387,-402.8711361,0.000244533,-80.1721243,42.02841213,0.000244533,0.000244533,0.004258052,0.00234483,0.009292231
303.1199998,1184,-11.58464214,276.9081293,209.0361269,0.000273157,413.3753211,0.000273157,76.38478405,0.688937585,-63.88189339,11.67468212,423.9535571,0.000273157,-33.79953109,42.01076094,0.000273157,0.000273157,0.005764182,0.002581557,0.009607275
303.1279998,1184,18.13280618,315.261387,-297.8867053,0.000301664,-114.0936496,0.000301664,-142.9871812,0.689265535,72.74981279,-15.78897754,-247.4615468,0.000301664,-135.9019707,41.99214683,0.000301664,0.000301664,0.003031371,0.000682018,0.011910365
303.1359998,1184,-49.69262449,238.485373,311.4777454,0.000330054,449.9586562,0.000330054,216.9836263,0.689575368,-35.70381602,29.70102391,11.81595965,0.000330054,-5.263156071,41.9725738,0.000330054,0.000330054,0.000372799,-0.002104619,0.016076325
303.1439998,1184,44.02907321,312.9971908,-149.8029379,0.000358327,75.55894189,0.000358327,-128.0330996,0.689867144,0.615995084,-10.93874486,282.4447803,0.000358327,-100.0318822,41.95204591,0.000358327,0.000358327,0.0010402,-0.001701388,0.015568233
303.1519998,1184,-40.78988869,272.6053491,-17.0845187,0.000386483,107.2995929,0.000386483,47.30361987,0.690140921,48.6916053,2.884516,-435.5757296,0.000386483,-83.29198243,41.93056717,0.000386483,0.000386483,0.001135428,-0.001081545,0.01424199
303.1599998,1184,-5.417398561,281.999643,238.8161781,0.00041452,436.1991103,0.00041452,93.1006015,0.690396759,-71.28975386,4.11627341,434.2647686,0.00041452,-13.47963084,41.90814165,0.00041452,0.00041452,0.000858778,-0.001769317,0.015458403
303.1679998,1184,27.13018126,345.0938643,-308.9144479,0.00044244,-132.290761,0.00044244,-163.1066674,0.690634718,72.58626251,-8.134956316,-227.884918,0.00044244,-120.3243624,41.88477339,0.00044244,0.00044244,0.001869489,0.000403913,0.016231559
303.1759998,1184,-70.79275932,242.3155606,326.2397898,0.000470241,467.8618976,0.000470241,223.4810919,0.690854859,-51.76050822,20.50749209,-7.310362017,0.000470241,4.480744146,41.86046646,0.000470241,0.000470241,0.003239629,0.003133535,0.019050423
303.1839998,1184,30.12262365,313.8477994,-124.4936357,0.000497924,113.6159655,0.000497924,-114.9630575,0.69105724,2.696372051,-22.75541474,322.0564841,0.000497924,-72.87432117,41.83522494,0.000497924,0.000497924,0.002954885,0.00261329,0.01887425
303.1919998,1184,-38.36105942,286.9169206,-25.31123161,0.000525488,102.7788891,0.000525488,42.41764685,0.691241924,73.39628423,8.880899686,-439.1814994,0.000525488,-54.77658131,41.8090529,0.000525488,0.000525488,0.002685491,0.002159191,0.01748229
303.1999998,1184,-1.636222005,283.3710955,259.1482015,0.000552934,458.7139278,0.000552934,106.0665277,0.69140897,-72.08395783,10.85135062,444.4812699,0.000552934,21.20520549,41.78195445,0.000552934,0.000552934,0.002964631,0.002695027,0.018581008
303.2079998,1184,39.75522567,350.1961282,-319.4431779,0.00058026,-140.5238511,0.00058026,-174.4189955,0.69155844,70.49044588,-9.962188839,-203.1391431,0.00058026,-91.10822243,41.75393368,0.00058026,0.00058026,-0.000722099,0.001453662,0.016769788
303.2159998,1184,-66.68780911,250.050027,312.7485735,0.000607466,447.4192466,0.000607466,207.8332498,0.691690395,-44.55110897,17.63790347,-22.67731055,0.000607466,21.50474288,41.72499469,0.000607466,0.000607466,-0.006258913,0.000104811,0.01537123
303.2239998,1184,29.6782083,308.8287434,-113.5556972,0.000634553,129.5008166,0.000634553,-112.4162192,0.691804896,-12.83064977,-30.48602796,338.8622199,0.000634553,-62.75086933,41.6951416,0.000634553,0.000634553,-0.005517076,0.000392378,0.015659759
303.2319998,1184,-30.04965905,280.4759595,-32.23416927,0.00066152,112.8588977,0.00066152,39.68044244,0.691902005,57.07105241,3.655129067,-435.3811159,0.00066152,-59.9149759,41.66437854,0.00066152,0.00066152,-0.004142619,0.00052827,0.015390957
303.2399998,1184,-12.31322053,271.5888543,270.2391983,0.000688367,484.4341652,0.000688367,104.2704107,0.691981784,-74.73658126,12.3138922,446.8061881,0.000688367,13.66153158,41.63270963,0.000688367,0.000688367,-0.005600392,0.000309524,0.015279583
303.2479998,1184,7.646371694,323.0958957,-313.2686191,0.000715093,-104.4921563,0.000715093,-183.8728851,0.692044294,66.64145949,-22.96938356,-187.9029001,0.000715093,-97.29110717,41.60013902,0.000715093,0.000715093,-0.004602316,0.001307997,0.012525724
303.2559998,1184,-73.50540901,230.8829284,315.2164112,0.000741699,489.551577,0.000741699,199.6502151,0.692089598,-46.7529867,3.558015409,-27.42106301,0.000741699,14.84203499,41.56667085,0.000741699,0.000741699,-0.00471616,0.002664899,0.008240121
303.2639998,1184,56.12321174,325.6160975,-104.6507166,0.000768185,165.9840059,0.000768185,-120.9418242,0.692117759,-16.46666349,-32.89866578,361.6068122,0.000768185,-68.25509532,41.53230927,0.000768185,0.000768185,-0.005012521,0.00243418,0.008614891
303.2719998,1184,-11.68213783,304.2657485,-42.71548292,0.000794549,108.7084993,0.000794549,36.81849797,0.692128839,62.09401965,11.73752097,-438.7082505,0.000794549,-49.9964005,41.49705845,0.000794549,0.000794549,-0.004365824,0.002132011,0.009613837
303.2799998,1184,-7.0328561,272.7990263,275.8063052,0.000820792,494.4599495,0.000820792,125.0714577,0.692122901,-78.40344007,19.67633071,436.7551795,0.000820792,41.45398957,41.46092254,0.000820792,0.000820792,-0.004821627,0.002442102,0.0083396
303.2879998,1184,24.5466555,330.4084727,-324.0721254,0.000846914,-103.6838854,0.000846914,-176.7432241,0.692100008,63.26436318,-27.96178395,-180.5647023,0.000846914,-78.11485406,41.42390574,0.000846914,0.000846914,-0.002730056,0.002203661,0.008135863
303.2959998,1184,-58.33470058,246.343789,299.9090057,0.000872914,464.3424824,0.000872914,210.4615387,0.692060223,-34.08973842,8.693516304,-52.08142957,0.000872914,33.66268658,41.38601221,0.000872914,0.000872914,5.03E-05,0.002222403,0.006556953
303.3039998,1184,46.45007914,326.7641424,-98.16288866,0.000898792,163.2149737,0.000898792,-103.4411423,0.69200361,-22.57047257,-24.99187389,363.0561876,0.000898792,-46.00248712,41.34724614,0.000898792,0.000898792,-0.000361528,0.002270079,0.006365407
303.3119998,1184,-27.59848444,307.3774973,-60.00289351,0.000924549,97.02058348,0.000924549,27.87095714,0.691930233,55.85357202,2.470426554,-445.1973602,0.000924549,-42.01325024,41.30761174,0.000924549,0.000924549,-0.000859881,0.00211925,0.007153421
303.3199998,1184,-0.553983995,281.3185537,271.6807583,0.000950183,487.9092126,0.000950183,121.0628918,0.691840154,-66.26601515,8.147430703,428.5097956,0.000950183,47.34406399,41.26711319,0.000950183,0.000950183,-0.000222852,0.002204705,0.006285859
303.3279998,1184,38.96892418,327.428361,-326.5037014,0.000975696,-110.2608312,0.000975696,-184.9378137,0.691733439,76.47841782,-25.71389905,-165.8274154,0.000975696,-71.47727178,41.22575471,0.000975696,0.000975696,-0.000582209,0.002112288,0.005880918
303.3359998,1184,-51.94710296,249.5011849,301.228208,0.001001085,469.1360889,0.001001085,208.9682142,0.691610151,-44.99472972,11.91721888,-56.94787977,0.001001085,37.45048343,41.18354051,0.001001085,0.001001085,-0.000518949,0.002099853,0.004349344
303.3439998,1184,61.40754437,335.4189068,-91.59686579,0.001026352,177.1794956,0.001026352,-103.5399952,0.691470355,-27.39821225,-31.90460368,382.4854396,0.001026352,-34.23362355,41.14047481,0.001026352,0.001026352,-0.000333155,0.002098827,0.004303718
303.3519998,1184,-19.02103826,297.0794953,-82.43033865,0.001051496,73.71307744,0.001051496,0.887719106,0.691314115,81.31775102,-1.124869899,-446.2110889,0.001051496,-31.83956376,41.09656183,0.001051496,0.001051496,-0.000577961,0.002030352,0.004953188
303.3599998,1185,-15.09681591,269.980578,288.957212,0.001076518,511.1844066,0.001076518,123.9500415,0.691141496,-83.43470482,3.380699788,425.4713606,0.001076518,41.46875192,41.0518058,0.001076518,0.001076518,-0.000345532,0.002045591,0.004243605
303.3679998,1185,42.14898121,340.6602099,-312.5486394,0.001101416,-80.63022811,0.001101416,-177.2903495,0.690952564,46.58440798,-32.95487111,-143.9006974,0.001101416,-87.57915996,41.00621097,0.001101416,0.001101416,-0.00131604,0.001992857,0.005519957
303.3759998,1185,-37.68909963,263.5258054,286.7439541,0.001126191,450.8519684,0.001126191,196.6937567,0.690747382,-26.70366208,21.44288978,-68.82617807,0.001126191,36.13396216,40.95978157,0.001126191,0.001126191,-0.002678214,0.001977781,0.006791237
303.3839998,1185,60.27330692,332.1006508,-85.97598361,0.001150842,176.8737501,0.001150842,-106.9927826,0.690526017,-22.14891057,-22.26230056,393.28843,0.001150842,-36.5099895,40.91252184,0.001150842,0.001150842,-0.002427496,0.001956422,0.006456687
303.3919998,1185,-11.54971343,290.5614763,-88.11903154,0.00117537,73.54779168,0.00117537,2.37149378,0.690288533,73.97462616,-5.221301702,-446.6902778,0.00117537,-47.59868815,40.86443605,0.00117537,0.00117537,-0.00212661,0.001920118,0.006311102
303.3999998,1185,-5.637698019,263.1338662,289.4810603,0.001199774,511.1247619,0.001199774,132.9222218,0.690034997,-68.28007796,3.77087263,414.6397933,0.001199774,49.13242509,40.81552844,0.001199774,0.001199774,-0.002413967,0.00190808,0.006440949
303.4079998,1185,44.26427432,340.0194533,-324.432513,0.001224054,-95.54456816,0.001224054,-184.9270936,0.689765474,59.67055437,-34.20823833,-135.9763667,0.001224054,-72.94016316,40.76580328,0.001224054,0.001224054,-0.004760174,0.0010143,0.007163442
303.4159998,1185,-42.71289535,262.9406773,273.428812,0.001248211,435.2263547,0.001248211,195.1206259,0.689480029,-18.41153713,19.69984437,-91.6146201,0.001248211,42.69383985,40.71526484,0.001248211,0.001248211,-0.008928715,-0.000396568,0.008514396
303.4239998,1185,42.60747764,326.2752803,-79.92855228,0.001272243,184.3621535,0.001272243,-97.71653231,0.68917873,-29.61446341,-18.47585437,396.5045172,0.001272243,-29.83448736,40.66391738,0.001272243,0.001272243,-0.008432611,-0.000239029,0.008354653
303.4319998,1185,-29.1717439,291.4395979,-99.89796939,0.001296151,63.91388064,0.001296151,-5.710359502,0.688861642,55.08473595,-5.822228533,-451.1774609,0.001296151,-46.14624024,40.61176519,0.001296151,0.001296151,-0.007132221,0.000112181,0.007856932
303.4399998,1185,-10.59566918,270.8466187,297.8029063,0.001319934,517.9378177,0.001319934,135.0855213,0.688528832,-69.03903512,4.649421808,402.5816248,0.001319934,58.22244403,40.55881254,0.001319934,0.001319934,-0.008350869,-0.000288063,0.008257174
303.4479998,1185,76.73649353,360.3180487,-439.661467,0.001343593,-165.4559652,0.001343593,-291.9482702,0.688180365,59.10962489,-45.64085485,62.75606959,0.001343593,-86.61912086,40.50506373,0.001343593,0.001343593,-0.004850934,-0.000900992,0.007916868
303.4559998,1185,-22.57112057,272.7902772,45.33041342,0.001367127,238.4422806,0.001367127,39.66253739,0.68781631,10.22345652,-5.581056504,-129.8183089,0.001367127,3.936084163,40.45052303,0.001367127,0.001367127,-0.000724831,-0.002337524,0.007894213
303.4639998,1185,-14.67300161,288.2301471,55.33349412,0.001390537,275.2255309,0.001390537,11.13252556,0.687436732,-26.05600076,-25.44322449,133.3082956,0.001390537,5.234592308,40.39519474,0.001390537,0.001390537,-0.002333055,0.000329348,0.007090402
303.4719998,1185,-26.53651945,295.9035803,-44.13712293,0.001413821,151.1299289,0.001413821,-9.188837138,0.687041699,6.628084478,-22.74443195,-170.641334,0.001413821,-25.19089828,40.33908316,0.001413821,0.001413821,-0.00424117,0.005036125,0.005448199
303.4799998,1185,-3.043822349,295.0599082,57.33170778,0.001436981,285.0350461,0.001436981,1.421067124,0.686631277,-27.54308743,-9.524052258,238.842025,0.001436981,8.997248835,40.28219259,0.001436981,0.001436981,-0.003269241,0.003974387,0.005729536
303.4879998,1185,-23.79103068,284.6046049,-94.09122723,0.001460016,93.21102144,0.001460016,-37.96331903,0.686205535,36.39821795,-22.70227327,-258.091055,0.001460016,-28.22578444,40.22452733,0.001460016,0.001460016,-0.003327152,0.003197698,0.005945517
303.4959998,1185,-19.93574225,247.5441217,170.3514732,0.001482925,375.9532408,0.001482925,62.57615042,0.685764538,-55.77752048,-14.67820241,176.7226002,0.001482925,28.26007006,40.16609169,0.001482925,0.001482925,-0.003595173,0.004297981,0.005522034
303.5039998,1185,6.3749402,298.1068447,-202.8314131,0.001505709,13.33855258,0.001505709,-141.9089253,0.685308356,24.51806223,-36.63771895,-32.6098809,0.001505709,-30.65499939,40.10688998,0.001505709,0.001505709,-0.001375205,0.002520419,0.005765245
303.5119998,1185,-74.94078677,247.7503878,134.7889055,0.001528368,294.6631012,0.001528368,100.7107973,0.684837055,-20.75422696,-18.83519202,-188.7400981,0.001528368,20.37434785,40.04692652,0.001528368,0.001528368,0.001116332,0.00143285,0.0056171
303.5199998,1185,2.337945135,290.2365033,-12.78979167,0.001550901,228.7827977,0.001550901,-76.78804945,0.684350703,-54.72758448,-37.52214532,354.5425156,0.001550901,-3.911434636,39.98620563,0.001550901,0.001550901,0.000970324,0.001663505,0.005540343
303.5279998,1185,-52.02285756,266.700273,-131.1215893,0.001573309,38.842225,0.001573309,-52.40105343,0.683849368,42.64876753,-29.63171015,-403.9029163,0.001573309,-23.93445266,39.92473162,0.001573309,0.001573309,0.000284734,0.001646649,0.005616846
303.5359998,1185,-43.37752832,235.40541,279.3912109,0.001595591,484.8705968,0.001595591,120.8593077,0.683333119,-82.59848247,-16.58084714,285.0492839,0.001595591,58.25878537,39.86250882,0.001595591,0.001595591,0.000975989,0.001604595,0.005453008
303.5439998,1185,21.92333611,321.285289,-274.3681713,0.001617748,-59.7951991,0.001617748,-185.1399248,0.682802023,48.05572744,-36.98605342,-67.69839412,0.001617748,-39.21673088,39.79954155,0.001617748,0.001617748,-0.000219198,0.001548399,0.004642519
303.5519998,1185,-77.99770877,244.7432592,216.2669557,0.001639778,364.0445167,0.001639778,159.0307344,0.682256149,-9.972584384,3.366569107,-189.4512597,0.001639778,55.63920978,39.73583416,0.001639778,0.001639778,-0.001635866,0.001599237,0.003177175
303.5599998,1185,26.24662671,307.5250032,-4.972547794,0.001661683,240.392919,0.001661683,-63.68538139,0.681695565,-48.89434079,-26.16377411,412.4662772,0.001661683,12.14079584,39.67139095,0.001661683,0.001661683,-0.001189471,0.001503346,0.003309151
303.5679998,1185,-30.95543693,295.6116532,-135.9946159,0.001683462,13.01079108,0.001683462,-44.00858446,0.681120339,66.78744208,-9.221761574,-438.0268132,0.001683462,-9.957877518,39.60621628,0.001683462,0.001683462,-0.00112697,0.001528276,0.00368559
303.5759998,1185,-42.83326533,259.2607843,319.8586106,0.001705115,508.1901629,0.001705115,146.3420593,0.68053054,-59.32290722,4.404521754,328.3897818,0.001705115,86.67704477,39.54031448,0.001705115,0.001705115,-0.001254357,0.001497403,0.00322345
303.5839998,1185,27.82124329,337.091593,-304.6703673,0.001726641,-98.03849044,0.001726641,-200.8411633,0.679926238,61.6553109,-24.03824683,-67.59575208,0.001726641,-37.57206344,39.47368988,0.001726641,0.001726641,-0.00195626,-0.0002643,0.003491427
303.5919998,1185,-86.4419372,230.6114841,222.8645919,0.001748042,359.7599449,0.001748042,157.1302153,0.6793075,-16.64003081,11.38430021,-193.9814722,0.001748042,60.85130399,39.40634683,0.001748042,0.001748042,-0.00337152,-0.003031259,0.003411772
303.5999998,1185,12.2877041,295.1247863,-13.51283421,0.001769316,228.5581437,0.001769316,-79.98272611,0.678674396,-43.58688162,-43.0864131,423.1353003,0.001769316,15.74772876,39.33828968,0.001769316,0.001769316,-0.003171951,-0.002725023,0.00330399
303.6079998,1185,-37.59463054,298.6514872,-147.3250366,0.001790465,-6.588380805,0.001790465,-58.26570334,0.678026995,69.78675446,-20.13135168,-450.0806211,0.001790465,-1.596303474,39.26952275,0.001790465,0.001790465,-0.002721178,-0.001963953,0.003453394
303.6159998,1186,-42.18385125,266.1855875,332.0906928,0.001811487,513.4595773,0.001811487,148.6473661,0.677365366,-74.33485059,1.119397251,333.9477452,0.001811487,101.0132868,39.20005041,0.001811487,0.001811487,-0.003118912,-0.002756567,0.00328739
303.6239998,1186,84.26466212,401.7814473,-675.2509376,0.001832382,-456.6971677,0.001832382,-404.3977702,0.676689578,146.0480463,-58.97964504,-290.6609924,0.001832382,-104.7197254,39.129877,0.001832382,0.001832382,-0.002787725,-0.002230806,0.00336746
303.6319998,1186,-18.77701899,334.73405,-431.1529076,0.001853151,-320.7902211,0.001853151,-166.0987358,0.675999702,176.4289313,-16.01050277,-904.9154449,0.001853151,-54.89227578,39.05900686,0.001853151,0.001853151,-0.002790384,-0.002290444,0.00332742
303.6399998,1186,27.15417256,338.3331724,-210.1972894,0.001873794,-15.02346286,0.001873794,-148.4020704,0.675295805,45.11413064,-29.91188959,3.843583226,0.001873794,-9.54517726,38.98744436,0.001873794,0.001873794,-0.002843487,-0.0024615,0.003286111
303.6479998,1186,34.31735126,369.8332109,-583.5815112,0.001894311,-429.413596,0.001894311,-298.1573171,0.674577958,169.7396548,-38.09500812,-648.9533673,0.001894311,-86.81079288,38.91519384,0.001894311,0.001894311,-0.002616936,-0.002114511,0.003324404
303.6559998,1186,-60.34303881,267.7201218,135.3403532,0.0019147,267.4672833,0.0019147,95.65761751,0.67384623,9.24006701,4.106226628,-168.977195,0.0019147,67.66750339,38.84225965,0.0019147,0.0019147,-0.002723331,-0.00236799,0.003256702
303.6639998,1186,-27.83202975,272.8958838,234.5335463,0.001934964,428.2067148,0.001934964,72.17673354,0.673100691,-77.80559398,-10.82037092,424.3398369,0.001934964,104.1122742,38.76864616,0.001934964,0.001934964,-0.002574765,-0.002171455,0.003278907
303.6719998,1186,10.72030256,326.1175099,-183.8255916,0.001955101,-15.84368874,0.001955101,-123.181023,0.672341412,45.94470705,-20.35576244,-142.0913149,0.001955101,27.24614156,38.69435771,0.001955101,0.001955101,-0.002547932,-0.002178411,0.003248766
303.6799998,1186,-39.19664968,279.3851044,127.1809361,0.001975111,282.7055492,0.001975111,71.26699558,0.671568461,-10.33009192,8.852275146,-52.67434896,0.001975111,85.47838072,38.61939866,0.001975111,0.001975111,-0.002526433,-0.002209489,0.003230624
303.6879998,1186,-25.8802034,284.9917873,160.1047984,0.001994995,356.2770942,0.001994995,57.30725357,0.67078191,-49.13152582,4.231633903,251.1626618,0.001994995,84.77865978,38.54377336,0.001994995,0.001994995,-0.002419666,-0.002075841,0.003229365
303.6959998,1186,11.94732811,329.8490937,-176.9360178,0.002014752,6.405986457,0.002014752,-110.9417231,0.669981827,53.76377053,-8.668180551,-136.8503179,0.002014752,8.204893024,38.46748618,0.002014752,0.002014752,0.000154524,-0.000428208,0.00491721
303.7039998,1186,-58.74343868,257.385481,242.1641113,0.002034382,397.6591545,0.002034382,136.1964415,0.669168284,-13.71696744,31.2577523,19.50947674,0.002034382,82.34514298,38.39054148,0.002034382,0.002034382,0.004415959,0.002450051,0.007696779
303.7119998,1186,12.07846475,315.2144839,-41.01661697,0.002053886,167.4583072,0.002053886,-72.6238868,0.66834135,-9.935148147,8.759997336,263.9680607,0.002053886,-1.758989738,38.3129436,0.002053886,0.002053886,0.003905343,0.002089895,0.007311332
303.7199998,1186,-26.36766228,299.5436691,-64.37060411,0.002073264,83.25486779,0.002073264,-5.767537552,0.667501096,50.45992197,22.24724095,-288.6884087,0.002073264,-43.66072099,38.23469692,0.002073264,0.002073264,0.002816724,0.001353159,0.00654019
303.7279998,1186,-39.69761593,271.6904979,292.0981287,0.002092514,471.5829743,0.002092514,139.0391431,0.666647593,-43.31370166,32.45301391,290.8411757,0.002092514,12.51220904,38.15580578,0.002092514,0.002092514,0.004021323,0.002169933,0.007288382
303.7359998,1186,40.01477539,363.3262881,-248.9203916,0.002111638,-65.93153361,0.002111638,-173.5630034,0.66578091,61.60352078,1.937245597,-49.22981419,0.002111638,-96.01524046,38.07627454,0.002111638,0.002111638,0.002372634,-9.97E-05,0.00672061
303.7439998,1186,-57.4355988,262.5761019,233.5664125,0.002130636,352.31833,0.002130636,157.3342688,0.664901118,-9.473863656,51.95392467,-145.4590874,0.002130636,-3.785967904,37.99610757,0.002130636,0.002130636,0.001114716,-0.002782603,0.006756663
303.7519998,1186,21.00040605,303.0645295,17.28592104,0.002149506,227.3521953,0.002149506,-54.0685621,0.664008289,-30.62480775,9.597797502,409.7390001,0.002149506,-56.407022,37.91530923,0.002149506,0.002149506,0.001548511,-0.002262271,0.006878542
303.7599998,1186,-30.6516455,288.2248307,-132.3417301,0.00216825,2.566763056,0.00216825,-50.77069101,0.663102492,64.91838661,-0.199428893,-378.1995715,0.00216825,-94.57826621,37.83388386,0.00216825,0.00216825,0.001437003,-0.00183686,0.006504646
303.7679998,1186,-43.05571826,247.1332121,345.1048013,0.002186868,514.3927318,0.002186868,165.692339,0.662183798,-76.45492377,17.11042804,301.0652802,0.002186868,0.411690613,37.75183583,0.002186868,0.002186868,0.001451295,-0.002333788,0.006718167
303.7759998,1186,63.96112526,362.6823252,-271.6383384,0.002205359,-88.41737825,0.002205359,-193.1272381,0.661252279,53.78245836,-8.193914463,-4.335341687,0.002205359,-109.3369665,37.66916949,0.002205359,0.002205359,0.001443569,-0.000264848,0.007344668
303.7839998,1186,-63.42159843,263.1492212,218.1329432,0.002223724,319.9700999,0.002223724,141.7122818,0.660308004,4.110228957,40.98704305,-206.5544065,0.002223724,-8.980993052,37.5858892,0.002223724,0.002223724,0.001454893,0.002494086,0.008710104
303.7919998,1186,12.17728141,301.1397689,34.23693625,0.002241961,239.9305935,0.002241961,-63.10484652,0.659351046,-45.37950327,-5.413055799,453.5559595,0.002241961,-56.32388967,37.50199932,0.002241961,0.002241961,0.001441396,0.00202132,0.008519594
303.7999998,1186,-18.93200486,292.5171995,-158.5947197,0.002260073,-38.99986046,0.002260073,-57.70460467,0.658381475,73.90267694,-4.952432589,-405.3205941,0.002260073,-92.01375785,37.41750419,0.002260073,0.002260073,0.001442153,0.001501355,0.007975211
303.8079998,1186,-50.3280428,230.4210885,363.9541397,0.002278058,517.4901695,0.002278058,183.2762652,0.657399361,-59.73454917,13.33199155,306.1028958,0.002278058,19.53278545,37.33240818,0.002278058,0.002278058,0.001450465,0.002112005,0.008389778
303.8159998,1186,48.92629066,337.1760205,-271.8670867,0.002295916,-90.15318812,0.002295916,-194.1858336,0.656404777,65.46799384,-32.62012458,8.839747284,0.002295916,-100.7927874,37.24671564,0.002295916,0.002295916,0.002290048,0.002549336,0.004545877
303.8239998,1186,-43.98491513,265.0357995,219.4686008,0.002313648,306.3112662,0.002313648,157.8913786,0.655397793,24.84026265,27.92020781,-234.801972,0.002313648,12.64324142,37.16043091,0.002313648,0.002313648,0.003700324,0.004005968,-0.001032698
303.8319998,1186,21.31168904,296.3416571,51.88940208,0.002331254,243.8305256,0.002331254,-46.97013746,0.65437848,-25.44525553,2.607655051,472.3398154,0.002331254,-15.98522375,37.07355835,0.002331254,0.002331254,0.003499653,0.003941645,-0.000291745
303.8399998,1186,-37.92502674,270.7645387,-164.1986077,0.002348733,-44.00947281,0.002348733,-69.49045362,0.65334691,71.53178936,-19.05334793,-412.5940096,0.002348733,-78.63928924,36.9861023,0.002348733,0.002348733,0.003130514,0.003307963,0.000950567
303.8479998,1186,-55.48391633,218.3428519,386.6129273,0.002366086,544.5818269,0.002366086,188.2073663,0.652303154,-72.61202329,-1.295976915,305.0576764,0.002366086,36.21246162,36.89806711,0.002366086,0.002366086,0.003505667,0.00387663,-0.000488873
303.8559998,1186,33.89732199,320.5550801,-258.5867671,0.002383313,-64.58760813,0.002383313,-195.9977019,0.651247284,57.8658358,-31.23949734,32.86455938,0.002383313,-81.30769984,36.80945713,0.002383313,0.002383313,0.004947821,0.003457594,0.00041095
303.8639998,1186,-76.39776003,240.555115,219.266771,0.002400414,324.847893,0.002400414,150.196145,0.65017937,2.210110869,9.974010083,-239.7470161,0.002400414,7.04201052,36.7202767,0.002400414,0.002400414,0.007756815,0.003484476,0.00025863
303.8719998,1187,16.6144825,292.5661725,71.14016908,0.002417388,288.0548828,0.002417388,-36.12923688,0.649099484,-44.78647378,-18.30001876,497.6092632,0.002417388,-11.83795184,36.63053016,0.002417388,0.002417388,0.007456964,0.003581224,-8.12E-05
303.8799998,1187,-1.878925562,317.3998623,-177.8618109,0.002434236,-48.66096969,0.002434236,-74.73344047,0.648007697,81.20371543,-11.93995843,-393.1020321,0.002434236,-63.2528548,36.54022185,0.002434236,0.002434236,0.006523379,0.003299332,0.000491275
303.8879998,1187,-26.77558253,259.0805048,377.7664302,0.002450959,517.2662946,0.002450959,186.9948084,0.646904082,-67.656172,17.7554067,304.3167963,0.002450959,61.41665458,36.44935611,0.002450959,0.002450959,0.007395088,0.003470001,5.43E-06
303.8959998,1187,41.63068823,319.7151445,-262.9710914,0.002467555,-83.79259298,0.002467555,-190.0631284,0.645788709,58.06444842,-23.65821048,50.81296037,0.002467555,-51.44940154,36.35793728,0.002467555,0.002467555,0.008457609,0.004149256,0.000309118
303.9039998,1187,-56.86482323,253.776386,201.4874794,0.002484025,285.3178534,0.002484025,149.2467393,0.64466165,13.03730976,14.32796738,-255.2414919,0.002484025,19.97289792,36.26596969,0.002484025,0.002484025,0.011281614,0.005533082,0.000262046
303.9119998,1187,32.67021078,306.9482098,76.87459507,0.00250037,261.1484487,0.00250037,-34.88129867,0.643522976,-49.35355062,-12.6248964,498.7593063,0.00250037,-2.588553825,36.17345766,0.00250037,0.00250037,0.011059651,0.005342106,0.000162482
303.9199998,1187,-5.879214567,296.5027767,-190.5472455,0.002516589,-85.17760939,0.002516589,-91.28951823,0.64237276,87.47645975,-8.376633162,-391.933226,0.002516589,-55.03366128,36.08040553,0.002516589,0.002516589,0.009869407,0.004846593,0.000362666
303.9279998,1187,-30.56838312,242.4424126,374.8625855,0.002532682,495.7358043,0.002532682,181.0933494,0.641211072,-47.67256733,22.52411718,281.896136,0.002532682,53.41942776,35.98681763,0.002532682,0.002532682,0.010881923,0.005255805,0.000194246
303.9359998,1187,51.53105813,330.0217805,-248.1068092,0.002548649,-75.24566206,0.002548649,-182.0335797,0.640037985,55.08911503,-22.15768598,61.20224937,0.002548649,-67.78913173,35.89269827,0.002548649,0.002548649,0.007481298,0.004026906,0.002044182
303.9439998,1187,-53.77255787,253.6184515,202.0786059,0.002564491,286.565001,0.002564491,154.1481818,0.63885357,9.390225835,16.11673485,-260.8754261,0.002564491,25.02746606,35.79805178,0.002564491,0.002564491,0.003332815,0.002637273,0.004793273
303.9519998,1187,33.06929264,303.6876758,80.55657488,0.002580208,261.9194866,0.002580208,-28.72761879,0.637657898,-50.79724803,-9.935518272,502.1551452,0.002580208,11.11244402,35.70288247,0.002580208,0.002580208,0.004005365,0.002849747,0.004423399
303.9599998,1187,-7.888688484,294.7456273,-203.1266601,0.002595799,-98.69045472,0.002595799,-97.21117077,0.636451042,76.25070112,-8.768040548,-393.9379848,0.002595799,-52.5702987,35.60719466,0.002595799,0.002595799,0.004592677,0.002986265,0.003728298
303.9679998,1187,-50.15543684,217.8442533,374.1551479,0.002611265,498.8405926,0.002611265,177.4300118,0.635233073,-67.72574673,11.53692745,266.8547898,0.002611265,60.05431353,35.51099267,0.002611265,0.002611265,0.003721868,0.002700121,0.004443112
303.9759998,1187,57.65071695,320.6270518,-258.9362684,0.002626605,-91.10030237,0.002626605,-202.5052686,0.634004063,45.65340089,-36.05717908,68.63617974,0.002626605,-63.34474608,35.41428079,0.002626605,0.002626605,0.004176152,0.002805583,0.00308815
303.9839998,1187,-43.76927168,255.6045338,180.4628153,0.002641821,247.4785638,0.002641821,135.2314355,0.632764083,29.42611946,21.41553415,-285.9941394,0.002641821,36.94542339,35.31706334,0.002641821,0.002641821,0.004053311,0.002743254,0.001734587
303.9919998,1187,17.08784653,283.4054387,92.05534107,0.002656911,269.8319119,0.002656911,-18.23080811,0.631513205,-38.42253637,-1.594130885,506.7472391,0.002656911,28.9348346,35.21934462,0.002656911,0.002656911,0.00378755,0.002634493,0.002066068
303.9999998,1187,-5.059729052,283.8083368,-209.3356794,0.002671877,-99.85268531,0.002671877,-87.34064676,0.630251502,70.50813891,-7.332353832,-383.5045521,0.002671877,-55.39477571,35.12112892,0.002671877,0.002671877,0.004073568,0.00269234,0.00210776
304.0079998,1187,-51.69020114,220.3429028,384.0426158,0.002686718,516.2995637,0.002686718,202.6013253,0.628979044,-71.77545136,16.63100751,258.752928,0.002686718,60.55385721,35.02242055,0.002686718,0.002686718,0.003745305,0.002568591,0.001948693
304.0159998,1187,38.73682995,308.0331716,-239.4176745,0.002701434,-50.18504459,0.002701434,-190.5348298,0.627695904,44.70897155,-30.03964933,100.7782616,0.002701434,-60.66130738,34.92322378,0.002701434,0.002701434,0.003856606,0.001712469,0.00031032
304.0239998,1187,-52.76973687,223.0587166,179.2065142,0.002716025,265.7284395,0.002716025,132.6606854,0.626402153,13.23927746,22.85654337,-286.006191,0.002716025,24.09798822,34.82354292,0.002716025,0.002716025,0.003794649,0.000278654,-0.002505756
304.0319998,1187,15.63358458,267.1757552,106.5026195,0.002730492,304.8534816,0.002730492,-11.20185139,0.625097862,-70.13437838,-9.313512272,510.4806263,0.002730492,16.22085971,34.72338223,0.002730492,0.002730492,0.003672545,0.000395191,-0.002193952
304.0399998,1187,5.191238136,297.9408038,-214.5330567,0.002744835,-88.29783391,0.002744835,-103.0465571,0.623783105,66.70512058,-10.82889093,-374.4898747,0.002744835,-64.39987661,34.62274601,0.002744835,0.002744835,0.003747343,0.000770226,-0.001397667
304.0479998,1187,-39.11913501,216.6451463,380.6660438,0.002759053,510.1552584,0.002759053,196.3222681,0.622457952,-64.31060116,23.62781529,244.1126565,0.002759053,68.00896018,34.52163853,0.002759053,0.002759053,0.003597123,0.000318663,-0.002218808
304.0559998,1187,46.38693311,299.1082636,-249.5670339,0.002773147,-63.29148617,0.002773147,-195.2590699,0.621122475,38.23035505,-39.10889689,103.1140281,0.002773147,-51.02087476,34.42006406,0.002773147,0.002773147,0.001902946,-0.00200571,0.001772523
304.0639998,1187,-49.11334721,229.8740501,151.1587064,0.002787118,234.0504224,0.002787118,118.6267113,0.619776747,22.32195567,6.270020824,-314.9469676,0.002787118,20.88420576,34.31802686,0.002787118,0.002787118,-0.000943364,-0.006247123,0.00727713
304.0719998,1187,14.2158877,260.1443732,105.6150914,0.002800964,294.5730454,0.002800964,-4.991706374,0.618420838,-58.13035947,-17.28734625,497.866794,0.002800964,21.5496326,34.21553121,0.002800964,0.002800964,-0.000635889,-0.0058151,0.006374767
304.0799998,1187,0.902571271,271.8975911,-228.1124388,0.002814686,-105.9538867,0.002814686,-107.1694947,0.61705482,70.32163018,-34.05484646,-374.3837225,0.002814686,-56.59969746,34.11258136,0.002814686,0.002814686,0.000110717,-0.004529527,0.005229553
304.0879998,1187,-55.07938761,180.783832,370.9429265,0.002828285,497.2508796,0.002828285,191.4695376,0.615678765,-54.50368199,2.398197884,223.4284657,0.002828285,68.775705,34.00918156,0.002828285,0.002828285,-0.000724992,-0.005832552,0.00648556
304.0959998,1187,28.8420399,271.6200967,-255.3499065,0.002841761,-68.40439764,0.002841761,-197.329693,0.614292745,39.88386695,-51.99419847,108.1548424,0.002841761,-61.75857954,33.90533606,0.002841761,0.002841761,0.000664808,-0.004934242,0.007321831
304.1039998,1187,-52.14105567,204.5051664,132.7684058,0.002855113,209.4393193,0.002855113,105.1880902,0.612896832,17.16629379,-16.32085699,-332.2297152,0.002855113,16.32867762,33.80104911,0.002855113,0.002855113,0.00195663,-0.00504051,0.010191601
304.1119998,1187,51.69395181,245.724681,-28.98232617,0.002868341,179.4913573,0.002868341,-124.9009653,0.611491096,-54.02313202,-44.26398627,661.2390865,0.002868341,10.38571886,33.69632495,0.002868341,0.002868341,0.001592517,-0.005292787,0.010080483
304.1199998,1187,87.50869968,327.0924489,-824.5971076,0.002881447,-650.361158,0.002881447,-487.3354839,0.61007561,145.9633486,-92.23832068,-439.5006617,0.002881447,-179.9483043,33.59116781,0.002881447,0.002881447,0.001540936,-0.004713862,0.008748274
304.1279998,1188,-4.165776435,236.7801506,-194.7646058,0.00289443,-88.65855873,0.00289443,-93.9767243,0.608650446,49.4290324,-46.77690221,-385.4810687,0.00289443,-58.96970318,33.48558193,0.00289443,0.00289443,0.001641737,-0.005122146,0.009893334
304.1359998,1188,13.77634538,234.6387261,-120.7339952,0.00290729,31.48114458,0.00290729,-113.2359387,0.607215674,3.445577133,-48.91500241,107.2289292,0.00290729,-25.05805701,33.37957153,0.00290729,0.00290729,0.004990772,-0.003055788,0.008158152
304.1439998,1188,-64.1873938,179.1837077,219.2079991,0.002920027,308.6057214,0.002920027,127.0700121,0.605771367,-28.8706745,-30.83772494,-123.9344109,0.002920027,32.26615225,33.27314083,0.002920027,0.002920027,0.010545536,-0.00028383,0.006797543
304.1519998,1188,13.01129124,240.0016821,-5.291349271,0.002932642,152.7226099,0.002932642,-70.84187855,0.604317596,-35.5515507,-53.36052202,286.8607064,0.002932642,2.213789178,33.16629405,0.002932642,0.002932642,0.009841449,-0.000676052,0.00715899
304.1599998,1188,-9.146619086,240.8586081,-146.1459843,0.002945134,-45.6781656,0.002945134,-82.81082013,0.602854432,44.2010349,-45.13099103,-258.7785926,0.002945134,-27.21691596,33.05903539,0.002945134,0.002945134,0.008262956,-0.00120458,0.006937888
304.1679998,1188,-56.82336115,173.5120341,346.6522886,0.002957504,453.510896,0.002957504,174.2378262,0.601381947,-68.75554605,-27.01382869,188.1667847,0.002957504,68.99521723,32.95136906,0.002957504,0.002957504,0.009805686,-0.000548296,0.006885965
304.1759998,1188,33.9718516,274.7853868,-235.2094284,0.002969752,-76.31843761,0.002969752,-181.1024625,0.599900213,27.48269692,-66.43998176,69.32507564,0.002969752,-36.3569827,32.84329926,0.002969752,0.002969752,0.004383931,-6.31E-05,0.007629346
304.1839998,1188,-44.61634056,221.3429384,176.4512264,0.002981878,227.0680933,0.002981878,123.2867181,0.5984093,14.9510872,-7.361356648,-252.2303889,0.002981878,56.50592295,32.73483018,0.002981878,0.002981878,-0.002499626,0.001390691,0.008959938
304.1919998,1188,25.7516902,246.3493247,88.98847942,0.002993882,220.7076604,0.002993882,-23.54744753,0.59690928,-42.90559736,-21.58506845,431.29699,0.002993882,52.64299142,32.62596601,0.002993882,0.002993882,-0.001304448,0.001396736,0.008668229
304.1999998,1188,4.362641256,262.2377989,-232.774933,0.003005765,-152.3544771,0.003005765,-124.0084057,0.595400225,62.55136732,-33.33029173,-327.3985916,0.003005765,-29.26212058,32.51671093,0.003005765,0.003005765,-0.000169526,0.000763379,0.008207561
304.2079998,1188,-43.03309665,194.8535748,344.0831563,0.003017527,418.0111208,0.003017527,186.3990189,0.593882206,-63.13354433,-4.485395726,167.6165438,0.003017527,85.30207601,32.40706912,0.003017527,0.003017527,-0.001609768,0.0013805,0.008511095
304.2159998,1188,47.72873379,263.0856606,-245.7943466,0.003029167,-106.9038804,0.003029167,-183.2552052,0.592355293,6.372956582,-64.59424981,119.7228468,0.003029167,-33.20527219,32.29704476,0.003029167,0.003029167,-0.001556717,0.000129121,0.008987963
304.2239998,1188,-55.90117122,193.0481446,109.6872734,0.003040686,149.639432,0.003040686,104.2452494,0.590819559,-6.335441393,-26.68797479,-346.9519605,0.003040686,32.91409431,32.18664199,0.003040686,0.003040686,-0.00310226,-0.001210342,0.010340534
304.2319998,1188,18.85838233,235.9674891,117.7775254,0.003052084,247.1166966,0.003052084,6.155293473,0.589275074,-73.44076041,-33.97491141,461.5886279,0.003052084,56.86540134,32.07586498,0.003052084,0.003052084,-0.003264372,-0.000891144,0.010122563
304.2399998,1188,19.91026149,267.1877665,-255.2194078,0.003063362,-180.4520435,0.003063362,-125.368376,0.587721909,57.65407659,-49.17444386,-337.3625573,0.003063362,-24.94132536,31.96471789,0.003063362,0.003063362,-0.002311636,-0.000774199,0.009491048
304.2479998,1188,-34.99253356,192.1480046,350.9510677,0.003074518,415.0527483,0.003074518,192.7321444,0.586160136,-71.38018484,-9.82872191,151.8045472,0.003074518,91.63323017,31.85320486,0.003074518,0.003074518,-0.003171225,-0.000947344,0.009896899
304.2559998,1188,54.61257717,268.3524339,-236.3595408,0.003085555,-102.4028288,0.003085555,-187.0310864,0.584589826,6.770207822,-51.9659165,148.0841609,0.003085555,-24.68406798,31.74133003,0.003085555,0.003085555,-0.005184886,-0.000826407,0.007708258
304.2639998,1188,-52.07720198,198.0275308,96.17263563,0.003096471,138.4801221,0.003096471,95.06445542,0.583011049,11.96159971,-15.61648785,-376.6087476,0.003096471,44.56377215,31.62909753,0.003096471,0.003096471,-0.009412183,-0.000828766,0.004865749
304.2719998,1188,14.86131789,233.2568501,140.2507306,0.003107268,279.6135267,0.003107268,9.58424551,0.581423877,-67.45958329,-22.1622711,481.1760272,0.003107268,77.52054162,31.51651149,0.003107268,0.003107268,-0.00904988,-0.000875878,0.005213681
304.2799998,1188,14.08780972,255.5321234,-277.3480244,0.003117944,-197.9209806,0.003117944,-142.5840398,0.579828379,68.11815039,-30.0288097,-343.3418905,0.003117944,2.809918036,31.40357603,0.003117944,0.003117944,-0.007525009,-0.0007877,0.005635741
304.2879998,1188,-58.75070333,154.4826102,349.6818152,0.003128501,428.7537392,0.003128501,201.000379,0.578224628,-73.79175152,-0.491690973,133.9234842,0.003128501,138.2592343,31.29029526,0.003128501,0.003128501,-0.008951357,-0.00084184,0.004930216
304.2959998,1188,46.7737814,263.7645912,-234.9870924,0.003138939,-81.12162348,0.003138939,-184.4185212,0.576612694,10.49045106,-49.95032727,164.6648082,0.003138939,9.603910074,31.1766733,0.003138939,0.003138939,-0.007890823,-0.000801771,0.00694839
304.3039998,1188,-29.07458798,221.3202719,77.06112031,0.003149257,110.3737391,0.003149257,91.64473264,0.574992648,30.2146912,12.16965449,-391.0960689,0.003149257,63.28312391,31.06271423,0.003149257,0.003149257,-0.007985128,-0.000790155,0.009585723
304.3119998,1188,30.19835062,221.2908924,149.4247784,0.003159457,272.0308848,0.003159457,25.32589405,0.573364559,-65.84662214,25.11805868,483.1088627,0.003159457,80.59689235,30.94842215,0.003159457,0.003159457,-0.008208179,-0.000804616,0.008982857
304.3199998,1188,24.83692202,253.094711,-285.3931248,0.003169537,-211.6183536,0.003169537,-139.3852486,0.5717285,71.44837953,8.759179109,-342.1796566,0.003169537,-55.75326566,30.83380116,0.003169537,0.003169537,-0.007528997,-0.000764395,0.008392923
304.3279998,1188,-41.92225206,169.6311878,366.4730998,0.003179499,436.4759203,0.003179499,233.2704982,0.570084539,-70.43562664,44.40634769,132.2316941,0.003179499,42.41619775,30.71885533,0.003179499,0.003179499,-0.007942837,-0.000781288,0.008860014
304.3359998,1188,63.16009561,256.2425672,-208.3382503,0.003189342,-62.26173163,0.003189342,-145.5145305,0.568432749,11.68068322,3.114355922,202.7688045,0.003189342,-84.91496397,30.60358872,0.003189342,0.003189342,-0.00578825,-0.000756804,0.00921532
304.3439998,1188,-27.83048858,191.6817458,81.22405275,0.003199068,119.2922491,0.003199068,116.2834367,0.566773198,27.28508626,37.48916395,-386.2102784,0.003199068,-42.79019114,30.48800542,0.003199068,0.003199068,-0.002986041,-0.000751234,0.01055667
304.3519998,1188,33.82731126,188.485955,183.8373557,0.003208675,327.0215688,0.003208675,69.32054337,0.565105958,-81.77026334,25.525509,499.2578081,0.003208675,-3.658279348,30.37210946,0.003208675,0.003208675,-0.003331837,-0.000746853,0.010383887
304.3599998,1188,34.88823484,234.096772,-273.1881494,0.003218164,-171.9201703,0.003218164,-119.2130856,0.563431098,72.35389722,12.05781641,-313.4537921,0.003218164,-83.49245678,30.25590491,0.003218164,0.003218164,-0.00379973,-0.000729075,0.009655442
304.3679998,1188,-37.53332056,150.8827487,367.6596371,0.003227536,455.6265633,0.003227536,235.9531772,0.56174869,-69.43812165,46.50896452,125.9884565,0.003227536,54.56860519,30.13939581,0.003227536,0.003227536,-0.003112878,-0.000728342,0.010108647
304.3759998,1188,86.87728164,229.3665554,-201.7853176,0.00323679,-47.84054534,0.00323679,-142.7629468,0.560058802,6.899416382,4.841946193,215.5831996,0.00323679,-39.62527266,30.02258619,0.00323679,0.00323679,-0.00514645,-0.002433005,0.013033246
304.3839998,1189,-10.54340641,165.3120791,59.6245022,0.003245928,95.14032822,0.003245928,107.8439201,0.558361505,39.17198429,41.48626407,-403.6880651,0.003245928,19.65974431,29.90548008,0.003245928,0.003245928,-0.007826916,-0.005208189,0.018517235
304.3919998,1189,30.96614479,161.8560278,162.5814837,0.003254948,288.3891701,0.003254948,55.18169895,0.556656869,-87.32401636,16.66124787,474.0160052,0.003254948,53.39701282,29.7880815,0.003254948,0.003254948,-0.007228475,-0.004836515,0.017784705
304.3999998,1189,47.83473038,200.264524,-311.3241557,0.003263852,-245.8559273,0.003263852,-142.106691,0.554944963,63.65177543,-0.16693949,-331.779146,0.003263852,-26.97703103,29.67039447,0.003263852,0.003263852,-0.006678822,-0.004069075,0.015891145
304.4079998,1189,-22.99136035,123.9403283,344.3288925,0.003272639,384.4250755,0.003272639,234.280042,0.553225858,-61.31783224,43.78693356,87.71181677,0.003272639,106.5709239,29.55242298,0.003272639,0.003272639,-0.007161945,-0.004823236,0.017478092
304.4159998,1189,73.57229973,203.6715864,-206.1281804,0.00328131,-80.79317697,0.00328131,-136.8345703,0.551499624,-6.244016111,-4.650750253,212.2978022,0.00328131,-16.39245153,29.43417104,0.00328131,0.00328131,-0.007543165,-0.004265248,0.01438616
304.4239998,1189,-21.04221853,131.3718545,52.40452378,0.003289865,73.52843428,0.003289865,110.4267074,0.549766329,20.57731441,28.40656418,-413.5466804,0.003289865,31.89288586,29.31564264,0.003289865,0.003289865,-0.008912331,-0.004305049,0.011590368
304.4319998,1189,37.59884959,140.3925959,190.4639129,0.003298303,299.3090472,0.003298303,76.51594162,0.548026044,-86.31308132,18.61909957,479.7939177,0.003298303,81.02872293,29.19684175,0.003298303,0.003298303,-0.008758607,-0.004436666,0.012126192
304.4399998,1189,39.51059772,179.8697642,-291.096103,0.003306627,-222.6891896,0.003306627,-127.6681342,0.546278837,55.31737549,-8.90669399,-314.0933899,0.003306627,-23.95650744,29.07777234,0.003306627,0.003306627,-0.008059431,-0.004068845,0.011949508
304.4479998,1189,-20.14254728,110.5654492,361.6442227,0.003314835,411.7438779,0.003314835,242.687412,0.544524779,-72.62948647,21.89354979,81.06302329,0.003314835,93.62471917,28.9584384,0.003314835,0.003314835,-0.008533854,-0.004289911,0.011576593
304.4559998,1189,102.1679967,202.8730249,-193.0231597,0.003322928,-74.16294334,0.003322928,-144.7378012,0.542763938,8.498502056,-6.598884033,225.090375,0.003322928,-1.791189213,28.83884386,0.003322928,0.003322928,-0.006325685,-0.002345746,0.008921127
304.4639998,1189,-17.23276163,118.6999361,47.45463667,0.003330906,62.92657066,0.003330906,99.8670521,0.540996384,32.25543074,31.72473131,-431.882417,0.003330906,48.38530987,28.71899268,0.003330906,0.003330906,-0.003488096,0.000455246,0.004558632
304.4719998,1189,30.85033014,132.67244,201.9620987,0.00333877,316.4739831,0.00333877,80.48220399,0.539222185,-96.8393127,13.25556632,474.0058927,0.00333877,81.98524362,28.59888879,0.00333877,0.00333877,-0.003868649,9.18E-05,0.004844702
304.4799998,1189,59.76237599,182.4252408,-322.9082779,0.003346519,-266.7903343,0.003346519,-161.9706077,0.537441412,68.59042967,4.777563414,-311.179862,0.003346519,-19.22522815,28.47853614,0.003346519,0.003346519,-0.00426923,-0.000505531,0.005878828
304.4879998,1189,-26.26219195,83.14628359,326.7670881,0.003354153,344.4670422,0.003354153,214.4918656,0.535654132,-49.89048348,47.82809559,48.08705509,0.003354153,111.1596372,28.35793864,0.003354153,0.003354153,-0.003597737,0.000212334,0.004494615
304.4959998,1189,73.84342452,172.8469853,-196.6970671,0.003361675,-93.6956202,0.003361675,-145.2058843,0.533860415,-15.1442336,-13.02090771,238.5843261,0.003361675,-6.451582499,28.23710021,0.003361675,0.003361675,-0.0021718,-0.000211644,0.003427413
304.5039998,1189,-11.91121463,123.705687,23.68788011,0.003369082,17.50078651,0.003369082,88.19831323,0.532060329,13.475997,20.22202493,-431.4048223,0.003369082,28.33484257,28.11602475,0.003369082,0.003369082,0.000743038,-0.000133962,0.000413067
304.5119998,1189,26.00345265,117.5382521,213.6582368,0.003376376,311.1517089,0.003376376,99.91987153,0.530253943,-95.93600293,10.10093042,475.9540468,0.003376376,80.37719151,27.99471617,0.003376376,0.003376376,0.000604908,5.38E-05,0.000342757
304.5199998,1189,40.28660027,158.3506476,-302.4528376,0.003383557,-226.1395816,0.003383557,-131.4795071,0.528441326,49.7971426,-23.95969483,-276.1545514,0.003383557,-27.43757305,27.87317834,0.003383557,0.003383557,-0.000318189,-0.000222412,0.001499221
304.5279998,1189,-22.77624049,93.49701088,334.1092541,0.003390624,361.973435,0.003390624,226.917374,0.526622545,-60.14399863,29.64779489,57.22843891,0.003390624,110.1411677,27.75141515,0.003390624,0.003390624,0.000718275,3.07E-05,0.000185036
304.5359998,1189,74.11981894,177.6770618,-187.540473,0.00339758,-84.1830721,0.00339758,-142.2942425,0.52479767,-5.315159087,-5.517401877,257.889078,0.00339758,11.17902194,27.62943047,0.00339758,0.00339758,-0.002454787,-0.000107015,0.000891879
304.5439998,1189,-17.74241897,116.0976387,9.089339906,0.003404422,3.580646702,0.003404422,78.03990275,0.522966768,32.59030683,29.06149702,-438.2006478,0.003404422,38.28898939,27.50722817,0.003404422,0.003404422,-0.006494281,-7.50E-05,0.000683855
304.5519998,1189,36.77608817,132.1007972,206.3167431,0.003411153,273.6769648,0.003411153,86.75387648,0.521129908,-73.64335044,25.36296371,468.5518744,0.003411153,95.25956937,27.38481208,0.003411153,0.003411153,-0.005687636,-1.23E-05,0.000345118
304.5599998,1189,49.51975703,176.8240387,-325.3985942,0.003417772,-295.0396744,0.003417772,-160.1794462,0.519287157,66.91155977,-3.704344941,-272.5936657,0.003417772,-8.172998265,27.26218607,0.003417772,0.003417772,-0.004927321,-0.000102187,0.000766766
304.5679998,1189,-38.06830364,72.47320918,328.7699033,0.003424279,330.3436606,0.003424279,222.5185475,0.517438584,-62.82550982,34.87789503,40.72179434,0.003424279,113.2561669,27.13935396,0.003424279,0.003424279,-0.00569528,-7.44E-06,0.000277719
304.5759998,1189,58.40154546,151.8162118,-163.3339387,0.003430675,-56.07932056,0.003430675,-122.1203889,0.515584257,-20.74905474,-21.01402582,283.7959477,0.003430675,2.917223785,27.01631958,0.003430675,0.003430675,-0.004213297,0.001657964,-0.000361139
304.5839998,1189,-16.4562949,123.4000972,6.688420089,0.00343696,13.2822894,0.00343696,79.36951252,0.513724242,25.48431361,14.26132801,-427.1441858,0.00343696,29.86893481,26.89308675,0.00343696,0.00343696,-0.002821602,0.004466259,-0.001881225
304.5919998,1189,75.12399695,154.3309789,168.630079,0.003443134,283.6113687,0.003443134,30.42357205,0.511858608,-95.12991714,9.202552986,753.6640017,0.003443134,84.56003505,26.76965926,0.003443134,0.003443134,-0.003130854,0.00411695,-0.001821943
304.5999998,1189,156.319302,246.4735731,-778.8691363,0.003449197,-646.7757102,0.003449197,-474.5147969,0.509987422,105.6800811,-59.87426816,43.08931495,0.003449197,-105.9761637,26.64604093,0.003449197,0.003449197,-0.003078815,0.003340112,-0.001348147
304.6079998,1189,46.85499975,158.3215918,-275.6937905,0.00345515,-236.4216418,0.00345515,-109.1818771,0.508110752,56.81358219,-13.49922653,-271.0527465,0.00345515,-15.37330234,26.52223553,0.00345515,0.00345515,-0.002902652,0.004133432,-0.001926563
304.6159998,1189,58.88600607,151.7224752,-66.91768926,0.003460993,1.281471448,0.003460993,-43.6478684,0.506228664,-3.582583774,1.714393877,208.2279983,0.003460993,34.50801477,26.39824685,0.003460993,0.003460993,-0.004640314,0.001851031,0.000120601
304.6239998,1189,-17.22289867,97.59452197,129.9644255,0.003466727,121.51219,0.003466727,144.6221478,0.504341226,10.77959231,25.51759824,-252.9212721,0.003466727,62.2742861,26.27407865,0.003466727,0.003466727,-0.007332927,-0.000868881,0.002786076
304.6319998,1189,44.91557823,144.1563287,72.18353754,0.003472351,137.401549,0.003472351,27.52533744,0.502448505,-51.90212775,8.121149011,313.0925632,0.003472351,49.07479631,26.1497347,0.003472351,0.003472351,-0.006887476,-0.000359895,0.002295301
304.6399998,1190,38.49837227,173.0458194,-220.0909738,0.003477865,-199.6211156,0.003477865,-96.34100645,0.500550568,38.60491809,7.404406689,-192.6845778,0.003477865,0.165209372,26.02521874,0.003477865,0.003477865,-0.006102576,3.60E-05,0.001708047
304.6479998,1190,-29.09621314,88.03592684,297.4055866,0.003483271,286.6129717,0.003483271,209.9777431,0.498647482,-61.7797495,33.26377298,18.68608363,0.003483271,95.11432795,25.90053452,0.003483271,0.003483271,-0.006771382,-0.000482227,0.002260268
304.6559998,1190,83.85440863,176.8317822,-170.7865034,0.003488568,-95.37730102,0.003488568,-117.3306516,0.496739312,-10.25493034,-15.32550858,240.8053249,0.003488568,-3.116690325,25.77568576,0.003488568,0.003488568,-0.00531439,-0.000152842,0.005247355
304.6639998,1190,-24.7940056,111.9718056,50.86831735,0.003493757,28.32278109,0.003493757,113.5923139,0.494826126,27.60868484,23.49587357,-370.1080307,0.003493757,32.86120092,25.65067619,0.003493757,0.003493757,-0.003913877,-0.000202505,0.010798486
304.6719998,1190,9.110199558,95.59780946,193.1057387,0.003498838,264.2112601,0.003498838,93.13777994,0.492907991,-90.76222762,-1.832970282,404.372913,0.003498838,50.54929129,25.5255095,0.003498838,0.003498838,-0.004159088,-0.000330318,0.010162132
304.6799998,1190,64.90499002,160.8196406,-277.3402748,0.003503811,-240.1294354,0.003503811,-141.2320598,0.490984972,43.06370382,-19.13623454,-213.0852638,0.003503811,-25.88960418,25.40018942,0.003503811,0.003503811,-0.00413615,-0.000118758,0.008328713
304.6879998,1190,-11.61398208,93.33275488,317.7184546,0.003508677,299.7752289,0.003508677,215.7362504,0.489057135,-37.90398154,40.10188389,3.710074437,0.003508677,111.723689,25.27471962,0.003508677,0.003508677,-0.003909596,-0.000289743,0.009993058
304.6959998,1190,67.23128257,149.0850227,-139.131066,0.003513435,-55.79799655,0.003513435,-114.6710203,0.487124547,-14.52656216,-14.50058518,300.6925642,0.003513435,3.340914499,25.14910378,0.003513435,0.003513435,-0.003056256,0.001532975,0.007846323
304.7039998,1190,-24.68144047,91.19074829,9.280456841,0.003518087,0.825376653,0.003518087,81.42099536,0.485187274,22.78232988,2.833285709,-417.5262131,0.003518087,13.11567618,25.02334558,0.003518087,0.003518087,-0.001569706,0.004310155,0.00649766
304.7119998,1190,10.41870556,96.49989719,244.0815898,0.003522632,328.4809661,0.003522632,122.0077595,0.483245381,-86.42982055,-3.852275841,448.417086,0.003522632,70.8118027,24.89744868,0.003522632,0.003522632,-0.00162768,0.003903266,0.006944535
304.7199998,1190,43.49976551,154.4382341,-315.4977876,0.00352707,-250.4576517,0.00352707,-152.5637782,0.481298933,61.77420644,-25.96358635,-206.8610519,0.00352707,-33.53476935,24.77141672,0.00352707,0.00352707,-0.001981483,0.003227622,0.006449081
304.7279998,1190,-33.50169094,79.70038493,306.742416,0.003531403,319.0235153,0.003531403,229.4331808,0.479347998,-52.50855523,19.53182251,-25.73173005,0.003531403,86.21793958,24.64525335,0.003531403,0.003531403,-0.001474767,0.003926593,0.006536761
304.7359998,1190,72.47832883,159.4325488,-126.2216847,0.00353563,-17.58075586,0.00353563,-94.20233719,0.477392639,-16.15922407,-12.9588191,329.5993311,0.00353563,8.327010194,24.51896219,0.00353563,0.00353563,-0.003406417,0.003428288,0.007118319
304.7439998,1190,-19.77697983,95.75825508,-29.98236977,0.003539751,-24.37629403,0.003539751,72.43589146,0.475432922,47.81110226,17.41987786,-443.2578468,0.003539751,25.22303681,24.39254686,0.003539751,0.003539751,-0.006090139,0.00346827,0.008412817
304.7519998,1190,22.12625344,88.71999017,258.5954459,0.003543768,338.9127868,0.003543768,136.7305583,0.473468912,-89.87611894,1.134850808,440.9675365,0.003543768,80.03160882,24.26601097,0.003543768,0.003543768,-0.005555992,0.003606004,0.008119127
304.7599998,1190,70.0681954,161.5742527,-322.4226514,0.003547679,-273.8174481,0.003547679,-161.5561391,0.471500675,70.90397903,-17.11924209,-205.7950775,0.003547679,-19.03307007,24.13935812,0.003547679,0.003547679,-0.004925421,0.003273848,0.007528752
304.7679998,1190,-32.93421774,75.60350833,302.654918,0.003551486,294.7762317,0.003551486,221.0025618,0.469528274,-37.24488867,36.74267139,-39.39677473,0.003551486,110.0877934,24.01259189,0.003551486,0.003551486,-0.005472818,0.003487602,0.007853818
304.7759998,1190,68.04344181,151.1186824,-129.7111112,0.003555189,-39.76161532,0.003555189,-108.04123,0.467551775,-26.04033336,-17.12510475,339.2774623,0.003555189,10.85662261,23.88571587,0.003555189,0.003555189,-0.007546009,0.000714317,0.00823354
304.7839998,1190,-30.27856697,85.31408856,-53.73736857,0.003558788,-58.8748508,0.003558788,56.84027202,0.465571243,36.49824863,-6.667629401,-464.7558663,0.003558788,13.30867253,23.75873361,0.003558788,0.003558788,-0.011693289,-0.003470253,0.009552146
304.7919998,1190,6.323197526,81.47828292,271.2102133,0.003562283,353.7806415,0.003562283,148.4998733,0.463586741,-102.4969926,-13.1995422,433.3750346,0.003562283,80.49839381,23.63164868,0.003562283,0.003562283,-0.011203358,-0.002911306,0.009293166
304.7999998,1190,80.87517335,181.2338396,-329.7616692,0.003565676,-274.7242478,0.003565676,-173.0819498,0.461598334,68.55860986,-17.70186238,-191.2046823,0.003565676,-19.0350852,23.50446461,0.003565676,0.003565676,-0.009717043,-0.001915973,0.008591561
304.8079998,1190,-43.67264869,73.76314186,297.1831647,0.003568965,303.0227288,0.003568965,216.0530719,0.459606086,-36.48741337,34.94822964,-53.40684185,0.003568965,106.5174349,23.37718494,0.003568965,0.003568965,-0.010979547,-0.003006407,0.008971708
304.8159998,1190,58.37909789,147.1645578,-115.2122237,0.003572151,-0.136241098,0.003572151,-106.0031955,0.457610061,-38.63815675,-25.49920363,357.0644505,0.003572151,4.076457184,23.24981319,0.003572151,0.003572151,-0.009930175,-0.002289093,0.010157344
304.8239998,1190,8.857672362,124.4205388,-67.29128933,0.003575235,-73.97681026,0.003575235,29.95263825,0.455610323,58.97341198,5.805380173,-454.9197412,0.003575235,19.59344405,23.12235288,0.003575235,0.003575235,-0.009926598,-0.002379293,0.012839297
304.8319998,1190,19.58105318,105.9190456,273.4594255,0.003578217,340.4605912,0.003578217,144.1236814,0.453606935,-75.82242403,9.026263512,436.8019811,0.003578217,99.49944235,22.9948075,0.003578217,0.003578217,-0.0100911,-0.002622651,0.01241401
304.8399998,1190,64.27610283,171.28022,-330.7975396,0.003581098,-267.9221546,0.003581098,-160.6970595,0.451599962,54.84070395,-23.56392359,-173.8985732,0.003581098,-25.44460928,22.86718055,0.003581098,0.003581098,-0.009369433,-0.002151794,0.011271946
304.8479998,1190,-29.13157729,68.43152243,297.8680756,0.003583877,299.1252267,0.003583877,230.7918787,0.449589466,-39.12950746,29.52869974,-62.2844792,0.003583877,102.0041155,22.7394755,0.003583877,0.003583877,-0.009697493,-0.002507328,0.012048425
304.8559998,1190,71.26954974,158.7219653,-96.62964655,0.003586555,6.524462025,0.003586555,-89.43487523,0.447575511,-22.19271925,-20.075353,377.175958,0.003586555,24.76005317,22.61169582,0.003586555,0.003586555,-0.00578568,-0.00396545,0.012921318
304.8639998,1190,-1.315494057,132.8324704,-69.55246624,0.003589132,-73.07419263,0.003589132,35.19500498,0.44555816,74.17150324,7.870035057,-450.8106131,0.003589132,33.80615085,22.48384496,0.003589132,0.003589132,-0.000129326,-0.006761534,0.015612292
304.8719998,1190,11.36888749,91.81167699,285.7758358,0.003591608,353.570134,0.003591608,149.6744568,0.443537476,-67.97525881,16.16340474,425.803776,0.003591608,111.1754938,22.35592638,0.003591608,0.003591608,-0.000782726,-0.006450924,0.015245422
304.8799998,1190,52.01136903,166.0561609,-322.0794407,0.003593985,-249.5895755,0.003593985,-172.5057362,0.441513521,49.89836827,-32.43828002,-163.8794445,0.003593985,-20.03625192,22.2279435,0.003593985,0.003593985,-0.001952707,-0.0055158,0.013893417
304.8879998,1190,-41.40300516,84.59779562,303.5325222,0.003596262,324.3417446,0.003596262,220.0626297,0.439486359,-36.57055447,13.70145063,-71.62035224,0.003596262,104.7311161,22.09989976,0.003596262,0.003596262,-0.000440217,-0.006383331,0.014777182
304.8959998,1191,71.58212101,144.3461721,-78.95282678,0.003598439,52.39477875,0.003598439,-87.64858773,0.437456051,-22.48768513,-19.44916024,390.9656264,0.003598439,33.99271056,21.97179855,0.003598439,0.003598439,-0.002970773,-0.004851101,0.010358411
304.9039998,1191,1.10871762,105.3409222,-72.20555828,0.003600517,-43.50005776,0.003600517,28.09800479,0.435422661,50.84369496,10.07231521,-449.3127258,0.003600517,41.43953752,21.84364328,0.003600517,0.003600517,-0.005542078,-0.003509844,0.004681959
304.9119998,1191,17.38844141,88.80846428,290.8459712,0.003602497,368.1379389,0.003602497,146.4786343,0.43338625,-80.03444435,27.43830271,422.9081922,0.003602497,142.0602687,21.71543734,0.003602497,0.003602497,-0.004748627,-0.003813038,0.005392849
304.9199998,1191,59.92988247,144.9415919,-329.2306256,0.003604378,-259.3029975,0.003604378,-175.5329259,0.43134688,50.98362046,-7.565805719,-156.8495327,0.003604378,22.51344397,21.5871841,0.003604378,0.003604378,-0.004502362,-0.003761578,0.006212964
304.9279998,1191,-42.97545098,47.32606231,299.1783058,0.00360616,322.2822326,0.00360616,234.0315979,0.429304613,-46.03641802,39.29339893,-94.19376725,0.00360616,137.749859,21.45888694,0.00360616,0.00360616,-0.004699131,-0.003622051,0.004826418
304.9359998,1191,78.28497045,145.005287,-69.81145619,0.003607845,55.45626521,0.003607845,-72.19655883,0.427259511,-11.93561002,9.183145765,402.6246306,0.003607845,55.783454,21.3305492,0.003607845,0.003607845,-0.004383561,-0.002756413,0.009708605
304.9439998,1191,0.161403273,116.6353549,-75.76437729,0.003609433,-54.25884422,0.003609433,33.78721387,0.425211635,75.02340053,33.80653361,-448.1840449,0.003609433,20.01994811,21.20217422,0.003609433,0.003609433,-0.004316238,-0.001315154,0.016381512
304.9519998,1191,8.901239275,89.56637871,319.1373747,0.003610923,410.2299897,0.003610923,171.8060671,0.423161047,-67.40120998,35.74687632,423.116688,0.003610923,74.61041477,21.07376535,0.003610923,0.003610923,-0.004282495,-0.0014043,0.014998762
304.9599998,1191,82.82787815,166.5206353,-316.7969426,0.003612316,-233.7414008,0.003612316,-171.292858,0.421107809,79.08865436,4.502474349,-128.1395795,0.003612316,-64.22386057,20.94532589,0.003612316,0.003612316,-0.004058088,-0.001770713,0.013436518
304.9679998,1191,-28.07273331,54.04853131,295.7915591,0.003613613,315.5314379,0.003613613,231.9953405,0.41905198,-21.47831154,62.93430233,-99.58907674,0.003613613,44.75910766,20.81685916,0.003613613,0.003613613,-0.004047909,-0.001309271,0.014761104
304.9759998,1191,72.18291194,118.7918516,-61.43306851,0.003614814,73.5529123,0.003614814,-66.18960823,0.416993622,-7.513555516,17.07205617,415.5820671,0.003614814,-41.86699174,20.68836845,0.003614814,0.003614814,-0.003895344,-0.004113686,0.012616888
304.9839998,1191,3.636806405,83.78417132,-93.11820784,0.003615919,-47.51289799,0.003615919,23.19141476,0.414932795,80.19540703,29.25861348,-448.3111265,0.003615919,-62.10633389,20.55985704,0.003615919,0.003615919,-0.003785165,-0.008222637,0.011156196
304.9919998,1191,21.86634876,62.01195676,315.5073236,0.003616929,429.7317453,0.003616929,170.9973631,0.412869561,-70.73388597,47.79199776,411.277808,0.003616929,39.35564602,20.43132821,0.003616929,0.003616929,-0.003719717,-0.007532693,0.011429992
304.9999998,1191,99.8557947,149.445918,-340.0140258,0.003617843,-237.1297495,0.003617843,-185.4747351,0.41080398,84.29937252,18.69450235,-125.0133579,0.003617843,-65.72511152,20.30278521,0.003617843,0.003617843,-0.003566116,-0.006546753,0.010930497
305.0079998,1191,-36.6824411,14.58826803,261.5124398,0.003618663,294.6535893,0.003618663,219.2002727,0.408736111,-13.7591382,57.46503107,-133.851836,0.003618663,59.65922767,20.1742313,0.003618663,0.003618663,-0.003505705,-0.0075058,0.010817406
305.0159998,1191,55.60169741,77.33742492,-65.27130742,0.003619388,86.79418335,0.003619388,-59.15035496,0.406666015,-25.14063601,7.983121661,407.9336296,0.003619388,-14.34828768,20.04566971,0.003619388,0.003619388,-0.000800156,-0.005887919,0.010505152
305.0239998,1191,11.02593438,70.05125634,-115.9783068,0.003620019,-58.31419703,0.003620019,21.67792193,0.404593752,67.45559218,28.42809185,-457.146126,0.003620019,-30.91464321,19.91710366,0.003620019,0.003620019,0.0034682,-0.004523185,0.010273786
305.0319998,1191,7.753140942,8.869554059,304.6485197,0.003620557,429.3350638,0.003620557,183.5673609,0.402519381,-81.37668529,37.30046178,393.2999623,0.003620557,79.15597477,19.78853638,0.003620557,0.003620557,0.003015554,-0.004854958,0.010061495
305.0399998,1191,67.30325708,80.29262992,-348.0281674,0.003621001,-212.0621426,0.003621001,-178.0049528,0.400442962,67.5867643,-6.766033514,-119.1187655,0.003621001,-38.77118052,19.65997105,0.003621001,0.003621001,0.001994651,-0.004726028,0.009766962
305.0479998,1191,-30.65119148,0.723360917,254.4996704,0.003621352,323.597752,0.003621352,220.2862003,0.398364555,-20.24680227,43.57145161,-145.9474833,0.003621352,69.95265503,19.53141086,0.003621352,0.003621352,0.003220455,-0.004608427,0.009587568
305.0559998,1191,81.52672369,65.84535978,-62.59705018,0.00362161,112.2263298,0.00362161,-58.16984524,0.396284218,-28.120654,11.23822678,423.028176,0.00362161,16.75651,19.402859,0.00362161,0.00362161,0.004225906,-0.003709017,0.007583417
305.0639998,1191,3.58012548,31.75044212,-139.3322205,0.003621776,-59.33536528,0.003621776,9.348346264,0.394202011,63.03077909,22.54299601,-466.7102118,0.003621776,-7.209388569,19.27431863,0.003621776,0.003621776,0.007173182,-0.002238997,0.004595259
305.0719998,1191,11.12975761,-4.975602008,352.7880021,0.003621849,547.06663,0.003621849,178.5432831,0.392117992,-127.3600472,30.4348674,708.7499961,0.003621849,90.57908911,19.14579289,0.003621849,0.003621849,0.007115302,-0.002332394,0.00471616
305.0799998,1191,119.4038131,109.9135125,-452.3155617,0.003621831,-241.6451993,0.003621831,-273.7751312,0.39003222,66.48559154,-1.608077457,137.4344796,0.003621831,-40.52921842,19.01728493,0.003621831,0.003621831,0.005060902,-0.001794764,0.000937452
305.0879998,1191,-45.12365062,-9.292198673,190.849864,0.003621722,234.6715557,0.003621722,230.0096263,0.387944753,32.17175071,63.24934547,-572.5560769,0.003621722,69.43837928,18.88879788,0.003621722,0.003621722,0.004864181,5.70E-05,-0.006995914
305.0959998,1191,68.88017049,18.57628063,424.2283678,0.003621522,646.8573998,0.003621522,154.6811804,0.385855651,-159.4849352,49.8967588,1116.570414,0.003621522,115.948454,18.76033485,0.003621522,0.003621522,0.004272452,-0.000321776,-0.00578077
305.1039998,1191,106.175257,70.0091311,0.713517016,0.003621231,201.2045272,0.003621231,-56.89054081,0.38376497,-33.54676282,40.34113652,631.1646633,0.003621231,50.88669768,18.63189894,0.003621231,0.003621231,0.004773791,-0.000617771,-0.004155331
305.1119998,1191,8.038822453,10.76771563,95.1215317,0.003620851,208.0727928,0.003620851,98.96159431,0.38167277,-4.870507572,45.90446519,-64.12432478,0.003620851,49.62645552,18.50349324,0.003620851,0.003620851,0.00463915,-7.97E-05,-0.006425267
305.1199998,1191,49.76598702,40.78546087,-207.4343077,0.00362038,-73.10973437,0.00362038,-85.32501835,0.379579107,43.29710837,23.74801769,-147.7981468,0.00362038,-9.14331092,18.37512084,0.00362038,0.00362038,0.004421522,-0.000476071,-0.004922362
305.1279998,1191,4.244289317,-10.3079855,194.5884021,0.003619819,303.6930741,0.003619819,152.3090422,0.37748404,-30.75340972,44.44205654,26.07450159,0.003619819,68.45243379,18.24678479,0.003619819,0.003619819,0.004792418,-0.000258911,-0.005488439
305.1359998,1191,53.73078702,30.96365564,-73.09591184,0.00361917,98.53763954,0.00361917,-45.14176119,0.375387625,-4.036440808,12.94771131,181.6128663,0.00361917,4.738904995,18.11848815,0.00361917,0.00361917,0.006145311,0.001489816,-0.004987618
305.1439998,1191,20.86549386,25.99343658,-90.83074459,0.003618431,19.46827062,0.003618431,6.181673792,0.37328992,60.48906708,33.71352695,-319.1517338,0.003618431,2.541190221,17.99023396,0.003618431,0.003618431,0.009152095,0.004154775,-0.00290439
305.1519998,1192,18.31257811,7.808684583,246.8095659,0.003617604,391.220429,0.003617604,143.4789276,0.371190983,-47.34250353,42.71546356,283.7602484,0.003617604,78.24638221,17.86202525,0.003617604,0.003617604,0.008712939,0.003982898,-0.003884901
305.1599998,1192,68.37731656,61.65489945,-288.8476373,0.003616689,-126.3165484,0.003616689,-147.1892984,0.369090869,53.84688297,-2.081001623,-125.8861298,0.003616689,-23.56430681,17.73386504,0.003616689,0.003616689,0.007891471,0.00310789,-0.003788367
305.1679998,1192,-4.057045139,-22.49827621,221.2481183,0.003615687,322.3277978,0.003615687,191.3381968,0.366989636,-12.3021308,45.95208849,-133.456881,0.003615687,79.94605091,17.60575632,0.003615687,0.003615687,0.008770879,0.003959253,-0.003644404
305.1759998,1192,73.89360659,25.20777803,-35.94078988,0.003614597,152.2021913,0.003614597,-43.13204044,0.36488734,2.642989337,27.20364745,353.6557003,0.003614597,45.00993583,17.47770209,0.003614597,0.003614597,0.007227557,0.002565402,-0.004037334
305.1839998,1192,18.93024916,8.663210909,-136.9833243,0.00361342,-14.74710444,0.00361342,-17.31765524,0.362784038,65.52329356,16.4886441,-413.8566678,0.00361342,-0.064028638,17.34970532,0.00361342,0.00361342,0.005971024,0.001202703,-0.003824975
305.1919998,1192,19.1213095,-22.33666267,299.2872147,0.003612156,461.9367453,0.003612156,157.5379506,0.360679785,-66.74309846,28.99917322,297.8965982,0.003612156,80.41458669,17.22176899,0.003612156,0.003612156,0.006244787,0.001598201,-0.004051518
305.1999998,1192,80.34655791,56.03871909,-324.7388628,0.003610806,-151.3936593,0.003610806,-200.7963762,0.358574637,76.43577848,-4.034780071,-98.8451582,0.003610806,-21.53341729,17.09389603,0.003610806,0.003610806,0.006253673,0.001588161,-0.004076664
305.2079998,1192,-15.10839581,-13.7910564,214.8764359,0.00360937,312.7587734,0.00360937,177.5202369,0.356468651,-5.978298864,34.44974524,-210.6385622,0.00360937,82.34839879,16.96608941,0.00360937,0.00360937,0.006126891,0.001484532,-0.004096465
305.2159998,1192,80.48730573,52.56865153,-22.7266386,0.003607848,172.2668378,0.003607848,-54.68682498,0.354361881,-8.599204243,9.250802846,405.8238341,0.003607848,48.96569238,16.83835203,0.003607848,0.003607848,0.004419547,0.000693126,-0.001661762
305.2239998,1192,17.28388419,18.07553303,-181.3690707,0.003606242,-74.94671042,0.003606242,-44.98294751,0.352254384,98.68588567,12.65880143,-462.0427552,0.003606242,7.118644096,16.71068681,0.003606242,0.003606242,0.001627385,-0.000722065,0.00252432
305.2319998,1192,11.23963362,-40.56149563,317.0833907,0.00360455,466.1641561,0.00360455,183.9394622,0.350146214,-62.97496283,29.38975418,292.7873796,0.00360455,94.91361472,16.58309667,0.00360455,0.00360455,0.001904873,-0.000568536,0.001868998
305.2399998,1192,106.9477427,49.35231144,-335.7850732,0.003602774,-173.157257,0.003602774,-193.9116632,0.348037426,81.00439543,1.301758227,-72.61948985,0.003602774,-22.45672599,16.45558447,0.003602774,0.003602774,0.002685347,-0.000158918,0.000687324
305.2479998,1192,-0.916449342,-37.41389972,189.0465568,0.003600914,259.2878163,0.003600914,176.8107679,0.345928075,15.99264669,51.22703783,-247.8548623,0.003600914,88.69848116,16.32815311,0.003600914,0.003600914,0.001001495,-0.00057446,0.001778845
305.2559998,1192,64.82095923,-0.043812669,-21.85562762,0.00359897,169.1256007,0.00359897,-43.49292325,0.343818217,-37.52281641,6.598266286,421.3176088,0.00359897,44.17844009,16.20080544,0.00359897,0.00359897,0.000131794,-0.000294361,0.000872869
305.2639998,1192,22.2633568,-4.395363965,-196.3753267,0.003596943,-91.57070422,0.003596943,-53.80215331,0.341707904,78.39184078,5.474799383,-466.5487194,0.003596943,-20.00168106,16.07354431,0.003596943,0.003596943,0.000252104,-0.000318288,0.000910147
305.2719998,1192,30.60793737,-24.40596178,322.851909,0.003594833,452.1037749,0.003594833,178.8971007,0.339597192,-47.01618976,43.64472214,296.0098547,0.003594833,96.64701968,15.94637257,0.003594833,0.003594833,0.000432192,-0.000410346,0.001043814
305.2799998,1192,84.56079401,44.15730794,-327.7120536,0.003592641,-165.2049427,0.003592641,-186.6593727,0.337486134,84.47087339,2.392544213,-45.69545613,0.003592641,-16.31774564,15.81929303,0.003592641,0.003592641,0.000405637,-0.000217629,0.000455248
305.2879998,1192,-37.05275923,-59.40437737,195.6713025,0.003590366,281.4721888,0.003590366,181.5978271,0.335374784,16.62425949,32.68129582,-251.7359827,0.003590366,68.88510191,15.69230851,0.003590366,0.003590366,0.00040231,-0.000352795,0.001602039
305.2959998,1192,73.91188621,14.01554987,-8.122752721,0.003588009,189.2931843,0.003588009,-54.48008482,0.333263196,-18.44813278,5.293941908,441.9645045,0.003588009,39.5167317,15.5654218,0.003588009,0.003588009,0.00057037,-0.000242298,0.002606185
305.3039998,1192,31.237173,21.58910884,-216.2672721,0.003585571,-116.3190659,0.003585571,-70.07289095,0.331151424,102.8723062,14.99178499,-465.6327442,0.003585571,4.255184241,15.43863569,0.003585571,0.003585571,0.000482191,-0.000243828,0.002359925
305.3119998,1192,2.345384146,-26.45795778,320.7543165,0.003583051,452.5791593,0.003583051,187.7723104,0.32903952,-62.30750616,39.18386233,284.868139,0.003583051,114.8823934,15.31195296,0.003583051,0.003583051,0.000615653,-0.000257004,0.001932814
305.3199998,1192,70.29400721,41.03156703,-327.962397,0.003580451,-148.9611869,0.003580451,-193.102911,0.326927538,45.95694208,-2.270281242,-28.64453481,0.003580451,-22.91189269,15.18537636,0.003580451,0.003580451,0.000628652,-0.000182096,0.002035977
305.3279998,1192,-30.96539916,-52.44750798,174.3765474,0.003577771,256.4830924,0.003577771,165.4151937,0.32481553,6.71949247,46.00246515,-268.7474931,0.003577771,69.10190921,15.05890864,0.003577771,0.003577771,-0.001070112,0.000641771,0.002643568
305.3359998,1192,72.08331824,15.69608292,-7.106824372,0.00357501,171.0721994,0.00357501,-44.43765859,0.322703549,-21.48894255,17.74687247,441.9204491,0.00357501,47.63173172,14.93255253,0.00357501,0.00357501,-0.003759764,0.002087723,0.003831297
305.3439998,1192,20.45064255,4.154903696,-220.2706979,0.00357217,-129.8255733,0.00357217,-65.34464772,0.320591648,100.5174248,16.3610747,-461.9300704,0.00357217,-0.041189715,14.80631075,0.00357217,0.00357217,-0.003409323,0.001910402,0.003636333
305.3519998,1192,-7.566526925,-54.00370629,332.738177,0.003569251,447.6449419,0.003569251,193.0917224,0.318479879,-45.08298167,38.48259241,275.7564142,0.003569251,121.4233142,14.68018601,0.003569251,0.003569251,-0.002571079,0.001545709,0.002966022
305.3599998,1192,67.81906117,42.92535379,-313.5245753,0.003566253,-158.2333865,0.003566253,-189.8334856,0.316368293,70.37754184,-11.66285206,-18.68566803,0.003566253,-8.176687886,14.554181,0.003566253,0.003566253,-0.003310965,0.001958935,0.00329922
305.3679998,1192,-44.27415742,-36.07079476,182.6233684,0.003563176,250.5478804,0.003563176,165.4200276,0.314256944,11.59591042,31.02450983,-280.9587787,0.003563176,71.92126129,14.42829841,0.003563176,0.003563176,-0.000143776,0.000826664,0.00112308
305.3759998,1192,54.95117584,20.26876915,15.67766481,0.003560021,181.5683255,0.003560021,-46.21123967,0.312145881,-31.71036188,10.36287417,454.9410956,0.003560021,52.59490315,14.3025409,0.003560021,0.003560021,0.004033139,-0.000510128,-0.001795732
305.3839998,1192,11.02440796,8.930693856,-224.2263105,0.003556789,-148.7218758,0.003556789,-77.53061821,0.310035158,98.86309583,9.183638968,-462.1979072,0.003556789,0.31581235,14.17691113,0.003556789,0.003556789,0.003371131,-0.000246855,-0.001458842
305.3919998,1192,-12.37352629,-41.91685697,336.3002824,0.003553479,434.6228163,0.003553479,194.8362634,0.307924824,-48.75004217,36.39588758,252.3618621,0.003553479,109.1571084,14.05141173,0.003553479,0.003553479,0.002647813,-3.06E-05,-0.001075851
305.3999998,1192,78.09180016,63.09772553,-316.2285967,0.003550092,-187.7476819,0.003550092,-198.1946693,0.305814932,71.4502783,1.574417894,-11.47928196,0.003550092,-9.345081245,13.92604534,0.003550092,0.003550092,0.003590197,-0.000275279,-0.001822795
305.4079998,1193,-37.33876766,-27.26440778,168.9981403,0.003546629,202.5105681,0.003546629,157.8090078,0.303705532,18.10286849,34.33502901,-301.9554584,0.003546629,82.20478824,13.80081457,0.003546629,0.003546629,0.003024878,-9.74E-05,0.002755745
305.4159998,1193,56.07552963,14.19999376,27.19097504,0.003543089,169.3417772,0.003543089,-33.95533318,0.301596674,-33.10583024,5.898781777,452.1703447,0.003543089,62.07049483,13.67572202,0.003543089,0.003543089,0.003147261,-0.000105374,0.009521
305.4239998,1193,11.79015254,8.002223052,-226.2007406,0.003539474,-157.034623,0.003539474,-67.45482966,0.299488409,97.49322854,14.19966957,-452.5094536,0.003539474,4.179087007,13.55077028,0.003539474,0.003539474,0.003381974,-0.000156936,0.008350332
305.4319998,1193,-20.9100512,-33.72065084,357.3604478,0.003535783,468.7407458,0.003535783,222.9012254,0.297380788,-59.03783766,33.12005024,263.8941686,0.003535783,107.6469939,13.42596192,0.003535783,0.003535783,0.003035545,-3.56E-05,0.006592346
305.4399998,1193,91.29117271,77.38373836,-297.6117541,0.003532018,-144.635803,0.003532018,-186.8933961,0.29527386,73.55427589,1.941454668,29.37240293,0.003532018,-8.974679603,13.30129951,0.003532018,0.003532018,0.003361677,-0.000107273,0.00816865
305.4479998,1193,-18.08202972,-27.54060255,154.1381056,0.003528177,198.2899857,0.003528177,141.9727768,0.293167675,49.26127529,59.4491801,-302.5091878,0.003528177,96.67134542,13.1767856,0.003528177,0.003528177,0.000610951,-4.19E-05,0.004238918
305.4559998,1193,38.5161566,-0.153870712,26.4509297,0.003524262,178.6872339,0.003524262,-47.07970013,0.291062282,-26.30980375,10.22999155,461.5448114,0.003524262,74.39828589,13.05242272,0.003524262,0.003524262,-0.003520487,-2.98E-05,5.45E-05
305.4639998,1193,-3.160140957,6.755640197,-245.8075965,0.003520273,-165.7103675,0.003520273,-105.9448791,0.288957732,84.0761376,-8.957060142,-450.2299687,0.003520273,-0.304509474,12.92821338,0.003520273,0.003520273,-0.002889501,-3.84E-05,0.000794141
305.4719998,1193,-23.49486597,-46.46856075,339.5800466,0.003516211,439.1769637,0.003516211,169.7318219,0.286854073,-58.4912401,22.96250927,234.7827017,0.003516211,111.0886283,12.80416011,0.003516211,0.003516211,-0.001870384,1.59E-05,0.001011268
305.4799998,1193,59.12846193,36.93355651,-303.6560574,0.003512076,-154.6629237,0.003512076,-237.630179,0.284751354,51.07223562,-20.48039407,29.21663045,0.003512076,-10.10560196,12.68026539,0.003512076,0.003512076,-0.00288555,-1.51E-06,0.00025998
305.4879998,1193,-49.74882742,-48.57895513,159.743509,0.003507868,215.5963075,0.003507868,111.0661485,0.282649625,12.22782066,26.05058732,-318.0729368,0.003507868,87.73832427,12.55653171,0.003507868,0.003507868,-0.000413288,3.63E-05,0.003930271
305.4959998,1193,48.30468637,12.09745153,59.60971556,0.003503587,220.2116645,0.003503587,-60.76632761,0.280548933,-33.51579247,2.561652966,476.5562697,0.003503587,78.80990113,12.43296153,0.003503587,0.003503587,0.00233282,4.58E-05,0.009275914
305.5039998,1193,15.08142621,24.05655308,-244.2043138,0.003499235,-158.5240487,0.003499235,-139.5960497,0.278449327,99.63584564,3.053544281,-426.9474946,0.003499235,7.974701426,12.30955731,0.003499235,0.003499235,0.001779094,5.74E-05,0.008251406
305.5119998,1193,-27.63354856,-37.47459134,344.1629525,0.003494811,445.4155391,0.003494811,157.0899702,0.276350856,-45.3482086,34.87703321,229.9736299,0.003494811,127.4996626,12.18632149,0.003494811,0.003494811,0.00153504,8.37E-05,0.006824519
305.5199998,1193,51.84521479,43.95715798,-288.9202342,0.003490316,-128.5624431,0.003490316,-222.6125075,0.274253566,54.93096252,-22.6762018,49.60067216,0.003490316,6.305190309,12.0632565,0.003490316,0.003490316,0.001996017,8.88E-05,0.008005953
305.5279998,1193,-42.79962966,-31.81624532,161.8521369,0.00348575,240.383173,0.00348575,120.8270617,0.272157506,14.51241873,20.21247802,-317.4136029,0.00348575,92.80940317,11.94036476,0.00348575,0.00348575,0.006910612,0.000112174,0.008588862
305.5359998,1193,62.47142644,29.95249306,71.84643756,0.003481113,248.2122254,0.003481113,-60.07462458,0.270062724,-18.90944818,15.54347526,490.1803058,0.003481113,95.95004213,11.81764865,0.003481113,0.003481113,0.015340373,0.000124444,0.011322924
305.5439998,1193,12.91097467,23.40620255,-246.6681932,0.003476407,-147.2823642,0.003476407,-141.7168488,0.267969266,111.1421781,14.30732023,-419.3216693,0.003476407,34.06923996,11.69511058,0.003476407,0.003476407,0.014384873,0.000139417,0.011034361
305.5519998,1193,-33.47042721,-45.80529973,361.7789409,0.003471631,487.3590172,0.003471631,176.0809258,0.265877181,-56.09114555,31.04309539,223.8081441,0.003471631,144.8655499,11.57275292,0.003471631,0.003471631,0.011981231,0.000157414,0.009512901
305.5599998,1193,68.27052373,52.83748481,-286.1279528,0.003466785,-111.5415342,0.003466785,-228.0501267,0.263786513,76.2174047,-11.20521632,70.98865601,0.003466785,19.12186983,11.45057802,0.003466785,0.003466785,0.014432825,0.000169293,0.010514409
305.5679998,1193,-49.52391834,-38.09633042,146.4828736,0.003461871,229.8196112,0.003461871,113.1520942,0.261697312,52.97304757,32.2782025,-336.391001,0.003461871,111.3828956,11.32858823,0.003461871,0.003461871,0.010165714,-0.000672739,0.009448039
305.5759998,1193,84.6932083,25.51012872,82.40576741,0.003456888,346.7341081,0.003456888,-107.6711765,0.259609622,-62.75888938,-9.229277514,988.2347535,0.003456888,116.212437,11.2067859,0.003456888,0.003456888,0.006168645,-0.002050302,0.009325884
305.5839998,1193,89.92798475,77.27533148,-495.7245205,0.003451837,-318.4853539,0.003451837,-338.66172,0.25752349,132.1437278,-16.84413157,-128.5509617,0.003451837,2.041531558,11.08517333,0.003451837,0.003451837,0.007206982,-0.001853669,0.009337427
305.5919998,1193,-68.44141841,-49.09546562,368.2511346,0.003446718,411.4589975,0.003446718,258.4099926,0.255438962,15.98545531,65.12669621,-374.8315742,0.003446718,180.3354309,10.96375283,0.003446718,0.003446718,0.007230185,-0.001460347,0.008571288
305.5999998,1193,75.27971615,42.98817903,-11.09945894,0.003441532,181.2988743,0.003441532,-116.1631069,0.253356084,-4.137073553,18.52735874,525.735849,0.003441532,123.7218125,10.8425267,0.003441532,0.003441532,0.006859789,-0.001827086,0.008745748
305.6079998,1193,34.49593377,25.48500841,-229.5718924,0.00343628,-124.8162,0.00343628,-142.2492221,0.251274901,113.1877391,19.42343594,-335.6653161,0.00343628,64.54259374,10.72149722,0.00343628,0.00343628,0.007025953,-0.00153832,0.008188795
305.6159998,1193,-26.30711239,-46.27345784,294.8406001,0.00343096,390.5439273,0.00343096,167.4536107,0.24919546,-0.696095881,56.69489699,-6.987301841,0.00343096,166.6962745,10.60066665,0.00343096,0.00343096,0.003520786,-0.001548513,0.007139387
305.6239998,1193,54.99476467,25.66995369,-164.0832858,0.003425575,33.24321092,0.003425575,-169.6384443,0.247117804,25.52313192,17.70355074,310.5096833,0.003425575,68.95910016,10.48003725,0.003425575,0.003425575,-0.002194173,-0.001604514,0.00555014
305.6319998,1193,-27.69107924,-27.2408079,-42.49950354,0.003420123,65.31639865,0.003420123,5.720724314,0.24504198,57.78941405,36.1012359,-386.8574002,0.003420123,34.58432319,10.35961125,0.003420123,0.003420123,-0.001371417,-0.001411231,0.005314552
305.6399998,1193,12.82560485,-17.16212043,227.3059148,0.003414606,388.2812954,0.003414606,88.85008485,0.242968032,-19.9691806,59.50792143,290.9265136,0.003414606,67.2805023,10.23939088,0.003414606,0.003414606,-6.86E-06,-0.001512223,0.005579196
305.6479998,1193,61.2413678,40.15000988,-246.7483506,0.003409025,-77.21733537,0.003409025,-178.1990873,0.240896004,95.11035753,47.87694383,-27.9500926,0.003409025,-21.35050354,10.11937836,0.003409025,0.003409025,-0.001535543,-0.001390553,0.004827998
305.6559998,1193,-45.20166862,-68.5617513,162.085089,0.003403378,273.5581717,0.003403378,124.3930353,0.23882594,25.71391903,63.96000627,-247.5533844,0.003403378,29.00883296,9.999575873,0.003403378,0.003403378,0.000399247,0.0003474,0.002306541
305.6639998,1194,46.84793212,-14.40301054,19.61487424,0.003397668,230.599402,0.003397668,-60.81012134,0.236757885,-26.02363478,31.02841078,414.8719406,0.003397668,-7.588537278,9.879985613,0.003397668,0.003397668,0.001590481,0.003138655,-0.002142046
305.6719998,1194,18.58948999,-10.24803502,-197.3686416,0.003391893,-58.98188669,0.003391893,-89.93239723,0.234691883,94.81708275,49.22021055,-369.9734389,0.003391893,-39.37115452,9.760609751,0.003391893,0.003391893,0.001150811,0.00286351,-0.001963258
305.6799998,1194,-24.61035753,-88.31428553,316.1834284,0.003386055,488.8882228,0.003386055,173.032479,0.232627977,-21.64290218,79.97514059,209.5463359,0.003386055,68.89986953,9.641450442,0.003386055,0.003386055,0.001394824,0.002094962,-0.000858132
305.6879998,1194,72.85601569,-2.441330184,-240.5691962,0.003380155,-18.27990467,0.003380155,-183.1541489,0.230566211,75.50581881,41.15034424,93.4554102,0.003380155,-22.55087139,9.522509832,0.003380155,0.003380155,0.001299435,0.00292574,-0.002403104
305.6959998,1194,-21.19168906,-74.08042693,108.7564425,0.003374191,242.755637,0.003374191,108.1701226,0.228506628,50.58692716,73.71795699,-323.0962868,0.003374191,56.02500417,9.403790051,0.003374191,0.003374191,0.003990241,0.001542553,-0.000846419
305.7039998,1194,47.47699439,-43.92095306,77.72496038,0.003368165,310.2261389,0.003368165,-13.96126245,0.226449271,-25.58827329,54.538568,468.1391125,0.003368165,62.34837192,9.285293216,0.003368165,0.003368165,0.008151731,0.000231398,0.000227783
305.7119998,1194,36.54257395,-25.43649532,-274.7243473,0.003362078,-124.7539653,0.003362078,-129.643695,0.224394183,115.6542555,55.17531212,-370.2967195,0.003362078,18.05429782,9.167021431,0.003362078,0.003362078,0.007635402,0.000603067,-0.000424836
305.7199998,1194,-23.67304932,-107.3642638,331.6610644,0.003355929,489.9967765,0.003355929,199.2779225,0.222341406,-22.44522915,81.62257751,174.4736146,0.003355929,143.9158184,9.048976785,0.003355929,0.003355929,0.006562234,0.000643043,-0.000420727
305.7279998,1194,73.78131713,-17.75146304,-253.8607352,0.003349718,-22.88072884,0.003349718,-181.8527431,0.220290983,63.11687519,41.58092295,131.8594937,0.003349718,12.3319699,8.931161354,0.003349718,0.003349718,0.007682732,0.000538887,-0.000663955
305.7359998,1194,-19.81905623,-82.20151423,87.87286038,0.003343447,212.1127599,0.003343447,104.1217593,0.218242956,56.69183117,87.37033928,-366.3425568,0.003343447,79.51248679,8.813577201,0.003343447,0.003343447,0.006077995,-0.00023329,-0.001649489
305.7439998,1194,41.08380209,-62.23697808,107.0453752,0.003337116,331.3854409,0.003337116,6.196090496,0.216197366,-34.3568477,57.79658641,477.5192114,0.003337116,98.30843688,8.696226376,0.003337116,0.003337116,0.004750961,-0.001623796,-0.003230148
305.7519998,1194,25.72154822,-47.43721662,-296.0689773,0.003330725,-121.1623176,0.003330725,-136.003507,0.214154256,94.67114623,31.86350419,-376.5992979,0.003330725,0.573457591,8.579110913,0.003330725,0.003330725,0.005188223,-0.001465678,-0.003209761
305.7599998,1194,-30.88235715,-121.1448749,337.0850034,0.003324274,513.0633989,0.003324274,205.0680035,0.212113667,-36.93604085,68.05531234,141.8686342,0.003324274,117.0496246,8.462232836,0.003324274,0.003324274,0.005053434,-0.001028766,-0.002978943
305.7679998,1194,72.91746,-27.09993827,-263.6878907,0.003317765,-30.87432834,0.003317765,-194.6932266,0.210075641,68.97655274,40.46278668,137.8701809,0.003317765,17.36363871,8.345594151,0.003317765,0.003317765,0.005035127,-0.001434683,-0.003548992
305.7759998,1194,-19.48905992,-95.44014185,62.43952375,0.003311196,182.2365662,0.003311196,92.8295293,0.208040217,71.4274573,79.66854172,-400.3587111,0.003311196,78.12958977,8.229196854,0.003311196,0.003311196,0.005883081,-0.00027671,-0.003403953
305.7839998,1194,43.66577076,-77.86752392,120.2273056,0.003304569,343.7200121,0.003304569,18.57678492,0.206007438,-20.80959798,48.37434492,470.9414152,0.003304569,88.89139098,8.113042926,0.003304569,0.003304569,0.007249884,0.001108089,-0.00361236
305.7919998,1194,25.54433536,-55.97263021,-295.5286232,0.003297885,-121.8884795,0.003297885,-134.8526395,0.203977343,115.0553669,30.00092824,-373.4679175,0.003297885,-6.763570695,7.997134334,0.003297885,0.003297885,0.007042594,0.000846876,-0.003823156
305.7999998,1194,-28.72340872,-126.8335461,351.6042906,0.003291142,520.2512977,0.003291142,220.5469823,0.201949974,-18.89153944,72.29857474,130.3493361,0.003291142,107.473293,7.881473033,0.003291142,0.003291142,0.00664216,0.000680787,-0.00380498
305.8079998,1194,78.64555977,-35.91196533,-244.8718443,0.003284343,-2.832700559,0.003284343,-177.8578018,0.199925369,68.25333531,29.06274404,162.9843327,0.003284343,-0.682807711,7.766060963,0.003284343,0.003284343,0.007007303,0.000939126,-0.004075498
305.8159998,1194,-23.65239091,-105.4080368,69.6779317,0.003277486,208.8251687,0.003277486,100.2901708,0.19790357,49.91995862,63.83125631,-403.5655322,0.003277486,53.31665887,7.650900051,0.003277486,0.003277486,0.008416958,0.000792624,-0.005832944
305.8239998,1194,46.11114055,-82.36179785,141.4202745,0.003270574,375.5887242,0.003270574,27.68331367,0.195884616,-41.9523958,56.44822961,475.468851,0.003270574,72.2707057,7.53599221,0.003270574,0.003270574,0.011216593,0.000830575,-0.008767485
305.8319998,1194,32.37848024,-63.40767272,-303.2102582,0.003263605,-115.530736,0.003263605,-141.2010075,0.193868546,106.6771939,32.80004699,-363.4759081,0.003263605,-18.51674601,7.42133934,0.003263605,0.003263605,0.010886774,0.000902022,-0.008552474
305.8399998,1194,-27.53984146,-129.8294702,352.2620964,0.003256581,540.6701162,0.003256581,223.8647425,0.1918554,-33.39219483,61.39676678,120.2847543,0.003256581,98.51640847,7.306943327,0.003256581,0.003256581,0.009938267,0.000813947,-0.007871347
305.8479998,1194,84.3797381,-30.42874218,-236.3097771,0.003249501,20.02877475,0.003249501,-175.6466436,0.189845216,72.12263901,31.34940709,180.3098511,0.003249501,-6.957339514,7.192806044,0.003249501,0.003249501,0.010786943,0.000906876,-0.008803658
305.8559998,1194,-37.00248777,-123.782882,57.41319467,0.003242367,210.1124953,0.003242367,100.2877836,0.187838034,71.42801812,56.48834169,-417.7217631,0.003242367,40.26324606,7.078929349,0.003242367,0.003242367,0.008389567,0.000869394,-0.007482679
305.8639998,1194,33.87096627,-92.19543403,151.1973995,0.003235178,409.8109304,0.003235178,45.21744336,0.185833892,-41.37607969,33.2998317,474.4998808,0.003235178,65.39125067,6.965315089,0.003235178,0.003235178,0.005630517,0.00088327,-0.006273841
305.8719998,1194,41.28583572,-46.81083747,-306.19441,0.003227935,-96.9426015,0.003227935,-138.1505118,0.183832829,112.7012779,28.81895492,-350.5513907,0.003227935,-11.88729294,6.851965095,0.003227935,0.003227935,0.006112433,0.000915444,-0.006716629
305.8799998,1194,-38.26292215,-127.6282638,363.8927535,0.003220638,571.2358399,0.003220638,244.3574134,0.181834883,-39.96899681,62.23326225,106.8834588,0.003220638,108.3889724,6.738881185,0.003220638,0.003220638,0.006415533,0.000888284,-0.006840586
305.8879998,1194,63.58330877,-31.63594933,-209.6665495,0.003213288,86.69019411,0.003213288,-147.0274555,0.179840091,55.03929777,22.68544459,204.1625521,0.003213288,1.282002342,6.626065165,0.003213288,0.003213288,0.005885463,0.000928876,-0.006820164
305.8959998,1194,-34.88805534,-109.2803316,55.6912661,0.003205886,251.1430944,0.003205886,97.62482941,0.177848491,76.59662518,61.89417137,-417.1419674,0.003205886,46.53973933,6.513518826,0.003205886,0.003205886,0.006137516,0.002635911,-0.009559609
305.9039998,1194,41.2627065,-76.97813438,161.9742456,0.00319843,452.4675602,0.00319843,40.77166362,0.175860122,-39.75945662,49.1090538,471.7823802,0.00319843,71.20978869,6.401243945,0.00319843,0.00319843,0.006046611,0.005432742,-0.01381779
305.9119998,1194,27.48987904,-52.27094527,-321.3102651,0.003190923,-86.82271484,0.003190923,-158.8480616,0.173875019,127.6268388,38.69579441,-346.7282692,0.003190923,-13.02871582,6.289242288,0.003190923,0.003190923,0.005871759,0.005081358,-0.013322134
305.9199998,1195,-57.47802313,-150.4024992,336.9625994,0.003183364,550.621975,0.003183364,216.3375329,0.171893221,-23.27372748,63.13833497,73.70084143,0.003183364,106.6791933,6.177515604,0.003183364,0.003183364,0.006021653,0.004323355,-0.012324569
305.9279998,1195,65.32050936,-38.51759814,-224.6894964,0.003175754,64.33355778,0.003175754,-170.0370157,0.169914764,51.04604802,11.41645112,190.4550664,0.003175754,-1.025266836,6.066065632,0.003175754,0.003175754,0.005812511,0.005101708,-0.013515452
305.9359998,1195,-36.78816015,-109.0839431,35.05284813,0.003168093,218.5898868,0.003168093,85.66183402,0.167939684,75.85105232,46.90277311,-443.0521142,0.003168093,43.67535682,5.954894094,0.003168093,0.003168093,0.007575786,0.005414534,-0.011932364
305.9439998,1195,29.66619691,-87.46173037,160.313956,0.003160381,433.5455667,0.003160381,39.07948056,0.165968019,-46.4676824,32.32171066,458.8462489,0.003160381,73.01476051,5.844002701,0.003160381,0.003160381,0.010307278,0.00686402,-0.010705682
305.9519998,1195,32.37347099,-54.77304939,-346.2048543,0.003152619,-135.9805611,0.003152619,-189.4941163,0.163999803,121.4298838,21.5816992,-354.3635017,0.003152619,-21.56253287,5.73339315,0.003152619,0.003152619,0.009850524,0.006830496,-0.011159683
305.9599998,1195,-58.7485348,-156.1526025,324.5591262,0.003144807,518.9348765,0.003144807,208.4625138,0.162035074,-27.56033874,56.21592061,46.23598746,0.003144807,92.46054504,5.623067125,0.003144807,0.003144807,0.009122365,0.006098743,-0.011104907
305.9679998,1195,60.33698362,-45.79109212,-215.8259492,0.003136946,68.97529897,0.003136946,-154.3569677,0.160073867,39.34924991,3.686342335,208.25229,0.003136946,-18.01884776,5.513026294,0.003136946,0.003136946,0.009775489,0.006718291,-0.011131225
305.9759998,1195,-38.87303701,-117.4443734,24.04012468,0.003129036,204.3087297,0.003129036,86.55121058,0.158116217,82.69195381,42.36877247,-447.7777584,0.003129036,31.61884239,5.403272316,0.003129036,0.003129036,0.006645702,0.007953222,-0.010310277
305.9839998,1195,16.03171926,-106.5503554,182.4495492,0.003121077,473.1907649,0.003121077,68.05561312,0.156162159,-49.76350838,26.74509432,464.2974992,0.003121077,64.0192573,5.293806831,0.003121077,0.003121077,0.002465027,0.010757017,-0.008957372
305.9919998,1195,41.18884983,-46.21021909,-335.5483097,0.00311307,-86.54618226,0.00311307,-161.602476,0.15421173,105.5083743,8.007590617,-319.6302692,0.00311307,-42.03530132,5.184631471,0.00311307,0.00311307,0.003098572,0.010479152,-0.009154548
305.9999998,1195,-36.56662858,-139.5812924,311.535313,0.003105015,519.0276271,0.003105015,208.4992999,0.152264962,-11.81204578,61.62662436,38.50523578,0.003105015,87.66439443,5.075747852,0.003105015,0.003105015,0.003851167,0.009399903,-0.009569814
306.0079998,1195,68.29255877,-47.36747606,-225.015389,0.003096913,57.30813331,0.003096913,-164.9453217,0.150321892,49.66528047,14.54658074,211.2430217,0.003096913,-12.84730113,4.967157575,0.003096913,0.003096913,0.002876607,0.010333451,-0.009221002
306.0159998,1195,-35.4377416,-115.0226997,0.394422739,0.003088764,174.9823625,0.003088764,79.46112151,0.148382553,71.03849299,48.02821584,-462.2891593,0.003088764,29.68061484,4.85886223,0.003088764,0.003088764,0.001734226,0.006131156,-0.0086487
306.0239998,1195,14.15665583,-116.2784601,177.071378,0.003080568,452.7684537,0.003080568,72.4477339,0.14644698,-59.74022029,38.37782593,449.4175962,0.003080568,67.00629399,4.750863394,0.003080568,0.003080568,-0.00117849,0.000594585,-0.007278978
306.0319998,1195,53.55832095,-41.39802431,-340.1475572,0.003072326,-105.4857574,0.003072326,-161.1958353,0.144515207,103.9077683,7.539575496,-313.2638338,0.003072326,-37.18335027,4.643162628,0.003072326,0.003072326,-0.001060271,0.001433671,-0.00739909
306.0399998,1195,-21.27854779,-113.8324322,329.1133146,0.003064038,527.9387413,0.003064038,232.4027929,0.142587266,-11.83487873,61.48591135,39.37375024,0.003064038,102.536415,4.535761481,0.003064038,0.003064038,4.66E-05,0.002444854,-0.007993773
306.0479998,1195,60.98113683,-46.52351474,-196.1429186,0.003055704,96.6816047,0.003055704,-145.7581873,0.140663192,41.62637763,23.67893747,250.1711149,0.003055704,1.147080533,4.42866149,0.003055704,0.003055704,-0.0010546,0.001169036,-0.007518178
306.0559998,1195,-29.09456822,-107.3373685,-3.338269326,0.003047325,182.2493721,0.003047325,66.60969876,0.138743019,77.55151068,43.39946443,-447.9424167,0.003047325,31.03500472,4.321864178,0.003047325,0.003047325,-0.000335566,0.000207797,-0.007063387
306.0639998,1195,25.91956486,-104.8777588,191.7320636,0.003038902,463.6030518,0.003038902,75.34405523,0.136826778,-35.41429954,38.48890829,458.4431046,0.003038902,86.6319738,4.215371052,0.003038902,0.003038902,-0.00043323,-0.002719318,-0.00568067
306.0719998,1195,42.32407225,-42.13487443,-671.0301112,0.003030434,-456.81927,0.003030434,-318.5388858,0.134914503,215.3724567,6.054011347,-733.2367015,0.003030434,-77.80345057,4.109183608,0.003030434,0.003030434,-0.00066674,-0.002687397,-0.005805603
306.0799998,1195,-59.32347702,-124.0792778,-157.396396,0.003021922,-34.51823503,0.003021922,46.30250772,0.133006226,158.0062355,46.25952828,-955.0559493,0.003021922,14.42601265,4.00330333,0.003021922,0.003021922,-0.000197119,-0.001447422,-0.006463595
306.0879998,1195,34.1322853,-71.80761755,-276.287309,0.003013366,-45.03547758,0.003013366,-139.5275488,0.131101981,98.28782436,19.5300921,-179.9795754,0.003013366,-3.706524089,3.897731686,0.003013366,0.003013366,-0.000561377,-0.002652742,-0.005962364
306.0959998,1195,-29.45051502,-119.3101743,-87.9588948,0.003004768,92.67703055,0.003004768,28.02669545,0.129201798,89.842377,31.28795912,-458.8800179,0.003004768,22.63021252,3.792470133,0.003004768,0.003004768,-0.000283058,-0.001870529,-0.006421684
306.1039998,1195,-2.351442541,-130.9818768,339.3303327,0.002996126,608.6255307,0.002996126,176.9447333,0.12730571,-81.15313725,33.72982563,518.3104318,0.002996126,93.39388347,3.687520112,0.002996126,0.002996126,-0.000316301,-0.001969958,-0.006434559
306.1119998,1195,64.72399632,-39.30279208,-312.8118127,0.002987442,-51.32897999,0.002987442,-175.2908094,0.125413748,92.12843887,14.63357511,-89.91909176,0.002987442,-31.51048548,3.582883052,0.002987442,0.002987442,-0.000352976,-0.002228932,-0.006397145
306.1199998,1195,-28.40573132,-128.9010517,179.0813687,0.002978716,351.9404273,0.002978716,160.3691761,0.123525944,53.19141961,52.63061914,-253.7809074,0.002978716,76.67431407,3.478560371,0.002978716,0.002978716,0.004113876,-0.005148597,-0.006707979
306.1279998,1195,53.46483089,-92.42961432,90.74619632,0.002969948,368.1890423,0.002969948,-1.880640493,0.12164233,-15.6625185,14.1406351,508.1326218,0.002969948,76.37177465,3.374553471,0.002969948,0.002969948,0.010965346,-0.01111276,-0.006592852
306.1359998,1195,35.80499007,-63.27619182,-258.9542347,0.002961139,-67.33225931,0.002961139,-96.85352417,0.119762936,108.2721008,13.16764327,-404.3979782,0.002961139,6.015724093,3.270863741,0.002961139,0.002961139,0.010183054,-0.010077389,-0.006809835
306.1439998,1195,-21.4090761,-142.8094961,321.2746452,0.002952289,522.8467314,0.002952289,207.9827262,0.117887793,-37.81276424,44.27578617,199.1279486,0.002952289,114.1226785,3.167492559,0.002952289,0.002952289,0.008285637,-0.008601332,-0.006859733
306.1519998,1195,52.09699829,-81.44587009,-205.5712062,0.002943399,60.24439011,0.002943399,-136.1176086,0.116016932,45.42455372,3.466166989,161.1785386,0.002943399,4.502667352,3.064441286,0.002943399,0.002943399,0.010209508,-0.010159496,-0.006913096
306.1599998,1195,-10.81666132,-122.6423913,42.10330994,0.002934468,199.9477413,0.002934468,97.52019472,0.114150382,61.26503731,43.78384449,-371.3086848,0.002934468,60.54513931,2.961711274,0.002934468,0.002934468,0.009768056,-0.00630038,-0.004487503
306.1679998,1195,33.25566287,-116.4062993,165.2788811,0.002925498,403.1714626,0.002925498,64.52227156,0.112288175,-26.96903679,42.44118896,465.2861047,0.002925498,110.3868213,2.859303858,0.002925498,0.002925498,0.011267132,-0.002334121,-0.000328724
306.1759998,1196,21.19893781,-89.05956801,-311.6083407,0.002916488,-103.7888149,0.002916488,-144.7693006,0.11043034,94.79326963,4.757382742,-296.285104,0.002916488,-4.541580648,2.757220364,0.002916488,0.002916488,0.011499366,-0.003019606,-0.001005938
306.1839998,1196,-42.95691563,-158.047436,318.2029523,0.002907439,512.7149324,0.002907439,218.3410853,0.108576906,-45.78614662,32.21077203,65.95471204,0.002907439,103.1132812,2.655462101,0.002907439,0.002907439,0.010238449,-0.003442646,-0.002201227
306.1919998,1196,61.68160078,-73.79665429,-168.1034653,0.002898352,104.9316456,0.002898352,-137.4660896,0.106727904,33.85741763,7.589732182,260.8934913,0.002898352,19.72383459,2.554030367,0.002898352,0.002898352,0.011222118,-0.002732603,-0.001137729
306.1999998,1196,-34.63137177,-135.3302011,-8.781930408,0.002889226,161.8798022,0.002889226,55.308539,0.104883362,77.9534483,29.55602157,-422.9711431,0.002889226,43.74885272,2.452926446,0.002889226,0.002889226,0.007868884,-0.003047074,-0.001196266
306.2079998,1196,-3.837856533,-138.3837021,234.1614402,0.002880062,499.7980435,0.002880062,97.73670807,0.103043309,-63.09575957,11.34876204,457.2494544,0.002880062,90.63264679,2.35215161,0.002880062,0.002880062,0.003709515,-0.002964136,0.000209128
306.2159998,1196,48.30037549,-59.44046308,-312.8951657,0.002870861,-76.61456541,0.002870861,-168.8929054,0.101207775,77.0067756,-1.824784126,-233.9967353,0.002870861,-17.32912263,2.251707118,0.002870861,0.002870861,0.004386055,-0.002699405,0.000143695
306.2239998,1196,-31.16583335,-141.184973,329.7167681,0.002861622,522.1592796,0.002861622,215.5883589,0.099376788,-30.51961786,56.63268075,21.14367411,0.002861622,119.1406523,2.151594214,0.002861622,0.002861622,0.004987705,-0.002919837,-0.000839658
306.2319998,1196,61.90571887,-80.39359459,-122.6136897,0.002852347,167.7383745,0.002852347,-128.7928146,0.097550375,20.94216155,18.07896255,321.4336779,0.002852347,33.74158799,2.05181413,0.002852347,0.002852347,0.004118453,-0.002641573,-0.000192146
306.2399998,1196,-5.152318716,-118.4004677,-8.572359665,0.002843036,166.3421616,0.002843036,43.74112919,0.095728567,87.05283221,47.21765361,-425.4383911,0.002843036,47.63754304,1.952368087,0.002843036,0.002843036,0.001136161,-0.003551157,-7.83E-06
306.2479998,1196,29.27581993,-129.6817133,267.3918798,0.002833688,526.3916199,0.002833688,112.9324708,0.093911389,-43.46420115,44.87312514,468.2046957,0.002833688,119.2425692,1.853257289,0.002833688,0.002833688,-0.004535344,-0.004893874,0.001324355
306.2559998,1196,61.16112642,-89.05844821,-301.0970549,0.002824305,-47.59641817,0.002824305,-161.7447082,0.09209887,92.42275138,9.191324734,-198.7201027,0.002824305,2.188126464,1.754482932,0.002824305,0.002824305,-0.004081356,-0.00457528,0.001148141
306.2639998,1196,-16.21981371,-160.5136007,336.851561,0.002814887,536.9676196,0.002814887,223.3737682,0.090291037,-3.813324103,56.20340903,11.24677688,0.002814887,123.6501738,1.656046194,0.002814887,0.002814887,-0.002266651,-0.004247763,0.0002981
306.2719998,1196,91.22509721,-75.07543162,-111.7391653,0.002805433,173.9848617,0.002805433,-122.1316345,0.088487918,49.1624341,22.70165016,359.3639934,0.002805433,50.98260926,1.557948244,0.002805433,0.002805433,-0.004117871,-0.004484438,0.000798299
306.2799998,1196,11.47784752,-125.287893,-9.418615183,0.002795946,164.4677918,0.002795946,57.50941588,0.08668954,106.9195323,45.97580289,-418.7961358,0.002795946,66.11055987,1.460190235,0.002795946,0.002795946,0.001393721,-0.00678733,0.001035146
306.2879998,1196,45.49988037,-127.4703622,291.5152024,0.002786424,541.4220291,0.002786424,138.2559294,0.084895929,-35.04997927,43.93370202,477.5295289,0.002786424,136.078611,1.36277331,0.002786424,0.002786424,0.008197604,-0.010918865,0.002346201
306.2959998,1196,79.09749953,-62.02486836,-307.3442796,0.002776868,-76.73404599,0.002776868,-165.4751444,0.083107112,96.90608551,11.06995224,-185.2661792,0.002776868,21.31178263,1.265698598,0.002776868,0.002776868,0.006887811,-0.010373905,0.002112077
306.3039998,1196,-24.19727652,-160.0807571,333.3082674,0.002767279,510.2933392,0.002767279,232.9351414,0.081323116,-14.98191706,54.98462327,-19.43524266,0.002767279,145.6767715,1.168967214,0.002767279,0.002767279,0.005796999,-0.009037293,0.001304395
306.3119998,1196,73.50492498,-105.0466874,-95.62978338,0.002757656,182.7106913,0.002757656,-102.0048159,0.079543966,12.47907388,11.96205919,361.3114014,0.002757656,62.20441902,1.072580261,0.002757656,0.002757656,0.007091995,-0.010211557,0.001735595
306.3199998,1196,-1.919735574,-147.4755663,-19.11732772,0.002748001,149.5487775,0.002748001,53.23001213,0.077769688,77.32744932,31.5872558,-430.3830284,0.002748001,71.57447948,0.97653883,0.002748001,0.002748001,0.007045415,-0.004092032,0.001129062
306.3279998,1196,19.73139288,-152.1556331,305.8015174,0.002738314,554.4985495,0.002738314,143.8046599,0.076000309,-41.81313908,39.89483526,474.3531881,0.002738314,162.897014,0.880843998,0.002738314,0.002738314,0.008516981,0.004246753,0.001022921
306.3359998,1196,61.93660106,-90.73832347,-292.9581614,0.002728595,-44.78058418,0.002728595,-165.2893891,0.074235853,101.2347445,6.221022086,-161.8617142,0.002728595,39.42800001,0.78549683,0.002728595,0.002728595,0.008616355,0.002995332,0.000947049
306.3439998,1196,-11.56508905,-168.6757877,345.0868108,0.002718844,535.5946437,0.002718844,234.4975429,0.072476346,6.724017988,62.61772564,-14.21688988,0.002718844,151.2025915,0.690498379,0.002718844,0.002718844,0.00763762,0.001382276,0.000517615
306.3519998,1196,90.317508,-80.8417638,-82.40213138,0.002709062,212.7324159,0.002709062,-96.77214733,0.070721813,41.20838105,32.33075264,400.0289813,0.002709062,54.1163731,0.595849682,0.002709062,0.002709062,0.008416322,0.003353999,0.000536205
306.3599998,1196,7.015468682,-115.9911137,-31.74689513,0.00269925,169.8438333,0.00269925,45.12972093,0.068972279,88.34914582,40.75870464,-421.000256,0.00269925,4.912901077,0.501551768,0.00269925,0.00269925,0.005241032,0.002995918,-0.00237976
306.3679998,1196,42.34413986,-133.7923068,317.5127098,0.002689406,592.6314722,0.002689406,147.9006304,0.067227768,-38.38194804,59.49283766,474.9010625,0.002689406,68.56698165,0.40760565,0.002689406,0.002689406,0.001060398,0.004609502,-0.006703529
306.3759998,1196,88.94586791,-69.35108559,-297.6307445,0.002679533,-30.36471602,0.002679533,-169.9969374,0.065488304,120.9014814,36.68658579,-134.6701361,0.002679533,-52.15984388,0.314012329,0.002679533,0.002679533,0.001736462,0.004904659,-0.0063207
306.3839998,1196,-6.86280635,-155.9202008,329.3182624,0.00266963,544.1855184,0.00266963,234.4382267,0.063753913,17.89334795,82.43797269,-23.88995035,0.00266963,49.9559642,0.220772793,0.00266963,0.00266963,0.002435588,0.003759878,-0.005447766
306.3919998,1196,96.05741047,-78.10969905,-81.62221113,0.002659698,238.3782061,0.002659698,-87.11645788,0.062024617,41.08658411,48.86475247,412.4956958,0.002659698,-23.60498688,0.12788802,0.002659698,0.002659698,0.001520792,0.004809693,-0.006704691
306.3999998,1196,2.525895167,-127.4019712,-57.57270314,0.002649736,162.1784365,0.002649736,45.9635605,0.060300441,106.0882512,52.73327451,-427.0147113,0.002649736,-31.11963429,0.035358973,0.002649736,0.002649736,-0.000520932,0.002422379,-0.007843575
306.4079998,1196,19.61587861,-159.3033134,307.7072727,0.002639746,606.6433026,0.002639746,163.0862732,0.058581408,-31.02969787,58.46789373,449.6909526,0.002639746,59.17182998,-0.056813398,0.002639746,0.002639746,-0.004797471,-0.000269192,-0.010859596
306.4159998,1196,82.52602537,-80.02896924,-312.2693436,0.002629728,-20.99611892,0.002629728,-169.582445,0.056867541,113.5094432,32.87091766,-137.4096088,0.002629728,-30.02760888,-0.148628155,0.002629728,0.002629728,-0.004500115,0.000318515,-0.010888098
306.4239998,1196,-20.88806334,-175.1507498,313.3920292,0.002619682,535.6832159,0.002619682,228.592298,0.055158864,2.71361733,72.64978962,-52.30162867,0.002619682,99.83746286,-0.240084371,0.002619682,0.002619682,-0.003018167,0.000628245,-0.00979423
306.4319998,1197,77.92018244,-108.4203534,-77.05203701,0.002609608,247.4015178,0.002609608,-90.94302861,0.053455399,21.69764453,30.74894328,404.9566377,0.002609608,33.66679516,-0.331181133,0.002609608,0.002609608,-0.004484451,0.000223737,-0.011056028
306.4399998,1197,-3.796754042,-139.5091097,-68.12767232,0.002599507,157.1525482,0.002599507,32.79394741,0.051757169,95.67664781,41.35266065,-441.9855302,0.002599507,19.85668075,-0.42191754,0.002599507,0.002599507,-0.001780407,-0.002083754,-0.011241552
306.4479998,1197,12.46974656,-160.769538,315.0447377,0.002589379,612.4745009,0.002589379,160.9944961,0.050064196,-58.34075632,44.509789,436.8481237,0.002589379,98.92505194,-0.512292703,0.002589379,0.002589379,0.000891055,-0.006257461,-0.01283115
306.4559998,1197,75.76133996,-84.48952574,-321.787394,0.002579224,-38.65423696,0.002579224,-187.0681761,0.048376502,105.1396833,21.9878661,-134.7184893,0.002579224,1.615459693,-0.602305747,0.002579224,0.002579224,0.000224691,-0.005828758,-0.012978795
306.4639998,1197,-43.79940843,-187.822861,298.5919862,0.002569044,516.5034248,0.002569044,222.1689827,0.046694111,14.72755319,67.03453372,-81.06680476,0.002569044,119.1620482,-0.691955808,0.002569044,0.002569044,0.000119583,-0.004487378,-0.012194187
306.4719998,1197,62.6624283,-111.9973762,-68.47676382,0.002558838,265.7032109,0.002558838,-85.21120227,0.045017042,9.212607322,9.302046157,412.1596311,0.002558838,37.11956168,-0.781242035,0.002558838,0.002558838,0.000408039,-0.005760588,-0.013044219
306.4799998,1197,7.147534615,-133.3460984,-86.27102977,0.002548606,138.3342457,0.002548606,12.4990522,0.043345318,106.0124056,27.05193012,-448.6220671,0.002548606,34.63355247,-0.870163588,0.002548606,0.002548606,0.00454523,-0.002265593,-0.009979522
306.4879998,1197,17.62858366,-168.3431862,307.9954966,0.002538349,597.8043334,0.002538349,155.2692943,0.041678961,-47.72891171,43.34117143,416.9758729,0.002538349,121.2250381,-0.958719641,0.002538349,0.002538349,0.01152646,0.001856629,-0.00595073
306.4959998,1197,72.19060482,-102.189345,-332.6660091,0.002528068,-28.61973228,0.002528068,-185.0274961,0.04001799,78.23573987,2.053648674,-133.5113841,0.002528068,-9.450864537,-1.046909379,0.002528068,0.002528068,0.010719536,0.00106751,-0.006683185
306.5039998,1197,-37.0618168,-197.0177225,287.1061912,0.002517762,529.87908,0.002517762,225.5268339,0.038362429,-6.991671536,42.13556839,-111.5571691,0.002517762,98.29328777,-1.134732001,0.002517762,0.002517762,0.008717628,0.000560055,-0.007542004
306.5119998,1197,80.46031891,-112.4765936,-57.49402584,0.002507432,286.4606596,0.002507432,-80.09457106,0.036712295,1.784932223,8.716228978,412.5824373,0.002507432,28.8082267,-1.222186716,0.002507432,0.002507432,0.010722847,0.001315577,-0.006703191
306.5199998,1197,9.640274288,-137.2984909,-97.42550871,0.002497079,139.0207059,0.002497079,2.391083619,0.035067612,107.8620666,34.37432931,-457.3158762,0.002497079,21.74991431,-1.309272748,0.002497079,0.002497079,0.00932548,0.003451371,-0.007359809
306.5279998,1197,5.976273446,-166.2299365,309.1483445,0.002486702,609.9314993,0.002486702,146.6805744,0.033428398,-49.03679216,37.44573886,393.7476895,0.002486702,104.0882547,-1.395989329,0.002486702,0.002486702,0.009442353,0.0077211,-0.007366916
306.5359998,1197,76.95866985,-81.99703005,-342.6845477,0.002476302,-39.90439812,0.002476302,-218.3821471,0.031794673,75.83210613,-1.927716745,-134.823942,0.002476302,-32.23265637,-1.482335708,0.002476302,0.002476302,0.009847222,0.00738126,-0.007210439
306.5439998,1197,-30.37718742,-187.942774,260.8938935,0.00246588,483.862733,0.00246588,187.983594,0.030166458,2.57991832,47.58440558,-145.9204235,0.00246588,97.9685311,-1.568311143,0.00246588,0.00246588,0.008908305,0.005971872,-0.007676505
306.5519998,1197,66.24695271,-126.82997,-74.91279039,0.002455436,246.6949647,0.002455436,-99.17897288,0.028543773,-2.819012153,0.462665452,396.372937,0.002455436,42.03553807,-1.653914904,0.002455436,0.002455436,0.009532158,0.007378151,-0.007442003
306.5599998,1197,-9.348009685,-152.4345288,-127.4341226,0.002444969,91.75511521,0.002444969,-8.546489046,0.026926636,82.41565792,13.6555114,-479.8524383,0.002444969,0.455851225,-1.739146275,0.002444969,0.002444969,0.00897985,0.003857388,-0.009431668
306.5679998,1197,-14.03634133,-199.4726708,323.169818,0.002434481,612.5256674,0.002434481,180.0899638,0.025315066,-67.69745615,22.08174028,377.8086515,0.002434481,83.89066853,-1.824004551,0.002434481,0.002434481,0.008966101,-0.000215492,-0.012274421
306.5759998,1197,66.13442967,-110.5940122,-324.0976758,0.002423972,-20.87777052,0.002423972,-185.3765831,0.023709084,75.69328669,-20.46274101,-112.3044987,0.002423972,-35.81290415,-1.908489038,0.002423972,0.002423972,0.009006093,0.000627112,-0.011913862
306.5839998,1197,-20.17046173,-167.7573762,264.7360885,0.002413442,479.9335669,0.002413442,204.3478485,0.022108707,17.9486481,34.87692513,-152.9859935,0.002413442,91.77060634,-1.992599056,0.002413442,0.002413442,0.008624825,0.001131438,-0.011372807
306.5919998,1197,68.71513539,-110.2788482,-47.79962738,0.002402892,275.9747454,0.002402892,-73.95735194,0.020513954,9.024258144,-1.702732171,417.2570759,0.002402892,36.22685793,-2.076333936,0.002402892,0.002402892,0.008774315,0.000445031,-0.012097131
306.5999998,1197,-1.109120947,-143.7254605,-131.5232316,0.002392321,98.93790808,0.002392321,-16.09825312,0.018924844,89.0450244,8.175887622,-464.6218721,0.002392321,-9.471011148,-2.159693021,0.002392321,0.002392321,0.010207375,0.000895969,-0.011709721
306.6079998,1197,22.71423631,-155.5023065,311.6403642,0.002381731,570.8926861,0.002381731,157.2118737,0.017341394,-49.63290306,35.03146432,364.5204238,0.002381731,99.75502752,-2.242675665,0.002381731,0.002381731,0.012946434,0.000841677,-0.011812905
306.6159998,1197,82.33568581,-86.06683662,-339.6060331,0.00237112,-76.67563069,0.00237112,-200.4268427,0.015763623,72.3552951,-0.361374928,-109.6359449,0.00237112,-12.7017242,-2.325281235,0.00237112,0.00237112,0.012495774,0.000670571,-0.012019322
306.6239998,1197,-29.29420052,-176.3777844,243.1389004,0.002360491,431.6011594,0.002360491,189.8018555,0.014191548,-9.469711786,38.849241,-175.7667663,0.002360491,82.88836459,-2.40750911,0.002360491,0.002360491,0.011558898,0.000967562,-0.011775267
306.6319998,1197,77.61694848,-99.77834631,-53.10424767,0.002349844,229.1672299,0.002349844,-91.94887835,0.012625186,1.379775706,9.766458868,417.1428206,0.002349844,37.25765325,-2.48935868,0.002349844,0.002349844,0.012292007,0.000744128,-0.012044548
306.6399998,1197,-5.751293755,-147.355362,-145.3757056,0.002339177,55.55402839,0.002339177,-30.78994272,0.011064556,81.54355129,10.74182926,-466.3156307,0.002339177,-4.59877828,-2.570829347,0.002339177,0.002339177,0.011576012,0.004325847,-0.01365246
306.6479998,1197,1.737975591,-174.9808745,323.0718127,0.002328493,584.0638377,0.002328493,160.2605011,0.009509674,-64.28435396,19.53531904,361.4617223,0.002328493,76.64829588,-2.651920525,0.002328493,0.002328493,0.011546633,0.009895951,-0.016487222
306.6559998,1197,78.51378759,-82.93160179,-332.6076618,0.002317791,-62.80791327,0.002317791,-209.1625611,0.007960557,88.75264833,-4.696033641,-81.37617676,0.002317791,-34.87545374,-2.73263164,0.002317791,0.002317791,0.011580206,0.009111835,-0.016205744
306.6639998,1197,-47.74818988,-191.6696167,238.0825317,0.002307071,432.2017012,0.002307071,181.5886907,0.006417222,2.325825513,33.01260186,-176.2344441,0.002307071,70.46413507,-2.812962128,0.002307071,0.002307071,0.011098054,0.007718886,-0.01538187
306.6719998,1197,59.03617788,-117.1638916,-42.34656627,0.002296334,252.2715546,0.002296334,-91.89586368,0.004879685,-18.4335637,-4.851168523,435.1939175,0.002296334,20.6389797,-2.89291144,0.002296334,0.002296334,0.011246358,0.009161477,-0.016253859
306.6799998,1197,-5.812889908,-133.672669,-151.5319832,0.002285581,55.05156642,0.002285581,-33.73441279,0.003347962,72.8325748,5.98945554,-460.4179364,0.002285581,-22.70225921,-2.972479035,0.002285581,0.002285581,0.010046273,0.007279957,-0.015672443
306.6879998,1198,-8.008785113,-171.049759,335.2707979,0.002274811,589.2936899,0.002274811,174.1844949,0.00182207,-56.27094023,20.48174029,352.2907712,0.002274811,74.2430663,-3.051664386,0.002274811,0.002274811,0.008552762,0.005981237,-0.015763166
306.6959998,1198,119.2478608,-31.1277269,-714.1015105,0.002264025,-439.8548753,0.002264025,-432.5622573,0.000302024,184.4553584,-31.209199,-303.3423768,0.002264025,-97.3017742,-3.130466977,0.002264025,0.002264025,0.008637483,0.006444856,-0.015934111
306.7039998,1198,8.919274664,-102.6109562,-445.3909334,0.002253223,-275.7192347,0.002253223,-167.2118026,-0.00121216,187.6899112,-2.293570142,-913.7238733,0.002253223,-60.34104812,-3.208886303,0.002253223,0.002253223,0.00875903,0.006148751,-0.015571434
306.7119998,1198,60.63786597,-94.14678301,-232.1156568,0.002242406,19.12922149,0.002242406,-155.701996,-0.002720466,72.77873663,-8.797821093,3.90662493,0.002242406,-18.7101808,-3.28692187,0.002242406,0.002242406,0.008334931,0.006211072,-0.015847619
306.7199998,1198,25.5743,-102.7506356,-224.6250391,0.002231574,-33.08281919,0.002231574,-91.90322,-0.00422288,100.4194049,6.245373574,-427.338492,0.002231574,-11.91128544,-3.364573198,0.002231574,0.002231574,0.008386216,0.006088198,-0.015631027
306.7279998,1198,-11.97335706,-163.5607987,411.2828231,0.002220727,616.144026,0.002220727,223.9463379,-0.005719386,-78.57149151,39.08297658,312.1682899,0.002220727,108.9562905,-3.441839816,0.002220727,0.002220727,0.008244591,0.006047944,-0.015648226
306.7359998,1198,83.02553926,-76.8265471,-269.4257271,0.002209866,-35.69286461,0.002209866,-204.1737528,-0.007209969,54.49298139,-3.061204467,133.2428292,0.002209866,-16.93291562,-3.518721265,0.002209866,0.002209866,0.008034042,0.006006968,-0.01567471
306.7439998,1198,-21.71102928,-142.1793776,24.10401025,0.00219899,153.3483834,0.00219899,70.58271035,-0.008694616,49.08075728,18.11597472,-395.7912226,0.00219899,18.80747781,-3.595217097,0.00219899,0.00219899,0.008899143,0.00590686,-0.016394703
306.7519998,1198,12.16484648,-142.9824277,261.537696,0.002188101,479.8114276,0.002188101,112.9297977,-0.010173311,-64.18274757,13.86648256,481.6481652,0.002188101,64.56646429,-3.671326878,0.002188101,0.002188101,0.010063182,0.005898245,-0.017860916
306.7599998,1198,37.60326818,-98.01790021,-317.4277542,0.002177198,-127.2108029,0.002177198,-171.2867919,-0.01164604,98.31136029,-10.62275519,-251.1562292,0.002177198,-40.99718421,-3.747050181,0.002177198,0.002177198,0.009819679,0.005797118,-0.017573101
306.7679998,1198,-50.00329799,-179.7065145,304.1366536,0.002166282,459.6475921,0.002166282,203.1849626,-0.01311279,-44.54421017,14.490063,-11.98500229,0.002166282,62.20458131,-3.822386594,0.002166282,0.002166282,0.009316654,0.005768121,-0.01719164
306.7759998,1198,52.19421175,-99.60140376,-79.58650698,0.002155354,159.5779284,0.002155354,-108.3551827,-0.014573546,-9.491006564,-22.49367318,341.9269495,0.002155354,-12.10054808,-3.897335715,0.002155354,0.002155354,0.009549263,0.005699017,-0.017545981
306.7839998,1198,4.965843112,-115.637672,-96.71282371,0.002144412,35.51527403,0.002144412,-20.6588161,-0.016028295,94.83865179,10.52257162,-414.8206596,0.002144412,7.54751668,-3.971897152,0.002144412,0.002144412,0.008342881,0.006500261,-0.01549067
306.7919998,1198,-9.609933067,-162.117604,320.9310664,0.002133459,516.6811349,0.002133459,153.1897234,-0.017477024,-55.98020322,26.50525691,379.3379709,0.002133459,92.99935716,-4.046070525,0.002133459,0.002133459,0.006819448,0.007843783,-0.012731131
306.7999998,1198,50.70085246,-101.4454232,-306.8911922,0.002122494,-93.1338925,0.002122494,-202.3967462,-0.018919718,60.88100008,-18.83564464,-96.03864918,0.002122494,-53.64068787,-4.119855467,0.002122494,0.002122494,0.006980667,0.007594921,-0.013104597
306.8079998,1198,-31.2622421,-173.5973779,236.5544743,0.002111518,364.6897744,0.002111518,157.7385428,-0.020356367,8.773815937,36.94738313,-152.1547753,0.002111518,70.10155686,-4.193251619,0.002111518,0.002111518,0.007056804,0.007169336,-0.013659247
306.8159998,1198,48.39887833,-114.3215665,-20.12605577,0.00210053,197.8440904,0.00210053,-84.24023114,-0.021786955,-5.45355293,16.47194781,423.7294903,0.00210053,37.17301956,-4.266258636,0.00210053,0.00210053,0.006671522,0.007489551,-0.012976957
306.8239998,1198,6.554734643,-121.5899446,-167.5022736,0.002089531,-53.58114017,0.002089531,-56.62305508,-0.023211472,77.89494677,10.6890381,-424.0221797,0.002089531,-2.149303714,-4.338876182,0.002089531,0.002089531,0.004157036,0.006301258,-0.010794335
306.8319998,1198,-12.59052777,-174.3701797,318.3466547,0.002078522,453.4076405,0.002078522,167.5549969,-0.024629905,-54.19900685,22.24334495,314.7699211,0.002078522,107.2686164,-4.411103932,0.002078522,0.002078522,-0.000170529,0.004881246,-0.006541592
306.8399998,1198,49.00393604,-108.1618307,-313.1202203,0.002067503,-155.5232597,0.002067503,-201.8956246,-0.02604224,57.67406493,-22.82479189,-46.77585425,0.002067503,-31.57747037,-4.482941574,0.002067503,0.002067503,0.000205798,0.00507516,-0.006905395
306.8479998,1198,-38.61167808,-181.6004778,215.3572959,0.002056474,287.2169971,0.002056474,172.1915131,-0.027448467,-7.814592495,19.31932289,-216.5161369,0.002056474,65.39678781,-4.554388804,0.002056474,0.002056474,0.001329216,0.005222321,-0.00829091
306.8559998,1198,48.66168833,-128.78375,6.518506469,0.002045435,172.658044,0.002045435,-59.20576395,-0.028848574,-23.8377407,-4.028678231,453.5899149,0.002045435,41.78298465,-4.625445333,0.002045435,0.002045435,-1.15E-05,0.004900725,-0.006907818
306.8639998,1198,-10.58206501,-146.9008108,-184.5057613,0.002034387,-112.5798869,0.002034387,-68.00770555,-0.030242549,82.27142188,0.00770844,-429.9346334,0.002034387,-6.960593888,-4.696110879,0.002034387,0.002034387,0.002472559,0.003293727,-0.007847301
306.8719998,1198,-29.61225041,-192.636683,344.6727856,0.00202333,454.8211527,0.00202333,181.686082,-0.03163038,-68.43709146,8.834069335,307.0384535,0.00202333,96.96128046,-4.766385172,0.00202333,0.00202333,0.005064831,0.000429314,-0.007739963
306.8799998,1198,52.74424101,-100.0344079,-302.9102621,0.002012264,-159.6269071,0.002012264,-203.8181613,-0.033012057,58.9736416,-33.1832922,-8.251554771,0.002012264,-27.7165714,-4.836267954,0.002012264,0.002012264,0.004361826,0.000672652,-0.007459729
306.8879998,1198,-58.71103894,-175.1698177,212.821421,0.00200119,267.9832107,0.00200119,169.3866769,-0.034387568,-1.495661496,26.209375,-235.2803871,0.00200119,81.1427667,-4.905758976,0.00200119,0.00200119,0.004072383,0.001480896,-0.008073273
306.8959998,1198,41.2619489,-114.6102642,34.64018833,0.001990108,194.3620489,0.001990108,-51.19549229,-0.035756903,-45.38911944,-9.421419853,480.6779897,0.001990108,54.70771689,-4.974858002,0.001990108,0.001990108,0.004349406,0.000578032,-0.007630693
306.9039998,1198,4.11785673,-115.6823615,-198.7814003,0.001979018,-138.0916035,0.001979018,-89.30478223,-0.037120051,94.03708479,-7.888324035,-428.7849908,0.001979018,7.837605254,-5.043564804,0.001979018,0.001979018,0.004042736,0.001983174,-0.007993519
306.9119998,1198,-43.93213645,-184.2349074,345.9413824,0.001967921,438.8884922,0.001967921,174.0911049,-0.038477001,-76.28479941,12.18476502,284.1785731,0.001967921,117.2090473,-5.111879168,0.001967921,0.001967921,0.003993503,0.003268937,-0.00797434
306.9199998,1198,34.20585403,-109.9842004,-307.5687686,0.001956817,-173.2709586,0.001956817,-218.0033854,-0.039827744,17.75526041,-45.94034121,-1.164369705,0.001956817,-24.8690268,-5.179800887,0.001956817,0.001956817,0.00401388,0.002870929,-0.007935792
306.9279998,1198,-71.61301259,-186.1407479,181.7841323,0.001945706,221.8034346,0.001945706,151.5647724,-0.041172269,-5.926121118,11.22501729,-276.8701454,0.001945706,75.9939966,-5.247329767,0.001945706,0.001945706,0.003786939,0.00283816,-0.008168357
306.9359998,1198,5.511036372,-138.8634823,24.77449329,0.001934589,174.2958951,0.001934589,-42.68056831,-0.042510566,-63.51008031,-19.82574423,460.1541405,0.001934589,43.95996329,-5.314465624,0.001934589,0.001934589,0.00382663,0.002904532,-0.008048226
306.9439998,1199,-34.46833669,-142.3388848,-223.4219502,0.001923465,-169.0103695,0.001923465,-90.68304138,-0.043842627,63.30471072,-26.32943491,-442.0698692,0.001923465,-13.75101955,-5.381208285,0.001923465,0.001923465,0.002829342,0.001958429,-0.009081022
