Time:125Hz,Epoch,FP1,FP2,C3,C4,P7,P8,O1,O2,F7,F8,F3,F4,T7,T8,P3,P4,,,,
628.2559996,2454,-19.67531997,-49.99566628,140.4607889,0,15.14414814,-0.007523941,115.7967414,-6.565548007,-27.37664632,40.00209123,-40.62260056,0,50.1672431,-5.100059317,0,0,,,,
628.2639996,2454,11.31370843,-67.01452507,-112.1786223,0,-174.5686322,-0.007482265,-167.3058554,-6.562738088,-7.253732706,31.33112537,168.0956187,0,39.1946775,-5.101674806,0,0,,,,
628.2719996,2454,-19.99700542,-65.05602727,-27.12807781,0,-175.1335726,-0.007440561,4.434389454,-6.55977325,-5.375350399,-89.8095838,-280.7742308,0,-11.43458723,-5.10315528,0,0,,,,
628.2799996,2454,1.980218799,-71.06794038,89.18389299,0,11.24574256,-0.007398828,23.5939151,-6.556654164,-39.79029651,105.8527315,226.3237176,0,93.0740226,-5.104501223,0,0,,,,
628.2879996,2454,7.932025046,-62.83415813,-196.2713354,0,-330.2501877,-0.007357069,-203.4932032,-6.553381502,9.24642136,-92.82086106,-151.3075314,0,-9.17086291,-5.105713117,0,0,,,,
628.2959996,2454,-17.58513592,-68.35191762,138.9662713,0,-14.9452383,-0.007315284,132.8187487,-6.549955937,-23.69124397,40.01162246,-39.21755386,0,85.42264618,-5.106791447,0,0,,,,
628.3039996,2454,15.45075267,-73.43407252,-123.5867238,0,-242.3640621,-0.007273475,-175.5953896,-6.546378144,-9.429315956,32.00314433,161.9302924,0,63.21872523,-5.107736701,0,0,,,,
628.3119996,2454,-19.73464663,-64.31669855,-45.46626417,0,-264.1867653,-0.007231643,-26.62709962,-6.542648799,-0.929736397,-98.88946069,-309.953866,0,4.572681224,-5.108549367,0,0,,,,
628.3199996,2454,-6.828997408,-80.12483228,93.79240965,0,-42.98852317,-0.007189789,18.13738402,-6.538768579,-46.20163278,101.7724782,210.4109628,0,118.6846987,-5.109229933,0,0,,,,
628.3279996,2454,4.463702257,-71.25311455,-190.8106329,0,-370.4908361,-0.007147914,-202.4862273,-6.534738162,-8.336395886,-91.98149445,-147.626146,0,14.58112192,-5.109778892,0,0,,,,
628.3359996,2454,-12.29573045,-62.53727462,139.9749683,0,-63.09749719,-0.007106019,123.7324716,-6.530558228,-24.71803518,38.01921593,-56.87613896,0,100.559328,-5.110196735,0,0,,,,
628.3439996,2454,16.62460643,-73.18400446,-111.2192806,0,-263.7771574,-0.007064106,-180.4644053,-6.526229456,-9.141319152,33.72567973,166.8071545,0,79.41370778,-5.110483956,0,0,,,,
628.3519996,2454,-10.5621185,-71.80512291,-33.7379482,0,-273.1517503,-0.007022175,-20.6046572,-6.521752531,-3.667250179,-98.8874933,-298.2165221,0,20.89843832,-5.110641052,0,0,,,,
628.3599996,2454,8.51580668,-82.38941507,102.5114138,0,-65.40901824,-0.006980228,27.87472781,-6.517128133,-35.64615638,107.7397936,216.2743766,0,139.7937361,-5.110668517,0,0,,,,
628.3679996,2454,5.13552134,-80.07591423,-195.9982867,0,-408.4626211,-0.006938265,-212.0533066,-6.512356947,0.667943402,-94.25913195,-137.2304859,0,31.87953136,-5.110566851,0,0,,,,
628.3759996,2454,-20.76112364,-80.92670024,144.930749,0,-85.3244805,-0.006896289,124.8688107,-6.507439658,-30.012683,20.24778622,-60.58337018,0,112.7574438,-5.110336552,0,0,,,,
628.3839996,2454,9.594274827,-87.72730114,-93.53726918,0,-264.3718977,-0.006854299,-163.613267,-6.502376952,-16.81930913,24.44298873,185.5140435,0,95.63185274,-5.109978122,0,0,,,,
628.3919996,2454,-13.68518802,-67.52411534,-24.33760036,0,-282.7737133,-0.006812298,-14.83265674,-6.497169516,-1.976867611,-105.3986255,-275.4021073,0,36.90776706,-5.109492061,0,0,,,,
628.3999996,2454,10.75839085,-68.87185592,122.98443,0,-75.77315306,-0.006770286,42.96708304,-6.491818038,-18.79616025,105.6989371,234.7428391,0,164.7458016,-5.108878874,0,0,,,,
628.4079996,2454,1.270723791,-81.83365662,-184.7044039,0,-417.9306059,-0.006728264,-199.4111411,-6.486323208,17.51813522,-95.4230346,-117.3658293,0,48.6873933,-5.108139064,0,0,,,,
628.4159996,2454,-33.87205601,-90.98124368,147.6014657,0,-81.83422838,-0.006686233,131.0727475,-6.480685714,-31.96114487,20.56285252,-60.00416688,0,114.8482096,-5.107273139,0,0,,,,
628.4239996,2454,9.606513811,-89.64918261,-94.48607488,0,-264.2728427,-0.006644196,-171.0302185,-6.47490625,-15.93754412,35.62145909,192.714867,0,108.1348172,-5.106281604,0,0,,,,
628.4319996,2454,-16.43589695,-78.3183265,-40.2572921,0,-293.6766761,-0.006602151,-31.67490555,-6.468985505,-2.586083957,-109.9409227,-289.4661413,0,44.39859499,-5.105164967,0,0,,,,
628.4399996,2454,-6.936857055,-87.63171665,114.5964041,0,-58.33065912,-0.006560102,41.62960519,-6.462924174,-40.37773337,103.5311522,215.7621581,0,158.768496,-5.103923739,0,0,,,,
628.4479996,2454,8.2838952,-74.57405305,-203.8689745,0,-421.5094866,-0.006518048,-222.4095638,-6.456722949,6.424354799,-88.17348546,-120.7560492,0,44.09870898,-5.102558429,0,0,,,,
628.4559996,2454,-12.2969038,-65.76648304,132.7927938,0,-116.5503759,-0.006475991,114.2512056,-6.450382525,-17.47205727,22.73012004,-76.7096745,0,123.4365742,-5.101069549,0,0,,,,
628.4639996,2454,9.233413481,-72.62599955,-88.9760523,0,-294.5407528,-0.006433932,-161.8767375,-6.443903599,-0.820685244,54.06473066,196.3095455,0,124.7865227,-5.099457613,0,0,,,,
628.4719996,2454,-21.4188912,-67.44651242,-39.57631333,0,-321.1195398,-0.006391872,-25.01894016,-6.437286864,-0.507943578,-97.93023256,-288.7266426,0,50.68399351,-5.097723133,0,0,,,,
628.4799996,2455,-1.439775972,-72.5659995,129.4849886,0,-56.72150799,-0.006349812,64.13914757,-6.43053302,-38.45387869,109.513577,219.1570963,0,170.8415847,-5.095866626,0,0,,,,
628.4879996,2455,3.349952561,-63.73365684,-190.1725461,0,-413.4057038,-0.006307753,-211.8604456,-6.423642763,10.64441757,-81.58599597,-98.5335752,0,67.70362197,-5.093888608,0,0,,,,
628.4959996,2455,-19.33751839,-69.23100662,141.7728432,0,-104.2028314,-0.006265696,117.1617546,-6.416616793,-20.52205631,14.82302733,-70.35089994,0,144.9583853,-5.091789595,0,0,,,,
628.5039996,2455,27.08005085,-65.51785911,-74.97454103,0,-270.2749224,-0.006223642,-147.688933,-6.409455807,2.145796293,56.25446747,216.3242827,0,139.4488719,-5.089570106,0,0,,,,
628.5119996,2455,-2.293696363,-46.74046392,-43.75465531,0,-332.1264975,-0.006181593,-27.38170471,-6.402160507,11.54634268,-91.68958243,-278.8030732,0,42.03532355,-5.08723066,0,0,,,,
628.5199996,2455,-0.840827087,-70.60846198,134.7176533,0,-62.40167045,-0.006139549,63.18900133,-6.394731593,-40.02723854,114.4819896,214.9353395,0,137.6343904,-5.084771778,0,0,,,,
628.5279996,2455,13.3113298,-58.53380443,-179.1778141,0,-403.6647877,-0.006097511,-210.537071,-6.387169766,9.133743243,-67.24679088,-89.66305951,0,0.297800139,-5.082193982,0,0,,,,
628.5359996,2455,-0.270925754,-41.02700748,149.1796789,0,-105.9820858,-0.006055481,112.8746281,-6.379475728,-11.78151083,39.2062687,-69.74576877,0,37.50563264,-5.079497793,0,0,,,,
628.5439996,2455,27.87481663,-52.26020332,-59.0109892,0,-246.0175013,-0.006013459,-161.3377805,-6.371650182,-7.881988501,88.42280493,233.0149982,0,20.20284142,-5.076683734,0,0,,,,
628.5519996,2455,-0.241527989,-31.85741655,-39.25243921,0,-310.8277959,-0.005971447,-57.60603782,-6.363693831,2.228319355,-71.72760757,-266.8465177,0,-88.34703365,-5.073752331,0,0,,,,
628.5599996,2455,17.84415872,-37.8308923,139.6284724,0,-74.92369285,-0.005929445,38.74442915,-6.355607379,-29.3449167,135.1181709,213.7324984,0,7.766440563,-5.070704108,0,0,,,,
628.5679996,2455,24.95291323,-48.82122471,-182.6581157,0,-449.8384056,-0.005887455,-236.8460156,-6.34739153,17.02577472,-39.03530851,-89.69526965,0,-95.46483765,-5.067539592,0,0,,,,
628.5759996,2455,3.197307136,-45.8524684,143.1496162,0,-173.3043582,-0.005845477,92.28319383,-6.339046989,-10.76928015,51.12393692,-94.56824881,0,-34.19870736,-5.06425931,0,0,,,,
628.5839996,2455,28.71721968,-62.58183384,-53.46181696,0,-304.6749279,-0.005803513,-169.478746,-6.330574461,-13.49216114,81.43094587,215.8943265,0,-31.87327629,-5.060863789,0,0,,,,
628.5919996,2455,-3.042339737,-58.76617271,-42.43962717,0,-361.2516836,-0.005761563,-62.32432391,-6.321974654,-9.331698732,-83.33996323,-281.3441364,0,-114.6330527,-5.057353559,0,0,,,,
628.5999996,2455,17.07036743,-63.35122453,148.1364991,0,-108.780255,-0.005719628,51.18928307,-6.313248272,-35.57419929,136.2536529,202.5036134,0,-0.447751846,-5.053729149,0,0,,,,
628.6079996,2455,13.14924219,-81.35078079,-179.314688,0,-478.617205,-0.005677711,-234.7500195,-6.304396023,7.299619512,-53.67899047,-87.96986389,0,-90.70080032,-5.049991089,0,0,,,,
628.6159996,2455,-16.21832321,-83.21855568,138.0833959,0,-184.8459217,-0.00563581,91.37071001,-6.295418615,-41.83308692,17.74303234,-112.552292,0,-23.16271801,-5.046139912,0,0,,,,
628.6239996,2455,23.83979517,-77.34834071,-49.07736078,0,-305.3237772,-0.005593929,-160.9772089,-6.286316754,-29.15915433,77.5548347,214.4240634,0,-1.785626422,-5.042176149,0,0,,,,
628.6319996,2455,-6.697293334,-63.00220596,-50.72092269,0,-400.0402041,-0.005552066,-75.80713473,-6.277091151,5.658863164,-87.05303407,-284.5373537,0,-64.67149307,-5.038100333,0,0,,,,
628.6399996,2455,3.14835477,-62.99777798,147.8488976,0,-147.5339768,-0.005510225,33.97524242,-6.267742512,-36.84951893,119.8593318,183.8081337,0,53.07691519,-5.033912998,0,0,,,,
628.6479996,2455,-2.055045847,-76.36788074,-174.6136862,0,-499.06252,-0.005468404,-243.8513653,-6.258271547,-1.433797457,-58.35064773,-88.62422451,0,-38.78216931,-5.029614678,0,0,,,,
628.6559996,2455,-20.49476445,-78.14405766,134.1169281,0,-217.0601952,-0.005426607,83.00280494,-6.248678966,-33.16041468,5.831657352,-116.8644141,0,18.47511548,-5.025205909,0,0,,,,
628.6639996,2455,32.23787087,-63.02482441,-56.54031598,0,-368.2320313,-0.005384832,-186.4646294,-6.238965478,-17.78629751,69.58591248,212.2015998,0,30.81263962,-5.020687227,0,0,,,,
628.6719996,2455,-16.46475995,-66.56971547,-61.60651829,0,-469.2392018,-0.005343082,-101.0292268,-6.229131793,8.188383051,-87.73608871,-297.1158334,0,-31.70839124,-5.016059168,0,0,,,,
628.6799996,2455,-9.068844883,-71.44014151,150.5958276,0,-169.1347709,-0.005301357,39.39107857,-6.219178622,-46.38112578,109.9998466,176.7816234,0,80.83102997,-5.011322269,0,0,,,,
628.6879996,2455,15.31534685,-44.2500937,-174.7205617,0,-524.692888,-0.005259659,-250.017618,-6.209106675,0.291605943,-61.37988024,-79.75395879,0,-17.7412754,-5.006477069,0,0,,,,
628.6959996,2455,-27.76273165,-55.96388111,136.1244407,0,-249.7393039,-0.005217987,89.75573575,-6.198916662,-26.68575513,11.13862129,-127.2545622,0,50.37310667,-5.001524106,0,0,,,,
628.7039996,2455,-4.449030799,-73.29233135,-48.72845215,0,-343.7833694,-0.005176344,-150.9997969,-6.188609296,-45.61519653,58.09976601,221.0778324,0,53.12581937,-4.99646392,0,0,,,,
628.7119996,2455,-14.92174944,-41.1693396,-63.67853822,0,-441.9115462,-0.00513473,-77.28109126,-6.178185288,-8.383273586,-108.6872542,-281.8418374,0,-31.51663393,-4.991297051,0,0,,,,
628.7199996,2455,11.86933432,-27.57483784,156.6948071,0,-168.2754243,-0.005093146,67.61781765,-6.167645348,-22.07907245,113.4229467,187.6424135,0,98.10686558,-4.986024038,0,0,,,,
628.7279996,2455,12.01259214,-46.68671699,-183.0137768,0,-529.4015818,-0.005051593,-229.4891441,-6.156990189,6.777189388,-60.60438492,-61.95089277,0,0.144235573,-4.980645425,0,0,,,,
628.7359996,2456,-26.42577796,-60.06304671,129.5403101,0,-245.2619627,-0.005010072,111.3174546,-6.146220522,-36.39749704,-7.151304138,-129.1415067,0,53.25471588,-4.975161751,0,0,,,,
628.7439996,2456,19.84071964,-37.09523604,-31.55468458,0,-331.8614826,-0.004968584,-120.1826406,-6.13533706,-28.08102925,64.39859862,237.2080506,0,73.71642764,-4.969573559,0,0,,,,
628.7519996,2456,-3.369474071,-21.11483843,-58.16711708,0,-442.1836216,-0.00492713,-53.98803749,-6.124340515,13.51265897,-93.33018137,-268.7651962,0,-5.963976104,-4.963881393,0,0,,,,
628.7599996,2456,4.987119081,-38.75195704,171.2554149,0,-141.7564325,-0.00488571,108.3599178,-6.113231599,-22.82840393,121.2454041,190.5224456,0,112.3215203,-4.958085795,0,0,,,,
628.7679996,2456,20.7809871,-27.43202051,-162.3771595,0,-492.1065101,-0.004844326,-194.7654013,-6.102011024,12.80349757,-46.39549977,-38.97609778,0,8.382654437,-4.95218731,0,0,,,,
628.7759996,2456,-12.9596555,-30.04841985,140.7301012,0,-224.0670275,-0.004802978,134.0551194,-6.090679503,-16.4080231,8.343737014,-118.962681,0,62.79648739,-4.946186481,0,0,,,,
628.7839996,2456,17.82273611,-44.97009791,-26.88477152,0,-310.7416364,-0.004761668,-102.7705659,-6.079237748,-25.26833848,80.17617589,252.2783263,0,81.58976098,-4.940083855,0,0,,,,
628.7919996,2456,-10.48443164,-23.33762554,-68.54804075,0,-430.596668,-0.004720396,-60.60227064,-6.067686473,0.60635504,-97.61460364,-263.4145881,0,-19.65703581,-4.933879976,0,0,,,,
628.7999996,2456,-4.29116832,-26.2078797,172.3122568,0,-114.6463378,-0.004679164,103.5749433,-6.056026388,-32.3311515,108.7436552,184.2693924,0,98.02398586,-4.927575389,0,0,,,,
628.8079996,2456,11.67596597,-29.75951144,-164.836071,0,-468.156103,-0.004637971,-204.3427567,-6.044258208,9.478899783,-49.97547742,-38.08933475,0,2.388199277,-4.921170642,0,0,,,,
628.8159996,2456,-19.7981862,-26.82927863,131.9501026,0,-212.6322315,-0.004596819,117.045118,-6.032382645,-16.17659408,-1.097089961,-135.0910141,0,49.24768356,-4.914666281,0,0,,,,
628.8239996,2456,15.48894454,-34.31602553,-21.04712732,0,-276.2748208,-0.004555709,-114.5561671,-6.02040041,-18.41353399,76.90269575,256.8355735,0,84.29243498,-4.908062853,0,0,,,,
628.8319996,2456,-10.89066517,-28.12652429,-70.02373806,0,-399.8504416,-0.004514642,-74.23223916,-6.008312217,3.674170305,-100.5440617,-259.1921321,0,-6.382963081,-4.901360906,0,0,,,,
628.8399996,2456,-4.653951482,-23.95944595,178.9182631,0,-82.57274263,-0.004473619,105.5886867,-5.996118778,-43.00583314,104.4154729,179.0640382,0,105.343848,-4.894560986,0,0,,,,
628.8479996,2456,15.19959958,-16.54810793,-161.456252,0,-428.7175539,-0.00443264,-211.4400716,-5.983820806,4.560186474,-45.58714767,-20.00364054,0,15.72574806,-4.887663644,0,0,,,,
628.8559996,2456,-12.5321598,-31.18200079,115.7174443,0,-202.7973195,-0.004391706,84.82975134,-5.971419012,-13.47036913,6.314127087,-138.9198285,0,63.18001493,-4.880669426,0,0,,,,
628.8639996,2456,27.53192736,-45.09638771,-30.92236594,0,-294.0856891,-0.004350819,-139.6161032,-5.958914108,-16.43505646,85.19956834,246.7749079,0,100.6834431,-4.873578883,0,0,,,,
628.8719996,2456,-2.363999413,-38.58078758,-80.17296502,0,-423.4986264,-0.004309978,-87.24781456,-5.946306807,10.56035636,-107.1256195,-267.1639596,0,11.55253535,-4.866392563,0,0,,,,
628.8799996,2456,3.844991597,-40.93431928,172.0788496,0,-96.94542846,-0.004269186,91.13047606,-5.933597821,-38.22404077,95.74247886,170.7890161,0,115.3840849,-4.859111016,0,0,,,,
628.8879996,2456,29.60010659,-35.89392328,-157.3839034,0,-432.43679,-0.004228442,-216.408251,-5.92078786,6.505753419,-48.61539698,-8.583672397,0,27.60305044,-4.851734791,0,0,,,,
628.8959996,2456,-5.449305104,-46.95179446,136.4654105,0,-176.8300524,-0.004187748,128.3203844,-5.907877637,-6.865207583,-3.871418913,-129.6191466,0,84.8802503,-4.844264439,0,0,,,,
628.9039996,2456,24.95542109,-50.47359476,-10.30888248,0,-246.9999713,-0.004147104,-96.02029289,-5.894867862,-12.91568745,76.10796591,272.1074944,0,120.355167,-4.83670051,0,0,,,,
628.9119996,2456,-8.473198268,-41.31902171,-77.65952073,0,-385.5109581,-0.004106511,-74.10513117,-5.881759247,6.618966298,-116.6646242,-250.8122551,0,27.02432813,-4.829043555,0,0,,,,
628.9199996,2456,-7.098831215,-57.4784351,182.921234,0,-56.56010057,-0.004065971,120.6219968,-5.868552503,-39.88388499,94.26705391,167.4928147,0,140.4145011,-4.821294124,0,0,,,,
628.9279996,2456,14.40283053,-53.84907133,-160.0275953,0,-410.3855013,-0.004025483,-217.1018292,-5.855248339,5.824829696,-56.49241524,-6.937174352,0,48.97473645,-4.813452768,0,0,,,,
628.9359996,2456,-17.49509148,-45.1726354,128.3921951,0,-162.8173295,-0.00398505,100.384721,-5.841847466,-11.97855613,-18.52827713,-145.2992464,0,96.18996109,-4.805520039,0,0,,,,
628.9439996,2456,23.38330378,-46.78916065,1.369065789,0,-225.6949779,-0.00394467,-114.229908,-5.828350595,-14.29785609,87.82938033,271.3193943,0,132.9619009,-4.797496489,0,0,,,,
628.9519996,2456,-6.728939317,-51.023985,-80.41389672,0,-397.1082218,-0.003904346,-115.7225033,-5.814758434,18.03901454,-105.9840055,-250.6434214,0,35.72179129,-4.789382668,0,0,,,,
628.9599996,2456,-21.24979694,-77.81957087,184.9422094,0,-60.20527485,-0.003864079,91.13124552,-5.801071693,-26.47993064,92.26387581,157.6542915,0,149.5321753,-4.781179128,0,0,,,,
628.9679996,2456,-8.323078861,-79.08418506,-153.0380241,0,-385.475447,-0.003823868,-217.7623564,-5.787291081,-0.744830283,-67.04135192,0.069418671,0,51.05330805,-4.772886421,0,0,,,,
628.9759996,2456,-35.65765668,-69.01233314,125.9302359,0,-133.9400426,-0.003783715,107.7229233,-5.773417306,-25.52786221,-43.68760389,-151.639761,0,92.33345198,-4.7645051,0,0,,,,
628.9839996,2456,11.25202084,-73.23817938,6.077499098,0,-174.0150991,-0.00374362,-84.8894853,-5.759451078,-14.92682244,74.08714479,279.678508,0,146.0045453,-4.756035716,0,0,,,,
628.9919996,2457,-1.425133453,-73.61318971,-84.26810622,0,-349.8035755,-0.003703585,-81.60877691,-5.745393102,19.32029685,-113.4621398,-240.6270634,0,46.17910426,-4.747478821,0,0,,,,
628.9999996,2457,-3.01019255,-84.03057071,180.1212052,0,-27.9003633,-0.00366361,117.465614,-5.731244088,-23.40753239,95.92742303,151.383041,0,157.1390367,-4.738834969,0,0,,,,
629.0079996,2457,15.07250201,-69.05379507,-165.9643943,0,-371.6165289,-0.003623696,-202.5737201,-5.717004741,15.8365801,-42.42088617,7.320557667,0,69.37174071,-4.73010471,0,0,,,,
629.0159996,2457,-19.74433498,-66.97400894,106.1142479,0,-137.4414974,-0.003583843,121.4806895,-5.70267577,-10.46663219,-27.05484297,-165.8042506,0,103.7239611,-4.721288598,0,0,,,,
629.0239996,2457,7.584530642,-82.5408434,-9.508215122,0,-165.9633946,-0.003544053,-76.17419782,-5.688257879,-16.4921701,77.55785595,260.9979783,0,145.4132076,-4.712387185,0,0,,,,
629.0319996,2457,-5.773385111,-64.21373067,-110.2043597,0,-341.0309283,-0.003504326,-84.44858103,-5.673751774,15.21023521,-120.2616728,-251.8570242,0,37.68408515,-4.703401023,0,0,,,,
629.0399996,2457,2.430793279,-68.93784056,176.316445,0,5.37025081,-0.003464663,138.7867111,-5.65915816,-24.50292251,94.07183623,148.222694,0,162.316169,-4.694330666,0,0,,,,
629.0479996,2457,16.49221604,-79.78599897,-165.9581025,0,-331.2493108,-0.003425065,-189.8188439,-5.644477742,13.87906758,-40.79109023,15.83153484,0,78.36843127,-4.685176665,0,0,,,,
629.0559996,2457,-46.71594965,-88.02265996,259.5793915,0,25.84436977,-0.003385532,316.8566502,-5.629711225,-24.51887509,-35.56063732,-305.6272162,0,106.9731684,-4.675939573,0,0,,,,
629.0639996,2457,-26.92352332,-96.38681949,369.7684445,0,218.9275647,-0.003346065,338.78699,-5.614859311,-53.22598044,159.1365923,197.686659,0,207.8051472,-4.666619942,0,0,,,,
629.0719996,2457,4.576661019,-87.64438063,-98.24106513,0,-262.1111818,-0.003306665,-108.8824157,-5.599922704,4.894753898,-44.03061927,-29.61306517,0,83.60027889,-4.657218325,0,0,,,,
629.0799996,2457,6.998583345,-90.03450575,-35.85287583,0,-185.7248419,-0.003267333,-51.68093205,-5.584902107,-1.301718814,-9.965222973,34.36671954,0,117.178569,-4.647735274,0,0,,,,
629.0879996,2457,3.52998205,-83.31117848,0.320328036,0,-166.9516405,-0.00322807,11.71315707,-5.56979822,5.588092779,-17.96998648,-37.5666287,0,129.943035,-4.638171341,0,0,,,,
629.0959996,2457,4.048257916,-84.94073974,33.87001972,0,-115.7802244,-0.003188875,35.22982225,-5.554611746,-2.644322712,16.68504248,37.98497674,0,154.6505664,-4.628527079,0,0,,,,
629.1039996,2457,9.583207192,-86.52635856,-82.19419611,0,-208.7414517,-0.003149751,-94.98936185,-5.539343384,9.116770342,-16.2467617,32.46048534,0,126.4593408,-4.61880304,0,0,,,,
629.1119996,2457,-10.62089069,-78.63246687,41.73611125,0,-114.1788565,-0.003110697,60.43746145,-5.523993836,-7.823620444,-29.19597696,-120.7337097,0,107.3806923,-4.608999775,0,0,,,,
629.1199996,2457,17.50630797,-72.09146681,-24.97960297,0,-120.6174003,-0.003071714,-66.04436332,-5.5085638,-28.94777082,50.52176778,184.9459993,0,112.3512746,-4.599117837,0,0,,,,
629.1279996,2457,-0.033251243,-65.09701644,-81.39663119,0,-222.2990934,-0.003032804,-56.17199403,-5.493053975,6.686818667,-75.71053013,-170.2713303,0,25.6504779,-4.589157777,0,0,,,,
629.1359996,2457,-1.252857254,-74.09410761,138.8070034,0,50.38779896,-0.002993966,126.7743601,-5.47746506,-16.36133427,69.04077822,103.1771416,0,78.55851236,-4.579120146,0,0,,,,
629.1439996,2457,33.76769885,-45.21027389,-130.4346318,0,-217.8313246,-0.002955201,-159.1085103,-5.461797751,12.33267018,-17.33307274,50.19325017,0,-27.74599408,-4.569005497,0,0,,,,
629.1519996,2457,-6.395796872,-42.7703344,81.64910044,0,-59.8348793,-0.002916511,102.6223428,-5.446052745,3.394687689,-11.3554119,-161.0313302,0,-45.88692145,-4.55881438,0,0,,,,
629.1599996,2457,19.03357171,-64.31421123,23.64021607,0,-27.39117783,-0.002877895,-32.61832766,-5.430230739,-15.23758599,99.31039601,263.032455,0,-17.90282505,-4.548547347,0,0,,,,
629.1679996,2457,23.56209841,-34.0286579,-100.4806278,0,-234.3880865,-0.002839355,-89.58732344,-5.414332427,27.46092705,-87.88416192,-200.5497436,0,-130.8059071,-4.538204948,0,0,,,,
629.1759996,2457,8.020855129,-48.43335423,180.3279552,0,86.37440775,-0.002800891,151.583429,-5.398358504,-5.246877538,107.3571156,118.0251712,0,-30.13756954,-4.527787733,0,0,,,,
629.1839996,2457,20.857955,-52.31142548,-130.7721058,0,-195.7816511,-0.002762504,-155.5237658,-5.382309664,11.44155757,4.020099906,57.1440858,0,-112.6603192,-4.517296254,0,0,,,,
629.1919996,2457,0.511579294,-36.21438074,91.63024444,0,-28.08084886,-0.002724195,119.4015576,-5.366186599,-1.009085304,-11.75752415,-180.4831094,0,-97.04264939,-4.50673106,0,0,,,,
629.1999996,2457,32.88578678,-54.95387983,37.09852461,0,2.537315405,-0.002685963,-20.2906294,-5.349990002,-5.312501931,117.9275353,282.8475044,0,-10.15806461,-4.496092702,0,0,,,,
629.2079996,2457,15.98141812,-43.11464933,-97.34444717,0,-200.6038745,-0.002647811,-75.20340609,-5.333720564,34.38574451,-82.37419961,-202.1383847,0,-99.10294724,-4.485381728,0,0,,,,
629.2159996,2457,-3.767234521,-43.3097592,394.4296956,0,331.2028684,-0.002609738,362.256107,-5.317378975,-27.3215469,169.4029475,155.4758052,0,58.20585999,-4.474598688,0,0,,,,
629.2239996,2457,36.28313005,-38.96972646,34.92841088,0,14.04410015,-0.002571745,-46.34504023,-5.300965925,-6.110153633,111.0427989,268.2632242,0,10.36001026,-4.463744131,0,0,,,,
629.2319996,2457,19.42882118,-31.18650888,-165.5225809,0,-272.7089762,-0.002533833,-166.481502,-5.284482104,27.6850156,-96.7482887,-220.5507375,0,-105.076017,-4.452818607,0,0,,,,
629.2399996,2457,-11.52301665,-53.47993903,118.8548285,0,64.71368674,-0.002496003,87.54042433,-5.267928198,-20.98166834,60.84620853,66.30120334,0,-4.34856595,-4.441822662,0,0,,,,
629.2479996,2458,-6.200630774,-49.81043977,13.62847902,0,-9.507628474,-0.002458254,-17.33004642,-5.251304896,-7.745689146,22.10927622,61.67280657,0,-24.76697621,-4.430756847,0,0,,,,
629.2559996,2458,-2.521352825,-48.39656489,-60.88142715,0,-99.28467158,-0.002420589,-71.83204985,-5.234612883,8.052839484,-31.49119917,-62.73873641,0,-59.99240062,-4.419621707,0,0,,,,
629.2639996,2458,-10.10259673,-44.92020157,103.4154581,0,75.93568206,-0.002383006,89.08692005,-5.217852844,-15.78566471,34.75571904,0.227509154,0,-4.959217071,-4.40841779,0,0,,,,
629.2719996,2458,23.17644331,-29.8218084,-21.91220399,0,-35.89844139,-0.002345508,-69.38773499,-5.201025464,4.858592448,43.20851599,106.8629209,0,-5.444049783,-4.397145644,0,0,,,,
629.2799996,2458,7.717836703,-41.43785519,-37.63716782,0,-86.00887426,-0.002308095,-47.06392625,-5.184131427,16.7409104,-36.13944395,-107.3775913,0,-43.70651875,-4.385805816,0,0,,,,
629.2879996,2458,-5.962597204,-54.43702588,138.6324252,0,139.7308103,-0.002270766,107.6885672,-5.167171414,-13.43439986,62.57518635,85.01919791,0,25.52920819,-4.37439885,0,0,,,,
629.2959996,2458,22.31198717,-43.69969722,-100.4055661,0,-87.55301775,-0.002233524,-139.8456777,-5.150146108,11.22046349,-9.908684102,38.59686666,0,-29.54241202,-4.362925294,0,0,,,,
629.3039996,2458,2.615056631,-27.37443275,85.11500514,0,60.69741152,-0.002196368,89.20740395,-5.133056189,-5.876394094,-12.48089561,-145.0709315,0,-12.0322869,-4.351385692,0,0,,,,
629.3119996,2458,19.25158016,-33.028107,21.64847551,0,50.7170918,-0.002159299,-41.68061814,-5.115902336,-8.666523145,93.78004936,216.051463,0,40.38436099,-4.339780589,0,0,,,,
629.3199996,2458,1.585792183,-49.12090715,-104.3257697,0,-147.0637015,-0.002122318,-97.49824068,-5.098685228,20.07525591,-76.31039192,-179.39387,0,-55.20913628,-4.328110531,0,0,,,,
629.3279996,2458,1.552947575,-48.49601742,177.3055032,0,202.1947945,-0.002085425,151.7713272,-5.081405543,-25.54055594,75.88649724,89.6395913,0,44.01650666,-4.316376061,0,0,,,,
629.3359996,2458,21.35526375,-39.86377408,-124.8538609,0,-58.97532588,-0.002048621,-173.2769286,-5.064063957,22.16649636,3.761117061,83.27962336,0,0.028101946,-4.304577722,0,0,,,,
629.3439996,2458,-15.25491818,-49.37572493,75.40159435,0,70.39243914,-0.002011907,97.40119114,-5.046661146,17.46283441,-35.70386807,-205.485002,0,0.666242108,-4.292716059,0,0,,,,
629.3519996,2458,21.91738807,-54.52585525,52.05753134,0,131.5624128,-0.001975282,-4.228932411,-5.029197784,-12.12636376,109.2035612,263.9662906,0,66.17617751,-4.280791612,0,0,,,,
629.3599996,2458,5.467027102,-38.83912162,-133.615978,0,-127.3692554,-0.001938749,-118.1593914,-5.011674545,33.1924921,-77.89525028,-200.2945519,0,-47.81308449,-4.268804926,0,0,,,,
629.3679996,2458,-13.07638231,-40.3380239,178.6036392,0,208.873818,-0.001902306,156.3069936,-4.9940921,-16.08069849,87.12597395,62.31482563,0,48.14607083,-4.25675654,0,0,,,,
629.3759996,2458,17.65581947,-35.14999151,-121.9602915,0,-56.38992074,-0.001865955,-169.238046,-4.976451121,9.922837063,8.134226262,87.14603536,0,8.047808783,-4.244646997,0,0,,,,
629.3839996,2458,-14.32507225,-29.6912322,72.4336189,0,76.75925227,-0.001829697,105.1152051,-4.958752279,8.88735239,-39.75897257,-220.9839935,0,6.005509587,-4.232476836,0,0,,,,
629.3919996,2458,8.520455755,-48.28138345,54.58118202,0,145.4313049,-0.001793531,-1.470355947,-4.940996241,-18.4180135,110.7630057,274.4212602,0,67.92680989,-4.220246599,0,0,,,,
629.3999996,2458,-1.073701403,-43.51609862,-144.1453029,0,-129.4084345,-0.001757459,-136.6491764,-4.923183677,26.4480906,-96.71577808,-202.7946771,0,-36.63758717,-4.207956823,0,0,,,,
629.4079996,2458,-14.65895583,-43.68158275,178.6637915,0,220.7727241,-0.001721481,153.650889,-4.905315252,-16.12589739,71.62813909,58.56282257,0,73.1196008,-4.195608049,0,0,,,,
629.4159996,2458,6.273405385,-47.32952151,-135.2071935,0,-52.18651774,-0.001685597,-184.7730493,-4.887391633,7.370005114,-2.883167755,98.31753798,0,9.12839605,-4.183200815,0,0,,,,
629.4239996,2458,-27.14076171,-45.96329355,49.41598793,0,64.35814937,-0.001649809,75.8520478,-4.869413483,2.729795118,-58.95189764,-237.6616957,0,-5.743832413,-4.170735657,0,0,,,,
629.4319996,2458,3.757842182,-49.48826727,53.40559351,0,146.6083086,-0.001614116,-15.80140245,-4.851381466,-17.98816065,101.7056206,269.2243271,0,83.37513169,-4.158213114,0,0,,,,
629.4399996,2458,0.600724841,-34.82862854,-145.7102691,0,-139.0364925,-0.001578519,-154.4562956,-4.833296245,34.38890663,-96.92444625,-190.5827259,0,-10.32866156,-4.145633721,0,0,,,,
629.4479996,2458,-10.97055798,-56.3950942,184.9399145,0,203.1870715,-0.001543019,157.4003613,-4.815158478,-5.915914794,80.8408534,60.42305528,0,104.7330193,-4.132998015,0,0,,,,
629.4559996,2458,8.891839452,-73.07095594,-126.8223194,0,-74.6039046,-0.001507616,-169.0893436,-4.796968828,11.77787555,1.649233995,106.7762254,0,43.87745669,-4.12030653,0,0,,,,
629.4639996,2458,-26.42830456,-62.49512668,52.66285425,0,37.36010444,-0.001472311,83.56192606,-4.778727951,8.64470181,-67.91178365,-241.4060292,0,27.38117617,-4.107559802,0,0,,,,
629.4719996,2458,4.250217681,-67.37633128,57.6637152,0,126.4272054,-0.001437105,-2.196321054,-4.760436505,-13.57730765,101.7538834,262.2651079,0,110.3325663,-4.094758364,0,0,,,,
629.4799996,2458,-12.07109584,-56.7154646,-162.8464524,0,-166.9826554,-0.001401997,-150.7858604,-4.742095146,27.09680377,-102.3385619,-202.006856,0,-4.016463763,-4.08190275,0,0,,,,
629.4879996,2458,-28.28852102,-64.7760165,173.082914,0,199.4430306,-0.001366988,164.7623697,-4.723704529,-22.93654498,65.85919691,39.95949255,0,105.0518618,-4.068993491,0,0,,,,
629.4959996,2458,8.202018237,-73.20441229,-135.3705798,0,-74.25932392,-0.001332079,-175.2987351,-4.705265306,1.230798618,-3.933416127,99.20098013,0,44.35043662,-4.05603112,0,0,,,,
629.5039996,2459,-26.06084759,-69.19544915,43.20698402,0,18.39980144,-0.00129727,65.39240488,-4.68677813,19.68572758,-64.52489733,-255.7197589,0,44.54137523,-4.043016168,0,0,,,,
629.5119996,2459,8.174251081,-75.75969746,63.39838421,0,116.5214546,-0.001262562,-9.682191102,-4.668243653,-5.520607736,111.5540491,260.164318,0,151.3575708,-4.029949166,0,0,,,,
629.5199996,2459,-2.314037413,-77.79384845,-174.764819,0,-189.048158,-0.001227956,-170.0521622,-4.649662522,25.405924,-107.2224108,-203.5636832,0,19.61323158,-4.016830642,0,0,,,,
629.5279996,2459,-31.66782412,-98.80604036,162.8612157,0,179.3344517,-0.001193451,153.3767918,-4.631035387,-13.73844369,51.57015835,26.79222178,0,114.2541164,-4.003661127,0,0,,,,
629.5359996,2459,-0.920497066,-94.13592045,-151.3268136,0,-113.5379675,-0.001159048,-196.0008709,-4.612362894,11.2147774,-13.8231261,97.65048487,0,56.45233321,-3.990441147,0,0,,,,
629.5439996,2459,-40.53383248,-81.14861047,17.00091887,0,-26.03910887,-0.001124748,49.74904117,-4.593645689,9.039207161,-91.84124719,-281.8969586,0,46.89512436,-3.977171232,0,0,,,,
629.5519996,2459,-8.140268252,-85.23835307,67.7160564,0,131.83295,-0.001090552,10.19600222,-4.574884415,-21.90588929,85.85501638,250.8285797,0,156.556027,-3.963851906,0,0,,,,
629.5599996,2459,-1.361624472,-72.48385588,-175.9113895,0,-185.5605456,-0.001056459,-169.034183,-4.556079716,27.56813851,-117.6219175,-191.5600968,0,36.15579255,-3.950483697,0,0,,,,
629.5679996,2459,-16.84554885,-78.52602692,168.0604187,0,164.2636961,-0.00102247,156.453032,-4.537232234,-1.385244916,49.40420942,17.88904679,0,145.5175199,-3.93706713,0,0,,,,
629.5759996,2459,17.13849288,-74.4327839,-133.0731922,0,-107.3650183,-0.000988585,-180.9610725,-4.518342607,18.35509439,-3.33744913,111.8864325,0,86.90776559,-3.923602728,0,0,,,,
629.5839996,2459,-21.28939817,-77.67435904,17.17252533,0,-30.72381453,-0.000954806,56.09360911,-4.499411475,14.10202399,-84.99316423,-269.8477573,0,55.09995793,-3.910091015,0,0,,,,
629.5919996,2459,2.081764332,-93.79257719,70.2860156,0,112.2172894,-0.000921132,17.95484496,-4.480439475,-0.967831878,96.13735957,253.2313583,0,172.6642169,-3.896532514,0,0,,,,
629.5999996,2459,-6.355824535,-85.64035006,-184.8866155,0,-218.3746735,-0.000887564,-171.1554167,-4.461427243,32.67943556,-116.1729151,-191.0236158,0,41.4070489,-3.882927747,0,0,,,,
629.6079996,2459,-29.48956318,-100.2091166,165.9161394,0,161.8260808,-0.000854102,172.1054528,-4.442375412,-24.67115445,35.93483683,8.52484811,0,139.7949898,-3.869277235,0,0,,,,
629.6159996,2459,1.428886757,-91.89727409,-123.5994686,0,-79.53614752,-0.000820747,-167.9698904,-4.423284617,15.24622507,-6.526369983,124.5163187,0,114.417365,-3.855581498,0,0,,,,
629.6239996,2459,-32.96503236,-74.02745457,12.71951566,0,-24.99972447,-0.000787499,47.35596441,-4.404155488,13.20144423,-98.04717397,-275.2320324,0,72.30684323,-3.841841056,0,0,,,,
629.6319996,2459,1.603994872,-75.99847056,86.0835837,0,133.3934131,-0.000754359,28.65782708,-4.384988656,-12.26569455,85.74220223,247.9190935,0,191.8433399,-3.828056426,0,0,,,,
629.6399996,2459,1.069288112,-54.85207911,-169.66868,0,-181.2097945,-0.000721327,-168.3353839,-4.365784748,43.50366702,-111.5052853,-171.4538696,0,95.81485599,-3.814228126,0,0,,,,
629.6479996,2459,-20.43137965,-59.13171759,162.3927669,0,166.5148763,-0.000688404,154.229894,-4.346544393,-12.17282346,38.44386665,6.429719179,0,164.0982873,-3.800356674,0,0,,,,
629.6559996,2459,21.31418482,-55.63395193,-118.3329654,0,-91.21261059,-0.000655589,-183.0360898,-4.327268215,19.00083787,3.187760005,126.0542797,0,105.6960336,-3.786442584,0,0,,,,
629.6639996,2459,1.94787651,-42.68075929,25.11039267,0,-33.87245105,-0.000622884,44.01584792,-4.307956839,34.6543403,-79.21846706,-266.891886,0,62.2961455,-3.772486372,0,0,,,,
629.6719996,2459,29.07439439,-44.30609818,100.0426542,0,120.9702334,-0.000590288,39.49405654,-4.288610888,2.967095225,112.7430891,259.9356016,0,136.0892826,-3.758488552,0,0,,,,
629.6799996,2459,18.9942366,-21.44058792,-161.2287392,0,-204.7906148,-0.000557803,-155.4113509,-4.269230982,43.75368546,-96.90811501,-163.0460785,0,-27.05837834,-3.744449637,0,0,,,,
629.6879996,2459,2.371529015,-28.84301784,180.6252533,0,151.0934529,-0.000525428,181.7608217,-4.24981774,-3.48711691,48.74482187,5.631642071,0,19.49531037,-3.730370139,0,0,,,,
629.6959996,2459,35.7831629,-33.89000409,-105.1542607,0,-97.09726214,-0.000493164,-162.1297582,-4.230371782,13.90776896,26.39584396,146.1823843,0,-49.04784552,-3.716250568,0,0,,,,
629.7039996,2459,0.150525455,-19.11393643,18.50670765,0,-45.96028516,-0.000461011,42.39635527,-4.210893723,12.92418206,-76.17666467,-271.2367349,0,-120.7938961,-3.702091436,0,0,,,,
629.7119996,2459,31.52554679,-19.84786481,106.4258588,0,117.5033846,-0.00042897,40.18249783,-4.191384178,-9.529962526,118.4611317,251.4651175,0,-22.4037318,-3.687893252,0,0,,,,
629.7199996,2459,21.46694035,-9.388745423,-165.2566779,0,-229.9029874,-0.000397041,-178.4285977,-4.17184376,44.05387506,-73.58134067,-154.7888595,0,-124.1470555,-3.673656523,0,0,,,,
629.7279996,2459,-1.118339379,-9.608155706,175.353173,0,109.3441395,-0.000365225,157.709237,-4.152273082,-3.393150904,63.50088162,-6.186288083,0,-48.62101623,-3.659381757,0,0,,,,
629.7359996,2459,38.02750292,-5.376942691,-94.55368299,0,-131.7960549,-0.000333521,-161.1321518,-4.132672753,20.72845141,45.981331,154.0979488,0,-76.57010186,-3.645069461,0,0,,,,
629.7439996,2459,-14.73127078,-17.04870523,14.49445822,0,-88.88889038,-0.00030193,44.35961585,-4.113043382,21.43931893,-70.27248473,-270.3422462,0,-109.2298747,-3.63072014,0,0,,,,
629.7519996,2459,12.88590589,-37.71887664,105.1924326,0,88.91532254,-0.000270453,51.44094944,-4.093385576,-19.96167035,102.1707677,236.8564274,0,-12.0956467,-3.616334297,0,0,,,,
629.7599996,2460,21.21834779,-26.34281075,-167.5315856,0,-249.1538344,-0.00023909,-166.6381819,-4.073699939,38.47785303,-81.44388039,-158.0254484,0,-105.4632347,-3.601912437,0,0,,,,
629.7679996,2460,-12.41785792,-33.48958135,169.8461832,0,112.9389815,-0.000207841,176.1826689,-4.053987077,-13.60479784,55.45047239,-11.91694312,0,-13.62756303,-3.587455062,0,0,,,,
629.7759996,2460,33.64082941,-28.14143332,-97.75842479,0,-118.757293,-0.000176707,-146.7224163,-4.034247591,3.899620586,29.77492949,160.0901419,0,-42.54443765,-3.572962672,0,0,,,,
629.7839996,2460,-1.234137397,-20.07790275,11.11655183,0,-96.78835711,-0.000145688,41.46517447,-4.014482081,34.90893812,-72.63146746,-270.3377604,0,-70.06112435,-3.558435768,0,0,,,,
629.7919996,2460,11.98991188,-27.12928745,112.9468381,0,100.4262757,-0.000114784,47.93918887,-3.994691146,-6.582473276,110.4208031,245.2401835,0,28.36083988,-3.54387485,0,0,,,,
629.7999996,2460,23.2082433,-12.83667146,-167.1640771,0,-237.9173548,-8.40E-05,-179.9921789,-3.974875384,34.27722453,-93.36950726,-144.6480553,0,-81.36409805,-3.529280414,0,0,,,,
629.8079996,2460,4.958150404,-18.95550097,174.2042788,0,114.5072009,-5.33E-05,165.9443426,-3.955035389,5.127231829,48.82598853,-8.048598892,0,19.89214221,-3.514652959,0,0,,,,
629.8159996,2460,34.97565333,-24.91772242,-99.92920169,0,-116.2426695,-2.28E-05,-170.6701563,-3.935171755,21.85232323,33.44746742,177.1935858,0,-12.26646396,-3.49999298,0,0,,,,
629.8239996,2460,-4.895594037,-23.86451513,-6.891225645,0,-99.15593267,7.67E-06,18.5821653,-3.915285075,12.13046033,-93.87101596,-274.5475314,0,-78.4415578,-3.485300972,0,0,,,,
629.8319996,2460,29.01018583,-18.62991651,110.4307084,0,101.1516568,3.80E-05,56.1479762,-3.895375939,-11.95415023,108.9122985,250.1143092,0,28.45443519,-3.470577429,0,0,,,,
629.8399996,2460,23.90862514,-10.08548791,-179.4089674,0,-260.15521,6.82E-05,-188.9398298,-3.875444936,56.79628971,-82.78719721,-134.1410367,0,-68.39919224,-3.455822843,0,0,,,,
629.8479996,2460,-17.72261262,-23.93206953,162.6004339,0,100.9598832,9.83E-05,161.8408396,-3.855492652,-5.799139469,33.65759261,-25.44589831,0,18.5605741,-3.441037706,0,0,,,,
629.8559996,2460,31.14592716,-16.66820852,-99.98604126,0,-112.1459673,0.000128258,-153.9061572,-3.835519673,5.213140693,24.92391556,182.1513123,0,-8.391122058,-3.426222509,0,0,,,,
629.8639996,2460,-16.08961326,-9.691568495,-106.2898819,0,-267.0385095,0.00015811,-17.70725838,-3.815526583,46.09207357,-218.5172304,-588.5011402,0,-127.6737525,-3.41137774,0,0,,,,
629.8719996,2460,-14.55842768,-23.47958061,140.6273815,0,65.44206647,0.000187843,150.1684811,-3.795513962,-13.94922819,20.14412078,-50.77211864,0,7.206976374,-3.396503887,0,0,,,,
629.8799996,2460,22.81253691,-29.53305345,-75.59854267,0,-81.3584909,0.000217457,-124.2389712,-3.775482393,4.061490205,48.2625348,232.0693302,0,9.95824983,-3.381601439,0,0,,,,
629.8879996,2460,3.130897813,-8.456213562,-5.827007433,0,-87.32296078,0.000246953,20.31762938,-3.755432451,32.09330044,-65.23041304,-162.2960008,0,-25.60567983,-3.36667088,0,0,,,,
629.8959996,2460,19.04269361,6.465451493,40.26364601,0,-28.45444243,0.000276329,29.36833143,-3.735364715,19.9310762,3.046014501,6.805784076,0,19.69955987,-3.351712696,0,0,,,,
629.9039996,2460,17.06648536,-13.1401851,5.527184624,0,-33.23565004,0.000305585,-21.29305776,-3.715279759,15.0425727,30.26257378,119.3151805,0,22.84083199,-3.33672737,0,0,,,,
629.9119996,2460,12.43834018,-5.504338077,-43.35307395,0,-125.0158818,0.000334721,-40.42048548,-3.695178155,39.00682597,-55.77517885,-114.7056822,0,-22.73338369,-3.321715384,0,0,,,,
629.9199996,2460,24.28692197,0.640748122,77.04858719,0,4.752336783,0.000363738,47.91613336,-3.675060476,21.39506888,38.61895264,62.87380562,0,35.83332234,-3.30667722,0,0,,,,
629.9279996,2460,20.31578029,-12.5214988,-44.49346933,0,-100.8292312,0.000392633,-81.2685222,-3.654927291,24.63913672,6.864691168,84.89627541,0,11.04838486,-3.291613357,0,0,,,,
629.9359996,2460,-7.202065569,-14.86852746,-5.572022749,0,-104.3938173,0.000421408,6.107891138,-3.634779166,19.10365907,-80.20413724,-182.9215298,0,-28.99681498,-3.276524274,0,0,,,,
629.9439996,2460,13.03233299,-10.48327616,89.25949911,0,45.14721231,0.000450062,44.88030512,-3.614616669,-7.709632197,66.88207253,176.1861428,0,49.14893484,-3.26141045,0,0,,,,
629.9519996,2460,13.9064908,7.600600595,-131.0730105,0,-217.774511,0.000478595,-126.0178686,-3.594440364,36.57083032,-73.31774317,-108.008633,0,-28.67495718,-3.24627236,0,0,,,,
629.9599996,2460,-7.187263528,-2.440596805,123.3513793,0,53.07136437,0.000507007,142.4552396,-3.574250811,-0.078868453,14.01427428,-21.01747733,0,37.19230462,-3.231110479,0,0,,,,
629.9679996,2460,14.51035141,-11.64749345,-74.4263541,0,-100.0218326,0.000535296,-108.9407463,-3.554048572,12.85227823,19.98971792,164.132102,0,21.80635596,-3.215925282,0,0,,,,
629.9759996,2460,-16.86784018,-4.077918561,-38.57921888,0,-148.5346277,0.000563464,-1.095779904,-3.533834206,31.73344103,-98.05076069,-252.5807756,0,-36.76375387,-3.200717241,0,0,,,,
629.9839996,2460,2.352276222,-16.89112576,110.8545971,0,87.68346561,0.000591509,80.2356626,-3.513608268,-20.00826282,80.82305165,204.192811,0,63.45414343,-3.185486828,0,0,,,,
629.9919996,2460,8.33439613,-6.226250174,-178.8350284,0,-241.4661653,0.000619432,-175.7302449,-3.493371315,18.87571169,-103.479637,-105.9508348,0,-44.15960413,-3.170234513,0,0,,,,
629.9999996,2460,-7.557491435,4.4840014,135.9637788,0,40.72741036,0.000647232,140.5653636,-3.473123898,2.096218437,-0.616642418,-63.11720792,0,34.4812025,-3.154960764,0,0,,,,
630.0079996,2460,33.71822808,2.128427457,-69.8982208,0,-124.7796047,0.000674909,-141.4569448,-3.45286657,22.01884591,38.35862623,197.4388238,0,47.10318361,-3.139666051,0,0,,,,
630.0159996,2461,-5.352108563,-0.722415227,-36.52549905,0,-171.1459924,0.000702463,-23.18702413,-3.432599878,31.84630507,-102.2195035,-261.1032065,0,-16.5375665,-3.124350838,0,0,,,,
630.0239996,2461,16.62412588,-6.204148555,127.9251683,0,72.68019403,0.000729894,69.79450556,-3.412324372,-11.44380323,85.47880537,218.7315568,0,96.64104489,-3.109015592,0,0,,,,
630.0319996,2461,21.71782356,5.847659466,-240.6048764,0,-373.0695444,0.000757201,-227.5461471,-3.392040596,54.76502989,-172.3691656,-277.4280259,0,-39.28834856,-3.093660776,0,0,,,,
630.0399996,2461,-24.68678016,-20.15582442,164.2171819,0,14.90575306,0.000784384,203.6426584,-3.371749094,16.55633051,-60.17922047,-250.5361853,0,54.19174039,-3.078286852,0,0,,,,
630.0479996,2461,30.63213404,-37.38309526,12.45646101,0,-8.665975821,0.000811443,-87.29870511,-3.351450408,-7.250935573,104.5304497,424.2225545,0,131.170683,-3.062894283,0,0,,,,
630.0559996,2461,-3.879448005,-21.12666854,-162.190643,0,-313.2576329,0.000838378,-126.8924277,-3.331145077,35.84339332,-183.4037513,-338.796019,0,-20.54018491,-3.047483528,0,0,,,,
630.0639996,2461,-12.56819143,-43.05164553,198.1533583,0,106.8790675,0.000865188,182.5993402,-3.310833639,-14.71921305,51.49354645,87.07311334,0,126.0651211,-3.032055045,0,0,,,,
630.0719996,2461,30.59654464,-40.60015815,-151.727978,0,-214.1447212,0.000891874,-209.4958147,-3.290516632,17.92383847,-25.55808714,153.0730425,0,63.27426645,-3.016609293,0,0,,,,
630.0799996,2461,-16.0176266,-31.17705526,26.19253983,0,-132.3070559,0.000918434,75.17062535,-3.270194588,20.71999843,-120.8749284,-306.9121501,0,23.59428933,-3.001146727,0,0,,,,
630.0879996,2461,9.914738245,-48.01411811,100.0362031,0,54.82500637,0.00094487,47.46568765,-3.249868039,-10.817986,87.68575182,291.0949578,0,143.2243328,-2.985667802,0,0,,,,
630.0959996,2461,13.49004717,-34.24392401,-171.6482346,0,-280.1051477,0.000971181,-169.361113,-3.229537517,33.82708905,-131.3199578,-155.863466,0,19.71672981,-2.970172971,0,0,,,,
630.1039996,2461,-8.924383279,-36.68313846,155.119702,0,40.48685144,0.000997366,148.186319,-3.20920355,-1.080729919,2.808361065,-21.55784273,0,113.5050329,-2.954662687,0,0,,,,
630.1119996,2461,14.44216059,-59.81549671,-93.71219433,0,-150.7550653,0.001023426,-167.7976678,-3.188866663,7.549889751,0.280550039,202.936385,0,96.56925164,-2.9391374,0,0,,,,
630.1199996,2461,-16.95447314,-58.22177205,-35.77398894,0,-180.9477225,0.001049359,-15.25530197,-3.168527382,23.073378,-145.4318688,-284.1234155,0,18.83861728,-2.92359756,0,0,,,,
630.1279996,2461,11.16463849,-54.41910102,122.340018,0,58.26535922,0.001075167,65.31506206,-3.148186228,-5.714498654,58.04861057,230.9777705,0,146.8091063,-2.908043614,0,0,,,,
630.1359996,2461,19.34732417,-46.92576999,-174.9435613,0,-279.2516543,0.001100849,-197.1233123,-3.127843723,31.99649595,-126.0468271,-91.31669254,0,45.16595339,-2.892476009,0,0,,,,
630.1439996,2461,-3.839094491,-41.9694783,145.5965449,0,14.69705358,0.001126405,131.9434292,-3.107500384,6.911106322,-16.66751503,-61.98071033,0,114.9893641,-2.876895191,0,0,,,,
630.1519996,2461,26.84095699,-48.27748411,-62.63881138,0,-142.3476821,0.001151834,-144.5383606,-3.087156729,21.82497085,25.34938136,233.4212912,0,122.726481,-2.861301603,0,0,,,,
630.1599996,2461,-14.04887885,-48.27893835,-47.3047629,0,-198.6021727,0.001177136,-16.82812625,-3.066813273,22.06918886,-137.8965388,-261.965816,0,33.68844561,-2.845695689,0,0,,,,
630.1679996,2461,13.8028119,-40.29997534,140.1044186,0,73.06787514,0.001202312,101.7409498,-3.046470526,-21.77517445,65.16879468,216.4141477,0,145.0963249,-2.830077888,0,0,,,,
630.1759996,2461,34.06380603,-39.09995246,-184.7711192,0,-305.5596723,0.001227361,-202.8362049,-3.026129001,44.1987331,-106.6125489,-71.6316722,0,62.39231037,-2.81444864,0,0,,,,
630.1839996,2461,-7.356458314,-49.68497557,141.6369448,0,8.581849225,0.001252283,157.9492206,-3.005789206,19.0634353,-24.35975041,-85.14794524,0,137.0487501,-2.798808385,0,0,,,,
630.1919996,2461,40.55287889,-33.29878029,-54.41390969,0,-121.0566883,0.001277077,-120.5244243,-2.985451648,20.98163186,28.72353287,248.5217452,0,133.783388,-2.783157559,0,0,,,,
630.1999996,2461,9.469049506,-27.2330463,-59.40508429,0,-236.1094676,0.001301745,-45.12679235,-2.965116831,46.79659215,-129.3010635,-260.7879945,0,49.41197754,-2.767496598,0,0,,,,
630.2079996,2461,-1.648501702,-38.84234559,160.7211905,0,74.89208484,0.001326284,117.9757724,-2.944785258,-3.357714832,72.58829722,212.2665409,0,168.7413708,-2.751825935,0,0,,,,
630.2159996,2461,17.51288091,-20.34276817,-176.3893129,0,-279.9450605,0.001350697,-183.9858616,-2.92445743,34.21874396,-103.2457783,-47.57207125,0,61.5834345,-2.736146003,0,0,,,,
630.2239996,2461,-6.494216924,-32.077008,143.0847315,0,23.61721893,0.001374981,167.5304595,-2.904133844,5.859973282,-27.06448016,-87.08839382,0,136.6701554,-2.720457233,0,0,,,,
630.2319996,2461,37.95870924,-40.44207254,-38.22041067,0,-87.91054468,0.001399138,-98.64694449,-2.883814999,21.12981734,36.94759419,267.5839346,0,167.3566504,-2.704760056,0,0,,,,
630.2399996,2461,9.814457895,-32.171225,-66.90687578,0,-214.2970715,0.001423167,-35.73304209,-2.863501388,48.54368897,-131.0598592,-249.8048571,0,76.93189756,-2.6890549,0,0,,,,
630.2479996,2461,17.74084913,-46.88779934,291.2220336,0,272.7673146,0.001447068,217.0621468,-2.843193503,-32.37092256,197.0454451,492.5848437,0,259.1797802,-2.673342192,0,0,,,,
630.2559996,2461,49.74262673,-29.58801912,-166.804675,0,-215.1964173,0.00147084,-241.8202456,-2.822891836,26.32977719,5.697861195,271.3040049,0,123.6685001,-2.657622356,0,0,,,,
630.2639996,2461,-14.10403216,-17.25253561,-43.61920772,0,-231.7325875,0.001494485,27.5994554,-2.802596875,40.19225608,-186.0098477,-452.8232595,0,6.930100612,-2.641895817,0,0,,,,
630.2719996,2462,17.95685089,-18.78310816,147.6507835,0,95.00261174,0.001518,104.3028762,-2.782309106,-4.865533452,112.0207858,307.8776606,0,132.2502595,-2.626162999,0,0,,,,
630.2799996,2462,33.46524259,0.155329202,-141.2733683,0,-242.4548346,0.001541388,-153.8133665,-2.762029014,58.31976799,-51.76243553,14.53538058,0,-2.906407864,-2.610424321,0,0,,,,
630.2879996,2462,-6.224539181,-8.25997323,74.89664673,0,-54.55841116,0.001564647,118.4953433,-2.741757081,33.85903013,-65.78234727,-177.5310658,0,-42.20827898,-2.594680203,0,0,,,,
630.2959996,2462,27.61088647,-25.33757639,64.90630644,0,36.43923106,0.001587777,23.99825886,-2.721493787,7.807029382,79.86334926,291.0176631,0,-19.41942912,-2.578931064,0,0,,,,
630.3039996,2462,20.78745909,-15.2036586,-117.6749299,0,-227.294238,0.001610778,-97.77383914,-2.70123961,53.21528381,-100.4883667,-161.2342196,0,-143.9152878,-2.56317732,0,0,,,,
630.3119996,2462,3.242091241,-18.44752542,134.9898319,0,43.89791354,0.001633651,138.6959257,-2.680995027,12.25215603,25.49897121,29.31168013,0,-68.1085951,-2.547419387,0,0,,,,
630.3199996,2462,19.28845501,-25.40924537,-64.42135172,0,-120.3858178,0.001656394,-101.1401987,-2.660760511,12.8292195,14.1934562,172.4732384,0,-95.4754049,-2.531657678,0,0,,,,
630.3279996,2462,-5.993631354,-15.23194546,-25.78818585,0,-147.9170162,0.001679009,6.5552601,-2.640536535,26.5066595,-105.8324973,-226.2542425,0,-157.0949531,-2.515892605,0,0,,,,
630.3359996,2462,28.22728359,-13.65446289,138.2400648,0,90.93488228,0.001701494,89.12962535,-2.620323568,-1.159270639,81.58728211,217.0058128,0,-56.3583915,-2.500124579,0,0,,,,
630.3439996,2462,36.08723842,-18.18108398,-150.4669221,0,-251.4159653,0.001723851,-175.1015765,-2.600122079,43.09961872,-79.35141824,-66.56827713,0,-147.4710415,-2.48435401,0,0,,,,
630.3519996,2462,-6.210255105,-37.14929918,126.8583557,0,7.084881686,0.001746078,137.2192206,-2.579932532,12.98100449,-11.51380949,-76.82218379,0,-80.41624763,-2.468581304,0,0,,,,
630.3599996,2462,26.43831319,-44.03814395,-34.5363993,0,-86.44287464,0.001768175,-93.89344497,-2.559755392,7.382741316,41.44148813,235.035886,0,-67.33401858,-2.452806869,0,0,,,,
630.3679996,2462,-0.402111038,-40.95937357,-72.59933351,0,-213.7738962,0.001790144,-55.09530238,-2.539591121,33.25165508,-126.4711128,-250.5038345,0,-140.2847855,-2.437031109,0,0,,,,
630.3759996,2462,2.318960556,-57.43586685,153.9581927,0,79.55127325,0.001811983,102.9706759,-2.519440176,-3.42085651,66.57242076,174.1798036,0,-12.64829822,-2.421254426,0,0,,,,
630.3839996,2462,23.07683368,-48.36591148,-164.6631688,0,-264.1939727,0.001833692,-207.0991964,-2.499303017,36.41748107,-88.04122985,-42.34919502,0,-104.4072916,-2.405477224,0,0,,,,
630.3919996,2462,-2.658412411,-39.86843226,126.0058115,0,-8.528443898,0.001855272,128.9257165,-2.479180098,11.8514889,-29.11821663,-119.773523,0,-44.22446772,-2.389699901,0,0,,,,
630.3999996,2462,37.84683913,-34.97292901,-32.9265213,0,-111.9847164,0.001876723,-116.0518683,-2.459071872,7.443430786,52.53574883,255.4096498,0,-16.09794007,-2.373922856,0,0,,,,
630.4079996,2462,11.10587729,-38.15596926,-87.40629029,0,-267.83125,0.001898044,-80.3672921,-2.438978791,33.84943516,-138.3573151,-266.1563797,0,-110.1975274,-2.358146486,0,0,,,,
630.4159996,2462,11.85040683,-55.86856723,179.7637876,0,83.10345139,0.001919235,137.4416163,-2.418901303,-0.572242765,70.25507109,175.2713383,0,22.55306246,-2.342371188,0,0,,,,
630.4239996,2462,37.17560887,-34.81001405,-167.1159827,0,-279.8167692,0.001940296,-211.9092491,-2.398839855,46.20048574,-75.17488607,-8.771856249,0,-74.18806352,-2.326597354,0,0,,,,
630.4319996,2462,1.864241561,-42.16408746,111.7191122,0,-56.20138613,0.001961228,114.3420132,-2.378794892,15.2016994,-43.79498456,-146.1767322,0,-45.5466554,-2.310825377,0,0,,,,
630.4399996,2462,35.82180782,-44.60294334,-22.21140913,0,-128.451217,0.00198203,-106.6285756,-2.358766856,8.681372091,54.23007495,255.2189986,0,-9.95877927,-2.295055649,0,0,,,,
630.4479996,2462,19.34564544,-25.75728623,-88.11333931,0,-296.0649683,0.002002702,-90.9895021,-2.338756188,45.15344951,-122.5800386,-259.2138571,0,-91.84133894,-2.279288557,0,0,,,,
630.4559996,2462,22.31108138,-48.35537504,176.8008964,0,36.89468053,0.002023244,128.9941118,-2.318763326,4.985588916,81.64499487,166.5211536,0,35.8067443,-2.263524491,0,0,,,,
630.4639996,2462,37.6333046,-43.74317163,-176.755863,0,-327.5211924,0.002043657,-224.7927159,-2.298788706,44.42204653,-62.27591035,-6.553842743,0,-65.79576573,-2.247763836,0,0,,,,
630.4719996,2462,-5.522499866,-50.50668737,101.4552127,0,-86.47792227,0.00206394,98.31477614,-2.278832762,13.30663945,-41.19913553,-152.157371,0,-35.22696293,-2.232006976,0,0,,,,
630.4799996,2462,29.02378323,-55.51045534,-26.46830619,0,-136.1593155,0.002084092,-107.0462152,-2.258895927,4.314403154,39.18841959,261.3849259,0,6.958200373,-2.216254295,0,0,,,,
630.4879996,2462,9.651712232,-34.77859354,-102.2171171,0,-304.2209767,0.002104115,-93.31918731,-2.238978629,41.38643913,-146.8252787,-261.6024117,0,-83.83076752,-2.200506175,0,0,,,,
630.4959996,2462,8.030511417,-52.18010138,180.7451107,0,51.53661059,0.002124009,136.0516833,-2.219081297,-0.207207013,62.93680933,162.2233791,0,43.57674393,-2.184762994,0,0,,,,
630.5039996,2462,29.52573802,-45.88700617,-172.7362893,0,-324.4132423,0.002143772,-219.0914763,-2.199204356,44.06444744,-79.67296059,2.616969372,0,-44.57870424,-2.169025132,0,0,,,,
630.5119996,2462,-12.61254807,-45.97135228,96.63637761,0,-103.3663982,0.002163405,104.8970491,-2.179348229,15.43976044,-54.32182646,-164.2419149,0,-17.75525446,-2.153292965,0,0,,,,
630.5199996,2462,21.99267117,-52.38629637,-19.50290023,0,-130.6053977,0.002182908,-95.6008457,-2.159513337,1.017711078,42.08636077,261.3380886,0,17.35384695,-2.137566868,0,0,,,,
630.5279996,2463,14.29529627,-30.98902612,-108.6749154,0,-316.0566604,0.002202282,-104.1857195,-2.1397001,46.0323261,-147.7614849,-258.0836924,0,-73.31091549,-2.121847214,0,0,,,,
630.5359996,2463,17.21239528,-42.65254073,172.6707684,0,19.64880928,0.002221526,122.6813602,-2.119908934,12.68144335,64.58418813,157.9436652,0,55.37525553,-2.106134376,0,0,,,,
630.5439996,2463,34.8394629,-38.63450394,-175.7038839,0,-357.2855812,0.002240639,-224.6046148,-2.100140254,57.56436409,-75.19810241,7.554650626,0,-34.48190368,-2.090428724,0,0,,,,
630.5519996,2463,-9.171973298,-44.0350149,98.60835448,0,-123.7698222,0.002259623,116.0644316,-2.080394473,21.90216674,-56.94300078,-168.1721672,0,-6.404858808,-2.074730626,0,0,,,,
630.5599996,2463,20.2200446,-60.91404856,-11.41772543,0,-134.6147373,0.002278478,-82.48331362,-2.060672001,-4.587817409,50.27418791,273.7605294,0,28.79710828,-2.05904045,0,0,,,,
630.5679996,2463,4.128100573,-40.7074235,-113.695818,0,-340.1972536,0.002297202,-112.7582614,-2.040973245,38.07022364,-147.50807,-256.96878,0,-73.83044412,-2.043358561,0,0,,,,
630.5759996,2463,-1.470330502,-46.84337344,177.0606113,0,12.73168903,0.002315797,129.6457335,-2.021298613,-3.90536106,55.94304276,146.4025651,0,51.27493435,-2.027685323,0,0,,,,
630.5839996,2463,13.40642489,-50.97444141,-176.213469,0,-343.378975,0.002334261,-221.2887,-2.001648508,33.01439995,-84.9808219,11.21297577,0,-46.55806726,-2.012021099,0,0,,,,
630.5919996,2463,-10.13576035,-35.73533488,92.79345897,0,-128.7961855,0.002352597,97.60928,-1.982023331,16.41896404,-71.64841923,-181.20832,0,-20.26599348,-1.996366248,0,0,,,,
630.5999996,2463,35.84650035,-24.13131118,2.875394085,0,-138.9292253,0.002370802,-99.03072065,-1.962423483,10.06451345,56.81636105,280.9367564,0,41.20608035,-1.98072113,0,0,,,,
630.6079996,2463,8.729442321,-18.83552692,-114.4373471,0,-352.5183058,0.002388878,-124.3489729,-1.942849361,48.30069326,-137.4033417,-247.1340652,0,-58.78345746,-1.965086102,0,0,,,,
630.6159996,2463,6.495056881,-24.97180352,175.7430129,0,5.756777552,0.002406824,133.8546224,-1.923301359,-5.148174343,59.15106894,139.1560423,0,54.88649853,-1.949461521,0,0,,,,
630.6239996,2463,34.23228522,-19.27836513,-168.7773799,0,-335.5034851,0.002424641,-222.8782562,-1.903779871,37.99646526,-73.60290967,21.9278488,0,-38.42010093,-1.933847739,0,0,,,,
630.6319996,2463,-3.587550492,-25.01942496,96.05670853,0,-117.6175235,0.002442328,106.2337658,-1.884285288,27.62031433,-68.24502101,-179.3842093,0,-3.634999365,-1.918245111,0,0,,,,
630.6399996,2463,35.36839663,-24.40144145,8.471499937,0,-123.7317076,0.002459886,-72.9534442,-1.864817998,15.66196524,52.46240718,291.2579262,0,63.64612744,-1.902653986,0,0,,,,
630.6479996,2463,16.8817518,-14.57495112,-116.2621574,0,-350.3565007,0.002477314,-125.3052698,-1.845378388,63.82368899,-146.9569712,-240.3938157,0,-39.01041225,-1.887074713,0,0,,,,
630.6559996,2463,2.2442625,-35.82931747,184.1541061,0,26.1777572,0.002494613,133.9196837,-1.825966842,9.324752407,52.0916007,138.4475724,0,79.03826764,-1.871507642,0,0,,,,
630.6639996,2463,29.11420863,-28.16296527,-161.8996253,0,-302.7126573,0.002511783,-219.9638805,-1.806583743,33.01696328,-76.62588152,43.43614081,0,-14.8557033,-1.855953116,0,0,,,,
630.6719996,2463,3.882320673,-5.848899304,92.66255448,0,-108.9912351,0.002528823,100.0837556,-1.787229469,32.1212645,-69.24823168,-175.2999501,0,20.73957264,-1.840411482,0,0,,,,
630.6799996,2463,24.72415683,-18.25490166,4.265909303,0,-110.5940255,0.002545735,-70.15257004,-1.767904399,17.47054463,62.10924929,296.3313259,0,85.96876306,-1.82488308,0,0,,,,
630.6879996,2463,1.25002166,-25.29383476,-128.2230409,0,-323.2229155,0.002562517,-119.0949729,-1.748608909,39.28505818,-151.170851,-234.4940541,0,-41.5223407,-1.809368253,0,0,,,,
630.6959996,2463,9.613585736,-26.3559926,186.9739099,0,40.2833679,0.00257917,158.3495172,-1.729343372,12.48129007,55.42600382,141.4465635,0,99.76489944,-1.79386734,0,0,,,,
630.7039996,2463,22.33959114,-33.70177564,-171.0383206,0,-326.2528272,0.002595694,-208.9578667,-1.710108158,56.27257206,-61.25839679,53.30360753,0,27.26071398,-1.778380678,0,0,,,,
630.7119996,2463,-26.87303624,-45.90096192,73.54147868,0,-129.3946558,0.00261209,96.75080316,-1.690903638,8.456004575,-90.02687219,-208.7756286,0,24.65887522,-1.762908603,0,0,,,,
630.7199996,2463,12.82580713,-38.62636932,6.675418034,0,-102.6873749,0.002628356,-51.60845434,-1.671730177,-12.81191337,47.35678949,272.7113958,0,92.05508331,-1.747451451,0,0,,,,
630.7279996,2463,-15.43592178,-38.34703349,-146.1157128,0,-327.6278319,0.002644494,-113.9064531,-1.652588141,32.14179978,-147.9283391,-240.5467427,0,-31.66515105,-1.732009553,0,0,,,,
630.7359996,2463,-27.0165758,-61.49876215,169.4206995,0,56.82555024,0.002660503,151.0643325,-1.633477891,-23.30088582,35.45562351,108.9261624,0,79.25137408,-1.716583241,0,0,,,,
630.7439996,2463,18.40112168,-42.65030042,-171.1703513,0,-294.2078869,0.002676384,-221.6641956,-1.614399788,20.58567965,-80.35563888,37.51933197,0,23.534901,-1.701172843,0,0,,,,
630.7519996,2463,-13.44085394,-32.36135195,76.14954294,0,-105.3569576,0.002692137,97.650313,-1.595354191,20.77691458,-87.84275386,-213.3619225,0,50.62687439,-1.685778689,0,0,,,,
630.7599996,2463,14.10171147,-42.72644572,18.67066434,0,-60.98876143,0.002707761,-35.42850926,-1.576341454,5.25156805,55.91334206,281.2142005,0,116.567256,-1.670401103,0,0,,,,
630.7679996,2463,-5.65627195,-41.89636648,-151.4810147,0,-312.8284325,0.002723257,-127.8778464,-1.557361931,32.67264858,-158.4885487,-241.3566394,0,-15.21325481,-1.655040411,0,0,,,,
630.7759996,2463,-14.50565427,-59.85289886,169.0960018,0,68.76213717,0.002738624,148.2323478,-1.538415975,-23.22606773,20.12858174,95.3026968,0,89.64510386,-1.639696935,0,0,,,,
630.7839996,2464,21.70476898,-54.79661288,-162.5922438,0,-264.6276618,0.002753864,-209.6713784,-1.519503933,30.95027426,-77.81909893,51.2266396,0,35.23381274,-1.624370996,0,0,,,,
630.7919996,2464,-11.48911457,-45.94211609,77.9310597,0,-86.00116867,0.002768976,102.3825345,-1.500626154,27.75503786,-88.25470446,-212.4943352,0,60.07603714,-1.609062913,0,0,,,,
630.7999996,2464,24.1583019,-51.8620307,27.48862321,0,-31.77882088,0.002783959,-24.38955226,-1.481782982,-7.927716425,52.66272348,285.8175623,0,116.012683,-1.593773004,0,0,,,,
630.8079996,2464,7.709371767,-53.370255,-151.9156981,0,-314.5467267,0.002798816,-133.4731707,-1.462974759,40.47000063,-155.1626485,-234.4880956,0,2.293708718,-1.578501586,0,0,,,,
630.8159996,2464,-7.089281412,-60.68440925,178.9372738,0,55.88256099,0.002813544,152.9204468,-1.444201827,7.625133292,31.68906318,93.53953723,0,131.3179977,-1.563248972,0,0,,,,
630.8239996,2464,21.8049615,-53.89651183,-161.7286153,0,-265.4280493,0.002828145,-198.4393269,-1.425464522,38.89543991,-72.78697192,67.49285059,0,51.93580132,-1.548015475,0,0,,,,
630.8319996,2464,-26.36043116,-69.84209058,53.91327408,0,-110.8801014,0.002842619,92.73150779,-1.406763183,26.20065612,-101.2903217,-227.5326547,0,57.1042527,-1.532801407,0,0,,,,
630.8399996,2464,9.524529,-72.32077836,25.58898146,0,-37.4394642,0.002856965,-27.82659025,-1.388098141,-3.200213556,45.88045841,272.4975795,0,135.1083701,-1.517607076,0,0,,,,
630.8479996,2464,7.997621645,-52.34504267,-150.8643815,0,-306.6180971,0.002871185,-131.3944256,-1.36946973,43.87282871,-152.956035,-223.9358453,0,22.32231059,-1.502432789,0,0,,,,
630.8559996,2464,-15.39163853,-79.80060508,172.4967064,0,44.61121781,0.002885277,154.8183111,-1.350878278,10.85929847,37.90091756,88.84129807,0,138.2174318,-1.487278855,0,0,,,,
630.8639996,2464,7.023656281,-85.33214778,-164.1781683,0,-268.0091718,0.002899243,-202.0751556,-1.332324112,30.03523975,-76.55272674,63.85969397,0,60.45723065,-1.472145575,0,0,,,,
630.8719996,2464,-23.97920056,-77.88831829,63.73467867,0,-79.79923306,0.002913082,100.9787194,-1.313807559,10.88980263,-115.4179256,-229.3618514,0,71.82094987,-1.457033253,0,0,,,,
630.8799996,2464,10.1255816,-78.61843361,45.78595329,0,7.591853196,0.002926794,-6.220653003,-1.295328939,1.78107496,54.55154197,293.0205138,0,157.0232917,-1.441942189,0,0,,,,
630.8879996,2464,-2.28690505,-55.69514778,-152.9430804,0,-273.8992566,0.00294038,-128.7415401,-1.276888576,46.125186,-148.4252293,-207.559995,0,35.11688877,-1.426872684,0,0,,,,
630.8959996,2464,-7.575318377,-48.66171567,174.9216048,0,89.96925012,0.00295384,162.2534486,-1.258486786,1.001297977,35.26441581,94.03296037,0,159.2426102,-1.411825034,0,0,,,,
630.9039996,2464,22.64578023,-45.11841032,-158.5232296,0,-242.3772003,0.002967173,-199.8339079,-1.240123886,41.59700472,-52.82713893,92.51487342,0,91.78449931,-1.396799534,0,0,,,,
630.9119996,2464,-16.73695464,-39.96955789,56.3553304,0,-93.12667758,0.002980381,86.17319326,-1.22180019,26.50001593,-94.58467255,-224.8669807,0,74.78886893,-1.38179648,0,0,,,,
630.9199996,2464,26.86727997,-24.86947871,53.53717184,0,-1.220371745,0.002993462,-16.62307337,-1.20351601,6.280555464,66.78661114,296.8634252,0,142.9307841,-1.366816164,0,0,,,,
630.9279996,2464,13.78398698,-12.14315315,-146.3797507,0,-295.061995,0.003006418,-136.9246801,-1.185271656,54.11925417,-135.4929004,-195.0579156,0,-9.879479868,-1.351858876,0,0,,,,
630.9359996,2464,-9.294520827,-24.67781694,186.8477087,0,81.30405461,0.003019248,176.5960058,-1.167067435,-2.319483227,49.31211415,94.64585558,0,51.5623962,-1.336924905,0,0,,,,
630.9439996,2464,24.17979423,-17.34439822,-140.5416176,0,-232.175887,0.003031953,-187.3758044,-1.148903653,30.91992238,-29.51551096,105.7607227,0,-65.0912804,-1.322014538,0,0,,,,
630.9519996,2464,-8.868995843,-15.5215519,66.07596948,0,-100.2008433,0.003044533,89.28173025,-1.130780612,24.83360095,-72.32138544,-227.0542479,0,-110.9534299,-1.307128062,0,0,,,,
630.9599996,2464,25.15215048,-11.46971351,63.71188145,0,-7.395305769,0.003056988,-2.574818479,-1.112698614,2.333619837,92.08491002,300.9376526,0,-44.40275369,-1.29226576,0,0,,,,
630.9679996,2464,21.27132025,3.993604944,-146.9359139,0,-320.7224477,0.003069318,-138.2154602,-1.094657957,58.36298992,-115.972404,-191.9180263,0,-178.7498466,-1.277427914,0,0,,,,
630.9759996,2464,-2.377854594,-25.50351618,191.6652151,0,59.18220782,0.003081523,181.5276386,-1.076658938,2.855558317,59.51502443,77.21207808,0,-82.34197259,-1.262614804,0,0,,,,
630.9839996,2464,10.74752964,-25.51158082,-144.3319668,0,-230.9155094,0.003093603,-181.183204,-1.058701852,16.36313014,-20.60868241,110.0888242,0,-156.9245814,-1.247826711,0,0,,,,
630.9919996,2464,-23.49914938,-8.705071949,48.75499157,0,-111.7363106,0.00310556,87.88817444,-1.040786989,12.45447696,-75.88645951,-235.691053,0,-167.4609265,-1.23306391,0,0,,,,
630.9999996,2464,8.18342458,-29.29869839,65.34716287,0,-0.399106273,0.003117392,9.367791875,-1.022914642,-6.729174919,91.84077306,285.6309052,0,-62.19344899,-1.218326677,0,0,,,,
631.0079996,2464,-1.54502195,-16.93398205,-156.3597317,0,-307.5792513,0.003129099,-143.5626524,-1.005085096,39.88367024,-113.6839032,-197.0734269,0,-174.5674341,-1.203615286,0,0,,,,
631.0159996,2464,-12.73154197,-11.05596309,190.8016595,0,77.52020442,0.003140683,190.335469,-0.987298638,-15.07351689,57.17338064,71.28314573,0,-65.59160202,-1.188930008,0,0,,,,
631.0239996,2464,23.18013766,-7.850950524,-127.6602955,0,-209.0977384,0.003152144,-162.2466797,-0.969555551,21.27382266,-16.76360836,125.1014409,0,-114.0682717,-1.174271115,0,0,,,,
631.0319996,2464,-17.25788516,-9.596518884,44.26039397,0,-129.266349,0.003163481,80.81696205,-0.951856117,30.94478272,-77.7209501,-239.3828257,0,-118.8690905,-1.159638874,0,0,,,,
631.0399996,2465,-1.549086639,-32.00293466,66.16499547,0,-0.165596888,0.003174695,24.90095581,-0.934200615,-15.33482314,80.9025766,281.6449233,0,-35.46434904,-1.145033553,0,0,,,,
631.0479996,2465,3.452395384,-11.3488672,-147.1115299,0,-277.7887801,0.003185785,-120.9558417,-0.91658932,27.70187917,-130.3997925,-183.8583838,0,-153.9682988,-1.130455416,0,0,,,,
631.0559996,2465,-8.26524406,-15.83065388,203.3032806,0,107.5887761,0.003196753,200.9848946,-0.899022509,-3.506323717,52.70350665,76.29829705,0,-23.05364803,-1.115904728,0,0,,,,
631.0639996,2465,10.61233183,-14.91540864,-123.171213,0,-180.5326468,0.003207598,-156.064023,-0.881500454,22.70282745,-14.81648758,139.3814834,0,-82.21384965,-1.101381749,0,0,,,,
631.0719996,2465,-11.07353515,5.829133289,43.1739794,0,-104.9106208,0.00321832,79.5738761,-0.864023424,26.41553369,-88.93513813,-239.1423965,0,-114.7434276,-1.086886741,0,0,,,,
631.0799996,2465,21.65521623,-11.27517995,74.26703692,0,17.96600031,0.00322892,13.10873099,-0.846591689,0.907482328,90.80602385,290.3828531,0,-7.840281809,-1.072419961,0,0,,,,
631.0879996,2465,1.117182107,-3.821887532,-166.8581861,0,-290.7893548,0.003239398,-159.6890165,-0.829205514,39.04524095,-118.2616126,-178.2554451,0,-122.3131619,-1.057981666,0,0,,,,
631.0959996,2465,-9.87439876,-7.382269695,186.8255355,0,101.0143563,0.003249754,172.3986715,-0.811865163,-10.05344071,41.98863574,55.22929995,0,-18.38860391,-1.043572111,0,0,,,,
631.1039996,2465,26.18636757,-17.52147765,-121.9438251,0,-167.5926113,0.003259988,-173.5946887,-0.794570898,26.15075254,-16.44231173,143.1403013,0,-67.01002879,-1.029191549,0,0,,,,
631.1119996,2465,-17.00851098,-16.74166472,34.9759416,0,-89.67129331,0.003270101,68.07289366,-0.777322978,28.17049865,-93.93327675,-240.6229588,0,-99.37596176,-1.014840232,0,0,,,,
631.1199996,2465,9.282476221,-27.25988172,75.13343051,0,50.29857951,0.003280093,23.9372669,-0.760121661,-18.22379664,77.31139556,288.2236804,0,-13.06114399,-1.00051841,0,0,,,,
631.1279996,2465,-2.176089053,-13.26372482,-169.759745,0,-279.2730458,0.003289963,-158.1481832,-0.742967201,30.67758733,-129.681474,-172.7947229,0,-119.6463199,-0.986226331,0,0,,,,
631.1359996,2465,-13.82916453,-9.819672317,186.9038312,0,78.58921113,0.003299713,175.9538048,-0.725859852,9.101306037,39.5158795,49.9055979,0,5.844530545,-0.971964241,0,0,,,,
631.1439996,2465,22.59913976,-10.20784634,-124.9112811,0,-207.1562236,0.003309342,-176.6386496,-0.708799865,36.77093258,-9.229945354,152.0970932,0,-41.55031818,-0.957732384,0,0,,,,
631.1519996,2465,-31.37670355,-22.31923686,19.97288714,0,-117.7470518,0.00331885,60.46062013,-0.691787488,12.5193404,-101.902947,-251.0966132,0,-83.16594129,-0.943531005,0,0,,,,
631.1599996,2465,4.383075942,-43.80916094,75.69646873,0,52.57133627,0.003328238,39.32133784,-0.674822967,-22.30223323,72.88519307,284.8765571,0,10.99289585,-0.929360344,0,0,,,,
631.1679996,2465,17.12361637,-23.82935758,-173.4437018,0,-279.6201185,0.003337507,-153.8092653,-0.657906548,41.40726943,-122.4730474,-157.4056988,0,-95.83150511,-0.915220641,0,0,,,,
631.1759996,2465,-12.02984348,-28.21019066,181.3076763,0,94.92527886,0.003346655,178.7254567,-0.641038473,-0.955240754,42.54793135,47.95664748,0,14.66676966,-0.901112134,0,0,,,,
631.1839996,2465,19.31958053,-37.65769226,-129.8840064,0,-190.1903041,0.003355685,-177.6043751,-0.624218981,24.01131694,-6.703271499,160.063637,0,-41.00790462,-0.88703506,0,0,,,,
631.1919996,2465,-26.58016754,-33.80030787,124.6545802,0,-31.46559366,0.003364594,182.2853084,-0.60744831,15.96570389,-86.80764613,-307.6766069,0,-62.68516034,-0.872989651,0,0,,,,
631.1999996,2465,1.576976801,-47.43023621,217.1981796,0,196.4410407,0.003373385,178.7606391,-0.590726697,-23.39724515,142.5783435,354.5621629,0,70.23762909,-0.858976143,0,0,,,,
631.2079996,2465,22.1965625,-38.96517292,-306.3330119,0,-398.3713312,0.003382057,-309.4710791,-0.574054374,58.33776962,-132.4290162,-93.68218457,0,-100.7117598,-0.844994765,0,0,,,,
631.2159996,2465,-36.66340971,-51.69640383,193.4325744,0,87.51984458,0.00339061,235.9266898,-0.557431574,2.10722603,-21.02367154,-146.030871,0,-12.26883383,-0.831045747,0,0,,,,
631.2239996,2465,24.14991509,-54.29749962,-56.72088897,0,-8.690106091,0.003399045,-123.5675621,-0.540858526,-6.582727907,103.7483086,483.958402,0,31.86960719,-0.817129317,0,0,,,,
631.2319996,2465,38.66444237,-28.39930633,-433.4158065,0,-485.9722834,0.003407362,-435.7091292,-0.524335457,69.8329177,-166.3728649,-86.43790215,0,-119.2170504,-0.8032457,0,0,,,,
631.2399996,2465,5.794528478,-39.35462932,-112.9579248,0,-164.5400307,0.003415561,-105.56155,-0.507862592,33.01384848,-64.14728309,-26.44420916,0,-42.8235299,-0.789395122,0,0,,,,
631.2479996,2465,33.38794923,-38.31610742,-293.2210697,0,-302.1697725,0.003423642,-322.9806899,-0.491440153,39.60375697,-59.35770009,147.0705739,0,-59.51833292,-0.775577805,0,0,,,,
631.2559996,2465,0.066326586,-27.86907014,-68.06594581,0,-152.5072378,0.003431607,-40.12013122,-0.475068363,32.77468361,-99.99747367,-181.2794821,0,-56.83971234,-0.76179397,0,0,,,,
631.2639996,2465,-7.655788789,-32.22864187,203.2622087,0,163.2564352,0.003439453,197.0558335,-0.45874744,-12.73295445,43.93086267,67.96812031,0,39.60080047,-0.748043836,0,0,,,,
631.2719996,2465,27.00169101,-30.79586434,-96.27595916,0,-100.5838609,0.003447183,-125.9043524,-0.4424776,19.30206824,-11.08448556,142.249929,0,-2.471413338,-0.73432762,0,0,,,,
631.2799996,2465,-4.325750474,-28.06079259,-10.73554254,0,-62.39688409,0.003454797,22.3584575,-0.426259057,25.55064286,-70.08195304,-131.0099516,0,-21.6280632,-0.720645539,0,0,,,,
631.2879996,2465,-3.114754637,-28.8948715,120.4068651,0,120.6729378,0.003462294,112.4148173,-0.410092024,-2.477545794,47.57748555,142.3155772,0,43.68360602,-0.706997807,0,0,,,,
631.2959996,2466,11.13585404,-32.23457584,-114.6832342,0,-118.2699716,0.003469675,-117.5516107,-0.393976712,33.98517928,-44.90707354,53.72152843,0,-7.162889768,-0.693384636,0,0,,,,
631.3039996,2466,-19.53482649,-30.06201784,70.8933542,0,29.12858288,0.00347694,119.6749156,-0.377913328,19.48093939,-59.78220039,-140.3535032,0,10.43133888,-0.679806237,0,0,,,,
631.3119996,2466,5.129819555,-23.98738511,41.64891488,0,85.7417406,0.003484089,34.80465065,-0.361902079,-9.234814725,44.5209885,222.104752,0,56.15492358,-0.666262819,0,0,,,,
631.3199996,2466,2.300832401,-19.03735632,-118.3118238,0,-133.5908146,0.003491124,-67.46234491,-0.345943168,27.38449194,-96.93327949,-124.3263153,0,-21.83696075,-0.65275459,0,0,,,,
631.3279996,2466,-11.12748351,-35.75789937,151.5688574,0,147.5240233,0.003498043,177.3790565,-0.330036797,6.15646687,33.87193962,45.42282181,0,76.65625029,-0.639281755,0,0,,,,
631.3359996,2466,9.008985138,-45.33997314,-96.24961913,0,-53.3348948,0.003504847,-103.1063329,-0.314183166,24.13140822,-7.536376627,145.5291187,0,30.50360678,-0.625844519,0,0,,,,
631.3439996,2466,-19.44683786,-36.77134888,25.54886949,0,8.679794907,0.003511537,94.60527644,-0.298382473,20.43261119,-90.96882981,-213.0019674,0,-12.48968772,-0.612443083,0,0,,,,
631.3519996,2466,6.932971924,-37.21348534,84.11533458,0,149.5623798,0.003518112,66.86367534,-0.282634912,-10.11282879,74.94187242,253.7542387,0,77.62894571,-0.59907765,0,0,,,,
631.3599996,2466,1.957614663,-26.36325043,-169.9203931,0,-174.6465627,0.003524574,-143.0130873,-0.266940678,34.31470114,-111.2500275,-131.2046493,0,-29.51040972,-0.585748416,0,0,,,,
631.3679996,2466,-11.93824807,-21.56909153,166.3897284,0,167.0937058,0.003530922,187.6073648,-0.251299962,4.187033682,19.26201356,4.866617424,0,77.77698233,-0.572455581,0,0,,,,
631.3759996,2466,18.89013648,-25.91562279,-90.75728998,0,-30.54471616,0.003537156,-115.7449494,-0.235712953,22.27588538,7.845804942,196.1432143,0,57.2507298,-0.55919934,0,0,,,,
631.3839996,2466,-31.43350066,-39.36040281,1.531069951,0,-7.377232411,0.003543278,63.34261293,-0.220179838,16.51413854,-113.4925345,-244.5996382,0,-7.016195681,-0.545979886,0,0,,,,
631.3919996,2466,-2.66664067,-38.54185894,112.2077713,0,197.6370445,0.003549286,90.47484637,-0.204700802,-18.43218387,79.34397344,265.9189794,0,107.3804943,-0.532797412,0,0,,,,
631.3999996,2466,8.258628734,-27.2628648,-184.4277011,0,-167.4804945,0.003555182,-163.0259538,-0.189276029,43.67831709,-110.6372586,-113.0524543,0,-0.490172218,-0.519652109,0,0,,,,
631.4079996,2466,-16.3589776,-47.04676991,157.7256665,0,175.3723269,0.003560965,179.1781041,-0.173905699,2.392581906,5.565312808,-10.16872968,0,85.44537263,-0.506544166,0,0,,,,
631.4159996,2466,27.277942,-38.29403274,-94.29911163,0,-27.87244455,0.003566637,-126.9024295,-0.158589991,17.097856,9.201128351,208.6889266,0,68.17440887,-0.49347377,0,0,,,,
631.4239996,2466,-11.31782016,-38.69977406,-12.63867457,0,-34.44889053,0.003572197,40.81828067,-0.143329082,36.41852093,-107.6300952,-249.3322531,0,11.55194707,-0.480441106,0,0,,,,
631.4319996,2466,4.583080359,-51.59433561,117.6270608,0,205.2293654,0.003577645,96.08433085,-0.128123147,-1.372261264,90.57040097,273.9877421,0,132.2659752,-0.467446359,0,0,,,,
631.4399996,2466,3.845532904,-44.20402694,-193.6801457,0,-149.8126218,0.003582982,-161.1289489,-0.112972358,34.11038065,-113.4208893,-101.2558902,0,4.702947567,-0.454489711,0,0,,,,
631.4479996,2466,-27.71774369,-67.06154518,150.1367096,0,199.8123631,0.003588208,186.0962955,-0.097876886,-16.41421781,-8.410582553,-22.63665094,0,73.64812254,-0.441571343,0,0,,,,
631.4559996,2466,20.3939418,-57.29260307,-91.33698027,0,8.109248324,0.003593324,-119.6568909,-0.0828369,10.82346007,2.544257515,209.6499441,0,80.701078,-0.428691433,0,0,,,,
631.4639996,2466,-15.69145203,-56.84095247,-22.36414423,0,-20.45581075,0.00359833,31.92641938,-0.067852566,32.79176307,-124.7993822,-261.2695281,0,23.18116804,-0.41585016,0,0,,,,
631.4719996,2466,-1.038483233,-71.2974265,115.0139182,0,209.4521625,0.003603225,93.51806132,-0.052924048,-12.1360638,75.51188787,258.4969041,0,126.2944359,-0.403047698,0,0,,,,
631.4799996,2466,7.78986096,-49.63754794,-195.0592166,0,-162.9528852,0.003608011,-172.1252002,-0.03805151,37.83705575,-110.2732983,-104.5647652,0,20.49057209,-0.390284223,0,0,,,,
631.4879996,2466,-29.09672996,-71.83579053,150.7886158,0,185.6051718,0.003612687,179.9771382,-0.023235112,-2.673636144,-1.88278238,-28.37285862,0,104.1768461,-0.377559905,0,0,,,,
631.4959996,2466,16.98835457,-63.44068037,-84.24501895,0,28.85244093,0.003617255,-107.9718696,-0.008475011,6.575694788,5.785032685,228.8742014,0,94.52859712,-0.364874916,0,0,,,,
631.5039996,2466,-11.87303666,-51.32826463,-23.08023055,0,7.858980189,0.003621713,32.68373924,0.006228635,32.10105658,-120.2985958,-247.7579439,0,42.00997014,-0.352229426,0,0,,,,
631.5119996,2466,-7.467657439,-78.37934129,115.7056363,0,242.8169309,0.003626063,94.99733819,0.020875673,-3.840105291,82.16762532,263.9453417,0,156.0395689,-0.339623601,0,0,,,,
631.5199996,2466,13.55623809,-52.08830354,-193.8033119,0,-122.3706148,0.003630305,-158.8438104,0.035465949,36.54365611,-113.9461572,-93.99468042,0,31.67118078,-0.327057607,0,0,,,,
631.5279996,2466,-9.899977037,-55.69306729,161.1324636,0,229.2800643,0.003634439,194.6962577,0.049999314,5.332217178,3.967537137,-26.41587402,0,124.6504949,-0.314531609,0,0,,,,
631.5359996,2466,17.1637521,-68.53801621,-84.31509187,0,51.23612718,0.003638465,-118.0408173,0.06447562,25.90652573,26.12915191,240.2680316,0,128.8592762,-0.302045769,0,0,,,,
631.5439996,2466,-6.618297437,-59.02748317,-37.13852082,0,-6.96989731,0.003642385,18.47150013,0.07889472,43.20758647,-118.1088746,-257.3543605,0,58.93758692,-0.289600248,0,0,,,,
631.5519996,2467,14.81317751,-66.26153066,124.765907,0,237.0989624,0.003646197,105.4049913,0.093256469,4.203509904,88.80076059,257.6932553,0,178.730886,-0.277195205,0,0,,,,
631.5599996,2467,11.70790968,-58.23404764,-196.6019244,0,-127.0521906,0.003649903,-163.6185434,0.107560727,44.02597756,-103.5004091,-83.09547801,0,63.16945175,-0.264830798,0,0,,,,
631.5679996,2467,-23.9035286,-67.22343135,151.9230635,0,227.3741857,0.003653502,196.2061428,0.121807351,-1.775451813,-2.966619609,-36.73209334,0,139.3828796,-0.252507183,0,0,,,,
631.5759996,2467,26.28411913,-53.23819964,-77.59733368,0,73.60597881,0.003656996,-95.19138421,0.135996205,21.10884128,28.87526388,248.7489402,0,131.4588257,-0.240224514,0,0,,,,
631.5839996,2467,1.761304748,-38.94349519,-44.42309747,0,12.26305517,0.003660383,27.50829917,0.150127151,48.87244211,-112.0809522,-250.2076061,0,53.71316402,-0.227982944,0,0,,,,
631.5919996,2467,11.29209551,-57.87484829,119.3454624,0,250.5267696,0.003663666,105.1223522,0.164200055,4.726717436,93.82260887,252.6416313,0,149.5500592,-0.215782624,0,0,,,,
631.5999996,2467,18.04081936,-46.07215439,-196.5598879,0,-127.0590325,0.003666843,-169.9995625,0.178214786,55.48425654,-87.57179032,-76.64690086,0,-6.879502728,-0.203623703,0,0,,,,
631.6079996,2467,-6.447226089,-45.93688111,158.7367694,0,222.5495541,0.003669916,202.4524373,0.192171212,12.5868965,18.69055826,-38.73532104,0,30.48720459,-0.19150633,0,0,,,,
631.6159996,2467,38.01560072,-37.58997134,-68.09223969,0,61.38789745,0.003672884,-89.12580842,0.206069206,16.88837951,53.16176102,256.7599968,0,-13.23615823,-0.179430651,0,0,,,,
631.6239996,2467,5.878209526,-16.67717865,-35.2820122,0,-7.862838808,0.003675748,30.19690145,0.21990864,44.28506374,-93.18193244,-244.0914768,0,-124.2588581,-0.16739681,0,0,,,,
631.6319996,2467,12.80027291,-33.3840003,153.7718575,0,284.7322036,0.003678509,141.7209425,0.233689391,-1.238417155,115.1321787,267.8537414,0,-26.39955725,-0.155404951,0,0,,,,
631.6399996,2467,13.10733121,-40.21235822,-179.6568559,0,-83.89738049,0.003681166,-148.7227486,0.247411336,44.95298957,-73.19290172,-53.07637462,0,-165.7968475,-0.143455214,0,0,,,,
631.6479996,2467,-14.08092845,-36.71253781,163.0257218,0,241.3842458,0.00368372,207.8455669,0.261074354,12.80187853,24.30155388,-38.44495238,0,-103.2465234,-0.13154774,0,0,,,,
631.6559996,2467,23.53732371,-28.84124986,-53.14358246,0,101.9781268,0.003686172,-69.68126632,0.274678327,14.86382782,67.84815348,273.7636921,0,-97.90197754,-0.119682667,0,0,,,,
631.6639996,2467,-14.71433754,-31.28655992,-39.73962371,0,28.0459296,0.003688521,36.99417371,0.288223138,30.03946814,-90.29946243,-242.0655333,0,-181.8319858,-0.107860131,0,0,,,,
631.6719996,2467,4.643610322,-48.65126346,153.2103641,0,308.1183831,0.003690768,147.216588,0.301708673,-11.24257498,117.4808175,257.3280248,0,-51.70844057,-0.096080268,0,0,,,,
631.6799996,2467,12.62016683,-38.38098632,-189.1115923,0,-80.45187582,0.003692913,-152.4574681,0.315134818,36.14492203,-68.15830388,-51.66654588,0,-157.7762989,-0.084343211,0,0,,,,
631.6879996,2467,-16.41524377,-42.57476268,151.3345019,0,247.5045607,0.003694956,209.4422049,0.328501463,-0.141584968,14.5153928,-60.49338211,0,-88.93961027,-0.072649092,0,0,,,,
631.6959996,2467,31.80027543,-50.78425618,-46.3952179,0,131.7493392,0.003696899,-60.07976061,0.341808499,16.80111399,68.76196141,276.6813847,0,-58.6454597,-0.060998041,0,0,,,,
631.7039996,2467,-13.71150972,-53.32028665,-50.11454076,0,37.33015646,0.003698741,32.40614161,0.355055819,39.42215887,-93.59548425,-238.456792,0,-138.3174544,-0.049390187,0,0,,,,
631.7119996,2467,-10.42976702,-62.41160675,144.2021513,0,318.8891865,0.003700483,149.2458395,0.368243317,-15.11038849,100.9563187,239.328657,0,-30.27381341,-0.037825656,0,0,,,,
631.7199996,2467,13.72847066,-42.61002836,-192.4707204,0,-76.21883054,0.003702124,-164.4249676,0.381370892,34.04411704,-73.09467559,-55.34571323,0,-135.4453437,-0.026304575,0,0,,,,
631.7279996,2467,-16.26898092,-43.09609075,143.8773713,0,231.1040038,0.003703666,195.2358466,0.39443844,-2.902912358,12.99060979,-70.39471437,0,-68.18519695,-0.014827067,0,0,,,,
631.7359996,2467,25.70619641,-44.46696957,-49.85024019,0,125.3340467,0.003705109,-67.27526461,0.407445864,-1.002030345,61.14808605,272.3776785,0,-51.6350003,-0.003393255,0,0,,,,
631.7439996,2467,2.842969506,-40.23857289,-55.18496299,0,18.58094332,0.003706452,9.413788926,0.420393065,35.43214473,-90.76080827,-247.8184053,0,-120.6357514,0.007996741,0,0,,,,
631.7519996,2467,3.154074215,-55.1478286,152.8420699,0,311.6939866,0.003707697,142.8489303,0.433279949,-15.07137571,118.8593922,238.9441218,0,2.253371941,0.019342802,0,0,,,,
631.7599996,2467,13.48812744,-45.36170623,-180.2774699,0,-34.68146146,0.003708843,-155.4744388,0.44610642,18.98468621,-73.1481781,-35.1502985,0,-119.9652315,0.030644809,0,0,,,,
631.7679996,2467,-9.428761678,-43.85172999,149.291717,0,277.903093,0.003709892,195.3563771,0.458872388,-1.940456075,11.07857408,-60.40273872,0,-53.30442599,0.041902647,0,0,,,,
631.7759996,2467,28.79167687,-40.50732009,-52.87256721,0,125.126433,0.003710843,-81.50150868,0.471577763,8.291359569,72.43497757,289.067325,0,-24.41478034,0.0531162,0,0,,,,
631.7839996,2467,1.939705131,-33.84060036,-54.91340478,0,9.554864167,0.003711697,12.6623379,0.484222456,38.39493018,-101.5721124,-244.6746461,0,-100.5782801,0.064285358,0,0,,,,
631.7919996,2467,12.85781482,-53.53212537,173.876401,0,329.4866906,0.003712453,171.8143557,0.496806382,1.352024441,118.6295423,248.6459961,0,33.98418652,0.075410007,0,0,,,,
631.7999996,2467,15.67887867,-65.96775215,-181.413039,0,-53.3859483,0.003713114,-153.5044666,0.509329456,41.80444067,-63.23777081,-15.90346836,0,-83.33415431,0.086490038,0,0,,,,
631.8079996,2468,-18.3015893,-65.85306622,147.0768852,0,256.5817135,0.003713677,206.0260058,0.521791596,3.716032348,0.89947271,-77.32279309,0,-33.56239068,0.097525342,0,0,,,,
631.8159996,2468,16.25789636,-63.50319425,-38.7749516,0,147.54447,0.003714146,-62.66551678,0.53419272,-0.340887695,74.00473284,290.5332759,0,-11.77009278,0.108515814,0,0,,,,
631.8239996,2468,-22.00356797,-71.19103023,-66.40507266,0,20.2199588,0.003714518,-4.136149267,0.546532751,21.60576737,-110.2213346,-241.7096757,0,-106.5281862,0.119461347,0,0,,,,
631.8319996,2468,4.123644194,-57.45400783,172.8155721,0,340.3600903,0.003714796,165.0970564,0.558811612,-13.35450152,106.5865609,236.4060333,0,26.67633768,0.130361838,0,0,,,,
631.8399996,2468,21.08119682,-43.687875,-179.5107401,0,-49.09099263,0.003714978,-160.7150689,0.571029227,37.62527845,-48.86990478,-12.05237858,0,-68.38510316,0.141217184,0,0,,,,
631.8479996,2468,-30.84147083,-70.1080295,133.0596947,0,241.5612785,0.003715067,196.7498856,0.583185523,-5.928269301,1.759921289,-90.90150252,0,-24.93259901,0.152027287,0,0,,,,
631.8559996,2468,6.98834779,-70.66012749,-46.77616478,0,144.8682891,0.003715061,-59.06030696,0.595280429,-12.03895359,69.92682669,284.8800825,0,-13.10513074,0.162792044,0,0,,,,
631.8639996,2468,-20.31623187,-70.49779093,-81.03471433,0,20.38394543,0.003714961,-11.29472215,0.607313874,16.93136763,-105.8379369,-246.2385883,0,-101.629652,0.173511361,0,0,,,,
631.8719996,2468,-8.415062373,-86.86773346,167.7550612,0,358.7063656,0.003714768,160.7879072,0.619285793,-26.792225,101.1339956,222.6952515,0,30.86495672,0.18418514,0,0,,,,
631.8799996,2468,-0.500054593,-85.41716919,-184.1720485,0,-17.57649464,0.003714482,-177.8253471,0.631196118,15.93389221,-64.05596042,-15.44908189,0,-76.80293209,0.194813287,0,0,,,,
631.8879996,2468,-31.07176909,-81.7912716,128.1253384,0,262.3557696,0.003714104,175.2952391,0.643044785,-12.23845938,-7.677845669,-105.2757031,0,-30.24847606,0.205395709,0,0,,,,
631.8959996,2468,35.7331163,-57.66741944,-38.47233095,0,148.5557705,0.003713633,-70.54193297,0.654831732,-2.087048813,79.59543051,287.3005463,0,5.013931808,0.215932314,0,0,,,,
631.9039996,2468,1.539210867,-63.20955751,-85.91382492,0,-5.097782661,0.003713071,-28.47027222,0.666556898,26.32760161,-102.4597922,-252.8488127,0,-86.11776906,0.226423013,0,0,,,,
631.9119996,2468,0.620414856,-88.79714922,175.0496002,0,345.6256493,0.003712416,168.6908385,0.678220226,-18.01158458,100.5565041,213.8647984,0,39.74911894,0.236867716,0,0,,,,
631.9199996,2468,20.71720351,-73.33522302,-166.077494,0,-18.51640306,0.003711671,-157.3685307,0.689821657,28.43534199,-57.32176973,9.633214586,0,-55.83745685,0.247266337,0,0,,,,
631.9279996,2468,-14.35619339,-63.12747836,139.9735618,0,249.6110978,0.003710835,180.7121468,0.701361136,-2.060728428,-7.915137694,-99.7166448,0,-6.03234939,0.257618791,0,0,,,,
631.9359996,2468,31.98646707,-48.56734259,-28.05663384,0,139.9139031,0.003709908,-82.16266887,0.712838611,0.575324155,77.36601081,295.2602105,0,27.13170003,0.267924993,0,0,,,,
631.9439996,2468,-10.08717798,-55.45495691,-90.96165117,0,-14.6785565,0.003708892,-45.1403041,0.724254029,16.19048044,-114.5347155,-247.9379873,0,-80.9548151,0.278184861,0,0,,,,
631.9519996,2468,-3.665743452,-73.63061766,171.8909557,0,335.5910941,0.003707786,162.44596,0.735607341,-36.10943147,90.59881195,201.6778412,0,36.92229627,0.288398314,0,0,,,,
631.9599996,2468,25.81381432,-61.749857,-180.2096826,0,-58.3016924,0.00370659,-187.8686468,0.746898498,26.11246101,-58.40030996,5.51455918,0,-44.09992398,0.298565272,0,0,,,,
631.9679996,2468,-16.40791106,-75.29028558,128.4021718,0,222.7614976,0.003705306,168.9185388,0.758127455,-1.652176672,-19.92812399,-112.3092478,0,12.74199483,0.308685657,0,0,,,,
631.9759996,2468,23.88393974,-71.75360868,-19.46129094,0,165.225105,0.003703933,-61.4177949,0.769294166,-9.778198234,69.55629119,306.7050364,0,45.41944399,0.318759393,0,0,,,,
631.9839996,2468,-15.22539673,-63.69847994,-91.70870086,0,-12.71561451,0.003702472,-55.42664347,0.780398588,19.66968399,-116.4386484,-234.3072275,0,-61.25711669,0.328786405,0,0,,,,
631.9919996,2468,-12.18707142,-73.24940638,183.7374053,0,342.6744834,0.003700923,161.238643,0.791440681,-35.28691801,89.53730508,206.485797,0,70.18550966,0.338766618,0,0,,,,
631.9999996,2468,12.8523453,-74.30876368,-176.261387,0,-37.37861068,0.003699286,-185.4208853,0.802420405,9.667094407,-61.77638147,20.36319195,0,-17.85791404,0.34869996,0,0,,,,
632.0079996,2468,-18.57777318,-89.52472864,123.6763251,0,213.2649603,0.003697563,153.3942722,0.813337723,-2.419875009,-22.35960557,-118.155221,0,29.66645754,0.358586362,0,0,,,,
632.0159996,2468,40.39258233,-75.5117993,-9.981445686,0,140.8691311,0.003695753,-70.68383848,0.824192598,11.77201236,88.47507679,317.921072,0,91.49729107,0.368425754,0,0,,,,
632.0239996,2468,-11.49980091,-88.30150118,-108.310052,0,-62.56730194,0.003693856,-66.26792502,0.834984996,35.14754039,-111.9577193,-234.1317805,0,-16.90400707,0.378218066,0,0,,,,
632.0319996,2468,-25.27001188,-117.0019818,169.1685562,0,303.620438,0.003691874,171.639135,0.845714885,-35.22193884,75.13886327,182.5361819,0,87.21280081,0.387963235,0,0,,,,
632.0399996,2468,13.17367611,-97.98031233,-181.1629895,0,-63.59786363,0.003689806,-171.8863499,0.856382234,14.60429461,-59.32079457,23.60188496,0,0.928912483,0.397661194,0,0,,,,
632.0479996,2468,-24.48658917,-106.0366481,102.6007704,0,161.253488,0.003687653,155.0981456,0.866987013,-3.746076935,-30.08449063,-129.354589,0,48.55285042,0.407311879,0,0,,,,
632.0559996,2468,25.10001522,-104.6018467,-20.53084175,0,91.58221502,0.003685415,-60.20328435,0.877529196,-6.653719707,63.28877154,302.3807418,0,97.57676811,0.41691523,0,0,,,,
632.0639996,2469,-5.989981706,-116.4678914,-98.99968531,0,-101.1006115,0.003683093,-61.27010888,0.888008755,33.98608406,-118.6204588,-232.0975378,0,-0.411596973,0.426471185,0,0,,,,
632.0719996,2469,-12.37373839,-133.8490261,199.9976169,0,290.9676521,0.003680686,176.7984182,0.898425669,-28.13889951,88.87007819,202.0465357,0,128.8550348,0.435979685,0,0,,,,
632.0799996,2469,17.65384032,-101.1718435,-155.4659772,0,-66.14725245,0.003678196,-172.2849674,0.908779913,17.30902629,-60.80923858,51.19538873,0,32.19575511,0.445440672,0,0,,,,
632.0879996,2469,-23.21775988,-113.8963762,120.1998725,0,153.2637515,0.003675623,155.3725516,0.919071467,10.18442885,-36.94490472,-126.4643816,0,73.30760369,0.45485409,0,0,,,,
632.0959996,2469,22.80195804,-117.8423935,-1.129920832,0,99.70758933,0.003672967,-64.50025218,0.929300313,3.770787529,74.1715555,318.2562785,0,136.9144054,0.464219884,0,0,,,,
632.1039996,2469,-15.54781269,-113.7780868,-106.3979748,0,-98.03829237,0.003670229,-85.1308838,0.939466432,28.34674308,-124.603962,-222.4228333,0,14.82211742,0.473538001,0,0,,,,
632.1119996,2469,-18.52446485,-130.0483676,187.734337,0,281.3566321,0.003667408,161.3590304,0.949569809,-33.93994404,76.17869299,191.2489261,0,130.0359071,0.482808388,0,0,,,,
632.1199996,2469,21.87321668,-118.6955536,-170.154646,0,-120.4081922,0.003664506,-205.7941014,0.959610429,32.9160584,-58.99613382,44.78522209,0,57.01173656,0.492030994,0,0,,,,
632.1279996,2469,-33.71297693,-137.3831353,108.2614746,0,100.9023117,0.003661522,133.4615145,0.969588281,12.31050582,-45.34700467,-150.7887019,0,94.61820507,0.501205771,0,0,,,,
632.1359996,2469,13.35014453,-119.7722574,7.040588655,0,98.83585082,0.003658458,-42.27500004,0.979503353,-15.03785982,72.41976828,315.7342889,0,145.8407889,0.51033267,0,0,,,,
632.1439996,2469,-5.826585966,-110.0079683,-112.85761,0,-137.2236073,0.003655313,-80.69693496,0.989355636,40.99573982,-116.3212924,-223.0916539,0,38.19151514,0.519411645,0,0,,,,
632.1519996,2469,-23.52692269,-141.0169353,175.7251147,0,224.3685977,0.003652087,156.209431,0.999145123,-23.96278631,77.78870408,168.0640888,0,152.2339032,0.528442651,0,0,,,,
632.1599996,2469,19.89165742,-106.2151802,-177.249344,0,-150.2583401,0.003648782,-207.3765656,1.008871807,16.48795574,-55.38589898,41.82241302,0,48.08396542,0.537425644,0,0,,,,
632.1679996,2469,-24.9929268,-116.779019,113.5647037,0,84.71457066,0.003645398,136.1566912,1.018535684,15.54775396,-44.00315918,-155.2520191,0,85.33320641,0.546360581,0,0,,,,
632.1759996,2469,-2.398275178,-146.8313801,21.20470958,0,113.3242335,0.003641934,-35.11981364,1.028136751,-12.75615603,66.44598545,318.2575292,0,163.9871772,0.555247422,0,0,,,,
632.1839996,2469,-11.58721042,-126.7013391,-114.3021057,0,-114.5087684,0.003638392,-83.15951096,1.037675008,23.6719997,-135.4490047,-221.3230123,0,51.02938618,0.564086127,0,0,,,,
632.1919996,2469,-12.26373243,-140.7442717,185.4335153,0,244.3339936,0.003634772,168.6081819,1.047150454,-18.61542134,64.9687929,163.8285164,0,170.6910461,0.572876657,0,0,,,,
632.1999996,2469,1.424760557,-152.0942267,-176.9445613,0,-127.4301213,0.003631074,-195.3620339,1.056563091,26.03951615,-60.36887937,44.98210661,0,79.90948275,0.581618976,0,0,,,,
632.2079996,2469,-36.3173311,-138.8614811,92.50888278,0,96.29355365,0.003627299,132.5461607,1.065912923,2.121147543,-57.66681344,-177.7093256,0,93.67242663,0.590313049,0,0,,,,
632.2159996,2469,8.531771211,-126.4375135,5.13357417,0,93.99307524,0.003623446,-46.7234572,1.075199955,-14.47037441,68.34404351,302.5745711,0,167.5154471,0.59895884,0,0,,,,
632.2239996,2469,-19.4361483,-124.828026,-132.7493026,0,-142.4221508,0.003619517,-101.8441964,1.084424194,28.56191367,-134.6625335,-232.1449201,0,59.97848254,0.607556318,0,0,,,,
632.2319996,2469,-8.445860491,-115.7804326,185.7250109,0,242.2440835,0.003615512,162.4993386,1.093585647,-19.85099947,65.43312973,156.0742285,0,182.86662,0.616105451,0,0,,,,
632.2399996,2469,27.07556617,-102.0965729,-176.8450544,0,-161.8024997,0.00361143,-205.6003765,1.102684326,33.09425943,-46.63923369,58.88893142,0,107.8970497,0.624606207,0,0,,,,
632.2479996,2469,-29.43510202,-122.659999,84.81641284,0,35.11429907,0.003607274,124.8272285,1.11172024,7.880533099,-54.50798466,-190.0555867,0,108.7473641,0.63305856,0,0,,,,
632.2559996,2469,12.35870634,-124.5436337,19.01826622,0,64.43464313,0.003603042,-39.0575452,1.120693404,-12.61398076,75.5749902,304.881956,0,148.5252566,0.641462481,0,0,,,,
632.2639996,2469,-13.12689132,-121.0382244,-130.7722443,0,-192.0509043,0.003598735,-110.2279829,1.12960383,35.11682142,-126.0006782,-221.782503,0,11.38441486,0.649817944,0,0,,,,
632.2719996,2469,-23.14759198,-125.5457289,190.1640236,0,193.9664198,0.003594355,159.674222,1.138451536,-24.21596825,75.85377109,138.9601034,0,93.1628637,0.658124924,0,0,,,,
632.2799996,2469,19.20801853,-100.059271,-156.3513363,0,-163.8538463,0.0035899,-207.3984036,1.147236539,19.63843442,-23.75938562,68.10405042,0,-27.98524961,0.666383398,0,0,,,,
632.2879996,2469,-18.73771883,-106.9251382,100.0914175,0,34.08720244,0.003585372,113.3954982,1.155958857,13.11600973,-34.82578951,-180.5216508,0,-53.71510775,0.674593343,0,0,,,,
632.2959996,2469,24.11168859,-115.4829046,38.78879244,0,65.47699069,0.003580771,-37.07274535,1.164618512,-4.957664714,101.6519411,314.4493825,0,-19.91068198,0.68275474,0,0,,,,
632.3039996,2469,-6.661895984,-110.7040027,-121.4099291,0,-187.3062829,0.003576097,-108.757416,1.173215525,31.00233584,-101.9043608,-209.2518293,0,-157.6347406,0.690867567,0,0,,,,
632.3119996,2469,-27.48743279,-113.6819511,201.0637852,0,208.3369199,0.003571351,177.8136286,1.181749919,-28.13508252,87.74817669,136.9364824,0,-63.15864365,0.698931806,0,0,,,,
632.3199996,2470,12.03798283,-95.0835012,-152.5857262,0,-149.1309014,0.003566533,-186.5350673,1.19022172,10.6312525,-16.70760801,73.88468433,0,-148.3900773,0.706947442,0,0,,,,
632.3279996,2470,-28.47047731,-100.4020085,80.61614888,0,26.29647862,0.003561643,126.3114431,1.198630954,1.491876464,-34.07846007,-197.7948511,0,-138.5334359,0.714914457,0,0,,,,
632.3359996,2470,15.08153401,-87.96817611,23.57744087,0,50.15172789,0.003556682,-18.86831533,1.206977649,-11.86269201,106.791944,293.6711204,0,-72.21674152,0.722832838,0,0,,,,
632.3439996,2470,-23.06395329,-85.67906745,-132.6853083,0,-245.7805326,0.003551651,-65.87350103,1.215261834,31.55492272,-165.7205332,-419.0642117,0,-208.560748,0.730702572,0,0,,,,
632.3519996,2470,-74.76989059,-126.5976401,405.7726098,0,352.181793,0.003546549,477.5122389,1.223483541,-47.54221465,34.75166634,-186.3896192,0,-66.64207193,0.738523646,0,0,,,,
632.3599996,2470,-22.36892899,-111.8738603,164.8086014,0,173.7918605,0.003541378,165.5380617,1.231642801,-31.70130206,75.25070738,125.8214442,0,-65.88513609,0.74629605,0,0,,,,
632.3679996,2470,-18.14954601,-89.16402421,27.4201674,0,-21.09238359,0.003536137,58.6781576,1.239739648,-9.313147379,-41.98997271,-131.1677443,0,-131.7082843,0.754019775,0,0,,,,
632.3759996,2470,25.30277936,-73.59032583,-40.33047858,0,-20.89075027,0.003530826,-74.75798258,1.247774119,-12.44835029,49.21557792,210.3104526,0,-81.22726962,0.761694813,0,0,,,,
632.3839996,2470,-3.928308754,-66.93662694,-49.60981355,0,-117.0416608,0.003525447,-29.36188337,1.255746248,29.38306308,-51.12554568,-145.3821116,0,-108.8433308,0.769321157,0,0,,,,
632.3919996,2470,-30.50074846,-85.08957329,115.3862594,0,91.21762339,0.00352,109.0546795,1.263656075,-11.0035682,60.79205679,97.31189852,0,-41.17215169,0.7768988,0,0,,,,
632.3999996,2470,-1.086242371,-71.18172872,-154.0771163,0,-171.5957693,0.003514485,-166.3083753,1.271503638,5.542368709,-32.61602536,56.01754372,0,-113.7013659,0.78442774,0,0,,,,
632.4079996,2470,-31.7442421,-72.89044557,90.26176528,0,16.01053119,0.003508902,126.1336859,1.279288979,-4.832196031,-42.68384049,-177.5365803,0,-82.68499341,0.791907973,0,0,,,,
632.4159996,2470,-0.694439828,-75.71525183,9.75041347,0,24.70809003,0.003503252,-39.76822349,1.287012141,-18.702285,77.92669211,270.9621595,0,-19.67619363,0.799339497,0,0,,,,
632.4239996,2470,-10.634442,-57.96775111,-101.1769069,0,-164.3359505,0.003497536,-78.20924894,1.294673166,14.2805725,-94.57460633,-177.7874481,0,-117.0851132,0.806722312,0,0,,,,
632.4319996,2470,-4.552567806,-61.50114573,186.5369553,0,175.9429214,0.003491753,169.0913384,1.3022721,-21.10461893,70.61693913,121.775795,0,-5.475141615,0.814056418,0,0,,,,
632.4399996,2470,7.266410219,-62.54189025,-140.5934618,0,-147.6246878,0.003485904,-181.0379888,1.30980899,26.42801551,-16.47961581,101.6219724,0,-62.65458866,0.821341817,0,0,,,,
632.4479996,2470,-41.60909503,-57.76796281,70.05705408,0,-0.007254253,0.00347999,100.9287984,1.317283883,5.130692747,-62.79621219,-207.3664064,0,-74.34692883,0.828578513,0,0,,,,
632.4559996,2470,18.57828442,-44.08444304,42.42153742,0,61.44489949,0.003474011,-10.84325438,1.324696829,-15.69750346,90.06640228,291.7118857,0,7.524303695,0.835766509,0,0,,,,
632.4639996,2470,-7.057472398,-60.76381165,-126.2186828,0,-192.6996161,0.003467967,-102.2937408,1.332047878,35.08364445,-90.03126423,-180.2233753,0,-84.0120265,0.842905812,0,0,,,,
632.4719996,2470,-23.98779596,-84.50266984,189.102915,0,177.7427104,0.003461858,182.3726974,1.339337084,-17.76907892,76.19301832,109.8767015,0,12.74915993,0.849996427,0,0,,,,
632.4799996,2470,17.84232939,-64.34082246,-137.3863249,0,-139.4373497,0.003455686,-167.8635476,1.346564498,24.88342592,-10.0045097,117.9483197,0,-48.74442765,0.857038363,0,0,,,,
632.4879996,2470,-37.88839432,-61.37359453,64.15792836,0,5.736276784,0.00344945,115.0454386,1.353730175,5.538292163,-59.9256867,-204.9186835,0,-50.67144838,0.864031629,0,0,,,,
632.4959996,2470,9.991714024,-48.79932436,46.96095709,0,80.21240002,0.003443151,8.98412492,1.360834173,-19.95200946,99.16673571,310.7262311,0,25.95236903,0.870976236,0,0,,,,
632.5039996,2470,0.476958168,-41.34501088,-154.8539941,0,-222.1256082,0.003436789,-127.5802137,1.367876548,38.78553457,-96.54437792,-181.8605131,0,-83.36188167,0.877872194,0,0,,,,
632.5119996,2470,-26.64030504,-50.10170367,175.8288242,0,162.6262094,0.003430365,176.0123522,1.374857359,-20.55139101,72.20764238,91.05561668,0,22.51464861,0.884719518,0,0,,,,
632.5199996,2470,14.79508062,-32.47313532,-149.4373713,0,-147.9656941,0.003423879,-167.8743159,1.381776666,17.49374323,-5.451440504,115.5744869,0,-44.72720574,0.891518219,0,0,,,,
632.5279996,2470,-29.87553505,-45.27813531,53.77765221,0,-10.18634948,0.003417332,112.5506207,1.388634531,10.70722908,-54.43601772,-220.8880961,0,-55.01788598,0.898268314,0,0,,,,
632.5359996,2470,9.340097011,-38.88695772,47.56065031,0,74.06423274,0.003410724,7.501819301,1.395431017,-17.2001041,104.727315,298.7451528,0,32.57469729,0.904969819,0,0,,,,
632.5439996,2470,-12.92610331,-43.66365469,-173.2861858,0,-247.2695423,0.003404054,-141.6270571,1.402166187,28.74199528,-103.9239307,-196.78738,0,-84.92669228,0.911622751,0,0,,,,
632.5519996,2470,-39.37332775,-68.75039608,179.4732995,0,168.0311761,0.003397325,193.5819871,1.408840106,-35.56909221,62.62320487,75.50172364,0,16.01979768,0.918227129,0,0,,,,
632.5599996,2470,21.89800025,-23.24995471,-139.3085903,0,-139.1863057,0.003390535,-158.5931186,1.415452842,14.36799265,-5.186879159,128.0435382,0,-41.90165843,0.924782973,0,0,,,,
632.5679996,2470,-23.67901217,-27.75696716,48.22844105,0,-34.48932025,0.003383686,107.3772899,1.422004463,22.10634283,-53.75256207,-225.620463,0,-53.3262029,0.931290302,0,0,,,,
632.5759996,2471,7.302108588,-40.03152669,59.87936307,0,87.96397463,0.003376778,36.94056864,1.428495037,-18.14090567,104.4704886,300.6219704,0,29.14763591,0.93774914,0,0,,,,
632.5839996,2471,1.106372171,-23.09630712,-167.1326136,0,-231.0317139,0.003369812,-123.112756,1.434924636,25.42582629,-110.711116,-184.3684931,0,-94.43066248,0.94415951,0,0,,,,
632.5919996,2471,-26.29072723,-40.49075846,185.9402316,0,166.804408,0.003362787,201.7117157,1.44129333,-23.2718288,60.34557901,70.7014345,0,15.32101008,0.950521435,0,0,,,,
632.5999996,2471,30.25852142,-11.33012901,-137.3056093,0,-151.0967413,0.003355704,-160.9002219,1.447601194,23.81207281,-5.715405152,133.1165739,0,-33.30677155,0.956834941,0,0,,,,
632.6079996,2471,-7.483129063,-9.916054255,41.26452193,0,-69.75321729,0.003348563,95.83524912,1.4538483,28.94345189,-65.26441523,-236.8879607,0,-44.08555271,0.963100055,0,0,,,,
632.6159996,2471,7.169449849,-31.78510452,72.15027647,0,74.87661747,0.003341366,45.89249512,1.460034726,-8.519740183,105.6911171,297.2478179,0,56.92162309,0.969316804,0,0,,,,
632.6239996,2471,-7.769647942,-24.78575808,-165.7768497,0,-239.1114855,0.003334112,-123.9870598,1.466160547,23.19888311,-116.7734519,-176.0670754,0,-70.16830942,0.975485218,0,0,,,,
632.6319996,2471,-16.72206808,-26.30548501,192.9753167,0,158.768669,0.003326801,204.1895969,1.472225841,-28.26322179,52.7187145,66.9751308,0,31.10744516,0.981605325,0,0,,,,
632.6399996,2471,29.57912511,-8.791074378,-120.2822584,0,-130.9542412,0.003319435,-153.0191245,1.478230689,23.73454166,6.568156192,153.5516388,0,-1.657031991,0.987677157,0,0,,,,
632.6479996,2471,-27.10806679,-23.96781394,40.26252736,0,-39.33060644,0.003312013,94.69168753,1.48417517,15.1177508,-75.13220607,-231.2652111,0,-26.76019089,0.993700746,0,0,,,,
632.6559996,2471,9.647939123,-28.11438817,73.13753437,0,92.25243092,0.003304536,48.48908542,1.490059365,-16.27048172,97.92521153,293.0006888,0,64.53859067,0.999676125,0,0,,,,
632.6639996,2471,6.755813537,-14.96770397,-170.254165,0,-250.7132342,0.003297004,-130.7875713,1.495883359,39.98720673,-104.8189732,-172.5777939,0,-34.35392756,1.005603329,0,0,,,,
632.6719996,2471,-32.18209892,-39.06712479,191.1917069,0,151.5755717,0.003289418,205.1734808,1.501647234,-18.67265134,49.54031293,53.26511344,0,74.7723722,1.011482393,0,0,,,,
632.6799996,2471,5.241856019,-20.11955831,-124.5567356,0,-140.7848977,0.003281778,-167.2966603,1.507351077,22.60811808,-5.942323052,146.0108942,0,19.56587122,1.017313352,0,0,,,,
632.6879996,2471,-30.69420908,-18.06890749,29.42330637,0,-69.94624454,0.003274085,61.73693392,1.512994973,11.89804763,-86.79154316,-247.600512,0,-8.250653321,1.023096245,0,0,,,,
632.6959996,2471,7.545750284,-32.6434564,83.78698601,0,85.88128533,0.003266339,41.20800781,1.518579011,-19.76099372,95.96744505,289.3168184,0,97.2554728,1.028831111,0,0,,,,
632.7039996,2471,0.370615385,-17.60400705,-168.335595,0,-257.7571526,0.003258539,-145.5627061,1.524103278,53.84819671,-106.6245496,-161.3305175,0,-13.44560842,1.034517988,0,0,,,,
632.7119996,2471,-28.26475087,-27.84887648,185.1138893,0,133.061693,0.003250688,192.0473211,1.529567866,-5.145952626,43.28671578,50.54311237,0,89.71450714,1.040156918,0,0,,,,
632.7199996,2471,16.24111824,-16.67139527,-124.8353127,0,-153.2627949,0.003242785,-158.9530739,1.534972865,30.75642435,-4.641976872,156.1601695,0,50.73824792,1.045747942,0,0,,,,
632.7279996,2471,-27.49533848,-8.159391917,28.59653329,0,-84.64774109,0.00323483,73.33690562,1.540318368,31.42100034,-87.91847952,-250.816208,0,23.78491182,1.051291103,0,0,,,,
632.7359996,2471,8.119831976,-10.65981313,88.67215961,0,73.50555784,0.003226824,39.0953415,1.545604467,-10.74996927,99.70161481,285.1665364,0,121.2192901,1.056786445,0,0,,,,
632.7439996,2471,17.42485001,-1.646183439,-387.4897106,0,-513.730922,0.003218767,-381.0256091,1.550831258,75.53720733,-198.5951812,-269.8997222,0,-57.00008005,1.062234013,0,0,,,,
632.7519996,2471,-42.16878474,-19.67075536,29.01639466,0,-83.55587638,0.00321066,60.61989,1.555998837,12.54870507,-100.0322671,-234.7781383,0,29.25432303,1.067633852,0,0,,,,
632.7599996,2471,-10.70720324,-19.44147691,146.5851433,0,138.1836445,0.003202503,93.80407748,1.561107299,-23.95550564,96.83296844,288.3850722,0,141.091603,1.07298601,0,0,,,,
632.7679996,2471,4.022535108,1.063614029,-102.8232675,0,-193.1651421,0.003194297,-112.5455544,1.566156744,36.50300672,-68.697961,-81.17266834,0,48.29601345,1.078290535,0,0,,,,
632.7759996,2471,-13.82265475,-1.16728703,14.18757758,0,-69.48189711,0.003186041,1.593891807,1.57114727,18.38246737,-19.81225355,-22.51247003,0,80.0102167,1.083547475,0,0,,,,
632.7839996,2471,-17.37418829,-11.249696,70.36342629,0,11.8046781,0.003177737,33.35192975,1.576078977,-6.942410196,32.93850225,108.272461,0,101.3679657,1.08875688,0,0,,,,
632.7919996,2471,-4.658685584,-1.586386451,-90.30899238,0,-169.9817536,0.003169384,-113.7593239,1.580951967,17.19931664,-52.84669424,-16.07521704,0,52.9880411,1.093918802,0,0,,,,
632.7999996,2471,-22.014025,-5.921577639,57.2075116,0,-35.57429101,0.003160984,52.691914,1.585766341,4.290136004,-28.0790471,-62.48139545,0,82.46137696,1.099033292,0,0,,,,
632.8079996,2471,-1.998118301,-16.75219048,39.52489565,0,-15.83235481,0.003152536,-3.497652534,1.590522205,-11.5633656,34.92595679,153.1462518,0,112.5421214,1.104100404,0,0,,,,
632.8159996,2471,1.828090483,-8.334417723,-107.048032,0,-210.6217565,0.003144041,-114.3814722,1.595219661,39.20844835,-75.41138916,-85.18081746,0,49.5554549,1.109120191,0,0,,,,
632.8239996,2471,-19.75542802,-19.31634275,146.0990024,0,77.0065808,0.003135499,137.1213938,1.599858816,5.048635699,32.00800233,50.69089612,0,127.869583,1.114092708,0,0,,,,
632.8319996,2472,17.50398902,-9.7223131,-95.22842223,0,-139.5231968,0.003126911,-133.1879339,1.604439776,15.99800655,-3.43286639,136.0814056,0,99.70717195,1.119018012,0,0,,,,
632.8399996,2472,-15.56347236,-6.591279369,19.94915165,0,-95.84454533,0.003118276,42.13963597,1.60896265,26.02737263,-70.6487027,-185.36399,0,78.24156493,1.12389616,0,0,,,,
632.8479996,2472,-9.712473152,-16.09668883,93.23541615,0,81.31350265,0.003109597,59.26591869,1.613427545,-21.39916202,70.05122833,237.2705518,0,163.5743577,1.128727208,0,0,,,,
632.8559996,2472,-10.2650484,12.01051407,-152.1962067,0,-210.7174006,0.003100872,-137.0117439,1.617834572,16.07912374,-97.40113426,-101.4744653,0,70.62486695,1.133511216,0,0,,,,
632.8639996,2472,-33.47265488,15.06155112,169.1766516,0,129.8856826,0.003092102,177.15187,1.622183842,-22.08405793,29.18714783,23.71479524,0,159.8492963,1.138248244,0,0,,,,
632.8719996,2472,9.565699967,10.47814143,-87.11357162,0,-84.5555365,0.003083288,-127.4804152,1.626475466,5.350292226,13.51135036,184.7093705,0,129.8374744,1.142938353,0,0,,,,
632.8799996,2472,-26.33810316,9.646150928,20.5333259,0,-55.89263309,0.00307443,51.03533148,1.630709557,30.19342119,-81.51396785,-224.8422413,0,83.51761433,1.147581604,0,0,,,,
632.8879996,2472,-0.116577559,16.198859,118.4937784,0,139.0462506,0.003065528,66.9974978,1.63488623,-4.801230432,100.9213222,277.0147588,0,171.4925141,1.15217806,0,0,,,,
632.8959996,2472,-0.28516299,31.48015137,-163.0652184,0,-222.2195483,0.003056583,-164.4627417,1.639005599,45.1105431,-80.53644508,-109.0351529,0,23.5466486,1.156727785,0,0,,,,
632.9039996,2472,-35.27930531,25.48570187,182.5501968,0,150.780311,0.003047596,185.751447,1.643067781,-10.14893872,47.26145835,18.65752645,0,59.04573919,1.161230843,0,0,,,,
632.9119996,2472,20.94602438,46.7654694,-79.38783722,0,-53.5211976,0.003038566,-132.0036043,1.647072891,10.88585249,42.67552281,214.6187575,0,-9.064751508,1.1656873,0,0,,,,
632.9199996,2472,-22.74195455,41.13325238,14.43405524,0,-47.6170385,0.003029493,37.16369697,1.651021049,28.80650487,-54.82659148,-235.0516963,0,-85.94320808,1.170097221,0,0,,,,
632.9279996,2472,-4.219417645,29.99285245,121.5687339,0,162.3566416,0.00302038,73.70140569,1.654912373,-21.16860554,129.8626081,287.2730045,0,-15.79727908,1.174460675,0,0,,,,
632.9359996,2472,13.8505612,60.79081714,-156.9670388,0,-202.8411094,0.003011225,-152.045026,1.658746984,44.83928013,-64.84356088,-101.2657761,0,-155.0654922,1.17877773,0,0,,,,
632.9439996,2472,-32.61049958,54.04789106,200.692641,0,173.762322,0.003002029,214.6674551,1.662525001,-0.185323027,68.86931491,19.93643874,0,-79.86213097,1.183048454,0,0,,,,
632.9519996,2472,-7.024702598,60.34568908,-78.77364451,0,-36.9802667,0.002992793,-107.4492881,1.666246547,-7.890266993,56.36734625,222.8148248,0,-135.4081714,1.187272919,0,0,,,,
632.9599996,2472,-39.10887668,67.61538334,13.05936287,0,-35.76756007,0.002983516,58.74424449,1.669911744,6.39365703,-65.04158175,-251.7286005,0,-190.4150049,1.191451194,0,0,,,,
632.9679996,2472,-5.878859168,58.66167734,139.0363695,0,191.315306,0.0029742,106.3609828,1.673520717,-15.71318034,138.4447813,281.6703604,0,-54.69140299,1.195583352,0,0,,,,
632.9759996,2472,0.722527382,79.62187112,-165.563978,0,-175.2794921,0.002964845,-148.4253666,1.67707359,46.75850698,-53.47330412,-101.3592085,0,-165.2821245,1.199669465,0,0,,,,
632.9839996,2472,-31.32807271,81.05588313,186.410497,0,187.1385247,0.00295545,203.1206837,1.680570489,2.565645831,71.55649775,2.588347546,0,-76.33211696,1.203709607,0,0,,,,
632.9919996,2472,3.338067988,79.02643143,-82.3993978,0,-41.9185899,0.002946018,-111.8982696,1.68401154,15.65822427,76.00072503,222.3987702,0,-101.0714507,1.207703852,0,0,,,,
632.9999996,2472,-41.02401504,78.86562988,5.787934494,0,-36.84297126,0.002936547,48.16949393,1.687396871,21.21627072,-53.87022134,-258.2474925,0,-160.4386491,1.211652276,0,0,,,,
633.0079996,2472,-0.106680704,78.03770393,142.2853754,0,208.7563752,0.002927038,104.3844313,1.69072661,-13.92258263,140.1619537,277.4522536,0,-31.42058762,1.215554955,0,0,,,,
633.0159996,2472,3.728373532,72.78049551,-169.5255553,0,-170.8055208,0.002917492,-145.9876214,1.694000887,45.03435754,-58.84693937,-102.3389921,0,-146.3139577,1.219411967,0,0,,,,
633.0239996,2472,-37.60968406,57.52732055,191.8618118,0,208.8569551,0.002907908,209.4595901,1.697219831,-8.098098665,56.16245876,-12.93400514,0,-61.83093515,1.223223388,0,0,,,,
633.0319996,2472,9.788632304,70.81263607,-70.98044381,0,8.251037445,0.002898289,-104.0625198,1.700383574,8.628743835,63.34863824,232.5604006,0,-69.46168087,1.226989299,0,0,,,,
633.0399996,2472,-33.01427121,65.19201279,-5.163297742,0,-12.91594654,0.002888633,52.86002967,1.703492249,23.8439092,-74.5612251,-263.7111902,0,-135.2096529,1.230709777,0,0,,,,
633.0479996,2472,-6.653034687,59.25052281,147.0564005,0,231.7469609,0.002878941,117.2518324,1.706545987,-14.87915128,132.5008146,265.4936122,0,-8.046678979,1.234384905,0,0,,,,
633.0559996,2472,-12.35876308,48.17783756,-164.101032,0,-141.9095866,0.002869214,-135.3895327,1.709544922,37.62431133,-58.0673185,-95.96093256,0,-112.2587505,1.238014763,0,0,,,,
633.0639996,2472,-49.53677033,36.81088263,188.0352848,0,226.2801963,0.002859451,229.7589626,1.71248919,-11.9276034,39.20740953,-29.38007449,0,-38.41304761,1.241599434,0,0,,,,
633.0719996,2472,14.23415981,68.06576743,-63.13815038,0,22.38233668,0.002849654,-90.61375631,1.715378925,16.94509722,60.45505452,236.7570776,0,-34.57536924,1.245139,0,0,,,,
633.0799996,2472,-38.20512515,47.63936418,1.213441141,0,-8.079230178,0.002839823,55.14233064,1.718214264,38.62356919,-65.97495209,-252.9614689,0,-86.42213543,1.248633545,0,0,,,,
633.0879996,2473,-25.20710414,46.7135821,154.4139788,0,256.6073543,0.002829957,135.0517737,1.720995345,-16.31733203,122.7243709,265.6391971,0,20.13223433,1.252083154,0,0,,,,
633.0959996,2473,-8.585526026,70.06109069,-173.4761836,0,-125.9437843,0.002820058,-150.1714885,1.723722305,36.79139686,-75.30829238,-86.89748021,0,-92.08429844,1.255487912,0,0,,,,
633.1039996,2473,-44.75041935,54.31166333,176.2687235,0,218.6654715,0.002810127,198.3476063,1.726395283,7.340812051,41.31147255,-31.03617104,0,-4.178063385,1.258847906,0,0,,,,
633.1119996,2473,-4.698771799,70.4019564,-69.89827352,0,23.6801993,0.002800162,-106.7828129,1.729014419,18.24358961,65.58489412,237.3316294,0,-12.67843919,1.262163222,0,0,,,,
633.1199996,2473,-45.17548246,64.16714385,-13.7287025,0,-10.27942702,0.002790164,34.76176128,1.731579854,26.17390937,-85.22804407,-265.5661662,0,-83.19592329,1.265433948,0,0,,,,
633.1279996,2473,-13.1549402,66.8679753,159.7938519,0,255.664879,0.002780135,124.9074567,1.734091728,-7.325684559,125.4813539,265.7659445,0,42.79291902,1.268660174,0,0,,,,
633.1359996,2473,-12.49271168,75.45542909,-172.0466589,0,-132.1005501,0.002770074,-158.6255824,1.736550184,41.95517916,-52.13148871,-69.80282907,0,-68.58710267,1.271841987,0,0,,,,
633.1439996,2473,-53.71478462,52.73747788,176.2498829,0,228.107308,0.002759982,206.5014796,1.738955366,-7.900197608,41.7942392,-36.16231612,0,-5.642683673,1.274979479,0,0,,,,
633.1519996,2473,2.563094504,72.84196955,-62.73156864,0,37.20297878,0.002749858,-93.25717396,1.741307415,17.45873418,72.82145595,253.7521581,0,-11.32861527,1.278072741,0,0,,,,
633.1599996,2473,-48.27416573,70.98953099,-26.83195591,0,-32.36413486,0.002739704,27.96309511,1.743606478,33.42881936,-70.07559714,-254.4599441,0,-84.07360852,1.281121863,0,0,,,,
633.1679996,2473,-32.11865073,58.65713334,154.7949927,0,257.9595566,0.00272952,130.1230358,1.7458527,-24.86370333,123.3926597,256.4098091,0,26.29461967,1.284126939,0,0,,,,
633.1759996,2473,-13.48383928,73.97073972,-174.9399365,0,-116.6167744,0.002719307,-164.4795317,1.748046226,27.94532417,-64.96875538,-70.94682191,0,-86.64760041,1.287088062,0,0,,,,
633.1839996,2473,-65.29544856,64.05327252,379.3566608,0,428.4998176,0.002709063,407.0256356,1.750187204,-33.88468597,85.23985852,-50.60807034,0,24.4406952,1.290005325,0,0,,,,
633.1919996,2473,-23.9633384,65.77510445,348.9678126,0,488.6011619,0.002698791,293.7790181,1.752275781,-55.11092209,227.3199994,439.1766838,0,93.01767802,1.292878824,0,0,,,,
633.1999996,2473,-40.15875543,71.99546609,123.6271399,0,171.0894999,0.00268849,142.677891,1.754312105,-5.69520806,15.29921236,-64.604948,0,-27.59651215,1.295708654,0,0,,,,
633.2079996,2473,-19.49484571,71.004205,184.4345227,0,285.4377484,0.002678161,161.2189336,1.756296327,-21.48848456,119.7428455,221.3955368,0,30.83405196,1.298494911,0,0,,,,
633.2159996,2473,9.525327064,81.87816061,-203.12207,0,-135.1344697,0.002667804,-203.841976,1.758228594,43.66058327,-44.06893244,4.198539408,0,-72.36550724,1.301237692,0,0,,,,
633.2239996,2473,-36.97892119,76.63181428,110.1166493,0,131.8524315,0.002657419,141.6758378,1.760109059,20.14796887,-10.91496077,-156.3696468,0,-36.067326,1.303937094,0,0,,,,
633.2319996,2473,-0.552398916,72.90491407,57.00360525,0,156.3943273,0.002647007,12.47871799,1.761937873,-5.611721218,108.2596182,271.4199347,0,13.79975886,1.306593216,0,0,,,,
633.2399996,2473,-12.99592155,74.57601517,-164.9263196,0,-145.1328628,0.002636568,-143.0348106,1.763715187,35.23287961,-89.55777429,-188.617222,0,-98.23787232,1.309206158,0,0,,,,
633.2479996,2473,-32.54615104,68.55535073,188.5410685,0,240.87207,0.002626102,179.2711921,1.765441155,-14.25851295,74.44658866,68.3768868,0,21.52821281,1.311776018,0,0,,,,
633.2559996,2473,6.548506828,70.12628975,-119.6491906,0,-50.48856727,0.002615611,-149.703389,1.767115929,9.954295075,18.93639667,150.3610389,0,-26.37955657,1.314302898,0,0,,,,
633.2639996,2473,-34.24097641,57.96736109,0.543164674,0,-0.055414154,0.002605094,30.01359904,1.768739665,9.576916699,-61.70329564,-228.4573524,0,-67.61384086,1.316786898,0,0,,,,
633.2719996,2473,-11.98063761,57.19490673,115.2632666,0,200.9489626,0.002594551,68.7694846,1.770312516,-13.5419874,113.5383321,237.0358258,0,33.47683914,1.319228121,0,0,,,,
633.2799996,2473,-0.886347729,78.80461088,-173.2130295,0,-142.9378975,0.002583983,-162.8216079,1.771834639,37.8556541,-68.0440292,-103.4422135,0,-72.55551702,1.321626669,0,0,,,,
633.2879996,2473,-20.12063908,83.5296821,163.4076582,0,187.8400572,0.002573391,171.7854662,1.77330619,-3.007753052,41.5385003,-28.93682123,0,16.9863912,1.323982645,0,0,,,,
633.2959996,2473,22.91005465,87.47836492,-74.10116172,0,-23.30271559,0.002562774,-110.7014042,1.774727326,25.82506895,65.64571421,209.7003008,0,23.99424775,1.326296153,0,0,,,,
633.3039996,2473,-28.13083833,72.57306434,-27.74794887,0,-59.663061,0.002552134,18.10216615,1.776098204,25.74157612,-72.72423626,-253.6807376,0,-45.35046698,1.328567298,0,0,,,,
633.3119996,2473,-8.222802791,69.45001458,157.7666385,0,220.1355092,0.00254147,120.1213654,1.777418983,-26.87169484,108.5125319,229.0306741,0,66.94368904,1.330796185,0,0,,,,
633.3199996,2473,5.855494376,89.03012573,-168.3365019,0,-160.9651634,0.002530782,-177.2695052,1.778689822,42.2211355,-58.78860398,-60.84831911,0,-29.75058016,1.33298292,0,0,,,,
633.3279996,2473,-38.14752371,87.08433146,157.6890491,0,160.2160645,0.002520072,157.3869893,1.779910879,-2.774641808,23.55711519,-63.8034986,0,35.3298045,1.33512761,0,0,,,,
633.3359996,2473,21.70222921,111.2654752,-54.61462402,0,6.022406855,0.002509339,-110.5802272,1.781082316,5.124601182,68.78233658,248.1587701,0,38.42458881,1.337230362,0,0,,,,
633.3439996,2474,-13.05420825,106.7856794,-57.89435799,0,-99.50349226,0.002498584,-26.37215701,1.782204294,32.21491334,-80.77345342,-258.4651184,0,-32.08382325,1.339291283,0,0,,,,
633.3519996,2474,-5.058248053,83.27817414,150.6638708,0,193.6497334,0.002487808,115.8129929,1.783276973,-17.38933778,114.6134754,221.9033249,0,97.66985314,1.341310483,0,0,,,,
633.3599996,2474,18.3267296,97.05799152,-168.2776089,0,-172.7427144,0.00247701,-168.1799719,1.784300516,44.31738673,-53.00244119,-47.70375476,0,-7.734111976,1.34328807,0,0,,,,
633.3679996,2474,-26.28654862,92.37845842,165.9606004,0,161.9314707,0.00246619,178.3014828,1.785275086,4.837835808,23.14000764,-67.46356881,0,63.27161582,1.345224154,0,0,,,,
633.3759996,2474,22.20725331,111.9422678,-39.90493742,0,28.17724318,0.00245535,-84.43445946,1.786200845,7.711091348,79.45162028,278.3067615,0,77.35307535,1.347118846,0,0,,,,
633.3839996,2474,-9.514555037,113.1134715,-48.94491204,0,-83.60211208,0.00244449,-10.02338303,1.787077959,34.32027459,-79.9518094,-253.9165749,0,-14.15463305,1.348972257,0,0,,,,
633.3919996,2474,-10.13732551,93.87158954,171.5553582,0,241.4307163,0.00243361,145.7101219,1.787906591,-22.7355135,119.1117853,226.2339023,0,116.7472446,1.350784498,0,0,,,,
633.3999996,2474,9.038273732,113.1023367,-187.4032038,0,-154.5597373,0.00242271,-170.3598672,1.788686907,25.25405581,-57.14583987,-41.55013933,0,-1.62276104,1.352555682,0,0,,,,
633.4079996,2474,-29.56851375,91.62555484,140.9414204,0,153.3976907,0.002411791,173.2981565,1.789419072,-7.616132049,5.79350309,-101.4690146,0,58.99868354,1.354285922,0,0,,,,
633.4159996,2474,4.774172957,81.18521218,-38.64044174,0,56.08535915,0.002400852,-66.49674656,1.790103253,1.636180073,68.61599054,270.3670735,0,96.15589668,1.35597533,0,0,,,,
633.4239996,2474,-31.37899291,89.73702766,-61.52561189,0,-55.53736431,0.002389895,-1.287081918,1.790739616,20.52547022,-101.185466,-256.8703776,0,-7.288524193,1.357624022,0,0,,,,
633.4319996,2474,-16.06532171,80.77363436,176.4817608,0,284.8751925,0.00237892,176.2363974,1.791328329,-40.31793074,105.0941041,217.9686508,0,113.3889684,1.359232111,0,0,,,,
633.4399996,2474,3.543786075,100.195696,-177.786349,0,-107.7888101,0.002367927,-142.7801006,1.791869561,21.01829995,-57.9212758,-33.92753972,0,18.00512031,1.360799713,0,0,,,,
633.4479996,2474,-37.45884882,100.6688343,145.7511161,0,195.6794982,0.002356917,192.8994796,1.792363478,-12.21174796,0.084436332,-107.0872208,0,75.90238916,1.362326944,0,0,,,,
633.4559996,2474,12.28549009,98.92930093,-23.63304877,0,115.2316889,0.002345889,-40.24428686,1.792810252,-11.66471198,74.43150761,276.6558267,0,102.507061,1.363813921,0,0,,,,
633.4639996,2474,-22.73966227,100.4586315,-61.09230031,0,-25.35973817,0.002334844,-1.178288162,1.793210051,28.01221866,-92.88054155,-257.9954563,0,12.795452,1.365260759,0,0,,,,
633.4719996,2474,-13.57905428,94.47722093,181.7916033,0,304.052832,0.002323783,172.5536881,1.793563045,-36.01021714,104.3328223,207.6212309,0,134.8780746,1.366667578,0,0,,,,
633.4799996,2474,5.096846321,105.0431733,-168.1235372,0,-67.42239865,0.002312705,-142.0768163,1.793869406,9.864653455,-63.82600157,-32.23715667,0,27.08343501,1.368034494,0,0,,,,
633.4879996,2474,-41.00542207,109.1153853,156.4615104,0,244.2516708,0.002301612,189.2204759,1.794129304,-5.157815088,-0.107736829,-109.3051765,0,97.54302073,1.369361626,0,0,,,,
633.4959996,2474,16.67489514,119.8043034,-16.16126027,0,141.1144695,0.002290503,-53.6668809,1.794342911,-3.439839577,80.73807509,292.4509248,0,143.9476117,1.370649094,0,0,,,,
633.5039996,2474,-19.35477228,109.2055213,-70.69003682,0,-20.84362894,0.002279379,-18.84612142,1.794510399,21.58656226,-103.3635884,-257.8098975,0,46.60267413,1.371897018,0,0,,,,
633.5119996,2474,-10.4355978,111.123377,185.1501813,0,325.2471581,0.00226824,167.4829688,1.794631942,-29.93987731,105.7632174,205.8751782,0,167.2853313,1.373105518,0,0,,,,
633.5199996,2474,25.16020122,133.2502981,-175.8052899,0,-80.34743916,0.002257086,-164.7735511,1.794707712,28.90073428,-47.6529684,-13.80569882,0,62.08187158,1.374274713,0,0,,,,
633.5279996,2474,-22.19716508,125.4695638,132.3720022,0,191.1510113,0.002245919,160.3501463,1.794737884,-3.876579727,-4.001598514,-124.9185738,0,109.2730389,1.375404727,0,0,,,,
633.5359996,2474,24.58229563,137.4982088,-31.15575263,0,97.36402113,0.002234737,-77.75553589,1.794722631,-15.52759149,81.9845308,275.7236964,0,129.2566865,1.37649568,0,0,,,,
633.5439996,2474,-9.356152578,133.6926205,-87.0015858,0,-66.58632709,0.002223542,-52.99964779,1.794662127,19.93221011,-96.58775799,-271.6775616,0,7.888928943,1.377547695,0,0,,,,
633.5519996,2474,-2.716061447,129.318078,186.0225189,0,296.7963875,0.002212334,145.439915,1.79455655,-25.44857856,111.3252414,190.1790347,0,111.4708018,1.378560896,0,0,,,,
633.5599996,2474,17.54888767,142.3107221,-177.9755098,0,-101.9653613,0.002201113,-192.1977489,1.794406073,18.19082105,-36.44067804,-21.61963582,0,-37.50542691,1.379535404,0,0,,,,
633.5679996,2474,-30.82457819,138.7586761,131.6547227,0,173.3853224,0.00218988,137.641216,1.794210873,-17.4380675,2.353049162,-148.8490974,0,-46.15645753,1.380471345,0,0,,,,
633.5759996,2474,30.85005505,171.263317,-12.37914251,0,93.44006647,0.002178634,-92.86460732,1.793971127,-12.90902048,97.55621296,276.454048,0,-33.29758341,1.381368843,0,0,,,,
633.5839996,2474,-2.529901292,172.9576747,-92.3746108,0,-123.6588967,0.002167377,-94.40324889,1.793687011,19.22975737,-75.82512094,-277.7979998,0,-169.9290271,1.382228022,0,0,,,,
633.5919996,2474,-7.825431888,160.0665207,182.3476472,0,222.3030639,0.002156108,120.9963726,1.793358704,-34.8374206,125.5507498,164.0018784,0,-81.35265984,1.383049007,0,0,,,,
633.5999996,2475,18.36416185,182.7614774,-172.8959004,0,-162.0364132,0.002144828,-204.2828691,1.792986382,13.73574285,-28.6816673,-24.931058,0,-196.1420206,1.383831926,0,0,,,,
633.6079996,2475,-30.26085479,162.1397958,126.9673954,0,95.42151257,0.002133537,123.3800866,1.792570224,-21.37337342,14.05904046,-165.0984545,0,-169.802781,1.384576904,0,0,,,,
633.6159996,2475,11.99514961,164.9010352,-2.284315511,0,63.7407455,0.002122235,-67.79768034,1.79211041,-27.03920603,112.8055143,271.4166257,0,-128.2358722,1.385284067,0,0,,,,
633.6239996,2475,-13.82153378,183.8833479,-81.44874608,0,-102.9310107,0.002110923,-48.90198549,1.791607117,10.10327021,-79.34418106,-267.804394,0,-225.1936008,1.385953544,0,0,,,,
633.6319996,2475,-10.30830081,172.947225,192.113444,0,248.8686827,0.002099602,167.364851,1.791060527,-34.14686409,128.8333847,171.2036591,0,-99.44790715,1.386585462,0,0,,,,
