Time:125Hz,Epoch,FP1,FP2,C3,C4,P7,P8,O1,O2,F7,F8,F3,F4,T7,T8,P3,P4,,,,
294.2719998,1149,448.5781395,-88.55952898,0,0,207.9276892,591.0294755,146.460025,-95.10255378,54.64770931,242.777873,811.4393102,0,23.06619191,167.3822236,0,-0.000585838,,,,
294.2799998,1149,-265.4209326,26.06187823,0,0,-162.5060299,-309.015699,-105.4279359,105.6363167,-95.7416076,-373.6942398,206.4749256,0,-12.9974038,-165.4850907,0,-0.000591193,,,,
294.2879998,1149,386.9296715,-18.54675845,0,0,183.3418143,629.6950053,138.7744802,-118.6702347,16.90289895,285.7839169,-99.05702133,0,-20.93388877,77.24481637,0,-0.000596513,,,,
294.2959998,1149,25.26514394,-31.18317937,0,0,-16.89774364,-9.302545022,-9.580067219,77.97214918,8.05073748,-134.2286589,1008.052538,0,39.31450148,30.45187243,0,-0.000601797,,,,
294.3039998,1149,-59.18347265,55.55357422,0,0,-34.69768938,66.48304422,-20.51093892,4.890339206,-61.25552534,-89.65323788,-471.8504118,0,-40.81573265,-122.7541584,0,-0.000607045,,,,
294.3119998,1149,435.3196608,-81.26755163,0,0,211.7028742,586.0313304,141.762048,-92.1219207,73.88200743,266.3155421,782.1018475,0,25.42613027,170.291177,0,-0.000612259,,,,
294.3199998,1149,-278.6208089,26.39455217,0,0,-161.7820341,-314.8397112,-113.776278,109.5905594,-88.09391829,-366.2508091,193.3328167,0,-10.90638682,-163.7875447,0,-0.000617436,,,,
294.3279998,1149,367.9539252,-12.69119282,0,0,182.2089168,615.1717611,130.6430998,-105.187941,27.77029664,287.4210027,-131.889168,0,-23.70752224,76.56171803,0,-0.000622579,,,,
294.3359998,1149,10.77818065,-28.48884689,0,0,-20.47936479,-19.61766337,-12.76349613,85.48213417,22.61616303,-122.5408589,985.7017182,0,41.5969203,36.92100063,0,-0.000627686,,,,
294.3439998,1149,-73.74522954,43.68373354,0,0,-47.08366548,63.23239101,-26.74412141,-5.980261821,-60.30510656,-93.97002889,-489.7409992,0,-30.43438617,-118.7137828,0,-0.000632757,,,,
294.3519998,1149,430.0631288,-83.84287671,0,0,195.9159653,596.186217,141.3404202,-93.03646494,71.31360495,254.8891341,764.5795239,0,31.28370393,171.364928,0,-0.000637793,,,,
294.3599998,1149,-294.6607175,35.98083861,0,0,-186.8892798,-316.9851501,-112.9371145,128.6203175,-79.9267223,-370.4408978,189.1994987,0,-6.865532812,-163.5295473,0,-0.000642794,,,,
294.3679998,1149,349.8604806,-39.84113161,0,0,152.5331627,633.7907155,123.7892997,-138.1136301,20.80340167,273.0351267,-145.8373756,0,-26.30673044,67.09509243,0,-0.000647759,,,,
294.3759998,1149,3.336025282,-62.04965904,0,0,-51.77575162,14.20608676,-19.66149885,39.33865648,-6.097736436,-156.0143722,989.5226499,0,23.53285158,11.11906472,0,-0.000652689,,,,
294.3839998,1149,-95.6822412,48.75408444,0,0,-87.39699809,64.87101593,-34.51547672,0.930438086,-83.6099735,-120.5415201,-490.3774235,0,-53.63098244,-145.5170592,0,-0.000657584,,,,
294.3919998,1149,410.4931482,-85.12932505,0,0,160.6901431,605.2932233,128.3016878,-105.4444161,59.342818,254.6510814,752.9211024,0,11.61580105,164.8257359,0,-0.000662443,,,,
294.3999998,1150,-314.1308334,26.11460685,0,0,-216.7933612,-303.7209415,-131.5531655,87.04417207,-90.52156753,-376.7444603,192.4431675,0,-25.38772546,-167.3197555,0,-0.000667267,,,,
294.4079998,1150,321.6297628,-28.16097251,0,0,126.3651476,637.3307669,108.7246725,-149.6613419,18.36821659,271.4052479,-154.6145482,0,-41.30404488,59.19471426,0,-0.000672055,,,,
294.4159998,1150,-23.28874129,-60.60287483,0,0,-67.11117762,29.06115691,-26.35128005,35.9477715,0.575087852,-140.4248603,996.0788268,0,17.81143847,10.10135064,0,-0.000676808,,,,
294.4239998,1150,-126.7378776,33.05119977,0,0,-99.95996712,86.77330808,-38.29392133,-13.33608832,-84.56525418,-124.5940328,-474.2241221,0,-56.14443441,-153.7771496,0,-0.000681526,,,,
294.4319998,1150,387.9002738,-85.66984966,0,0,154.4292481,633.5284733,134.6819576,-88.33115589,58.75625118,250.6423342,768.7078003,0,12.9599624,158.3773628,0,-0.000686209,,,,
294.4399998,1150,-330.887157,22.77429098,0,0,-211.4551421,-272.6463456,-114.2138756,119.924439,-85.07766288,-370.4607742,230.5996047,0,-15.30037286,-160.4353842,0,-0.000690856,,,,
294.4479998,1150,310.7124527,-43.87555764,0,0,141.4836249,683.2479171,127.7668417,-137.959107,14.95372799,266.0104905,-111.1147246,0,-30.53429199,66.76181602,0,-0.000695468,,,,
294.4559998,1150,-25.54420636,-64.20762113,0,0,-37.80413577,80.92677747,-10.63465267,48.92099694,-1.885085531,-148.4947697,1054.334032,0,27.05171776,19.09297319,0,-0.000700045,,,,
294.4639998,1150,-134.8191204,22.29622182,0,0,-55.30864049,137.3862387,-27.06350036,-10.96632302,-86.45805072,-134.8162652,-414.2988054,0,-49.97898331,-148.4540351,0,-0.000704587,,,,
294.4719998,1150,385.261927,-111.8092632,0,0,207.0493941,705.6478455,146.4740083,-110.8392428,47.37937708,236.1180316,833.8015213,0,14.81858899,154.7690844,0,-0.000709093,,,,
294.4799998,1150,-335.6312502,10.24522868,0,0,-153.7078731,-201.1965565,-103.4929328,109.2753514,-96.39975366,-389.7902723,307.0964771,0,-15.25815766,-169.8797098,0,-0.000713564,,,,
294.4879998,1150,303.6554815,-53.31004885,0,0,238.7627407,758.1635073,137.2157638,-143.7643367,5.736495644,255.2993589,-48.86150908,0,-35.00059483,55.80652717,0,-0.000718,,,,
294.4959998,1150,-25.22433707,-75.11500998,0,0,109.9785152,160.7023824,-0.784781357,40.42951698,-9.975577852,-145.0806477,1128.65935,0,23.10914676,11.8482157,0,-0.000722401,,,,
294.5039998,1150,-137.5403587,33.98994265,0,0,91.39160882,204.379798,-15.93827738,1.539725423,-85.67089559,-126.5387141,-344.8103957,0,-49.61702076,-151.0219396,0,-0.000726767,,,,
294.5119998,1150,393.8283358,-103.5288096,0,0,330.0717609,786.5471535,159.512481,-111.1286507,55.71254725,253.5256288,901.1642368,0,15.12837983,157.8594446,0,-0.000731098,,,,
294.5199998,1150,-327.2731865,8.500205143,0,0,-63.01331655,-131.0261446,-98.78126581,99.87537598,-99.06444988,-385.7457043,387.5657261,0,-17.01593767,-178.5305285,0,-0.000735394,,,,
294.5279998,1150,308.2447579,-35.29966587,0,0,265.0635935,813.3430075,138.9771995,-127.2041665,1.871332816,262.2766244,7.134877347,0,-36.64686627,46.95672453,0,-0.000739655,,,,
294.5359998,1150,-8.254146423,-69.22240047,0,0,67.3827903,230.3362458,6.709999805,40.12245985,-7.522147363,-130.7000547,1197.52745,0,18.50442502,25.60284507,0,-0.00074388,,,,
294.5439998,1150,-123.8011786,24.73928724,0,0,25.48392824,262.803809,-10.78645743,-15.19287028,-93.96335904,-132.1999393,-278.9677888,0,-56.9725382,-142.2368378,0,-0.000748071,,,,
294.5519998,1150,400.3843042,-88.09229307,0,0,275.4051093,813.9307276,154.5939822,-100.6956026,49.24025585,259.8651244,923.7242668,0,9.26155192,156.1781683,0,-0.000752227,,,,
294.5599998,1150,-337.2834954,34.67860137,0,0,-121.442898,-147.8298162,-114.2772947,116.955696,-92.44083899,-369.5072788,372.8995394,0,-23.96811169,-174.9449559,0,-0.000756348,,,,
294.5679998,1150,291.347406,-10.47442798,0,0,206.3918088,771.9453331,124.3358866,-125.5249321,17.22504423,278.8773816,-60.43375257,0,-32.86489796,55.09785189,0,-0.000760434,,,,
294.5759998,1150,-30.76888699,-41.22915022,0,0,6.290420349,165.7400782,-14.70877284,41.31056287,13.59637253,-110.935859,1102.133315,0,32.76709564,29.4542465,0,-0.000764485,,,,
294.5839998,1150,-171.3528996,41.88745582,0,0,-51.62712587,158.5381582,-48.82987335,-20.09699198,-76.39966586,-123.5216294,-416.4841581,0,-50.2919645,-149.2947177,0,-0.000768502,,,,
294.5919998,1150,364.0899388,-83.22819035,0,0,206.4873482,715.7908318,120.094582,-125.2958937,61.02172557,267.7660537,762.1012782,0,11.76614666,151.1103821,0,-0.000772483,,,,
294.5999998,1150,-358.7391932,41.83792924,0,0,-176.6928583,-242.8451095,-139.6642857,96.49647351,-82.32597138,-372.0857574,226.9555818,0,-21.85071704,-180.5766137,0,-0.00077643,,,,
294.6079998,1150,269.0295387,-0.864993859,0,0,159.419688,664.3748397,102.0152025,-118.0051953,30.84643692,275.0075599,-221.9228197,0,-33.06667892,47.24997754,0,-0.000780342,,,,
294.6159998,1150,-42.35147106,-28.72030432,0,0,-28.62309794,53.88629954,-34.66262392,69.65641882,40.01628564,-93.40333751,943.0047731,0,37.46503922,32.59050867,0,-0.000784219,,,,
294.6239998,1150,-177.0077425,66.0843282,0,0,-77.32222331,44.97328135,-62.83280556,10.13384462,-47.05399419,-101.3705475,-576.2453903,0,-42.77564078,-139.5423896,0,-0.000788062,,,,
294.6319998,1150,371.5303464,-67.23147948,0,0,189.1152399,621.9668476,116.7759825,-103.5740056,83.34142389,292.4951179,613.1177625,0,21.71289406,168.6750058,0,-0.00079187,,,,
294.6399998,1150,-351.3164861,35.23311541,0,0,-200.4953539,-337.0206616,-149.6773453,103.7171186,-73.40094223,-356.7007795,103.2315404,0,-9.754598572,-164.7642223,0,-0.000795644,,,,
294.6479998,1150,275.9524932,-12.4726425,0,0,129.5251868,579.0612592,85.92370461,-134.4466382,15.77967248,275.6248974,-352.0272552,0,-34.10975907,48.6788011,0,-0.000799383,,,,
294.6559998,1151,-26.09133668,-31.66695726,0,0,-61.36333312,-20.12228283,-44.8114179,52.72737209,16.44257801,-98.52476243,840.563123,0,27.42943756,26.40488284,0,-0.000803087,,,,
294.6639998,1151,-170.2333463,81.9423985,0,0,-123.314226,-50.3245118,-74.92957411,20.31055927,-59.08150465,-110.9445045,-671.8381254,0,-49.2566877,-146.4006136,0,-0.000806757,,,,
294.6719998,1151,379.3572913,-33.17335862,0,0,144.395674,529.9366449,109.754453,-75.34326239,96.20882681,311.8212257,510.4418854,0,22.65573518,181.4706962,0,-0.000810393,,,,
294.6799998,1151,-344.4503122,77.96558867,0,0,-236.4171473,-431.9251155,-146.9064297,144.007292,-38.88978404,-319.3174763,21.45233109,0,2.135650092,-139.6949858,0,-0.000813994,,,,
294.6879998,1151,281.9297228,26.6349123,0,0,103.8064413,493.7219557,93.75713754,-99.82814477,50.84844136,302.189302,-435.6399827,0,-18.24732726,67.83533859,0,-0.000817561,,,,
294.6959998,1151,-15.43667181,-7.561153469,0,0,-75.8591172,-82.14054529,-36.47909875,70.44448993,45.07041394,-72.77790748,777.1996163,0,46.47886028,49.44646108,0,-0.000821094,,,,
294.7039998,1151,-168.2281247,83.53976067,0,0,-134.776128,-111.9192256,-71.97391589,18.50124276,-45.16843128,-99.2340526,-731.4322119,0,-31.79619909,-133.0124743,0,-0.000824592,,,,
294.7119998,1151,388.1151664,-49.31878009,0,0,136.3249997,491.4242372,112.8768358,-90.45046079,85.77436148,296.59366,452.8023671,0,22.78220457,174.6243759,0,-0.000828056,,,,
294.7199998,1151,-343.5174861,71.03518474,0,0,-249.4218212,-474.5800186,-147.7196488,153.5851187,-51.45644304,-342.4275538,-17.89907661,0,-5.905040712,-150.2381535,0,-0.000831486,,,,
294.7279998,1151,272.1270011,23.86197933,0,0,90.87466019,444.614649,89.72037936,-89.21106128,59.38010009,303.7294022,-498.299007,0,-17.56258526,68.64375028,0,-0.000834882,,,,
294.7359998,1151,-11.18915782,-27.76143295,0,0,-81.66926797,-103.2021964,-32.68534464,58.85223476,51.99629288,-70.44634921,736.4844514,0,46.60983418,51.95872956,0,-0.000838244,,,,
294.7439998,1151,-168.6501168,53.32946847,0,0,-144.9952127,-129.6200494,-69.52804034,8.220698079,-58.48856247,-125.7985247,-749.0076238,0,-41.26885232,-145.1619426,0,-0.000841571,,,,
294.7519998,1151,387.0331331,-75.93516147,0,0,126.2856913,480.5852794,109.5671614,-111.6484812,71.19109149,277.589025,427.3692889,0,15.11512749,160.5153957,0,-0.000844865,,,,
294.7599998,1151,-339.9388608,48.00070727,0,0,-262.2321007,-482.1033736,-155.8738449,121.7269777,-68.3198206,-360.0447468,-26.68066486,0,-10.03445852,-166.7275393,0,-0.000848125,,,,
294.7679998,1151,273.2710471,6.722538376,0,0,75.18707654,433.8291775,80.86935329,-104.2345658,34.23191745,281.1151899,-511.0052083,0,-28.01462404,50.54631508,0,-0.000851351,,,,
294.7759998,1151,-15.89411662,-11.83291194,0,0,-92.18736713,-126.5531712,-37.82156175,75.67416727,36.29383308,-72.38499347,725.4911157,0,39.50810576,47.47437465,0,-0.000854543,,,,
294.7839998,1151,-182.2182418,96.38365525,0,0,-152.729604,-173.3432509,-74.34897232,37.56554515,-52.33490564,-107.6142868,-768.0960572,0,-32.85161751,-139.1864788,0,-0.000857701,,,,
294.7919998,1151,391.0234089,-53.85799254,0,0,129.1910551,463.5686365,113.6692547,-107.9025414,95.40378416,310.0977158,407.1561413,0,27.99447813,174.6362034,0,-0.000860825,,,,
294.7999998,1151,-330.4958289,51.59524905,0,0,-258.5012249,-485.611419,-146.2973353,109.2846258,-53.80364666,-351.1324151,-19.91999008,0,-3.066449907,-165.9897824,0,-0.000863916,,,,
294.8079998,1151,277.6504131,16.23117044,0,0,73.01399415,426.4128635,89.8659091,-110.017818,37.73220368,275.9653264,-510.1076049,0,-22.47092449,35.06664393,0,-0.000866973,,,,
294.8159998,1151,-5.995259417,-5.24781971,0,0,-96.90133076,-126.0152725,-31.8597473,67.65525889,52.41917877,-64.42067247,731.1743013,0,44.48164262,39.07094644,0,-0.000869997,,,,
294.8239998,1151,-180.4044592,96.24880987,0,0,-159.9013852,-176.6864685,-71.10492133,28.56338816,-31.59585064,-105.6173084,-771.4183457,0,-32.88105512,-144.4607693,0,-0.000872987,,,,
294.8319998,1151,391.9532215,-51.17991424,0,0,129.4477632,464.0050272,123.4576962,-98.92746737,106.1618097,313.6248214,395.0418007,0,26.20243971,176.0398044,0,-0.000875943,,,,
294.8399998,1151,-340.5674555,64.42251652,0,0,-258.173239,-502.6644641,-142.1397504,134.4899694,-49.22358429,-345.7765696,-22.86272344,0,-0.655039676,-154.7161533,0,-0.000878866,,,,
294.8479998,1151,265.8722403,13.54758857,0,0,79.5866007,413.7309706,89.03701048,-108.6295538,43.78862142,285.8730931,-538.0979937,0,-20.89340339,50.22734878,0,-0.000881756,,,,
294.8559998,1151,-3.003205498,-33.35667315,0,0,-82.92007011,-115.4246338,-27.78646492,52.89693502,44.00207769,-65.0525168,719.8055511,0,39.32756616,51.36720524,0,-0.000884612,,,,
294.8639998,1151,-187.6976669,83.36824692,0,0,-155.4552002,-185.0499226,-70.75668721,38.50796166,-54.03551493,-120.9578977,-772.4045942,0,-35.68241627,-140.4175508,0,-0.000887435,,,,
294.8719998,1151,384.5133996,-52.8871696,0,0,135.5328756,457.5315657,121.4776984,-92.18131602,95.92258999,317.9100398,382.7732433,0,32.78601637,182.0451228,0,-0.000890225,,,,
294.8799998,1151,-347.2317564,55.05154098,0,0,-250.1247556,-508.5992611,-144.020216,131.4610549,-46.41369108,-339.9760762,-22.15574582,0,6.507873836,-147.0179413,0,-0.000892982,,,,
294.8879998,1151,259.3977258,15.70693774,0,0,85.98422156,401.5413155,92.78510721,-94.23114971,48.65364629,286.1488509,-548.2312003,0,-14.86251605,58.42221464,0,-0.000895706,,,,
294.8959998,1151,0.113855168,-25.27081674,0,0,-72.57728994,-114.7299527,-17.95074579,65.13770916,50.32975392,-57.5225295,726.2527288,0,50.63906352,60.52930648,0,-0.000898396,,,,
294.9039998,1151,-188.0412464,86.93144832,0,0,-147.2354342,-187.8401177,-66.51077074,40.66530021,-44.42365709,-117.6392699,-760.8650034,0,-29.67686251,-138.0019775,0,-0.000901054,,,,
294.9119998,1152,395.1347911,-43.13814763,0,0,145.0327832,459.6429207,127.3003349,-82.22970182,105.7570592,325.3854174,384.1696168,0,31.24473295,191.0712446,0,-0.000903678,,,,
294.9199998,1152,-334.0216978,59.49827609,0,0,-241.625257,-501.7423021,-135.5130321,136.4414517,-40.09986071,-333.6332217,-3.18227155,0,5.974553037,-133.6587317,0,-0.00090627,,,,
294.9279998,1152,272.2165531,7.040262881,0,0,93.94960152,417.9967554,99.55937827,-103.0573022,53.81384896,284.9610511,-534.3566891,0,-16.81325786,63.01112898,0,-0.000908829,,,,
294.9359998,1152,21.60485857,-32.33801179,0,0,-64.07556014,-92.87663248,-12.13229578,64.82837276,59.61939979,-57.90045806,753.6183991,0,50.14716756,70.79400501,0,-0.000911355,,,,
294.9439998,1152,-182.6459484,78.12247596,0,0,-149.4727059,-181.3975531,-66.94400945,41.8197078,-39.07123383,-125.9492475,-740.4271111,0,-33.97931645,-126.1099902,0,-0.000913849,,,,
294.9519998,1152,398.6779946,-53.79566838,0,0,143.5063534,474.7291194,129.9813199,-86.72113047,106.6644465,318.3298232,390.6152524,0,23.81886999,198.4107079,0,-0.00091631,,,,
294.9599998,1152,-334.3880442,58.1350627,0,0,-243.8783423,-493.6717026,-133.8290532,140.1539208,-41.27018416,-344.5681379,19.05805503,0,4.225101372,-125.801872,0,-0.000918738,,,,
294.9679998,1152,255.7199851,17.39237965,0,0,82.77487319,405.9846092,91.33329284,-98.63425269,46.26310786,270.6319446,-542.4121396,0,-23.18465622,66.12986909,0,-0.000921134,,,,
294.9759998,1152,5.80934975,-17.89271733,0,0,-71.1534998,-109.7533565,-18.83740304,67.98230823,58.52843059,-60.70386059,737.6693791,0,43.34451353,68.66890608,0,-0.000923498,,,,
294.9839998,1152,-202.4967861,78.68191964,0,0,-153.9716856,-203.6043361,-73.08414566,36.74697518,-38.2998607,-142.0213427,-749.3636848,0,-30.26389211,-138.0941716,0,-0.000925829,,,,
294.9919998,1152,379.0283244,-60.13825442,0,0,137.9425357,458.0057696,121.2509863,-93.84471357,100.794246,301.0968318,369.4861727,0,28.15118009,181.0115955,0,-0.000928128,,,,
294.9999998,1152,-361.2552984,63.09786082,0,0,-250.8020836,-524.2708082,-143.3227582,148.2137979,-38.80367561,-344.3871226,0.21659072,0,7.012182729,-138.3475576,0,-0.000930394,,,,
295.0079998,1152,227.136026,17.39929816,0,0,80.91988448,379.1255583,84.97168693,-97.46112432,56.01725524,276.4141008,-569.5381544,0,-14.74287813,59.35098071,0,-0.000932629,,,,
295.0159998,1152,-14.92833626,-24.28655084,0,0,-71.38983165,-120.6056706,-21.8409892,76.64287343,59.34496082,-58.62028126,727.3201392,0,51.02605668,66.09226004,0,-0.000934831,,,,
295.0239998,1152,-233.5798185,94.73111016,0,0,-160.6199137,-231.7307019,-79.99929206,63.6126817,-33.5799686,-135.6907363,-760.1738698,0,-22.66844847,-135.9296912,0,-0.000937001,,,,
295.0319998,1152,358.1635807,-37.67665955,0,0,142.9054846,443.9932276,116.8378648,-86.83175887,126.4675661,336.2235909,353.0667946,0,42.00850331,194.4528734,0,-0.00093914,,,,
295.0399998,1152,-377.3116762,59.45766451,0,0,-245.0461206,-525.5575319,-146.1572696,145.7988178,-25.29355232,-316.2678566,10.69503934,0,16.11214521,-128.7180669,0,-0.000941246,,,,
295.0479998,1152,203.0365555,0.783067037,0,0,78.98362206,381.1782651,83.50053019,-100.4417083,43.73097108,277.7832471,-567.1790627,0,-17.22828473,57.9407609,0,-0.000943321,,,,
295.0559998,1152,-33.89701899,-32.60886261,0,0,-65.52453079,-103.6335945,-16.16056521,65.46794312,53.04027765,-52.0818276,739.9136687,0,46.03079054,64.64129291,0,-0.000945364,,,,
295.0639998,1152,-258.2949312,85.90461861,0,0,-156.5426859,-223.6460182,-74.69462232,59.60501422,-37.09254625,-129.2034048,-739.4146981,0,-27.96656189,-142.9638558,0,-0.000947375,,,,
295.0719998,1152,341.3825451,-55.17427298,0,0,149.1300682,463.8925554,127.266834,-89.65462169,106.5019297,323.716797,370.8701786,0,29.10729191,186.3038334,0,-0.000949354,,,,
295.0799998,1152,-388.6836495,68.10467723,0,0,-231.2475114,-504.2771906,-128.7830325,158.0539229,-40.83155439,-338.2520837,47.01009809,0,6.035368122,-134.5242141,0,-0.000951303,,,,
295.0879998,1152,191.5582865,40.77983929,0,0,99.8111045,391.2799667,104.1112946,-61.03326994,56.40885432,290.1495646,-545.1929606,0,-9.413978036,67.33196699,0,-0.000953219,,,,
295.0959998,1152,-34.84246245,-16.97027845,0,0,-38.99848487,-76.01938141,3.596438474,81.07315871,66.7337733,-22.22671908,770.8269678,0,61.01510605,95.69413892,0,-0.000955104,,,,
295.1039998,1152,-267.5213592,80.22961833,0,0,-140.2875718,-193.3825282,-62.17059746,53.56991981,-51.63057856,-129.7359433,-706.2600556,0,-25.94529675,-126.1721151,0,-0.000956958,,,,
295.1119998,1152,334.165969,-47.45257056,0,0,165.7833911,497.9963113,143.2013971,-76.0943541,90.96142981,327.9771889,388.0121934,0,27.21989014,196.4837051,0,-0.000958781,,,,
295.1199998,1152,-393.3587038,64.50913195,0,0,-203.1981921,-469.4844898,-116.0653559,158.7607374,-44.50625358,-327.6397848,78.493768,0,12.80117891,-115.8595984,0,-0.000960572,,,,
295.1279998,1152,184.0198363,11.66646797,0,0,173.3850502,425.6821854,103.1666907,-97.08661471,42.65606385,278.144304,-526.8940088,0,-13.1134274,64.12494043,0,-0.000962332,,,,
295.1359998,1152,-33.73203833,-48.97646917,0,0,118.9611798,-35.39942007,-0.34081159,44.14570167,48.49285385,-47.92650246,795.8011607,0,45.09999225,76.02968858,0,-0.000964062,,,,
295.1439998,1152,-265.97413,50.85743886,0,0,40.55100043,-159.6635894,-63.77641458,23.77752985,-70.42799128,-166.5263346,-674.8298915,0,-41.63736149,-143.8206393,0,-0.00096576,,,,
295.1519998,1152,343.2182173,-73.85980624,0,0,320.1550027,534.3798453,140.5343562,-112.9595298,69.67702926,296.5787034,409.425596,0,8.090921936,177.6232612,0,-0.000967428,,,,
295.1599998,1152,-389.6634953,51.69690773,0,0,-73.72574231,-449.8837269,-122.282529,142.6381377,-58.27788564,-353.7486139,114.3747677,0,-6.658149218,-139.5552968,0,-0.000969064,,,,
295.1679998,1153,181.1090057,16.36172013,0,0,232.4696045,433.2482467,102.3678403,-91.83549331,32.58275323,252.5190334,-502.8751403,0,-29.71379694,41.02441782,0,-0.00097067,,,,
295.1759998,1153,-29.71339556,-32.91244104,0,0,90.7638558,-20.66361886,6.080842176,48.95576237,49.94510983,-56.05011563,826.0683188,0,36.18232591,63.37072923,0,-0.000972245,,,,
295.1839998,1153,-269.3176634,69.14733009,0,0,-14.62736908,-154.0547603,-57.78455573,36.8872158,-50.52103419,-159.1148465,-641.882484,0,-36.1213865,-153.0372203,0,-0.00097379,,,,
295.1919998,1153,347.5733244,-70.73034155,0,0,276.3332096,557.2900106,149.759254,-110.5179232,79.06477191,302.8823359,438.8343765,0,17.09358973,165.8649402,0,-0.000975304,,,,
295.1999998,1153,-382.8852103,38.24790115,0,0,-118.5966117,-413.0702319,-115.2627464,125.1157571,-71.43778861,-362.9391726,165.1806705,0,-4.175849452,-152.0126558,0,-0.000976788,,,,
295.2079998,1153,186.4669189,5.337451375,0,0,192.1875219,476.2023642,105.5482976,-110.1181675,21.0233334,250.3290456,-464.3124058,0,-26.08346467,38.90910072,0,-0.000978242,,,,
295.2159998,1153,-11.11845271,-41.74439149,0,0,51.13635405,32.31594891,8.745626589,27.01612823,39.65924266,-49.38283638,877.0888301,0,39.85618059,72.35253092,0,-0.000979665,,,,
295.2239998,1153,-255.640333,68.35378282,0,0,-59.93159539,-118.1272064,-63.16458481,14.30616517,-63.12789537,-160.2147459,-588.0015955,0,-42.74013764,-148.4790592,0,-0.000981058,,,,
295.2319998,1153,371.5268958,-67.48154891,0,0,251.7769414,600.238475,148.6151782,-131.993765,91.41218092,323.2464983,474.2949882,0,11.25581232,182.7293752,0,-0.000982421,,,,
295.2399998,1153,-350.8742096,34.0333146,0,0,-136.0170364,-375.9784713,-110.2511979,107.335661,-57.26880939,-349.5782272,208.8599607,0,-6.995862506,-129.4677113,0,-0.000983754,,,,
295.2479998,1153,213.3146615,15.61209617,0,0,179.1226099,486.616112,107.3635017,-108.7439646,21.05500577,252.6247481,-444.337536,0,-28.59613257,51.58329186,0,-0.000985057,,,,
295.2559998,1153,25.47225847,-20.14809673,0,0,59.8118599,38.8252538,13.0218269,44.77540695,58.29996938,-18.28803843,895.0244065,0,46.50951388,98.12895652,0,-0.00098633,,,,
295.2639998,1153,-222.9648683,85.33550963,0,0,-50.42374596,-126.5661314,-57.17695268,46.39839458,-43.43800854,-137.9264555,-570.0723286,0,-33.23162299,-119.2990664,0,-0.000987574,,,,
295.2719998,1153,409.8053132,-51.88230944,0,0,260.7382689,594.0870915,158.2856809,-95.30546043,105.3077437,341.7034843,478.6678178,0,27.22384083,208.2069463,0,-0.000988787,,,,
295.2799998,1153,-303.4305103,39.43287413,0,0,-134.7555353,-372.5715231,-100.4099097,122.922172,-37.1775882,-330.5784261,235.036369,0,10.38804299,-105.7391012,0,-0.000989971,,,,
295.2879998,1153,253.035113,6.046028476,0,0,157.0931609,493.4628194,114.9484692,-106.2269287,30.69142306,245.700779,-421.8098903,0,-29.08238257,56.60591931,0,-0.000991126,,,,
295.2959998,1153,65.22217027,-43.86648834,0,0,24.94312031,57.932458,22.74494466,40.11186098,60.53448005,-35.68054211,917.165585,0,42.96450522,87.89653118,0,-0.000992251,,,,
295.3039998,1153,-186.1044489,50.12365787,0,0,-99.21726889,-102.6156943,-50.62424318,14.21366047,-54.51482417,-171.6430799,-542.967933,0,-35.22571063,-144.4745051,0,-0.000993347,,,,
295.3119998,1153,440.6224904,-76.16797225,0,0,205.0125275,623.2439697,161.7414606,-123.1371997,76.67204316,300.9687599,503.245958,0,10.77691175,175.2041383,0,-0.000994414,,,,
295.3199998,1153,-282.3960235,35.24516974,0,0,-182.2825476,-356.1688789,-101.2862144,124.588343,-51.9994575,-353.9147013,261.0993354,0,-4.83286629,-126.2493293,0,-0.000995451,,,,
295.3279998,1153,277.1221392,3.153381231,0,0,117.9138375,512.1161769,112.0303119,-111.3589752,22.53962645,237.3551947,-414.3827281,0,-35.46656039,46.47405228,0,-0.000996459,,,,
295.3359998,1153,98.35867573,-38.17942384,0,0,-8.77165626,87.96450357,23.68546034,45.30319327,42.38069743,-36.73491348,942.5256058,0,34.64385995,83.1344531,0,-0.000997439,,,,
295.3439998,1153,-165.9705864,67.9683602,0,0,-125.8261781,-87.29112308,-50.61085812,41.79350275,-55.63253807,-160.1181264,-518.4887024,0,-36.04839933,-137.9265636,0,-0.000998389,,,,
295.3519998,1153,465.9604273,-63.49890212,0,0,191.2941915,650.1569415,163.378669,-114.4856719,90.77145405,328.0205677,509.8642703,0,19.55069839,188.7579658,0,-0.000999311,,,,
295.3599998,1153,-253.3280454,46.38095814,0,0,-192.8189724,-328.2417247,-99.9548554,126.467865,-42.53314807,-338.7946586,290.4454315,0,0.195051912,-120.5436292,0,-0.001000203,,,,
295.3679998,1153,299.6818548,-2.996368068,0,0,109.5847786,540.8707031,111.4321856,-120.069566,27.7974155,239.1714796,-397.7036721,0,-38.07805883,49.29131688,0,-0.001001068,,,,
295.3759998,1153,125.9584321,-53.61669245,0,0,-13.52327823,130.6680236,24.91620362,21.10203959,38.99445177,-38.90591083,960.1358771,0,29.71138942,84.1028108,0,-0.001001903,,,,
295.3839998,1153,-151.3921805,74.29567501,0,0,-140.4838503,-71.93442679,-53.00205293,44.64290866,-64.98043905,-168.8596464,-500.5357782,0,-44.95083943,-147.377998,0,-0.00100271,,,,
295.3919998,1153,474.3778295,-56.84466994,0,0,174.9461348,655.337001,160.2351477,-97.76833019,86.09062303,337.480501,499.6952125,0,9.209190223,188.3203675,0,-0.001003489,,,,
295.3999998,1153,-249.4436,51.8732052,0,0,-209.6998375,-331.7724717,-105.9193349,138.4513023,-41.88531057,-319.4923869,279.1051063,0,2.670723337,-114.3405754,0,-0.001004239,,,,
295.4079998,1153,295.6998916,14.98247515,0,0,92.54368339,519.999778,105.0147934,-100.0625682,34.0798715,255.5669247,-426.4042263,0,-29.93926176,46.60296674,0,-0.001004962,,,,
295.4159998,1153,121.9004684,-40.98751023,0,0,-24.72347307,110.0691229,21.20279714,38.99272081,51.19595251,-19.52111476,928.6781917,0,31.89165389,85.60714715,0,-0.001005656,,,,
295.4239998,1154,-167.0460405,70.73551783,0,0,-154.1356967,-101.8525013,-67.07174708,36.33839726,-57.69076586,-167.3858586,-539.3565498,0,-43.35841695,-146.9383632,0,-0.001006322,,,,
295.4319998,1154,464.7959502,-76.943925,0,0,164.9675533,640.7452752,146.1455308,-125.4932443,73.1180293,317.4011051,449.8855803,0,4.319404329,179.2532496,0,-0.00100696,,,,
295.4399998,1154,-257.7574702,32.27044008,0,0,-219.6714219,-344.3790823,-114.5926411,124.4176896,-69.7746876,-350.9230803,244.3587453,0,-10.09176257,-127.7647527,0,-0.00100757,,,,
295.4479998,1154,282.5962741,0.074567141,0,0,81.30623886,500.7852626,91.94823424,-118.3796517,12.73479708,229.4950864,-485.4382985,0,-34.73542997,32.47894971,0,-0.001008153,,,,
295.4559998,1154,122.5743209,-65.59142319,0,0,-30.79150749,112.5216675,8.932756021,7.033340785,24.46750984,-47.82374895,884.7444726,0,27.80242552,72.02236795,0,-0.001008707,,,,
295.4639998,1154,-171.0110239,69.33489912,0,0,-167.9699791,-112.6340083,-79.65338694,38.71052275,-88.9566951,-204.4987132,-560.7098058,0,-56.15205286,-162.7458854,0,-0.001009234,,,,
295.4719998,1154,463.9947047,-58.47192693,0,0,155.3563074,631.2411481,136.7755807,-113.3445763,77.37656122,314.8188612,418.9564129,0,6.316801999,180.4768863,0,-0.001009734,,,,
295.4799998,1154,-255.4647237,35.04496983,0,0,-220.1255465,-335.0054304,-119.5145617,116.8812068,-57.07819697,-344.9412069,245.3721734,0,-1.406462514,-120.0144278,0,-0.001010207,,,,
295.4879998,1154,272.5338347,19.06295811,0,0,77.51750923,498.7612232,83.05265831,-107.6360495,4.938362529,225.0596396,-485.118233,0,-42.83779976,26.0536859,0,-0.001010652,,,,
295.4959998,1154,117.9101408,-40.62534093,0,0,-26.8092278,113.2877339,5.232466175,18.45621072,35.70472977,-20.41584576,882.3048667,0,27.82650997,77.15772513,0,-0.00101107,,,,
295.5039998,1154,-175.6851945,74.68364008,0,0,-159.5814914,-106.7372173,-74.91951673,33.71303543,-76.97783351,-179.7690361,-550.8951482,0,-48.84254134,-160.4890419,0,-0.00101146,,,,
295.5119998,1154,460.5318615,-43.0846728,0,0,165.4745596,637.1085444,141.9360457,-106.4711366,70.81258762,332.0840649,421.3857063,0,3.938513532,172.845127,0,-0.001011824,,,,
295.5199998,1154,-262.0770682,52.91454767,0,0,-209.7555553,-339.4362857,-115.9878012,135.2533521,-49.40321176,-312.1983501,256.1176259,0,1.699193631,-108.59781,0,-0.001012161,,,,
295.5279998,1154,264.9977359,12.48675028,0,0,86.15131258,497.2240544,91.85586213,-102.4975742,13.30952352,241.4616484,-484.9385083,0,-43.0826111,42.45947961,0,-0.001012471,,,,
295.5359998,1154,121.9667186,-49.31138811,0,0,-12.09503952,125.3756732,17.23043119,23.11856469,33.43644682,-17.49386615,889.8739297,0,21.58040708,87.16852743,0,-0.001012754,,,,
295.5439998,1154,-186.6563381,88.79482873,0,0,-148.6051356,-120.6794311,-74.22130726,64.53129801,-68.83911806,-170.5255471,-544.7486636,0,-41.56974604,-146.3454018,0,-0.001013011,,,,
295.5519998,1154,455.7581037,-42.11637205,0,0,182.7840255,632.9187135,144.7002107,-96.31897439,89.71607582,347.1151379,410.1553436,0,15.72663928,194.3392155,0,-0.001013241,,,,
295.5599998,1154,-250.1934519,30.3268456,0,0,-187.3172251,-320.1814974,-108.0660429,111.143923,-47.96777985,-320.8348004,277.4869856,0,1.897815549,-100.386048,0,-0.001013445,,,,
295.5679998,1154,266.715555,12.87919699,0,0,97.33173033,500.4604685,94.59400089,-97.17213736,3.784615673,222.1093423,-466.1250076,0,-44.6147286,35.01590447,0,-0.001013622,,,,
295.5759998,1154,126.5722799,-33.24069984,0,0,-2.657852001,129.5674126,22.9697194,46.41849746,47.78640654,-8.452260124,907.2860543,0,27.92457559,94.77881895,0,-0.001013773,,,,
295.5839998,1154,-183.1789439,88.26637252,0,0,-141.7922051,-110.243758,-68.10416365,62.09040985,-50.05885095,-162.2053525,-513.5780878,0,-37.80578493,-135.3616995,0,-0.001013898,,,,
295.5919998,1154,458.4038378,-49.21353675,0,0,189.2658341,656.3184494,155.3858313,-96.8679251,91.12185461,342.5126784,433.3173942,0,13.10505411,191.7264624,0,-0.001013997,,,,
295.5999998,1154,-245.9172814,31.41729048,0,0,-183.6355617,-290.3164063,-97.10053819,126.6901435,-48.20844513,-330.7012215,319.8618628,0,-0.547088507,-101.4476575,0,-0.00101407,,,,
295.6079998,1154,269.6834508,11.07661508,0,0,100.3556488,535.1968312,99.4982891,-101.3672285,9.361797845,218.5352663,-428.6392272,0,-43.04504587,42.98618878,0,-0.001014117,,,,
295.6159998,1154,135.0949512,-52.26499367,0,0,4.796589738,185.8097167,32.45900104,22.68197386,37.75824209,-17.29755694,951.8063849,0,28.253205,94.51210537,0,-0.001014138,,,,
295.6239998,1154,-179.8809716,78.2867698,0,0,-144.4556732,-58.78305212,-58.44401679,55.26959534,-77.90717085,-188.9404155,-455.5126943,0,-45.98299403,-155.175668,0,-0.001014133,,,,
295.6319998,1154,467.933182,-32.7125085,0,0,189.5840188,706.5279281,167.0303996,-91.15961471,83.89901976,350.6712297,483.3107529,0,6.10000415,181.2128365,0,-0.001014104,,,,
295.6399998,1154,-237.9521009,52.03488674,0,0,-180.9135467,-245.0053215,-86.43245316,126.8516719,-39.33298374,-305.4472976,384.1421473,0,3.185380878,-102.1697914,0,-0.001014048,,,,
295.6479998,1154,268.1995168,32.71254182,0,0,96.01403185,570.9296504,102.2326276,-98.91352218,11.92532636,232.3034624,-381.0423645,0,-39.46103304,33.64711905,0,-0.001013967,,,,
295.6559998,1154,148.585273,-32.6142385,0,0,13.75448114,244.2707581,37.16280233,17.14031399,51.75786703,16.23350606,1006.343482,0,30.94912209,101.4359872,0,-0.001013861,,,,
295.6639998,1154,-162.3718045,71.4065845,0,0,-130.8730125,15.78916841,-55.85849508,15.28192096,-67.1875243,-169.7900952,-372.2773264,0,-40.41163767,-142.4732566,0,-0.00101373,,,,
295.6719998,1154,480.3485012,-71.02162828,0,0,192.0195403,791.7045164,159.7516358,-153.0871119,61.23574315,326.8201502,567.2225306,0,-0.511213793,162.1520903,0,-0.001013574,,,,
295.6799998,1155,-233.7207125,-0.586833714,0,0,-183.342693,-155.6033043,-95.18758053,76.7366394,-79.79173722,-348.3459444,480.5146155,0,-16.00133508,-142.4884696,0,-0.001013392,,,,
295.6879998,1155,270.3508043,-15.84574884,0,0,95.17366763,662.023471,102.8258998,-135.7913473,-30.47916195,188.7700828,-288.9937689,0,-59.4072372,-11.04945892,0,-0.001013186,,,,
295.6959998,1155,151.8933282,-60.19190907,0,0,13.20763423,329.8102582,44.72573326,9.202364104,17.08571372,-17.96098825,1105.255441,0,16.13501767,58.29943271,0,-0.001012955,,,,
295.7039998,1155,-174.0022503,64.66696072,0,0,-132.031686,82.77691576,-45.36837025,45.45034737,-82.31102155,-189.1380867,-277.2267865,0,-49.57447013,-170.0190812,0,-0.001012699,,,,
295.7119998,1155,482.0044837,-62.07786437,0,0,205.3492154,876.1913252,182.0166365,-119.586399,68.08592082,335.0817149,652.7239668,0,0.03504864,162.3135964,0,-0.001012419,,,,
295.7199998,1155,-219.514008,25.27021948,0,0,-161.4532625,-66.68956072,-69.65901976,105.9024458,-58.13884508,-327.0592413,598.160654,0,-0.870171743,-125.2420029,0,-0.001012115,,,,
295.7279998,1155,281.9305271,10.23119578,0,0,117.9693797,751.3227894,126.0890069,-109.2975809,-3.46991762,210.5174573,-171.5172858,0,-39.77196238,14.28250654,0,-0.001011786,,,,
295.7359998,1155,174.4668386,-52.82293209,0,0,44.36064498,451.2504855,73.76762659,14.28785594,43.07580692,3.62370998,1237.826743,0,30.16138637,94.06503248,0,-0.001011432,,,,
295.7439998,1155,-164.9984652,49.54042976,0,0,-109.1003713,199.2331659,-26.97791682,26.00079502,-82.61425031,-200.4421053,-131.4439497,0,-47.43635961,-152.2817806,0,-0.001011055,,,,
295.7519998,1155,482.331102,-83.01408414,0,0,242.1247968,985.3788602,193.2277862,-133.5057178,42.04969734,307.2117935,770.9364162,0,-10.5005002,160.5444643,0,-0.001010653,,,,
295.7599998,1155,-219.2841683,4.567667234,0,0,-65.73010109,40.82641161,-58.68720743,102.3136464,-79.34398068,-344.4358686,714.2630713,0,-13.36125538,-123.1711886,0,-0.001010228,,,,
295.7679998,1155,274.5110678,-25.94071539,0,0,265.1668067,842.8376402,125.6386902,-127.392411,-25.86314411,184.8065809,-83.07772364,0,-50.02645485,1.270902221,0,-0.001009779,,,,
295.7759998,1155,168.9264497,-85.09523925,0,0,199.6781673,529.1302646,68.72468005,4.884310881,7.899883047,-32.74314894,1303.539733,0,16.12579071,61.64651839,0,-0.001009306,,,,
295.7839998,1155,-179.8842421,50.1890324,0,0,22.59809909,241.8325971,-34.84061653,44.19599392,-101.3193439,-218.4250854,-86.97789525,0,-53.65033835,-176.7964378,0,-0.001008809,,,,
295.7919998,1155,473.9937186,-76.68106464,0,0,342.6372891,1017.087422,187.7879473,-117.9854316,56.34246185,321.013283,784.7908113,0,2.843442024,157.7345523,0,-0.001008289,,,,
295.7999998,1155,-225.2492639,-4.612562483,0,0,-39.70200339,71.71575645,-60.7707461,102.5419669,-66.60527926,-343.8875821,738.421088,0,-3.327353818,-117.0664933,0,-0.001007745,,,,
295.8079998,1155,255.336431,-20.0927599,0,0,206.2030821,855.3944536,122.0463827,-125.2625461,-27.2588622,173.5765242,-81.92072913,0,-55.12053272,2.565692004,0,-0.001007178,,,,
295.8159998,1155,162.5146685,-81.48642814,0,0,123.6165564,549.023595,66.93189334,-9.560715735,17.42778945,-22.99344182,1301.433571,0,14.66990856,64.46668994,0,-0.001006588,,,,
295.8239998,1155,-176.4617498,26.50040363,0,0,-43.6660722,270.8513157,-38.29825203,-2.765415447,-92.73071266,-220.339059,-70.06578892,0,-56.82861255,-182.7323741,0,-0.001005974,,,,
295.8319998,1155,482.1645047,-83.45162009,0,0,274.4450504,1042.434148,181.8602968,-152.2739332,41.60548227,302.7715185,792.190763,0,-13.20078181,132.1126039,0,-0.001005338,,,,
295.8399998,1155,-216.0086496,13.19996033,0,0,-100.2365928,77.83590289,-69.96927562,89.56875167,-78.83399839,-346.7609498,747.8328213,0,-10.73514503,-140.0322172,0,-0.001004678,,,,
295.8479998,1155,271.8079283,-1.645492777,0,0,173.5614834,854.132306,115.4674757,-144.3332472,-16.05018006,192.3790361,-89.83280764,0,-47.38845408,-4.105661841,0,-0.001003996,,,,
295.8559998,1155,192.286336,-46.43370535,0,0,114.189554,543.1497019,63.39681663,-8.900234269,38.57066454,4.955277975,1295.422008,0,27.79352808,68.82250684,0,-0.001003291,,,,
295.8639998,1155,-153.8509357,65.48775762,0,0,-41.44834158,242.8684938,-44.57278275,15.71575131,-71.12702582,-194.6350681,-81.6248449,0,-41.44450034,-167.140698,0,-0.001002564,,,,
295.8719998,1155,514.7003959,-72.99620103,0,0,297.9063711,1030.405438,180.4338255,-157.6235752,57.91601981,326.4370565,761.8248724,0,-4.475461471,157.365858,0,-0.001001814,,,,
295.8799998,1155,-177.2752152,4.255131396,0,0,-75.80806617,68.19073584,-71.84466824,77.1785029,-72.68769142,-335.3148872,727.0276028,0,-10.08641223,-123.0695558,0,-0.001001042,,,,
295.8879998,1155,298.3668882,-32.14966552,0,0,178.6770383,835.4472445,107.7686512,-159.3683543,-34.45474496,180.6099789,-131.0853055,0,-58.95587575,-2.016595575,0,-0.001000247,,,,
295.8959998,1155,215.4449449,-81.25957393,0,0,108.6303198,528.8303184,56.33778832,-19.23806319,0.265936077,-19.64578616,1250.291842,0,6.871729421,67.35306669,0,-0.00099943,,,,
295.9039998,1155,-142.3343738,38.86223025,0,0,-66.28335794,212.5418474,-53.87071974,17.19887864,-96.26076359,-218.775364,-132.8148493,0,-55.74437553,-173.8343441,0,-0.000998591,,,,
295.9119998,1155,525.6117478,-121.444595,0,0,258.6095184,1016.512043,169.6793037,-181.6100803,35.1232153,298.4176384,697.092427,0,-19.12229059,142.7739002,0,-0.00099773,,,,
295.9199998,1155,-172.3029866,-26.7465789,0,0,-121.6635824,53.96265622,-80.9839575,68.32732845,-103.9128055,-373.4310515,684.1820712,0,-28.16261967,-145.9803325,0,-0.000996847,,,,
295.9279998,1155,293.3715224,-25.299058,0,0,121.669015,804.047139,99.43584556,-139.8338164,-47.31611988,157.2321728,-186.620494,0,-69.37783691,-23.77407643,0,-0.000995943,,,,
295.9359998,1156,220.6832191,-76.43483175,0,0,51.48398622,509.0727733,47.63387462,-11.07416023,6.940826006,-18.06933007,1193.690049,0,2.798584405,59.14055019,0,-0.000995017,,,,
295.9439998,1156,-140.6431715,44.47751622,0,0,-118.9553976,183.762813,-66.04874253,20.69012493,-92.06044121,-219.1221554,-181.6013751,0,-58.46395039,-178.4062975,0,-0.000994069,,,,
295.9519998,1156,530.0781467,-99.0421625,0,0,213.4194313,985.442369,159.0927634,-172.829979,38.80569832,300.906337,637.9281853,0,-20.80082021,139.5104373,0,-0.0009931,,,,
295.9599998,1156,-166.4138947,11.85068805,0,0,-159.9362169,8.288053781,-95.59796164,98.57327236,-79.67154606,-354.8577917,629.8737962,0,-21.99721763,-139.8615178,0,-0.000992109,,,,
295.9679998,1156,298.294729,-7.60498406,0,0,98.01013155,758.0998442,81.95099411,-129.6454187,-15.3260832,175.9698317,-255.7619577,0,-57.63515392,-9.161522022,0,-0.000991097,,,,
295.9759998,1156,236.9922267,-80.99724157,0,0,43.91832441,490.4214563,42.24498634,-24.21928103,17.59098439,-19.41552476,1139.452008,0,7.533103388,65.06312938,0,-0.000990064,,,,
295.9839998,1156,-141.20962,66.96604142,0,0,-132.4772874,135.6995051,-72.42577761,47.75621634,-85.17883749,-222.3619903,-229.8021569,0,-56.98258603,-183.3399713,0,-0.00098901,,,,
295.9919998,1156,525.793766,-80.40209069,0,0,204.5512022,934.0485255,149.2508988,-153.3192996,61.45873224,324.0504698,570.3480446,0,-11.18432123,150.738435,0,-0.000987936,,,,
295.9999998,1156,-164.6346478,14.35365593,0,0,-161.6513903,-28.22117042,-101.0970416,98.60661633,-66.90522585,-340.7431651,580.1179673,0,-11.27383054,-125.3889831,0,-0.00098684,,,,
296.0079998,1156,291.3400852,22.82333715,0,0,94.70972102,700.7900964,77.55644279,-96.38551265,-10.82921909,191.5442104,-317.9862323,0,-53.7548821,3.370036285,0,-0.000985724,,,,
296.0159998,1156,240.133227,-63.03864391,0,0,45.49607708,446.0355973,40.93823614,-4.99908078,28.38927445,15.15349353,1082.010786,0,13.15482255,96.08715391,0,-0.000984587,,,,
296.0239998,1156,-134.9151445,48.10955013,0,0,-136.7810886,110.9506462,-75.53994943,31.20488828,-96.56106171,-228.787543,-265.3294094,0,-54.31436069,-164.3207287,0,-0.000983429,,,,
296.0319998,1156,527.1942125,-78.8805039,0,0,196.4402809,903.4839596,146.8124125,-145.2478678,40.77072257,308.7070823,530.02502,0,-16.65685203,157.1756849,0,-0.000982252,,,,
296.0399998,1156,-165.0386367,22.17092757,0,0,-161.8325611,-63.53634335,-97.98542031,114.1743962,-65.3191171,-332.5072009,559.5087464,0,-12.77365461,-108.7272457,0,-0.000981054,,,,
296.0479998,1156,298.0675495,3.045627404,0,0,102.8410811,691.5917919,86.63383885,-114.4572708,-9.353352967,179.6551081,-322.1497424,0,-48.88569005,5.331545056,0,-0.000979835,,,,
296.0559998,1156,250.1335079,-62.47226941,0,0,51.02375699,444.579808,51.59812525,-4.199528849,29.8473232,6.111822945,1102.714895,0,21.15412626,83.18674574,0,-0.000978597,,,,
296.0639998,1156,-128.9931614,54.39832541,0,0,-128.1791897,104.371692,-64.48196938,39.32119013,-80.16217557,-215.6409673,-230.9791103,0,-43.14598627,-169.6664367,0,-0.000977339,,,,
296.0719998,1156,556.5002552,-104.2487231,0,0,221.147973,946.7936579,169.8598604,-178.3976289,40.22249072,309.2202643,579.7697375,0,-3.898989562,151.7120023,0,-0.000976061,,,,
296.0799998,1156,-131.4258615,8.330394953,0,0,-146.7842005,-3.52318696,-75.70918135,84.61748684,-88.0699553,-346.8210102,646.5973911,0,-4.088002029,-124.4762737,0,-0.000974763,,,,
296.0879998,1156,323.8602056,-8.646092132,0,0,108.5353672,754.8506137,99.69782476,-142.2279034,-32.04480591,173.07598,-239.1032654,0,-50.12447331,-8.959986414,0,-0.000973446,,,,
296.0959998,1156,286.7218175,-84.40487384,0,0,63.12341605,537.8893505,66.14852362,-37.86030127,0.817254697,-6.358958454,1206.068208,0,16.39983589,74.29731311,0,-0.000972109,,,,
296.1039998,1156,-99.69156413,50.57929921,0,0,-121.1910618,198.488936,-51.13723271,22.38634628,-102.5468677,-229.8790399,-103.332223,0,-45.52092586,-178.3169411,0,-0.000970753,,,,
296.1119998,1156,590.2494805,-104.6671436,0,0,228.1846282,1053.92792,185.4652862,-190.3738629,29.67381127,310.0892643,716.0807136,0,-10.10255908,145.1828403,0,-0.000969377,,,,
296.1199998,1156,-98.93934391,18.90596954,0,0,-146.1064179,82.61037078,-59.59195565,101.0257495,-91.261266,-341.6683276,793.3598017,0,-3.823861217,-134.6878368,0,-0.000967983,,,,
296.1279998,1156,338.1042924,1.584904416,0,0,94.61062397,795.7532883,107.3397518,-119.2177979,-20.32663024,183.0128628,-150.8338061,0,-41.09396123,-19.91287473,0,-0.000966569,,,,
296.1359998,1156,288.137121,-79.74513994,0,0,33.60623329,536.930488,59.15892199,-19.44458141,4.734569682,-9.76185671,1232.323603,0,16.75460068,63.25348319,0,-0.000965136,,,,
296.1439998,1156,-130.7781442,85.42744377,0,0,-172.4786561,105.6520371,-77.52661834,70.78572443,-95.92120416,-231.6428347,-165.9481797,0,-44.88306558,-195.8642671,0,-0.000963685,,,,
296.1519998,1156,541.1668452,-64.85592345,0,0,173.3609439,900.9201153,148.8827327,-143.9405207,60.89133371,338.0997777,539.5424923,0,-6.33915734,136.0093832,0,-0.000962214,,,,
296.1599998,1156,-160.4157968,38.72758555,0,0,-199.8688453,-101.7886679,-110.3600932,123.4675477,-66.46539983,-328.0819096,565.9825588,0,-8.149772093,-136.853817,0,-0.000960725,,,,
296.1679998,1156,258.0093251,26.33811046,0,0,39.43444155,574.1069037,43.88325899,-100.0011726,-10.1251205,185.773161,-422.4373375,0,-47.60207157,-30.79508209,0,-0.000959218,,,,
296.1759998,1156,212.3641787,-38.23686189,0,0,-5.413153059,311.7995982,8.329689148,20.06058498,26.97790748,21.06896487,952.8265266,0,19.24854027,57.89079182,0,-0.000957692,,,,
296.1839998,1156,-203.203655,107.3182388,0,0,-193.2244494,-102.6359048,-115.788463,103.4778168,-71.55213665,-208.837625,-423.1696122,0,-33.39313927,-189.0721225,0,-0.000956148,,,,
296.1919998,1157,473.8878843,-63.34579057,0,0,155.5444769,708.1903784,110.4053431,-130.3935574,62.04277206,333.5958623,296.6364461,0,0.487045046,138.5488149,0,-0.000954585,,,,
296.1999998,1157,-222.6970363,50.69310513,0,0,-219.2285336,-294.2725682,-144.0512846,150.5673916,-63.66267296,-328.0058517,351.2583394,0,-1.362463183,-131.3370197,0,-0.000953005,,,,
296.2079998,1157,205.8587649,22.11865934,0,0,33.04775427,411.412577,22.52738045,-89.17294806,4.984198783,191.3410599,-622.6868519,0,-32.28562781,-10.86498226,0,-0.000951406,,,,
296.2159998,1157,174.2152326,-55.90952431,0,0,-7.765428917,179.2995553,-10.19654353,10.93844921,23.03840608,6.921647041,788.1346261,0,24.81267372,72.38041118,0,-0.00094979,,,,
296.2239998,1157,-251.6003833,111.7471965,0,0,-206.5172159,-257.4187772,-141.0659207,114.1944099,-73.72435388,-221.1204509,-576.343269,0,-36.81883517,-183.8549172,0,-0.000948156,,,,
296.2319998,1157,430.0382723,-62.07371161,0,0,150.7073796,564.8164014,89.46018813,-127.6060758,82.10589167,346.2376954,137.3476973,0,5.697662247,152.2892839,0,-0.000946504,,,,
296.2399998,1157,-260.7989699,46.37664478,0,0,-220.1732734,-422.5113112,-159.1094383,146.5763286,-56.40304486,-331.7735853,227.1525109,0,2.592806207,-127.9858186,0,-0.000944835,,,,
296.2479998,1157,158.9864289,44.48864345,0,0,28.58506084,267.1698991,11.62806824,-67.57257293,13.04190533,194.3562748,-757.3941788,0,-31.89257148,-17.69353555,0,-0.000943148,,,,
296.2559998,1157,136.699681,-41.94580841,0,0,-9.652701022,45.60482772,-18.91037879,16.55673586,46.16627158,35.79044602,658.8663684,0,29.4314406,81.729737,0,-0.000941444,,,,
296.2639998,1157,-288.6076246,112.3343631,0,0,-216.6459313,-388.3000362,-151.9873867,110.2063184,-70.89529655,-219.181326,-681.5855436,0,-36.41809809,-182.6117175,0,-0.000939722,,,,
296.2719998,1157,398.4971331,-37.76435532,0,0,149.6242083,441.8176926,92.33234912,-102.5156386,86.81908897,363.8700703,20.65980147,0,9.647277952,151.3976383,0,-0.000937984,,,,
296.2799998,1157,-285.0872237,68.36566511,0,0,-219.5696834,-533.2904773,-157.8721202,161.4305337,-37.6739169,-296.7788498,131.3024991,0,9.873713193,-109.9063802,0,-0.000936229,,,,
296.2879998,1157,128.1558993,65.92101554,0,0,9.553450058,147.6212623,-8.943161669,-60.65423712,17.31202467,203.7681443,-855.1073253,0,-33.02441783,-4.636233072,0,-0.000934456,,,,
296.2959998,1157,110.5453186,-13.87832616,0,0,-20.25310797,-68.68784337,-38.36010557,26.79263538,63.35208666,60.01161059,558.7293392,0,34.69966361,95.29786747,0,-0.000932667,,,,
296.3039998,1157,-318.4834123,119.5900053,0,0,-217.2707476,-496.778962,-166.6560108,102.7875405,-38.05036585,-200.6016585,-768.9256875,0,-25.93668476,-169.1429542,0,-0.000930861,,,,
296.3119998,1157,368.288538,-43.89201101,0,0,147.1213695,343.7019709,73.07604722,-106.6500596,101.0323771,351.3176708,-70.85095879,0,11.62262833,152.632583,0,-0.000929039,,,,
296.3199998,1157,-314.8655323,60.31443399,0,0,-216.6830161,-623.4391574,-172.7143483,167.0075087,-37.6133322,-319.2215613,61.91320338,0,9.08095465,-113.6438354,0,-0.0009272,,,,
296.3279998,1157,96.01851656,67.64712554,0,0,24.19828096,61.62195862,-4.44680674,-41.887127,23.11235357,189.4166814,-921.182732,0,-28.26747088,-7.084186391,0,-0.000925345,,,,
296.3359998,1157,87.55627175,-16.01910778,0,0,4.725768101,-132.3937038,-19.17258075,51.83002364,76.84777004,60.24772395,506.450152,0,46.25568066,103.894391,0,-0.000923474,,,,
296.3439998,1157,-346.6815509,96.87837617,0,0,-205.1068469,-549.4869403,-155.599676,97.74611464,-45.85261976,-218.8492571,-795.5938018,0,-22.66783774,-167.0412886,0,-0.000921587,,,,
296.3519998,1157,339.8180255,-51.09500103,0,0,145.1905695,292.5702747,78.24277322,-120.6843425,84.18900239,335.6729067,-98.03187075,0,4.730927765,141.8368199,0,-0.000919683,,,,
296.3599998,1157,-349.011308,68.55236175,0,0,-220.3598278,-685.2796339,-166.9726175,170.1612342,-25.60002291,-305.489403,43.56315772,0,9.285546807,-118.3347577,0,-0.000917764,,,,
296.3679998,1157,54.87928051,48.08928444,0,0,13.83432625,5.635814833,-6.401900998,-65.10507985,32.02286274,193.2345655,-944.7727361,0,-33.68731893,-17.22863404,0,-0.000915829,,,,
296.3759998,1157,56.54958837,-44.90233945,0,0,-10.65617177,-168.6857077,-27.22063015,14.12730233,62.33837631,42.11799449,492.071746,0,25.64434434,78.76744533,0,-0.000913878,,,,
296.3839998,1157,-388.4619705,104.1309617,0,0,-218.9837153,-606.6897387,-165.0342458,105.3117131,-51.96957504,-232.822039,-814.2213615,0,-38.27796578,-189.8138982,0,-0.000911911,,,,
296.3919998,1157,305.5096146,-34.7255012,0,0,145.6680882,243.3134343,74.85397058,-101.7555656,91.9957274,346.856819,-131.7754416,0,3.892180168,141.9427122,0,-0.000909929,,,,
296.3999998,1157,-368.8559192,70.43405795,0,0,-207.6014701,-716.0944521,-165.280982,176.2316075,-21.17355591,-292.667279,36.88604571,0,16.97606297,-105.2965779,0,-0.000907932,,,,
296.4079998,1157,28.29534882,62.4261663,0,0,30.98904284,-38.24110372,-3.10560028,-39.67323786,33.23620202,198.0653112,-962.2276666,0,-26.32576509,-4.995682661,0,-0.00090592,,,,
296.4159998,1157,43.48985744,-24.28587585,0,0,14.66619781,-205.8668486,-16.59918514,46.8507102,69.33076955,59.69797903,472.892686,0,39.58272301,102.0693372,0,-0.000903892,,,,
296.4239998,1157,-396.3056349,119.0125015,0,0,-197.369545,-645.3275936,-156.5686178,117.0824869,-38.08111502,-212.8196502,-822.3040592,0,-17.05199252,-169.6702672,0,-0.00090185,,,,
296.4319998,1157,301.3272422,-21.34437809,0,0,164.6891111,209.163557,79.80887061,-110.6778549,109.3555355,362.6516828,-148.0183086,0,15.45714359,143.1362292,0,-0.000899792,,,,
296.4399998,1157,-365.0817176,77.5383773,0,0,-192.2499952,-741.9643199,-162.9119595,158.9239009,-5.60401242,-290.1468858,43.0273442,0,22.62630058,-116.3429058,0,-0.00089772,,,,
296.4479998,1158,33.88275159,64.90463206,0,0,36.88139285,-62.7927577,-9.761377829,-72.79802132,56.78178461,200.0466587,-964.385177,0,-19.01878432,-20.57346758,0,-0.000895633,,,,
296.4559998,1158,55.7116161,-18.71042328,0,0,23.1364392,-221.4217275,-23.68371668,10.00066858,100.9221622,72.15564201,477.9859779,0,45.58782557,86.11955363,0,-0.000893531,,,,
296.4639998,1158,-392.8624264,119.6858114,0,0,-190.321665,-666.9780575,-166.6273969,83.67193217,-16.3022729,-211.95871,-798.8816921,0,-11.90457619,-186.4084429,0,-0.000891415,,,,
296.4719998,1158,313.6200697,-35.91266476,0,0,172.652866,200.9691856,67.73084989,-159.6746818,122.0222138,363.4150785,-139.4705682,0,15.84381959,131.8837571,0,-0.000889284,,,,
296.4799998,1158,-339.9959423,67.86835481,0,0,-184.067861,-749.8001659,-167.4133565,129.8548249,-4.902432278,-300.3700205,63.25270118,0,20.29497473,-130.3370677,0,-0.00088714,,,,
296.4879998,1158,58.06175973,60.69486552,0,0,40.19783951,-79.95591091,-9.632784057,-85.64351078,47.0585851,178.1619896,-951.9084948,0,-20.92718612,-34.21281422,0,-0.000884981,,,,
296.4959998,1158,96.53812627,-15.07231567,0,0,32.42947259,-229.3793793,-19.6748274,0.873402299,98.39359995,71.76109446,488.2864936,0,40.65410184,84.59638959,0,-0.000882808,,,,
296.5039998,1158,-349.5090394,149.4767109,0,0,-178.3073195,-692.5928814,-154.9850774,117.5771008,-5.973359616,-195.643921,-785.1464262,0,-5.793072991,-179.1245446,0,-0.000880621,,,,
296.5119998,1158,353.3591753,-21.91193762,0,0,190.1299835,182.8600831,83.35961987,-134.8483196,134.1065906,387.6330645,-137.9512283,0,32.9460758,159.7919552,0,-0.00087842,,,,
296.5199998,1158,-307.8407794,64.30460666,0,0,-159.5551787,-760.3211809,-159.3917399,132.1095941,-12.21741164,-289.454862,75.74382091,0,23.66870139,-100.4241339,0,-0.000876206,,,,
296.5279998,1158,77.00451362,79.56049136,0,0,72.09362344,-103.9634306,1.10420696,-54.78687719,34.8974285,193.647157,-959.0638487,0,-19.77695333,-15.56780269,0,-0.000873977,,,,
296.5359998,1158,116.5727519,-15.13285902,0,0,71.38338542,-236.7329425,-3.883499654,13.60014467,98.49147723,106.562601,479.1967334,0,53.06221947,120.0142704,0,-0.000871736,,,,
296.5439998,1158,-342.6794677,121.2761692,0,0,-155.1144478,-698.7022787,-151.9300106,106.4826932,-24.67859739,-198.6111935,-783.8296897,0,-12.09858252,-150.361113,0,-0.000869481,,,,
296.5519998,1158,366.0029491,-45.4793746,0,0,207.2873042,186.0783739,89.80566397,-140.7042057,112.542473,370.4322058,-146.7282467,0,12.44439362,165.3376716,0,-0.000867213,,,,
296.5599998,1158,-281.6260836,34.26730751,0,0,-147.3971749,-744.9186924,-152.7649154,114.1074387,-15.71452117,-298.8544568,91.39574663,0,15.99709049,-98.08800492,0,-0.000864931,,,,
296.5679998,1158,89.85022218,56.29638333,0,0,59.87613466,-102.7494525,-8.886201377,-62.15856311,18.96793456,161.9048435,-949.031112,0,-31.52280184,-23.40663602,0,-0.000862637,,,,
296.5759998,1158,134.0022687,-33.76928481,0,0,56.36589741,-226.7809453,-10.62266737,8.911445819,77.69294563,76.04341763,483.4408346,0,36.32618477,103.7892829,0,-0.000860329,,,,
296.5839998,1158,-326.836197,106.1893693,0,0,-168.5263258,-689.445013,-154.7814052,100.6568051,-43.93881221,-226.1125882,-774.629197,0,-18.8105513,-173.7130101,0,-0.000858009,,,,
296.5919998,1158,372.8352256,-23.45627149,0,0,190.3120523,180.0713858,88.08459953,-104.0570891,101.3448232,363.3054511,-158.540819,0,11.96055954,149.2407046,0,-0.000855676,,,,
296.5999998,1158,-274.0337442,59.93179377,0,0,-159.5372836,-756.760334,-146.1182979,149.7117071,-4.588491121,-276.8546287,86.34363562,0,23.57442882,-90.11957722,0,-0.00085333,,,,
296.6079998,1158,97.45514987,52.09768051,0,0,51.98600238,-105.5418115,-0.344854472,-66.45776638,19.15946083,169.5398244,-954.5882649,0,-23.03861557,-12.6120236,0,-0.000850972,,,,
296.6159998,1158,148.5976916,-36.72707408,0,0,50.88942434,-219.8289291,-3.104745915,14.93732749,66.64284244,77.31322782,486.7726065,0,37.73291884,113.769835,0,-0.000848601,,,,
296.6239998,1158,-315.7771665,106.2668345,0,0,-169.7524697,-693.4748654,-147.4667048,113.889546,-45.9542905,-220.006285,-762.7637361,0,-17.83029066,-161.621751,0,-0.000846218,,,,
296.6319998,1158,388.5326653,-56.56176024,0,0,196.9879981,195.8515513,95.40751907,-130.2702536,83.81618739,353.2580882,-147.2761846,0,13.24184764,150.0896432,0,-0.000843823,,,,
296.6399998,1158,-257.1291086,7.276976342,0,0,-162.3570355,-725.5227136,-143.2242184,112.7989934,-45.99083974,-315.6986429,118.9218282,0,12.76768679,-110.2381577,0,-0.000841416,,,,
296.6479998,1158,105.1302758,22.25910351,0,0,41.0664288,-82.04054687,1.821519787,-81.55331159,-19.42972891,126.4010455,-939.0028425,0,-47.36306633,-43.79549283,0,-0.000838996,,,,
296.6559998,1158,160.0915866,-42.16991279,0,0,44.20339288,-197.9131774,0.708232044,13.13939355,43.85275319,54.90009493,505.2319229,0,21.68084584,88.5255526,0,-0.000836565,,,,
296.6639998,1158,-315.3025531,110.7044251,0,0,-185.728408,-690.2457638,-146.7121816,121.8522712,-54.26293255,-227.4309312,-738.240029,0,-21.38671373,-178.7901072,0,-0.000834122,,,,
296.6719998,1158,382.5895023,-41.81996466,0,0,178.6750021,197.2374726,95.34466433,-122.405427,89.1008062,366.6388821,-141.2974762,0,7.589256208,151.8913358,0,-0.000831668,,,,
296.6799998,1158,-263.0021937,29.76915913,0,0,-173.2948894,-726.0512389,-145.9069857,126.4298487,-36.36642056,-296.3887942,143.8926309,0,12.76251689,-94.68460802,0,-0.000829201,,,,
296.6879998,1158,100.3386939,48.3718831,0,0,38.36305697,-85.14201136,5.524595524,-55.64534847,-4.859242274,154.7559018,-920.5989508,0,-30.93722904,-28.29776385,0,-0.000826724,,,,
296.6959998,1158,163.1234968,-18.27010488,0,0,47.43236132,-187.0720164,11.04365432,33.76183023,65.7386333,99.56845601,531.6101566,0,39.50957747,115.2675198,0,-0.000824235,,,,
296.7039998,1159,-322.1931783,124.4567706,0,0,-181.4819653,-681.1859652,-140.8239937,137.0607962,-37.48485183,-205.5473045,-698.4851641,0,-10.73414925,-148.2890795,0,-0.000821734,,,,
296.7119998,1159,387.6570618,-18.98319388,0,0,195.9596072,220.2482815,109.5516054,-94.65754308,104.7678566,383.17384,-114.2603544,0,21.76194821,180.2027812,0,-0.000819223,,,,
296.7199998,1159,-246.2974809,54.48913171,0,0,-153.3330059,-697.6635807,-129.525576,149.0943356,-12.22427506,-263.5722354,190.9168242,0,32.07496731,-60.83577495,0,-0.0008167,,,,
296.7279998,1159,107.3640546,42.46303257,0,0,49.93180079,-57.17911817,9.658292066,-66.89095415,10.98023467,174.3948717,-887.6124818,0,-16.41091448,-7.580981173,0,-0.000814167,,,,
296.7359998,1159,179.2255591,-40.68473626,0,0,61.46186452,-139.5192759,15.37993115,8.627268149,67.9122752,96.82764925,562.2920002,0,46.97026674,113.4892773,0,-0.000811623,,,,
296.7439998,1159,-309.3120321,108.2746097,0,0,-174.698458,-644.5389146,-138.0378508,116.6921392,-37.23164115,-222.7060357,-656.4938843,0,-5.276860623,-165.6164585,0,-0.000809068,,,,
296.7519998,1159,399.0698561,-36.57405045,0,0,197.244334,255.5594009,107.6484152,-122.904174,101.5805904,370.9947088,-95.76882475,0,26.04063908,154.2846942,0,-0.000806502,,,,
296.7599998,1159,-238.3871412,39.2327209,0,0,-154.0044657,-663.3163662,-130.1362711,132.301385,-18.79161745,-275.6997541,216.1885572,0,31.0639924,-86.00226721,0,-0.000803926,,,,
296.7679998,1159,103.5635138,34.06531756,0,0,46.1193705,-31.42918441,11.23734332,-72.68735162,4.737620977,159.8266123,-870.1038353,0,-24.98735017,-21.38727829,0,-0.00080134,,,,
296.7759998,1159,186.3051478,-63.83581106,0,0,64.61905393,-95.19894222,17.37219544,-18.42087895,47.98969571,84.23635865,582.1364504,0,33.48958513,104.1675315,0,-0.000798743,,,,
296.7839998,1159,-311.6736851,84.2766431,0,0,-173.261962,-609.2922132,-141.1809123,100.0711808,-76.07274434,-249.2991049,-627.6737938,0,-23.74954061,-187.90462,0,-0.000796136,,,,
296.7919998,1159,390.0223224,-55.99566599,0,0,207.2864237,293.5280098,110.5803633,-123.6854046,69.37672136,357.6013681,-79.69432288,0,6.626271333,143.6967642,0,-0.000793519,,,,
296.7999998,1159,-245.2326226,20.93656639,0,0,-133.4539017,-627.9317724,-124.09908,136.0777938,-44.18015626,-288.1680534,246.8109257,0,13.02100709,-87.86672562,0,-0.000790892,,,,
296.8079998,1159,85.39202557,39.63100719,0,0,66.27310181,-25.90594992,9.609660751,-48.80147932,-10.37038215,146.6469488,-860.6335749,0,-36.88732205,-28.91968012,0,-0.000788255,,,,
296.8159998,1159,175.2817509,-51.81187152,0,0,95.62075966,-85.774277,19.52076795,1.05855043,60.89778985,100.8957235,581.4749356,0,34.9681436,118.3181277,0,-0.000785609,,,,
296.8239998,1159,-320.5099663,98.23643348,0,0,-145.5335255,-607.4500349,-136.6846958,117.7912138,-55.80160568,-235.6149355,-616.7121724,0,-17.25239288,-163.4622311,0,-0.000782952,,,,
296.8319998,1159,388.3374577,-35.11621797,0,0,223.2759525,293.6994777,115.5989961,-101.206413,93.08220898,378.8887488,-72.26128745,0,15.75893788,167.2109433,0,-0.000780286,,,,
296.8399998,1159,-245.4757367,40.97748414,0,0,-129.0549371,-626.4084559,-118.9168112,151.516703,-22.10302349,-268.6187063,276.9133225,0,20.95618118,-67.95184888,0,-0.000777611,,,,
296.8479998,1159,76.17671807,73.65398424,0,0,63.79372889,-33.41596304,18.54546068,-23.14649198,5.530906032,159.6696975,-840.511293,0,-25.99994178,-12.9029317,0,-0.000774926,,,,
296.8559998,1159,179.7527495,-23.10768255,0,0,98.79114641,-77.32454023,35.34013117,23.28623352,83.59338701,131.7936719,610.3325521,0,56.51693498,145.8503059,0,-0.000772232,,,,
296.8639998,1159,-323.4767771,92.26147803,0,0,-152.4712538,-593.3797599,-133.0094756,96.80461974,-53.0128688,-241.7620884,-572.7697115,0,-9.846276643,-151.9021061,0,-0.000769529,,,,
296.8719998,1159,379.9642312,-48.50625948,0,0,214.3683064,316.8543188,117.1347023,-129.4674826,75.67405992,346.8170487,-50.12846864,0,6.186127233,156.2462916,0,-0.000766817,,,,
296.8799998,1159,-250.6537145,30.33138405,0,0,-132.4964248,-602.5171553,-113.3714278,146.7608365,-31.90960799,-289.4680116,309.0862986,0,16.78528935,-78.99610667,0,-0.000764096,,,,
296.8879998,1159,63.22537512,37.7628266,0,0,51.24063207,-5.434376435,13.47132308,-60.68309725,-13.2949244,121.5068033,-816.541249,0,-36.65873266,-35.10710997,0,-0.000761366,,,,
296.8959998,1159,174.3559584,-54.78105655,0,0,84.38139293,-35.89905003,36.41330761,-13.97650588,54.66346595,88.73316009,638.2620548,0,36.37130864,114.8594028,0,-0.000758627,,,,
296.9039998,1159,-341.3782279,100.5719378,0,0,-172.6475718,-586.0740833,-131.3174981,112.2634976,-66.76132703,-257.5414931,-546.2758729,0,-18.72588061,-176.7417202,0,-0.00075588,,,,
296.9119998,1159,354.6380575,-27.02988249,0,0,191.9659973,314.0816714,103.7127096,-124.5274458,74.05194853,361.9462111,-52.76348595,0,5.32991771,143.3977646,0,-0.000753124,,,,
296.9199998,1159,-274.8856447,37.79544349,0,0,-148.0291303,-601.14289,-132.597251,126.6736819,-25.92193459,-263.535255,317.0073167,0,17.22105026,-82.35465967,0,-0.00075036,,,,
296.9279998,1159,23.34887448,33.72658828,0,0,35.6669008,-23.67307158,-5.047340165,-62.75250071,-8.481017479,135.5856807,-822.2953946,0,-41.40165761,-41.43003899,0,-0.000747587,,,,
296.9359998,1159,131.526983,-59.05063335,0,0,68.75170923,-54.74222018,20.13859752,2.022741544,53.53392102,95.38613369,627.7158768,0,25.84555,112.0912488,0,-0.000744806,,,,
296.9439998,1159,-392.6233965,94.9176166,0,0,-184.4431226,-617.7902438,-145.4210506,131.9995973,-55.92541339,-248.4706831,-559.2907617,0,-22.44238685,-171.5664522,0,-0.000742017,,,,
296.9519998,1159,310.963194,-50.74650408,0,0,197.2197138,288.4471569,102.8964959,-112.5669878,83.4804787,363.81675,-83.13810223,0,3.447107501,150.1366604,0,-0.00073922,,,,
296.9599998,1160,-308.022928,8.798373262,0,0,-125.5590168,-615.6938098,-124.7594303,133.7997916,-34.60569323,-284.5615023,306.2250509,0,16.72144863,-83.14328081,0,-0.000736415,,,,
296.9679998,1160,-15.66245009,36.12083806,0,0,84.19191374,-56.19589922,-3.301517704,-40.45084359,-9.392173758,117.6076246,-855.893878,0,-30.79594452,-47.59787818,0,-0.000733603,,,,
296.9759998,1160,106.9288059,-54.02398174,0,0,157.5857116,-81.82217152,20.60576676,12.38883978,70.21135651,99.27088349,580.9110145,0,39.76669512,120.5044802,0,-0.000730782,,,,
296.9839998,1160,-414.6849888,72.065118,0,0,-95.02247556,-637.5588853,-147.7003595,111.9113845,-55.50253914,-272.4189448,-589.5896343,0,-20.23957218,-171.7169064,0,-0.000727954,,,,
296.9919998,1160,283.9846756,-67.84578627,0,0,283.5710344,262.5597405,93.16452861,-126.4947103,73.14932705,323.075202,-124.978802,0,-1.211602235,131.5694546,0,-0.000725119,,,,
296.9999998,1160,-334.6568053,6.678607916,0,0,2.195216408,-659.0605426,-140.4889025,132.3830602,-25.34016343,-301.499859,266.1761526,0,13.84463344,-95.06105523,0,-0.000722276,,,,
297.0079998,1160,-35.08841715,18.70849838,0,0,242.120797,-91.33367329,-17.73896879,-61.32826759,-5.941909204,101.7965649,-899.7532966,0,-41.4545074,-61.22284393,0,-0.000719425,,,,
297.0159998,1160,97.40060757,-77.88057591,0,0,289.3771454,-100.4006105,6.548791179,-14.21342291,53.68113707,79.35395358,552.3810063,0,23.39249619,96.95008408,0,-0.000716568,,,,
297.0239998,1160,-438.1234348,81.80805325,0,0,-16.67072419,-684.7677664,-165.7323355,120.6066194,-66.14624147,-273.0558488,-615.6029994,0,-28.02639661,-192.8364909,0,-0.000713703,,,,
297.0319998,1160,271.5244716,-48.72147064,0,0,332.6045856,228.1833767,86.25281958,-110.7929318,81.41789171,359.3507261,-168.9790352,0,4.421441103,133.8357892,0,-0.000710831,,,,
297.0399998,1160,-339.523744,14.42145619,0,0,-12.11678542,-677.7322086,-137.8876125,143.8908267,-17.12654955,-272.897964,251.6440483,0,25.59920617,-78.6883876,0,-0.000707953,,,,
297.0479998,1160,-55.99356782,39.10664973,0,0,134.02286,-128.6138901,-14.16270996,-34.92779927,0.168434198,116.4336002,-922.355882,0,-29.5690361,-44.55082078,0,-0.000705067,,,,
297.0559998,1160,87.93568326,-65.34837475,0,0,175.6144058,-123.710182,13.14883141,-3.201059122,68.17590236,107.3400824,520.4610326,0,35.28203403,119.4385777,0,-0.000702175,,,,
297.0639998,1160,-447.0975195,81.85112343,0,0,-99.36731396,-706.3144476,-163.9336639,116.4327092,-63.30577771,-272.5468349,-634.3611387,0,-22.38637742,-182.0330338,0,-0.000699276,,,,
297.0719998,1160,257.4975669,-42.40035667,0,0,253.0480064,205.0149021,84.21904631,-116.3966268,78.06345297,350.9260126,-202.9779376,0,0.505448316,135.0120724,0,-0.000696371,,,,
297.0799998,1160,-353.8475,16.3973461,0,0,-80.89894327,-697.5046544,-142.8148643,126.4901039,-19.34494453,-277.0516884,226.807666,0,17.31810931,-81.07846329,0,-0.000693459,,,,
297.0879998,1160,-76.26982367,38.81557187,0,0,81.14258903,-153.5590987,-18.85446505,-55.89336129,-8.266318989,107.8037606,-953.9708871,0,-33.24040801,-54.21268695,0,-0.000690541,,,,
297.0959998,1160,73.95026707,-72.34078191,0,0,136.1506787,-144.5613012,14.27178348,-24.47933257,61.16382363,104.3733395,488.7767592,0,34.15792255,114.2250898,0,-0.000687617,,,,
297.1039998,1160,-461.8345085,65.45251668,0,0,-132.0513031,-734.4483632,-167.5421194,90.82879487,-65.89140505,-288.8598758,-660.6347035,0,-28.21973305,-189.4722377,0,-0.000684687,,,,
297.1119998,1160,255.8708019,-55.42183014,0,0,237.7260754,181.7858773,78.65438533,-143.898874,79.88995631,340.6354392,-243.6237154,0,-4.404738829,125.6847507,0,-0.00068175,,,,
297.1199998,1160,-336.8950536,5.076292134,0,0,-77.06853079,-723.2507197,-147.1067091,106.3154175,-19.41504479,-288.2973141,204.6536979,0,16.36895155,-89.06245339,0,-0.000678808,,,,
297.1279998,1160,-51.16556125,33.68883793,0,0,84.86528289,-183.4696714,-27.11387009,-66.55844679,-5.06798741,88.31405836,-984.5429404,0,-34.28087682,-63.82687263,0,-0.00067586,,,,
297.1359998,1160,119.3599925,-73.57846265,0,0,147.6239517,-149.7894486,11.90241525,-33.11992314,74.91627928,106.3388636,466.6207205,0,39.30001016,119.624732,0,-0.000672906,,,,
297.1439998,1160,-416.0291549,59.34916501,0,0,-114.9014087,-739.9507377,-159.9477665,92.04564654,-57.60689883,-290.6889198,-652.5944478,0,-16.38265566,-176.4956277,0,-0.000669946,,,,
297.1519998,1160,303.137777,-54.37892083,0,0,248.9192371,184.2786653,94.24405704,-133.4271054,83.24628552,337.112389,-236.2804512,0,2.581920846,133.4743142,0,-0.000666981,,,,
297.1599998,1160,-279.5086488,19.91386485,0,0,-75.30978179,-706.5688658,-128.8935781,122.3651078,-10.561032,-278.8521638,236.2380503,0,23.92496597,-77.7134938,0,-0.00066401,,,,
297.1679998,1160,4.295206722,44.1567965,0,0,77.49340649,-166.6788354,-11.14159398,-52.34560514,7.994765414,98.94321735,-947.5914781,0,-21.51732936,-49.99135542,0,-0.000661034,,,,
297.1759998,1160,179.7941704,-67.81268007,0,0,131.6594657,-123.3444311,25.14416205,-27.65900445,89.99338236,121.795377,506.2763702,0,48.65317151,126.3705306,0,-0.000658053,,,,
297.1839998,1160,-361.7248819,76.70866889,0,0,-143.757271,-721.1652618,-153.4106938,105.1274085,-52.88311348,-281.0524906,-609.62001,0,-10.91578953,-180.7088137,0,-0.000655066,,,,
297.1919998,1160,359.645881,-55.36135307,0,0,219.5766054,219.9757836,100.259196,-133.9786157,79.39382676,347.9226638,-200.4163315,0,6.083161802,135.9041803,0,-0.000652075,,,,
297.1999998,1160,-227.4057746,5.980188386,0,0,-110.7500454,-667.1763622,-127.5920734,112.3970387,-13.7435323,-274.9720971,291.0165804,0,23.39235157,-74.31501778,0,-0.000649078,,,,
297.2079998,1160,32.71054976,52.27160886,0,0,40.89139036,-147.8122404,-13.06717331,-35.35476422,3.348637998,96.55973094,-914.6924971,0,-23.12215406,-56.09861369,0,-0.000646077,,,,
297.2159998,1161,208.424265,-68.36676429,0,0,112.9391318,-85.66814843,32.33711209,-16.52202673,86.07458319,130.1695024,539.6722873,0,46.33265591,130.5420706,0,-0.000643071,,,,
297.2239998,1161,-341.0566971,78.67621292,0,0,-163.5335273,-690.1008031,-147.1795289,112.534233,-59.36426551,-286.918276,-561.6027907,0,-16.16966063,-177.1796953,0,-0.00064006,,,,
297.2319998,1161,373.4220161,-32.85791867,0,0,203.8525665,239.9395232,109.7437049,-107.2634205,78.07460928,355.0372811,-177.9502404,0,9.14125089,141.1329642,0,-0.000637045,,,,
297.2399998,1161,-211.3353169,4.263962642,0,0,-114.669679,-639.4478026,-110.457325,122.2670051,-11.40103982,-252.8982279,325.2098487,0,29.77506317,-57.6344024,0,-0.000634025,,,,
297.2479998,1161,42.11440472,40.29392971,0,0,31.53469037,-120.0110498,-1.332377224,-42.23240791,-11.34705904,92.2446237,-882.9066697,0,-30.46596735,-47.51544856,0,-0.000631,,,,
297.2559998,1161,221.3135625,-62.63283353,0,0,103.2123522,-56.95061829,42.4460769,-7.210419296,78.03221054,133.8763789,561.2918151,0,43.63513134,142.4099249,0,-0.000627972,,,,
297.2639998,1161,-331.3459163,64.73185981,0,0,-170.4396678,-666.2899854,-138.0703244,114.9398534,-49.74417095,-274.6860593,-540.1782067,0,-12.52692059,-160.1291784,0,-0.000624939,,,,
297.2719998,1161,380.8640433,-62.09376201,0,0,191.1764212,270.6374194,108.0086582,-130.4023594,70.86137957,341.3150604,-164.2128882,0,-4.174058759,146.3268414,0,-0.000621902,,,,
297.2799998,1161,-208.0599709,-4.01794789,0,0,-135.2362594,-621.3888204,-119.7094458,111.8628107,-27.13304622,-276.4017615,344.3509445,0,15.89132627,-62.33102419,0,-0.000618861,,,,
297.2879998,1161,44.50333161,39.0778427,0,0,15.66588655,-109.1412617,-3.073528315,-38.46482904,-16.93375956,83.91432955,-878.656071,0,-36.1067525,-56.26678687,0,-0.000615816,,,,
297.2959998,1161,233.14643,-54.34000241,0,0,90.55516893,-41.97060039,42.04352627,-1.185517987,78.31432731,138.3283454,574.5549327,0,38.3880404,137.6967606,0,-0.000612767,,,,
297.3039998,1161,-330.1731663,86.40171767,0,0,-188.5240712,-672.3518452,-148.8121827,119.0553798,-33.95386712,-262.1964914,-524.594022,0,-4.925372716,-158.2211018,0,-0.000609714,,,,
297.3119998,1161,390.3796856,-58.78467665,0,0,187.3882917,286.6382926,107.4147151,-142.6529267,90.10960969,361.5026841,-156.414571,0,12.74855337,152.2668895,0,-0.000606658,,,,
297.3199998,1161,-192.3753286,-12.42538063,0,0,-136.8179865,-594.1991396,-118.9092694,100.4549515,-27.6924427,-278.9447405,386.2152816,0,26.72210091,-65.60299206,0,-0.000603598,,,,
297.3279998,1161,46.00643567,34.91594556,0,0,5.320578572,-92.98573623,-13.46430606,-53.8157897,-16.89837944,73.47048415,-842.4593918,0,-30.96862916,-62.59815311,0,-0.000600534,,,,
297.3359998,1161,241.9626624,-57.09388173,0,0,90.50788246,-4.410919044,47.19077108,-11.61223402,80.60563951,136.5452557,617.2533861,0,41.67621339,142.3621031,0,-0.000597468,,,,
297.3439998,1161,-323.7626945,85.77604744,0,0,-189.7772343,-629.9316521,-134.6543383,122.705615,-48.70931229,-277.8032648,-461.4578864,0,-5.727410758,-159.6571977,0,-0.000594398,,,,
297.3519998,1161,403.0932644,-73.29965874,0,0,188.5983078,356.6089108,123.2269174,-163.077671,80.73007959,359.0281979,-95.73860905,0,9.685067925,150.5706789,0,-0.000591324,,,,
297.3599998,1161,-167.6379866,-35.05213235,0,0,-127.0362579,-495.8673506,-94.31918411,73.32635943,-38.41081793,-289.9475078,477.822175,0,19.92380451,-69.54965085,0,-0.000588248,,,,
297.3679998,1161,71.38821425,11.76744323,0,0,15.93127449,20.93892859,11.54473614,-86.46817223,-50.7410729,37.8300797,-739.0518811,0,-43.13224487,-83.84877894,0,-0.000585168,,,,
297.3759998,1161,280.3588332,-101.7364878,0,0,106.6899533,147.6361024,71.38775354,-75.49701643,34.94990348,108.5188576,744.6349966,0,26.04087047,118.4584494,0,-0.000582086,,,,
297.3839998,1161,-291.9526977,49.523151,0,0,-182.5305494,-482.173464,-115.674984,79.28072728,-104.685545,-319.9985202,-308.5171029,0,-32.44198245,-188.8529958,0,-0.000579,,,,
297.3919998,1161,429.3904489,-64.61491825,0,0,189.5051741,493.3166879,143.1328396,-158.1007111,37.08859214,334.8260187,53.40817211,0,-15.3602263,129.7907849,0,-0.000575912,,,,
297.3999998,1161,-137.0415017,-16.8935528,0,0,-113.9971985,-351.8860406,-62.12278929,93.07112854,-49.22331687,-268.1533314,649.8861489,0,11.5516698,-58.03686597,0,-0.000572822,,,,
297.4079998,1161,97.84313309,17.8119404,0,0,33.57147597,164.0118176,47.93365157,-61.73399894,-50.14149074,65.27505676,-570.3005789,0,-47.66509558,-56.48062473,0,-0.000569728,,,,
297.4159998,1161,312.9301869,-90.88648602,0,0,119.6257882,292.3026619,102.3383826,-47.40422134,41.03096874,137.3585448,914.2803706,0,25.83026913,144.9944614,0,-0.000566632,,,,
297.4239998,1161,-261.2105028,55.82024432,0,0,-166.4457249,-340.4026172,-85.91810267,94.55291387,-93.31643147,-296.2377653,-133.55993,0,-22.95757866,-171.5553055,0,-0.000563534,,,,
297.4319998,1161,461.3730027,-74.68143771,0,0,214.2731215,642.3036139,173.2617463,-158.8022401,40.43887877,338.1865097,214.008067,0,-7.214386039,137.3452452,0,-0.000560433,,,,
297.4399998,1161,-103.4550747,-37.638759,0,0,-99.59965121,-211.7917599,-45.83404882,71.07607822,-50.62962596,-280.8915131,814.9055672,0,15.80577234,-65.08134375,0,-0.00055733,,,,
297.4479998,1161,124.7796748,-9.943053099,0,0,34.4041531,293.4224849,57.3403319,-100.0070631,-57.24038278,39.0719622,-430.4679013,0,-48.37769534,-87.11936021,0,-0.000554225,,,,
297.4559998,1161,342.6566076,-117.8704537,0,0,119.779989,422.6574413,117.1493463,-70.4234824,24.49942935,94.70159272,1043.960861,0,17.37778175,108.3458847,0,-0.000551118,,,,
297.4639998,1161,-238.2451059,33.90012161,0,0,-169.2766592,-228.3804653,-72.59482338,82.43018936,-102.6124187,-337.6873821,-12.63187494,0,-27.84319837,-196.603958,0,-0.000548009,,,,
297.4719998,1162,480.9703915,-85.18073206,0,0,211.6912139,752.7278746,188.1070969,-165.9792256,39.66292871,317.979362,309.4446441,0,-7.894125178,124.9833343,0,-0.000544898,,,,
297.4799998,1162,-87.37722577,-27.13678535,0,0,-100.4351663,-118.4524,-30.37288895,94.11972217,-43.14184961,-290.0576817,916.8555955,0,15.72234657,-62.53299036,0,-0.000541785,,,,
297.4879998,1162,140.4824303,-1.780194836,0,0,41.38810829,377.4620861,72.04811228,-88.46522234,-38.55925077,43.01925858,-339.6466408,0,-38.49738923,-70.05586535,0,-0.000538671,,,,
297.4959998,1162,366.5057175,-130.935809,0,0,129.2777055,525.8530411,128.3569963,-95.94132634,28.12392675,98.14158467,1146.986934,0,25.81023201,115.7560658,0,-0.000535554,,,,
297.5039998,1162,-236.2032321,20.87646532,0,0,-176.3306538,-153.3352976,-73.55208732,69.12865897,-118.8515162,-353.6101212,91.14221455,0,-36.01397862,-216.1885275,0,-0.000532437,,,,
297.5119998,1162,476.135428,-89.33692545,0,0,206.3835477,817.7970967,188.7184411,-166.2830508,25.27023138,314.9158548,381.7958217,0,-15.85681052,105.1059344,0,-0.000529317,,,,
297.5199998,1162,-85.26333449,-29.02329404,0,0,-98.30210465,-40.70165084,-24.61513549,93.410209,-57.03374982,-281.6680697,998.4292504,0,15.55754188,-71.70279621,0,-0.000526197,,,,
297.5279998,1162,134.1474949,-0.395798775,0,0,36.45247592,451.9051522,75.57213106,-84.5983256,-60.91242034,44.83992258,-270.4357165,0,-47.95178524,-77.89099023,0,-0.000523075,,,,
297.5359998,1162,364.3148921,-130.9808087,0,0,121.3067898,604.897777,124.8142015,-104.9934202,11.92373686,109.150678,1205.091454,0,12.2027294,116.0453421,0,-0.000519952,,,,
297.5439998,1162,-240.9534331,14.58164507,0,0,-189.5899101,-84.0773136,-91.50922747,42.39021428,-126.3635698,-347.9196695,141.5724999,0,-46.01648564,-221.3354461,0,-0.000516827,,,,
297.5519998,1162,467.8215376,-102.8783776,0,0,190.129376,878.702399,167.8907442,-194.4746245,5.458131338,307.7863329,404.5909056,0,-34.50091874,87.91743176,0,-0.000513702,,,,
297.5599998,1162,-116.2827763,-37.58663539,0,0,-125.6633764,-20.67647748,-55.35686094,87.49494127,-82.80115404,-299.4161098,997.4079593,0,-6.872176889,-93.91887506,0,-0.000510576,,,,
297.5679998,1162,72.3038249,13.12723872,0,0,0.374553784,416.1489144,35.18276943,-56.48919104,-60.34809664,32.99279063,-340.9928818,0,-60.98058373,-97.01659024,0,-0.000507448,,,,
297.5759998,1162,307.8344948,-106.3584652,0,0,101.2873074,551.0330395,101.7044305,-56.57567571,40.47786419,125.7675982,1089.232354,0,12.69233529,120.2349497,0,-0.00050432,,,,
297.5839998,1162,-302.9595581,36.41167278,0,0,-206.2992013,-164.035519,-110.7786822,91.64115855,-100.0698574,-335.9265783,7.312049239,0,-34.4875182,-208.9651562,0,-0.000501192,,,,
297.5919998,1162,405.1455652,-89.41877131,0,0,165.6148473,795.4449482,139.8226263,-167.7497018,26.36738048,315.8876018,236.9305363,0,-23.44331083,93.66247355,0,-0.000498062,,,,
297.5999998,1162,-166.7492558,-31.05758129,0,0,-152.8321666,-100.9104571,-80.71172224,96.16212369,-67.36560962,-294.2165205,836.5181806,0,-1.53919839,-94.63096138,0,-0.000494932,,,,
297.6079998,1162,19.3832321,23.40417617,0,0,-28.25177716,324.4749945,9.80928116,-50.65841551,-58.16959173,28.28331198,-506.5849219,0,-55.52800898,-107.9284392,0,-0.000491802,,,,
297.6159998,1162,254.7535777,-98.75570758,0,0,78.55782885,463.2915885,74.32828159,-51.573345,41.82257979,133.5775869,922.6381084,0,16.32255113,112.5652145,0,-0.000488671,,,,
297.6239998,1162,-366.3904432,45.55096032,0,0,-225.0209668,-266.8406521,-133.7048894,115.9659716,-100.094829,-337.4054031,-151.0762041,0,-38.53859615,-212.6832672,0,-0.00048554,,,,
297.6319998,1162,343.6989116,-63.07651789,0,0,157.0806803,687.4712448,122.799302,-126.9884322,36.75429868,322.4582659,72.23273504,0,-21.41685421,101.1646162,0,-0.000482408,,,,
297.6399998,1162,-220.3402908,-9.098987627,0,0,-146.8689604,-203.3510225,-99.40165554,122.1382025,-36.73882353,-266.1969439,692.6123986,0,9.702454641,-68.86694131,0,-0.000479277,,,,
297.6479998,1162,-31.02002723,19.87595779,0,0,-15.06206106,234.9682075,-8.146696194,-52.93238314,-45.19846192,36.33057041,-643.3822629,0,-51.81257491,-84.71597884,0,-0.000476145,,,,
297.6559998,1162,220.7513124,-108.4758852,0,0,90.38147317,396.0425872,59.65607766,-64.67047397,28.12456676,125.3832538,807.1613435,0,15.44975085,120.8650828,0,-0.000473013,,,,
297.6639998,1162,-401.946247,34.59888402,0,0,-221.9639733,-334.1675856,-148.7588522,98.60627306,-112.632984,-348.2156506,-246.0662423,0,-41.70423413,-215.6070925,0,-0.000469882,,,,
297.6719998,1162,312.8020596,-74.93498898,0,0,163.374243,635.2717135,119.3793834,-150.2431095,29.11578707,315.8879555,-27.45473773,0,-26.59623248,100.2402354,0,-0.00046675,,,,
297.6799998,1162,-245.5696779,-5.990576941,0,0,-144.0804562,-262.6338481,-100.7873574,114.693863,-37.22436374,-265.2480988,619.6533974,0,14.41093855,-68.63652073,0,-0.000463619,,,,
297.6879998,1162,-63.07057668,23.78520375,0,0,-19.3074883,160.856753,-15.67242434,-53.53812454,-34.56660904,42.96071456,-719.759964,0,-46.94738951,-87.94504418,0,-0.000460488,,,,
297.6959998,1162,202.382473,-98.70602387,0,0,98.87954086,342.2943219,64.10735478,-65.04536897,41.88497959,139.034923,731.5560118,0,14.73996705,128.3013545,0,-0.000457358,,,,
297.7039998,1162,-420.231237,60.54972993,0,0,-216.2610192,-395.5607598,-145.5998956,104.2424164,-90.87797512,-328.7117026,-307.3176149,0,-33.99859599,-199.0443963,0,-0.000454228,,,,
297.7119998,1162,298.7201419,-67.21770002,0,0,164.2213935,586.5097282,116.4508025,-163.4284318,49.08263703,338.632088,-97.5692787,0,-22.88528704,111.4548297,0,-0.000451098,,,,
297.7199998,1162,-248.3117114,-3.816690734,0,0,-139.8816314,-294.3195827,-97.79965246,98.7136951,-38.40539421,-260.1845427,574.3319915,0,5.615168291,-66.60792236,0,-0.000447969,,,,
297.7279998,1163,-70.75094875,47.61685371,0,0,-21.16405716,113.2136079,-13.00214408,-45.34514983,-33.72023399,46.96493406,-765.218845,0,-46.53418561,-83.45434739,0,-0.000444841,,,,
297.7359998,1163,211.7567707,-84.53628792,0,0,105.1755796,308.0571192,65.66309336,-63.9885225,59.15073221,162.6342899,689.1359489,0,29.01674031,146.6830495,0,-0.000441714,,,,
297.7439998,1163,-397.8513874,67.38379556,0,0,-179.1388953,-427.3005181,-146.4482219,95.37658643,-77.71650758,-315.5902575,-331.526455,0,-20.90628182,-180.6793166,0,-0.000438587,,,,
297.7519998,1163,327.1237962,-48.99732728,0,0,250.4078658,555.2526512,119.0850171,-155.2542564,56.81285386,347.8263622,-129.0567526,0,-12.48582,130.1522326,0,-0.000435462,,,,
297.7599998,1163,-210.5733671,-0.632774167,0,0,-27.71375802,-312.4280806,-90.11013196,102.4689373,-23.25107388,-245.7170807,553.5622051,0,21.90091355,-43.10879504,0,-0.000432337,,,,
297.7679998,1163,-35.25014641,36.69392351,0,0,86.61041524,96.49471534,-9.717635671,-62.13914969,-25.07518379,44.71511819,-800.6743647,0,-36.45424051,-79.8079254,0,-0.000429213,,,,
297.7759998,1163,249.6411391,-80.86188489,0,0,205.6411261,295.5274114,68.08111012,-68.06074319,54.45831715,156.1163112,653.8429485,0,25.14783375,138.940812,0,-0.000426091,,,,
297.7839998,1163,-367.7329872,76.69622446,0,0,-120.2341583,-450.5743557,-141.6927839,110.4884395,-72.45674614,-315.6218969,-353.6646681,0,-16.07762893,-184.6383142,0,-0.00042297,,,,
297.7919998,1163,350.4990245,-55.6400886,0,0,249.9444814,538.1707086,126.5473091,-151.9126745,65.85636508,348.9785361,-163.8504375,0,-1.868916016,124.5976592,0,-0.00041985,,,,
297.7999998,1163,-189.9320375,3.366882395,0,0,-65.00712777,-330.3583043,-84.33154282,114.8118498,-26.49979948,-252.568267,538.5708789,0,22.3455593,-42.7298997,0,-0.000416732,,,,
297.8079998,1163,-17.56314527,58.41434318,0,0,42.0245843,69.01076928,-0.660727634,-35.70744806,-14.71400986,45.72204577,-817.3533564,0,-27.18415943,-67.5797115,0,-0.000413615,,,,
297.8159998,1163,276.4993737,-93.12822333,0,0,168.3348827,299.9059724,85.81239658,-78.4880224,74.16088331,163.1370163,642.3931909,0,38.53248841,150.279203,0,-0.000410499,,,,
297.8239998,1163,-350.9661939,49.82293425,0,0,-162.9609771,-447.1631003,-134.9319447,89.84720245,-85.6612008,-348.2797746,-349.073812,0,-23.61933812,-196.784168,0,-0.000407385,,,,
297.8319998,1163,365.9368437,-55.89506517,0,0,210.5106712,530.0084563,123.3952474,-154.6421499,51.25332979,331.267186,-183.5070788,0,-10.94991309,110.1744678,0,-0.000404273,,,,
297.8399998,1163,-164.1710758,-10.65206865,0,0,-89.14352935,-319.3856579,-85.63262617,91.48910296,-22.69962149,-244.5525967,533.4830599,0,21.40289445,-48.2460244,0,-0.000401162,,,,
297.8479998,1163,-1.908284614,27.71506535,0,0,23.39035022,88.62442811,-3.823873066,-65.45208628,-33.8349917,25.45244303,-814.5401215,0,-38.59426678,-83.91804203,0,-0.000398054,,,,
297.8559998,1163,289.1401994,-104.7340438,0,0,147.4816718,318.1491664,82.31277498,-85.45921021,50.47591528,161.1188132,638.4093553,0,25.16523601,142.0066677,0,-0.000394947,,,,
297.8639998,1163,-346.5081103,56.27022794,0,0,-185.7148981,-446.9939633,-137.746523,99.86425494,-90.16376209,-336.7807438,-345.4155657,0,-32.07218894,-193.4440794,0,-0.000391842,,,,
297.8719998,1163,366.5495175,-51.62150377,0,0,197.0939362,534.638929,123.561053,-149.6126113,59.38234908,337.7972959,-185.9897072,0,-17.60671483,119.720709,0,-0.000388739,,,,
297.8799998,1163,-162.3088541,-16.06132139,0,0,-102.2226875,-309.7056442,-86.94945631,93.25904804,-9.30623871,-234.0498099,545.2517805,0,19.99906381,-34.56381336,0,-0.000385638,,,,
297.8879998,1163,-8.023290102,35.90259965,0,0,0.49866311,77.97324739,-9.847970951,-44.58260541,-28.22400891,22.11158652,-812.2517483,0,-39.36326948,-80.63706881,0,-0.00038254,,,,
297.8959998,1163,293.3870827,-92.02160223,0,0,129.95433,315.0271302,77.5344185,-71.00032635,60.61917692,165.3024909,634.0459904,0,30.27744129,148.6920779,0,-0.000379443,,,,
297.9039998,1163,-338.4764796,48.02783691,0,0,-197.11476,-442.8547461,-144.0897027,90.73951524,-83.00969414,-335.7803301,-337.0662142,0,-20.07538788,-186.7849249,0,-0.000376349,,,,
297.9119998,1163,380.2298621,-72.72215991,0,0,188.3657974,551.1938872,121.5265247,-169.280186,38.16316435,314.5831295,-180.4930658,0,-15.63050343,110.891475,0,-0.000373257,,,,
297.9199998,1163,-145.7258246,-35.40999258,0,0,-114.4970682,-293.4675515,-86.3689774,72.8927854,-42.2563388,-261.514236,562.3832314,0,7.500983176,-53.79817971,0,-0.000370168,,,,
297.9279998,1163,-6.541959937,26.48500123,0,0,-14.89978475,74.42092754,-14.5338348,-60.02710487,-48.22070797,4.604712426,-811.5705969,0,-56.34524121,-102.8278014,0,-0.000367081,,,,
297.9359998,1163,301.0191535,-83.14676784,0,0,128.6054907,317.3716361,83.67136992,-65.26817517,60.9928595,168.7325376,632.5884392,0,19.80047748,141.3403447,0,-0.000363997,,,,
297.9439998,1163,-333.6777974,84.92117617,0,0,-198.7096151,-457.9642462,-131.7750356,129.0833131,-60.0677972,-312.7743928,-333.7709146,0,-19.81868236,-179.864831,0,-0.000360916,,,,
297.9519998,1163,380.4858733,-13.11984951,0,0,186.1721755,525.017815,129.4124638,-119.9049698,88.14214787,366.4707637,-198.6809105,0,2.583529741,134.315175,0,-0.000357837,,,,
297.9599998,1163,-137.2063077,21.54127809,0,0,-99.81958601,-305.8102002,-74.45416624,114.2145813,22.73722751,-192.1658143,567.2715906,0,47.58120911,-5.360366409,0,-0.000354761,,,,
297.9679998,1163,1.46459789,58.63193494,0,0,2.281847055,72.12526353,-0.714865511,-36.95195926,1.475575459,53.56677494,-801.1647565,0,-17.41956164,-57.88202702,0,-0.000351688,,,,
297.9759998,1163,312.5140801,-72.73315091,0,0,141.6854102,332.368743,92.98721762,-58.17729961,83.09571729,190.3812088,647.5198494,0,44.08242959,168.3965444,0,-0.000348617,,,,
297.9839998,1164,-331.4004154,77.52644636,0,0,-188.9221997,-447.0558339,-131.9166907,121.0890596,-61.58619196,-317.6746956,-304.1351642,0,-4.401957384,-165.6284772,0,-0.00034555,,,,
297.9919998,1164,382.3068507,-34.83335315,0,0,196.3572845,540.8600414,132.0074193,-140.2516847,76.31463355,354.8246497,-188.0657126,0,2.09928624,134.1908703,0,-0.000342486,,,,
297.9999998,1164,-135.4069118,-3.194579426,0,0,-95.46713741,-289.5894591,-70.39469274,97.38744682,4.93667454,-209.8899465,589.4939477,0,33.78978907,-15.06469403,0,-0.000339425,,,,
298.0079998,1164,-11.88820681,32.7058425,0,0,-8.060180237,69.34101018,-9.964572399,-59.1713225,-30.2873541,21.95165695,-788.5067976,0,-36.43276866,-75.97188997,0,-0.000336367,,,,
298.0159998,1164,306.8801992,-94.40118053,0,0,132.5216201,333.0711451,85.51759058,-84.0401727,57.83748039,170.6487794,647.3756085,0,26.18063872,146.2876221,0,-0.000333312,,,,
298.0239998,1164,-342.1079069,71.02361839,0,0,-200.021073,-459.8079086,-138.9761023,113.3093043,-65.94910333,-330.0547835,-297.4180796,0,-10.87001057,-182.8974,0,-0.000330261,,,,
298.0319998,1164,367.5125722,-37.344294,0,0,182.6400798,528.3697839,119.6979057,-146.3921684,71.21057863,344.1193754,-195.8370777,0,-4.646865513,123.7924977,0,-0.000327213,,,,
298.0399998,1164,-139.8073653,-6.815370413,0,0,-102.5846536,-291.8987058,-74.87529037,91.70896819,-0.685100762,-222.1934311,599.1240685,0,28.44518849,-27.07356448,0,-0.000324168,,,,
298.0479998,1164,-21.88912809,43.54687484,0,0,-10.9806951,54.14035275,-8.752288056,-44.75428612,-19.93683812,13.84049451,-787.7295988,0,-27.77341118,-83.99975973,0,-0.000321127,,,,
298.0559998,1164,298.773017,-81.65826775,0,0,134.9036124,323.3770336,86.88792186,-68.36785497,68.90911627,179.0553843,639.1909942,0,31.34165533,154.107231,0,-0.000318089,,,,
298.0639998,1164,-351.9971316,71.98639859,0,0,-198.138531,-471.3781582,-136.9195015,116.7867546,-65.29404826,-327.9628319,-294.267103,0,-12.20123001,-179.1064688,0,-0.000315055,,,,
298.0719998,1164,364.3679517,-48.94679768,0,0,188.1360339,531.048653,124.9611833,-157.0428121,64.46831095,341.5350078,-205.6230032,0,-1.801791975,122.6195012,0,-0.000312025,,,,
298.0799998,1164,-138.8041567,-17.25056542,0,0,-101.6934259,-286.6633375,-75.72656943,88.58568486,-22.86310649,-231.9419358,608.4741937,0,21.26195394,-29.89459668,0,-0.000308999,,,,
298.0879998,1164,-32.21764897,49.61505304,0,0,-20.05941281,38.11839495,-16.03234183,-33.20785981,-41.18726605,1.558124996,-788.2054363,0,-42.22490839,-96.16545766,0,-0.000305976,,,,
298.0959998,1164,305.1861323,-84.79795644,0,0,137.822523,337.1602642,89.18276929,-74.10114877,65.05065277,180.7657086,641.2378457,0,30.57909138,152.3911407,0,-0.000302957,,,,
298.1039998,1164,-343.7018663,61.43811331,0,0,-193.7227452,-448.890049,-134.7011543,107.4053814,-71.44276574,-337.2877561,-261.6256608,0,-13.33774812,-182.9606432,0,-0.000299942,,,,
298.1119998,1164,361.4623277,-49.1756028,0,0,188.1449774,541.9467606,123.794422,-152.8478287,56.93429981,333.2382072,-189.2047359,0,-10.34502767,105.9072128,0,-0.000296932,,,,
298.1199998,1164,-138.4489577,-21.95227712,0,0,-94.67766335,-270.4880161,-71.20543132,93.37824891,-14.63329365,-229.6320042,635.8363493,0,23.22823132,-37.11787314,0,-0.000293925,,,,
298.1279998,1164,-34.06962148,39.41457425,0,0,-11.55885137,52.3762809,-11.26344415,-37.89647375,-26.9506289,2.169870034,-761.3111426,0,-36.29034459,-98.29021511,0,-0.000290922,,,,
298.1359998,1164,304.5799184,-91.547678,0,0,143.1279418,352.1739598,90.0160462,-77.79711225,71.63125029,184.9600261,660.8211244,0,28.6026676,148.4847962,0,-0.000287924,,,,
298.1439998,1164,-352.3611057,56.91244577,0,0,-196.9791291,-449.2975162,-139.4983632,111.5892106,-72.13067484,-342.994513,-238.1188204,0,-17.88344215,-184.8791891,0,-0.000284929,,,,
298.1519998,1164,356.4749072,-47.47013685,0,0,188.1368688,547.6702297,120.0360473,-163.6677113,61.23030241,340.7937581,-183.173983,0,-9.019499625,109.3137932,0,-0.000281939,,,,
298.1599998,1164,-138.3629239,-20.94087919,0,0,-92.20477943,-251.0214599,-78.92276918,60.8831053,-10.26088014,-211.9167589,658.3083804,0,25.56941938,-40.44488916,0,-0.000278954,,,,
298.1679998,1164,-44.92570759,31.31023078,0,0,-21.09241361,65.01216029,-25.99006158,-63.33855856,-41.16234357,-12.80869579,-745.2025168,0,-41.4730055,-124.1610465,0,-0.000275972,,,,
298.1759998,1164,297.5355159,-95.79633151,0,0,136.8631422,368.74726,80.39816805,-87.84082402,61.01884754,172.8624992,664.1776483,0,25.80603659,118.5312624,0,-0.000272996,,,,
298.1839998,1164,-364.5566725,46.08346559,0,0,-194.7592961,-436.1709485,-147.4798461,85.20923667,-70.08102138,-348.5089617,-228.3616286,0,-19.72098047,-213.3125944,0,-0.000270023,,,,
298.1919998,1164,349.1116484,-70.13813864,0,0,196.4844041,574.887378,122.4729933,-182.8290198,46.65831555,306.0062545,-178.8622592,0,-20.3548227,78.68752159,0,-0.000267056,,,,
298.1999998,1164,-144.1993163,-28.24897994,0,0,-86.41601535,-230.5967479,-71.36223606,85.53126961,-28.63283907,-245.4156961,678.6799172,0,16.30527556,-56.19918043,0,-0.000264093,,,,
298.2079998,1164,-65.16543578,40.46805408,0,0,-19.25246285,62.78561983,-27.55240685,-40.36681749,-43.28695993,-13.20162316,-744.4055567,0,-46.7373749,-119.3202329,0,-0.000261135,,,,
298.2159998,1164,291.9948813,-82.93723686,0,0,150.5813364,388.0849584,87.41707777,-71.81270698,58.42733292,184.747075,667.9700844,0,16.64972667,139.0440692,0,-0.000258181,,,,
298.2239998,1164,-380.7979782,63.89057148,0,0,-187.0206528,-429.9773928,-139.7615791,128.630361,-71.64516714,-343.0446674,-205.8890292,0,-19.07836262,-189.1352006,0,-0.000255232,,,,
298.2319998,1164,315.2535479,-68.02578999,0,0,196.2214132,575.630526,117.7887897,-163.3932735,53.64434986,322.2248253,-187.4280896,0,-10.36755487,104.7756154,0,-0.000252288,,,,
298.2399998,1165,-179.1694071,-39.998918,0,0,-84.7337906,-218.3488676,-74.96925103,80.12150663,-32.75513035,-242.0046401,684.9388538,0,15.43432517,-42.01218993,0,-0.000249349,,,,
298.2479998,1165,-111.2734822,34.63941054,0,0,-16.45386736,64.45448098,-21.46058222,-27.0452411,-53.97097834,-27.9889382,-737.2794817,0,-47.86238398,-127.1787138,0,-0.000246416,,,,
298.2559998,1165,255.4422061,-101.0289872,0,0,159.3244807,408.0918329,94.97115344,-74.48460649,50.77682338,177.5064833,674.2226141,0,23.40480553,135.9747869,0,-0.000243487,,,,
298.2639998,1165,-416.3477933,58.46912071,0,0,-184.5865754,-422.8439688,-138.9220032,133.1824223,-80.27853742,-355.5854387,-183.0327632,0,-16.9626951,-192.1018391,0,-0.000240563,,,,
298.2719998,1165,293.2525783,-55.54430129,0,0,207.907351,582.2256729,127.0802635,-141.6271801,64.76994155,333.2714103,-180.5953371,0,-2.747478576,107.6895331,0,-0.000237644,,,,
298.2799998,1165,-186.3534901,-34.53036528,0,0,-65.21737748,-196.7911608,-62.82979083,90.4609716,-11.47314487,-222.0840637,715.6381044,0,32.4560915,-21.28358218,0,-0.000234731,,,,
298.2879998,1165,-130.7032879,58.88841281,0,0,-6.674426588,62.86575215,-16.75312409,-4.507939703,-28.35507317,-10.2582287,-715.6262225,0,-27.71684809,-104.6014065,0,-0.000231822,,,,
298.2959998,1165,253.0294886,-87.32492124,0,0,176.7567468,420.9045173,102.2575485,-77.67798419,91.17763527,222.2281592,684.2873338,0,49.76918542,165.0703801,0,-0.00022892,,,,
298.3039998,1165,-416.9977047,43.82956614,0,0,-178.5615583,-407.1842328,-141.8717705,96.39644685,-74.66152865,-356.2483693,-146.9041183,0,-4.532659146,-185.7528744,0,-0.000226022,,,,
298.3119998,1165,287.9263168,-61.23544911,0,0,200.8308676,588.33755,120.5052868,-165.7306167,48.72690423,311.9139009,-166.8063063,0,-5.210378158,88.9205992,0,-0.00022313,,,,
298.3199998,1165,-178.5384086,-45.15266975,0,0,-68.3839413,-182.9503512,-65.93763917,52.96938917,-10.75960443,-216.6341458,735.2697155,0,36.6518418,-32.61955752,0,-0.000220243,,,,
298.3279998,1165,-124.7154296,33.58400649,0,0,-21.64013228,74.80678001,-31.7935334,-65.00923894,-55.60493027,-38.47482227,-689.5019454,0,-39.97575623,-126.1922105,0,-0.000217362,,,,
298.3359998,1165,265.4779933,-98.01898757,0,0,161.0150509,437.0731556,91.02666076,-114.2737764,53.33166451,196.431143,700.7169674,0,22.29721165,141.7433875,0,-0.000214486,,,,
298.3439998,1165,-406.7986101,60.38612891,0,0,-166.4977837,-408.9000494,-144.7898179,87.53055044,-84.62963666,-346.8933417,-129.8897859,0,-14.73222866,-190.9919008,0,-0.000211616,,,,
298.3519998,1165,310.9781421,-35.25082549,0,0,292.2529436,590.3664569,119.3047586,-187.0855957,43.80853043,330.8476241,-160.2755755,0,-9.890653878,97.41908414,0,-0.000208752,,,,
298.3599998,1165,-127.7315228,-37.6427584,0,0,106.0922754,-158.6488079,-60.89755991,22.00920656,-21.17432808,-205.092947,771.2006006,0,24.96486944,-18.86075139,0,-0.000205893,,,,
298.3679998,1165,-74.89635271,27.20815695,0,0,185.555875,92.91925229,-24.4547145,-81.75278452,-71.32026542,-46.05733489,-657.3160663,0,-50.98422815,-122.4917249,0,-0.000203041,,,,
298.3759998,1165,319.7095923,-90.20010382,0,0,419.1505547,454.9236777,102.1659602,-114.370452,41.39960771,190.9166302,718.8576175,0,19.22978088,144.1676574,0,-0.000200194,,,,
298.3839998,1165,-358.5867775,65.98908163,0,0,70.79209698,-402.2973623,-135.4315629,97.65486243,-81.67321951,-346.0900244,-102.929574,0,-13.53891519,-182.7428171,0,-0.000197353,,,,
298.3919998,1165,341.099578,-54.37953021,0,0,380.1693408,596.4264616,122.097353,-185.3645469,43.40066521,328.0823737,-158.6889186,0,-16.17173762,98.49744067,0,-0.000194517,,,,
298.3999998,1165,-108.635251,-53.31441631,0,0,90.75646399,-155.6796351,-60.99731319,29.61433493,-33.57929178,-219.3050245,776.0769883,0,17.6575419,-27.82735266,0,-0.000191688,,,,
298.4079998,1165,-70.0750312,21.19610896,0,0,116.955612,75.80478523,-27.14541518,-64.71747999,-77.87724171,-58.9903989,-666.4683627,0,-54.1930112,-132.1727861,0,-0.000188865,,,,
298.4159998,1165,325.2598814,-115.8612945,0,0,278.3512396,451.1424195,98.61608599,-120.167531,36.00611697,187.9082121,698.2972106,0,11.001376,135.969211,0,-0.000186048,,,,
298.4239998,1165,-358.6249416,35.66333094,0,0,-83.51726462,-409.4359855,-139.8866148,92.62218362,-98.57623706,-367.9977427,-111.7963204,0,-25.50532084,-201.2951399,0,-0.000183237,,,,
298.4319998,1165,337.581058,-69.95740657,0,0,277.7969994,586.9322356,120.6540339,-180.0613892,29.04270183,305.8601946,-186.041281,0,-27.68489368,81.94417258,0,-0.000180432,,,,
298.4399998,1165,-109.7361199,-72.05765863,0,0,13.40265701,-156.5252873,-62.75629753,22.19972583,-37.21063556,-227.4033131,760.883253,0,7.85392137,-28.28111472,0,-0.000177633,,,,
298.4479998,1165,-73.08348437,-11.39273328,0,0,41.70701014,76.59608883,-31.77299888,-84.14955604,-84.15313355,-78.66982031,-682.6594883,0,-61.19020061,-135.0521684,0,-0.00017484,,,,
298.4559998,1165,336.3791658,-151.0942507,0,0,220.3724308,474.0177729,93.66187438,-149.1167448,19.47268691,158.0079606,690.8172673,0,-3.000934193,126.3283211,0,-0.000172054,,,,
298.4639998,1165,-351.9420139,14.28066143,0,0,-143.9519292,-398.4228763,-153.2920312,65.92707027,-117.0421679,-402.3162855,-99.36778818,0,-46.30614077,-209.599694,0,-0.000169275,,,,
298.4719998,1165,345.8221548,-76.23962999,0,0,221.2464876,592.5372625,109.6436233,-190.4257246,17.94642778,284.7982025,-193.6616943,0,-43.70187254,80.434249,0,-0.000166501,,,,
298.4799998,1165,-92.90137723,-54.08359434,0,0,-29.64777751,-150.971068,-67.32997291,39.33131962,-28.70296911,-224.1427832,770.2361735,0,2.083139697,-20.26327494,0,-0.000163734,,,,
298.4879998,1165,-72.43130927,34.94406657,0,0,-7.988456581,56.81991984,-41.57117182,-55.43773853,-51.07466086,-53.75721006,-682.4532218,0,-58.25440486,-119.0861034,0,-0.000160974,,,,
298.4959998,1166,344.2884668,-110.7926302,0,0,182.8260134,472.5586445,93.02251354,-126.3039868,54.88027952,197.9241107,679.8318255,0,2.245586187,153.6140339,0,-0.00015822,,,,
298.5039998,1166,-342.0940529,31.29500995,0,0,-170.8313942,-389.8205709,-146.6306976,88.31063016,-101.1193292,-387.4486015,-89.33036058,0,-38.83142541,-188.1021339,0,-0.000155472,,,,
298.5119998,1166,347.4075434,-62.04923313,0,0,196.0237489,598.3810928,114.9047165,-169.4336457,23.4452168,290.4372132,-202.2935749,0,-34.88504414,91.72192374,0,-0.000152731,,,,
298.5199998,1166,-87.07151912,-39.78504711,0,0,-44.63786619,-137.9733518,-55.56250554,62.0039168,-24.4521072,-205.1165403,772.6589901,0,9.6998855,-4.890737317,0,-0.000149997,,,,
298.5279998,1166,-70.45780876,37.56399511,0,0,-23.24604048,66.25541014,-31.00974794,-42.62374939,-66.4217836,-56.92294549,-679.7840879,0,-55.62163737,-110.332402,0,-0.00014727,,,,
298.5359998,1166,350.7783314,-108.8389647,0,0,169.8922108,486.2592422,101.742583,-120.8819096,32.50299246,193.0442233,674.1413701,0,4.840095308,161.2287804,0,-0.000144549,,,,
298.5439998,1166,-342.9203009,37.70439583,0,0,-186.7330121,-392.4999448,-140.4234962,95.43659631,-102.3027653,-377.0258373,-89.53922904,0,-31.64883768,-176.9318085,0,-0.000141835,,,,
298.5519998,1166,343.8361964,-73.50726455,0,0,174.1138892,599.9736098,114.5357647,-191.9152875,23.67553409,296.5384831,-226.8801831,0,-35.02608339,94.24446073,0,-0.000139128,,,,
298.5599998,1166,-84.74856168,-72.28632995,0,0,-72.39595443,-123.6678429,-64.42834537,16.5885298,-47.1099179,-226.5059642,767.6503629,0,-2.597581956,-22.49621806,0,-0.000136428,,,,
298.5679998,1166,-77.85431508,10.09529772,0,0,-58.2150336,66.30835072,-43.10609834,-64.73007355,-97.32268114,-100.1485934,-686.8100645,0,-72.77388771,-149.9929821,0,-0.000133735,,,,
298.5759998,1166,347.2696218,-116.7508783,0,0,150.5211796,492.0143409,103.8647186,-111.707326,23.02468791,180.3524455,653.6907959,0,0.888577339,133.9193491,0,-0.000131048,,,,
298.5839998,1166,-357.099384,36.82865513,0,0,-203.1340263,-402.0665575,-143.5648018,103.9582131,-100.6749409,-378.1360534,-95.0012639,0,-24.90580346,-192.6439237,0,-0.000128369,,,,
298.5919998,1166,326.6561151,-84.74460304,0,0,157.3855337,595.2775451,107.7650548,-194.2764296,14.8343127,281.4222834,-249.304928,0,-31.97535053,72.22593956,0,-0.000125697,,,,
298.5999998,1166,-91.63867565,-71.38368177,0,0,-72.87310207,-116.6872112,-54.57138288,39.41678263,-43.84980049,-231.7352848,759.5105033,0,7.016827393,-26.61425553,0,-0.000123032,,,,
298.6079998,1166,-98.12422604,28.76163895,0,0,-59.20478708,42.83451655,-41.73689175,-41.95030159,-68.26843379,-83.96076414,-705.3022033,0,-58.69521572,-134.0499384,0,-0.000120374,,,,
298.6159998,1166,338.0988735,-122.448119,0,0,150.7306874,487.0781942,98.24946346,-126.4018853,42.78789619,193.5553787,627.7806095,0,2.30372176,147.342413,0,-0.000117723,,,,
298.6239998,1166,-360.8804472,21.2571192,0,0,-202.5322948,-397.7879537,-143.507396,102.7181793,-106.0580109,-395.7835683,-95.63302067,0,-35.20505422,-190.8362316,0,-0.000115079,,,,
298.6319998,1166,314.4779269,-78.42853783,0,0,154.2392349,580.2726661,104.6335934,-176.6400789,19.03972504,285.1892723,-275.309768,0,-40.09203389,77.65573039,0,-0.000112442,,,,
298.6399998,1166,-100.4575649,-67.16361276,0,0,-78.8871114,-126.7347245,-60.65669209,45.25266005,-36.44316005,-214.5840292,750.6700487,0,5.103246205,-16.25149453,0,-0.000109813,,,,
298.6479998,1166,-114.8983977,33.14076336,0,0,-71.90773854,26.47043062,-47.42099898,-25.6746979,-77.74320587,-83.69797575,-710.1318063,0,-59.73368853,-134.3728857,0,-0.000107191,,,,
298.6559998,1166,323.5892756,-111.7486857,0,0,146.7189428,472.6970548,95.9116323,-110.3271124,45.68824653,221.8801224,601.2679522,0,1.631326541,150.2596695,0,-0.000104577,,,,
298.6639998,1166,-374.4662442,9.346459532,0,0,-202.4412901,-407.98511,-144.9886017,91.05291851,-105.8064731,-391.5764832,-98.45052974,0,-35.65882732,-189.5881688,0,-0.000101969,,,,
298.6719998,1166,309.0416159,-90.17630329,0,0,155.3553021,575.6240134,104.9897784,-186.0277909,-1.530455873,259.7482047,-283.5336102,0,-44.83681884,67.749757,0,-9.94E-05,,,,
298.6799998,1166,-100.0487684,-65.47714219,0,0,-69.53940965,-133.0218858,-62.531126,48.56307094,-43.63536862,-210.8414949,747.9217704,0,0.567127733,-19.48296707,0,-9.68E-05,,,,
298.6879998,1166,-124.6893114,10.11615715,0,0,-59.67692281,20.35611213,-52.76286972,-47.15255571,-83.86137607,-100.2986194,-713.4708925,0,-62.9494157,-140.8796285,0,-9.42E-05,,,,
298.6959998,1166,329.0654177,-139.2420994,0,0,160.2949048,490.749999,93.7835044,-139.7448795,15.58984652,180.8888451,601.7492315,0,-5.98730123,135.1693197,0,-9.16E-05,,,,
298.7039998,1166,-377.8897197,21.85304126,0,0,-200.2358048,-414.9956738,-153.9527568,97.85044329,-124.6456727,-402.5969766,-85.53678982,0,-35.09262976,-200.9540777,0,-8.90E-05,,,,
298.7119998,1166,295.2693208,-68.00183697,0,0,155.499531,560.8153006,98.6174122,-171.9390558,7.194886541,279.1300325,-303.7145406,0,-35.67773559,63.93028941,0,-8.65E-05,,,,
298.7199998,1166,-102.5064755,-46.50917288,0,0,-66.74789629,-133.3919089,-58.56485755,69.41808977,-36.80771535,-196.0923307,745.6338939,0,7.761984667,-16.34048341,0,-8.39E-05,,,,
298.7279998,1166,-134.9841206,39.92398861,0,0,-62.86798289,0.521219311,-50.7145007,-14.39846679,-69.84485234,-78.61190856,-717.4252638,0,-49.62539759,-130.559016,0,-8.14E-05,,,,
298.7359998,1166,330.7912474,-132.1783241,0,0,165.126604,492.6732427,95.88945093,-137.1772542,39.12094204,217.2956972,585.3442329,0,4.117017292,151.4597725,0,-7.88E-05,,,,
298.7439998,1166,-376.8329284,23.17599963,0,0,-200.3491795,-414.7949178,-157.1748341,105.224367,-119.6994514,-397.9141211,-69.96803798,0,-38.21509036,-196.9761258,0,-7.63E-05,,,,
298.7519998,1167,293.2007843,-61.43752351,0,0,154.6563989,556.2320938,95.47246741,-162.4429768,10.87342238,281.4793373,-305.6274691,0,-34.12029061,66.91749553,0,-7.38E-05,,,,
298.7599998,1167,-95.78557891,-71.6041279,0,0,-61.22018565,-114.7064897,-59.68861114,42.11102979,-35.18312644,-195.50524,757.4319115,0,9.235505072,-8.474277943,0,-7.13E-05,,,,
298.7679998,1167,-143.9842922,23.20348896,0,0,-71.9634454,-2.411278731,-58.86622609,-23.90145902,-79.49901822,-107.1882319,-705.1467366,0,-56.63699886,-142.4624766,0,-6.88E-05,,,,
298.7759998,1167,333.1849416,-123.2070539,0,0,162.146877,497.6748637,97.31756381,-132.4412124,42.55201072,213.1631242,582.736198,0,9.846765493,147.7605437,0,-6.63E-05,,,,
298.7839998,1167,-366.6463118,12.91206276,0,0,-201.0015734,-391.7290939,-157.3885847,69.76960872,-117.7049036,-395.9798877,-41.28227341,0,-29.06707259,-189.1227776,0,-6.38E-05,,,,
298.7919998,1167,294.6279775,-79.39928636,0,0,140.6099262,573.9957039,82.91397045,-210.4728072,1.367793845,268.7523737,-289.9935535,0,-40.46891704,53.77316136,0,-6.13E-05,,,,
298.7999998,1167,-89.27274653,-83.63293703,0,0,-68.19332262,-89.98144217,-66.79803416,9.714604574,-45.2526428,-206.598874,789.7643392,0,2.271453137,-32.27023886,0,-5.88E-05,,,,
298.8079998,1167,-147.8816188,17.91478902,0,0,-82.46680112,12.36466277,-69.57893401,-43.95103983,-94.10597165,-120.7798941,-663.5338538,0,-63.64731185,-165.8097813,0,-5.63E-05,,,,
298.8159998,1167,329.3931919,-115.8627815,0,0,151.0645187,513.15887,89.40608927,-132.301569,44.36048398,222.9271947,600.9210579,0,-0.975781523,141.601549,0,-5.39E-05,,,,
298.8239998,1167,-373.5955096,22.06166003,0,0,-197.7505899,-378.2227709,-148.5871295,100.4198971,-103.0292134,-388.3736738,-12.37507471,0,-35.69911401,-180.7893052,0,-5.14E-05,,,,
298.8319998,1167,281.1486439,-64.12365831,0,0,150.2734416,584.8392014,98.70774883,-162.4748967,9.659725325,268.1665975,-275.4751529,0,-42.62131023,68.74394275,0,-4.90E-05,,,,
298.8399998,1167,-95.25231989,-64.589627,0,0,-53.85323653,-68.1484,-44.9496591,52.9264794,-29.38005065,-183.8597042,813.0597834,0,8.106521454,3.228076602,0,-4.66E-05,,,,
298.8479998,1167,-155.8191335,15.80022427,0,0,-66.47807081,39.09999628,-41.26856437,-19.90152239,-90.88311825,-111.2636036,-634.4275148,0,-57.27708682,-134.6347698,0,-4.41E-05,,,,
298.8559998,1167,329.1117458,-141.5431228,0,0,168.0131695,563.2110692,117.6319735,-137.5497612,20.5567156,210.0739504,635.2232387,0,-1.884248452,153.0055101,0,-4.17E-05,,,,
298.8639998,1167,-387.9252981,9.539413346,0,0,-191.8740818,-344.0195903,-131.4861313,103.3277292,-126.244186,-402.2639909,45.51775367,0,-38.40698633,-178.8561038,0,-3.93E-05,,,,
298.8719998,1167,256.5250913,-75.34823355,0,0,151.7723151,612.5461274,111.2771243,-154.2493525,-1.178045731,264.3281656,-239.5349221,0,-47.4668826,72.12773925,0,-3.69E-05,,,,
298.8799998,1167,-105.4917469,-101.1908562,0,0,-32.93710861,-9.561079486,-32.36604518,25.68131999,-40.69353067,-190.9982875,868.7323892,0,-1.259987608,6.139570824,0,-3.45E-05,,,,
298.8879998,1167,-178.4055565,1.070865738,0,0,-27.18848895,79.54600091,-39.58663061,-34.60055991,-110.691426,-140.4453375,-568.7921082,0,-72.82948937,-149.6460965,0,-3.21E-05,,,,
298.8959998,1167,310.2887288,-128.0746211,0,0,223.595202,596.9895641,121.050065,-118.0433173,24.69733343,203.464486,686.2254765,0,-6.42391716,144.7707832,0,-2.97E-05,,,,
298.9039998,1167,-401.5086077,14.7490835,0,0,-130.7735152,-311.2070236,-125.7701145,109.040847,-98.78805209,-387.0887135,114.8539668,0,-23.83713377,-173.8031083,0,-2.74E-05,,,,
298.9119998,1167,245.7128236,-67.02438787,0,0,211.9332808,639.6286887,117.0180764,-156.2579092,7.247644835,266.4888972,-186.1161589,0,-32.96454527,64.27583158,0,-2.50E-05,,,,
298.9199998,1167,-105.4590798,-68.75027602,0,0,11.44135592,11.72142237,-19.5378396,57.28542523,-27.63306219,-180.9046762,926.2489789,0,17.82043943,1.695085396,0,-2.27E-05,,,,
298.9279998,1167,-188.0284406,28.70762784,0,0,-14.61587768,82.94679955,-32.91893728,-8.499344965,-76.22878596,-110.2143612,-522.1940504,0,-46.31947789,-135.736348,0,-2.03E-05,,,,
298.9359998,1167,312.7384874,-146.9478598,0,0,221.577889,632.1318502,128.1623097,-148.1273452,29.31692781,219.0330684,718.0639961,0,6.575897943,159.3508042,0,-1.80E-05,,,,
298.9439998,1167,-398.5622617,-13.19805303,0,0,-147.2500209,-270.233811,-116.3417507,76.9506235,-127.2493585,-419.3023674,164.2984386,0,-28.14735061,-182.0634914,0,-1.56E-05,,,,
298.9519998,1167,239.9558392,-70.64023489,0,0,190.3301187,661.2545267,116.8993959,-172.5354563,-2.168788656,241.8631308,-165.9566733,0,-42.43262127,47.53277421,0,-1.33E-05,,,,
298.9599998,1167,-97.52156715,-83.12754641,0,0,1.897987616,49.39128369,-17.56388497,19.19416712,-23.76299392,-179.5675449,957.3301698,0,9.199508943,-4.422022081,0,-1.10E-05,,,,
298.9679998,1167,-172.9967927,3.569657893,0,0,4.015084095,127.6871391,-21.28949181,-53.58235581,-83.07293801,-126.5223424,-474.2122633,0,-48.67286094,-148.4333372,0,-8.71E-06,,,,
298.9759998,1167,349.4168288,-154.5964008,0,0,319.8135058,683.6981762,142.0564651,-180.5337217,26.08547419,208.054107,765.1075701,0,6.914015014,141.5813051,0,-6.42E-06,,,,
298.9839998,1167,-345.9373963,-15.05220949,0,0,-22.09500449,-218.2506314,-109.8572489,46.82820627,-132.9013921,-417.1074292,238.4038953,0,-33.59047008,-195.96777,0,-4.13E-06,,,,
298.9919998,1167,305.1477626,-78.45668019,0,0,261.4612343,732.2308627,128.8238371,-199.7354001,-19.43926142,252.1617192,-96.63542623,0,-44.05075183,43.64783405,0,-1.86E-06,,,,
298.9999998,1167,-23.40526302,-72.24119921,0,0,65.36662061,129.2050203,2.093292621,28.87138712,-38.6272604,-164.5779161,1050.553195,0,14.93090051,5.415718206,0,4.08E-07,,,,
299.0079998,1168,-115.8263073,32.45779625,0,0,32.15561608,183.4664683,-12.32234027,-23.6554854,-87.18273332,-106.3016768,-379.5390694,0,-46.90618172,-134.3958129,0,2.67E-06,,,,
299.0159998,1168,408.7947309,-142.2464042,0,0,262.5017264,762.8464356,156.9133771,-170.1571054,30.20954475,247.8946613,843.9637249,0,2.511331509,165.3735611,0,4.92E-06,,,,
299.0239998,1168,-293.4083649,-11.03514,0,0,-100.0917715,-134.1309512,-86.94523488,67.58246165,-127.1849779,-394.1103954,341.5500771,0,-33.9870842,-172.4668044,0,7.16E-06,,,,
299.0319998,1168,346.6428963,-79.81604362,0,0,211.2952245,805.8882762,144.3636681,-183.4217228,-10.61732749,262.592204,-14.02081517,0,-41.47963496,59.11578764,0,9.39E-06,,,,
299.0399998,1168,23.76075657,-112.9097289,0,0,20.61353438,218.0442229,9.957917096,-5.281477755,-45.8511135,-166.3213314,1133.826896,0,3.22806678,15.94621138,0,1.16E-05,,,,
299.0479998,1168,-85.64816543,-8.661432643,0,0,-37.278279,248.210382,-16.42726093,-55.61318671,-125.5960759,-152.67495,-308.0335074,0,-71.71200216,-155.3846063,0,1.38E-05,,,,
299.0559998,1168,437.5147732,-146.0627127,0,0,200.8915595,810.7506725,153.811534,-169.4444346,10.28148961,218.7180063,883.0729083,0,-8.254247631,133.1268995,0,1.60E-05,,,,
299.0639998,1168,-269.979078,-9.321625903,0,0,-153.0973096,-106.4903889,-89.45616903,70.85005982,-120.9912514,-401.1659264,383.3039609,0,-30.55535471,-192.1450075,0,1.82E-05,,,,
299.0719998,1168,358.2468282,-85.23222667,0,0,153.4278813,817.9053415,135.2033502,-188.047188,-18.62556859,235.9504183,-5.336638581,0,-49.418092,27.56646207,0,2.04E-05,,,,
299.0799998,1168,45.50570822,-118.2844052,0,0,-21.67590153,240.3108165,5.27427191,-10.4801946,-50.35330606,-187.3416802,1141.450905,0,-5.257624067,-19.21892035,0,2.26E-05,,,,
299.0879998,1168,-73.24791507,-5.67487571,0,0,-74.95201482,252.2738145,-20.02047299,-49.89882494,-113.8020904,-159.2327553,-304.2783452,0,-68.34650948,-179.4076182,0,2.48E-05,,,,
299.0959998,1168,445.0561734,-148.0302799,0,0,167.9164122,815.6503559,146.8115915,-166.8107991,14.57494396,219.406859,862.9328193,0,-8.163997869,122.4582828,0,2.69E-05,,,,
299.1039998,1168,-272.0365252,-9.248416503,0,0,-190.9370254,-113.1841976,-102.2648826,81.35496757,-129.2887741,-410.7852281,366.1249857,0,-34.46364192,-198.6393977,0,2.91E-05,,,,
299.1119998,1168,347.442844,-61.63754561,0,0,118.201288,796.829279,126.4370339,-162.1755015,-15.85829886,248.0132918,-50.61824569,0,-45.17008556,28.88563941,0,3.12E-05,,,,
299.1199998,1168,41.68310469,-89.92524583,0,0,-40.47907409,230.1648924,5.685637935,19.96959093,-36.09126292,-144.9270669,1104.616103,0,4.479594894,5.35790568,0,3.34E-05,,,,
299.1279998,1168,-87.30394879,16.00281691,0,0,-97.00499498,226.8536562,-24.00205924,-12.99275293,-107.486839,-137.4270936,-342.6764498,0,-63.11103677,-151.2095583,0,3.55E-05,,,,
299.1359998,1168,437.1975382,-136.3285802,0,0,155.7041648,797.3996719,145.845765,-148.9371609,21.48850044,240.6581411,806.546353,0,-4.153102625,147.0576532,0,3.76E-05,,,,
299.1439998,1168,-270.1709463,-15.07071933,0,0,-194.0663478,-120.5901611,-101.836035,68.33620742,-128.8764572,-398.6727741,332.6373713,0,-33.66778369,-184.6511169,0,3.97E-05,,,,
299.1519998,1168,355.215294,-79.415175,0,0,107.3190352,789.2185913,116.1928719,-193.6636365,-34.30039823,231.46489,-91.68758732,0,-54.31257075,19.79804881,0,4.18E-05,,,,
299.1599998,1168,50.1879162,-94.37388158,0,0,-61.85246931,208.1061586,-12.44855149,0.438976671,-55.17227886,-165.1467873,1066.853716,0,-4.351754642,-13.65510979,0,4.39E-05,,,,
299.1679998,1168,-93.01255839,29.93333526,0,0,-127.746135,178.869078,-44.46313948,-14.16095091,-118.0001364,-152.994556,-392.7749257,0,-67.02105221,-172.0800012,0,4.60E-05,,,,
299.1759998,1168,439.8520467,-120.1586439,0,0,134.1982459,757.2763909,131.4334932,-146.4384355,22.39272249,244.7835098,746.3230575,0,-4.658131854,132.7470055,0,4.80E-05,,,,
299.1839998,1168,-274.4137707,2.749113369,0,0,-211.6472287,-180.8987537,-117.745816,83.66243234,-109.9759777,-385.7591411,286.2753335,0,-22.77801858,-186.3527283,0,5.01E-05,,,,
299.1919998,1168,338.6686085,-62.05741535,0,0,89.92317532,714.9931968,98.69573314,-177.4507184,-4.176058454,246.5340415,-169.1992947,0,-37.66915635,28.14503775,0,5.22E-05,,,,
299.1999998,1168,35.9711447,-87.93193319,0,0,-67.71345279,147.1555827,-26.69963645,2.618437787,-25.73935327,-149.7326839,998.7613093,0,9.14219852,-5.958893288,0,5.42E-05,,,,
299.2079998,1168,-117.1095173,27.92764022,0,0,-129.509246,105.1560239,-66.44702283,-21.21132947,-95.89595469,-149.3097113,-458.921112,0,-55.60495565,-174.7083201,0,5.62E-05,,,,
299.2159998,1168,424.5636672,-116.570044,0,0,134.2718523,691.8451178,110.9206016,-150.5643454,37.62468194,251.2010616,664.119181,0,4.968687071,132.7923777,0,5.83E-05,,,,
299.2239998,1168,-294.8964933,2.034493128,0,0,-220.2022344,-244.6618313,-138.1365972,83.20207692,-105.3732084,-387.7833854,217.831512,0,-17.65690434,-183.2283598,0,6.03E-05,,,,
299.2319998,1168,307.787316,-64.41213985,0,0,75.65657932,647.618164,74.09718334,-179.028114,-13.37701802,238.7156638,-258.6695623,0,-39.74423237,28.2770466,0,6.23E-05,,,,
299.2399998,1168,12.1933988,-78.22924423,0,0,-76.33169383,85.01562377,-42.78880164,12.69703298,-35.35720847,-151.744989,918.2400253,0,7.452306595,-3.185107397,0,6.43E-05,,,,
299.2479998,1168,-152.6838258,40.83783211,0,0,-146.5352995,29.65556733,-79.13631055,4.062433333,-99.91843644,-152.5344994,-541.6194637,0,-55.44274424,-170.1069149,0,6.63E-05,,,,
299.2559998,1168,390.5830578,-95.23809786,0,0,117.5388401,620.6307552,100.8180544,-114.344784,41.89541262,269.2180255,565.8241495,0,6.034939738,148.2831492,0,6.82E-05,,,,
299.2639998,1169,-330.8609047,31.53225894,0,0,-226.5272304,-326.68811,-143.206657,126.453378,-87.51846883,-359.4302506,136.0016073,0,-14.68117839,-157.273151,0,7.02E-05,,,,
299.2719998,1169,272.4528161,-46.00589649,0,0,68.77739653,568.0692718,70.6135065,-153.1080092,-2.72216839,256.2611542,-355.1283907,0,-46.36334948,48.68910554,0,7.22E-05,,,,
299.2799998,1169,-2.653535264,-69.13033175,0,0,-87.62016442,28.35942191,-45.05307881,21.96262882,-31.73802376,-133.284282,839.0961103,0,-0.768184787,9.776984067,0,7.41E-05,,,,
299.2879998,1169,-166.4060111,33.97458054,0,0,-156.9357909,-27.74558586,-80.923054,-2.538826753,-94.22421359,-144.9701629,-608.194205,0,-60.01600104,-167.8783328,0,7.61E-05,,,,
299.2959998,1169,387.6041131,-122.0673381,0,0,108.5432952,587.2012521,99.38806953,-142.6462029,22.01557061,253.6806592,494.6592916,0,-13.06143214,132.564335,0,7.80E-05,,,,
299.3039998,1169,-330.5301317,24.40025698,0,0,-242.4311251,-358.7299549,-143.1204853,122.1524485,-113.9530225,-373.7212971,84.46064033,0,-30.99192823,-179.116918,0,7.99E-05,,,,
299.3119998,1169,270.324195,-56.23908191,0,0,65.1929129,539.4869356,79.10375535,-152.0905649,-7.479597664,264.1851337,-411.0030036,0,-45.54058079,41.75325218,0,8.18E-05,,,,
299.3199998,1169,-4.59509625,-97.2068497,0,0,-79.57080799,13.89888177,-38.93911393,12.32997462,-41.60910891,-134.8797349,805.5469252,0,-5.35037658,7.443983676,0,8.37E-05,,,,
299.3279998,1169,-190.1708042,38.02346475,0,0,-158.352322,-70.59995077,-83.02040318,24.19254272,-101.8740191,-154.438727,-641.2821248,0,-64.45967773,-171.8408386,0,8.56E-05,,,,
299.3359998,1169,369.6244217,-114.6917289,0,0,117.1454916,546.8856666,104.5704212,-115.1952015,38.52867412,271.410963,453.5093601,0,-3.47157122,150.1188874,0,8.75E-05,,,,
299.3439998,1169,-343.6085622,1.559329568,0,0,-234.4528144,-396.8215229,-145.0500164,111.7882257,-101.1709672,-376.2966787,68.83647162,0,-27.28662264,-169.2397012,0,8.94E-05,,,,
299.3519998,1169,258.1624642,-73.10787064,0,0,61.78517152,500.4686767,70.98121972,-164.303424,-7.439906583,237.3632936,-437.0724363,0,-47.25433446,25.32383754,0,9.13E-05,,,,
299.3599998,1169,0.514900952,-87.73297802,0,0,-70.94461677,-12.42895477,-33.70166794,27.19787628,-29.52245588,-136.8520701,804.9234696,0,8.098142317,2.688280266,0,9.31E-05,,,,
299.3679998,1169,-187.1010313,48.74128403,0,0,-140.8855171,-96.38380642,-76.91687932,32.50540232,-78.29420601,-141.2050835,-627.1684303,0,-50.27960901,-167.2374924,0,9.50E-05,,,,
299.3759998,1169,388.7119086,-118.5029897,0,0,142.946744,557.3262208,112.246885,-135.1496895,61.90148266,287.6875457,477.7331488,0,5.233132389,152.9281215,0,9.68E-05,,,,
299.3839998,1169,-312.0561131,6.025718442,0,0,-198.8442663,-361.5326816,-127.6222652,105.6369217,-85.58424469,-370.3315774,152.7007057,0,-8.52720822,-165.5097884,0,9.86E-05,,,,
299.3919998,1169,294.598798,-49.38651387,0,0,110.8923177,560.9388174,104.0972997,-147.0708375,4.783181754,254.5300872,-331.9766934,0,-27.4431817,43.33111201,0,0.000100438,,,,
299.3999998,1169,53.50744648,-76.6188715,0,0,-16.64770853,89.81864323,10.47357581,29.96043525,-10.86877307,-107.5043407,962.6743457,0,23.76092634,42.90403931,0,0.000102247,,,,
299.4079998,1169,-141.2149318,45.15726225,0,0,-107.6086185,3.526052953,-44.45232758,16.6889843,-72.12352661,-143.5551962,-444.0064057,0,-33.95352883,-145.2790682,0,0.000104046,,,,
299.4159998,1169,427.481887,-103.1352005,0,0,158.2011172,639.8265809,133.3381537,-140.0207267,57.86677508,288.1325452,621.9708781,0,16.2716433,156.1194276,0,0.000105836,,,,
299.4239998,1169,-305.322485,33.17615887,0,0,-210.6862752,-338.4418866,-125.7676142,119.0960341,-76.97587632,-356.2235551,251.6805388,0,-2.258284803,-162.2802806,0,0.000107616,,,,
299.4319998,1169,261.0536369,-40.06517226,0,0,74.95257412,516.5379078,79.66793571,-138.4230906,15.65984507,263.8382003,-346.0104523,0,-23.64026666,29.35410507,0,0.000109387,,,,
299.4399998,1169,-1.538496307,-83.87363139,0,0,-58.60985987,-3.409264256,-28.06804272,39.52897955,-14.29782576,-104.703831,858.3349592,0,24.33317967,19.47911121,0,0.000111148,,,,
299.4479998,1169,-229.5650607,37.57207486,0,0,-159.1640266,-149.4442328,-89.0941612,48.58484487,-84.37171879,-159.1031402,-617.0905806,0,-35.5015303,-164.3892113,0,0.0001129,,,,
299.4559998,1169,333.9747079,-128.1493368,0,0,121.4274341,487.2345792,98.81833272,-105.9275479,47.60846846,275.3496801,400.2554044,0,12.29086524,146.0373011,0,0.000114642,,,,
299.4639998,1169,-403.7790993,-6.393425248,0,0,-230.4252881,-487.5147793,-154.7389259,149.5913715,-93.09178088,-384.3332142,44.47525616,0,-10.78024469,-168.1286718,0,0.000116374,,,,
299.4719998,1169,155.9372433,-69.13504803,0,0,55.71852944,357.5201641,49.40007192,-101.5295673,7.273391944,233.2683131,-562.7534822,0,-28.44903099,28.22499472,0,0.000118097,,,,
299.4799998,1169,-97.38834048,-122.1820166,0,0,-72.46253453,-146.1256665,-55.2783441,62.1731962,-9.864383562,-117.8541453,659.8621709,0,26.27133213,20.66091398,0,0.00011981,,,,
299.4879998,1169,-333.3050641,-17.74512841,0,0,-176.4376012,-289.7140618,-121.0748886,42.91142687,-99.45707911,-196.9602456,-797.314653,0,-45.09971369,-181.0433918,0,0.000121514,,,,
299.4959998,1169,241.0537805,-159.5584977,0,0,104.3396819,351.4951102,71.58697853,-92.40320816,34.46981031,250.5490576,217.354252,0,4.69835152,133.6692245,0,0.000123208,,,,
299.5039998,1169,-492.1146471,-20.57896039,0,0,-247.5866273,-629.6989683,-177.8285677,179.8635919,-82.8930608,-385.4699913,-115.135815,0,-1.366231358,-163.7815754,0,0.000124893,,,,
299.5119998,1169,72.92570599,-102.9410504,0,0,41.09772139,231.8253368,26.61776903,-116.2902131,7.841228845,221.1692294,-725.0153226,0,-29.13628479,26.66803989,0,0.000126568,,,,
299.5199998,1170,-159.8433015,-127.4024566,0,0,-67.43187096,-254.3306519,-64.73371025,67.02561331,-7.628283312,-117.998966,523.7091631,0,20.1055078,22.29473775,0,0.000128233,,,,
299.5279998,1170,-396.1073168,14.46623883,0,0,-162.2363622,-414.3350557,-126.1961344,88.98732175,-65.07973608,-173.842555,-921.2940232,0,-31.32213792,-163.8153999,0,0.000129889,,,,
299.5359998,1170,205.2283606,-150.0751069,0,0,125.8341394,261.3117134,67.69943395,-88.40760517,68.45583375,272.0210476,100.2977182,0,26.13609881,156.4533099,0,0.000131535,,,,
299.5439998,1170,-516.0079348,-4.598429292,0,0,-220.9250812,-706.5163374,-177.3770723,180.2479397,-67.71055952,-379.1524858,-188.7074676,0,12.48542414,-146.0624788,0,0.000133171,,,,
299.5519998,1170,44.69929906,-49.39307902,0,0,63.11279317,142.7304413,28.56653616,-83.74080235,28.15421437,246.0472416,-811.6233715,0,-16.92728123,45.90827119,0,0.000134798,,,,
299.5599998,1170,-158.2761717,-78.42646945,0,0,-49.2195745,-315.7596959,-60.72802952,75.50718947,14.74318573,-80.09523833,456.7038883,0,34.76103973,46.68342555,0,0.000136415,,,,
299.5679998,1170,-390.0359962,52.29601207,0,0,-153.9394236,-467.5633031,-123.8794245,71.41410949,-51.7547612,-147.8402927,-963.3838876,0,-19.10379103,-147.1183476,0,0.000138022,,,,
299.5759998,1170,213.1800349,-114.4471501,0,0,129.7665445,220.1117427,74.13525423,-109.6307242,73.07603283,305.0153852,50.90324466,0,28.8467629,161.4537516,0,0.00013962,,,,
299.5839998,1170,-504.3392508,21.02951074,0,0,-220.3013694,-744.6169206,-169.7849923,158.8753033,-68.1480126,-357.1751594,-215.6383914,0,7.830861722,-156.1230104,0,0.000141208,,,,
299.5919998,1170,52.32284179,-23.58687569,0,0,62.11135163,98.84186725,31.81083941,-103.5139789,27.88247559,254.2956831,-852.5560055,0,-19.67682848,34.64623456,0,0.000142787,,,,
299.5999998,1170,-144.8748425,-53.07652883,0,0,-48.79375785,-356.8268086,-58.92321001,56.3499296,14.77041165,-70.82067991,420.898423,0,35.60137946,46.01808427,0,0.000144356,,,,
299.6079998,1170,-380.5937299,79.04742533,0,0,-155.9580093,-524.6386354,-124.9635873,62.38999553,-49.31059409,-145.8347422,-997.9665472,0,-19.94634503,-152.4326554,0,0.000145915,,,,
299.6159998,1170,239.968995,-80.38164817,0,0,136.9597521,167.6862226,72.19309793,-118.5887879,86.22477338,326.0159931,1.891817187,0,29.62351544,166.4792618,0,0.000147465,,,,
299.6239998,1170,-466.3050625,58.12149752,0,0,-212.4797369,-804.5593451,-174.8460441,152.7548585,-52.88186587,-333.9090367,-243.6306365,0,19.32544396,-143.6244536,0,0.000149004,,,,
299.6319998,1170,95.09885217,4.604185005,0,0,71.68484146,44.61840904,32.46181167,-105.4609613,42.91807387,270.0889276,-893.0998489,0,0.36508606,41.9737083,0,0.000150535,,,,
299.6399998,1170,-89.42065477,-45.69813946,0,0,-31.07668375,-386.2899656,-54.79694807,40.67153797,34.79120875,-39.16757288,391.2808305,0,54.57356142,63.42244472,0,0.000152055,,,,
299.6479998,1170,-345.7695618,83.33446008,0,0,-152.1541385,-569.5872775,-131.2936336,53.62560924,-50.29632931,-137.1289881,-1024.230335,0,-15.47947524,-145.1466802,0,0.000153566,,,,
299.6559998,1170,270.7371416,-84.10872926,0,0,138.8597572,142.4637242,72.16477495,-130.6743449,78.82709066,321.1739432,-37.42148012,0,19.62165245,168.1232559,0,0.000155067,,,,
