Time:125Hz,Epoch,FP1,FP2,C3,C4,P7,P8,O1,O2,F7,F8,F3,F4,T7,T8,P3,P4,,,,
676.3679995,2642,129.2309723,129.2309723,-30.29579778,129.2309723,7.119668335,129.2309723,-45.91109694,129.2309723,129.2309723,37.58686827,-27.00175409,129.2309723,9.954713866,129.2309723,129.2309723,129.2309723,,,,
676.3759995,2642,129.7245948,129.7245948,-10.7728457,129.7245948,31.9073306,129.7245948,-21.33059969,129.7245948,129.7245948,-121.6169319,65.98298866,129.7245948,-84.07229746,129.7245948,129.7245948,129.7245948,,,,
676.3839995,2642,130.2132347,130.2132347,-2.02099338,130.2132347,22.39684241,130.2132347,27.59438499,130.2132347,130.2132347,18.95798335,-33.73414638,130.2132347,-24.22862542,130.2132347,130.2132347,130.2132347,,,,
676.3919995,2642,130.696898,130.696898,-42.44175334,130.696898,44.78949662,130.696898,-94.61718187,130.696898,130.696898,-60.33008835,35.20993977,130.696898,-37.93340743,130.696898,130.696898,130.696898,,,,
676.3999995,2642,131.1755909,131.1755909,22.37353043,131.1755909,59.58422137,131.1755909,48.36130204,131.1755909,131.1755909,-84.06100457,62.26285148,131.1755909,-99.12988507,131.1755909,131.1755909,131.1755909,,,,
676.4079995,2642,131.6493195,131.6493195,-9.837972533,131.6493195,35.35694487,131.6493195,-38.6059141,131.6493195,131.6493195,70.73365551,-14.96553155,131.6493195,8.740916578,131.6493195,131.6493195,131.6493195,,,,
676.4159995,2642,132.11809,132.11809,6.316266384,132.11809,65.17369371,132.11809,-22.64914971,132.11809,132.11809,-105.7477287,72.55356354,132.11809,-72.43888287,132.11809,132.11809,132.11809,,,,
676.4239995,2642,132.5819089,132.5819089,27.56386224,132.5819089,38.58195072,132.5819089,61.70403368,132.5819089,132.5819089,66.42589808,-11.15521127,132.5819089,-26.58587613,132.5819089,132.5819089,132.5819089,,,,
676.4319995,2642,133.0407826,133.0407826,-25.1290257,133.0407826,34.64018809,133.0407826,-89.31538055,133.0407826,133.0407826,-8.675747466,48.9167093,133.0407826,-26.31344307,133.0407826,133.0407826,133.0407826,,,,
676.4399995,2642,133.4947178,133.4947178,37.06505097,133.4947178,38.55951196,133.4947178,63.86516563,133.4947178,133.4947178,-58.69779518,49.08060041,133.4947178,-80.57470428,133.4947178,133.4947178,133.4947178,,,,
676.4479995,2642,133.9437211,133.9437211,-5.421801856,133.9437211,10.19713363,133.9437211,-31.85049554,133.9437211,133.9437211,85.75594829,-25.95823533,133.9437211,25.3865472,133.9437211,133.9437211,133.9437211,,,,
676.4559995,2642,134.3877994,134.3877994,9.686234392,134.3877994,38.83685024,134.3877994,-25.37914074,134.3877994,134.3877994,-108.6146347,86.29548796,134.3877994,-74.31390424,134.3877994,134.3877994,134.3877994,,,,
676.4639995,2642,134.8269594,134.8269594,31.88323885,134.8269594,12.89481293,134.8269594,63.47908753,134.8269594,134.8269594,65.50625667,-18.18507741,134.8269594,-25.72256877,134.8269594,134.8269594,134.8269594,,,,
676.4719995,2642,135.2612083,135.2612083,-31.20713771,135.2612083,32.00284206,135.2612083,-93.00488532,135.2612083,135.2612083,-9.557528976,42.21327912,135.2612083,-24.27551342,135.2612083,135.2612083,135.2612083,,,,
676.4799995,2642,135.6905531,135.6905531,29.35777117,135.6905531,61.46008889,135.6905531,66.57110795,135.6905531,135.6905531,-72.79017226,90.5276152,135.6905531,-117.608029,135.6905531,135.6905531,135.6905531,,,,
676.4879995,2642,136.1150011,136.1150011,-15.41498607,136.1150011,18.44392531,136.1150011,-34.49380812,136.1150011,136.1150011,75.07640603,1.184680312,136.1150011,-17.86293481,136.1150011,136.1150011,136.1150011,,,,
676.4959995,2642,136.5345594,136.5345594,8.291169665,136.5345594,35.44379521,136.5345594,-22.45966354,136.5345594,136.5345594,-108.8021178,77.25177562,136.5345594,-90.64210371,136.5345594,136.5345594,136.5345594,,,,
676.5039995,2642,136.9492355,136.9492355,51.8802802,136.9492355,8.773721428,136.9492355,84.89918339,136.9492355,136.9492355,78.50795017,-14.6024371,136.9492355,-27.07476417,136.9492355,136.9492355,136.9492355,,,,
676.5119995,2642,137.359037,137.359037,-10.19378715,137.359037,4.571429447,137.359037,-81.34798703,137.359037,137.359037,20.25645232,34.7479138,137.359037,-2.471021218,137.359037,137.359037,137.359037,,,,
676.5199995,2642,137.7639713,137.7639713,43.07162424,137.7639713,37.19579943,137.7639713,67.9355389,137.7639713,137.7639713,-50.02356396,80.02535228,137.7639713,-91.22143616,137.7639713,137.7639713,137.7639713,,,,
676.5279995,2642,138.1640462,138.1640462,-3.335053896,138.1640462,22.09596018,138.1640462,-35.64042727,138.1640462,138.1640462,87.37979964,38.34791851,138.1640462,-13.7791959,138.1640462,138.1640462,138.1640462,,,,
676.5359995,2642,138.5592694,138.5592694,9.934090474,138.5592694,57.69302589,138.5592694,-38.05997467,138.5592694,138.5592694,-117.3658231,150.3176995,138.5592694,-126.8122367,138.5592694,138.5592694,138.5592694,,,,
676.5439995,2642,138.9496488,138.9496488,53.23638259,138.9496488,34.80446216,138.9496488,68.82305159,138.9496488,138.9496488,46.51153554,55.92450153,138.9496488,-95.64371585,138.9496488,138.9496488,138.9496488,,,,
676.5519995,2642,139.3351925,139.3351925,-4.74198585,139.3351925,6.387512934,139.3351925,-95.55063999,139.3351925,139.3351925,-3.77045858,68.03847007,139.3351925,-58.40453661,139.3351925,139.3351925,139.3351925,,,,
676.5599995,2642,139.7159084,139.7159084,52.63240695,139.7159084,22.26439966,139.7159084,57.32995681,139.7159084,139.7159084,-61.41845594,75.31693583,139.7159084,-132.2408256,139.7159084,139.7159084,139.7159084,,,,
676.5679995,2642,140.0918047,140.0918047,16.0591849,140.0918047,17.11455768,140.0918047,-35.79470054,140.0918047,140.0918047,94.44674498,30.27547229,140.0918047,-41.11765175,140.0918047,140.0918047,140.0918047,,,,
676.5759995,2642,140.4628897,140.4628897,21.18655574,140.4628897,36.47632223,140.4628897,-42.65019502,140.4628897,140.4628897,-97.33806349,131.9534349,140.4628897,-126.7351011,140.4628897,140.4628897,140.4628897,,,,
676.5839995,2642,140.8291717,140.8291717,51.35155824,140.8291717,-2.720852041,140.8291717,63.91181211,140.8291717,140.8291717,53.01641892,7.00923578,140.8291717,-94.57076774,140.8291717,140.8291717,140.8291717,,,,
676.5919995,2642,141.1906592,141.1906592,-7.753231401,141.1906592,15.06078712,141.1906592,-99.74434592,141.1906592,141.1906592,-14.75227677,45.46732304,141.1906592,-74.76249708,141.1906592,141.1906592,141.1906592,,,,
676.5999995,2642,141.5473606,141.5473606,49.92874896,141.5473606,39.55265127,141.5473606,52.71337961,141.5473606,141.5473606,-69.66346911,88.92382394,141.5473606,-150.9929492,141.5473606,141.5473606,141.5473606,,,,
676.6079995,2643,141.8992847,141.8992847,4.628560004,141.8992847,-21.01645158,141.8992847,-42.21121022,141.8992847,141.8992847,99.75158106,-14.11622707,141.8992847,-46.87740037,141.8992847,141.8992847,141.8992847,,,,
676.6159995,2643,142.24644,142.24644,5.797431909,142.24644,0.679561684,142.24644,-56.95753628,142.24644,142.24644,-89.56350333,47.34792949,142.24644,-116.2914725,142.24644,142.24644,142.24644,,,,
676.6239995,2643,142.5888355,142.5888355,55.14659805,142.5888355,-15.0867946,142.5888355,60.12378183,142.5888355,142.5888355,73.18926746,-32.11751513,142.5888355,-74.76393028,142.5888355,142.5888355,142.5888355,,,,
676.6319995,2643,142.9264799,142.9264799,18.67590277,142.9264799,-15.76544205,142.9264799,-88.13394993,142.9264799,142.9264799,26.48417746,14.54412977,142.9264799,-37.36007389,142.9264799,142.9264799,142.9264799,,,,
676.6399995,2643,143.2593823,143.2593823,73.55915771,143.2593823,13.9377184,143.2593823,67.13930292,143.2593823,143.2593823,-29.80737822,51.78818646,143.2593823,-102.2008608,143.2593823,143.2593823,143.2593823,,,,
676.6479995,2643,143.5875518,143.5875518,14.73112997,143.5875518,-18.28919201,143.5875518,-35.22338313,143.5875518,143.5875518,120.6426062,2.65701498,143.5875518,-24.34657987,143.5875518,143.5875518,143.5875518,,,,
676.6559995,2643,143.9109974,143.9109974,22.03033614,143.9109974,4.588422333,143.9109974,-53.22448218,143.9109974,143.9109974,-87.1679038,88.68448768,143.9109974,-112.356922,143.9109974,143.9109974,143.9109974,,,,
676.6639995,2643,144.2297284,144.2297284,68.70389012,144.2297284,-20.32756424,144.2297284,67.48712708,144.2297284,144.2297284,73.97979366,-27.13568006,144.2297284,-54.30003819,144.2297284,144.2297284,144.2297284,,,,
676.6719995,2643,144.5437542,144.5437542,6.218996657,144.5437542,-24.40480107,144.5437542,-98.70223102,144.5437542,144.5437542,17.34938579,1.963612294,144.5437542,-24.79933897,144.5437542,144.5437542,144.5437542,,,,
676.6799995,2643,144.8530842,144.8530842,61.16947508,144.8530842,1.701302138,144.8530842,54.91523896,144.8530842,144.8530842,-51.25503717,31.2856608,144.8530842,-103.9761521,144.8530842,144.8530842,144.8530842,,,,
676.6879995,2643,145.1577277,145.1577277,22.50357848,145.1577277,-30.22823805,145.1577277,-23.04654463,145.1577277,145.1577277,130.1253927,-38.16713024,145.1577277,8.421809301,145.1577277,145.1577277,145.1577277,,,,
676.6959995,2643,145.4576946,145.4576946,23.66134157,145.4576946,4.181446005,145.4576946,-45.01131206,145.4576946,145.4576946,-57.53277526,68.06256212,145.4576946,-66.6721494,145.4576946,145.4576946,145.4576946,,,,
676.7039995,2643,145.7529943,145.7529943,52.56269852,145.7529943,-12.52163034,145.7529943,63.03344551,145.7529943,145.7529943,87.89959908,-5.179065878,145.7529943,-53.13960914,145.7529943,145.7529943,145.7529943,,,,
676.7119995,2643,146.0436366,146.0436366,-9.533316814,146.0436366,-22.96477081,146.0436366,-102.6230559,146.0436366,146.0436366,26.94904579,29.85978421,146.0436366,-44.88931668,146.0436366,146.0436366,146.0436366,,,,
676.7199995,2643,146.3296314,146.3296314,51.17478445,146.3296314,0.990110942,146.3296314,51.14790675,146.3296314,146.3296314,-43.03109088,35.70645181,146.3296314,-103.9997479,146.3296314,146.3296314,146.3296314,,,,
676.7279995,2643,146.6109886,146.6109886,5.238891348,146.6109886,-31.33825956,146.6109886,-33.26873352,146.6109886,146.6109886,110.8713217,-33.59565548,146.6109886,-6.339561158,146.6109886,146.6109886,146.6109886,,,,
676.7359995,2643,146.8877182,146.8877182,5.024642113,146.8877182,-2.77640348,146.8877182,-58.81862924,146.8877182,146.8877182,-97.60728561,86.59135874,146.8877182,-102.2432236,146.8877182,146.8877182,146.8877182,,,,
676.7439995,2643,147.1598302,147.1598302,47.66929777,147.1598302,-16.77164128,147.1598302,56.59730677,147.1598302,147.1598302,68.71015446,0.432548419,147.1598302,-62.42719443,147.1598302,147.1598302,147.1598302,,,,
676.7519995,2643,147.4273348,147.4273348,-6.139197257,147.4273348,-21.82132867,147.4273348,-109.8195518,147.4273348,147.4273348,17.06125984,45.85423379,147.4273348,-55.8850106,147.4273348,147.4273348,147.4273348,,,,
676.7599995,2643,147.6902422,147.6902422,58.78746434,147.6902422,-4.630703805,147.6902422,43.12008123,147.6902422,147.6902422,-49.40908948,65.854882,147.6902422,-125.9067058,147.6902422,147.6902422,147.6902422,,,,
676.7679995,2643,147.9485628,147.9485628,15.73254232,147.9485628,-36.32225341,147.9485628,-35.37754195,147.9485628,147.9485628,137.298389,-31.0730239,147.9485628,-1.632703951,147.9485628,147.9485628,147.9485628,,,,
676.7759995,2643,148.202307,148.202307,17.95883763,148.202307,-3.498237837,148.202307,-57.89567317,148.202307,148.202307,-78.06297336,93.88393477,148.202307,-104.6874824,148.202307,148.202307,148.202307,,,,
676.7839995,2643,148.4514851,148.4514851,60.84006273,148.4514851,-31.90701165,148.4514851,61.94153289,148.4514851,148.4514851,66.28073248,5.003641138,148.4514851,-73.08916008,148.4514851,148.4514851,148.4514851,,,,
676.7919995,2643,148.6961079,148.6961079,-0.70324693,148.6961079,-34.97791336,148.6961079,-107.4935874,148.6961079,148.6961079,18.72956737,17.96531604,148.6961079,-44.25236735,148.6961079,148.6961079,148.6961079,,,,
676.7999995,2643,148.9361858,148.9361858,69.56768348,148.9361858,-4.662173144,148.9361858,49.67871339,148.9361858,148.9361858,-63.69246509,75.13708152,148.9361858,-138.517158,148.9361858,148.9361858,148.9361858,,,,
676.8079995,2643,149.1717296,149.1717296,32.23965651,149.1717296,-53.82283192,149.1717296,-21.49385582,149.1717296,149.1717296,131.1659704,-14.27749607,149.1717296,-19.10561731,149.1717296,149.1717296,149.1717296,,,,
676.8159995,2643,149.40275,149.40275,28.40744729,149.40275,-32.02180829,149.40275,-51.8436812,149.40275,149.40275,-57.06836493,58.42133338,149.40275,-78.87747374,149.40275,149.40275,149.40275,,,,
676.8239995,2643,149.629258,149.629258,73.86107712,149.629258,-47.02156665,149.629258,67.82165895,149.629258,149.629258,88.72667266,-19.40129038,149.629258,-47.99182615,149.629258,149.629258,149.629258,,,,
676.8319995,2643,149.8512645,149.8512645,3.609860577,149.8512645,-54.72305961,149.8512645,-106.7221219,149.8512645,149.8512645,49.6908534,1.672222965,149.8512645,-19.09298682,149.8512645,149.8512645,149.8512645,,,,
676.8399995,2643,150.0687804,150.0687804,52.12613176,150.0687804,-26.24599469,150.0687804,34.7328336,150.0687804,150.0687804,-50.53389783,35.36404058,150.0687804,-108.6640336,150.0687804,150.0687804,150.0687804,,,,
676.8479995,2643,150.2818168,150.2818168,9.119359274,150.2818168,-54.20646943,150.2818168,-42.31305395,150.2818168,150.2818168,94.25601098,-25.3366233,150.2818168,-31.77210115,150.2818168,150.2818168,150.2818168,,,,
676.8559995,2643,150.4903849,150.4903849,10.10869466,150.4903849,-28.44217336,150.4903849,-70.33791017,150.4903849,150.4903849,-116.5043643,88.50201224,150.4903849,-123.7193681,150.4903849,150.4903849,150.4903849,,,,
676.8639995,2644,150.6944959,150.6944959,56.55088511,150.6944959,-52.37940764,150.6944959,56.67960856,150.6944959,150.6944959,44.50600663,-6.289913984,150.6944959,-80.60533648,150.6944959,150.6944959,150.6944959,,,,
676.8719995,2644,150.8941611,150.8941611,-12.90231031,150.8941611,-59.53155458,150.8941611,-117.3494812,150.8941611,150.8941611,17.33130781,4.634057159,150.8941611,-45.29596779,150.8941611,150.8941611,150.8941611,,,,
676.8799995,2644,151.0893919,151.0893919,43.0876404,151.0893919,-23.53535088,151.0893919,30.07791,151.0893919,151.0893919,-87.88909117,65.61780337,151.0893919,-151.9805222,151.0893919,151.0893919,151.0893919,,,,
676.8879995,2644,151.2801997,151.2801997,7.609344214,151.2801997,-51.48718348,151.2801997,-36.49964646,151.2801997,151.2801997,84.83822153,-7.627668652,151.2801997,-59.74809545,151.2801997,151.2801997,151.2801997,,,,
676.8959995,2644,151.4665959,151.4665959,10.05923712,151.4665959,-37.51889063,151.4665959,-66.9932957,151.4665959,151.4665959,-98.59272481,73.52440434,151.4665959,-117.2925021,151.4665959,151.4665959,151.4665959,,,,
676.9039995,2644,151.6485923,151.6485923,64.2903095,151.6485923,-67.91574572,151.6485923,70.51454489,151.6485923,151.6485923,58.06418137,-22.77311993,151.6485923,-65.64289825,151.6485923,151.6485923,151.6485923,,,,
676.9119995,2644,151.8262003,151.8262003,5.947143776,151.8262004,-87.81793565,151.8262003,-93.65316235,151.8262003,151.8262004,41.35830743,-23.02331323,151.8262004,-15.35069414,151.8262004,151.8262004,151.8262004,,,,
676.9199995,2644,151.9994319,151.9994319,63.12616227,151.9994319,-70.63484626,151.9994319,48.56675062,151.9994319,151.9994319,-43.21751685,0.614472589,151.9994319,-84.37807792,151.9994319,151.9994319,151.9994319,,,,
676.9279995,2644,152.1682986,152.1682986,10.13855967,152.1682986,-95.71344903,152.1682986,-29.08769047,152.1682986,152.1682986,128.6999613,-75.50481167,152.1682986,18.3123274,152.1682986,152.1682986,152.1682986,,,,
676.9359995,2644,152.3328124,152.3328124,-4.198487679,152.3328124,-61.12449536,152.3328124,-73.86347282,152.3328124,152.3328124,-88.75994181,38.58878658,152.3328124,-74.06344002,152.3328124,152.3328124,152.3328124,,,,
676.9439995,2644,152.4929851,152.4929851,54.6376607,152.4929851,-68.07904052,152.4929851,64.57975627,152.4929851,152.4929851,47.88103829,-38.78878484,152.4929851,-44.47034779,152.4929851,152.4929851,152.4929851,,,,
676.9519995,2644,152.6488289,152.6488289,-10.29394933,152.6488289,-59.16158618,152.6488289,-106.5911283,152.6488289,152.6488289,23.98232274,-7.42637949,152.6488289,-11.05851932,152.6488289,152.6488289,152.6488289,,,,
676.9599995,2644,152.8003556,152.8003556,51.47686451,152.8003556,-34.800769,152.8003556,36.45852611,152.8003556,152.8003556,-78.74857424,43.33922193,152.8003556,-101.9883647,152.8003556,152.8003556,152.8003556,,,,
676.9679995,2644,152.9475775,152.9475775,19.68611801,152.9475775,-66.86369927,152.9475775,-24.73371659,152.9475775,152.9475775,117.021006,-69.52453243,152.9475775,29.28092219,152.9475775,152.9475775,152.9475775,,,,
676.9759995,2644,153.0905067,153.0905067,-1.872029156,153.0905067,-5.005844382,153.0905067,-78.97502782,153.0905067,153.0905067,-85.29483984,44.75243222,153.0905067,-54.62876163,153.0905067,153.0905067,153.0905067,,,,
676.9839995,2644,153.2291554,153.2291554,54.91477365,153.2291554,-1.943144194,153.2291554,57.0598456,153.2291554,153.2291554,29.75456827,4.121649771,153.2291554,-53.63416578,153.2291554,153.2291554,153.2291554,,,,
676.9919995,2644,153.3635359,153.3635359,-6.033292294,153.3635359,-0.433713042,153.3635359,-107.4902345,153.3635359,153.363536,-0.285276469,13.50838942,153.363536,-14.97435458,153.363536,153.363536,153.363536,,,,
676.9999995,2644,153.4936607,153.4936607,49.79170795,153.4936607,42.90672401,153.4936607,34.39006752,153.4936607,153.4936607,-108.3185563,79.65326155,153.4936607,-124.8831637,153.4936607,153.4936607,153.4936607,,,,
677.0079995,2644,153.6195422,153.6195422,27.50813686,153.6195422,-8.229141175,153.6195422,-20.73761841,153.6195422,153.6195422,97.6977988,-13.30765052,153.6195422,-7.166345444,153.6195422,153.6195422,153.6195422,,,,
677.0159995,2644,153.7411927,153.7411927,13.60094183,153.7411927,13.78032683,153.7411927,-74.89780077,153.7411927,153.7411927,-79.3420443,46.12809988,153.7411927,-47.99623692,153.7411927,153.7411927,153.7411927,,,,
677.0239995,2644,153.858625,153.858625,62.33424852,153.858625,11.9726482,153.858625,55.95832667,153.858625,153.858625,51.55027986,-13.89744908,153.858625,-33.9036962,153.858625,153.858625,153.858625,,,,
677.0319995,2644,153.9718516,153.9718516,-4.316603105,153.9718516,-4.456895758,153.9718516,-116.6481121,153.9718516,153.9718516,29.69691895,7.014712857,153.9718516,-5.278121518,153.9718516,153.9718516,153.9718516,,,,
677.0399995,2644,154.0808851,154.0808851,46.859402,154.0808851,16.60687954,154.0808851,22.18382621,154.0808851,154.0808851,-79.47527407,43.6263143,154.0808851,-91.06364322,154.0808851,154.0808851,154.0808851,,,,
677.0479995,2644,154.1857384,154.1857384,9.046596863,154.1857384,-17.23994236,154.1857384,-34.46753255,154.1857384,154.1857384,116.0312036,-48.18442615,154.1857384,27.86833679,154.1857384,154.1857384,154.1857384,,,,
677.0559995,2644,154.2864241,154.2864241,-16.11924786,154.2864241,12.14337259,154.2864241,-93.98460025,154.2864241,154.2864241,-90.55480053,54.20252599,154.2864241,-51.74284927,154.2864241,154.2864241,154.2864241,,,,
677.0639995,2644,154.3829553,154.3829553,42.59424919,154.3829553,0.457221625,154.3829553,52.16124362,154.3829553,154.3829553,20.94568306,-11.51694143,154.3829553,-39.85575225,154.3829553,154.3829553,154.3829553,,,,
677.0719995,2644,154.4753446,154.4753446,-14.54387818,154.4753446,-4.860776189,154.4753446,-112.8935136,154.4753446,154.4753446,10.16160805,-8.445586133,154.4753446,16.43024782,154.4753446,154.4753446,154.4753446,,,,
677.0799995,2644,154.5636053,154.5636053,37.85317985,154.5636053,21.6449963,154.5636053,21.42919691,154.5636053,154.5636053,-103.5566524,45.55165937,154.5636053,-87.83936063,154.5636053,154.5636053,154.5636053,,,,
677.0879995,2644,154.6477501,154.6477501,6.184100523,154.6477501,-21.15268161,154.6477501,-26.2239099,154.6477501,154.6477501,86.22005788,-56.10926245,154.6477501,11.02229806,154.6477501,154.6477501,154.6477501,,,,
677.0959995,2644,154.7277923,154.7277923,-30.79384833,154.7277923,19.13712617,154.7277923,-95.23852431,154.7277923,154.7277923,-124.8089558,34.44166212,154.7277923,-76.12170021,154.7277923,154.7277923,154.7277923,,,,
677.1039995,2644,154.803745,154.803745,14.47577935,154.803745,19.41851375,154.803745,39.79354778,154.803745,154.803745,-41.98390036,-3.721411164,154.803745,-121.4469453,154.803745,154.803745,154.803745,,,,
677.1119995,2644,154.8756214,154.8756214,-68.61927596,154.8756214,-11.82068946,154.8756214,-218.977572,154.8756214,154.8756214,-37.37287773,-19.72789389,154.8756214,-24.49632809,154.8756214,154.8756214,154.8756214,,,,
677.1199995,2645,154.9434346,154.9434346,-3.963356991,154.9434346,32.31755046,154.9434346,-71.26451105,154.9434346,154.9434346,-198.9683067,34.87269972,154.9434346,-111.2796707,154.9434346,154.9434346,154.9434346,,,,
677.1279995,2645,155.007198,155.007198,47.64684663,155.007198,5.852140656,155.007198,90.13828962,155.007198,155.007198,48.86952942,-67.62651189,155.007198,-69.50348156,155.007198,155.007198,155.007198,,,,
677.1359995,2645,155.066925,155.066925,-34.45657569,155.066925,-18.79973667,155.066925,-136.529772,155.066925,155.066925,-32.93626044,-9.543724972,155.066925,-30.56805261,155.066925,155.066925,155.066925,,,,
677.1439995,2645,155.122629,155.122629,12.82627382,155.122629,-1.195780902,155.122629,1.715756356,155.122629,155.122629,-83.06484326,2.664737202,155.122629,-68.87849291,155.122629,155.122629,155.122629,,,,
677.1519995,2645,155.1743233,155.1743233,9.979993809,155.1743233,-7.606275773,155.1743233,5.227980362,155.1743233,155.1743233,71.02076742,-68.40311155,155.1743233,-3.847936821,155.1743233,155.1743233,155.1743233,,,,
677.1599995,2645,155.2220216,155.2220216,-13.4559064,155.2220216,20.1786329,155.2220216,-102.4401645,155.2220216,155.2220216,-62.47263049,26.47342134,155.2220216,-39.36460057,155.2220216,155.2220216,155.2220216,,,,
677.1679995,2645,155.2657374,155.2657374,54.78551555,155.2657374,33.71813813,155.2657374,62.93608673,155.2657374,155.2657374,-38.52993398,21.19761301,155.2657374,-72.10275989,155.2657374,155.2657374,155.2657374,,,,
677.1759995,2645,155.3054843,155.3054843,6.133933366,155.3054843,9.364599644,155.3054843,-40.81842996,155.3054843,155.3054843,38.45269706,-20.52301446,155.3054843,1.669528994,155.3054843,155.3054843,155.3054843,,,,
677.1839995,2645,155.3412759,155.3412759,-0.793327495,155.3412759,35.1466438,155.3412759,-47.03771472,155.3412759,155.3412759,-107.990823,58.47947207,155.3412759,-69.02879797,155.3412759,155.3412759,155.3412759,,,,
677.1919995,2645,155.373126,155.373126,37.39472788,155.373126,19.0910607,155.373126,50.77091459,155.373126,155.373126,15.01990833,1.81266322,155.373126,-51.12017238,155.373126,155.373126,155.373126,,,,
677.1999995,2645,155.4010484,155.4010484,-9.706497215,155.4010484,3.449592128,155.4010484,-94.75476615,155.4010484,155.4010484,-12.17765548,17.54399988,155.4010484,-26.5154596,155.4010484,155.4010484,155.4010484,,,,
677.2079995,2645,155.4250567,155.4250567,29.42436296,155.4250567,26.50932729,155.4250567,23.98448185,155.4250567,155.4250567,-104.7275978,42.34132511,155.4250567,-113.3735223,155.4250567,155.4250567,155.4250567,,,,
677.2159995,2645,155.445165,155.445165,9.398337852,155.445165,0.318514716,155.445165,-24.33607496,155.445165,155.445165,27.23830377,-21.09561383,155.445165,-40.70967725,155.445165,155.445165,155.445165,,,,
677.2239995,2645,155.4613871,155.4613871,8.116690831,155.4613871,22.05135277,155.4613871,-64.00484797,155.4613871,155.4613871,-124.204506,69.40598427,155.4613871,-89.95630203,155.4613871,155.4613871,155.4613871,,,,
677.2319995,2645,155.4737369,155.4737369,55.18216821,155.4737369,1.496234619,155.4737369,60.54124347,155.4737369,155.4737369,-7.885666774,-1.213366355,155.4737369,-76.44782762,155.4737369,155.4737369,155.4737369,,,,
677.2399995,2645,155.4822284,155.4822284,12.62721196,155.4822284,-19.71758299,155.4822284,-94.86924288,155.4822284,155.4822284,-0.094351519,-11.91934078,155.4822284,-31.61469922,155.4822284,155.4822284,155.4822284,,,,
677.2479995,2645,155.4868758,155.4868758,65.01694219,155.4868758,12.24606911,155.4868758,30.16719858,155.4868758,155.4868758,-106.8751727,33.3793973,155.4868758,-110.1707995,155.4868758,155.4868758,155.4868758,,,,
677.2559995,2645,155.487693,155.487693,29.40357017,155.487693,-38.66432348,155.487693,-12.57962972,155.487693,155.487693,64.99863343,-52.58412945,155.487693,-10.89412979,155.487693,155.487693,155.487693,,,,
677.2639995,2645,155.4846942,155.4846942,1.592510506,155.4846942,-32.08418328,155.4846942,-83.78285879,155.4846942,155.4846942,-112.3773067,17.85256422,155.4846942,-62.04238232,155.4846942,155.4846942,155.4846942,,,,
677.2719995,2645,155.4778937,155.4778937,54.47755065,155.4778937,-21.0748472,155.4778937,63.50267512,155.4778937,155.4778937,-3.282818374,-33.15437833,155.4778937,-54.62827377,155.4778937,155.4778937,155.4778937,,,,
677.2799995,2645,155.4673055,155.4673055,-1.936958147,155.4673055,-40.10518642,155.4673055,-107.2650633,155.4673055,155.4673055,14.57671092,-5.474703902,155.4673055,-8.501003038,155.4673055,155.4673055,155.4673055,,,,
677.2879995,2645,155.452944,155.452944,47.45082366,155.452944,-29.10482086,155.452944,2.361167399,155.452944,155.452944,-113.6162058,35.09419211,155.452944,-102.8452686,155.452944,155.452944,155.452944,,,,
677.2959995,2645,155.4348235,155.4348235,30.99880372,155.4348235,-54.19390409,155.4348235,-21.16148207,155.4348235,155.4348235,88.13192525,-70.33024335,155.4348235,12.96990154,155.4348235,155.4348235,155.4348235,,,,
677.3039995,2645,155.4129584,155.4129584,-6.054907274,155.4129584,-19.68925458,155.4129584,-105.6678721,155.4129584,155.4129584,-91.78245446,35.70553523,155.4129584,-41.40381936,155.4129584,155.4129584,155.4129584,,,,
677.3119995,2645,155.3873629,155.3873629,36.09049961,155.3873629,-9.660089712,155.3873629,34.29643985,155.3873629,155.3873629,-27.19431371,0.397704918,155.3873629,-73.42511854,155.3873629,155.3873629,155.3873629,,,,
677.3199995,2645,155.3580516,155.3580516,-11.74641717,155.3580516,-19.64900516,155.3580516,-126.7048539,155.3580516,155.3580516,-29.00120798,17.69917406,155.3580516,-46.25569645,155.3580516,155.3580516,155.3580516,,,,
677.3279995,2645,155.325039,155.325039,39.32815459,155.325039,-5.033310102,155.325039,-11.52447194,155.325039,155.325039,-156.4078272,59.78874469,155.325039,-147.2081856,155.325039,155.325039,155.325039,,,,
677.3359995,2645,155.2883395,155.2883395,20.94980026,155.2883395,-56.2446083,155.2883395,-29.05728093,155.2883395,155.2883395,64.09227812,-61.39474606,155.2883395,-23.46870472,155.2883395,155.2883395,155.2883395,,,,
677.3439995,2645,155.2479677,155.2479677,-3.204711496,155.2479677,-50.78813884,155.2479677,-103.2639632,155.2479677,155.2479677,-91.33936175,16.55869317,155.2479677,-43.84971565,155.2479677,155.2479677,155.2479677,,,,
677.3519995,2645,155.2039381,155.2039381,37.26080879,155.2039381,-44.74966092,155.2039381,41.21191858,155.2039381,155.2039381,4.540752242,-39.03977566,155.2039381,-45.33317891,155.2039381,155.2039381,155.2039381,,,,
677.3599995,2645,155.1562655,155.1562655,-25.06717523,155.1562655,-39.71712725,155.1562655,-123.1856179,155.1562655,155.1562655,22.84766018,-10.07807525,155.1562655,-8.600166779,155.1562655,155.1562655,155.1562655,,,,
677.3679995,2645,155.1049644,155.1049644,28.49423076,155.1049644,-22.76474969,155.1049644,-5.132904622,155.1049644,155.1049644,-126.7357417,56.54395284,155.1049644,-116.6035559,155.1049644,155.1049644,155.1049644,,,,
677.3759995,2646,155.0500497,155.0500497,3.105913963,155.0500497,-73.69916678,155.0500497,-29.98583792,155.0500497,155.0500497,51.35554383,-63.20401969,155.0500497,-24.16418029,155.0500497,155.0500497,155.0500497,,,,
677.3839995,2646,154.991536,154.991536,-14.89942363,154.991536,-45.06924123,154.991536,-104.4233646,154.991536,154.991536,-118.8234454,28.768703,154.991536,-65.19666839,154.991536,154.991536,154.991536,,,,
677.3919995,2646,154.929438,154.929438,52.19263583,154.929438,-32.97131034,154.929438,54.93859308,154.929438,154.929438,-6.94975788,-13.12672899,154.929438,-52.83962893,154.929438,154.929438,154.929438,,,,
677.3999995,2646,154.8637707,154.8637707,-12.68448208,154.8637707,-48.22487291,154.8637707,-119.9913865,154.8637707,154.8637707,18.77029498,-7.262406473,154.8637707,-4.249396922,154.8637707,154.8637707,154.8637707,,,,
677.4079995,2646,154.7945489,154.7945489,41.62457829,154.7945489,-30.55916282,154.7945489,-2.783495427,154.7945489,154.7945489,-130.4223128,60.30807059,154.7945489,-107.9498986,154.7945489,154.7945489,154.7945489,,,,
677.4159995,2646,154.7217874,154.7217874,26.25570143,154.7217874,-59.34252824,154.7217874,-13.68277171,154.7217874,154.7217874,65.72398476,-46.42539987,154.7217874,-0.600346729,154.7217874,154.7217874,154.7217874,,,,
677.4239995,2646,154.6455012,154.6455012,-10.50169757,154.6455012,-13.25921355,154.6455012,-104.5387759,154.6455012,154.6455012,-114.5047437,49.69246492,154.6455012,-54.08225482,154.6455012,154.6455012,154.6455012,,,,
677.4319995,2646,154.5657052,154.5657052,51.28000836,154.5657052,-3.095480777,154.5657052,53.04674971,154.5657052,154.5657052,-32.81134169,36.08374275,154.5657052,-79.35472237,154.5657052,154.5657052,154.5657052,,,,
677.4399995,2646,154.4824144,154.4824144,2.342522085,154.4824144,-36.16754292,154.4824144,-106.2916065,154.4824144,154.4824144,8.680496433,32.70239001,154.4824144,-21.79086961,154.4824144,154.4824144,154.4824144,,,,
677.4479995,2646,154.3956438,154.3956438,48.1676673,154.3956438,-16.93894658,154.3956438,0.73466771,154.3956438,154.3956438,-122.9492632,65.97324502,154.3956438,-104.0329127,154.3956438,154.3956438,154.3956438,,,,
677.4559995,2646,154.3054085,154.3054085,24.47662577,154.3054085,-40.84382762,154.3054085,-19.43628579,154.3054085,154.3054085,69.6905562,-29.57004416,154.3054085,-14.58095193,154.3054085,154.3054085,154.3054085,,,,
677.4639995,2646,154.2117236,154.2117236,1.17012929,154.2117236,-20.53370243,154.2117236,-106.4846997,154.2117236,154.2117236,-101.7711435,65.15978258,154.2117236,-65.23815847,154.2117236,154.2117236,154.2117236,,,,
677.4719995,2646,154.1146041,154.1146041,61.25587488,154.1146041,-23.49821015,154.1146041,53.10557018,154.1146041,154.1146041,-11.93307138,12.50817099,154.1146041,-59.4469936,154.1146041,154.1146041,154.1146041,,,,
677.4799995,2646,154.0140653,154.0140653,-7.578427685,154.0140653,-35.97929557,154.0140653,-114.666162,154.0140653,154.0140653,18.42360954,6.59283477,154.0140653,-11.05849417,154.0140653,154.0140653,154.0140653,,,,
677.4879995,2646,153.9101222,153.9101222,44.98037058,153.9101222,-4.569268354,153.9101222,-2.178126668,153.9101222,153.9101222,-134.8282917,67.99143593,153.9101222,-118.2128805,153.9101222,153.9101222,153.9101222,,,,
677.4959995,2646,153.8027902,153.8027902,33.9250443,153.8027902,-41.05629052,153.8027902,-8.825327795,153.8027902,153.8027902,55.14779558,-25.39361556,153.8027902,-17.14779786,153.8027902,153.8027902,153.8027902,,,,
677.5039995,2646,153.6920843,153.6920843,-1.11487664,153.6920843,-29.93943349,153.6920843,-108.968924,153.6920843,153.6920843,-118.1038052,65.65811675,153.6920843,-67.90364164,153.6920843,153.6920843,153.6920843,,,,
677.5119995,2646,153.57802,153.57802,64.49768272,153.57802,-33.77937332,153.57802,50.15564327,153.57802,153.57802,-30.72655732,15.04400933,153.57802,-79.20014299,153.57802,153.57802,153.57802,,,,
677.5199995,2646,153.4606124,153.4606124,9.323479456,153.4606124,-53.54517424,153.4606124,-110.2413012,153.4606124,153.4606124,21.29192075,0.950120065,153.4606124,-17.11319601,153.4606124,153.4606124,153.4606124,,,,
677.5279995,2646,153.3398769,153.3398769,63.00074019,153.3398769,-21.21734633,153.3398769,0.088178635,153.3398769,153.3398769,-113.0431845,51.73823047,153.3398769,-98.2819714,153.3398769,153.3398769,153.3398769,,,,
677.5359995,2646,153.2158288,153.2158288,51.71692563,153.2158288,-50.93218842,153.2158288,-2.312674547,153.2158288,153.2158288,94.34410217,-48.7413832,153.2158288,13.86374784,153.2158288,153.2158288,153.2158288,,,,
677.5439995,2646,153.0884836,153.0884836,13.59131421,153.0884836,-42.81810984,153.0884836,-104.7303171,153.0884836,153.0884836,-70.44565136,44.50774154,153.0884836,-34.38974486,153.0884836,153.0884836,153.0884836,,,,
677.5519995,2646,152.9578565,152.9578565,83.73029081,152.9578565,-46.54983603,152.9578565,62.76054502,152.9578565,152.9578565,14.31422252,-25.28670838,152.9578565,-12.87338918,152.9578565,152.9578565,152.9578565,,,,
677.5599995,2646,152.8239631,152.8239631,23.76779224,152.8239631,-48.99483079,152.8239631,-100.828701,152.8239631,152.8239631,44.83893266,-25.70997236,152.8239631,52.63135001,152.8239631,152.8239631,152.8239631,,,,
677.5679995,2646,152.6868188,152.6868188,57.09575396,152.6868188,-0.242183811,152.6868188,-15.68984037,152.6868188,152.6868188,-140.3910389,97.56748562,152.6868188,-105.9651653,152.6868188,152.6868188,152.6868188,,,,
677.5759995,2646,152.546439,152.546439,45.8093175,152.546439,-26.60131916,152.546439,-15.14806393,152.546439,152.546439,62.14885237,1.095582696,152.546439,-20.0397284,152.546439,152.546439,152.546439,,,,
677.5839995,2646,152.4028392,152.4028392,10.75891977,152.4028392,-12.87206866,152.4028392,-112.124271,152.4028392,152.4028392,-89.60840443,79.93512345,152.4028392,-52.58775433,152.4028392,152.4028392,152.4028392,,,,
677.5919995,2646,152.2560351,152.2560351,63.21481136,152.2560351,-30.78121158,152.2560351,42.89123736,152.2560351,152.2560351,-25.72661701,25.59955205,152.2560351,-67.78218038,152.2560351,152.2560351,152.2560351,,,,
677.5999995,2646,152.106042,152.106042,0.558303206,152.106042,-56.89487518,152.106042,-118.7705943,152.106042,152.106042,20.48232745,-20.14693274,152.106042,2.071246814,152.106042,152.106042,152.106042,,,,
677.6079995,2646,151.9528756,151.9528756,45.13417987,151.9528756,-4.002626773,151.9528756,-24.10271458,151.9528756,151.9528756,-132.4528667,67.27725843,151.9528756,-108.263763,151.9528756,151.9528756,151.9528756,,,,
677.6159995,2646,151.7965515,151.7965515,24.96062279,151.7965515,-39.37603589,151.7965515,-33.34598342,151.7965515,151.7965515,63.32678292,-17.44242852,151.7965515,-27.25676268,151.7965515,151.7965515,151.7965515,,,,
677.6239995,2646,151.6370853,151.6370853,-15.15912489,151.6370853,-30.50962387,151.6370853,-140.2800508,151.6370853,151.6370853,-112.4604593,60.06925617,151.6370853,-85.08675704,151.6370853,151.6370853,151.6370853,,,,
677.6319995,2647,151.4744925,151.4744925,56.73457701,151.4744925,-17.35780784,151.4744925,34.90897168,151.4744925,151.4744925,-48.30180034,13.39011028,151.4744925,-90.64014079,151.4744925,151.4744925,151.4744925,,,,
677.6399995,2647,151.308789,151.308789,0.165535765,151.308789,-39.11552804,151.308789,-114.4310279,151.308789,151.308789,22.51806893,-28.81158915,151.308789,4.310160168,151.308789,151.308789,151.308789,,,,
677.6479995,2647,151.1399902,151.1399902,38.31325696,151.1399902,7.944447708,151.1399902,-19.18755337,151.1399902,151.1399902,-131.9176783,50.49421211,151.1399902,-111.2694036,151.1399902,151.1399902,151.1399902,,,,
677.6559995,2647,150.968112,150.968112,22.82343224,150.968112,-6.861809554,150.968112,-15.70748642,150.968112,150.968112,71.27333013,-29.81873862,150.968112,-28.79202682,150.968112,150.968112,150.968112,,,,
677.6639995,2647,150.7931701,150.7931701,-14.11082931,150.7931701,4.932904851,150.7931701,-123.0242094,150.7931701,150.7931701,-77.7728726,49.07004342,150.7931701,-61.92575543,150.7931701,150.7931701,150.7931701,,,,
677.6719995,2647,150.6151801,150.6151801,58.23815216,150.6151801,3.049316441,150.6151801,47.25918402,150.6151801,150.6151801,-7.913772851,5.331250092,150.6151801,-63.91634181,150.6151801,150.6151801,150.6151801,,,,
677.6799995,2647,150.4341579,150.4341579,-6.226936467,150.4341579,-22.71931622,150.4341579,-111.6972076,150.4341579,150.4341579,66.04191302,-35.07837888,150.4341579,32.80402232,150.4341579,150.4341579,150.4341579,,,,
677.6879995,2647,150.2501191,150.2501191,24.88272279,150.2501191,19.40718553,150.2501191,-26.93222943,150.2501191,150.2501191,-103.8824681,42.63890689,150.2501191,-85.77869078,150.2501191,150.2501191,150.2501191,,,,
677.6959995,2647,150.0630796,150.0630796,15.54343531,150.0630796,-12.12726051,150.0630796,-18.35934868,150.0630796,150.0630796,83.50364654,-41.57843284,150.0630796,-10.74257255,150.0630796,150.0630796,150.0630796,,,,
677.7039995,2647,149.8730552,149.8730552,-24.5951935,149.8730552,-6.39683157,149.8730552,-128.8644193,149.8730552,149.8730552,-67.21327719,32.02209861,149.8730552,-40.79516601,149.8730552,149.8730552,149.8730552,,,,
677.7119995,2647,149.6800617,149.6800617,43.73860969,149.6800617,6.495891745,149.6800617,39.72987878,149.6800617,149.6800617,-6.077786046,-2.661004859,149.6800617,-51.64492871,149.6800617,149.6800617,149.6800617,,,,
677.7199995,2647,149.4841149,149.4841149,-14.79146605,149.4841149,-3.403470405,149.4841149,-118.2540816,149.4841149,149.4841149,64.53901762,-27.02849675,149.4841149,30.39213289,149.4841149,149.4841149,149.4841149,,,,
677.7279995,2647,149.2852307,149.2852307,24.45072466,149.2852307,35.47143606,149.2852307,-32.32072659,149.2852307,149.2852307,-106.687396,60.50141837,149.2852307,-86.88985497,149.2852307,149.2852307,149.2852307,,,,
677.7359995,2647,149.083425,149.083425,21.13029835,149.083425,-2.357592583,149.083425,-15.2463641,149.083425,149.083425,83.39527418,-32.53588171,149.083425,-5.15925619,149.083425,149.083425,149.083425,,,,
677.7439995,2647,148.8787136,148.8787136,-20.79910019,148.8787136,3.245752509,148.8787136,-128.4181676,148.8787136,148.8787136,-65.76119395,27.72341763,148.8787136,-33.08490396,148.8787136,148.8787136,148.8787136,,,,
677.7519995,2647,148.6711124,148.6711124,42.74046013,148.6711124,7.074445838,148.6711124,39.032576,148.6711124,148.6711124,-6.816845472,-5.436392664,148.6711124,-39.21128905,148.6711124,148.6711124,148.6711124,,,,
677.7599995,2647,148.4606373,148.4606373,-26.034779,148.4606373,1.9221842,148.4606373,-125.5005083,148.4606373,148.4606373,48.06408157,-17.42207096,148.4606373,23.25690992,148.4606373,148.4606373,148.4606373,,,,
677.7679995,2647,148.2473043,148.2473043,15.10643709,148.2473043,39.24565234,148.2473043,-44.03504355,148.2473043,148.2473043,-139.2983582,70.65222404,148.2473043,-113.1544263,148.2473043,148.2473043,148.2473043,,,,
677.7759995,2647,148.0311293,148.0311293,23.25976378,148.0311293,-1.285009583,148.0311293,-15.40807822,148.0311293,148.0311293,73.31067426,-44.01774665,148.0311293,-1.609842271,148.0311293,148.0311293,148.0311293,,,,
677.7839995,2647,147.8121282,147.8121282,-22.61804816,147.8121282,38.42871012,147.8121282,-132.7705847,147.8121282,147.8121282,-78.48364327,43.55160438,147.8121282,-35.5251484,147.8121282,147.8121282,147.8121282,,,,
677.7919995,2647,147.590317,147.590317,39.83645755,147.590317,40.30934661,147.590317,34.17702339,147.590317,147.590317,-44.39199511,31.5290167,147.590317,-70.46971767,147.590317,147.590317,147.590317,,,,
677.7999995,2647,147.3657117,147.3657117,-28.09600178,147.3657117,9.252175519,147.3657117,-124.7645383,147.3657117,147.3657117,23.05868837,-23.23758656,147.3657117,17.55207746,147.3657117,147.3657117,147.3657117,,,,
677.8079995,2647,147.1383282,147.1383282,11.56797801,147.1383282,58.85428333,147.1383282,-47.17792502,147.1383282,147.1383282,-162.8594658,73.09235869,147.1383282,-119.7651483,147.1383282,147.1383282,147.1383282,,,,
677.8159995,2647,146.9081826,146.9081826,23.39323238,146.9081826,6.407099329,146.9081826,-19.46822842,146.9081826,146.9081826,49.04246332,-25.78689018,146.9081826,-23.49000647,146.9081826,146.9081826,146.9081826,,,,
677.8239995,2647,146.6752908,146.6752908,-21.78688544,146.6752908,18.52420102,146.6752908,-141.8588913,146.6752908,146.6752908,-85.51992345,34.46198964,146.6752908,-34.28156519,146.6752908,146.6752908,146.6752908,,,,
677.8319995,2647,146.4396688,146.4396688,48.7111919,146.4396688,26.18336337,146.4396688,30.5617681,146.4396688,146.4396688,-39.39098479,27.68518802,146.4396688,-65.72004036,146.4396688,146.4396688,146.4396688,,,,
677.8399995,2647,146.2013327,146.2013327,-10.86563312,146.2013327,-12.58430379,146.2013327,-119.8246546,146.2013327,146.2013327,52.68398493,-25.89823648,146.2013327,29.48518693,146.2013327,146.2013327,146.2013327,,,,
677.8479995,2647,145.9602985,145.9602985,26.80699084,145.9602985,25.9746839,145.9602985,-37.92055771,145.9602985,145.9602985,-119.0378845,47.21402662,145.9602985,-78.890677,145.9602985,145.9602985,145.9602985,,,,
677.8559995,2647,145.7165823,145.7165823,35.78383761,145.7165823,-7.450122599,145.7165823,0.965102792,145.7165823,145.7165823,77.01876991,-32.78834622,145.7165823,1.718082914,145.7165823,145.7165823,145.7165823,,,,
677.8639995,2647,145.4702,145.4702,-20.18948852,145.4702,1.620514951,145.4702,-124.7916273,145.4702,145.4702,-71.86712471,46.99410903,145.4702,-35.27500994,145.4702,145.4702,145.4702,,,,
677.8719995,2647,145.2211677,145.2211677,47.93536599,145.2211677,-2.919287943,145.2211677,51.38775756,145.2211677,145.2211677,-41.48157236,16.51416316,145.2211677,-68.1007318,145.2211677,145.2211677,145.2211677,,,,
677.8799995,2647,144.9695016,144.9695016,-3.9505273,144.9695016,-18.03301771,144.9695016,-90.23034302,144.9695016,144.9695016,46.06253927,-42.56025482,144.9695016,35.88004635,144.9695016,144.9695016,144.9695016,,,,
677.8879995,2648,144.7152176,144.7152176,24.16190328,144.7152176,38.30354671,144.7152176,-23.15336777,144.7152176,144.7152176,-128.6686311,63.77348556,144.7152176,-83.4300554,144.7152176,144.7152176,144.7152176,,,,
677.8959995,2648,144.4583318,144.4583318,31.95958187,144.4583318,-2.205621525,144.4583318,11.06636295,144.4583318,144.4583318,60.16637547,-4.63207889,144.4583318,-29.3625751,144.4583318,144.4583318,144.4583318,,,,
677.9039995,2648,144.1988604,144.1988604,-17.74813985,144.1988604,14.63551604,144.1988604,-113.5566833,144.1988604,144.1988604,-71.602503,52.47974642,144.1988604,-46.26600987,144.1988604,144.1988604,144.1988604,,,,
677.9119995,2648,143.9368193,143.9368193,46.73941153,143.9368193,27.81953729,143.9368193,59.42133746,143.9368193,143.9368193,-44.11689908,44.54933231,143.9368193,-81.02751381,143.9368193,143.9368193,143.9368193,,,,
677.9199995,2648,143.6722247,143.6722247,2.143098482,143.6722247,-7.994830062,143.6722247,-79.02353083,143.6722247,143.6722247,35.6563444,6.455958851,143.6722247,2.533137453,143.6722247,143.6722247,143.6722247,,,,
677.9279995,2648,143.4050927,143.4050927,32.61810965,143.4050927,26.00107688,143.4050927,-15.06588701,143.4050927,143.4050927,-123.3712929,60.82964185,143.4050927,-85.60382406,143.4050927,143.4050927,143.4050927,,,,
677.9359995,2648,143.1354394,143.1354394,40.85101135,143.1354394,-1.35634989,143.1354394,22.9479109,143.1354394,143.1354394,72.50125919,-27.22440513,143.1354394,-14.98887791,143.1354394,143.1354394,143.1354394,,,,
677.9439995,2648,142.8632808,142.8632808,0.344207123,142.8632808,11.40943646,142.8632808,-100.4231657,142.8632808,142.8632808,-63.14228038,53.6384753,142.8632808,-40.39340909,142.8632808,142.8632808,142.8632808,,,,
677.9519995,2648,142.5886331,142.5886331,50.98182515,142.5886331,15.00582204,142.5886331,59.49428239,142.5886331,142.5886331,-26.33875578,23.96055058,142.5886331,-64.2171906,142.5886331,142.5886331,142.5886331,,,,
677.9599995,2648,142.3115124,142.3115124,-5.405265304,142.3115124,-5.244649331,142.3115124,-79.08260246,142.3115124,142.3115124,56.37338519,-6.796085891,142.3115124,4.771583424,142.3115124,142.3115124,142.3115124,,,,
677.9679995,2648,142.0319348,142.0319348,44.05498134,142.0319348,37.48275691,142.0319348,1.913635894,142.0319348,142.0319348,-124.1943689,92.69266838,142.0319348,-113.5657614,142.0319348,142.0319348,142.0319348,,,,
677.9759995,2648,141.7499164,141.7499164,53.1121735,141.7499164,-5.67311848,141.7499164,43.69970593,141.7499164,141.7499164,87.50901501,-13.41021249,141.7499164,-13.76731191,141.7499164,141.7499164,141.7499164,,,,
677.9839995,2648,141.4654732,141.4654732,-5.071705962,141.4654732,-10.66673604,141.4654732,-94.2589948,141.4654732,141.4654732,-39.76475445,49.36992785,141.4654732,-26.88342718,141.4654732,141.4654732,141.4654732,,,,
677.9919995,2648,141.1786215,141.1786215,46.72655426,141.1786215,-2.992941368,141.1786215,62.46532049,141.1786215,141.1786215,-35.82830895,39.5776831,141.1786215,-82.69584209,141.1786215,141.1786215,141.1786215,,,,
677.9999995,2648,140.8893774,140.8893774,-7.584333234,140.8893774,-39.61169829,140.8893774,-63.07294538,140.8893774,140.8893774,122.205041,-26.14451886,140.8893774,18.74221928,140.8893774,140.8893774,140.8893774,,,,
678.0079995,2648,140.5977569,140.5977569,12.69945032,140.5977569,-5.751094448,140.5977569,-33.85564313,140.5977569,140.5977569,-54.56281555,60.23822478,140.5977569,-78.43943344,140.5977569,140.5977569,140.5977569,,,,
678.0159995,2648,140.3037761,140.3037761,36.10824693,140.3037761,-10.80965956,140.3037761,9.594352088,140.3037761,140.3037761,-23.5674531,30.30569978,140.3037761,-72.17376097,140.3037761,140.3037761,140.3037761,,,,
678.0239995,2648,140.0074512,140.0074512,36.39323679,140.0074512,-26.53110342,140.0074512,-39.29153432,140.0074512,140.0074512,-26.33368717,13.16640254,140.0074512,-41.23408526,140.0074512,140.0074512,140.0074512,,,,
678.0319995,2648,139.7087983,139.7087983,61.2069247,139.7087983,-6.653021189,139.7087983,29.79719686,139.7087983,139.7087983,36.75850252,-27.72397647,139.7087983,-25.80081244,139.7087983,139.7087983,139.7087983,,,,
678.0399995,2648,139.4078335,139.4078335,12.78754221,139.4078335,8.707237939,139.4078335,-68.10995015,139.4078335,139.4078335,-28.30951431,57.26988719,139.4078335,-57.31240172,139.4078335,139.4078335,139.4078335,,,,
678.0479995,2648,139.1045729,139.1045729,49.96972578,139.1045729,-13.08829731,139.1045729,34.26531529,139.1045729,139.1045729,-39.25485362,51.41814493,139.1045729,-88.31167678,139.1045729,139.1045729,139.1045729,,,,
678.0559995,2648,138.7990326,138.7990326,14.63348777,138.7990326,-33.3473319,138.7990326,-37.48320272,138.7990326,138.7990326,37.60929849,-36.82239258,138.7990326,-10.49609559,138.7990326,138.7990326,138.7990326,,,,
678.0639995,2648,138.4912287,138.4912287,19.46805935,138.4912287,-7.622844738,138.4912287,-38.65904328,138.4912287,138.4912287,-107.8813324,52.82533436,138.4912287,-106.5281186,138.4912287,138.4912287,138.4912287,,,,
678.0719995,2648,138.1811773,138.1811773,56.72086946,138.1811773,-37.02696064,138.1811773,36.02240093,138.1811773,138.1811773,55.3484027,-24.48107379,138.1811773,-47.9160062,138.1811773,138.1811773,138.1811773,,,,
678.0799995,2648,137.8688946,137.8688946,14.80682426,137.8688946,-25.53629643,137.8688946,-80.13132225,137.8688946,137.8688946,-9.50042742,13.98685259,137.8688946,-15.38438994,137.8688946,137.8688946,137.8688946,,,,
678.0879995,2648,137.5543965,137.5543965,51.0717885,137.5543965,-12.18954443,137.5543965,54.34654855,137.5543965,137.5543965,-21.51310813,29.64881004,137.5543965,-56.895231,137.5543965,137.5543965,137.5543965,,,,
678.0959995,2648,137.2376992,137.2376992,5.421820393,137.2376992,-50.35967079,137.2376992,-61.90391832,137.2376992,137.2376992,58.73719532,-23.13195127,137.2376992,9.721388042,137.2376992,137.2376992,137.2376992,,,,
678.1039995,2648,136.9188188,136.9188188,21.25766105,136.9188188,-28.02023287,136.9188188,-38.30058395,136.9188188,136.9188188,-117.4947017,38.88402913,136.9188188,-97.05512933,136.9188188,136.9188188,136.9188188,,,,
678.1119995,2648,136.5977713,136.5977713,23.84705544,136.5977713,-56.80899524,136.5977713,10.87186164,136.5977713,136.5977713,54.98864315,-70.21230816,136.5977713,-42.3270911,136.5977713,136.5977713,136.5977713,,,,
678.1199995,2648,136.2745728,136.2745728,-17.34686578,136.2745728,-56.57694925,136.2745728,-123.5597006,136.2745728,136.2745728,-55.87583415,-3.786256552,136.2745728,-55.67941228,136.2745728,136.2745728,136.2745728,,,,
678.1279995,2648,135.9492395,135.9492395,49.46147187,135.9492395,-37.32259791,135.9492395,41.22190403,135.9492395,135.9492395,-46.68585268,0.383508031,135.9492395,-86.67522538,135.9492395,135.9492395,135.9492395,,,,
678.1359995,2648,135.6217872,135.6217872,-15.48197933,135.6217872,-56.21384529,135.6217872,-92.21437803,135.6217872,135.6217872,73.07814372,-53.49927533,135.6217872,16.8217083,135.6217872,135.6217872,135.6217872,,,,
678.1439995,2649,135.2922322,135.2922322,1.192636055,135.2922322,-26.99616288,135.2922322,-57.30932722,135.2922322,135.2922322,-127.9788458,52.99234948,135.2922322,-108.2464102,135.2922322,135.2922322,135.2922322,,,,
678.1519995,2649,134.9605904,134.9605904,26.61361787,134.9605904,-62.95508256,134.9605904,8.905843511,134.9605904,134.9605904,42.20719358,-43.09453632,134.9605904,-49.31184682,134.9605904,134.9605904,134.9605904,,,,
678.1599995,2649,134.6268779,134.6268779,-19.77276531,134.6268779,-58.3883465,134.6268779,-130.332016,134.6268779,134.6268779,-53.84349862,-1.366334777,134.6268779,-33.04879933,134.6268779,134.6268779,134.6268779,,,,
678.1679995,2649,134.2911108,134.2911108,31.35922621,134.2911108,-31.28516602,134.2911108,26.54184402,134.2911108,134.2911108,-61.22604725,2.979109658,134.2911108,-77.43687718,134.2911108,134.2911108,134.2911108,,,,
678.1759995,2649,133.9533049,133.9533049,-24.00054134,133.9533049,-51.65980691,133.9533049,-104.8491256,133.9533049,133.9533049,23.56458332,-27.40406997,133.9533049,-12.10899562,133.9533049,133.9533049,133.9533049,,,,
678.1839995,2649,133.6134765,133.6134765,19.55349382,133.6134765,-26.99017222,133.6134765,-51.24866994,133.6134765,133.6134765,-154.4928841,68.88357171,133.6134765,-115.6615744,133.6134765,133.6134765,133.6134765,,,,
678.1919995,2649,133.2716414,133.2716414,35.68520003,133.2716414,-60.68989111,133.2716414,10.78390209,133.2716414,133.2716414,59.42199714,-39.67519797,133.2716414,-27.41118196,133.2716414,133.2716414,133.2716414,,,,
678.1999995,2649,132.9278156,132.9278156,-28.9285466,132.9278156,-48.07409029,132.9278156,-141.4930775,132.9278156,132.9278156,-57.62119319,19.11859915,132.9278156,-48.3229073,132.9278156,132.9278156,132.9278156,,,,
678.2079995,2649,132.5820152,132.5820152,43.57039833,132.5820152,-30.64000794,132.5820152,34.4226725,132.5820152,132.5820152,-62.98519402,21.40838877,132.5820152,-91.18277418,132.5820152,132.5820152,132.5820152,,,,
678.2159995,2649,132.2342562,132.2342562,-6.485156132,132.2342562,-71.61245155,132.2342562,-93.12443773,132.2342562,132.2342562,65.43323187,-42.58040294,132.2342562,24.69852568,132.2342562,132.2342562,132.2342562,,,,
678.2239995,2649,131.8845544,131.8845544,20.9676484,131.8845544,-53.81275789,131.8845544,-54.03195742,131.8845544,131.8845544,-117.7721109,19.55390711,131.8845544,-68.96052022,131.8845544,131.8845544,131.8845544,,,,
678.2319995,2649,131.5329259,131.5329259,42.87455542,131.5329259,-83.75154601,131.5329259,18.22841601,131.5329259,131.5329259,89.85899927,-96.98815021,131.5329259,26.54803428,131.5329259,131.5329259,131.5329259,,,,
678.2399995,2649,131.1793865,131.1793865,-31.67696989,131.1793865,-53.50960247,131.1793865,-143.2123858,131.1793865,131.1793865,-28.38076836,-0.734580929,131.1793865,-0.064672812,131.1793865,131.1793865,131.1793865,,,,
678.2479995,2649,130.8239523,130.8239523,26.44746843,130.8239523,-26.49563425,130.8239523,16.07738033,130.8239523,130.8239523,-66.25201961,41.91296221,130.8239523,-91.48082067,130.8239523,130.8239523,130.8239523,,,,
678.2559995,2649,130.4666392,130.4666392,-10.82912986,130.4666392,-66.78859894,130.4666392,-102.5820715,130.4666392,130.4666392,46.96703049,-17.21852732,130.4666392,1.736782546,130.4666392,130.4666392,130.4666392,,,,
678.2639995,2649,130.107463,130.107463,15.77438617,130.107463,-31.83835078,130.107463,-66.81757671,130.107463,130.107463,-137.1310787,60.64800509,130.107463,-100.4398789,130.107463,130.107463,130.107463,,,,
678.2719995,2649,129.7464396,129.7464396,38.79822074,129.7464396,-61.17906942,129.7464396,5.133614063,129.7464396,129.7464396,75.21796508,-52.24944742,129.7464396,-15.37434549,129.7464396,129.7464396,129.7464396,,,,
678.2799995,2649,129.383585,129.383585,-19.65808419,129.383585,-30.03118896,129.383585,-146.2446396,129.383585,129.383585,-35.93803652,15.993104,129.383585,-28.57894159,129.383585,129.383585,129.383585,,,,
678.2879995,2649,129.018915,129.018915,45.56146493,129.018915,8.213660807,129.018915,24.88849549,129.018915,129.018915,-64.53330242,55.27015972,129.018915,-102.0930645,129.018915,129.018915,129.018915,,,,
678.2959995,2649,128.6524455,128.6524455,1.869642051,128.6524455,-46.25256777,128.6524455,-90.68170076,128.6524455,128.6524455,73.31628583,-14.32101114,128.6524455,18.35589281,128.6524455,128.6524455,128.6524455,,,,
678.3039995,2649,128.2841923,128.2841923,13.86489203,128.2841923,3.377239351,128.2841923,-64.61910587,128.2841923,128.2841923,-130.3198392,59.60051957,128.2841923,-89.39257998,128.2841923,128.2841923,128.2841923,,,,
678.3119995,2649,127.9141712,127.9141712,33.1057824,127.9141712,2.163930899,127.9141712,15.9080676,127.9141712,127.9141712,56.64890794,-16.60560087,127.9141712,-34.10885012,127.9141712,127.9141712,127.9141712,,,,
678.3199995,2649,127.542398,127.542398,-28.04289818,127.542398,-3.325725985,127.542398,-135.8639122,127.542398,127.542398,-35.74612061,51.42123029,127.542398,-33.48778233,127.542398,127.542398,127.542398,,,,
678.3279995,2649,127.1688886,127.1688886,32.08684613,127.1688886,9.792595224,127.1688886,27.44988225,127.1688886,127.1688886,-67.46030184,48.34014619,127.1688886,-99.41687336,127.1688886,127.1688886,127.1688886,,,,
678.3359995,2649,126.7936588,126.7936588,-10.30363516,126.7936588,-25.01478717,126.7936588,-81.15785487,126.7936588,126.7936588,80.00566896,-32.88616858,126.7936588,31.39890779,126.7936588,126.7936588,126.7936588,,,,
678.3439995,2649,126.4167242,126.4167242,-0.871053291,126.4167242,6.341036845,126.4167242,-63.89758457,126.4167242,126.4167242,-118.5445751,56.01856026,126.4167242,-65.10712233,126.4167242,126.4167242,126.4167242,,,,
678.3519995,2649,126.0381007,126.0381007,24.97995093,126.0381007,-23.17511097,126.0381007,10.52653165,126.0381007,126.0381007,31.52110987,-28.68636658,126.0381007,-33.86037704,126.0381007,126.0381007,126.0381007,,,,
678.3599995,2649,125.657804,125.657804,-26.05177937,125.657804,-25.64335427,125.657804,-133.5699809,125.657804,125.657804,-53.86749766,15.05321293,125.657804,-12.71295352,125.657804,125.657804,125.657804,,,,
678.3679995,2649,125.2758498,125.2758498,24.6382257,125.2758498,0.885873266,125.2758498,26.41771268,125.2758498,125.2758498,-68.47852329,21.65969395,125.2758498,-64.15330849,125.2758498,125.2758498,125.2758498,,,,
678.3759995,2649,124.8922538,124.8922538,-18.6544339,124.8922538,-13.27997297,124.8922538,-87.66145943,124.8922538,124.8922538,64.75156827,-16.92322388,124.8922538,26.80045282,124.8922538,124.8922538,124.8922538,,,,
678.3839995,2649,124.5070317,124.5070317,0.59666957,124.5070317,19.09234614,124.5070317,-66.49275612,124.5070317,124.5070317,-123.0950591,82.09832629,124.5070317,-63.17760255,124.5070317,124.5070317,124.5070317,,,,
678.3919995,2649,124.1201991,124.1201991,18.73370669,124.1201991,-22.460024,124.1201991,8.040624548,124.1201991,124.1201991,47.73996149,-31.03221171,124.1201991,-12.91765809,124.1201991,124.1201991,124.1201991,,,,
678.3999995,2650,123.7317717,123.7317717,-36.55892957,123.7317717,-11.46822151,123.7317717,-144.2633499,123.7317717,123.7317717,-53.41685415,21.51306664,123.7317717,-17.56137972,123.7317717,123.7317717,123.7317717,,,,
678.4079995,2650,123.3417652,123.3417652,22.9508922,123.3417652,21.90092761,123.3417652,17.59371428,123.3417652,123.3417652,-99.42001011,58.15386304,123.3417652,-87.93229163,123.3417652,123.3417652,123.3417652,,,,
678.4159995,2650,122.9501951,122.9501951,-14.05518816,122.9501951,-21.90092227,122.9501951,-86.45217706,122.9501951,122.9501951,34.45762373,-10.35074439,122.9501951,19.72637624,122.9501951,122.9501951,122.9501951,,,,
678.4239995,2650,122.5570771,122.5570771,9.710589452,122.5570771,2.111090389,122.5570771,-53.63544118,122.5570771,122.5570771,-130.5764157,51.76330605,122.5570771,-36.33548498,122.5570771,122.5570771,122.5570771,,,,
678.4319995,2650,122.1624266,122.1624266,20.72262161,122.1624266,-16.14368906,122.1624266,23.53092372,122.1624266,122.1624266,58.39848326,-45.89234049,122.1624266,30.40277838,122.1624266,122.1624266,122.1624266,,,,
678.4399995,2650,121.7662593,121.7662593,-48.4768756,121.7662593,-6.353195425,121.7662593,-141.113703,121.7662593,121.7662593,-34.84254731,9.965431933,121.7662593,22.80097967,121.7662593,121.7662593,121.7662593,,,,
678.4479995,2650,121.3685907,121.3685907,11.2223165,121.3685907,30.59350101,121.3685907,24.99991507,121.3685907,121.3685907,-76.86744458,42.03146002,121.3685907,-53.35677037,121.3685907,121.3685907,121.3685907,,,,
678.4559995,2650,120.9694363,120.9694363,-35.45651219,120.9694363,8.787979533,120.9694363,-82.84405101,120.9694363,120.9694363,59.29212674,1.788990875,120.9694363,35.86551225,120.9694363,120.9694363,120.9694363,,,,
678.4639995,2650,120.5688116,120.5688116,-12.11600027,120.5688116,39.76888586,120.5688116,-59.93954248,120.5688116,120.5688116,-129.9953055,93.59840173,120.5688116,-53.95311554,120.5688116,120.5688116,120.5688116,,,,
678.4719995,2650,120.166732,120.166732,29.92368365,120.166732,12.57387049,120.166732,38.99305974,120.166732,120.166732,42.46716824,-0.233663787,120.166732,13.01529511,120.166732,120.166732,120.166732,,,,
678.4799995,2650,119.7632131,119.7632131,-33.10962781,119.7632131,-5.743217751,119.7632131,-124.493747,119.7632131,119.7632131,-39.71151631,23.31136954,119.7632131,37.99113924,119.7632131,119.7632131,119.7632131,,,,
678.4879995,2650,119.3582702,119.3582702,14.40441989,119.3582702,10.74343268,119.3582702,30.00084486,119.3582702,119.3582702,-74.68002258,13.74639949,119.3582702,-22.06551693,119.3582702,119.3582702,119.3582702,,,,
678.4959995,2650,118.9519187,118.9519187,-40.22209,118.9519187,-2.845221772,118.9519187,-81.18229255,118.9519187,118.9519187,63.26776572,-29.54383393,118.9519187,72.55423027,118.9519187,118.9519187,118.9519187,,,,
678.5039995,2650,118.5441741,118.5441741,-21.98109089,118.5441741,31.05569304,118.5441741,-68.5235889,118.5441741,118.5441741,-145.0644934,81.41752933,118.5441741,-36.55973559,118.5441741,118.5441741,118.5441741,,,,
678.5119995,2650,118.1350516,118.1350516,21.92589723,118.1350516,8.981728272,118.1350516,37.98160383,118.1350516,118.1350516,19.30713143,-13.31127738,118.1350516,15.05603198,118.1350516,118.1350516,118.1350516,,,,
678.5199995,2650,117.7245667,117.7245667,-48.21066102,117.7245667,27.96655778,117.7245667,-123.9401787,117.7245667,117.7245667,-69.44662949,42.15773697,117.7245667,26.54957094,117.7245667,117.7245667,117.7245667,,,,
678.5279995,2650,117.3127346,117.3127346,14.55982025,117.3127346,54.02360504,117.3127346,34.92683009,117.3127346,117.3127346,-125.3249152,91.63171324,117.3127346,-79.67600081,117.3127346,117.3127346,117.3127346,,,,
678.5359995,2650,116.8995707,116.8995707,-9.703711325,116.8995707,12.9446366,116.8995707,-55.78253623,116.8995707,116.8995707,46.05571592,28.85026883,116.8995707,30.77419271,116.8995707,116.8995707,116.8995707,,,,
678.5439995,2650,116.4850901,116.4850901,-4.479287122,116.4850901,46.79704043,116.4850901,-53.75703875,116.4850901,116.4850901,-130.8223029,103.3084179,116.4850901,-41.39987546,116.4850901,116.4850901,116.4850901,,,,
678.5519995,2650,116.0693082,116.0693082,29.7971198,116.0693082,22.50288976,116.0693082,40.40311004,116.0693082,116.0693082,27.74705869,27.17392531,116.0693082,-20.67093298,116.0693082,116.0693082,116.0693082,,,,
678.5599995,2650,115.6522401,115.6522401,-17.10674209,115.6522401,17.80902779,115.6522401,-109.8690884,115.6522401,115.6522401,-41.11277085,78.35701011,115.6522401,-1.861855111,115.6522401,115.6522401,115.6522401,,,,
678.5679995,2650,115.2339011,115.2339011,35.3351437,115.2339011,36.85603016,115.2339011,48.27487713,115.2339011,115.2339011,-93.76186348,82.8200738,115.2339011,-70.13835202,115.2339011,115.2339011,115.2339011,,,,
678.5759995,2650,114.8143063,114.8143063,-12.04202983,114.8143063,-6.272754978,114.8143063,-52.27336916,114.8143063,114.8143063,41.75964086,-1.177387839,114.8143063,27.37535797,114.8143063,114.8143063,114.8143063,,,,
678.5839995,2650,114.3934708,114.3934708,-0.31283188,114.3934708,15.41501275,114.3934708,-47.26243491,114.3934708,114.3934708,-149.2462868,78.53788911,114.3934708,-47.47172487,114.3934708,114.3934708,114.3934708,,,,
678.5919995,2650,113.9714099,113.9714099,35.28402756,113.9714099,-8.044472147,113.9714099,52.56003956,113.9714099,113.9714099,24.74083772,-12.256305,113.9714099,-2.853516442,113.9714099,113.9714099,113.9714099,,,,
678.5999995,2650,113.5481385,113.5481385,-18.22320298,113.5481385,-7.617488775,113.5481385,-104.0692197,113.5481385,113.5481385,-33.09495455,28.19217235,113.5481385,27.98005001,113.5481385,113.5481385,113.5481385,,,,
678.6079995,2650,113.1236717,113.1236717,36.49332436,113.1236717,14.81001244,113.1236717,51.82969198,113.1236717,113.1236717,-90.01286899,53.98351108,113.1236717,-47.77107804,113.1236717,113.1236717,113.1236717,,,,
678.6159995,2650,112.6980246,112.6980246,-6.531531392,112.6980246,-17.12576806,112.6980246,-48.39959321,112.6980246,112.6980246,52.52691448,-3.881501222,112.6980246,41.38712317,112.6980246,112.6980246,112.6980246,,,,
678.6239995,2650,112.2712122,112.2712122,2.245535184,112.2712122,6.814767242,112.2712122,-52.256904,112.2712122,112.2712122,-133.8070254,82.5855344,112.2712122,-28.77992692,112.2712122,112.2712122,112.2712122,,,,
678.6319995,2650,111.8432495,111.8432495,30.90442765,111.8432495,-15.11526373,111.8432495,47.34020131,111.8432495,111.8432495,19.09328754,-10.43276812,111.8432495,-0.724343987,111.8432495,111.8432495,111.8432495,,,,
678.6399995,2650,111.4141514,111.4141514,-28.8034049,111.4141514,-12.18629363,111.4141514,-110.7442433,111.4141514,111.4141514,-52.26110817,33.04028927,111.4141514,11.57003452,111.4141514,111.4141514,111.4141514,,,,
678.6479995,2650,110.9839329,110.9839329,50.44756626,110.9839329,18.34222489,110.9839329,100.3451625,110.9839329,110.9839329,-204.9787635,86.29849431,110.9839329,-110.733311,110.9839329,110.9839329,110.9839329,,,,
678.6559995,2651,110.5526088,110.5526088,35.95887452,110.5526088,-30.00596017,110.5526088,58.50833611,110.5526088,110.5526088,4.470553288,-20.06876975,110.5526088,7.845508512,110.5526088,110.5526088,110.5526088,,,,
678.6639995,2651,110.1201941,110.1201941,-12.80798883,110.1201941,-46.29150579,110.1201941,-96.72315249,110.1201941,110.1201941,-11.68758764,-0.25422655,110.1201941,67.00344206,110.1201941,110.1201941,110.1201941,,,,
678.6719995,2651,109.6867036,109.6867036,28.66275829,109.6867036,-40.31934396,109.6867036,30.40000306,109.6867036,109.6867036,-66.18592775,9.306785604,109.6867036,7.287044621,109.6867036,109.6867036,109.6867036,,,,
678.6799995,2651,109.2521521,109.2521521,8.282086352,109.2521521,-38.54571648,109.2521521,-5.506174198,109.2521521,109.2521521,-14.07059189,-6.064824533,109.2521521,42.9683772,109.2521521,109.2521521,109.2521521,,,,
678.6879995,2651,108.8165544,108.8165544,-25.66438524,108.8165544,-27.47324908,108.8165544,-67.15098758,108.8165544,108.8165544,-9.895214726,11.5217435,108.8165544,55.44318316,108.8165544,108.8165544,108.8165544,,,,
678.6959995,2651,108.3799252,108.3799252,-3.195067706,108.3799252,-15.64586344,108.3799252,-17.84537985,108.3799252,108.3799252,-109.1902417,68.66501969,108.3799252,-30.43516248,108.3799252,108.3799252,108.3799252,,,,
678.7039995,2651,107.9422793,107.9422793,14.91707219,107.9422793,-35.12070858,107.9422793,-4.753240788,107.9422793,107.9422793,-19.28634081,20.95975425,107.9422793,10.09336516,107.9422793,107.9422793,107.9422793,,,,
678.7119995,2651,107.5036314,107.5036314,-9.380309816,107.5036314,-39.21068987,107.5036314,-64.38890395,107.5036314,107.5036314,-52.75176964,13.13835092,107.5036314,37.77427636,107.5036314,107.5036314,107.5036314,,,,
678.7199995,2651,107.0639962,107.0639962,21.09248857,107.0639962,-27.33647509,107.0639962,21.18322493,107.0639962,107.0639962,-85.53172482,19.72528902,107.0639962,-4.961266903,107.0639962,107.0639962,107.0639962,,,,
678.7279995,2651,106.6233883,106.6233883,3.191244833,106.6233883,-35.77495506,106.6233883,-38.53569631,106.6233883,106.6233883,39.66149227,-9.671858183,106.6233883,71.60764274,106.6233883,106.6233883,106.6233883,,,,
678.7359995,2651,106.1818222,106.1818222,11.52695719,106.1818222,3.717303543,106.1818222,-34.29683041,106.1818222,106.1818222,-112.3921652,79.76126514,106.1818222,8.612593828,106.1818222,106.1818222,106.1818222,,,,
678.7439995,2651,105.7393127,105.7393127,44.99941912,105.7393127,-12.96607412,105.7393127,50.06164497,105.7393127,105.7393127,14.27421442,18.35643404,105.7393127,24.84534634,105.7393127,105.7393127,105.7393127,,,,
678.7519995,2651,105.2958742,105.2958742,-5.049726983,105.2958742,-27.07782837,105.2958742,-83.49841609,105.2958742,105.2958742,-26.02549176,46.02059976,105.2958742,45.36565178,105.2958742,105.2958742,105.2958742,,,,
678.7599995,2651,104.8515213,104.8515213,33.70667932,104.8515213,-9.557014268,104.8515213,40.39064404,104.8515213,104.8515213,-111.2233325,57.11542578,104.8515213,-38.17174949,104.8515213,104.8515213,104.8515213,,,,
678.7679995,2651,104.4062684,104.4062684,8.109359427,104.4062684,-46.2468449,104.4062684,-22.21110365,104.4062684,104.4062684,39.18186658,-18.91963089,104.4062684,55.07570773,104.4062684,104.4062684,104.4062684,,,,
678.7759995,2651,103.9601299,103.9601299,3.129754901,103.9601299,-17.69471894,103.9601299,-42.4073428,103.9601299,103.9601299,-131.484316,68.24343909,103.9601299,2.573203339,103.9601299,103.9601299,103.9601299,,,,
678.7839995,2651,103.5131204,103.5131204,41.17758282,103.5131204,-23.54704478,103.5131204,68.57892447,103.5131204,103.5131204,11.10715214,-11.62695175,103.5131204,19.9721254,103.5131204,103.5131204,103.5131204,,,,
678.7919995,2651,103.0652543,103.0652543,-6.352422747,103.0652543,-47.91072318,103.0652543,-77.05871694,103.0652543,103.0652543,-10.31038467,0.889848812,103.0652543,76.98563935,103.0652543,103.0652543,103.0652543,,,,
678.7999995,2651,102.6165457,102.6165457,29.61666179,102.6165457,-30.89444528,102.6165457,53.80079483,102.6165457,102.6165457,-89.78237204,8.743958681,102.6165457,3.963816411,102.6165457,102.6165457,102.6165457,,,,
678.8079995,2651,102.1670092,102.1670092,-12.47935291,102.1670092,-44.36729775,102.1670092,-29.31498642,102.1670092,102.1670092,54.89033351,-35.31890212,102.1670092,70.78128481,102.1670092,102.1670092,102.1670092,,,,
678.8159995,2651,101.7166589,101.7166589,-3.198171765,101.7166589,-27.1435911,101.7166589,-47.63029152,101.7166589,101.7166589,-120.6362529,66.79930095,101.7166589,20.68402049,101.7166589,101.7166589,101.7166589,,,,
678.8239995,2651,101.2655092,101.2655092,43.12044286,101.2655092,-48.810787,101.2655092,70.66541291,101.2655092,101.2655092,30.58397056,-49.64170977,101.2655092,61.56269899,101.2655092,101.2655092,101.2655092,,,,
678.8319995,2651,100.8135742,100.8135742,-18.39696587,100.8135742,-42.89187978,100.8135742,-104.5348395,100.8135742,100.8135742,-25.30797085,0.377605562,100.8135742,83.72044428,100.8135742,100.8135742,100.8135742,,,,
678.8399995,2651,100.3608682,100.3608682,34.02955417,100.3608682,-23.6438792,100.3608682,35.31014313,100.3608682,100.3608682,-115.5084275,67.72468229,100.3608682,-24.80636866,100.3608682,100.3608682,100.3608682,,,,
678.8479995,2651,99.90740534,99.90740534,10.49756776,99.90740534,-69.36509432,99.90740534,-27.75017555,99.90740534,99.90740534,72.69013359,-14.56651369,99.90740534,79.99635186,99.90740534,99.90740534,99.90740534,,,,
678.8559995,2651,99.45319968,99.45319968,5.21653947,99.45319968,-52.74012,99.45319968,-53.18947837,99.45319968,99.45319968,-95.87420742,60.2883808,99.45319968,46.34772464,99.45319968,99.45319968,99.45319968,,,,
678.8639995,2651,98.99826534,98.99826535,33.47334568,98.99826534,-65.67856669,98.99826535,61.06884242,98.99826535,98.99826534,43.93351127,-25.09301315,98.99826534,50.5898218,98.99826534,98.99826534,98.99826534,,,,
678.8719995,2651,98.54261639,98.54261639,-20.97699422,98.54261639,-52.66280299,98.54261639,-101.2908927,98.54261639,98.54261638,-1.844717278,34.22966136,98.54261638,70.19922161,98.54261638,98.54261638,98.54261638,,,,
678.8799995,2651,98.08626683,98.08626682,38.8275084,98.08626683,-34.31014266,98.08626683,51.03229057,98.08626682,98.08626683,-81.60178959,69.39356339,98.08626683,-0.502149369,98.08626683,98.08626683,98.08626683,,,,
678.8879995,2651,97.62923064,97.62923065,5.684291829,97.62923064,-93.09477811,97.62923064,-21.43259909,97.62923065,97.62923065,91.20193478,-46.34211348,97.62923065,110.995119,97.62923065,97.62923065,97.62923065,,,,
678.8959995,2651,97.1715218,97.1715218,-1.368237338,97.1715218,-52.39713275,97.1715218,-55.6527516,97.1715218,97.1715218,-115.1803626,48.20574151,97.1715218,45.76478684,97.1715218,97.1715218,97.1715218,,,,
678.9039995,2651,96.71315419,96.71315419,38.04912335,96.71315419,-48.24996273,96.71315419,70.09866951,96.71315419,96.71315419,30.95705953,-14.12904982,96.71315419,52.54210982,96.71315419,96.71315419,96.71315419,,,,
678.9119995,2652,96.25414171,96.25414171,-24.00671318,96.25414171,-55.95857354,96.25414171,-102.2117515,96.25414171,96.25414171,1.667522137,29.78068816,96.25414171,84.51296458,96.25414171,96.25414171,96.25414171,,,,
678.9199995,2652,95.79449819,95.79449819,23.38335082,95.79449819,-28.32182015,95.79449819,34.34599809,95.79449819,95.79449819,-114.2019009,77.97372069,95.79449819,-33.15756961,95.79449819,95.79449819,95.79449819,,,,
678.9279995,2652,95.33423745,95.33423745,2.459895418,95.33423745,-68.52994341,95.33423745,-24.09020735,95.33423745,95.33423745,58.48797413,-15.49500686,95.33423745,59.7715321,95.33423745,95.33423745,95.33423745,,,,
678.9359995,2652,94.87337324,94.87337324,3.696038314,94.87337324,-48.41775916,94.87337324,-53.69255368,94.87337324,94.87337324,-114.2399609,75.67735728,94.87337324,23.80279031,94.87337324,94.87337324,94.87337324,,,,
678.9439995,2652,94.41191931,94.41191931,33.01197536,94.41191931,-62.08039059,94.41191931,62.96759739,94.41191931,94.41191931,32.34027348,0.163277468,94.41191931,23.35758251,94.41191931,94.41191931,94.41191931,,,,
678.9519995,2652,93.94988935,93.94988935,-32.58245486,93.94988935,-63.01635947,93.94988935,-106.0692185,93.94988935,93.94988935,6.520763228,20.1805376,93.94988935,56.33620142,93.94988935,93.94988935,93.94988935,,,,
678.9599995,2652,93.48729702,93.48729701,27.72222127,93.48729702,-33.49656129,93.48729702,48.66424104,93.48729701,93.48729701,-94.28704167,64.0960133,93.48729701,-33.67584248,93.48729701,93.48729701,93.48729701,,,,
678.9679995,2652,93.02415593,93.02415593,3.734344603,93.02415593,-85.93122502,93.02415593,-9.581338971,93.02415593,93.02415593,94.13953905,-30.74725801,93.02415593,79.18364439,93.02415593,93.02415593,93.02415593,,,,
678.9759995,2652,92.56047969,92.56047969,-8.504843752,92.56047969,-73.61002502,92.56047969,-55.69718898,92.56047969,92.56047969,-76.70967255,31.22137245,92.56047969,55.43928691,92.56047969,92.56047969,92.56047969,,,,
678.9839995,2652,92.09628182,92.09628182,33.50343787,92.09628182,-68.12254191,92.09628182,71.04692174,92.09628182,92.09628182,64.39414311,-49.37555011,92.09628182,62.08454158,92.09628182,92.09628182,92.09628182,,,,
678.9919995,2652,91.63157585,91.63157585,-25.53516008,91.63157585,-58.44658357,91.63157585,-102.6381141,91.63157585,91.63157585,40.75476688,-1.361948474,91.63157585,103.9373219,91.63157585,91.63157585,91.63157585,,,,
678.9999995,2652,91.16637524,91.16637524,18.14157985,91.16637524,-32.05290709,91.16637524,26.60080261,91.16637524,91.16637524,-74.5019237,37.65758716,91.16637524,0.912469702,91.16637524,91.16637524,91.16637524,,,,
679.0079995,2652,90.70069343,90.70069343,-11.27258569,90.70069343,-46.42566625,90.70069343,-27.27123124,90.70069343,90.70069343,105.2566268,-50.23199267,90.70069343,90.55147351,90.70069343,90.70069343,90.70069343,,,,
679.0159995,2652,90.23454381,90.23454381,-23.39289201,90.23454381,-0.324566631,90.23454381,-67.33288163,90.23454381,90.23454381,-78.05116888,72.34626511,90.23454381,48.43919336,90.23454381,90.23454381,90.23454381,,,,
679.0239995,2652,89.76793973,89.76793973,13.77465413,89.76793973,-11.53916486,89.76793973,56.04453249,89.76793973,89.76793974,33.88974373,-2.845190881,89.76793974,30.96118698,89.76793974,89.76793974,89.76793974,,,,
679.0319995,2652,89.30089452,89.30089452,-33.79929771,89.30089452,-9.480395431,89.30089452,-106.0537259,89.30089452,89.30089453,5.286606575,11.68947417,89.30089453,72.71902015,89.30089453,89.30089453,89.30089453,,,,
679.0399995,2652,88.83342146,88.83342146,25.75915029,88.83342146,22.26536112,88.83342146,35.26385471,88.83342146,88.83342146,-97.93743233,63.5428879,88.83342146,-21.88001149,88.83342146,88.83342146,88.83342146,,,,
679.0479995,2652,88.36553377,88.36553377,-5.907050365,88.36553377,-21.96662017,88.36553377,-26.970028,88.36553377,88.36553377,94.40616152,-40.92533964,88.36553377,75.1665589,88.36553377,88.36553377,88.36553377,,,,
679.0559995,2652,87.89724467,87.89724467,-11.4239049,87.89724467,-0.454215468,87.89724467,-63.76052277,87.89724467,87.89724467,-70.54752182,23.33607145,87.89724467,71.56968155,87.89724467,87.89724467,87.89724467,,,,
679.0639995,2652,87.42856731,87.42856731,35.45613641,87.42856731,-6.281488093,87.42856731,76.9373031,87.42856731,87.42856731,68.43118413,-48.37126142,87.42856731,81.77139663,87.42856731,87.42856731,87.42856731,,,,
679.0719995,2652,86.95951481,86.95951481,-31.1610624,86.95951481,-11.94322881,86.95951481,-101.115176,86.95951481,86.95951481,54.33915219,-18.1485695,86.95951481,125.9445977,86.95951481,86.95951481,86.95951481,,,,
679.0799995,2652,86.49010026,86.49010026,20.60806046,86.49010026,14.50214179,86.49010026,41.05177736,86.49010026,86.49010026,-53.2755094,3.246836409,86.49010026,49.09127681,86.49010026,86.49010026,86.49010026,,,,
679.0879995,2652,86.02033669,86.02033669,-10.60295867,86.02033669,-16.28935634,86.02033669,-8.93532634,86.02033669,86.02033669,130.1728841,-76.701715,86.02033669,147.788727,86.02033669,86.02033669,86.02033669,,,,
679.0959995,2652,85.5502371,85.5502371,-39.46607685,85.5502371,13.29699992,85.5502371,-78.57870778,85.5502371,85.5502371,-70.60304123,43.38270209,85.5502371,96.2400004,85.5502371,85.5502371,85.5502371,,,,
679.1039995,2652,85.07981446,85.07981446,13.48796514,85.07981446,12.45488314,85.07981446,60.0129062,85.07981446,85.07981446,48.90710861,-27.81706517,85.07981446,76.6104226,85.07981446,85.07981446,85.07981446,,,,
679.1119995,2652,84.60908168,84.60908168,-43.32736618,84.60908169,6.488150959,84.60908168,-109.1554135,84.60908168,84.60908168,52.45261008,3.202953307,84.60908168,137.3923619,84.60908168,84.60908168,84.60908168,,,,
679.1199995,2652,84.13805165,84.13805165,-13.30902249,84.13805165,39.71410766,84.13805165,9.478755334,84.13805165,84.13805165,-81.58827291,53.7406412,84.13805165,22.0583558,84.13805165,84.13805165,84.13805165,,,,
679.1279995,2652,83.66673719,83.66673719,-28.12368121,83.66673719,25.59927108,83.66673719,-26.10584061,83.66673719,83.66673719,90.73221605,-16.86002548,83.66673719,83.28482849,83.66673719,83.66673719,83.66673719,,,,
679.1359995,2652,83.19515111,83.19515111,-32.80825502,83.19515111,38.64783183,83.19515111,-73.16171525,83.19515111,83.19515111,-73.46603007,84.07348875,83.19515111,74.01379854,83.19515111,83.19515111,83.19515111,,,,
679.1439995,2652,82.72330616,82.72330616,12.06642632,82.72330616,3.746075982,82.72330616,63.26969838,82.72330616,82.72330616,45.70546006,-29.00467072,82.72330616,73.84657114,82.72330616,82.72330616,82.72330616,,,,
679.1519995,2652,82.25121505,82.25121505,-40.21574515,82.25121505,3.588926223,82.25121505,-101.7395754,82.25121505,82.25121505,39.63100865,-31.01852109,82.25121505,140.4100631,82.25121505,82.25121505,82.25121505,,,,
679.1599995,2652,81.77889046,81.77889046,-2.063069259,81.77889046,61.01767831,81.77889046,22.88046514,81.77889046,81.77889046,-78.30799231,43.46352257,81.77889046,39.4312844,81.77889046,81.77889046,81.77889046,,,,
679.1679995,2653,81.30634502,81.30634502,-27.2875007,81.30634502,40.33763405,81.30634502,-18.69070379,81.30634502,81.30634502,109.526441,-14.95818593,81.30634502,95.52941461,81.30634502,81.30634502,81.30634502,,,,
679.1759995,2653,80.83359131,80.83359131,-40.6078587,80.83359131,55.76698179,80.83359131,-75.58819793,80.83359131,80.83359131,-69.11303196,83.95263886,80.83359131,70.16194018,80.83359131,80.83359131,80.83359131,,,,
679.1839995,2653,80.36064188,80.36064188,6.665025738,80.36064188,34.76476039,80.36064188,64.34236123,80.36064188,80.36064188,39.72607044,-0.7344547,80.36064188,50.19554795,80.36064188,80.36064188,80.36064188,,,,
679.1919995,2653,79.88750924,79.88750924,-51.20059881,79.88750924,15.61111028,79.88750924,-101.7505749,79.88750924,79.88750924,46.7627592,-12.96681302,79.88750924,120.3163886,79.88750924,79.88750924,79.88750924,,,,
679.1999995,2653,79.41420584,79.41420584,-8.486584333,79.41420584,55.67787407,79.41420584,26.36060033,79.41420584,79.41420584,-81.00940147,41.56683885,79.41420584,20.08710022,79.41420584,79.41420584,79.41420584,,,,
679.2079995,2653,78.94074411,78.94074411,-16.66864347,78.94074411,26.10384702,78.94074411,-5.003554532,78.94074411,78.94074411,114.2341292,-25.11711394,78.94074411,90.32413668,78.94074411,78.94074411,78.94074411,,,,
679.2159995,2653,78.46713642,78.46713641,-28.80637494,78.46713642,43.03072662,78.46713642,-66.72411775,78.46713641,78.46713642,-34.96269525,52.13617329,78.46713642,108.2663785,78.46713642,78.46713642,78.46713642,,,,
679.2239995,2653,77.9933951,77.9933951,24.41625965,77.9933951,62.41905836,77.9933951,73.49645802,77.9933951,77.9933951,61.51085256,5.527642515,77.9933951,71.076917,77.9933951,77.9933951,77.9933951,,,,
679.2319995,2653,77.51953244,77.51953244,-29.10864452,77.51953244,66.93961516,77.51953244,-102.6237362,77.51953244,77.51953244,42.6491518,66.57153651,77.51953244,86.59000859,77.51953244,77.51953244,77.51953244,,,,
679.2399995,2653,77.0455607,77.04556069,18.51170647,77.0455607,70.22500902,77.0455607,25.29334257,77.04556069,77.04556069,-83.95675647,99.91202223,77.04556069,-10.97563418,77.04556069,77.04556069,77.04556069,,,,
679.2479995,2653,76.57149206,76.57149206,14.45136835,76.57149206,19.58161706,76.57149206,4.035050493,76.57149206,76.57149206,112.5490496,-24.1164823,76.57149206,78.77752079,76.57149206,76.57149206,76.57149206,,,,
679.2559995,2653,76.09733871,76.09733871,-20.82367549,76.09733871,48.80839134,76.09733871,-79.45847259,76.09733871,76.09733871,-66.85571217,84.47410331,76.09733871,58.61233267,76.09733871,76.09733871,76.09733871,,,,
679.2639995,2653,75.62311274,75.62311274,33.47445967,75.62311274,36.2257008,75.62311274,67.81730962,75.62311274,75.62311274,33.88778339,32.10424322,75.62311274,6.571655474,75.62311274,75.62311274,75.62311274,,,,
679.2719995,2653,75.14882624,75.14882623,2.2024832,75.14882624,-0.744524079,75.14882624,-83.57780161,75.14882623,75.14882624,72.35974041,3.001965059,75.14882624,96.01488,75.14882624,75.14882624,75.14882624,,,,
679.2799995,2653,74.67449122,74.67449122,27.81162505,74.67449122,23.45808942,74.67449122,28.00478293,74.67449122,74.67449122,-44.85388609,24.27553746,74.67449122,30.49495032,74.67449122,74.67449122,74.67449122,,,,
679.2879995,2653,74.20011969,74.20011969,-0.13097021,74.20011968,11.14209163,74.20011969,-10.47382067,74.20011969,74.20011968,126.136516,-32.91237989,74.20011968,67.51576378,74.20011968,74.20011968,74.20011968,,,,
679.2959995,2653,73.72572356,73.72572357,-18.46700388,73.72572357,34.18179699,73.72572357,-86.13003646,73.72572357,73.72572357,-56.39070991,91.39494802,73.72572357,36.90101172,73.72572357,73.72572357,73.72572357,,,,
679.3039995,2653,73.25131476,73.25131476,35.5044645,73.25131476,15.78619463,73.25131476,67.88871683,73.25131476,73.25131476,44.18649706,-0.836069864,73.25131476,20.77791533,73.25131476,73.25131476,73.25131476,,,,
679.3119995,2653,72.77690511,72.77690511,-13.69632544,72.77690511,13.42835556,72.77690511,-96.35746336,72.77690511,72.77690511,62.51256813,-2.740432067,72.77690511,92.4986909,72.77690511,72.77690511,72.77690511,,,,
679.3199995,2653,72.30250644,72.30250644,22.76546581,72.30250644,54.11259961,72.30250644,15.99049571,72.30250644,72.30250644,-70.16530155,68.51937744,72.30250644,-10.49110925,72.30250644,72.30250644,72.30250644,,,,
679.3279995,2653,71.8281305,71.8281305,12.91726884,71.8281305,21.22615158,71.8281305,-0.425979571,71.8281305,71.8281305,130.2030577,-25.86947049,71.8281305,53.61085737,71.8281305,71.8281305,71.8281305,,,,
679.3359995,2653,71.35378902,71.35378902,-10.00532697,71.35378902,43.16740492,71.35378902,-75.7382409,71.35378902,71.35378902,-33.60644076,73.58338736,71.35378902,50.29906817,71.35378902,71.35378902,71.35378902,,,,
679.3439995,2653,70.87949365,70.87949365,26.12805948,70.87949365,36.75725273,70.87949365,69.20694431,70.87949365,70.87949365,55.82734518,8.827669097,70.87949365,6.535475051,70.87949365,70.87949365,70.87949365,,,,
679.3519995,2653,70.40525604,70.40525604,-29.53776107,70.40525604,26.84580017,70.40525604,-95.18905908,70.40525604,70.40525604,72.74610349,16.13740128,70.40525604,58.12494743,70.40525604,70.40525604,70.40525604,,,,
679.3599995,2653,69.93108776,69.93108776,15.24551661,69.93108776,62.52002126,69.93108776,18.19368412,69.93108776,69.93108776,-79.96189531,91.68409009,69.93108776,-59.1778869,69.93108776,69.93108776,69.93108776,,,,
679.3679995,2653,69.45700035,69.45700035,16.21016145,69.45700035,2.496382246,69.45700035,5.305129926,69.45700035,69.45700035,119.9455898,-22.83938143,69.45700035,11.92364777,69.45700035,69.45700035,69.45700035,,,,
679.3759995,2653,68.9830053,68.9830053,-6.640780395,68.9830053,-3.075260227,68.9830053,-74.41601833,68.9830053,68.9830053,-16.32075127,28.86665615,68.9830053,59.12076657,68.9830053,68.9830053,68.9830053,,,,
679.3839995,2653,68.50911406,68.50911406,28.31391703,68.50911406,3.102482377,68.50911406,67.99425664,68.50911406,68.50911406,70.42126291,-34.62033313,68.50911406,26.36398058,68.50911406,68.50911406,68.50911406,,,,
679.3919995,2653,68.03533802,68.03533802,-22.9819509,68.03533802,-17.95130459,68.03533802,-94.08687368,68.03533802,68.03533802,91.2326036,-16.18968598,68.03533802,79.32879791,68.03533802,68.03533802,68.03533802,,,,
679.3999995,2653,67.56168855,67.56168855,12.36884135,67.56168855,-3.46830222,67.56168855,17.07579018,67.56168855,67.56168855,-43.31981916,25.04448263,67.56168855,1.389510894,67.56168855,67.56168855,67.56168855,,,,
679.4079995,2653,67.08817694,67.08817694,-1.255804517,67.08817694,-41.54079876,67.08817694,2.28318833,67.08817694,67.08817694,142.6567568,-86.91988968,67.08817694,69.34385181,67.08817694,67.08817694,67.08817694,,,,
679.4159995,2653,66.61481446,66.61481446,-30.6327428,66.61481446,-16.09557482,66.61481447,-80.79384879,66.61481446,66.61481447,-26.94050286,18.18138261,66.61481447,73.10253919,66.61481447,66.61481447,66.61481447,,,,
679.4239995,2654,66.14161234,66.14161234,2.825495287,66.14161234,-0.189269824,66.14161234,64.54755818,66.14161234,66.14161234,57.86823449,-20.55561554,66.14161234,20.41104568,66.14161234,66.14161234,66.14161234,,,,
679.4319995,2654,65.66858173,65.66858173,-39.17025157,65.66858173,-20.57272051,65.66858173,-89.54785841,65.66858173,65.66858173,94.00425951,-5.123001458,65.66858173,77.96803875,65.66858173,65.66858173,65.66858173,,,,
679.4399995,2654,65.19573376,65.19573376,7.877518886,65.19573376,-4.140032155,65.19573376,27.70073202,65.19573376,65.19573376,-35.73536359,28.59459839,65.19573376,14.87697461,65.19573376,65.19573376,65.19573376,,,,
679.4479995,2654,64.7230795,64.7230795,-15.43619158,64.7230795,-37.74452665,64.7230795,2.504170383,64.7230795,64.7230795,164.7723115,-88.86807107,64.7230795,88.31422505,64.7230795,64.7230795,64.7230795,,,,
679.4559995,2654,64.25063,64.25063,-51.22473096,64.25063,-18.7690199,64.25063,-95.83822691,64.25063,64.25063,-20.56794232,31.48883002,64.25063,67.02129924,64.25063,64.25063,64.25063,,,,
679.4639995,2654,63.77839622,63.77839622,5.739192702,63.77839622,-22.58811169,63.77839622,64.67398919,63.77839622,63.77839623,44.19907851,-10.23429887,63.77839623,9.418414481,63.77839623,63.77839623,63.77839623,,,,
679.4719995,2654,63.30638912,63.30638912,-37.10344754,63.30638912,-55.38927096,63.30638912,-92.26433675,63.30638912,63.30638912,108.4689777,-29.84441829,63.30638912,108.8438471,63.30638912,63.30638912,63.30638912,,,,
679.4799995,2654,62.83461957,62.83461957,-13.96483594,62.83461957,-26.54132336,62.83461957,6.456713944,62.83461957,62.83461957,-33.82033327,13.43318408,62.83461957,33.80226451,62.83461957,62.83461957,62.83461957,,,,
679.4879995,2654,62.36309842,62.36309842,-24.24594055,62.36309842,-31.48001174,62.36309842,1.108625194,62.36309842,62.36309842,141.4144732,-64.19514866,62.36309842,65.78295438,62.36309842,62.36309842,62.36309842,,,,
679.4959995,2654,61.89183647,61.89183647,-41.13551105,61.89183647,-19.33433749,61.89183647,-85.83100586,61.89183647,61.89183647,-14.46001784,45.6133965,61.89183647,73.85090826,61.89183647,61.89183647,61.89183647,,,,
679.5039995,2654,61.42084447,61.42084447,6.146520943,61.42084447,-38.06198154,61.42084447,66.01182312,61.42084447,61.42084447,65.66011856,-37.98603379,61.42084447,43.75915985,61.42084447,61.42084447,61.42084447,,,,
679.5119995,2654,60.95013311,60.9501331,-39.97704959,60.95013311,-35.60997822,60.95013311,-91.63514509,60.9501331,60.95013311,104.6754756,-34.4803551,60.95013311,112.2539461,60.95013311,60.95013311,60.95013311,,,,
679.5199995,2654,60.47971305,60.47971305,-7.741919668,60.47971305,19.67590725,60.47971305,7.800902706,60.47971305,60.47971305,-68.97303362,68.74415115,60.47971305,-3.27796158,60.47971305,60.47971305,60.47971305,,,,
679.5279995,2654,60.00959489,60.00959489,-18.61423287,60.00959489,-5.264775359,60.00959489,0.277273939,60.00959489,60.00959489,101.5914965,-13.70917551,60.00959489,9.336186023,60.00959489,60.00959489,60.00959489,,,,
679.5359995,2654,59.53978921,59.53978921,-33.05318865,59.53978921,-6.439830437,59.53978921,-85.9419417,59.53978921,59.53978921,-46.66154532,78.82248225,59.53978921,19.94819485,59.53978921,59.53978921,59.53978921,,,,
679.5439995,2654,59.0703065,59.0703065,17.3474561,59.0703065,-21.39836675,59.0703065,73.15276203,59.0703065,59.0703065,43.68387381,-8.898984765,59.0703065,0.36062406,59.0703065,59.0703065,59.0703065,,,,
679.5519995,2654,58.60115723,58.60115723,-37.12376017,58.60115723,-32.80127829,58.60115723,-93.92572317,58.60115723,58.60115723,96.20820856,-19.34405536,58.60115723,68.75334968,58.60115723,58.60115723,58.60115723,,,,
679.5599995,2654,58.13235182,58.13235182,-3.898231535,58.13235182,-7.498150577,58.13235182,-1.698654489,58.13235182,58.13235182,-73.7115251,68.49609034,58.13235182,-36.66412395,58.13235182,58.13235182,58.13235182,,,,
679.5679995,2654,57.66390063,57.66390063,-17.49451917,57.66390063,-45.76207468,57.66390063,-10.85780379,57.66390063,57.66390063,105.7605614,-48.74393533,57.66390063,3.382389724,57.66390063,57.66390063,57.66390063,,,,
679.5759995,2654,57.19581399,57.19581399,-49.50103258,57.19581399,-23.04766456,57.19581399,-118.5470129,57.19581399,57.19581399,-50.39866945,47.28854142,57.19581399,9.675027663,57.19581399,57.19581399,57.19581399,,,,
679.5839995,2654,56.72810216,56.72810216,7.435526167,56.72810216,-28.02889326,56.72810216,46.44485223,56.72810216,56.72810216,21.85921444,5.527790704,56.72810216,-37.97339737,56.72810216,56.72810216,56.72810216,,,,
679.5919995,2654,56.26077538,56.26077538,-35.04705988,56.26077538,-59.63913197,56.26077538,-101.6361777,56.26077538,56.26077538,89.52608911,-14.57836386,56.26077538,43.77516183,56.26077538,56.26077538,56.26077538,,,,
679.5999995,2654,55.7938438,55.7938438,-5.370700574,55.7938438,-36.33409105,55.7938438,-4.94024698,55.7938438,55.7938438,-65.73173566,44.35083636,55.7938438,-34.83257643,55.7938438,55.7938438,55.7938438,,,,
679.6079995,2654,55.32731758,55.32731758,-8.402217082,55.32731758,-83.8329227,55.32731758,2.270761699,55.32731758,55.32731758,119.2016437,-72.40469147,55.32731758,15.58680455,55.32731758,55.32731758,55.32731758,,,,
679.6159995,2654,54.86120677,54.86120677,-45.79890872,54.86120677,-72.62049354,54.86120677,-106.9913666,54.86120677,54.86120677,-30.6121288,10.18669462,54.86120677,41.02987569,54.86120677,54.86120677,54.86120677,,,,
679.6239995,2654,54.39552141,54.39552141,-3.902380033,54.39552141,-63.4621075,54.39552141,48.05501029,54.39552141,54.39552141,31.49540449,-30.78003605,54.39552141,-14.48455947,54.39552141,54.39552141,54.39552141,,,,
679.6319995,2654,53.93027149,53.93027149,-36.00454835,53.9302715,-90.37759158,53.93027149,-99.70526239,53.93027149,53.93027149,102.5312916,-42.42120653,53.93027149,66.96914004,53.93027149,53.93027149,53.93027149,,,,
679.6399995,2654,53.46546694,53.46546694,-19.60106918,53.46546694,-44.85403085,53.46546694,-21.4469524,53.46546694,53.46546694,-62.75044352,17.16736991,53.46546694,-11.69699989,53.46546694,53.46546694,53.46546694,,,,
679.6479995,2654,53.00111764,53.00111764,-29.69717892,53.00111764,-55.1111455,53.00111764,-15.53137679,53.00111764,53.00111764,91.43973605,-51.10969271,53.00111764,-18.17351217,53.00111764,53.00111764,53.00111764,,,,
679.6559995,2654,52.53723343,52.53723343,-35.62861019,52.53723343,-58.33048753,52.53723343,-100.295744,52.53723343,52.53723343,-39.96641361,50.87420374,52.53723343,12.89064185,52.53723343,52.53723343,52.53723343,,,,
679.6639995,2654,52.07382409,52.07382409,-3.792886665,52.07382409,-65.05131298,52.07382409,50.49659886,52.07382409,52.07382409,44.76706014,-37.04549807,52.07382409,-0.331911717,52.07382409,52.07382409,52.07382409,,,,
679.6719995,2654,51.61089937,51.61089937,-61.68339493,51.61089937,-76.09963487,51.61089937,-115.9362855,51.61089937,51.61089937,90.2038492,-32.43580949,51.61089937,37.08877286,51.61089937,51.61089937,51.61089937,,,,
679.6799995,2655,51.14846896,51.14846896,-16.22862287,51.14846896,-50.58257359,51.14846896,-21.70119306,51.14846896,51.14846896,-79.58671085,59.83396071,51.14846896,-57.42923832,51.14846896,51.14846896,51.14846896,,,,
679.6879995,2655,50.68654248,50.68654248,-18.20389371,50.68654248,-80.80663046,50.68654248,-8.917183235,50.68654248,50.68654248,108.370735,-61.1963669,50.68654248,-8.760469368,50.68654248,50.68654248,50.68654248,,,,
679.6959995,2655,50.22512954,50.22512955,-55.92291873,50.22512955,-53.71634039,50.22512954,-120.8647369,50.22512955,50.22512955,-46.85179562,35.24019918,50.22512955,3.055505006,50.22512955,50.22512955,50.22512955,,,,
679.7039995,2655,49.76423969,49.76423969,2.362831373,49.76423969,-50.11772951,49.76423969,52.14558364,49.76423969,49.76423969,12.12484576,-8.862665181,49.76423969,-46.91048459,49.76423969,49.76423969,49.76423969,,,,
679.7119995,2655,49.3038824,49.3038824,-22.19420454,49.3038824,-76.99749707,49.3038824,-79.5148929,49.3038824,49.3038824,105.4334059,-40.79876134,49.3038824,51.93969712,49.3038824,49.3038824,49.3038824,,,,
679.7199995,2655,48.84406713,48.84406713,-7.329444608,48.84406713,-35.3466168,48.84406713,-3.250963562,48.84406713,48.84406713,-63.3580623,30.34669006,48.84406713,-16.13521918,48.84406713,48.84406713,48.84406713,,,,
679.7279995,2655,48.38480327,48.38480327,-24.36150455,48.38480327,-55.12941398,48.38480327,-0.074141869,48.38480327,48.38480327,92.76757292,-57.78747135,48.38480327,-8.389157184,48.38480327,48.38480327,48.38480327,,,,
679.7359995,2655,47.92610017,47.92610017,-45.39284705,47.92610017,-50.12641679,47.92610017,-106.716499,47.92610017,47.92610017,-56.85464856,37.77615748,47.92610017,4.323278815,47.92610017,47.92610017,47.92610017,,,,
679.7439995,2655,47.46796713,47.46796713,-1.917266907,47.46796713,-45.5854435,47.46796713,51.2986776,47.46796713,47.46796713,-5.705511168,-9.939702251,47.46796713,-40.40050447,47.46796713,47.46796713,47.46796713,,,,
679.7519995,2655,47.01041338,47.01041338,-47.27490389,47.01041338,-58.26850485,47.01041338,-102.0127503,47.01041338,47.01041338,66.98793398,-22.94688015,47.01041338,25.91965309,47.01041338,47.01041338,47.01041338,,,,
679.7599995,2655,46.55344813,46.55344813,-11.26153505,46.55344813,-30.88631101,46.55344813,-15.00123317,46.55344813,46.55344813,-99.73772564,43.24841979,46.55344813,-51.86068508,46.55344813,46.55344813,46.55344813,,,,
679.7679995,2655,46.09708053,46.09708053,-10.53143268,46.09708053,-59.17435733,46.09708053,11.04438626,46.09708053,46.09708053,89.80185925,-72.07758284,46.09708053,-16.47265584,46.09708053,46.09708053,46.09708053,,,,
679.7759995,2655,45.64131968,45.64131968,-39.59653833,45.64131968,-43.51561787,45.64131968,-98.26421174,45.64131968,45.64131968,-42.40374694,28.40167496,45.64131968,8.521641202,45.64131968,45.64131968,45.64131968,,,,
679.7839995,2655,45.18617462,45.18617462,6.921162906,45.18617462,-48.77269073,45.18617462,65.76185287,45.18617462,45.18617462,-0.781283239,-12.71032163,45.18617462,-38.87168187,45.18617462,45.18617462,45.18617462,,,,
679.7919995,2655,44.73165435,44.73165435,-40.29714185,44.73165435,-73.81740528,44.73165435,-90.63937547,44.73165435,44.73165435,72.34169032,-55.6793974,44.73165435,34.30989563,44.73165435,44.73165435,44.73165435,,,,
679.7999995,2655,44.27776783,44.27776783,-5.653152133,44.27776783,-29.27184374,44.27776783,-15.50962861,44.27776783,44.27776783,-99.85339083,17.91688587,44.27776783,-43.65648112,44.27776783,44.27776783,44.27776783,,,,
679.8079995,2655,43.82452395,43.82452395,6.299880234,43.82452395,-50.60255727,43.82452395,17.37941802,43.82452395,43.82452395,95.94989863,-69.43274357,43.82452395,-3.206755423,43.82452395,43.82452395,43.82452395,,,,
679.8159995,2655,43.37193156,43.37193157,-33.84924073,43.37193156,-41.03899225,43.37193157,-109.0949708,43.37193157,43.37193156,-33.29678027,23.79240534,43.37193156,27.27656499,43.37193156,43.37193156,43.37193156,,,,
679.8239995,2655,42.91999948,42.91999948,9.939837763,42.91999948,-26.29508105,42.91999948,48.37190585,42.91999948,42.91999948,-11.74559251,-17.38440895,42.91999948,-30.69520478,42.91999948,42.91999948,42.91999948,,,,
679.8319995,2655,42.46873643,42.46873644,-24.17251989,42.46873644,-41.68271455,42.46873643,-92.22045197,42.46873644,42.46873643,67.22588151,-38.04050818,42.46873643,48.99938865,42.46873643,42.46873643,42.46873643,,,,
679.8399995,2655,42.01815114,42.01815114,-1.32777835,42.01815114,-15.98964961,42.01815114,-21.75298018,42.01815114,42.01815114,-96.07172198,33.49081153,42.01815114,-18.45794311,42.01815114,42.01815114,42.01815114,,,,
679.8479995,2655,41.56825225,41.56825225,-8.508280395,41.56825225,-23.256377,41.56825225,3.617228022,41.56825225,41.56825225,92.1331618,-83.02502794,41.56825225,11.14689505,41.56825225,41.56825225,41.56825225,,,,
679.8559995,2655,41.11904835,41.11904835,-51.1197717,41.11904835,16.34361777,41.11904835,-124.5132056,41.11904835,41.11904835,-45.11695985,24.74769075,41.11904835,20.57245429,41.11904835,41.11904835,41.11904835,,,,
679.8639995,2655,40.67054801,40.67054801,-5.318294579,40.67054801,24.73753699,40.67054801,39.11098622,40.67054801,40.67054801,-28.81625892,5.865454556,40.67054801,-54.59571605,40.67054801,40.67054801,40.67054801,,,,
679.8719995,2655,40.22275972,40.22275972,-40.72545098,40.22275972,2.65939207,40.22275972,-97.70673905,40.22275972,40.22275972,58.02837277,-36.32068576,40.22275972,29.11007098,40.22275972,40.22275972,40.22275972,,,,
679.8799995,2655,39.77569194,39.77569193,-0.097511782,39.77569194,32.01247789,39.77569193,-19.85826738,39.77569193,39.77569193,-95.72149856,27.86493942,39.77569193,-25.46838227,39.77569193,39.77569193,39.77569193,,,,
679.8879995,2655,39.32935306,39.32935306,16.40103544,39.32935306,20.34664023,39.32935306,21.0715851,39.32935306,39.32935306,104.2696452,-74.88286816,39.32935306,8.616752379,39.32935306,39.32935306,39.32935306,,,,
679.8959995,2655,38.88375144,38.88375144,-32.54632317,38.88375144,70.39599595,38.88375144,-112.7185032,38.88375144,38.88375144,-39.40028504,61.57061484,38.88375144,2.88634678,38.88375144,38.88375144,38.88375144,,,,
679.9039995,2655,38.43889538,38.43889538,16.51593414,38.43889538,81.60145216,38.43889538,54.39632603,38.43889538,38.43889538,-41.13468219,71.34134526,38.43889538,-95.50203883,38.43889538,38.43889538,38.43889538,,,,
679.9119995,2655,37.99479314,37.99479313,0.688414398,37.99479314,33.70040105,37.99479313,-70.56470615,37.99479313,37.99479314,73.45991181,5.459807663,37.99479314,13.17631403,37.99479314,37.99479314,37.99479314,,,,
679.9199995,2655,37.5514529,37.5514529,14.13549965,37.5514529,57.21626353,37.5514529,-13.16862802,37.5514529,37.5514529,-72.85374858,42.25036753,37.5514529,-25.83048995,37.5514529,37.5514529,37.5514529,,,,
679.9279995,2655,37.10888283,37.10888283,0.869846723,37.10888284,39.04133676,37.10888284,16.5049215,37.10888283,37.10888284,96.97405058,-58.48919478,37.10888284,-26.42225305,37.10888284,37.10888284,37.10888284,,,,
679.9359995,2656,36.66709103,36.66709103,-38.03071079,36.66709103,49.28681205,36.66709103,-110.2920439,36.66709103,36.66709103,-29.67985608,36.38307965,36.66709103,-5.805968186,36.66709103,36.66709103,36.66709103,,,,
679.9439995,2656,36.22608555,36.22608555,16.9371732,36.22608555,49.63187734,36.22608555,102.2810547,36.22608555,36.22608555,29.71509716,-26.04328699,36.22608555,-80.31192763,36.22608555,36.22608555,36.22608555,,,,
679.9519995,2656,35.78587438,35.78587438,-24.29274479,35.78587438,13.74236136,35.78587438,-32.99369859,35.78587438,35.78587438,247.6292649,-120.7353082,35.78587438,10.8387061,35.78587438,35.78587438,35.78587438,,,,
679.9599995,2656,35.34646549,35.34646549,-35.02976147,35.34646549,39.86715867,35.34646549,-83.18185535,35.34646549,35.34646549,65.24291052,-13.44100376,35.34646549,-6.873683621,35.34646549,35.34646549,35.34646549,,,,
679.9679995,2656,34.90786676,34.90786676,-4.64745548,34.90786676,28.76855152,34.90786676,35.54132559,34.90786676,34.90786676,152.9068629,-81.52774079,34.90786676,-34.75172767,34.90786676,34.90786676,34.90786676,,,,
679.9759995,2656,34.47008606,34.47008605,-42.44360088,34.47008605,41.54967439,34.47008605,-101.5963439,34.47008605,34.47008605,42.46145577,0.229308224,34.47008605,-6.807756592,34.47008605,34.47008605,34.47008605,,,,
679.9839995,2656,34.03313117,34.03313117,-24.26523582,34.03313117,74.84798538,34.03313117,-11.21622861,34.03313117,34.03313117,-123.9211173,75.4471842,34.03313117,-83.88113532,34.03313117,34.03313117,34.03313117,,,,
679.9919995,2656,33.59700986,33.59700986,-27.60202866,33.59700986,46.99147902,33.59700986,9.039419445,33.59700986,33.59700986,79.4798181,-29.04297047,33.59700986,-57.27315461,33.59700986,33.59700986,33.59700986,,,,
679.9999995,2656,33.16172982,33.16172982,-45.69686992,33.16172982,54.73801537,33.16172982,-95.61536803,33.16172982,33.16172982,-4.474651335,40.88068742,33.16172982,-35.14529156,33.16172982,33.16172982,33.16172982,,,,
680.0079995,2656,32.7272987,32.7272987,-0.915016004,32.7272987,55.23772888,32.7272987,26.26209707,32.7272987,32.7272987,-52.46377367,31.0812362,32.7272987,-88.27473357,32.7272987,32.7272987,32.7272987,,,,
680.0159995,2656,32.29372411,32.29372411,-19.00492052,32.29372411,17.72660845,32.29372411,-18.27974627,32.29372411,32.29372411,82.94449569,-58.53443357,32.29372411,-27.78473799,32.29372411,32.29372411,32.29372411,,,,
680.0239995,2656,31.86101358,31.86101358,-42.52301214,31.86101358,49.91511549,31.86101358,-71.64176469,31.86101358,31.86101358,-60.44090199,27.86177227,31.86101358,-39.20837067,31.86101358,31.86101358,31.86101358,,,,
680.0319995,2656,31.42917463,31.42917463,-13.07803975,31.42917463,65.55384167,31.42917463,42.43446585,31.42917463,31.42917463,-4.394897747,11.62823531,31.42917463,-91.84740941,31.42917463,31.42917463,31.42917463,,,,
680.0399995,2656,30.99821469,30.9982147,-25.9667895,30.99821469,39.73045742,30.9982147,-60.0424767,30.9982147,30.9982147,48.19125843,18.02565457,30.9982147,-29.22478927,30.9982147,30.9982147,30.9982147,,,,
680.0479995,2656,30.56814118,30.56814118,7.627828153,30.56814118,43.78031797,30.56814118,14.60916424,30.56814118,30.56814118,-59.98038343,40.7620322,30.56814118,-58.34614904,30.56814118,30.56814118,30.56814118,,,,
680.0559995,2656,30.13896143,30.13896143,-3.024344423,30.13896143,12.69685241,30.13896143,32.76868634,30.13896143,30.13896143,102.2740547,-68.93104224,30.13896143,-20.34195284,30.13896143,30.13896143,30.13896143,,,,
680.0639995,2656,29.71068275,29.71068275,-49.50709907,29.71068275,22.70436188,29.71068275,-77.62828657,29.71068275,29.71068275,-15.77209155,18.45579903,29.71068275,-14.11015234,29.71068275,29.71068275,29.71068275,,,,
680.0719995,2656,29.28331239,29.28331239,-19.52933256,29.28331239,35.72734097,29.28331239,62.87152762,29.28331239,29.28331239,-12.71517727,-0.111141535,29.28331239,-78.2392962,29.28331239,29.28331239,29.28331239,,,,
680.0799995,2656,28.85685753,28.85685753,-56.77907614,28.85685753,23.00841014,28.85685753,-62.29573676,28.85685753,28.85685753,66.78076639,-25.54731919,28.85685753,-9.860788571,28.85685753,28.85685753,28.85685753,,,,
680.0879995,2656,28.43132534,28.43132534,-34.20729083,28.43132534,49.66589594,28.43132534,-15.48095938,28.43132534,28.43132534,-98.57829975,52.57832669,28.43132534,-85.36130612,28.43132534,28.43132534,28.43132534,,,,
680.0959995,2656,28.00672291,28.00672291,-25.60467486,28.00672291,17.15795791,28.00672291,30.81360985,28.00672291,28.00672291,74.65405298,-53.92715503,28.00672291,-66.80235087,28.00672291,28.00672291,28.00672291,,,,
680.1039995,2656,27.58305728,27.58305728,-63.7746096,27.58305728,26.06157247,27.58305728,-92.13790967,27.58305728,27.58305728,-18.09615745,20.5358892,27.58305728,-29.39276256,27.58305728,27.58305728,27.58305728,,,,
680.1119995,2656,27.16033546,27.16033546,-11.25927809,27.16033546,32.78465282,27.16033546,76.89916499,27.16033546,27.16033546,-12.24396616,-2.675841577,27.16033546,-82.23998479,27.16033546,27.16033546,27.16033546,,,,
680.1199995,2656,26.7385644,26.7385644,-42.97781881,26.7385644,11.45709514,26.7385644,-44.45774843,26.7385644,26.7385644,102.7514488,-44.66649963,26.7385644,9.255743245,26.7385644,26.7385644,26.7385644,,,,
680.1279995,2656,26.31775098,26.31775098,-21.94354271,26.31775098,64.05599074,26.31775098,5.1052507,26.31775098,26.31775098,-84.52872794,72.00766417,26.31775098,-73.58849368,26.31775098,26.31775098,26.31775098,,,,
680.1359995,2656,25.89790206,25.89790206,-5.035517976,25.89790206,33.98624061,25.89790206,70.83609766,25.89790206,25.89790206,71.60512133,-18.8169654,25.89790206,-70.27393725,25.89790206,25.89790206,25.89790206,,,,
680.1439995,2656,25.47902443,25.47902443,-51.8465313,25.47902443,21.34691032,25.47902443,-73.41372622,25.47902443,25.47902443,-21.87635423,25.95325717,25.47902443,-21.60687461,25.47902443,25.47902443,25.47902443,,,,
680.1519995,2656,25.06112485,25.06112485,-13.73759861,25.06112485,34.83628428,25.06112485,84.78544208,25.06112485,25.06112485,-28.30036742,-1.380925869,25.06112485,-87.28813168,25.06112485,25.06112485,25.06112485,,,,
680.1599995,2656,24.64421,24.64421,-54.35193633,24.64421,13.42284758,24.64421,-40.98478373,24.64421,24.64421,90.76514653,-38.44110979,24.64421,-17.93976162,24.64421,24.64421,24.64421,,,,
680.1679995,2656,24.22828655,24.22828655,-35.91728467,24.22828655,50.09243473,24.22828655,-3.283287487,24.22828655,24.22828655,-85.07061987,59.2573485,24.22828655,-90.66841276,24.22828655,24.22828655,24.22828655,,,,
680.1759995,2656,23.81336107,23.81336107,-12.64659507,23.81336107,23.92690835,23.81336107,65.19109506,23.81336107,23.81336107,88.15126934,-41.95384817,23.81336107,-79.66628485,23.81336107,23.81336107,23.81336107,,,,
680.1839995,2656,23.39944013,23.39944013,-49.05309174,23.39944013,23.88243176,23.39944013,-71.91923125,23.39944013,23.39944013,-5.417720794,27.778925,23.39944013,-48.625421,23.39944013,23.39944013,23.39944013,,,,
680.1919995,2657,22.98653021,22.98653022,-1.804174852,22.98653021,39.15287528,22.98653022,95.93603762,22.98653022,22.98653021,-26.50905625,21.85323621,22.98653021,-115.7990881,22.98653021,22.98653021,22.98653021,,,,
680.1999995,2657,22.57463778,22.57463778,-42.4322135,22.57463778,11.8603426,22.57463778,-34.32689572,22.57463778,22.57463778,90.07126193,-13.40040081,22.57463778,-35.95288912,22.57463778,22.57463778,22.57463778,,,,
680.2079995,2657,22.16376921,22.16376921,-30.18418151,22.16376921,36.58908717,22.16376921,-9.20133874,22.16376921,22.16376921,-97.4869294,69.10311321,22.16376921,-112.0717867,22.16376921,22.16376921,22.16376921,,,,
680.2159995,2657,21.75393087,21.75393087,-6.526891474,21.75393087,7.043116748,21.75393087,62.01779451,21.75393087,21.75393087,75.28753374,-51.39785001,21.75393087,-92.42520572,21.75393087,21.75393087,21.75393087,,,,
680.2239995,2657,21.34512904,21.34512904,-47.74103729,21.34512904,13.56280456,21.34512904,-87.76904827,21.34512904,21.34512904,-8.226868282,34.888192,21.34512904,-58.64320126,21.34512904,21.34512904,21.34512904,,,,
680.2319995,2657,20.93736999,20.93736999,-2.929630824,20.93736999,19.96815111,20.93736999,74.94800968,20.93736999,20.93736999,-29.09330612,25.81903684,20.93736999,-133.1397086,20.93736999,20.93736999,20.93736999,,,,
680.2399995,2657,20.53065989,20.53065989,-33.43458777,20.53065989,-15.25858489,20.53065989,-38.1863708,20.53065989,20.53065989,107.9757001,-50.17459409,20.53065989,-27.53102689,20.53065989,20.53065989,20.53065989,,,,
680.2479995,2657,20.12500492,20.12500492,-23.52006305,20.12500492,20.20804808,20.12500492,-13.56200782,20.12500492,20.12500492,-79.55618207,50.06842125,20.12500492,-106.7216015,20.12500492,20.12500492,20.12500492,,,,
680.2559995,2657,19.72041115,19.72041115,0.171658514,19.72041115,-11.35250795,19.72041115,62.81406064,19.72041115,19.72041115,84.10778581,-47.48694948,19.72041115,-109.9023136,19.72041115,19.72041115,19.72041115,,,,
680.2639995,2657,19.31688465,19.31688465,-39.31888067,19.31688465,-18.73303011,19.31688465,-84.42731524,19.31688465,19.31688465,24.41210447,2.376915754,19.31688465,-38.7603829,19.31688465,19.31688465,19.31688465,,,,
680.2719995,2657,18.91443141,18.91443141,-8.791385124,18.91443141,-10.63992683,18.91443141,66.4500845,18.91443141,18.91443141,-6.490777225,-14.48304919,18.91443141,-109.5518816,18.91443141,18.91443141,18.91443141,,,,
680.2799995,2657,18.51305738,18.51305738,-43.08675004,18.51305738,-43.6834442,18.51305738,-47.33295115,18.51305738,18.51305738,110.3460438,-75.51626165,18.51305738,-32.82734791,18.51305738,18.51305738,18.51305738,,,,
680.2879995,2657,18.11276846,18.11276846,-24.78952415,18.11276846,-13.21211885,18.11276846,-16.37960228,18.11276846,18.11276846,-69.16109673,13.24863674,18.11276846,-84.75059926,18.11276846,18.11276846,18.11276846,,,,
680.2959995,2657,17.7135705,17.7135705,-9.211173914,17.7135705,-42.9314693,17.7135705,62.38854519,17.7135705,17.7135705,82.71775049,-94.02905233,17.7135705,-79.3040302,17.7135705,17.7135705,17.7135705,,,,
680.3039995,2657,17.31546931,17.31546931,-60.50588602,17.31546931,-41.1663392,17.31546931,-87.99717821,17.31546931,17.31546931,-2.314716198,-29.33369298,17.31546931,-40.19747217,17.31546931,17.31546931,17.31546931,,,,
680.3119995,2657,16.91847063,16.91847063,-14.61241056,16.91847063,-14.37916592,16.91847063,74.45279096,16.91847063,16.91847063,-34.79984845,-9.979289826,16.91847063,-129.1869975,16.91847063,16.91847063,16.91847063,,,,
680.3199995,2657,16.52258018,16.52258018,-37.04170167,16.52258018,-41.82800523,16.52258018,-34.49238382,16.52258018,16.52258018,104.2368401,-55.21420107,16.52258018,-42.42027274,16.52258018,16.52258018,16.52258018,,,,
680.3279995,2657,16.12780359,16.12780359,-20.04895279,16.12780359,-27.7769339,16.12780359,-10.22793931,16.12780359,16.12780359,-62.78909384,16.01399551,16.12780359,-72.3382529,16.12780359,16.12780359,16.12780359,,,,
680.3359995,2657,15.73414648,15.73414648,5.566040426,15.73414648,-60.7890564,15.73414648,74.49826567,15.73414648,15.73414648,107.3256803,-104.9421986,15.73414648,-55.31018571,15.73414648,15.73414648,15.73414648,,,,
680.3439995,2657,15.3416144,15.3416144,-48.40608842,15.3416144,-55.97117165,15.3416144,-85.57838439,15.3416144,15.3416144,45.67851801,-42.25225927,15.3416144,2.867811515,15.3416144,15.3416144,15.3416144,,,,
680.3519995,2657,14.95021286,14.95021286,-11.15490726,14.95021286,-35.05223845,14.95021286,75.79195031,14.95021286,14.95021286,1.632807093,-33.9814697,14.95021286,-73.80469232,14.95021286,14.95021286,14.95021286,,,,
680.3599995,2657,14.5599473,14.55994731,-32.67716308,14.5599473,-44.58775438,14.55994731,-21.99967082,14.55994731,14.5599473,134.9410071,-84.24985905,14.5599473,10.19429259,14.5599473,14.5599473,14.5599473,,,,
680.3679995,2657,14.17082315,14.17082315,-26.3544782,14.17082315,9.870628865,14.17082315,-7.644455386,14.17082315,14.17082315,-40.64313461,26.83222624,14.17082315,-35.26162197,14.17082315,14.17082315,14.17082315,,,,
680.3759995,2657,13.78284575,13.78284575,-0.777659259,13.78284575,-10.61771133,13.78284575,79.34524153,13.78284575,13.78284575,85.29655232,-45.91609035,13.78284575,-63.35302935,13.78284575,13.78284575,13.78284575,,,,
680.3839995,2657,13.39602042,13.39602042,-46.26279843,13.39602042,-14.00086348,13.39602042,-80.76676701,13.39602042,13.39602042,-2.890489441,19.82892744,13.39602042,-27.65884307,13.39602042,13.39602042,13.39602042,,,,
680.3919995,2657,13.01035242,13.01035242,-12.26750363,13.01035242,-6.741819587,13.01035242,69.69928992,13.01035242,13.01035242,-45.98368318,12.27639551,13.01035242,-101.0700087,13.01035242,13.01035242,13.01035242,,,,
680.3999995,2657,12.62584695,12.62584695,-25.59347644,12.62584695,-53.98330469,12.62584695,-26.91535472,12.62584695,12.62584695,88.79655446,-56.47251408,12.62584695,-22.89171518,12.62584695,12.62584695,12.62584695,,,,
680.4079995,2657,12.24250918,12.24250918,-21.86228704,12.24250918,-18.09958934,12.24250918,-19.94631777,12.24250918,12.24250918,-72.07260957,17.93571529,12.24250918,-47.7749608,12.24250918,12.24250918,12.24250918,,,,
680.4159995,2657,11.86034422,11.86034422,-11.63258293,11.86034422,-23.73670083,11.86034422,63.67374104,11.86034422,11.86034422,86.17941045,-65.56261962,11.86034422,-61.15619723,11.86034422,11.86034422,11.86034422,,,,
680.4239995,2657,11.47935714,11.47935714,-45.76035275,11.47935714,-15.35252466,11.47935714,-86.39335596,11.47935714,11.47935714,2.186171323,34.85216989,11.47935714,-54.56467002,11.47935714,11.47935714,11.47935714,,,,
680.4319995,2657,11.09955295,11.09955295,-2.576381332,11.09955295,-4.996488266,11.09955295,73.62531166,11.09955295,11.09955295,-41.74695282,28.92018464,11.09955295,-127.5263699,11.09955295,11.09955295,11.09955295,,,,
680.4399995,2657,10.72093662,10.72093662,-34.9557602,10.72093662,-58.70519746,10.72093662,-29.05153084,10.72093662,10.72093662,114.5532998,-65.84864894,10.72093662,-28.10046994,10.72093662,10.72093662,10.72093662,,,,
680.4479995,2658,10.34351307,10.34351307,-33.56609094,10.34351307,-27.73542844,10.34351307,-31.09546049,10.34351307,10.34351307,-70.68514981,18.36124086,10.34351307,-75.46431226,10.34351307,10.34351307,10.34351307,,,,
680.4559995,2658,9.967287174,9.967287174,8.029836654,9.967287174,-53.48654896,9.967287174,122.9431655,9.967287174,9.967287174,164.0291906,-136.6079292,9.967287174,-78.745776,9.967287174,9.967287174,9.967287174,,,,
680.4639995,2658,9.592263746,9.592263745,-32.25172035,9.592263746,-77.24232749,9.592263745,-28.86870193,9.592263745,9.592263745,218.298308,-137.9647361,9.592263745,3.494886025,9.592263745,9.592263745,9.592263745,,,,
680.4719995,2658,9.218447561,9.21844756,-10.75156211,9.218447561,-40.10447522,9.218447561,53.08642552,9.21844756,9.218447561,55.56230524,-64.59410352,9.218447561,-77.0575176,9.218447561,9.218447561,9.218447561,,,,
680.4799995,2658,8.845843347,8.845843347,-30.04203597,8.845843346,-58.13740448,8.845843346,-16.00227693,8.845843347,8.845843346,103.4896497,-84.45321898,8.845843346,-43.68796605,8.845843346,8.845843346,8.845843346,,,,
680.4879995,2658,8.474455778,8.474455778,-48.91957741,8.474455778,-26.38360773,8.474455778,-72.75323437,8.474455778,8.474455778,-108.1862545,31.63231524,8.474455778,-92.97698785,8.474455778,8.474455778,8.474455778,,,,
680.4959995,2658,8.104289484,8.104289483,-13.37472333,8.104289484,-19.53425394,8.104289484,59.24624897,8.104289483,8.104289483,9.008449013,-39.19178349,8.104289483,-130.4802831,8.104289483,8.104289483,8.104289483,,,,
680.5039995,2658,7.735349045,7.735349046,-36.63814916,7.735349046,-27.47908654,7.735349045,-75.45200815,7.735349046,7.735349046,55.74839556,-10.39469788,7.735349046,-56.12052421,7.735349046,7.735349046,7.735349046,,,,
680.5119995,2658,7.367638994,7.367638994,-7.193013291,7.367638994,-3.079252257,7.367638994,6.730665375,7.367638994,7.367638993,-89.0137041,49.56196188,7.367638993,-111.8565574,7.367638993,7.367638993,7.367638993,,,,
680.5199995,2658,7.001163813,7.001163813,-7.093757059,7.001163814,-44.47140355,7.001163813,31.98144171,7.001163813,7.001163814,102.23882,-82.97969405,7.001163814,-62.35222949,7.001163814,7.001163814,7.001163814,,,,
680.5279995,2658,6.635927943,6.635927942,-40.78245896,6.635927943,-42.1698188,6.635927943,-87.21104981,6.635927942,6.635927943,-24.13222523,4.581572474,6.635927943,-54.80754888,6.635927943,6.635927943,6.635927943,,,,
680.5359995,2658,6.271935767,6.271935768,-1.860804195,6.271935768,-34.4307804,6.271935768,59.11068672,6.271935768,6.271935768,-15.77591045,-21.42891488,6.271935768,-112.7914515,6.271935768,6.271935768,6.271935768,,,,
680.5439995,2658,5.909191631,5.909191631,-26.41408591,5.909191631,-60.16546172,5.909191631,-46.69928836,5.909191631,5.909191631,103.0144205,-61.65093343,5.909191631,-24.5860852,5.909191631,5.909191631,5.909191631,,,,
680.5519995,2658,5.547699824,5.547699824,-9.856576642,5.547699824,-43.81369611,5.547699824,-25.64682817,5.547699824,5.547699824,-61.51830742,31.88670679,5.547699824,-64.79967195,5.547699824,5.547699824,5.547699824,,,,
680.5599995,2658,5.187464593,5.187464593,-0.541693403,5.187464594,-71.30639015,5.187464593,42.44914558,5.187464593,5.187464593,84.20974879,-75.8489954,5.187464593,-63.35517518,5.187464593,5.187464593,5.187464593,,,,
680.5679995,2658,4.828490136,4.828490136,-43.03318297,4.828490136,-66.56065156,4.828490137,-106.6479941,4.828490136,4.828490137,-3.145143188,0.096757814,4.828490137,-51.05180206,4.828490137,4.828490137,4.828490137,,,,
680.5759995,2658,4.470780604,4.470780604,12.0127102,4.470780604,-63.24286441,4.470780604,56.14530246,4.470780604,4.470780604,-45.56080884,6.488627887,4.470780604,-120.1114567,4.470780604,4.470780604,4.470780604,,,,
680.5839995,2658,4.114340098,4.114340098,-15.42728469,4.114340098,-100.5364171,4.114340098,-30.69671181,4.114340098,4.114340097,95.10453445,-70.02132728,4.114340097,-21.37764125,4.114340097,4.114340097,4.114340097,,,,
680.5919995,2658,3.759172674,3.759172673,-16.04993794,3.759172674,-72.31352139,3.759172673,-40.60778701,3.759172673,3.759172673,-71.55688284,23.09741564,3.759172673,-59.22517693,3.759172673,3.759172673,3.759172673,,,,
680.5999995,2658,3.405282341,3.405282341,14.22592032,3.405282341,-83.38060322,3.405282341,59.19653991,3.405282341,3.405282341,77.55034982,-80.52185951,3.405282341,-63.51212901,3.405282341,3.405282341,3.405282341,,,,
680.6079995,2658,3.05267306,3.05267306,-26.45136789,3.05267306,-46.76814101,3.05267306,-96.02211539,3.05267306,3.05267306,7.726380154,9.234755254,3.05267306,-42.61137094,3.05267306,3.05267306,3.05267306,,,,
680.6159995,2658,2.701348744,2.701348744,13.77986601,2.701348744,-13.51484466,2.701348744,55.3807412,2.701348744,2.701348745,-76.83574027,70.17600584,2.701348745,-162.8512116,2.701348745,2.701348745,2.701348745,,,,
680.6239995,2658,2.351313262,2.351313261,-18.22762142,2.351313262,-58.16441032,2.351313261,-30.26252598,2.351313261,2.351313262,76.14706179,-26.97831326,2.351313262,-81.70789068,2.351313262,2.351313262,2.351313262,,,,
680.6319995,2658,2.002570431,2.002570432,-16.24340906,2.002570431,-18.44180113,2.002570432,-45.32478791,2.002570432,2.002570431,-106.7154163,73.12930567,2.002570431,-130.1567272,2.002570431,2.002570431,2.002570431,,,,
680.6399995,2658,1.655124028,1.655124027,22.55923231,1.655124028,-42.96041264,1.655124028,64.39129143,1.655124027,1.655124027,20.83931544,-6.220225884,1.655124027,-153.1911677,1.655124027,1.655124027,1.655124027,,,,
680.6479995,2658,1.308977775,1.308977775,-16.06498803,1.308977775,-56.34269233,1.308977775,-95.36395424,1.308977775,1.308977775,-8.140474715,9.969127598,1.308977775,-77.79671552,1.308977775,1.308977775,1.308977775,,,,
680.6559995,2658,0.964135354,0.964135354,20.45341937,0.964135354,-21.93268795,0.964135354,49.11865292,0.964135354,0.964135354,-75.7059697,34.25297253,0.964135354,-167.1728067,0.964135354,0.964135354,0.964135354,,,,
680.6639995,2658,0.620600398,0.620600398,-6.63305094,0.620600398,-55.03301968,0.620600398,-35.5508188,0.620600398,0.620600398,91.71481722,-34.51487625,0.620600398,-85.40461818,0.620600398,0.620600398,0.620600398,,,,
680.6719995,2658,0.278376493,0.278376492,-2.890074873,0.278376493,-19.02735743,0.278376492,-51.05612713,0.278376492,0.278376493,-69.18535507,49.01899878,0.278376493,-99.17579562,0.278376493,0.278376493,0.278376493,,,,
680.6799995,2658,-0.062532821,-0.062532821,26.89792282,-0.062532821,-27.8431402,-0.062532821,65.33066478,-0.062532821,-0.062532821,70.35712654,-47.30119244,-0.062532821,-107.9976764,-0.062532821,-0.062532821,-0.062532821,,,,
680.6879995,2658,-0.402124051,-0.402124051,-22.94326541,-0.402124051,-33.26750504,-0.402124051,-95.82933739,-0.402124051,-0.402124051,43.51407607,-18.6904142,-0.402124051,-41.97050687,-0.402124051,-0.402124051,-0.402124051,,,,
680.6959995,2658,-0.740393748,-0.740393749,7.479168643,-0.740393749,11.96136475,-0.740393749,50.30729345,-0.740393749,-0.740393749,-40.19469617,5.139495931,-0.740393749,-128.808493,-0.740393749,-0.740393749,-0.740393749,,,,
680.7039995,2659,-1.077338513,-1.077338512,-28.33850219,-1.077338513,-3.568988118,-1.077338512,-35.4905719,-1.077338512,-1.077338512,106.0124412,-39.67882,-1.077338512,-71.56338436,-1.077338512,-1.077338512,-1.077338512,,,,
680.7119995,2659,-1.412954988,-1.412954989,-34.30448929,-1.412954989,24.97831272,-1.412954989,-64.35908847,-1.412954989,-1.412954988,-83.01338382,70.7784847,-1.412954988,-125.9653417,-1.412954988,-1.412954988,-1.412954988,,,,
680.7199995,2659,-1.747239868,-1.747239867,6.996961139,-1.747239868,11.44607165,-1.747239868,60.96705159,-1.747239867,-1.747239867,44.09919823,-35.68418062,-1.747239867,-140.6268894,-1.747239867,-1.747239867,-1.747239867,,,,
680.7279995,2659,-2.080189885,-2.080189885,-29.14325171,-2.080189885,1.618323054,-2.080189885,-93.43693565,-2.080189885,-2.080189885,28.02930022,-11.85792575,-2.080189885,-58.13305672,-2.080189885,-2.080189885,-2.080189885,,,,
680.7359995,2659,-2.411801825,-2.411801826,8.672029694,-2.411801826,27.17412724,-2.411801826,55.27188488,-2.411801826,-2.411801825,-47.68259735,8.424599863,-2.411801825,-132.4179272,-2.411801825,-2.411801825,-2.411801825,,,,
680.7439995,2659,-2.742072516,-2.742072517,-18.53135458,-2.742072516,10.01398517,-2.742072517,-18.44116087,-2.742072517,-2.742072517,113.0932057,-45.89711965,-2.742072517,-62.21898953,-2.742072517,-2.742072517,-2.742072517,,,,
680.7519995,2659,-3.070998832,-3.070998832,-20.10447579,-3.070998832,39.97028342,-3.070998832,-44.47494325,-3.070998832,-3.070998832,-58.66385695,63.2992541,-3.070998832,-85.9483999,-3.070998832,-3.070998832,-3.070998832,,,,
680.7599995,2659,-3.398577692,-3.398577692,9.874459663,-3.398577692,20.88181876,-3.398577692,72.53524988,-3.398577692,-3.398577692,63.1656179,-49.54070297,-3.398577692,-94.2768074,-3.398577692,-3.398577692,-3.398577692,,,,
680.7679995,2659,-3.724806061,-3.724806061,-47.17276357,-3.724806061,18.8391564,-3.724806061,-103.8506193,-3.724806061,-3.724806061,20.41826265,-10.10343117,-3.724806061,-52.19997391,-3.724806061,-3.724806061,-3.724806061,,,,
680.7759995,2659,-4.049680949,-4.049680949,-3.743758589,-4.049680949,47.89420249,-4.049680949,45.36005776,-4.049680949,-4.049680949,-70.97364905,36.25885918,-4.049680949,-155.2287003,-4.049680949,-4.049680949,-4.049680949,,,,
680.7839995,2659,-4.373199413,-4.373199413,-21.54810631,-4.373199413,15.96782543,-4.373199413,-14.8411795,-4.373199413,-4.373199413,108.3559991,-47.76376854,-4.373199413,-67.50727649,-4.373199413,-4.373199413,-4.373199413,,,,
680.7919995,2659,-4.695358553,-4.695358553,-35.92267171,-4.695358553,37.21010962,-4.695358553,-50.01068345,-4.695358553,-4.695358553,-59.23505828,39.79543523,-4.695358553,-81.42017534,-4.695358553,-4.695358553,-4.695358553,,,,
680.7999995,2659,-5.016155515,-5.016155515,-3.819913859,-5.016155514,31.2059268,-5.016155515,75.42291607,-5.016155515,-5.016155515,48.07105725,-43.05999676,-5.016155515,-115.8054512,-5.016155515,-5.016155515,-5.016155515,,,,
680.8079995,2659,-5.335587489,-5.335587489,-46.20241392,-5.335587489,41.25122905,-5.335587489,-85.63218878,-5.335587489,-5.335587489,17.23360866,12.41161353,-5.335587489,-72.2090698,-5.335587489,-5.335587489,-5.335587489,,,,
680.8159995,2659,-5.653651712,-5.653651712,-5.671751767,-5.653651712,68.49029781,-5.653651712,58.38855674,-5.653651712,-5.653651712,-63.97298453,53.96652296,-5.653651712,-161.5386553,-5.653651712,-5.653651712,-5.653651712,,,,
