Time:125Hz,Epoch,FP1,FP2,C3,C4,P7,P8,O1,O2,F7,F8,F3,F4,T7,T8,P3,P4,,,,
1307.447999,5107,0,-1.71E-06,0,0,0,0,0,0,-19.47174306,0,0,0,0,0,0,0,,,,
1307.455999,5107,0,-1.81E-06,0,0,0,0,0,0,234.8801597,0,0,0,0,0,0,0,,,,
1307.463999,5107,0,-1.72E-06,0,0,0,0,0,0,365.5662594,0,0,0,0,0,0,0,,,,
1307.471999,5107,0,-1.75E-06,0,0,0,0,0,0,-197.2116507,0,0,0,0,0,0,0,,,,
1307.479999,5107,0,-1.71E-06,0,0,0,0,0,0,302.4066043,0,0,0,0,0,0,0,,,,
1307.487999,5107,0,-1.70E-06,0,0,0,0,0,0,187.6440207,0,0,0,0,0,0,0,,,,
1307.495999,5107,0,-1.68E-06,0,0,0,0,0,0,-46.83709311,0,0,0,0,0,0,0,,,,
1307.503999,5107,0,-1.67E-06,0,0,0,0,0,0,195.2626775,0,0,0,0,0,0,0,,,,
1307.511999,5107,0,-1.65E-06,0,0,0,0,0,0,43.22066242,0,0,0,0,0,0,0,,,,
1307.519999,5107,0,-1.64E-06,0,0,0,0,0,0,219.1585897,0,0,0,0,0,0,0,,,,
1307.527999,5107,0,-1.62E-06,0,0,0,0,0,0,76.66657696,0,0,0,0,0,0,0,,,,
1307.535999,5107,0,-1.61E-06,0,0,0,0,0,0,144.6169354,0,0,0,0,0,0,0,,,,
1307.543999,5107,0,-1.59E-06,0,0,0,0,0,0,222.6394955,0,0,0,0,0,0,0,,,,
1307.551999,5107,0,-1.58E-06,0,0,0,0,0,0,-6.759365724,0,0,0,0,0,0,0,,,,
1307.559999,5107,0,-1.56E-06,0,0,0,0,0,0,294.3737394,0,0,0,0,0,0,0,,,,
1307.567999,5107,0,-1.55E-06,0,0,0,0,0,0,63.81367294,0,0,0,0,0,0,0,,,,
1307.575999,5107,0,-1.53E-06,0,0,0,0,0,0,160.0871704,0,0,0,0,0,0,0,,,,
1307.583999,5107,0,-1.52E-06,0,0,0,0,0,0,270.8287019,0,0,0,0,0,0,0,,,,
1307.591999,5107,0,-1.50E-06,0,0,0,0,0,0,-6.957908955,0,0,0,0,0,0,0,,,,
1307.599999,5107,0,-1.49E-06,0,0,0,0,0,0,323.0240594,0,0,0,0,0,0,0,,,,
1307.607999,5107,0,-1.47E-06,0,0,0,0,0,0,51.39895906,0,0,0,0,0,0,0,,,,
1307.615999,5107,0,-1.46E-06,0,0,0,0,0,0,137.4531448,0,0,0,0,0,0,0,,,,
1307.623999,5107,0,-1.45E-06,0,0,0,0,0,0,249.7954724,0,0,0,0,0,0,0,,,,
1307.631999,5107,0,-1.43E-06,0,0,0,0,0,0,-22.25180849,0,0,0,0,0,0,0,,,,
1307.639999,5107,0,-1.42E-06,0,0,0,0,0,0,337.4197625,0,0,0,0,0,0,0,,,,
1307.647999,5108,0,5.02E-07,0,0,0,0,0,0,59.18967693,0,0,0,0,0,0,0,,,,
1307.655999,5108,0,2.31E-06,0,0,0,0,0,0,169.2282104,0,0,0,0,0,0,0,,,,
1307.663999,5108,0,1.73E-06,0,0,0,0,0,0,270.2641471,0,0,0,0,0,0,0,,,,
1307.671999,5108,0,1.77E-06,0,0,0,0,0,0,-53.52943159,0,0,0,0,0,0,0,,,,
1307.679999,5108,0,1.87E-06,0,0,0,0,0,0,304.9558437,0,0,0,0,0,0,0,,,,
1307.687999,5108,0,1.71E-06,0,0,0,0,0,0,28.67915682,0,0,0,0,0,0,0,,,,
1307.695999,5108,0,1.81E-06,0,0,0,0,0,0,128.3407262,0,0,0,0,0,0,0,,,,
1307.703999,5108,0,1.72E-06,0,0,0,0,0,0,255.9519711,0,0,0,0,0,0,0,,,,
1307.711999,5108,0,1.75E-06,0,0,0,0,0,0,-49.59622771,0,0,0,0,0,0,0,,,,
1307.719999,5108,0,1.71E-06,0,0,0,0,0,0,302.9303048,0,0,0,0,0,0,0,,,,
1307.727999,5108,0,1.70E-06,0,0,0,0,0,0,46.56018558,0,0,0,0,0,0,0,,,,
1307.735999,5108,0,1.68E-06,0,0,0,0,0,0,160.0946183,0,0,0,0,0,0,0,,,,
1307.743999,5108,0,1.67E-06,0,0,0,0,0,0,284.5824239,0,0,0,0,0,0,0,,,,
1307.751999,5108,0,1.65E-06,0,0,0,0,0,0,-0.690762386,0,0,0,0,0,0,0,,,,
1307.759999,5108,0,1.64E-06,0,0,0,0,0,0,372.4499349,0,0,0,0,0,0,0,,,,
1307.767999,5108,0,1.62E-06,0,0,0,0,0,0,86.84739329,0,0,0,0,0,0,0,,,,
1307.775999,5108,0,1.61E-06,0,0,0,0,0,0,162.1808862,0,0,0,0,0,0,0,,,,
1307.783999,5108,0,1.59E-06,0,0,0,0,0,0,277.2369177,0,0,0,0,0,0,0,,,,
1307.791999,5108,0,1.58E-06,0,0,0,0,0,0,-30.58315376,0,0,0,0,0,0,0,,,,
1307.799999,5108,0,1.56E-06,0,0,0,0,0,0,335.5432474,0,0,0,0,0,0,0,,,,
1307.807999,5108,0,1.55E-06,0,0,0,0,0,0,62.11667033,0,0,0,0,0,0,0,,,,
1307.815999,5108,0,1.53E-06,0,0,0,0,0,0,157.2562953,0,0,0,0,0,0,0,,,,
1307.823999,5108,0,1.52E-06,0,0,0,0,0,0,297.1021902,0,0,0,0,0,0,0,,,,
1307.831999,5108,0,1.50E-06,0,0,0,0,0,0,-32.25257125,0,0,0,0,0,0,0,,,,
1307.839999,5108,0,1.49E-06,0,0,0,0,0,0,332.2536342,0,0,0,0,0,0,0,,,,
1307.847999,5108,0,1.47E-06,0,0,0,0,0,0,68.1507902,0,0,0,0,0,0,0,,,,
1307.855999,5108,0,1.46E-06,0,0,0,0,0,0,132.5003259,0,0,0,0,0,0,0,,,,
1307.863999,5108,0,1.45E-06,0,0,0,0,0,0,290.2769155,0,0,0,0,0,0,0,,,,
1307.871999,5108,0,1.43E-06,0,0,0,0,0,0,-7.735724045,0,0,0,0,0,0,0,,,,
1307.879999,5108,0,1.42E-06,0,0,0,0,0,0,351.5761648,0,0,0,0,0,0,0,,,,
1307.887999,5108,0,-5.02E-07,0,0,0,0,0,0,80.48788519,0,0,0,0,0,0,0,,,,
1307.895999,5108,0,-2.31E-06,0,0,0,0,0,0,138.495261,0,0,0,0,0,0,0,,,,
1307.903999,5109,0,-1.73E-06,0,0,0,0,0,0,291.9967417,0,0,0,0,0,0,0,,,,
1307.911999,5109,0,-1.77E-06,0,0,0,0,0,0,-16.84441572,0,0,0,0,0,0,0,,,,
1307.919999,5109,0,-1.87E-06,0,0,0,0,0,0,339.5312546,0,0,0,0,0,0,0,,,,
1307.927999,5109,0,-1.71E-06,0,0,0,0,0,0,68.6824809,0,0,0,0,0,0,0,,,,
1307.935999,5109,0,-1.81E-06,0,0,0,0,0,0,130.9379391,0,0,0,0,0,0,0,,,,
1307.943999,5109,0,-1.72E-06,0,0,0,0,0,0,479.6965247,0,0,0,0,0,0,0,,,,
1307.951999,5109,0,-1.75E-06,0,0,0,0,0,0,55.21387258,0,0,0,0,0,0,0,,,,
1307.959999,5109,0,-1.71E-06,0,0,0,0,0,0,93.42710633,0,0,0,0,0,0,0,,,,
1307.967999,5109,0,-1.70E-06,0,0,0,0,0,0,249.6232039,0,0,0,0,0,0,0,,,,
1307.975999,5109,0,-1.68E-06,0,0,0,0,0,0,108.6438098,0,0,0,0,0,0,0,,,,
1307.983999,5109,0,-1.67E-06,0,0,0,0,0,0,83.68182432,0,0,0,0,0,0,0,,,,
1307.991999,5109,0,-1.65E-06,0,0,0,0,0,0,215.6216172,0,0,0,0,0,0,0,,,,
1307.999999,5109,0,-1.64E-06,0,0,0,0,0,0,60.27100079,0,0,0,0,0,0,0,,,,
1308.007999,5109,0,-1.62E-06,0,0,0,0,0,0,153.0667367,0,0,0,0,0,0,0,,,,
1308.015999,5109,0,-1.61E-06,0,0,0,0,0,0,215.6265745,0,0,0,0,0,0,0,,,,
1308.023999,5109,0,-1.59E-06,0,0,0,0,0,0,-11.72318093,0,0,0,0,0,0,0,,,,
1308.031999,5109,0,-1.58E-06,0,0,0,0,0,0,293.1568251,0,0,0,0,0,0,0,,,,
1308.039999,5109,0,-1.56E-06,0,0,0,0,0,0,90.51451151,0,0,0,0,0,0,0,,,,
1308.047999,5109,0,-1.55E-06,0,0,0,0,0,0,11.97853257,0,0,0,0,0,0,0,,,,
1308.055999,5109,0,-1.53E-06,0,0,0,0,0,0,283.943585,0,0,0,0,0,0,0,,,,
1308.063999,5109,0,-1.52E-06,0,0,0,0,0,0,95.03107637,0,0,0,0,0,0,0,,,,
1308.071999,5109,0,-1.50E-06,0,0,0,0,0,0,116.8523919,0,0,0,0,0,0,0,,,,
1308.079999,5109,0,-1.49E-06,0,0,0,0,0,0,206.8459152,0,0,0,0,0,0,0,,,,
1308.087999,5109,0,-1.47E-06,0,0,0,0,0,0,134.9132748,0,0,0,0,0,0,0,,,,
1308.095999,5109,0,-1.46E-06,0,0,0,0,0,0,68.27423509,0,0,0,0,0,0,0,,,,
1308.103999,5109,0,-1.45E-06,0,0,0,0,0,0,235.129181,0,0,0,0,0,0,0,,,,
1308.111999,5109,0,-1.43E-06,0,0,0,0,0,0,96.43427186,0,0,0,0,0,0,0,,,,
1308.119999,5109,0,-1.42E-06,0,0,0,0,0,0,117.8727989,0,0,0,0,0,0,0,,,,
1308.127999,5109,0,5.02E-07,0,0,0,0,0,0,218.1205703,0,0,0,0,0,0,0,,,,
1308.135999,5109,0,2.31E-06,0,0,0,0,0,0,-5.105699437,0,0,0,0,0,0,0,,,,
1308.143999,5109,0,1.73E-06,0,0,0,0,0,0,278.6887968,0,0,0,0,0,0,0,,,,
1308.151999,5109,0,1.77E-06,0,0,0,0,0,0,89.55789391,0,0,0,0,0,0,0,,,,
1308.159999,5110,0,1.87E-06,0,0,0,0,0,0,116.376249,0,0,0,0,0,0,0,,,,
1308.167999,5110,0,1.71E-06,0,0,0,0,0,0,253.4607411,0,0,0,0,0,0,0,,,,
1308.175999,5110,0,1.81E-06,0,0,0,0,0,0,-72.28289205,0,0,0,0,0,0,0,,,,
1308.183999,5110,0,1.72E-06,0,0,0,0,0,0,267.9454254,0,0,0,0,0,0,0,,,,
1308.191999,5110,0,1.75E-06,0,0,0,0,0,0,70.30964293,0,0,0,0,0,0,0,,,,
1308.199999,5110,0,1.71E-06,0,0,0,0,0,0,90.44333791,0,0,0,0,0,0,0,,,,
1308.207999,5110,0,1.70E-06,0,0,0,0,0,0,267.2469556,0,0,0,0,0,0,0,,,,
1308.215999,5110,0,1.68E-06,0,0,0,0,0,0,-48.29286973,0,0,0,0,0,0,0,,,,
1308.223999,5110,0,1.67E-06,0,0,0,0,0,0,292.6566892,0,0,0,0,0,0,0,,,,
1308.231999,5110,0,1.65E-06,0,0,0,0,0,0,72.63849836,0,0,0,0,0,0,0,,,,
1308.239999,5110,0,1.64E-06,0,0,0,0,0,0,112.1833855,0,0,0,0,0,0,0,,,,
1308.247999,5110,0,1.62E-06,0,0,0,0,0,0,304.1778193,0,0,0,0,0,0,0,,,,
1308.255999,5110,0,1.61E-06,0,0,0,0,0,0,-41.31908769,0,0,0,0,0,0,0,,,,
1308.263999,5110,0,1.59E-06,0,0,0,0,0,0,301.085536,0,0,0,0,0,0,0,,,,
1308.271999,5110,0,1.58E-06,0,0,0,0,0,0,101.1117929,0,0,0,0,0,0,0,,,,
1308.279999,5110,0,1.56E-06,0,0,0,0,0,0,209.5591207,0,0,0,0,0,0,0,,,,
1308.287999,5110,0,1.55E-06,0,0,0,0,0,0,439.8412657,0,0,0,0,0,0,0,,,,
1308.295999,5110,0,1.53E-06,0,0,0,0,0,0,-116.3319279,0,0,0,0,0,0,0,,,,
1308.303999,5110,0,1.52E-06,0,0,0,0,0,0,275.1476304,0,0,0,0,0,0,0,,,,
1308.311999,5110,0,1.50E-06,0,0,0,0,0,0,195.7220074,0,0,0,0,0,0,0,,,,
1308.319999,5110,0,1.49E-06,0,0,0,0,0,0,-59.2676709,0,0,0,0,0,0,0,,,,
1308.327999,5110,0,1.47E-06,0,0,0,0,0,0,349.2311893,0,0,0,0,0,0,0,,,,
1308.335999,5110,0,1.46E-06,0,0,0,0,0,0,4.103698541,0,0,0,0,0,0,0,,,,
1308.343999,5110,0,1.45E-06,0,0,0,0,0,0,167.3840152,0,0,0,0,0,0,0,,,,
1308.351999,5110,0,1.43E-06,0,0,0,0,0,0,263.9855829,0,0,0,0,0,0,0,,,,
1308.359999,5110,0,1.42E-06,0,0,0,0,0,0,-53.07133808,0,0,0,0,0,0,0,,,,
1308.367999,5110,0,-5.02E-07,0,0,0,0,0,0,310.160734,0,0,0,0,0,0,0,,,,
1308.375999,5110,0,-2.31E-06,0,0,0,0,0,0,85.74474772,0,0,0,0,0,0,0,,,,
1308.383999,5110,0,-1.73E-06,0,0,0,0,0,0,155.5042912,0,0,0,0,0,0,0,,,,
1308.391999,5110,0,-1.77E-06,0,0,0,0,0,0,316.0216929,0,0,0,0,0,0,0,,,,
1308.399999,5110,0,-1.87E-06,0,0,0,0,0,0,-36.98547569,0,0,0,0,0,0,0,,,,
1308.407999,5110,0,-1.71E-06,0,0,0,0,0,0,307.1976633,0,0,0,0,0,0,0,,,,
1308.415999,5111,0,-1.81E-06,0,0,0,0,0,0,115.0425182,0,0,0,0,0,0,0,,,,
1308.423999,5111,0,-1.72E-06,0,0,0,0,0,0,103.6251016,0,0,0,0,0,0,0,,,,
1308.431999,5111,0,-1.75E-06,0,0,0,0,0,0,287.8496886,0,0,0,0,0,0,0,,,,
1308.439999,5111,0,-1.71E-06,0,0,0,0,0,0,-38.58944571,0,0,0,0,0,0,0,,,,
1308.447999,5111,0,-1.70E-06,0,0,0,0,0,0,308.0518466,0,0,0,0,0,0,0,,,,
1308.455999,5111,0,-1.68E-06,0,0,0,0,0,0,110.226134,0,0,0,0,0,0,0,,,,
1308.463999,5111,0,-1.67E-06,0,0,0,0,0,0,92.20339193,0,0,0,0,0,0,0,,,,
1308.471999,5111,0,-1.65E-06,0,0,0,0,0,0,304.776424,0,0,0,0,0,0,0,,,,
1308.479999,5111,0,-1.64E-06,0,0,0,0,0,0,-43.27165862,0,0,0,0,0,0,0,,,,
1308.487999,5111,0,-1.62E-06,0,0,0,0,0,0,300.3939219,0,0,0,0,0,0,0,,,,
1308.495999,5111,0,-1.61E-06,0,0,0,0,0,0,133.1360224,0,0,0,0,0,0,0,,,,
1308.503999,5111,0,-1.59E-06,0,0,0,0,0,0,106.4456143,0,0,0,0,0,0,0,,,,
1308.511999,5111,0,-1.58E-06,0,0,0,0,0,0,302.7193998,0,0,0,0,0,0,0,,,,
1308.519999,5111,0,-1.56E-06,0,0,0,0,0,0,-63.51109923,0,0,0,0,0,0,0,,,,
1308.527999,5111,0,-1.55E-06,0,0,0,0,0,0,266.1782985,0,0,0,0,0,0,0,,,,
1308.535999,5111,0,-1.53E-06,0,0,0,0,0,0,96.72829966,0,0,0,0,0,0,0,,,,
1308.543999,5111,0,-1.52E-06,0,0,0,0,0,0,68.17546604,0,0,0,0,0,0,0,,,,
1308.551999,5111,0,-1.50E-06,0,0,0,0,0,0,284.5790101,0,0,0,0,0,0,0,,,,
1308.559999,5111,0,-1.49E-06,0,0,0,0,0,0,-58.11939366,0,0,0,0,0,0,0,,,,
1308.567999,5111,0,-1.47E-06,0,0,0,0,0,0,263.0256509,0,0,0,0,0,0,0,,,,
1308.575999,5111,0,-1.46E-06,0,0,0,0,0,0,95.76035859,0,0,0,0,0,0,0,,,,
1308.583999,5111,0,-1.45E-06,0,0,0,0,0,0,86.38884495,0,0,0,0,0,0,0,,,,
1308.591999,5111,0,-1.43E-06,0,0,0,0,0,0,296.0988237,0,0,0,0,0,0,0,,,,
1308.599999,5111,0,-1.42E-06,0,0,0,0,0,0,-55.94766662,0,0,0,0,0,0,0,,,,
1308.607999,5111,0,5.02E-07,0,0,0,0,0,0,278.4832684,0,0,0,0,0,0,0,,,,
1308.615999,5111,0,2.31E-06,0,0,0,0,0,0,96.17564021,0,0,0,0,0,0,0,,,,
1308.623999,5111,0,1.73E-06,0,0,0,0,0,0,59.80157573,0,0,0,0,0,0,0,,,,
1308.631999,5111,0,1.77E-06,0,0,0,0,0,0,275.9154755,0,0,0,0,0,0,0,,,,
1308.639999,5111,0,1.87E-06,0,0,0,0,0,0,-92.53617079,0,0,0,0,0,0,0,,,,
1308.647999,5111,0,1.71E-06,0,0,0,0,0,0,220.4814609,0,0,0,0,0,0,0,,,,
1308.655999,5111,0,1.81E-06,0,0,0,0,0,0,28.90497491,0,0,0,0,0,0,0,,,,
1308.663999,5111,0,1.72E-06,0,0,0,0,0,0,-11.90761752,0,0,0,0,0,0,0,,,,
1308.671999,5112,0,1.75E-06,0,0,0,0,0,0,242.8366152,0,0,0,0,0,0,0,,,,
1308.679999,5112,0,1.71E-06,0,0,0,0,0,0,-97.69255567,0,0,0,0,0,0,0,,,,
1308.687999,5112,0,1.70E-06,0,0,0,0,0,0,226.6039074,0,0,0,0,0,0,0,,,,
1308.695999,5112,0,1.68E-06,0,0,0,0,0,0,61.28592416,0,0,0,0,0,0,0,,,,
1308.703999,5112,0,1.67E-06,0,0,0,0,0,0,27.96176701,0,0,0,0,0,0,0,,,,
1308.711999,5112,0,1.65E-06,0,0,0,0,0,0,272.0182508,0,0,0,0,0,0,0,,,,
1308.719999,5112,0,1.64E-06,0,0,0,0,0,0,-105.3276942,0,0,0,0,0,0,0,,,,
1308.727999,5112,0,1.62E-06,0,0,0,0,0,0,197.7838137,0,0,0,0,0,0,0,,,,
1308.735999,5112,0,1.61E-06,0,0,0,0,0,0,44.13264691,0,0,0,0,0,0,0,,,,
1308.743999,5112,0,1.59E-06,0,0,0,0,0,0,-8.789022584,0,0,0,0,0,0,0,,,,
1308.751999,5112,0,1.58E-06,0,0,0,0,0,0,222.4672286,0,0,0,0,0,0,0,,,,
1308.759999,5112,0,1.56E-06,0,0,0,0,0,0,-137.4279696,0,0,0,0,0,0,0,,,,
1308.767999,5112,0,1.55E-06,0,0,0,0,0,0,180.8877205,0,0,0,0,0,0,0,,,,
1308.775999,5112,0,1.53E-06,0,0,0,0,0,0,24.64372661,0,0,0,0,0,0,0,,,,
1308.783999,5112,0,1.52E-06,0,0,0,0,0,0,-29.42898338,0,0,0,0,0,0,0,,,,
1308.791999,5112,0,1.50E-06,0,0,0,0,0,0,216.321639,0,0,0,0,0,0,0,,,,
1308.799999,5112,0,1.49E-06,0,0,0,0,0,0,-144.4740263,0,0,0,0,0,0,0,,,,
1308.807999,5112,0,1.47E-06,0,0,0,0,0,0,193.8721673,0,0,0,0,0,0,0,,,,
1308.815999,5112,0,1.46E-06,0,0,0,0,0,0,55.49950828,0,0,0,0,0,0,0,,,,
1308.823999,5112,0,1.45E-06,0,0,0,0,0,0,-30.16226062,0,0,0,0,0,0,0,,,,
1308.831999,5112,0,1.43E-06,0,0,0,0,0,0,217.8159743,0,0,0,0,0,0,0,,,,
1308.839999,5112,0,1.42E-06,0,0,0,0,0,0,-118.4792789,0,0,0,0,0,0,0,,,,
1308.847999,5112,0,-5.02E-07,0,0,0,0,0,0,204.6635708,0,0,0,0,0,0,0,,,,
1308.855999,5112,0,-2.31E-06,0,0,0,0,0,0,73.34916281,0,0,0,0,0,0,0,,,,
1308.863999,5112,0,-1.73E-06,0,0,0,0,0,0,22.8996859,0,0,0,0,0,0,0,,,,
1308.871999,5112,0,-1.77E-06,0,0,0,0,0,0,256.0282608,0,0,0,0,0,0,0,,,,
1308.879999,5112,0,-1.87E-06,0,0,0,0,0,0,-128.6304869,0,0,0,0,0,0,0,,,,
1308.887999,5112,0,-1.71E-06,0,0,0,0,0,0,184.3796559,0,0,0,0,0,0,0,,,,
1308.895999,5112,0,-1.81E-06,0,0,0,0,0,0,49.14863615,0,0,0,0,0,0,0,,,,
1308.903999,5112,0,-1.72E-06,0,0,0,0,0,0,-14.60653868,0,0,0,0,0,0,0,,,,
1308.911999,5112,0,-1.75E-06,0,0,0,0,0,0,247.2955631,0,0,0,0,0,0,0,,,,
1308.919999,5112,0,-1.71E-06,0,0,0,0,0,0,-118.3172301,0,0,0,0,0,0,0,,,,
1308.927999,5113,0,-1.70E-06,0,0,0,0,0,0,190.9285335,0,0,0,0,0,0,0,,,,
1308.935999,5113,0,-1.68E-06,0,0,0,0,0,0,61.76937533,0,0,0,0,0,0,0,,,,
1308.943999,5113,0,-1.67E-06,0,0,0,0,0,0,-12.17150424,0,0,0,0,0,0,0,,,,
1308.951999,5113,0,-1.65E-06,0,0,0,0,0,0,242.1680567,0,0,0,0,0,0,0,,,,
1308.959999,5113,0,-1.64E-06,0,0,0,0,0,0,-121.2327603,0,0,0,0,0,0,0,,,,
1308.967999,5113,0,-1.62E-06,0,0,0,0,0,0,205.3284792,0,0,0,0,0,0,0,,,,
1308.975999,5113,0,-1.61E-06,0,0,0,0,0,0,85.94046823,0,0,0,0,0,0,0,,,,
1308.983999,5113,0,-1.59E-06,0,0,0,0,0,0,3.07243474,0,0,0,0,0,0,0,,,,
1308.991999,5113,0,-1.58E-06,0,0,0,0,0,0,286.8939155,0,0,0,0,0,0,0,,,,
1308.999999,5113,0,-1.56E-06,0,0,0,0,0,0,-51.87484547,0,0,0,0,0,0,0,,,,
1309.007999,5113,0,-1.55E-06,0,0,0,0,0,0,249.9329942,0,0,0,0,0,0,0,,,,
1309.015999,5113,0,-1.53E-06,0,0,0,0,0,0,154.9924637,0,0,0,0,0,0,0,,,,
1309.023999,5113,0,-1.52E-06,0,0,0,0,0,0,-67.34006742,0,0,0,0,0,0,0,,,,
1309.031999,5113,0,-1.50E-06,0,0,0,0,0,0,208.6690503,0,0,0,0,0,0,0,,,,
1309.039999,5113,0,-1.49E-06,0,0,0,0,0,0,87.49599052,0,0,0,0,0,0,0,,,,
1309.047999,5113,0,-1.47E-06,0,0,0,0,0,0,61.89927795,0,0,0,0,0,0,0,,,,
1309.055999,5113,0,-1.46E-06,0,0,0,0,0,0,120.1478246,0,0,0,0,0,0,0,,,,
1309.063999,5113,0,-1.45E-06,0,0,0,0,0,0,121.8222787,0,0,0,0,0,0,0,,,,
1309.071999,5113,0,-1.43E-06,0,0,0,0,0,0,8.974969861,0,0,0,0,0,0,0,,,,
1309.079999,5113,0,-1.42E-06,0,0,0,0,0,0,160.2860088,0,0,0,0,0,0,0,,,,
1309.087999,5113,0,5.02E-07,0,0,0,0,0,0,80.60828626,0,0,0,0,0,0,0,,,,
1309.095999,5113,0,2.31E-06,0,0,0,0,0,0,37.48222207,0,0,0,0,0,0,0,,,,
1309.103999,5113,0,1.73E-06,0,0,0,0,0,0,253.7205229,0,0,0,0,0,0,0,,,,
1309.111999,5113,0,1.77E-06,0,0,0,0,0,0,-38.26730671,0,0,0,0,0,0,0,,,,
1309.119999,5113,0,1.87E-06,0,0,0,0,0,0,204.5838141,0,0,0,0,0,0,0,,,,
1309.127999,5113,0,1.71E-06,0,0,0,0,0,0,116.683832,0,0,0,0,0,0,0,,,,
1309.135999,5113,0,1.81E-06,0,0,0,0,0,0,3.075153335,0,0,0,0,0,0,0,,,,
1309.143999,5113,0,1.72E-06,0,0,0,0,0,0,298.2874699,0,0,0,0,0,0,0,,,,
1309.151999,5113,0,1.75E-06,0,0,0,0,0,0,-20.92690965,0,0,0,0,0,0,0,,,,
1309.159999,5113,0,1.71E-06,0,0,0,0,0,0,232.884771,0,0,0,0,0,0,0,,,,
1309.167999,5113,0,1.70E-06,0,0,0,0,0,0,133.397124,0,0,0,0,0,0,0,,,,
1309.175999,5113,0,1.68E-06,0,0,0,0,0,0,35.46796218,0,0,0,0,0,0,0,,,,
1309.183999,5114,0,1.67E-06,0,0,0,0,0,0,305.7945464,0,0,0,0,0,0,0,,,,
1309.191999,5114,0,1.65E-06,0,0,0,0,0,0,-75.44882234,0,0,0,0,0,0,0,,,,
1309.199999,5114,0,1.64E-06,0,0,0,0,0,0,200.2460354,0,0,0,0,0,0,0,,,,
1309.207999,5114,0,1.62E-06,0,0,0,0,0,0,103.6378614,0,0,0,0,0,0,0,,,,
1309.215999,5114,0,1.61E-06,0,0,0,0,0,0,13.85575423,0,0,0,0,0,0,0,,,,
1309.223999,5114,0,1.59E-06,0,0,0,0,0,0,324.9279517,0,0,0,0,0,0,0,,,,
1309.231999,5114,0,1.58E-06,0,0,0,0,0,0,-53.00670533,0,0,0,0,0,0,0,,,,
1309.239999,5114,0,1.56E-06,0,0,0,0,0,0,214.0639043,0,0,0,0,0,0,0,,,,
1309.247999,5114,0,1.55E-06,0,0,0,0,0,0,114.8875951,0,0,0,0,0,0,0,,,,
1309.255999,5114,0,1.53E-06,0,0,0,0,0,0,37.37516836,0,0,0,0,0,0,0,,,,
1309.263999,5114,0,1.52E-06,0,0,0,0,0,0,364.5773807,0,0,0,0,0,0,0,,,,
1309.271999,5114,0,1.50E-06,0,0,0,0,0,0,-42.34222597,0,0,0,0,0,0,0,,,,
1309.279999,5114,0,1.49E-06,0,0,0,0,0,0,227.0563276,0,0,0,0,0,0,0,,,,
1309.287999,5114,0,1.47E-06,0,0,0,0,0,0,150.0859681,0,0,0,0,0,0,0,,,,
1309.295999,5114,0,1.46E-06,0,0,0,0,0,0,13.41047677,0,0,0,0,0,0,0,,,,
1309.303999,5114,0,1.45E-06,0,0,0,0,0,0,308.031913,0,0,0,0,0,0,0,,,,
1309.311999,5114,0,1.43E-06,0,0,0,0,0,0,-59.36053116,0,0,0,0,0,0,0,,,,
1309.319999,5114,0,1.42E-06,0,0,0,0,0,0,223.4581568,0,0,0,0,0,0,0,,,,
1309.327999,5114,0,-5.02E-07,0,0,0,0,0,0,150.0323071,0,0,0,0,0,0,0,,,,
1309.335999,5114,0,-2.31E-06,0,0,0,0,0,0,33.26940097,0,0,0,0,0,0,0,,,,
1309.343999,5114,0,-1.73E-06,0,0,0,0,0,0,334.3795567,0,0,0,0,0,0,0,,,,
1309.351999,5114,0,-1.77E-06,0,0,0,0,0,0,-34.19491019,0,0,0,0,0,0,0,,,,
1309.359999,5114,0,-1.87E-06,0,0,0,0,0,0,244.6766166,0,0,0,0,0,0,0,,,,
1309.367999,5114,0,-1.71E-06,0,0,0,0,0,0,165.7057427,0,0,0,0,0,0,0,,,,
1309.375999,5114,0,-1.81E-06,0,0,0,0,0,0,50.7619883,0,0,0,0,0,0,0,,,,
1309.383999,5114,0,-1.72E-06,0,0,0,0,0,0,360.1302846,0,0,0,0,0,0,0,,,,
1309.391999,5114,0,-1.75E-06,0,0,0,0,0,0,-25.19808217,0,0,0,0,0,0,0,,,,
1309.399999,5114,0,-1.71E-06,0,0,0,0,0,0,223.7710729,0,0,0,0,0,0,0,,,,
1309.407999,5114,0,-1.70E-06,0,0,0,0,0,0,143.7818006,0,0,0,0,0,0,0,,,,
1309.415999,5114,0,-1.68E-06,0,0,0,0,0,0,26.99099669,0,0,0,0,0,0,0,,,,
1309.423999,5114,0,-1.67E-06,0,0,0,0,0,0,338.1025447,0,0,0,0,0,0,0,,,,
1309.431999,5114,0,-1.65E-06,0,0,0,0,0,0,-22.51005995,0,0,0,0,0,0,0,,,,
1309.439999,5115,0,-1.64E-06,0,0,0,0,0,0,247.6554973,0,0,0,0,0,0,0,,,,
1309.447999,5115,0,-1.62E-06,0,0,0,0,0,0,156.3334578,0,0,0,0,0,0,0,,,,
1309.455999,5115,0,-1.61E-06,0,0,0,0,0,0,28.38124904,0,0,0,0,0,0,0,,,,
1309.463999,5115,0,-1.59E-06,0,0,0,0,0,0,341.1855335,0,0,0,0,0,0,0,,,,
1309.471999,5115,0,-1.58E-06,0,0,0,0,0,0,-53.05817512,0,0,0,0,0,0,0,,,,
1309.479999,5115,0,-1.56E-06,0,0,0,0,0,0,210.469683,0,0,0,0,0,0,0,,,,
1309.487999,5115,0,-1.55E-06,0,0,0,0,0,0,131.644601,0,0,0,0,0,0,0,,,,
1309.495999,5115,0,-1.53E-06,0,0,0,0,0,0,-25.87298337,0,0,0,0,0,0,0,,,,
1309.503999,5115,0,-1.52E-06,0,0,0,0,0,0,298.9247389,0,0,0,0,0,0,0,,,,
1309.511999,5115,0,-1.50E-06,0,0,0,0,0,0,-50.80181574,0,0,0,0,0,0,0,,,,
1309.519999,5115,0,-1.49E-06,0,0,0,0,0,0,208.0334197,0,0,0,0,0,0,0,,,,
1309.527999,5115,0,-1.47E-06,0,0,0,0,0,0,121.4367559,0,0,0,0,0,0,0,,,,
1309.535999,5115,0,-1.46E-06,0,0,0,0,0,0,-7.304016862,0,0,0,0,0,0,0,,,,
1309.543999,5115,0,-1.45E-06,0,0,0,0,0,0,318.7899556,0,0,0,0,0,0,0,,,,
1309.551999,5115,0,-1.43E-06,0,0,0,0,0,0,-80.96607999,0,0,0,0,0,0,0,,,,
1309.559999,5115,0,-1.42E-06,0,0,0,0,0,0,179.5624586,0,0,0,0,0,0,0,,,,
1309.567999,5115,0,5.02E-07,0,0,0,0,0,0,133.9594822,0,0,0,0,0,0,0,,,,
1309.575999,5115,0,2.31E-06,0,0,0,0,0,0,-25.57828365,0,0,0,0,0,0,0,,,,
1309.583999,5115,0,1.73E-06,0,0,0,0,0,0,289.764606,0,0,0,0,0,0,0,,,,
1309.591999,5115,0,1.77E-06,0,0,0,0,0,0,-62.88880789,0,0,0,0,0,0,0,,,,
1309.599999,5115,0,1.87E-06,0,0,0,0,0,0,193.9792446,0,0,0,0,0,0,0,,,,
1309.607999,5115,0,1.71E-06,0,0,0,0,0,0,111.7163961,0,0,0,0,0,0,0,,,,
1309.615999,5115,0,1.81E-06,0,0,0,0,0,0,-44.52964258,0,0,0,0,0,0,0,,,,
1309.623999,5115,0,1.72E-06,0,0,0,0,0,0,289.0415379,0,0,0,0,0,0,0,,,,
1309.631999,5115,0,1.75E-06,0,0,0,0,0,0,-88.37043542,0,0,0,0,0,0,0,,,,
1309.639999,5115,0,1.71E-06,0,0,0,0,0,0,167.3414925,0,0,0,0,0,0,0,,,,
1309.647999,5115,0,1.70E-06,0,0,0,0,0,0,120.4478862,0,0,0,0,0,0,0,,,,
1309.655999,5115,0,1.68E-06,0,0,0,0,0,0,-48.20633185,0,0,0,0,0,0,0,,,,
1309.663999,5115,0,1.67E-06,0,0,0,0,0,0,280.5079437,0,0,0,0,0,0,0,,,,
1309.671999,5115,0,1.65E-06,0,0,0,0,0,0,-71.01214421,0,0,0,0,0,0,0,,,,
1309.679999,5115,0,1.64E-06,0,0,0,0,0,0,179.2473782,0,0,0,0,0,0,0,,,,
1309.687999,5115,0,1.62E-06,0,0,0,0,0,0,122.4899217,0,0,0,0,0,0,0,,,,
1309.695999,5116,0,1.61E-06,0,0,0,0,0,0,-17.32822207,0,0,0,0,0,0,0,,,,
1309.703999,5116,0,1.59E-06,0,0,0,0,0,0,314.3516854,0,0,0,0,0,0,0,,,,
1309.711999,5116,0,1.58E-06,0,0,0,0,0,0,-105.1952057,0,0,0,0,0,0,0,,,,
1309.719999,5116,0,1.56E-06,0,0,0,0,0,0,127.2333209,0,0,0,0,0,0,0,,,,
1309.727999,5116,0,1.55E-06,0,0,0,0,0,0,93.40355942,0,0,0,0,0,0,0,,,,
1309.735999,5116,0,1.53E-06,0,0,0,0,0,0,-78.49791597,0,0,0,0,0,0,0,,,,
1309.743999,5116,0,1.52E-06,0,0,0,0,0,0,265.5866253,0,0,0,0,0,0,0,,,,
1309.751999,5116,0,1.50E-06,0,0,0,0,0,0,-110.3959984,0,0,0,0,0,0,0,,,,
1309.759999,5116,0,1.49E-06,0,0,0,0,0,0,120.0269376,0,0,0,0,0,0,0,,,,
1309.767999,5116,0,1.47E-06,0,0,0,0,0,0,91.80333277,0,0,0,0,0,0,0,,,,
1309.775999,5116,0,1.46E-06,0,0,0,0,0,0,-92.12741946,0,0,0,0,0,0,0,,,,
1309.783999,5116,0,1.45E-06,0,0,0,0,0,0,231.4230253,0,0,0,0,0,0,0,,,,
1309.791999,5116,0,1.43E-06,0,0,0,0,0,0,-123.6128254,0,0,0,0,0,0,0,,,,
1309.799999,5116,0,1.42E-06,0,0,0,0,0,0,125.8688887,0,0,0,0,0,0,0,,,,
1309.807999,5116,0,-5.02E-07,0,0,0,0,0,0,95.06219581,0,0,0,0,0,0,0,,,,
1309.815999,5116,0,-2.31E-06,0,0,0,0,0,0,-88.25418371,0,0,0,0,0,0,0,,,,
1309.823999,5116,0,-1.73E-06,0,0,0,0,0,0,262.1122741,0,0,0,0,0,0,0,,,,
1309.831999,5116,0,-1.77E-06,0,0,0,0,0,0,-94.97817159,0,0,0,0,0,0,0,,,,
1309.839999,5116,0,-1.87E-06,0,0,0,0,0,0,118.2598915,0,0,0,0,0,0,0,,,,
1309.847999,5116,0,-1.71E-06,0,0,0,0,0,0,89.68042425,0,0,0,0,0,0,0,,,,
1309.855999,5116,0,-1.81E-06,0,0,0,0,0,0,-98.67481655,0,0,0,0,0,0,0,,,,
1309.863999,5116,0,-1.72E-06,0,0,0,0,0,0,231.2634924,0,0,0,0,0,0,0,,,,
1309.871999,5116,0,-1.75E-06,0,0,0,0,0,0,-112.0797553,0,0,0,0,0,0,0,,,,
1309.879999,5116,0,-1.71E-06,0,0,0,0,0,0,133.6806102,0,0,0,0,0,0,0,,,,
1309.887999,5116,0,-1.70E-06,0,0,0,0,0,0,108.7012392,0,0,0,0,0,0,0,,,,
1309.895999,5116,0,-1.68E-06,0,0,0,0,0,0,-87.75733748,0,0,0,0,0,0,0,,,,
1309.903999,5116,0,-1.67E-06,0,0,0,0,0,0,269.5770245,0,0,0,0,0,0,0,,,,
1309.911999,5116,0,-1.65E-06,0,0,0,0,0,0,-89.63032754,0,0,0,0,0,0,0,,,,
1309.919999,5116,0,-1.64E-06,0,0,0,0,0,0,137.0244466,0,0,0,0,0,0,0,,,,
1309.927999,5116,0,-1.62E-06,0,0,0,0,0,0,144.2160212,0,0,0,0,0,0,0,,,,
1309.935999,5116,0,-1.61E-06,0,0,0,0,0,0,-85.44338034,0,0,0,0,0,0,0,,,,
1309.943999,5116,0,-1.59E-06,0,0,0,0,0,0,242.8599081,0,0,0,0,0,0,0,,,,
1309.951999,5117,0,-1.58E-06,0,0,0,0,0,0,-91.60274404,0,0,0,0,0,0,0,,,,
1309.959999,5117,0,-1.56E-06,0,0,0,0,0,0,118.3196575,0,0,0,0,0,0,0,,,,
1309.967999,5117,0,-1.55E-06,0,0,0,0,0,0,111.8148097,0,0,0,0,0,0,0,,,,
1309.975999,5117,0,-1.53E-06,0,0,0,0,0,0,-90.63481768,0,0,0,0,0,0,0,,,,
1309.983999,5117,0,-1.52E-06,0,0,0,0,0,0,251.3426405,0,0,0,0,0,0,0,,,,
1309.991999,5117,0,-1.50E-06,0,0,0,0,0,0,-98.69743344,0,0,0,0,0,0,0,,,,
1309.999999,5117,0,-1.49E-06,0,0,0,0,0,0,112.4544904,0,0,0,0,0,0,0,,,,
1310.007999,5117,0,-1.47E-06,0,0,0,0,0,0,100.8466121,0,0,0,0,0,0,0,,,,
1310.015999,5117,0,-1.46E-06,0,0,0,0,0,0,-122.1509219,0,0,0,0,0,0,0,,,,
1310.023999,5117,0,-1.45E-06,0,0,0,0,0,0,243.6862947,0,0,0,0,0,0,0,,,,
1310.031999,5117,0,-1.43E-06,0,0,0,0,0,0,-103.317554,0,0,0,0,0,0,0,,,,
1310.039999,5117,0,-1.42E-06,0,0,0,0,0,0,83.71265686,0,0,0,0,0,0,0,,,,
1310.047999,5117,0,5.02E-07,0,0,0,0,0,0,89.63993967,0,0,0,0,0,0,0,,,,
1310.055999,5117,0,2.31E-06,0,0,0,0,0,0,-114.9991058,0,0,0,0,0,0,0,,,,
1310.063999,5117,0,1.73E-06,0,0,0,0,0,0,249.5455032,0,0,0,0,0,0,0,,,,
1310.071999,5117,0,1.77E-06,0,0,0,0,0,0,-114.4939358,0,0,0,0,0,0,0,,,,
1310.079999,5117,0,1.87E-06,0,0,0,0,0,0,76.83015285,0,0,0,0,0,0,0,,,,
1310.087999,5117,0,1.71E-06,0,0,0,0,0,0,115.0677681,0,0,0,0,0,0,0,,,,
1310.095999,5117,0,1.81E-06,0,0,0,0,0,0,-114.031537,0,0,0,0,0,0,0,,,,
1310.103999,5117,0,1.72E-06,0,0,0,0,0,0,243.5721225,0,0,0,0,0,0,0,,,,
1310.111999,5117,0,1.75E-06,0,0,0,0,0,0,-75.88500377,0,0,0,0,0,0,0,,,,
1310.119999,5117,0,1.71E-06,0,0,0,0,0,0,98.72679891,0,0,0,0,0,0,0,,,,
1310.127999,5117,0,1.70E-06,0,0,0,0,0,0,105.2320812,0,0,0,0,0,0,0,,,,
1310.135999,5117,0,1.68E-06,0,0,0,0,0,0,-121.514002,0,0,0,0,0,0,0,,,,
1310.143999,5117,0,1.67E-06,0,0,0,0,0,0,241.9491377,0,0,0,0,0,0,0,,,,
1310.151999,5117,0,1.65E-06,0,0,0,0,0,0,-92.39875634,0,0,0,0,0,0,0,,,,
1310.159999,5117,0,1.64E-06,0,0,0,0,0,0,76.62663126,0,0,0,0,0,0,0,,,,
1310.167999,5117,0,1.62E-06,0,0,0,0,0,0,103.809522,0,0,0,0,0,0,0,,,,
1310.175999,5117,0,1.61E-06,0,0,0,0,0,0,-124.845363,0,0,0,0,0,0,0,,,,
1310.183999,5117,0,1.59E-06,0,0,0,0,0,0,236.2742466,0,0,0,0,0,0,0,,,,
1310.191999,5117,0,1.58E-06,0,0,0,0,0,0,-100.8275026,0,0,0,0,0,0,0,,,,
1310.199999,5117,0,1.56E-06,0,0,0,0,0,0,76.5696056,0,0,0,0,0,0,0,,,,
1310.207999,5118,0,1.55E-06,0,0,0,0,0,0,119.0673421,0,0,0,0,0,0,0,,,,
1310.215999,5118,0,1.53E-06,0,0,0,0,0,0,-136.7060647,0,0,0,0,0,0,0,,,,
1310.223999,5118,0,1.52E-06,0,0,0,0,0,0,207.9309282,0,0,0,0,0,0,0,,,,
1310.231999,5118,0,1.50E-06,0,0,0,0,0,0,-127.0575111,0,0,0,0,0,0,0,,,,
1310.239999,5118,0,1.49E-06,0,0,0,0,0,0,42.28668905,0,0,0,0,0,0,0,,,,
1310.247999,5118,0,1.47E-06,0,0,0,0,0,0,100.2820043,0,0,0,0,0,0,0,,,,
1310.255999,5118,0,1.46E-06,0,0,0,0,0,0,-130.4809732,0,0,0,0,0,0,0,,,,
1310.263999,5118,0,1.45E-06,0,0,0,0,0,0,228.2172857,0,0,0,0,0,0,0,,,,
1310.271999,5118,0,1.43E-06,0,0,0,0,0,0,-98.33778115,0,0,0,0,0,0,0,,,,
1310.279999,5118,0,1.42E-06,0,0,0,0,0,0,70.06838029,0,0,0,0,0,0,0,,,,
1310.287999,5118,0,-5.02E-07,0,0,0,0,0,0,114.8674654,0,0,0,0,0,0,0,,,,
1310.295999,5118,0,-2.31E-06,0,0,0,0,0,0,-146.5233288,0,0,0,0,0,0,0,,,,
1310.303999,5118,0,-1.73E-06,0,0,0,0,0,0,205.3292624,0,0,0,0,0,0,0,,,,
1310.311999,5118,0,-1.77E-06,0,0,0,0,0,0,-111.7446837,0,0,0,0,0,0,0,,,,
1310.319999,5118,0,-1.87E-06,0,0,0,0,0,0,49.99137543,0,0,0,0,0,0,0,,,,
1310.327999,5118,0,-1.71E-06,0,0,0,0,0,0,102.7583221,0,0,0,0,0,0,0,,,,
1310.335999,5118,0,-1.81E-06,0,0,0,0,0,0,-137.137509,0,0,0,0,0,0,0,,,,
1310.343999,5118,0,-1.72E-06,0,0,0,0,0,0,227.1504047,0,0,0,0,0,0,0,,,,
1310.351999,5118,0,-1.75E-06,0,0,0,0,0,0,-99.81975715,0,0,0,0,0,0,0,,,,
1310.359999,5118,0,-1.71E-06,0,0,0,0,0,0,64.5679399,0,0,0,0,0,0,0,,,,
1310.367999,5118,0,-1.70E-06,0,0,0,0,0,0,137.5081801,0,0,0,0,0,0,0,,,,
1310.375999,5118,0,-1.68E-06,0,0,0,0,0,0,-113.839342,0,0,0,0,0,0,0,,,,
1310.383999,5118,0,-1.67E-06,0,0,0,0,0,0,234.3979423,0,0,0,0,0,0,0,,,,
1310.391999,5118,0,-1.65E-06,0,0,0,0,0,0,-108.3091652,0,0,0,0,0,0,0,,,,
1310.399999,5118,0,-1.64E-06,0,0,0,0,0,0,35.62651873,0,0,0,0,0,0,0,,,,
1310.407999,5118,0,-1.62E-06,0,0,0,0,0,0,105.0824821,0,0,0,0,0,0,0,,,,
1310.415999,5118,0,-1.61E-06,0,0,0,0,0,0,-323.9574926,0,0,0,0,0,0,0,,,,
1310.423999,5118,0,-1.59E-06,0,0,0,0,0,0,-14.39559466,0,0,0,0,0,0,0,,,,
1310.431999,5118,0,-1.58E-06,0,0,0,0,0,0,41.97600511,0,0,0,0,0,0,0,,,,
1310.439999,5118,0,-1.56E-06,0,0,0,0,0,0,53.09631476,0,0,0,0,0,0,0,,,,
1310.447999,5118,0,-1.55E-06,0,0,0,0,0,0,-26.01267615,0,0,0,0,0,0,0,,,,
1310.455999,5118,0,-1.53E-06,0,0,0,0,0,0,23.80674554,0,0,0,0,0,0,0,,,,
1310.463999,5119,0,-1.52E-06,0,0,0,0,0,0,82.44372658,0,0,0,0,0,0,0,,,,
1310.471999,5119,0,-1.50E-06,0,0,0,0,0,0,-97.51251195,0,0,0,0,0,0,0,,,,
1310.479999,5119,0,-1.49E-06,0,0,0,0,0,0,152.355243,0,0,0,0,0,0,0,,,,
1310.487999,5119,0,-1.47E-06,0,0,0,0,0,0,-72.9472869,0,0,0,0,0,0,0,,,,
1310.495999,5119,0,-1.46E-06,0,0,0,0,0,0,13.57891223,0,0,0,0,0,0,0,,,,
1310.503999,5119,0,-1.45E-06,0,0,0,0,0,0,103.6177602,0,0,0,0,0,0,0,,,,
1310.511999,5119,0,-1.43E-06,0,0,0,0,0,0,-129.6566384,0,0,0,0,0,0,0,,,,
1310.519999,5119,0,-1.42E-06,0,0,0,0,0,0,190.6951744,0,0,0,0,0,0,0,,,,
1310.527999,5119,0,5.02E-07,0,0,0,0,0,0,-95.17697916,0,0,0,0,0,0,0,,,,
1310.535999,5119,0,2.31E-06,0,0,0,0,0,0,31.16334808,0,0,0,0,0,0,0,,,,
1310.543999,5119,0,1.73E-06,0,0,0,0,0,0,148.8495604,0,0,0,0,0,0,0,,,,
1310.551999,5119,0,1.77E-06,0,0,0,0,0,0,-137.37939,0,0,0,0,0,0,0,,,,
1310.559999,5119,0,1.87E-06,0,0,0,0,0,0,200.3887793,0,0,0,0,0,0,0,,,,
1310.567999,5119,0,1.71E-06,0,0,0,0,0,0,-82.73351174,0,0,0,0,0,0,0,,,,
1310.575999,5119,0,1.81E-06,0,0,0,0,0,0,24.8824388,0,0,0,0,0,0,0,,,,
1310.583999,5119,0,1.72E-06,0,0,0,0,0,0,132.3894226,0,0,0,0,0,0,0,,,,
1310.591999,5119,0,1.75E-06,0,0,0,0,0,0,-145.072933,0,0,0,0,0,0,0,,,,
1310.599999,5119,0,1.71E-06,0,0,0,0,0,0,204.3921255,0,0,0,0,0,0,0,,,,
1310.607999,5119,0,1.70E-06,0,0,0,0,0,0,-76.51963897,0,0,0,0,0,0,0,,,,
1310.615999,5119,0,1.68E-06,0,0,0,0,0,0,34.63300451,0,0,0,0,0,0,0,,,,
1310.623999,5119,0,1.67E-06,0,0,0,0,0,0,145.4932579,0,0,0,0,0,0,0,,,,
1310.631999,5119,0,1.65E-06,0,0,0,0,0,0,-117.3464284,0,0,0,0,0,0,0,,,,
1310.639999,5119,0,1.64E-06,0,0,0,0,0,0,229.0368771,0,0,0,0,0,0,0,,,,
1310.647999,5119,0,1.62E-06,0,0,0,0,0,0,-84.24199518,0,0,0,0,0,0,0,,,,
1310.655999,5119,0,1.61E-06,0,0,0,0,0,0,17.88549365,0,0,0,0,0,0,0,,,,
1310.663999,5119,0,1.59E-06,0,0,0,0,0,0,118.246497,0,0,0,0,0,0,0,,,,
1310.671999,5119,0,1.58E-06,0,0,0,0,0,0,-169.5210602,0,0,0,0,0,0,0,,,,
1310.679999,5119,0,1.56E-06,0,0,0,0,0,0,194.3016216,0,0,0,0,0,0,0,,,,
1310.687999,5119,0,1.55E-06,0,0,0,0,0,0,-109.3934127,0,0,0,0,0,0,0,,,,
1310.695999,5119,0,1.53E-06,0,0,0,0,0,0,-6.194838576,0,0,0,0,0,0,0,,,,
1310.703999,5119,0,1.52E-06,0,0,0,0,0,0,117.0635864,0,0,0,0,0,0,0,,,,
1310.711999,5119,0,1.50E-06,0,0,0,0,0,0,-188.3277074,0,0,0,0,0,0,0,,,,
1310.719999,5120,0,1.49E-06,0,0,0,0,0,0,181.9352493,0,0,0,0,0,0,0,,,,
1310.727999,5120,0,1.47E-06,0,0,0,0,0,0,-102.039494,0,0,0,0,0,0,0,,,,
1310.735999,5120,0,1.46E-06,0,0,0,0,0,0,-22.19159354,0,0,0,0,0,0,0,,,,
1310.743999,5120,0,1.45E-06,0,0,0,0,0,0,114.3557381,0,0,0,0,0,0,0,,,,
1310.751999,5120,0,1.43E-06,0,0,0,0,0,0,-177.7348549,0,0,0,0,0,0,0,,,,
1310.759999,5120,0,1.42E-06,0,0,0,0,0,0,168.6158548,0,0,0,0,0,0,0,,,,
1310.767999,5120,0,-5.02E-07,0,0,0,0,0,0,-118.0081337,0,0,0,0,0,0,0,,,,
1310.775999,5120,0,-2.31E-06,0,0,0,0,0,0,-8.58874161,0,0,0,0,0,0,0,,,,
1310.783999,5120,0,-1.73E-06,0,0,0,0,0,0,125.9768584,0,0,0,0,0,0,0,,,,
1310.791999,5120,0,-1.77E-06,0,0,0,0,0,0,-199.8392426,0,0,0,0,0,0,0,,,,
1310.799999,5120,0,-1.87E-06,0,0,0,0,0,0,175.7107352,0,0,0,0,0,0,0,,,,
1310.807999,5120,0,-1.71E-06,0,0,0,0,0,0,-87.93725963,0,0,0,0,0,0,0,,,,
1310.815999,5120,0,-1.81E-06,0,0,0,0,0,0,-9.003473311,0,0,0,0,0,0,0,,,,
1310.823999,5120,0,-1.72E-06,0,0,0,0,0,0,122.999341,0,0,0,0,0,0,0,,,,
1310.831999,5120,0,-1.75E-06,0,0,0,0,0,0,-211.2270035,0,0,0,0,0,0,0,,,,
1310.839999,5120,0,-1.71E-06,0,0,0,0,0,0,153.0266973,0,0,0,0,0,0,0,,,,
1310.847999,5120,0,-1.70E-06,0,0,0,0,0,0,-108.9896959,0,0,0,0,0,0,0,,,,
1310.855999,5120,0,-1.68E-06,0,0,0,0,0,0,-28.8893565,0,0,0,0,0,0,0,,,,
1310.863999,5120,0,-1.67E-06,0,0,0,0,0,0,118.9471814,0,0,0,0,0,0,0,,,,
1310.871999,5120,0,-1.65E-06,0,0,0,0,0,0,-230.5723826,0,0,0,0,0,0,0,,,,
1310.879999,5120,0,-1.64E-06,0,0,0,0,0,0,123.2798713,0,0,0,0,0,0,0,,,,
1310.887999,5120,0,-1.62E-06,0,0,0,0,0,0,-271.5720157,0,0,0,0,0,0,0,,,,
1310.895999,5120,0,-1.61E-06,0,0,0,0,0,0,-196.4925527,0,0,0,0,0,0,0,,,,
1310.903999,5120,0,-1.59E-06,0,0,0,0,0,0,264.2920006,0,0,0,0,0,0,0,,,,
1310.911999,5120,0,-1.58E-06,0,0,0,0,0,0,-301.4757791,0,0,0,0,0,0,0,,,,
1310.919999,5120,0,-1.56E-06,0,0,0,0,0,0,8.014177376,0,0,0,0,0,0,0,,,,
1310.927999,5120,0,-1.55E-06,0,0,0,0,0,0,8.168829263,0,0,0,0,0,0,0,,,,
1310.935999,5120,0,-1.53E-06,0,0,0,0,0,0,-286.3239813,0,0,0,0,0,0,0,,,,
1310.943999,5120,0,-1.52E-06,0,0,0,0,0,0,337.8031823,0,0,0,0,0,0,0,,,,
1310.951999,5120,0,-1.50E-06,0,0,0,0,0,0,200.2786998,0,0,0,0,0,0,0,,,,
1310.959999,5120,0,-1.49E-06,0,0,0,0,0,0,-148.7589116,0,0,0,0,0,0,0,,,,
1310.967999,5120,0,-1.47E-06,0,0,0,0,0,0,-160.4542961,0,0,0,0,0,0,0,,,,
1310.975999,5121,0,-1.46E-06,0,0,0,0,0,0,-74.54950217,0,0,0,0,0,0,0,,,,
1310.983999,5121,0,-1.45E-06,0,0,0,0,0,0,-52.63505769,0,0,0,0,0,0,0,,,,
1310.991999,5121,0,-1.43E-06,0,0,0,0,0,0,-209.8434888,0,0,0,0,0,0,0,,,,
1310.999999,5121,0,-1.42E-06,0,0,0,0,0,0,14.76648861,0,0,0,0,0,0,0,,,,
1311.007999,5121,0,5.02E-07,0,0,0,0,0,0,-153.5054904,0,0,0,0,0,0,0,,,,
1311.015999,5121,0,2.31E-06,0,0,0,0,0,0,-93.01273864,0,0,0,0,0,0,0,,,,
1311.023999,5121,0,1.73E-06,0,0,0,0,0,0,47.04875888,0,0,0,0,0,0,0,,,,
1311.031999,5121,0,1.77E-06,0,0,0,0,0,0,-214.6018432,0,0,0,0,0,0,0,,,,
1311.039999,5121,0,1.87E-06,0,0,0,0,0,0,76.79331134,0,0,0,0,0,0,0,,,,
1311.047999,5121,0,1.71E-06,0,0,0,0,0,0,-155.9112603,0,0,0,0,0,0,0,,,,
1311.055999,5121,0,1.81E-06,0,0,0,0,0,0,-128.4727213,0,0,0,0,0,0,0,,,,
1311.063999,5121,0,1.72E-06,0,0,0,0,0,0,50.61343734,0,0,0,0,0,0,0,,,,
1311.071999,5121,0,1.75E-06,0,0,0,0,0,0,-265.2239334,0,0,0,0,0,0,0,,,,
1311.079999,5121,0,1.71E-06,0,0,0,0,0,0,84.28146616,0,0,0,0,0,0,0,,,,
1311.087999,5121,0,1.70E-06,0,0,0,0,0,0,-128.1299891,0,0,0,0,0,0,0,,,,
1311.095999,5121,0,1.68E-06,0,0,0,0,0,0,-126.3645851,0,0,0,0,0,0,0,,,,
1311.103999,5121,0,1.67E-06,0,0,0,0,0,0,79.6523736,0,0,0,0,0,0,0,,,,
1311.111999,5121,0,1.65E-06,0,0,0,0,0,0,-254.5105902,0,0,0,0,0,0,0,,,,
1311.119999,5121,0,1.64E-06,0,0,0,0,0,0,69.45566123,0,0,0,0,0,0,0,,,,
1311.127999,5121,0,1.62E-06,0,0,0,0,0,0,-142.2833863,0,0,0,0,0,0,0,,,,
1311.135999,5121,0,1.61E-06,0,0,0,0,0,0,-141.4063806,0,0,0,0,0,0,0,,,,
1311.143999,5121,0,1.59E-06,0,0,0,0,0,0,65.62077618,0,0,0,0,0,0,0,,,,
1311.151999,5121,0,1.58E-06,0,0,0,0,0,0,-293.4020749,0,0,0,0,0,0,0,,,,
1311.159999,5121,0,1.56E-06,0,0,0,0,0,0,33.4075707,0,0,0,0,0,0,0,,,,
1311.167999,5121,0,1.55E-06,0,0,0,0,0,0,-152.6272256,0,0,0,0,0,0,0,,,,
1311.175999,5121,0,1.53E-06,0,0,0,0,0,0,-177.3855668,0,0,0,0,0,0,0,,,,
1311.183999,5121,0,1.52E-06,0,0,0,0,0,0,42.07759208,0,0,0,0,0,0,0,,,,
1311.191999,5121,0,1.50E-06,0,0,0,0,0,0,-289.9374692,0,0,0,0,0,0,0,,,,
1311.199999,5121,0,1.49E-06,0,0,0,0,0,0,5.365412771,0,0,0,0,0,0,0,,,,
1311.207999,5121,0,1.47E-06,0,0,0,0,0,0,-166.9346219,0,0,0,0,0,0,0,,,,
1311.215999,5121,0,1.46E-06,0,0,0,0,0,0,-153.6749253,0,0,0,0,0,0,0,,,,
1311.223999,5121,0,1.45E-06,0,0,0,0,0,0,54.69434959,0,0,0,0,0,0,0,,,,
1311.231999,5122,0,1.43E-06,0,0,0,0,0,0,-268.99013,0,0,0,0,0,0,0,,,,
1311.239999,5122,0,1.42E-06,0,0,0,0,0,0,61.85022708,0,0,0,0,0,0,0,,,,
1311.247999,5122,0,-5.02E-07,0,0,0,0,0,0,-117.7136323,0,0,0,0,0,0,0,,,,
1311.255999,5122,0,-2.31E-06,0,0,0,0,0,0,-121.7137368,0,0,0,0,0,0,0,,,,
1311.263999,5122,0,-1.73E-06,0,0,0,0,0,0,91.35983172,0,0,0,0,0,0,0,,,,
1311.271999,5122,0,-1.77E-06,0,0,0,0,0,0,-244.5057767,0,0,0,0,0,0,0,,,,
1311.279999,5122,0,-1.87E-06,0,0,0,0,0,0,103.2194067,0,0,0,0,0,0,0,,,,
1311.287999,5122,0,-1.71E-06,0,0,0,0,0,0,-74.83808825,0,0,0,0,0,0,0,,,,
1311.295999,5122,0,-1.81E-06,0,0,0,0,0,0,-115.9830495,0,0,0,0,0,0,0,,,,
1311.303999,5122,0,-1.72E-06,0,0,0,0,0,0,120.7880063,0,0,0,0,0,0,0,,,,
1311.311999,5122,0,-1.75E-06,0,0,0,0,0,0,-217.3514865,0,0,0,0,0,0,0,,,,
1311.319999,5122,0,-1.71E-06,0,0,0,0,0,0,96.48909936,0,0,0,0,0,0,0,,,,
1311.327999,5122,0,-1.70E-06,0,0,0,0,0,0,-69.85690371,0,0,0,0,0,0,0,,,,
1311.335999,5122,0,-1.68E-06,0,0,0,0,0,0,-99.1485322,0,0,0,0,0,0,0,,,,
1311.343999,5122,0,-1.67E-06,0,0,0,0,0,0,139.3985873,0,0,0,0,0,0,0,,,,
1311.351999,5122,0,-1.65E-06,0,0,0,0,0,0,-224.6583268,0,0,0,0,0,0,0,,,,
1311.359999,5122,0,-1.64E-06,0,0,0,0,0,0,89.66416165,0,0,0,0,0,0,0,,,,
1311.367999,5122,0,-1.62E-06,0,0,0,0,0,0,-44.02726003,0,0,0,0,0,0,0,,,,
1311.375999,5122,0,-1.61E-06,0,0,0,0,0,0,-89.99970926,0,0,0,0,0,0,0,,,,
1311.383999,5122,0,-1.59E-06,0,0,0,0,0,0,146.972647,0,0,0,0,0,0,0,,,,
1311.391999,5122,0,-1.58E-06,0,0,0,0,0,0,-415.2132093,0,0,0,0,0,0,0,,,,
1311.399999,5122,0,-1.56E-06,0,0,0,0,0,0,-264.4591925,0,0,0,0,0,0,0,,,,
1311.407999,5122,0,-1.55E-06,0,0,0,0,0,0,-158.0484331,0,0,0,0,0,0,0,,,,
1311.415999,5122,0,-1.53E-06,0,0,0,0,0,0,-149.99326,0,0,0,0,0,0,0,,,,
1311.423999,5122,0,-1.52E-06,0,0,0,0,0,0,190.1932436,0,0,0,0,0,0,0,,,,
1311.431999,5122,0,-1.50E-06,0,0,0,0,0,0,-142.7922016,0,0,0,0,0,0,0,,,,
1311.439999,5122,0,-1.49E-06,0,0,0,0,0,0,17.88334636,0,0,0,0,0,0,0,,,,
1311.447999,5122,0,-1.47E-06,0,0,0,0,0,0,95.22320634,0,0,0,0,0,0,0,,,,
1311.455999,5122,0,-1.46E-06,0,0,0,0,0,0,-201.832006,0,0,0,0,0,0,0,,,,
1311.463999,5122,0,-1.45E-06,0,0,0,0,0,0,138.021196,0,0,0,0,0,0,0,,,,
1311.471999,5122,0,-1.43E-06,0,0,0,0,0,0,-78.08398905,0,0,0,0,0,0,0,,,,
1311.479999,5122,0,-1.42E-06,0,0,0,0,0,0,-55.54581698,0,0,0,0,0,0,0,,,,
1311.487999,5123,0,5.02E-07,0,0,0,0,0,0,168.4398596,0,0,0,0,0,0,0,,,,
1311.495999,5123,0,2.31E-06,0,0,0,0,0,0,-152.790748,0,0,0,0,0,0,0,,,,
1311.503999,5123,0,1.73E-06,0,0,0,0,0,0,156.9880783,0,0,0,0,0,0,0,,,,
1311.511999,5123,0,1.77E-06,0,0,0,0,0,0,36.16028306,0,0,0,0,0,0,0,,,,
1311.519999,5123,0,1.87E-06,0,0,0,0,0,0,-25.37109722,0,0,0,0,0,0,0,,,,
1311.527999,5123,0,1.71E-06,0,0,0,0,0,0,192.7989211,0,0,0,0,0,0,0,,,,
1311.535999,5123,0,1.81E-06,0,0,0,0,0,0,-130.8463869,0,0,0,0,0,0,0,,,,
1311.543999,5123,0,1.72E-06,0,0,0,0,0,0,157.088955,0,0,0,0,0,0,0,,,,
1311.551999,5123,0,1.75E-06,0,0,0,0,0,0,25.0633797,0,0,0,0,0,0,0,,,,
1311.559999,5123,0,1.71E-06,0,0,0,0,0,0,-52.51448308,0,0,0,0,0,0,0,,,,
1311.567999,5123,0,1.70E-06,0,0,0,0,0,0,181.7611739,0,0,0,0,0,0,0,,,,
1311.575999,5123,0,1.68E-06,0,0,0,0,0,0,-162.0487053,0,0,0,0,0,0,0,,,,
1311.583999,5123,0,1.67E-06,0,0,0,0,0,0,130.0239084,0,0,0,0,0,0,0,,,,
1311.591999,5123,0,1.65E-06,0,0,0,0,0,0,21.70867701,0,0,0,0,0,0,0,,,,
1311.599999,5123,0,1.64E-06,0,0,0,0,0,0,-61.42692871,0,0,0,0,0,0,0,,,,
1311.607999,5123,0,1.62E-06,0,0,0,0,0,0,178.3568342,0,0,0,0,0,0,0,,,,
1311.615999,5123,0,1.61E-06,0,0,0,0,0,0,-158.6275199,0,0,0,0,0,0,0,,,,
1311.623999,5123,0,1.59E-06,0,0,0,0,0,0,135.9979687,0,0,0,0,0,0,0,,,,
1311.631999,5123,0,1.58E-06,0,0,0,0,0,0,18.47694926,0,0,0,0,0,0,0,,,,
1311.639999,5123,0,1.56E-06,0,0,0,0,0,0,-76.74004903,0,0,0,0,0,0,0,,,,
1311.647999,5123,0,1.55E-06,0,0,0,0,0,0,183.2383312,0,0,0,0,0,0,0,,,,
1311.655999,5123,0,1.53E-06,0,0,0,0,0,0,-147.1150344,0,0,0,0,0,0,0,,,,
1311.663999,5123,0,1.52E-06,0,0,0,0,0,0,155.3197908,0,0,0,0,0,0,0,,,,
1311.671999,5123,0,1.50E-06,0,0,0,0,0,0,58.72079281,0,0,0,0,0,0,0,,,,
1311.679999,5123,0,1.49E-06,0,0,0,0,0,0,-48.41508784,0,0,0,0,0,0,0,,,,
1311.687999,5123,0,1.47E-06,0,0,0,0,0,0,225.3359799,0,0,0,0,0,0,0,,,,
1311.695999,5123,0,1.46E-06,0,0,0,0,0,0,-101.9258484,0,0,0,0,0,0,0,,,,
1311.703999,5123,0,1.45E-06,0,0,0,0,0,0,154.3841567,0,0,0,0,0,0,0,,,,
1311.711999,5123,0,1.43E-06,0,0,0,0,0,0,25.93821199,0,0,0,0,0,0,0,,,,
1311.719999,5123,0,1.42E-06,0,0,0,0,0,0,-81.11583313,0,0,0,0,0,0,0,,,,
1311.727999,5123,0,-5.02E-07,0,0,0,0,0,0,208.232636,0,0,0,0,0,0,0,,,,
1311.735999,5123,0,-2.31E-06,0,0,0,0,0,0,-125.3155417,0,0,0,0,0,0,0,,,,
1311.743999,5124,0,-1.73E-06,0,0,0,0,0,0,156.4161401,0,0,0,0,0,0,0,,,,
1311.751999,5124,0,-1.77E-06,0,0,0,0,0,0,63.97166495,0,0,0,0,0,0,0,,,,
1311.759999,5124,0,-1.87E-06,0,0,0,0,0,0,-52.84424797,0,0,0,0,0,0,0,,,,
1311.767999,5124,0,-1.71E-06,0,0,0,0,0,0,244.4097258,0,0,0,0,0,0,0,,,,
1311.775999,5124,0,-1.81E-06,0,0,0,0,0,0,-102.5762784,0,0,0,0,0,0,0,,,,
1311.783999,5124,0,-1.72E-06,0,0,0,0,0,0,160.8018836,0,0,0,0,0,0,0,,,,
1311.791999,5124,0,-1.75E-06,0,0,0,0,0,0,96.54180972,0,0,0,0,0,0,0,,,,
1311.799999,5124,0,-1.71E-06,0,0,0,0,0,0,-18.65111642,0,0,0,0,0,0,0,,,,
1311.807999,5124,0,-1.70E-06,0,0,0,0,0,0,265.6230588,0,0,0,0,0,0,0,,,,
1311.815999,5124,0,-1.68E-06,0,0,0,0,0,0,-87.45611205,0,0,0,0,0,0,0,,,,
1311.823999,5124,0,-1.67E-06,0,0,0,0,0,0,161.393625,0,0,0,0,0,0,0,,,,
1311.831999,5124,0,-1.65E-06,0,0,0,0,0,0,82.80502899,0,0,0,0,0,0,0,,,,
1311.839999,5124,0,-1.64E-06,0,0,0,0,0,0,-35.09622201,0,0,0,0,0,0,0,,,,
1311.847999,5124,0,-1.62E-06,0,0,0,0,0,0,269.8055724,0,0,0,0,0,0,0,,,,
1311.855999,5124,0,-1.61E-06,0,0,0,0,0,0,-87.45943573,0,0,0,0,0,0,0,,,,
1311.863999,5124,0,-1.59E-06,0,0,0,0,0,0,170.8735802,0,0,0,0,0,0,0,,,,
1311.871999,5124,0,-1.58E-06,0,0,0,0,0,0,115.8365691,0,0,0,0,0,0,0,,,,
1311.879999,5124,0,-1.56E-06,0,0,0,0,0,0,-53.70011981,0,0,0,0,0,0,0,,,,
1311.887999,5124,0,-1.55E-06,0,0,0,0,0,0,217.2211937,0,0,0,0,0,0,0,,,,
1311.895999,5124,0,-1.53E-06,0,0,0,0,0,0,-333.7699716,0,0,0,0,0,0,0,,,,
1311.903999,5124,0,-1.52E-06,0,0,0,0,0,0,-270.7772034,0,0,0,0,0,0,0,,,,
1311.911999,5124,0,-1.50E-06,0,0,0,0,0,0,131.607534,0,0,0,0,0,0,0,,,,
1311.919999,5124,0,-1.49E-06,0,0,0,0,0,0,100.3668027,0,0,0,0,0,0,0,,,,
1311.927999,5124,0,-1.47E-06,0,0,0,0,0,0,57.62577584,0,0,0,0,0,0,0,,,,
1311.935999,5124,0,-1.46E-06,0,0,0,0,0,0,71.71925679,0,0,0,0,0,0,0,,,,
1311.943999,5124,0,-1.45E-06,0,0,0,0,0,0,187.4618355,0,0,0,0,0,0,0,,,,
1311.951999,5124,0,-1.43E-06,0,0,0,0,0,0,0.229838045,0,0,0,0,0,0,0,,,,
1311.959999,5124,0,-1.42E-06,0,0,0,0,0,0,163.6159117,0,0,0,0,0,0,0,,,,
1311.967999,5124,0,5.02E-07,0,0,0,0,0,0,106.7741745,0,0,0,0,0,0,0,,,,
1311.975999,5124,0,2.31E-06,0,0,0,0,0,0,0.171593995,0,0,0,0,0,0,0,,,,
1311.983999,5124,0,1.73E-06,0,0,0,0,0,0,226.8299249,0,0,0,0,0,0,0,,,,
1311.991999,5124,0,1.77E-06,0,0,0,0,0,0,-75.50302867,0,0,0,0,0,0,0,,,,
1311.999999,5125,0,1.87E-06,0,0,0,0,0,0,118.1312944,0,0,0,0,0,0,0,,,,
1312.007999,5125,0,1.71E-06,0,0,0,0,0,0,75.54395534,0,0,0,0,0,0,0,,,,
1312.015999,5125,0,1.81E-06,0,0,0,0,0,0,-43.68739251,0,0,0,0,0,0,0,,,,
1312.023999,5125,0,1.72E-06,0,0,0,0,0,0,237.8699546,0,0,0,0,0,0,0,,,,
1312.031999,5125,0,1.75E-06,0,0,0,0,0,0,-89.44985301,0,0,0,0,0,0,0,,,,
1312.039999,5125,0,1.71E-06,0,0,0,0,0,0,132.7219884,0,0,0,0,0,0,0,,,,
1312.047999,5125,0,1.70E-06,0,0,0,0,0,0,91.22128312,0,0,0,0,0,0,0,,,,
1312.055999,5125,0,1.68E-06,0,0,0,0,0,0,-44.35137268,0,0,0,0,0,0,0,,,,
1312.063999,5125,0,1.67E-06,0,0,0,0,0,0,245.4155417,0,0,0,0,0,0,0,,,,
1312.071999,5125,0,1.65E-06,0,0,0,0,0,0,-97.68951948,0,0,0,0,0,0,0,,,,
1312.079999,5125,0,1.64E-06,0,0,0,0,0,0,147.787242,0,0,0,0,0,0,0,,,,
1312.087999,5125,0,1.62E-06,0,0,0,0,0,0,101.0810589,0,0,0,0,0,0,0,,,,
1312.095999,5125,0,1.61E-06,0,0,0,0,0,0,-69.7846555,0,0,0,0,0,0,0,,,,
1312.103999,5125,0,1.59E-06,0,0,0,0,0,0,230.1846578,0,0,0,0,0,0,0,,,,
1312.111999,5125,0,1.58E-06,0,0,0,0,0,0,-101.2560514,0,0,0,0,0,0,0,,,,
1312.119999,5125,0,1.56E-06,0,0,0,0,0,0,137.3823696,0,0,0,0,0,0,0,,,,
1312.127999,5125,0,1.55E-06,0,0,0,0,0,0,78.03962106,0,0,0,0,0,0,0,,,,
1312.135999,5125,0,1.53E-06,0,0,0,0,0,0,-82.67286822,0,0,0,0,0,0,0,,,,
1312.143999,5125,0,1.52E-06,0,0,0,0,0,0,239.6720912,0,0,0,0,0,0,0,,,,
1312.151999,5125,0,1.50E-06,0,0,0,0,0,0,-110.1838869,0,0,0,0,0,0,0,,,,
1312.159999,5125,0,1.49E-06,0,0,0,0,0,0,126.9641122,0,0,0,0,0,0,0,,,,
1312.167999,5125,0,1.47E-06,0,0,0,0,0,0,97.25608595,0,0,0,0,0,0,0,,,,
1312.175999,5125,0,1.46E-06,0,0,0,0,0,0,-64.12834214,0,0,0,0,0,0,0,,,,
1312.183999,5125,0,1.45E-06,0,0,0,0,0,0,262.5224644,0,0,0,0,0,0,0,,,,
1312.191999,5125,0,1.43E-06,0,0,0,0,0,0,-94.73919119,0,0,0,0,0,0,0,,,,
1312.199999,5125,0,1.42E-06,0,0,0,0,0,0,122.6974963,0,0,0,0,0,0,0,,,,
1312.207999,5125,0,-5.02E-07,0,0,0,0,0,0,91.38218941,0,0,0,0,0,0,0,,,,
1312.215999,5125,0,-2.31E-06,0,0,0,0,0,0,-81.79595768,0,0,0,0,0,0,0,,,,
1312.223999,5125,0,-1.73E-06,0,0,0,0,0,0,254.6002654,0,0,0,0,0,0,0,,,,
1312.231999,5125,0,-1.77E-06,0,0,0,0,0,0,-108.4507077,0,0,0,0,0,0,0,,,,
1312.239999,5125,0,-1.87E-06,0,0,0,0,0,0,101.8733402,0,0,0,0,0,0,0,,,,
1312.247999,5125,0,-1.71E-06,0,0,0,0,0,0,105.3679784,0,0,0,0,0,0,0,,,,
1312.255999,5126,0,-1.81E-06,0,0,0,0,0,0,-89.16967293,0,0,0,0,0,0,0,,,,
1312.263999,5126,0,-1.72E-06,0,0,0,0,0,0,231.6372691,0,0,0,0,0,0,0,,,,
1312.271999,5126,0,-1.75E-06,0,0,0,0,0,0,-90.72861887,0,0,0,0,0,0,0,,,,
1312.279999,5126,0,-1.71E-06,0,0,0,0,0,0,114.2655609,0,0,0,0,0,0,0,,,,
1312.287999,5126,0,-1.70E-06,0,0,0,0,0,0,96.10987758,0,0,0,0,0,0,0,,,,
1312.295999,5126,0,-1.68E-06,0,0,0,0,0,0,-100.6472253,0,0,0,0,0,0,0,,,,
1312.303999,5126,0,-1.67E-06,0,0,0,0,0,0,204.1213533,0,0,0,0,0,0,0,,,,
1312.311999,5126,0,-1.65E-06,0,0,0,0,0,0,-139.2370522,0,0,0,0,0,0,0,,,,
1312.319999,5126,0,-1.64E-06,0,0,0,0,0,0,84.49356105,0,0,0,0,0,0,0,,,,
1312.327999,5126,0,-1.62E-06,0,0,0,0,0,0,87.03173923,0,0,0,0,0,0,0,,,,
1312.335999,5126,0,-1.61E-06,0,0,0,0,0,0,-132.1874516,0,0,0,0,0,0,0,,,,
1312.343999,5126,0,-1.59E-06,0,0,0,0,0,0,197.5973099,0,0,0,0,0,0,0,,,,
1312.351999,5126,0,-1.58E-06,0,0,0,0,0,0,-100.6809254,0,0,0,0,0,0,0,,,,
1312.359999,5126,0,-1.56E-06,0,0,0,0,0,0,113.7011063,0,0,0,0,0,0,0,,,,
1312.367999,5126,0,-1.55E-06,0,0,0,0,0,0,114.8578324,0,0,0,0,0,0,0,,,,
1312.375999,5126,0,-1.53E-06,0,0,0,0,0,0,-93.65839597,0,0,0,0,0,0,0,,,,
1312.383999,5126,0,-1.52E-06,0,0,0,0,0,0,414.8073324,0,0,0,0,0,0,0,,,,
1312.391999,5126,0,-1.50E-06,0,0,0,0,0,0,99.17343047,0,0,0,0,0,0,0,,,,
1312.399999,5126,0,-1.49E-06,0,0,0,0,0,0,-138.1589859,0,0,0,0,0,0,0,,,,
1312.407999,5126,0,-1.47E-06,0,0,0,0,0,0,151.7953066,0,0,0,0,0,0,0,,,,
1312.415999,5126,0,-1.46E-06,0,0,0,0,0,0,62.01103471,0,0,0,0,0,0,0,,,,
1312.423999,5126,0,-1.45E-06,0,0,0,0,0,0,-29.19098771,0,0,0,0,0,0,0,,,,
1312.431999,5126,0,-1.43E-06,0,0,0,0,0,0,109.4982191,0,0,0,0,0,0,0,,,,
1312.439999,5126,0,-1.42E-06,0,0,0,0,0,0,5.811476441,0,0,0,0,0,0,0,,,,
1312.447999,5126,0,5.02E-07,0,0,0,0,0,0,-25.11195196,0,0,0,0,0,0,0,,,,
1312.455999,5126,0,2.31E-06,0,0,0,0,0,0,166.5865784,0,0,0,0,0,0,0,,,,
1312.463999,5126,0,1.73E-06,0,0,0,0,0,0,-74.93698067,0,0,0,0,0,0,0,,,,
1312.471999,5126,0,1.77E-06,0,0,0,0,0,0,102.5453437,0,0,0,0,0,0,0,,,,
1312.479999,5126,0,1.87E-06,0,0,0,0,0,0,99.87485841,0,0,0,0,0,0,0,,,,
1312.487999,5126,0,1.71E-06,0,0,0,0,0,0,-212.8280314,0,0,0,0,0,0,0,,,,
1312.495999,5126,0,1.81E-06,0,0,0,0,0,0,60.04916151,0,0,0,0,0,0,0,,,,
1312.503999,5126,0,1.72E-06,0,0,0,0,0,0,73.30241061,0,0,0,0,0,0,0,,,,
1312.511999,5127,0,1.75E-06,0,0,0,0,0,0,79.25736567,0,0,0,0,0,0,0,,,,
1312.519999,5127,0,1.71E-06,0,0,0,0,0,0,14.18155358,0,0,0,0,0,0,0,,,,
1312.527999,5127,0,1.70E-06,0,0,0,0,0,0,56.15775084,0,0,0,0,0,0,0,,,,
1312.535999,5127,0,1.68E-06,0,0,0,0,0,0,58.2291269,0,0,0,0,0,0,0,,,,
1312.543999,5127,0,1.67E-06,0,0,0,0,0,0,-79.49712184,0,0,0,0,0,0,0,,,,
1312.551999,5127,0,1.65E-06,0,0,0,0,0,0,156.2079705,0,0,0,0,0,0,0,,,,
1312.559999,5127,0,1.64E-06,0,0,0,0,0,0,-79.82217673,0,0,0,0,0,0,0,,,,
1312.567999,5127,0,1.62E-06,0,0,0,0,0,0,35.49307111,0,0,0,0,0,0,0,,,,
1312.575999,5127,0,1.61E-06,0,0,0,0,0,0,85.04358266,0,0,0,0,0,0,0,,,,
1312.583999,5127,0,1.59E-06,0,0,0,0,0,0,-107.3332338,0,0,0,0,0,0,0,,,,
1312.591999,5127,0,1.58E-06,0,0,0,0,0,0,189.9628487,0,0,0,0,0,0,0,,,,
1312.599999,5127,0,1.56E-06,0,0,0,0,0,0,-111.2232213,0,0,0,0,0,0,0,,,,
1312.607999,5127,0,1.55E-06,0,0,0,0,0,0,45.36803635,0,0,0,0,0,0,0,,,,
1312.615999,5127,0,1.53E-06,0,0,0,0,0,0,77.70698959,0,0,0,0,0,0,0,,,,
1312.623999,5127,0,1.52E-06,0,0,0,0,0,0,-169.8196063,0,0,0,0,0,0,0,,,,
1312.631999,5127,0,1.50E-06,0,0,0,0,0,0,187.0748303,0,0,0,0,0,0,0,,,,
1312.639999,5127,0,1.49E-06,0,0,0,0,0,0,-122.4635907,0,0,0,0,0,0,0,,,,
1312.647999,5127,0,1.47E-06,0,0,0,0,0,0,39.01911127,0,0,0,0,0,0,0,,,,
1312.655999,5127,0,1.46E-06,0,0,0,0,0,0,123.0527656,0,0,0,0,0,0,0,,,,
1312.663999,5127,0,1.45E-06,0,0,0,0,0,0,-127.6782199,0,0,0,0,0,0,0,,,,
1312.671999,5127,0,1.43E-06,0,0,0,0,0,0,215.0978852,0,0,0,0,0,0,0,,,,
1312.679999,5127,0,1.42E-06,0,0,0,0,0,0,-92.81558172,0,0,0,0,0,0,0,,,,
1312.687999,5127,0,-5.02E-07,0,0,0,0,0,0,43.91923852,0,0,0,0,0,0,0,,,,
1312.695999,5127,0,-2.31E-06,0,0,0,0,0,0,105.3342264,0,0,0,0,0,0,0,,,,
1312.703999,5127,0,-1.73E-06,0,0,0,0,0,0,-145.2487023,0,0,0,0,0,0,0,,,,
1312.711999,5127,0,-1.77E-06,0,0,0,0,0,0,199.6657069,0,0,0,0,0,0,0,,,,
1312.719999,5127,0,-1.87E-06,0,0,0,0,0,0,-110.1299323,0,0,0,0,0,0,0,,,,
1312.727999,5127,0,-1.71E-06,0,0,0,0,0,0,22.79267115,0,0,0,0,0,0,0,,,,
1312.735999,5127,0,-1.81E-06,0,0,0,0,0,0,80.69057157,0,0,0,0,0,0,0,,,,
1312.743999,5127,0,-1.72E-06,0,0,0,0,0,0,-179.4108763,0,0,0,0,0,0,0,,,,
1312.751999,5127,0,-1.75E-06,0,0,0,0,0,0,156.665823,0,0,0,0,0,0,0,,,,
1312.759999,5127,0,-1.71E-06,0,0,0,0,0,0,-144.2083414,0,0,0,0,0,0,0,,,,
1312.767999,5128,0,-1.70E-06,0,0,0,0,0,0,9.282563387,0,0,0,0,0,0,0,,,,
1312.775999,5128,0,-1.68E-06,0,0,0,0,0,0,67.30471066,0,0,0,0,0,0,0,,,,
1312.783999,5128,0,-1.67E-06,0,0,0,0,0,0,-195.110183,0,0,0,0,0,0,0,,,,
1312.791999,5128,0,-1.65E-06,0,0,0,0,0,0,168.8537799,0,0,0,0,0,0,0,,,,
1312.799999,5128,0,-1.64E-06,0,0,0,0,0,0,-131.3600972,0,0,0,0,0,0,0,,,,
1312.807999,5128,0,-1.62E-06,0,0,0,0,0,0,4.669864164,0,0,0,0,0,0,0,,,,
1312.815999,5128,0,-1.61E-06,0,0,0,0,0,0,72.4351647,0,0,0,0,0,0,0,,,,
1312.823999,5128,0,-1.59E-06,0,0,0,0,0,0,-183.0165458,0,0,0,0,0,0,0,,,,
1312.831999,5128,0,-1.58E-06,0,0,0,0,0,0,196.8426316,0,0,0,0,0,0,0,,,,
1312.839999,5128,0,-1.56E-06,0,0,0,0,0,0,-107.6193152,0,0,0,0,0,0,0,,,,
1312.847999,5128,0,-1.55E-06,0,0,0,0,0,0,18.05031303,0,0,0,0,0,0,0,,,,
1312.855999,5128,0,-1.53E-06,0,0,0,0,0,0,235.2735159,0,0,0,0,0,0,0,,,,
1312.863999,5128,0,-1.52E-06,0,0,0,0,0,0,4.989449813,0,0,0,0,0,0,0,,,,
1312.871999,5128,0,-1.50E-06,0,0,0,0,0,0,276.208415,0,0,0,0,0,0,0,,,,
1312.879999,5128,0,-1.49E-06,0,0,0,0,0,0,120.4438485,0,0,0,0,0,0,0,,,,
1312.887999,5128,0,-1.47E-06,0,0,0,0,0,0,55.19316914,0,0,0,0,0,0,0,,,,
1312.895999,5128,0,-1.46E-06,0,0,0,0,0,0,-11.81088168,0,0,0,0,0,0,0,,,,
1312.903999,5128,0,-1.45E-06,0,0,0,0,0,0,-62.16360608,0,0,0,0,0,0,0,,,,
1312.911999,5128,0,-1.43E-06,0,0,0,0,0,0,153.3607403,0,0,0,0,0,0,0,,,,
1312.919999,5128,0,-1.42E-06,0,0,0,0,0,0,-129.6305845,0,0,0,0,0,0,0,,,,
1312.927999,5128,0,5.02E-07,0,0,0,0,0,0,38.729404,0,0,0,0,0,0,0,,,,
1312.935999,5128,0,2.31E-06,0,0,0,0,0,0,39.96358261,0,0,0,0,0,0,0,,,,
1312.943999,5128,0,1.73E-06,0,0,0,0,0,0,-148.8159872,0,0,0,0,0,0,0,,,,
1312.951999,5128,0,1.77E-06,0,0,0,0,0,0,159.7601405,0,0,0,0,0,0,0,,,,
1312.959999,5128,0,1.87E-06,0,0,0,0,0,0,-116.0433547,0,0,0,0,0,0,0,,,,
1312.967999,5128,0,1.71E-06,0,0,0,0,0,0,36.04237575,0,0,0,0,0,0,0,,,,
1312.975999,5128,0,1.81E-06,0,0,0,0,0,0,109.6478748,0,0,0,0,0,0,0,,,,
1312.983999,5128,0,1.72E-06,0,0,0,0,0,0,-151.2243558,0,0,0,0,0,0,0,,,,
1312.991999,5128,0,1.75E-06,0,0,0,0,0,0,192.6991125,0,0,0,0,0,0,0,,,,
1312.999999,5128,0,1.71E-06,0,0,0,0,0,0,-88.11886477,0,0,0,0,0,0,0,,,,
1313.007999,5128,0,1.70E-06,0,0,0,0,0,0,11.75447903,0,0,0,0,0,0,0,,,,
1313.015999,5128,0,1.68E-06,0,0,0,0,0,0,115.357611,0,0,0,0,0,0,0,,,,
1313.023999,5129,0,1.67E-06,0,0,0,0,0,0,-155.1210465,0,0,0,0,0,0,0,,,,
1313.031999,5129,0,1.65E-06,0,0,0,0,0,0,213.4922448,0,0,0,0,0,0,0,,,,
1313.039999,5129,0,1.64E-06,0,0,0,0,0,0,-66.66616687,0,0,0,0,0,0,0,,,,
1313.047999,5129,0,1.62E-06,0,0,0,0,0,0,20.3327941,0,0,0,0,0,0,0,,,,
1313.055999,5129,0,1.61E-06,0,0,0,0,0,0,143.8015375,0,0,0,0,0,0,0,,,,
1313.063999,5129,0,1.59E-06,0,0,0,0,0,0,-169.4797984,0,0,0,0,0,0,0,,,,
1313.071999,5129,0,1.58E-06,0,0,0,0,0,0,185.8521909,0,0,0,0,0,0,0,,,,
1313.079999,5129,0,1.56E-06,0,0,0,0,0,0,-58.92117007,0,0,0,0,0,0,0,,,,
1313.087999,5129,0,1.55E-06,0,0,0,0,0,0,34.10223781,0,0,0,0,0,0,0,,,,
1313.095999,5129,0,1.53E-06,0,0,0,0,0,0,167.1946456,0,0,0,0,0,0,0,,,,
1313.103999,5129,0,1.52E-06,0,0,0,0,0,0,-139.3966346,0,0,0,0,0,0,0,,,,
1313.111999,5129,0,1.50E-06,0,0,0,0,0,0,216.827728,0,0,0,0,0,0,0,,,,
1313.119999,5129,0,1.49E-06,0,0,0,0,0,0,-45.04528958,0,0,0,0,0,0,0,,,,
1313.127999,5129,0,1.47E-06,0,0,0,0,0,0,27.98147402,0,0,0,0,0,0,0,,,,
1313.135999,5129,0,1.46E-06,0,0,0,0,0,0,152.5761913,0,0,0,0,0,0,0,,,,
1313.143999,5129,0,1.45E-06,0,0,0,0,0,0,-161.8372155,0,0,0,0,0,0,0,,,,
1313.151999,5129,0,1.43E-06,0,0,0,0,0,0,197.6737954,0,0,0,0,0,0,0,,,,
1313.159999,5129,0,1.42E-06,0,0,0,0,0,0,-65.27453799,0,0,0,0,0,0,0,,,,
1313.167999,5129,0,-5.02E-07,0,0,0,0,0,0,14.96634599,0,0,0,0,0,0,0,,,,
1313.175999,5129,0,-2.31E-06,0,0,0,0,0,0,158.2006883,0,0,0,0,0,0,0,,,,
1313.183999,5129,0,-1.73E-06,0,0,0,0,0,0,-133.4570589,0,0,0,0,0,0,0,,,,
1313.191999,5129,0,-1.77E-06,0,0,0,0,0,0,233.7215779,0,0,0,0,0,0,0,,,,
1313.199999,5129,0,-1.87E-06,0,0,0,0,0,0,-48.97047999,0,0,0,0,0,0,0,,,,
1313.207999,5129,0,-1.71E-06,0,0,0,0,0,0,32.23648018,0,0,0,0,0,0,0,,,,
1313.215999,5129,0,-1.81E-06,0,0,0,0,0,0,176.5509534,0,0,0,0,0,0,0,,,,
1313.223999,5129,0,-1.72E-06,0,0,0,0,0,0,-155.9561853,0,0,0,0,0,0,0,,,,
1313.231999,5129,0,-1.75E-06,0,0,0,0,0,0,220.0451047,0,0,0,0,0,0,0,,,,
1313.239999,5129,0,-1.71E-06,0,0,0,0,0,0,-31.47519703,0,0,0,0,0,0,0,,,,
1313.247999,5129,0,-1.70E-06,0,0,0,0,0,0,15.18823578,0,0,0,0,0,0,0,,,,
1313.255999,5129,0,-1.68E-06,0,0,0,0,0,0,154.4253403,0,0,0,0,0,0,0,,,,
1313.263999,5129,0,-1.67E-06,0,0,0,0,0,0,-166.891627,0,0,0,0,0,0,0,,,,
1313.271999,5129,0,-1.65E-06,0,0,0,0,0,0,202.8871037,0,0,0,0,0,0,0,,,,
1313.279999,5130,0,-1.64E-06,0,0,0,0,0,0,-46.24886481,0,0,0,0,0,0,0,,,,
1313.287999,5130,0,-1.62E-06,0,0,0,0,0,0,-14.7577853,0,0,0,0,0,0,0,,,,
1313.295999,5130,0,-1.61E-06,0,0,0,0,0,0,128.6810809,0,0,0,0,0,0,0,,,,
1313.303999,5130,0,-1.59E-06,0,0,0,0,0,0,-169.1335558,0,0,0,0,0,0,0,,,,
1313.311999,5130,0,-1.58E-06,0,0,0,0,0,0,199.5969248,0,0,0,0,0,0,0,,,,
1313.319999,5130,0,-1.56E-06,0,0,0,0,0,0,-79.46518285,0,0,0,0,0,0,0,,,,
1313.327999,5130,0,-1.55E-06,0,0,0,0,0,0,-53.78016017,0,0,0,0,0,0,0,,,,
1313.335999,5130,0,-1.53E-06,0,0,0,0,0,0,243.8857503,0,0,0,0,0,0,0,,,,
1313.343999,5130,0,-1.52E-06,0,0,0,0,0,0,-74.08190784,0,0,0,0,0,0,0,,,,
1313.351999,5130,0,-1.50E-06,0,0,0,0,0,0,7.111638158,0,0,0,0,0,0,0,,,,
1313.359999,5130,0,-1.49E-06,0,0,0,0,0,0,-37.53079038,0,0,0,0,0,0,0,,,,
1313.367999,5130,0,-1.47E-06,0,0,0,0,0,0,36.00091959,0,0,0,0,0,0,0,,,,
1313.375999,5130,0,-1.46E-06,0,0,0,0,0,0,-38.44333117,0,0,0,0,0,0,0,,,,
1313.383999,5130,0,-1.45E-06,0,0,0,0,0,0,-41.93243193,0,0,0,0,0,0,0,,,,
1313.391999,5130,0,-1.43E-06,0,0,0,0,0,0,73.5108434,0,0,0,0,0,0,0,,,,
1313.399999,5130,0,-1.42E-06,0,0,0,0,0,0,-159.1976827,0,0,0,0,0,0,0,,,,
1313.407999,5130,0,5.02E-07,0,0,0,0,0,0,314.6306649,0,0,0,0,0,0,0,,,,
1313.415999,5130,0,2.31E-06,0,0,0,0,0,0,121.2838792,0,0,0,0,0,0,0,,,,
1313.423999,5130,0,1.73E-06,0,0,0,0,0,0,-312.8293142,0,0,0,0,0,0,0,,,,
1313.431999,5130,0,1.77E-06,0,0,0,0,0,0,200.5363876,0,0,0,0,0,0,0,,,,
1313.439999,5130,0,1.87E-06,0,0,0,0,0,0,-52.94178898,0,0,0,0,0,0,0,,,,
1313.447999,5130,0,1.71E-06,0,0,0,0,0,0,-172.1590608,0,0,0,0,0,0,0,,,,
1313.455999,5130,0,1.81E-06,0,0,0,0,0,0,137.4154731,0,0,0,0,0,0,0,,,,
1313.463999,5130,0,1.72E-06,0,0,0,0,0,0,-162.0255214,0,0,0,0,0,0,0,,,,
1313.471999,5130,0,1.75E-06,0,0,0,0,0,0,31.11049448,0,0,0,0,0,0,0,,,,
1313.479999,5130,0,1.71E-06,0,0,0,0,0,0,47.94697293,0,0,0,0,0,0,0,,,,
1313.487999,5130,0,1.70E-06,0,0,0,0,0,0,-194.1244445,0,0,0,0,0,0,0,,,,
1313.495999,5130,0,1.68E-06,0,0,0,0,0,0,126.7584903,0,0,0,0,0,0,0,,,,
1313.503999,5130,0,1.67E-06,0,0,0,0,0,0,-122.791407,0,0,0,0,0,0,0,,,,
1313.511999,5130,0,1.65E-06,0,0,0,0,0,0,-6.77070737,0,0,0,0,0,0,0,,,,
1313.519999,5130,0,1.64E-06,0,0,0,0,0,0,132.8656762,0,0,0,0,0,0,0,,,,
1313.527999,5130,0,1.62E-06,0,0,0,0,0,0,-221.8490486,0,0,0,0,0,0,0,,,,
1313.535999,5131,0,1.61E-06,0,0,0,0,0,0,113.3551841,0,0,0,0,0,0,0,,,,
1313.543999,5131,0,1.59E-06,0,0,0,0,0,0,-95.83209187,0,0,0,0,0,0,0,,,,
1313.551999,5131,0,1.58E-06,0,0,0,0,0,0,-62.25965309,0,0,0,0,0,0,0,,,,
1313.559999,5131,0,1.56E-06,0,0,0,0,0,0,121.7710588,0,0,0,0,0,0,0,,,,
1313.567999,5131,0,1.55E-06,0,0,0,0,0,0,-224.0686966,0,0,0,0,0,0,0,,,,
1313.575999,5131,0,1.53E-06,0,0,0,0,0,0,111.0930706,0,0,0,0,0,0,0,,,,
1313.583999,5131,0,1.52E-06,0,0,0,0,0,0,-96.28092992,0,0,0,0,0,0,0,,,,
1313.591999,5131,0,1.50E-06,0,0,0,0,0,0,-77.03576306,0,0,0,0,0,0,0,,,,
1313.599999,5131,0,1.49E-06,0,0,0,0,0,0,105.2092593,0,0,0,0,0,0,0,,,,
1313.607999,5131,0,1.47E-06,0,0,0,0,0,0,-245.8059896,0,0,0,0,0,0,0,,,,
1313.615999,5131,0,1.46E-06,0,0,0,0,0,0,110.8906646,0,0,0,0,0,0,0,,,,
1313.623999,5131,0,1.45E-06,0,0,0,0,0,0,-109.9156641,0,0,0,0,0,0,0,,,,
1313.631999,5131,0,1.43E-06,0,0,0,0,0,0,-111.5803119,0,0,0,0,0,0,0,,,,
1313.639999,5131,0,1.42E-06,0,0,0,0,0,0,307.2362118,0,0,0,0,0,0,0,,,,
1313.647999,5131,0,-5.02E-07,0,0,0,0,0,0,-119.271655,0,0,0,0,0,0,0,,,,
1313.655999,5131,0,-2.31E-06,0,0,0,0,0,0,-156.8184058,0,0,0,0,0,0,0,,,,
1313.663999,5131,0,-1.73E-06,0,0,0,0,0,0,64.72309841,0,0,0,0,0,0,0,,,,
1313.671999,5131,0,-1.77E-06,0,0,0,0,0,0,-61.67308855,0,0,0,0,0,0,0,,,,
1313.679999,5131,0,-1.87E-06,0,0,0,0,0,0,-132.5502247,0,0,0,0,0,0,0,,,,
1313.687999,5131,0,-1.71E-06,0,0,0,0,0,0,29.89921961,0,0,0,0,0,0,0,,,,
1313.695999,5131,0,-1.81E-06,0,0,0,0,0,0,-120.1939894,0,0,0,0,0,0,0,,,,
1313.703999,5131,0,-1.72E-06,0,0,0,0,0,0,-50.63182701,0,0,0,0,0,0,0,,,,
1313.711999,5131,0,-1.75E-06,0,0,0,0,0,0,69.43334298,0,0,0,0,0,0,0,,,,
1313.719999,5131,0,-1.71E-06,0,0,0,0,0,0,-199.092717,0,0,0,0,0,0,0,,,,
1313.727999,5131,0,-1.70E-06,0,0,0,0,0,0,98.50443021,0,0,0,0,0,0,0,,,,
1313.735999,5131,0,-1.68E-06,0,0,0,0,0,0,-70.13073971,0,0,0,0,0,0,0,,,,
1313.743999,5131,0,-1.67E-06,0,0,0,0,0,0,-78.78694419,0,0,0,0,0,0,0,,,,
1313.751999,5131,0,-1.65E-06,0,0,0,0,0,0,114.0501212,0,0,0,0,0,0,0,,,,
1313.759999,5131,0,-1.64E-06,0,0,0,0,0,0,-225.2825682,0,0,0,0,0,0,0,,,,
1313.767999,5131,0,-1.62E-06,0,0,0,0,0,0,128.8607259,0,0,0,0,0,0,0,,,,
1313.775999,5131,0,-1.61E-06,0,0,0,0,0,0,-57.70057585,0,0,0,0,0,0,0,,,,
1313.783999,5131,0,-1.59E-06,0,0,0,0,0,0,-97.10627504,0,0,0,0,0,0,0,,,,
1313.791999,5132,0,-1.58E-06,0,0,0,0,0,0,124.7484446,0,0,0,0,0,0,0,,,,
1313.799999,5132,0,-1.56E-06,0,0,0,0,0,0,-253.0689902,0,0,0,0,0,0,0,,,,
1313.807999,5132,0,-1.55E-06,0,0,0,0,0,0,87.44363554,0,0,0,0,0,0,0,,,,
1313.815999,5132,0,-1.53E-06,0,0,0,0,0,0,-87.00547173,0,0,0,0,0,0,0,,,,
1313.823999,5132,0,-1.52E-06,0,0,0,0,0,0,-275.0785052,0,0,0,0,0,0,0,,,,
1313.831999,5132,0,-1.50E-06,0,0,0,0,0,0,43.98965083,0,0,0,0,0,0,0,,,,
1313.839999,5132,0,-1.49E-06,0,0,0,0,0,0,-105.6282448,0,0,0,0,0,0,0,,,,
1313.847999,5132,0,-1.47E-06,0,0,0,0,0,0,-99.38098243,0,0,0,0,0,0,0,,,,
1313.855999,5132,0,-1.46E-06,0,0,0,0,0,0,-18.12692315,0,0,0,0,0,0,0,,,,
1313.863999,5132,0,-1.45E-06,0,0,0,0,0,0,-43.30559613,0,0,0,0,0,0,0,,,,
1313.871999,5132,0,-1.43E-06,0,0,0,0,0,0,-140.5175861,0,0,0,0,0,0,0,,,,
1313.879999,5132,0,-1.42E-06,0,0,0,0,0,0,25.97252701,0,0,0,0,0,0,0,,,,
1313.887999,5132,0,5.02E-07,0,0,0,0,0,0,-82.05705681,0,0,0,0,0,0,0,,,,
1313.895999,5132,0,2.31E-06,0,0,0,0,0,0,-94.99748503,0,0,0,0,0,0,0,,,,
1313.903999,5132,0,1.73E-06,0,0,0,0,0,0,70.24493697,0,0,0,0,0,0,0,,,,
1313.911999,5132,0,1.77E-06,0,0,0,0,0,0,-224.8996715,0,0,0,0,0,0,0,,,,
1313.919999,5132,0,1.87E-06,0,0,0,0,0,0,51.84475938,0,0,0,0,0,0,0,,,,
1313.927999,5132,0,1.71E-06,0,0,0,0,0,0,-89.53548875,0,0,0,0,0,0,0,,,,
1313.935999,5132,0,1.81E-06,0,0,0,0,0,0,-150.391333,0,0,0,0,0,0,0,,,,
1313.943999,5132,0,1.72E-06,0,0,0,0,0,0,71.9127301,0,0,0,0,0,0,0,,,,
1313.951999,5132,0,1.75E-06,0,0,0,0,0,0,-278.9723935,0,0,0,0,0,0,0,,,,
1313.959999,5132,0,1.71E-06,0,0,0,0,0,0,53.74029392,0,0,0,0,0,0,0,,,,
1313.967999,5132,0,1.70E-06,0,0,0,0,0,0,-112.065215,0,0,0,0,0,0,0,,,,
1313.975999,5132,0,1.68E-06,0,0,0,0,0,0,-179.4980248,0,0,0,0,0,0,0,,,,
1313.983999,5132,0,1.67E-06,0,0,0,0,0,0,82.55861875,0,0,0,0,0,0,0,,,,
1313.991999,5132,0,1.65E-06,0,0,0,0,0,0,-288.1770396,0,0,0,0,0,0,0,,,,
1313.999999,5132,0,1.64E-06,0,0,0,0,0,0,63.65965503,0,0,0,0,0,0,0,,,,
1314.007999,5132,0,1.62E-06,0,0,0,0,0,0,-84.69341532,0,0,0,0,0,0,0,,,,
1314.015999,5132,0,1.61E-06,0,0,0,0,0,0,-158.8288878,0,0,0,0,0,0,0,,,,
1314.023999,5132,0,1.59E-06,0,0,0,0,0,0,110.84966,0,0,0,0,0,0,0,,,,
1314.031999,5132,0,1.58E-06,0,0,0,0,0,0,-285.3319374,0,0,0,0,0,0,0,,,,
1314.039999,5132,0,1.56E-06,0,0,0,0,0,0,43.89342638,0,0,0,0,0,0,0,,,,
1314.047999,5133,0,1.55E-06,0,0,0,0,0,0,-98.06662035,0,0,0,0,0,0,0,,,,
1314.055999,5133,0,1.53E-06,0,0,0,0,0,0,-177.92391,0,0,0,0,0,0,0,,,,
1314.063999,5133,0,1.52E-06,0,0,0,0,0,0,108.1854724,0,0,0,0,0,0,0,,,,
1314.071999,5133,0,1.50E-06,0,0,0,0,0,0,-279.5738813,0,0,0,0,0,0,0,,,,
1314.079999,5133,0,1.49E-06,0,0,0,0,0,0,46.80668725,0,0,0,0,0,0,0,,,,
1314.087999,5133,0,1.47E-06,0,0,0,0,0,0,-78.23697072,0,0,0,0,0,0,0,,,,
1314.095999,5133,0,1.46E-06,0,0,0,0,0,0,-149.5603424,0,0,0,0,0,0,0,,,,
1314.103999,5133,0,1.45E-06,0,0,0,0,0,0,133.4323278,0,0,0,0,0,0,0,,,,
1314.111999,5133,0,1.43E-06,0,0,0,0,0,0,-264.1257918,0,0,0,0,0,0,0,,,,
1314.119999,5133,0,1.42E-06,0,0,0,0,0,0,77.38985741,0,0,0,0,0,0,0,,,,
1314.127999,5133,0,-5.02E-07,0,0,0,0,0,0,-39.03867692,0,0,0,0,0,0,0,,,,
1314.135999,5133,0,-2.31E-06,0,0,0,0,0,0,-133.1023192,0,0,0,0,0,0,0,,,,
1314.143999,5133,0,-1.73E-06,0,0,0,0,0,0,132.5495491,0,0,0,0,0,0,0,,,,
1314.151999,5133,0,-1.77E-06,0,0,0,0,0,0,-297.660787,0,0,0,0,0,0,0,,,,
1314.159999,5133,0,-1.87E-06,0,0,0,0,0,0,41.5701704,0,0,0,0,0,0,0,,,,
1314.167999,5133,0,-1.71E-06,0,0,0,0,0,0,-68.85594612,0,0,0,0,0,0,0,,,,
1314.175999,5133,0,-1.81E-06,0,0,0,0,0,0,-188.0269561,0,0,0,0,0,0,0,,,,
1314.183999,5133,0,-1.72E-06,0,0,0,0,0,0,134.3018175,0,0,0,0,0,0,0,,,,
1314.191999,5133,0,-1.75E-06,0,0,0,0,0,0,-255.5415993,0,0,0,0,0,0,0,,,,
1314.199999,5133,0,-1.71E-06,0,0,0,0,0,0,42.66293038,0,0,0,0,0,0,0,,,,
1314.207999,5133,0,-1.70E-06,0,0,0,0,0,0,-68.3883651,0,0,0,0,0,0,0,,,,
1314.215999,5133,0,-1.68E-06,0,0,0,0,0,0,-188.4916862,0,0,0,0,0,0,0,,,,
1314.223999,5133,0,-1.67E-06,0,0,0,0,0,0,129.2152036,0,0,0,0,0,0,0,,,,
1314.231999,5133,0,-1.65E-06,0,0,0,0,0,0,-257.6640272,0,0,0,0,0,0,0,,,,
1314.239999,5133,0,-1.64E-06,0,0,0,0,0,0,26.58104341,0,0,0,0,0,0,0,,,,
1314.247999,5133,0,-1.62E-06,0,0,0,0,0,0,-79.07489871,0,0,0,0,0,0,0,,,,
1314.255999,5133,0,-1.61E-06,0,0,0,0,0,0,-207.1209537,0,0,0,0,0,0,0,,,,
1314.263999,5133,0,-1.59E-06,0,0,0,0,0,0,92.45909226,0,0,0,0,0,0,0,,,,
1314.271999,5133,0,-1.58E-06,0,0,0,0,0,0,-283.1786756,0,0,0,0,0,0,0,,,,
1314.279999,5133,0,-1.56E-06,0,0,0,0,0,0,15.59843767,0,0,0,0,0,0,0,,,,
1314.287999,5133,0,-1.55E-06,0,0,0,0,0,0,-93.58703557,0,0,0,0,0,0,0,,,,
1314.295999,5133,0,-1.53E-06,0,0,0,0,0,0,-196.9661832,0,0,0,0,0,0,0,,,,
1314.303999,5134,0,-1.52E-06,0,0,0,0,0,0,136.3348926,0,0,0,0,0,0,0,,,,
1314.311999,5134,0,-1.50E-06,0,0,0,0,0,0,-274.9365395,0,0,0,0,0,0,0,,,,
1314.319999,5134,0,-1.49E-06,0,0,0,0,0,0,9.48651674,0,0,0,0,0,0,0,,,,
1314.327999,5134,0,-1.47E-06,0,0,0,0,0,0,-75.73667468,0,0,0,0,0,0,0,,,,
1314.335999,5134,0,-1.46E-06,0,0,0,0,0,0,-210.1584532,0,0,0,0,0,0,0,,,,
1314.343999,5134,0,-1.45E-06,0,0,0,0,0,0,99.31741416,0,0,0,0,0,0,0,,,,
1314.351999,5134,0,-1.43E-06,0,0,0,0,0,0,-335.1065145,0,0,0,0,0,0,0,,,,
1314.359999,5134,0,-1.42E-06,0,0,0,0,0,0,-115.105082,0,0,0,0,0,0,0,,,,
1314.367999,5134,0,5.02E-07,0,0,0,0,0,0,-52.69278105,0,0,0,0,0,0,0,,,,
1314.375999,5134,0,2.31E-06,0,0,0,0,0,0,-160.2346647,0,0,0,0,0,0,0,,,,
1314.383999,5134,0,1.73E-06,0,0,0,0,0,0,-69.22558091,0,0,0,0,0,0,0,,,,
1314.391999,5134,0,1.77E-06,0,0,0,0,0,0,-212.1422213,0,0,0,0,0,0,0,,,,
1314.399999,5134,0,1.87E-06,0,0,0,0,0,0,-2.35957046,0,0,0,0,0,0,0,,,,
1314.407999,5134,0,1.71E-06,0,0,0,0,0,0,-221.2816225,0,0,0,0,0,0,0,,,,
1314.415999,5134,0,1.81E-06,0,0,0,0,0,0,-72.39348204,0,0,0,0,0,0,0,,,,
1314.423999,5134,0,1.72E-06,0,0,0,0,0,0,-61.78373402,0,0,0,0,0,0,0,,,,
1314.431999,5134,0,1.75E-06,0,0,0,0,0,0,-232.7619713,0,0,0,0,0,0,0,,,,
1314.439999,5134,0,1.71E-06,0,0,0,0,0,0,72.23993896,0,0,0,0,0,0,0,,,,
1314.447999,5134,0,1.70E-06,0,0,0,0,0,0,-270.2415341,0,0,0,0,0,0,0,,,,
1314.455999,5134,0,1.68E-06,0,0,0,0,0,0,-50.80340344,0,0,0,0,0,0,0,,,,
1314.463999,5134,0,1.67E-06,0,0,0,0,0,0,-101.6142278,0,0,0,0,0,0,0,,,,
1314.471999,5134,0,1.65E-06,0,0,0,0,0,0,-449.4186604,0,0,0,0,0,0,0,,,,
1314.479999,5134,0,1.64E-06,0,0,0,0,0,0,-48.37885378,0,0,0,0,0,0,0,,,,
1314.487999,5134,0,1.62E-06,0,0,0,0,0,0,-103.7165977,0,0,0,0,0,0,0,,,,
1314.495999,5134,0,1.61E-06,0,0,0,0,0,0,-100.2080904,0,0,0,0,0,0,0,,,,
1314.503999,5134,0,1.59E-06,0,0,0,0,0,0,-133.3344885,0,0,0,0,0,0,0,,,,
1314.511999,5134,0,1.58E-06,0,0,0,0,0,0,-65.01173172,0,0,0,0,0,0,0,,,,
1314.519999,5134,0,1.56E-06,0,0,0,0,0,0,-79.16416297,0,0,0,0,0,0,0,,,,
1314.527999,5134,0,1.55E-06,0,0,0,0,0,0,-186.9029386,0,0,0,0,0,0,0,,,,
1314.535999,5134,0,1.53E-06,0,0,0,0,0,0,51.44451389,0,0,0,0,0,0,0,,,,
1314.543999,5134,0,1.52E-06,0,0,0,0,0,0,-229.4805848,0,0,0,0,0,0,0,,,,
1314.551999,5134,0,1.50E-06,0,0,0,0,0,0,-47.64516983,0,0,0,0,0,0,0,,,,
1314.559999,5135,0,1.49E-06,0,0,0,0,0,0,-57.50650035,0,0,0,0,0,0,0,,,,
1314.567999,5135,0,1.47E-06,0,0,0,0,0,0,-219.1905954,0,0,0,0,0,0,0,,,,
1314.575999,5135,0,1.46E-06,0,0,0,0,0,0,89.88871137,0,0,0,0,0,0,0,,,,
1314.583999,5135,0,1.45E-06,0,0,0,0,0,0,-281.4061156,0,0,0,0,0,0,0,,,,
1314.591999,5135,0,1.43E-06,0,0,0,0,0,0,-58.39294914,0,0,0,0,0,0,0,,,,
1314.599999,5135,0,1.42E-06,0,0,0,0,0,0,-60.09887156,0,0,0,0,0,0,0,,,,
1314.607999,5135,0,-5.02E-07,0,0,0,0,0,0,-248.1085057,0,0,0,0,0,0,0,,,,
1314.615999,5135,0,-2.31E-06,0,0,0,0,0,0,93.31998748,0,0,0,0,0,0,0,,,,
1314.623999,5135,0,-1.73E-06,0,0,0,0,0,0,-264.689331,0,0,0,0,0,0,0,,,,
1314.631999,5135,0,-1.77E-06,0,0,0,0,0,0,-42.90521373,0,0,0,0,0,0,0,,,,
1314.639999,5135,0,-1.87E-06,0,0,0,0,0,0,-108.9079318,0,0,0,0,0,0,0,,,,
1314.647999,5135,0,-1.71E-06,0,0,0,0,0,0,-325.4945947,0,0,0,0,0,0,0,,,,
1314.655999,5135,0,-1.81E-06,0,0,0,0,0,0,42.60445079,0,0,0,0,0,0,0,,,,
1314.663999,5135,0,-1.72E-06,0,0,0,0,0,0,-331.7807022,0,0,0,0,0,0,0,,,,
1314.671999,5135,0,-1.75E-06,0,0,0,0,0,0,-98.75047669,0,0,0,0,0,0,0,,,,
1314.679999,5135,0,-1.71E-06,0,0,0,0,0,0,-93.60560587,0,0,0,0,0,0,0,,,,
1314.687999,5135,0,-1.70E-06,0,0,0,0,0,0,-309.6450654,0,0,0,0,0,0,0,,,,
1314.695999,5135,0,-1.68E-06,0,0,0,0,0,0,25.36339762,0,0,0,0,0,0,0,,,,
1314.703999,5135,0,-1.67E-06,0,0,0,0,0,0,-335.1080403,0,0,0,0,0,0,0,,,,
1314.711999,5135,0,-1.65E-06,0,0,0,0,0,0,-105.0833621,0,0,0,0,0,0,0,,,,
1314.719999,5135,0,-1.64E-06,0,0,0,0,0,0,-125.0717275,0,0,0,0,0,0,0,,,,
1314.727999,5135,0,-1.62E-06,0,0,0,0,0,0,-321.3810294,0,0,0,0,0,0,0,,,,
1314.735999,5135,0,-1.61E-06,0,0,0,0,0,0,57.29025032,0,0,0,0,0,0,0,,,,
1314.743999,5135,0,-1.59E-06,0,0,0,0,0,0,-321.962581,0,0,0,0,0,0,0,,,,
1314.751999,5135,0,-1.58E-06,0,0,0,0,0,0,-99.76120508,0,0,0,0,0,0,0,,,,
1314.759999,5135,0,-1.56E-06,0,0,0,0,0,0,-93.89601837,0,0,0,0,0,0,0,,,,
1314.767999,5135,0,-1.55E-06,0,0,0,0,0,0,-315.3615677,0,0,0,0,0,0,0,,,,
1314.775999,5135,0,-1.53E-06,0,0,0,0,0,0,62.89998177,0,0,0,0,0,0,0,,,,
1314.783999,5135,0,-1.52E-06,0,0,0,0,0,0,-308.0190439,0,0,0,0,0,0,0,,,,
1314.791999,5135,0,-1.50E-06,0,0,0,0,0,0,-182.9407514,0,0,0,0,0,0,0,,,,
1314.799999,5135,0,-1.49E-06,0,0,0,0,0,0,-76.13123535,0,0,0,0,0,0,0,,,,
1314.807999,5135,0,-1.47E-06,0,0,0,0,0,0,-196.0795233,0,0,0,0,0,0,0,,,,
1314.815999,5136,0,-1.46E-06,0,0,0,0,0,0,-58.61000933,0,0,0,0,0,0,0,,,,
1314.823999,5136,0,-1.45E-06,0,0,0,0,0,0,-214.8569201,0,0,0,0,0,0,0,,,,
1314.831999,5136,0,-1.43E-06,0,0,0,0,0,0,-7.874984699,0,0,0,0,0,0,0,,,,
1314.839999,5136,0,-1.42E-06,0,0,0,0,0,0,-227.2485608,0,0,0,0,0,0,0,,,,
1314.847999,5136,0,5.02E-07,0,0,0,0,0,0,-146.0010741,0,0,0,0,0,0,0,,,,
1314.855999,5136,0,2.31E-06,0,0,0,0,0,0,-47.70904228,0,0,0,0,0,0,0,,,,
1314.863999,5136,0,1.73E-06,0,0,0,0,0,0,-298.6284601,0,0,0,0,0,0,0,,,,
1314.871999,5136,0,1.77E-06,0,0,0,0,0,0,24.23638424,0,0,0,0,0,0,0,,,,
1314.879999,5136,0,1.87E-06,0,0,0,0,0,0,-269.8403272,0,0,0,0,0,0,0,,,,
1314.887999,5136,0,1.71E-06,0,0,0,0,0,0,-136.5965225,0,0,0,0,0,0,0,,,,
1314.895999,5136,0,1.81E-06,0,0,0,0,0,0,-78.01824224,0,0,0,0,0,0,0,,,,
1314.903999,5136,0,1.72E-06,0,0,0,0,0,0,-335.1242673,0,0,0,0,0,0,0,,,,
1314.911999,5136,0,1.75E-06,0,0,0,0,0,0,44.63987728,0,0,0,0,0,0,0,,,,
1314.919999,5136,0,1.71E-06,0,0,0,0,0,0,-287.8427612,0,0,0,0,0,0,0,,,,
1314.927999,5136,0,1.70E-06,0,0,0,0,0,0,-112.8876198,0,0,0,0,0,0,0,,,,
1314.935999,5136,0,1.68E-06,0,0,0,0,0,0,-46.19340414,0,0,0,0,0,0,0,,,,
1314.943999,5136,0,1.67E-06,0,0,0,0,0,0,-339.1390267,0,0,0,0,0,0,0,,,,
1314.951999,5136,0,1.65E-06,0,0,0,0,0,0,34.01106959,0,0,0,0,0,0,0,,,,
1314.959999,5136,0,1.64E-06,0,0,0,0,0,0,-296.3868555,0,0,0,0,0,0,0,,,,
1314.967999,5136,0,1.62E-06,0,0,0,0,0,0,-118.6981966,0,0,0,0,0,0,0,,,,
1314.975999,5136,0,1.61E-06,0,0,0,0,0,0,-38.32209077,0,0,0,0,0,0,0,,,,
1314.983999,5136,0,1.59E-06,0,0,0,0,0,0,-315.3016181,0,0,0,0,0,0,0,,,,
1314.991999,5136,0,1.58E-06,0,0,0,0,0,0,59.90302193,0,0,0,0,0,0,0,,,,
1314.999999,5136,0,1.56E-06,0,0,0,0,0,0,-304.6024705,0,0,0,0,0,0,0,,,,
1315.007999,5136,0,1.55E-06,0,0,0,0,0,0,-162.8954222,0,0,0,0,0,0,0,,,,
1315.015999,5136,0,1.53E-06,0,0,0,0,0,0,-53.6133714,0,0,0,0,0,0,0,,,,
1315.023999,5136,0,1.52E-06,0,0,0,0,0,0,-326.1905167,0,0,0,0,0,0,0,,,,
1315.031999,5136,0,1.50E-06,0,0,0,0,0,0,44.31125561,0,0,0,0,0,0,0,,,,
1315.039999,5136,0,1.49E-06,0,0,0,0,0,0,-279.3199924,0,0,0,0,0,0,0,,,,
1315.047999,5136,0,1.47E-06,0,0,0,0,0,0,-185.0546164,0,0,0,0,0,0,0,,,,
1315.055999,5136,0,1.46E-06,0,0,0,0,0,0,54.19729516,0,0,0,0,0,0,0,,,,
1315.063999,5136,0,1.45E-06,0,0,0,0,0,0,-232.6925691,0,0,0,0,0,0,0,,,,
1315.071999,5137,0,1.43E-06,0,0,0,0,0,0,-112.6584626,0,0,0,0,0,0,0,,,,
1315.079999,5137,0,1.42E-06,0,0,0,0,0,0,-73.02731734,0,0,0,0,0,0,0,,,,
1315.087999,5137,0,-5.02E-07,0,0,0,0,0,0,-152.2480064,0,0,0,0,0,0,0,,,,
1315.095999,5137,0,-2.31E-06,0,0,0,0,0,0,-188.0640262,0,0,0,0,0,0,0,,,,
1315.103999,5137,0,-1.73E-06,0,0,0,0,0,0,-48.15507345,0,0,0,0,0,0,0,,,,
1315.111999,5137,0,-1.77E-06,0,0,0,0,0,0,-205.9856265,0,0,0,0,0,0,0,,,,
1315.119999,5137,0,-1.87E-06,0,0,0,0,0,0,-137.6618676,0,0,0,0,0,0,0,,,,
1315.127999,5137,0,-1.71E-06,0,0,0,0,0,0,-62.33896711,0,0,0,0,0,0,0,,,,
1315.135999,5137,0,-1.81E-06,0,0,0,0,0,0,-289.4473201,0,0,0,0,0,0,0,,,,
1315.143999,5137,0,-1.72E-06,0,0,0,0,0,0,27.23950051,0,0,0,0,0,0,0,,,,
1315.151999,5137,0,-1.75E-06,0,0,0,0,0,0,-204.1362254,0,0,0,0,0,0,0,,,,
1315.159999,5137,0,-1.71E-06,0,0,0,0,0,0,-143.6216134,0,0,0,0,0,0,0,,,,
1315.167999,5137,0,-1.70E-06,0,0,0,0,0,0,-6.550681951,0,0,0,0,0,0,0,,,,
1315.175999,5137,0,-1.68E-06,0,0,0,0,0,0,-274.0878849,0,0,0,0,0,0,0,,,,
1315.183999,5137,0,-1.67E-06,0,0,0,0,0,0,73.06998687,0,0,0,0,0,0,0,,,,
1315.191999,5137,0,-1.65E-06,0,0,0,0,0,0,-213.4064456,0,0,0,0,0,0,0,,,,
1315.199999,5137,0,-1.64E-06,0,0,0,0,0,0,-123.0077315,0,0,0,0,0,0,0,,,,
1315.207999,5137,0,-1.62E-06,0,0,0,0,0,0,33.32854876,0,0,0,0,0,0,0,,,,
1315.215999,5137,0,-1.61E-06,0,0,0,0,0,0,-275.0614733,0,0,0,0,0,0,0,,,,
1315.223999,5137,0,-1.59E-06,0,0,0,0,0,0,102.7868796,0,0,0,0,0,0,0,,,,
1315.231999,5137,0,-1.58E-06,0,0,0,0,0,0,-155.0585955,0,0,0,0,0,0,0,,,,
1315.239999,5137,0,-1.56E-06,0,0,0,0,0,0,-74.89889298,0,0,0,0,0,0,0,,,,
1315.247999,5137,0,-1.55E-06,0,0,0,0,0,0,77.37750763,0,0,0,0,0,0,0,,,,
1315.255999,5137,0,-1.53E-06,0,0,0,0,0,0,-242.2537758,0,0,0,0,0,0,0,,,,
1315.263999,5137,0,-1.52E-06,0,0,0,0,0,0,104.2256969,0,0,0,0,0,0,0,,,,
1315.271999,5137,0,-1.50E-06,0,0,0,0,0,0,-164.8936126,0,0,0,0,0,0,0,,,,
1315.279999,5137,0,-1.49E-06,0,0,0,0,0,0,-82.1305946,0,0,0,0,0,0,0,,,,
1315.287999,5137,0,-1.47E-06,0,0,0,0,0,0,61.8693373,0,0,0,0,0,0,0,,,,
1315.295999,5137,0,-1.46E-06,0,0,0,0,0,0,-266.6430566,0,0,0,0,0,0,0,,,,
1315.303999,5137,0,-1.45E-06,0,0,0,0,0,0,101.4280933,0,0,0,0,0,0,0,,,,
1315.311999,5137,0,-1.43E-06,0,0,0,0,0,0,-158.7974236,0,0,0,0,0,0,0,,,,
1315.319999,5137,0,-1.42E-06,0,0,0,0,0,0,-86.91548062,0,0,0,0,0,0,0,,,,
1315.327999,5138,0,5.02E-07,0,0,0,0,0,0,59.28481554,0,0,0,0,0,0,0,,,,
1315.335999,5138,0,2.31E-06,0,0,0,0,0,0,-298.6663824,0,0,0,0,0,0,0,,,,
1315.343999,5138,0,1.73E-06,0,0,0,0,0,0,57.7072,0,0,0,0,0,0,0,,,,
1315.351999,5138,0,1.77E-06,0,0,0,0,0,0,-188.9369116,0,0,0,0,0,0,0,,,,
1315.359999,5138,0,1.87E-06,0,0,0,0,0,0,-127.1698206,0,0,0,0,0,0,0,,,,
1315.367999,5138,0,1.71E-06,0,0,0,0,0,0,37.03274759,0,0,0,0,0,0,0,,,,
1315.375999,5138,0,1.81E-06,0,0,0,0,0,0,-279.4320152,0,0,0,0,0,0,0,,,,
1315.383999,5138,0,1.72E-06,0,0,0,0,0,0,106.3413752,0,0,0,0,0,0,0,,,,
1315.391999,5138,0,1.75E-06,0,0,0,0,0,0,-142.4528147,0,0,0,0,0,0,0,,,,
1315.399999,5138,0,1.71E-06,0,0,0,0,0,0,-99.76058689,0,0,0,0,0,0,0,,,,
1315.407999,5138,0,1.70E-06,0,0,0,0,0,0,78.44932615,0,0,0,0,0,0,0,,,,
1315.415999,5138,0,1.68E-06,0,0,0,0,0,0,-248.1154022,0,0,0,0,0,0,0,,,,
1315.423999,5138,0,1.67E-06,0,0,0,0,0,0,97.58360386,0,0,0,0,0,0,0,,,,
1315.431999,5138,0,1.65E-06,0,0,0,0,0,0,-160.3847612,0,0,0,0,0,0,0,,,,
1315.439999,5138,0,1.64E-06,0,0,0,0,0,0,-94.4252463,0,0,0,0,0,0,0,,,,
1315.447999,5138,0,1.62E-06,0,0,0,0,0,0,232.4412863,0,0,0,0,0,0,0,,,,
1315.455999,5138,0,1.61E-06,0,0,0,0,0,0,-124.8750277,0,0,0,0,0,0,0,,,,
1315.463999,5138,0,1.59E-06,0,0,0,0,0,0,-42.96377891,0,0,0,0,0,0,0,,,,
1315.471999,5138,0,1.58E-06,0,0,0,0,0,0,-91.1843785,0,0,0,0,0,0,0,,,,
1315.479999,5138,0,1.56E-06,0,0,0,0,0,0,-43.21203152,0,0,0,0,0,0,0,,,,
1315.487999,5138,0,1.55E-06,0,0,0,0,0,0,-85.59856248,0,0,0,0,0,0,0,,,,
1315.495999,5138,0,1.53E-06,0,0,0,0,0,0,-81.93858217,0,0,0,0,0,0,0,,,,
1315.503999,5138,0,1.52E-06,0,0,0,0,0,0,63.6722495,0,0,0,0,0,0,0,,,,
1315.511999,5138,0,1.50E-06,0,0,0,0,0,0,-186.1344959,0,0,0,0,0,0,0,,,,
1315.519999,5138,0,1.49E-06,0,0,0,0,0,0,65.23029373,0,0,0,0,0,0,0,,,,
1315.527999,5138,0,1.47E-06,0,0,0,0,0,0,-78.8365667,0,0,0,0,0,0,0,,,,
1315.535999,5138,0,1.46E-06,0,0,0,0,0,0,-101.2255723,0,0,0,0,0,0,0,,,,
1315.543999,5138,0,1.45E-06,0,0,0,0,0,0,110.4933212,0,0,0,0,0,0,0,,,,
1315.551999,5138,0,1.43E-06,0,0,0,0,0,0,-167.3095346,0,0,0,0,0,0,0,,,,
1315.559999,5138,0,1.42E-06,0,0,0,0,0,0,133.3281579,0,0,0,0,0,0,0,,,,
1315.567999,5138,0,-5.02E-07,0,0,0,0,0,0,-48.17696277,0,0,0,0,0,0,0,,,,
1315.575999,5138,0,-2.31E-06,0,0,0,0,0,0,-53.03704427,0,0,0,0,0,0,0,,,,
1315.583999,5139,0,-1.73E-06,0,0,0,0,0,0,128.6040356,0,0,0,0,0,0,0,,,,
1315.591999,5139,0,-1.77E-06,0,0,0,0,0,0,-215.3589573,0,0,0,0,0,0,0,,,,
1315.599999,5139,0,-1.87E-06,0,0,0,0,0,0,112.8768296,0,0,0,0,0,0,0,,,,
1315.607999,5139,0,-1.71E-06,0,0,0,0,0,0,-65.54306316,0,0,0,0,0,0,0,,,,
1315.615999,5139,0,-1.81E-06,0,0,0,0,0,0,-47.26824833,0,0,0,0,0,0,0,,,,
1315.623999,5139,0,-1.72E-06,0,0,0,0,0,0,145.9039657,0,0,0,0,0,0,0,,,,
1315.631999,5139,0,-1.75E-06,0,0,0,0,0,0,-220.4116273,0,0,0,0,0,0,0,,,,
1315.639999,5139,0,-1.71E-06,0,0,0,0,0,0,134.2263065,0,0,0,0,0,0,0,,,,
1315.647999,5139,0,-1.70E-06,0,0,0,0,0,0,-38.81001519,0,0,0,0,0,0,0,,,,
1315.655999,5139,0,-1.68E-06,0,0,0,0,0,0,-46.25016282,0,0,0,0,0,0,0,,,,
1315.663999,5139,0,-1.67E-06,0,0,0,0,0,0,170.8838799,0,0,0,0,0,0,0,,,,
1315.671999,5139,0,-1.65E-06,0,0,0,0,0,0,-180.9471112,0,0,0,0,0,0,0,,,,
1315.679999,5139,0,-1.64E-06,0,0,0,0,0,0,174.7570261,0,0,0,0,0,0,0,,,,
1315.687999,5139,0,-1.62E-06,0,0,0,0,0,0,-9.467076166,0,0,0,0,0,0,0,,,,
1315.695999,5139,0,-1.61E-06,0,0,0,0,0,0,-74.86125045,0,0,0,0,0,0,0,,,,
1315.703999,5139,0,-1.59E-06,0,0,0,0,0,0,141.5392754,0,0,0,0,0,0,0,,,,
1315.711999,5139,0,-1.58E-06,0,0,0,0,0,0,-203.0351419,0,0,0,0,0,0,0,,,,
1315.719999,5139,0,-1.56E-06,0,0,0,0,0,0,125.0261016,0,0,0,0,0,0,0,,,,
1315.727999,5139,0,-1.55E-06,0,0,0,0,0,0,-32.85500627,0,0,0,0,0,0,0,,,,
1315.735999,5139,0,-1.53E-06,0,0,0,0,0,0,-59.79828472,0,0,0,0,0,0,0,,,,
1315.743999,5139,0,-1.52E-06,0,0,0,0,0,0,168.5460145,0,0,0,0,0,0,0,,,,
1315.751999,5139,0,-1.50E-06,0,0,0,0,0,0,-185.5124308,0,0,0,0,0,0,0,,,,
1315.759999,5139,0,-1.49E-06,0,0,0,0,0,0,136.3875168,0,0,0,0,0,0,0,,,,
1315.767999,5139,0,-1.47E-06,0,0,0,0,0,0,-22.27074807,0,0,0,0,0,0,0,,,,
1315.775999,5139,0,-1.46E-06,0,0,0,0,0,0,-39.28259516,0,0,0,0,0,0,0,,,,
1315.783999,5139,0,-1.45E-06,0,0,0,0,0,0,225.9219113,0,0,0,0,0,0,0,,,,
1315.791999,5139,0,-1.43E-06,0,0,0,0,0,0,-321.4649327,0,0,0,0,0,0,0,,,,
1315.799999,5139,0,-1.42E-06,0,0,0,0,0,0,-151.4183159,0,0,0,0,0,0,0,,,,
1315.807999,5139,0,5.02E-07,0,0,0,0,0,0,38.81949768,0,0,0,0,0,0,0,,,,
1315.815999,5139,0,2.31E-06,0,0,0,0,0,0,63.31420773,0,0,0,0,0,0,0,,,,
1315.823999,5139,0,1.73E-06,0,0,0,0,0,0,120.4005369,0,0,0,0,0,0,0,,,,
1315.831999,5139,0,1.77E-06,0,0,0,0,0,0,-106.8448509,0,0,0,0,0,0,0,,,,
1315.839999,5140,0,1.87E-06,0,0,0,0,0,0,156.6208891,0,0,0,0,0,0,0,,,,
1315.847999,5140,0,1.71E-06,0,0,0,0,0,0,-11.84996915,0,0,0,0,0,0,0,,,,
1315.855999,5140,0,1.81E-06,0,0,0,0,0,0,-3.921301211,0,0,0,0,0,0,0,,,,
1315.863999,5140,0,1.72E-06,0,0,0,0,0,0,197.0705192,0,0,0,0,0,0,0,,,,
1315.871999,5140,0,1.75E-06,0,0,0,0,0,0,-116.141327,0,0,0,0,0,0,0,,,,
1315.879999,5140,0,1.71E-06,0,0,0,0,0,0,171.3354575,0,0,0,0,0,0,0,,,,
1315.887999,5140,0,1.70E-06,0,0,0,0,0,0,9.20183145,0,0,0,0,0,0,0,,,,
1315.895999,5140,0,1.68E-06,0,0,0,0,0,0,-60.34643593,0,0,0,0,0,0,0,,,,
1315.903999,5140,0,1.67E-06,0,0,0,0,0,0,186.5335154,0,0,0,0,0,0,0,,,,
1315.911999,5140,0,1.65E-06,0,0,0,0,0,0,-151.8720998,0,0,0,0,0,0,0,,,,
1315.919999,5140,0,1.64E-06,0,0,0,0,0,0,136.8349191,0,0,0,0,0,0,0,,,,
1315.927999,5140,0,1.62E-06,0,0,0,0,0,0,23.04302958,0,0,0,0,0,0,0,,,,
1315.935999,5140,0,1.61E-06,0,0,0,0,0,0,-37.26104851,0,0,0,0,0,0,0,,,,
1315.943999,5140,0,1.59E-06,0,0,0,0,0,0,220.463562,0,0,0,0,0,0,0,,,,
1315.951999,5140,0,1.58E-06,0,0,0,0,0,0,-145.2306235,0,0,0,0,0,0,0,,,,
1315.959999,5140,0,1.56E-06,0,0,0,0,0,0,142.6045069,0,0,0,0,0,0,0,,,,
1315.967999,5140,0,1.55E-06,0,0,0,0,0,0,25.18529886,0,0,0,0,0,0,0,,,,
1315.975999,5140,0,1.53E-06,0,0,0,0,0,0,-60.9913339,0,0,0,0,0,0,0,,,,
1315.983999,5140,0,1.52E-06,0,0,0,0,0,0,207.8966484,0,0,0,0,0,0,0,,,,
1315.991999,5140,0,1.50E-06,0,0,0,0,0,0,-164.2090085,0,0,0,0,0,0,0,,,,
1315.999999,5140,0,1.49E-06,0,0,0,0,0,0,123.3220512,0,0,0,0,0,0,0,,,,
1316.007999,5140,0,1.47E-06,0,0,0,0,0,0,20.07754305,0,0,0,0,0,0,0,,,,
1316.015999,5140,0,1.46E-06,0,0,0,0,0,0,-85.99343883,0,0,0,0,0,0,0,,,,
1316.023999,5140,0,1.45E-06,0,0,0,0,0,0,178.1341194,0,0,0,0,0,0,0,,,,
1316.031999,5140,0,1.43E-06,0,0,0,0,0,0,-165.1529614,0,0,0,0,0,0,0,,,,
1316.039999,5140,0,1.42E-06,0,0,0,0,0,0,142.000597,0,0,0,0,0,0,0,,,,
1316.047999,5140,0,-5.02E-07,0,0,0,0,0,0,33.34608964,0,0,0,0,0,0,0,,,,
1316.055999,5140,0,-2.31E-06,0,0,0,0,0,0,-49.11846103,0,0,0,0,0,0,0,,,,
1316.063999,5140,0,-1.73E-06,0,0,0,0,0,0,260.0233788,0,0,0,0,0,0,0,,,,
1316.071999,5140,0,-1.77E-06,0,0,0,0,0,0,-121.3774402,0,0,0,0,0,0,0,,,,
1316.079999,5140,0,-1.87E-06,0,0,0,0,0,0,134.2749689,0,0,0,0,0,0,0,,,,
1316.087999,5140,0,-1.71E-06,0,0,0,0,0,0,36.61489287,0,0,0,0,0,0,0,,,,
1316.095999,5141,0,-1.81E-06,0,0,0,0,0,0,-78.01111096,0,0,0,0,0,0,0,,,,
1316.103999,5141,0,-1.72E-06,0,0,0,0,0,0,195.7431528,0,0,0,0,0,0,0,,,,
1316.111999,5141,0,-1.75E-06,0,0,0,0,0,0,-153.2715198,0,0,0,0,0,0,0,,,,
1316.119999,5141,0,-1.71E-06,0,0,0,0,0,0,121.0182098,0,0,0,0,0,0,0,,,,
1316.127999,5141,0,-1.70E-06,0,0,0,0,0,0,0.025207288,0,0,0,0,0,0,0,,,,
1316.135999,5141,0,-1.68E-06,0,0,0,0,0,0,-106.3806052,0,0,0,0,0,0,0,,,,
1316.143999,5141,0,-1.67E-06,0,0,0,0,0,0,198.9918714,0,0,0,0,0,0,0,,,,
1316.151999,5141,0,-1.65E-06,0,0,0,0,0,0,-165.645631,0,0,0,0,0,0,0,,,,
1316.159999,5141,0,-1.64E-06,0,0,0,0,0,0,118.8796135,0,0,0,0,0,0,0,,,,
1316.167999,5141,0,-1.62E-06,0,0,0,0,0,0,18.61691707,0,0,0,0,0,0,0,,,,
1316.175999,5141,0,-1.61E-06,0,0,0,0,0,0,-123.8713495,0,0,0,0,0,0,0,,,,
1316.183999,5141,0,-1.59E-06,0,0,0,0,0,0,190.735758,0,0,0,0,0,0,0,,,,
1316.191999,5141,0,-1.58E-06,0,0,0,0,0,0,-169.3995969,0,0,0,0,0,0,0,,,,
1316.199999,5141,0,-1.56E-06,0,0,0,0,0,0,83.89596723,0,0,0,0,0,0,0,,,,
1316.207999,5141,0,-1.55E-06,0,0,0,0,0,0,20.63379562,0,0,0,0,0,0,0,,,,
1316.215999,5141,0,-1.53E-06,0,0,0,0,0,0,-102.6558732,0,0,0,0,0,0,0,,,,
1316.223999,5141,0,-1.52E-06,0,0,0,0,0,0,191.1326131,0,0,0,0,0,0,0,,,,
1316.231999,5141,0,-1.50E-06,0,0,0,0,0,0,-156.6783045,0,0,0,0,0,0,0,,,,
1316.239999,5141,0,-1.49E-06,0,0,0,0,0,0,111.0505014,0,0,0,0,0,0,0,,,,
1316.247999,5141,0,-1.47E-06,0,0,0,0,0,0,33.42647969,0,0,0,0,0,0,0,,,,
1316.255999,5141,0,-1.46E-06,0,0,0,0,0,0,-99.59393917,0,0,0,0,0,0,0,,,,
1316.263999,5141,0,-1.45E-06,0,0,0,0,0,0,199.0228697,0,0,0,0,0,0,0,,,,
1316.271999,5141,0,-1.43E-06,0,0,0,0,0,0,-296.5224836,0,0,0,0,0,0,0,,,,
1316.279999,5141,0,-1.42E-06,0,0,0,0,0,0,-68.92654571,0,0,0,0,0,0,0,,,,
1316.287999,5141,0,5.02E-07,0,0,0,0,0,0,105.8910066,0,0,0,0,0,0,0,,,,
1316.295999,5141,0,2.31E-06,0,0,0,0,0,0,-186.6200303,0,0,0,0,0,0,0,,,,
1316.303999,5141,0,1.73E-06,0,0,0,0,0,0,146.4924988,0,0,0,0,0,0,0,,,,
1316.311999,5141,0,1.77E-06,0,0,0,0,0,0,-22.2320529,0,0,0,0,0,0,0,,,,
1316.319999,5141,0,1.87E-06,0,0,0,0,0,0,-165.4499752,0,0,0,0,0,0,0,,,,
1316.327999,5141,0,1.71E-06,0,0,0,0,0,0,107.8287956,0,0,0,0,0,0,0,,,,
1316.335999,5141,0,1.81E-06,0,0,0,0,0,0,-104.9107316,0,0,0,0,0,0,0,,,,
1316.343999,5141,0,1.72E-06,0,0,0,0,0,0,-51.9835741,0,0,0,0,0,0,0,,,,
1316.351999,5142,0,1.75E-06,0,0,0,0,0,0,89.3200641,0,0,0,0,0,0,0,,,,
1316.359999,5142,0,1.71E-06,0,0,0,0,0,0,-167.9780859,0,0,0,0,0,0,0,,,,
1316.367999,5142,0,1.70E-06,0,0,0,0,0,0,81.20759316,0,0,0,0,0,0,0,,,,
1316.375999,5142,0,1.68E-06,0,0,0,0,0,0,-13.7116117,0,0,0,0,0,0,0,,,,
1316.383999,5142,0,1.67E-06,0,0,0,0,0,0,-96.4189026,0,0,0,0,0,0,0,,,,
1316.391999,5142,0,1.65E-06,0,0,0,0,0,0,188.7255116,0,0,0,0,0,0,0,,,,
1316.399999,5142,0,1.64E-06,0,0,0,0,0,0,-131.378233,0,0,0,0,0,0,0,,,,
1316.407999,5142,0,1.62E-06,0,0,0,0,0,0,96.38825524,0,0,0,0,0,0,0,,,,
1316.415999,5142,0,1.61E-06,0,0,0,0,0,0,48.33190951,0,0,0,0,0,0,0,,,,
1316.423999,5142,0,1.59E-06,0,0,0,0,0,0,-118.5762113,0,0,0,0,0,0,0,,,,
1316.431999,5142,0,1.58E-06,0,0,0,0,0,0,202.2011668,0,0,0,0,0,0,0,,,,
1316.439999,5142,0,1.56E-06,0,0,0,0,0,0,-131.9065491,0,0,0,0,0,0,0,,,,
1316.447999,5142,0,1.55E-06,0,0,0,0,0,0,90.18611165,0,0,0,0,0,0,0,,,,
1316.455999,5142,0,1.53E-06,0,0,0,0,0,0,70.05573684,0,0,0,0,0,0,0,,,,
1316.463999,5142,0,1.52E-06,0,0,0,0,0,0,-113.6455226,0,0,0,0,0,0,0,,,,
1316.471999,5142,0,1.50E-06,0,0,0,0,0,0,207.1191302,0,0,0,0,0,0,0,,,,
1316.479999,5142,0,1.49E-06,0,0,0,0,0,0,-139.981728,0,0,0,0,0,0,0,,,,
1316.487999,5142,0,1.47E-06,0,0,0,0,0,0,76.9589642,0,0,0,0,0,0,0,,,,
1316.495999,5142,0,1.46E-06,0,0,0,0,0,0,56.99383915,0,0,0,0,0,0,0,,,,
1316.503999,5142,0,1.45E-06,0,0,0,0,0,0,-141.4401548,0,0,0,0,0,0,0,,,,
1316.511999,5142,0,1.43E-06,0,0,0,0,0,0,203.1739132,0,0,0,0,0,0,0,,,,
1316.519999,5142,0,1.42E-06,0,0,0,0,0,0,-125.8300643,0,0,0,0,0,0,0,,,,
1316.527999,5142,0,-5.02E-07,0,0,0,0,0,0,88.51097465,0,0,0,0,0,0,0,,,,
1316.535999,5142,0,-2.31E-06,0,0,0,0,0,0,74.86924978,0,0,0,0,0,0,0,,,,
1316.543999,5142,0,-1.73E-06,0,0,0,0,0,0,-136.2899785,0,0,0,0,0,0,0,,,,
1316.551999,5142,0,-1.77E-06,0,0,0,0,0,0,205.9568926,0,0,0,0,0,0,0,,,,
1316.559999,5142,0,-1.87E-06,0,0,0,0,0,0,-123.1927848,0,0,0,0,0,0,0,,,,
1316.567999,5142,0,-1.71E-06,0,0,0,0,0,0,90.43993272,0,0,0,0,0,0,0,,,,
1316.575999,5142,0,-1.81E-06,0,0,0,0,0,0,99.95441492,0,0,0,0,0,0,0,,,,
1316.583999,5142,0,-1.72E-06,0,0,0,0,0,0,-105.4482114,0,0,0,0,0,0,0,,,,
1316.591999,5142,0,-1.75E-06,0,0,0,0,0,0,237.5830967,0,0,0,0,0,0,0,,,,
1316.599999,5142,0,-1.71E-06,0,0,0,0,0,0,-99.50870755,0,0,0,0,0,0,0,,,,
1316.607999,5143,0,-1.70E-06,0,0,0,0,0,0,100.2574087,0,0,0,0,0,0,0,,,,
1316.615999,5143,0,-1.68E-06,0,0,0,0,0,0,107.9914667,0,0,0,0,0,0,0,,,,
1316.623999,5143,0,-1.67E-06,0,0,0,0,0,0,-118.3620164,0,0,0,0,0,0,0,,,,
1316.631999,5143,0,-1.65E-06,0,0,0,0,0,0,223.6654033,0,0,0,0,0,0,0,,,,
1316.639999,5143,0,-1.64E-06,0,0,0,0,0,0,-111.6607499,0,0,0,0,0,0,0,,,,
1316.647999,5143,0,-1.62E-06,0,0,0,0,0,0,78.09510947,0,0,0,0,0,0,0,,,,
1316.655999,5143,0,-1.61E-06,0,0,0,0,0,0,103.6266153,0,0,0,0,0,0,0,,,,
1316.663999,5143,0,-1.59E-06,0,0,0,0,0,0,-136.946161,0,0,0,0,0,0,0,,,,
1316.671999,5143,0,-1.58E-06,0,0,0,0,0,0,194.6694067,0,0,0,0,0,0,0,,,,
1316.679999,5143,0,-1.56E-06,0,0,0,0,0,0,-117.8626746,0,0,0,0,0,0,0,,,,
1316.687999,5143,0,-1.55E-06,0,0,0,0,0,0,71.64034526,0,0,0,0,0,0,0,,,,
1316.695999,5143,0,-1.53E-06,0,0,0,0,0,0,84.11668685,0,0,0,0,0,0,0,,,,
1316.703999,5143,0,-1.52E-06,0,0,0,0,0,0,-150.1994023,0,0,0,0,0,0,0,,,,
1316.711999,5143,0,-1.50E-06,0,0,0,0,0,0,221.4415121,0,0,0,0,0,0,0,,,,
1316.719999,5143,0,-1.49E-06,0,0,0,0,0,0,-109.6378849,0,0,0,0,0,0,0,,,,
1316.727999,5143,0,-1.47E-06,0,0,0,0,0,0,59.31972811,0,0,0,0,0,0,0,,,,
1316.735999,5143,0,-1.46E-06,0,0,0,0,0,0,113.2461411,0,0,0,0,0,0,0,,,,
1316.743999,5143,0,-1.45E-06,0,0,0,0,0,0,-137.4765849,0,0,0,0,0,0,0,,,,
1316.751999,5143,0,-1.43E-06,0,0,0,0,0,0,234.9739121,0,0,0,0,0,0,0,,,,
1316.759999,5143,0,-1.42E-06,0,0,0,0,0,0,-77.5376369,0,0,0,0,0,0,0,,,,
1316.767999,5143,0,5.02E-07,0,0,0,0,0,0,73.30104483,0,0,0,0,0,0,0,,,,
1316.775999,5143,0,2.31E-06,0,0,0,0,0,0,153.9353701,0,0,0,0,0,0,0,,,,
1316.783999,5143,0,1.73E-06,0,0,0,0,0,0,-94.58298707,0,0,0,0,0,0,0,,,,
1316.791999,5143,0,1.77E-06,0,0,0,0,0,0,241.3225945,0,0,0,0,0,0,0,,,,
1316.799999,5143,0,1.87E-06,0,0,0,0,0,0,-77.19824027,0,0,0,0,0,0,0,,,,
1316.807999,5143,0,1.71E-06,0,0,0,0,0,0,75.21150555,0,0,0,0,0,0,0,,,,
1316.815999,5143,0,1.81E-06,0,0,0,0,0,0,135.3111889,0,0,0,0,0,0,0,,,,
1316.823999,5143,0,1.72E-06,0,0,0,0,0,0,-136.1915449,0,0,0,0,0,0,0,,,,
1316.831999,5143,0,1.75E-06,0,0,0,0,0,0,230.3285731,0,0,0,0,0,0,0,,,,
1316.839999,5143,0,1.71E-06,0,0,0,0,0,0,-82.6737,0,0,0,0,0,0,0,,,,
1316.847999,5143,0,1.70E-06,0,0,0,0,0,0,44.80089973,0,0,0,0,0,0,0,,,,
1316.855999,5143,0,1.68E-06,0,0,0,0,0,0,137.799427,0,0,0,0,0,0,0,,,,
1316.863999,5144,0,1.67E-06,0,0,0,0,0,0,-139.5511703,0,0,0,0,0,0,0,,,,
1316.871999,5144,0,1.65E-06,0,0,0,0,0,0,207.6177547,0,0,0,0,0,0,0,,,,
1316.879999,5144,0,1.64E-06,0,0,0,0,0,0,-85.80093364,0,0,0,0,0,0,0,,,,
1316.887999,5144,0,1.62E-06,0,0,0,0,0,0,46.97220598,0,0,0,0,0,0,0,,,,
1316.895999,5144,0,1.61E-06,0,0,0,0,0,0,141.2585799,0,0,0,0,0,0,0,,,,
1316.903999,5144,0,1.59E-06,0,0,0,0,0,0,-160.5678479,0,0,0,0,0,0,0,,,,
1316.911999,5144,0,1.58E-06,0,0,0,0,0,0,180.640887,0,0,0,0,0,0,0,,,,
1316.919999,5144,0,1.56E-06,0,0,0,0,0,0,-90.4599362,0,0,0,0,0,0,0,,,,
1316.927999,5144,0,1.55E-06,0,0,0,0,0,0,44.62371109,0,0,0,0,0,0,0,,,,
1316.935999,5144,0,1.53E-06,0,0,0,0,0,0,149.1034876,0,0,0,0,0,0,0,,,,
1316.943999,5144,0,1.52E-06,0,0,0,0,0,0,-139.5329614,0,0,0,0,0,0,0,,,,
1316.951999,5144,0,1.50E-06,0,0,0,0,0,0,200.7301557,0,0,0,0,0,0,0,,,,
1316.959999,5144,0,1.49E-06,0,0,0,0,0,0,-85.9498309,0,0,0,0,0,0,0,,,,
1316.967999,5144,0,1.47E-06,0,0,0,0,0,0,42.10587039,0,0,0,0,0,0,0,,,,
1316.975999,5144,0,1.46E-06,0,0,0,0,0,0,149.8881937,0,0,0,0,0,0,0,,,,
1316.983999,5144,0,1.45E-06,0,0,0,0,0,0,-152.0946384,0,0,0,0,0,0,0,,,,
1316.991999,5144,0,1.43E-06,0,0,0,0,0,0,198.6028919,0,0,0,0,0,0,0,,,,
1316.999999,5144,0,1.42E-06,0,0,0,0,0,0,-87.84998613,0,0,0,0,0,0,0,,,,
1317.007999,5144,0,-5.02E-07,0,0,0,0,0,0,5.070488706,0,0,0,0,0,0,0,,,,
1317.015999,5144,0,-2.31E-06,0,0,0,0,0,0,129.0269697,0,0,0,0,0,0,0,,,,
1317.023999,5144,0,-1.73E-06,0,0,0,0,0,0,-144.0256802,0,0,0,0,0,0,0,,,,
1317.031999,5144,0,-1.77E-06,0,0,0,0,0,0,212.8082601,0,0,0,0,0,0,0,,,,
1317.039999,5144,0,-1.87E-06,0,0,0,0,0,0,-79.82558707,0,0,0,0,0,0,0,,,,
1317.047999,5144,0,-1.71E-06,0,0,0,0,0,0,15.67466302,0,0,0,0,0,0,0,,,,
1317.055999,5144,0,-1.81E-06,0,0,0,0,0,0,155.067125,0,0,0,0,0,0,0,,,,
1317.063999,5144,0,-1.72E-06,0,0,0,0,0,0,-149.0675422,0,0,0,0,0,0,0,,,,
1317.071999,5144,0,-1.75E-06,0,0,0,0,0,0,208.3961312,0,0,0,0,0,0,0,,,,
1317.079999,5144,0,-1.71E-06,0,0,0,0,0,0,-77.83619065,0,0,0,0,0,0,0,,,,
1317.087999,5144,0,-1.70E-06,0,0,0,0,0,0,-4.424299234,0,0,0,0,0,0,0,,,,
1317.095999,5144,0,-1.68E-06,0,0,0,0,0,0,155.3976301,0,0,0,0,0,0,0,,,,
1317.103999,5144,0,-1.67E-06,0,0,0,0,0,0,-175.5379333,0,0,0,0,0,0,0,,,,
1317.111999,5144,0,-1.65E-06,0,0,0,0,0,0,171.4931329,0,0,0,0,0,0,0,,,,
1317.119999,5145,0,-1.64E-06,0,0,0,0,0,0,-62.34869704,0,0,0,0,0,0,0,,,,
1317.127999,5145,0,-1.62E-06,0,0,0,0,0,0,1.133648802,0,0,0,0,0,0,0,,,,
1317.135999,5145,0,-1.61E-06,0,0,0,0,0,0,149.6285228,0,0,0,0,0,0,0,,,,
1317.143999,5145,0,-1.59E-06,0,0,0,0,0,0,-157.7126469,0,0,0,0,0,0,0,,,,
1317.151999,5145,0,-1.58E-06,0,0,0,0,0,0,183.7220035,0,0,0,0,0,0,0,,,,
1317.159999,5145,0,-1.56E-06,0,0,0,0,0,0,-64.68387988,0,0,0,0,0,0,0,,,,
1317.167999,5145,0,-1.55E-06,0,0,0,0,0,0,9.630143666,0,0,0,0,0,0,0,,,,
1317.175999,5145,0,-1.53E-06,0,0,0,0,0,0,157.3185931,0,0,0,0,0,0,0,,,,
1317.183999,5145,0,-1.52E-06,0,0,0,0,0,0,-173.9920365,0,0,0,0,0,0,0,,,,
1317.191999,5145,0,-1.50E-06,0,0,0,0,0,0,177.6888652,0,0,0,0,0,0,0,,,,
1317.199999,5145,0,-1.49E-06,0,0,0,0,0,0,-60.73889738,0,0,0,0,0,0,0,,,,
1317.207999,5145,0,-1.47E-06,0,0,0,0,0,0,9.543869106,0,0,0,0,0,0,0,,,,
1317.215999,5145,0,-1.46E-06,0,0,0,0,0,0,177.1282315,0,0,0,0,0,0,0,,,,
1317.223999,5145,0,-1.45E-06,0,0,0,0,0,0,-148.3740675,0,0,0,0,0,0,0,,,,
1317.231999,5145,0,-1.43E-06,0,0,0,0,0,0,210.4742294,0,0,0,0,0,0,0,,,,
1317.239999,5145,0,-1.42E-06,0,0,0,0,0,0,-45.24214538,0,0,0,0,0,0,0,,,,
1317.247999,5145,0,5.02E-07,0,0,0,0,0,0,-25.58201728,0,0,0,0,0,0,0,,,,
1317.255999,5145,0,2.31E-06,0,0,0,0,0,0,155.6965629,0,0,0,0,0,0,0,,,,
1317.263999,5145,0,1.73E-06,0,0,0,0,0,0,-164.6536514,0,0,0,0,0,0,0,,,,
1317.271999,5145,0,1.77E-06,0,0,0,0,0,0,167.7154735,0,0,0,0,0,0,0,,,,
1317.279999,5145,0,1.87E-06,0,0,0,0,0,0,-59.47720672,0,0,0,0,0,0,0,,,,
1317.287999,5145,0,1.71E-06,0,0,0,0,0,0,-14.18786132,0,0,0,0,0,0,0,,,,
1317.295999,5145,0,1.81E-06,0,0,0,0,0,0,144.1461521,0,0,0,0,0,0,0,,,,
1317.303999,5145,0,1.72E-06,0,0,0,0,0,0,-193.9392586,0,0,0,0,0,0,0,,,,
1317.311999,5145,0,1.75E-06,0,0,0,0,0,0,173.0929583,0,0,0,0,0,0,0,,,,
1317.319999,5145,0,1.71E-06,0,0,0,0,0,0,-48.59552655,0,0,0,0,0,0,0,,,,
1317.327999,5145,0,1.70E-06,0,0,0,0,0,0,-28.2973174,0,0,0,0,0,0,0,,,,
1317.335999,5145,0,1.68E-06,0,0,0,0,0,0,154.1996569,0,0,0,0,0,0,0,,,,
1317.343999,5145,0,1.67E-06,0,0,0,0,0,0,-175.6571184,0,0,0,0,0,0,0,,,,
1317.351999,5145,0,1.65E-06,0,0,0,0,0,0,189.3525863,0,0,0,0,0,0,0,,,,
1317.359999,5145,0,1.64E-06,0,0,0,0,0,0,-35.88401709,0,0,0,0,0,0,0,,,,
1317.367999,5145,0,1.62E-06,0,0,0,0,0,0,-32.89152736,0,0,0,0,0,0,0,,,,
1317.375999,5146,0,1.61E-06,0,0,0,0,0,0,169.1419798,0,0,0,0,0,0,0,,,,
1317.383999,5146,0,1.59E-06,0,0,0,0,0,0,-170.70977,0,0,0,0,0,0,0,,,,
1317.391999,5146,0,1.58E-06,0,0,0,0,0,0,169.1444538,0,0,0,0,0,0,0,,,,
1317.399999,5146,0,1.56E-06,0,0,0,0,0,0,-43.15330515,0,0,0,0,0,0,0,,,,
1317.407999,5146,0,1.55E-06,0,0,0,0,0,0,-33.95907,0,0,0,0,0,0,0,,,,
1317.415999,5146,0,1.53E-06,0,0,0,0,0,0,178.059964,0,0,0,0,0,0,0,,,,
1317.423999,5146,0,1.52E-06,0,0,0,0,0,0,-175.3165393,0,0,0,0,0,0,0,,,,
1317.431999,5146,0,1.50E-06,0,0,0,0,0,0,152.5570022,0,0,0,0,0,0,0,,,,
1317.439999,5146,0,1.49E-06,0,0,0,0,0,0,-41.09629822,0,0,0,0,0,0,0,,,,
1317.447999,5146,0,1.47E-06,0,0,0,0,0,0,-31.78529209,0,0,0,0,0,0,0,,,,
1317.455999,5146,0,1.46E-06,0,0,0,0,0,0,185.4626261,0,0,0,0,0,0,0,,,,
1317.463999,5146,0,1.45E-06,0,0,0,0,0,0,-170.2499544,0,0,0,0,0,0,0,,,,
1317.471999,5146,0,1.43E-06,0,0,0,0,0,0,165.3574464,0,0,0,0,0,0,0,,,,
1317.479999,5146,0,1.42E-06,0,0,0,0,0,0,-15.22018774,0,0,0,0,0,0,0,,,,
1317.487999,5146,0,-5.02E-07,0,0,0,0,0,0,-8.777870418,0,0,0,0,0,0,0,,,,
1317.495999,5146,0,-2.31E-06,0,0,0,0,0,0,211.8180837,0,0,0,0,0,0,0,,,,
1317.503999,5146,0,-1.73E-06,0,0,0,0,0,0,-195.672599,0,0,0,0,0,0,0,,,,
1317.511999,5146,0,-1.77E-06,0,0,0,0,0,0,138.2555807,0,0,0,0,0,0,0,,,,
1317.519999,5146,0,-1.87E-06,0,0,0,0,0,0,-6.977682938,0,0,0,0,0,0,0,,,,
1317.527999,5146,0,-1.71E-06,0,0,0,0,0,0,-53.51811773,0,0,0,0,0,0,0,,,,
1317.535999,5146,0,-1.81E-06,0,0,0,0,0,0,167.4015872,0,0,0,0,0,0,0,,,,
1317.543999,5146,0,-1.72E-06,0,0,0,0,0,0,-203.8638572,0,0,0,0,0,0,0,,,,
1317.551999,5146,0,-1.75E-06,0,0,0,0,0,0,129.1744747,0,0,0,0,0,0,0,,,,
1317.559999,5146,0,-1.71E-06,0,0,0,0,0,0,-23.88009674,0,0,0,0,0,0,0,,,,
1317.567999,5146,0,-1.70E-06,0,0,0,0,0,0,-78.50166926,0,0,0,0,0,0,0,,,,
1317.575999,5146,0,-1.68E-06,0,0,0,0,0,0,158.3595621,0,0,0,0,0,0,0,,,,
1317.583999,5146,0,-1.67E-06,0,0,0,0,0,0,-233.2834319,0,0,0,0,0,0,0,,,,
1317.591999,5146,0,-1.65E-06,0,0,0,0,0,0,85.04178287,0,0,0,0,0,0,0,,,,
1317.599999,5146,0,-1.64E-06,0,0,0,0,0,0,-45.2840817,0,0,0,0,0,0,0,,,,
1317.607999,5146,0,-1.62E-06,0,0,0,0,0,0,-105.3084992,0,0,0,0,0,0,0,,,,
1317.615999,5146,0,-1.61E-06,0,0,0,0,0,0,149.8724268,0,0,0,0,0,0,0,,,,
1317.623999,5146,0,-1.59E-06,0,0,0,0,0,0,-210.1971812,0,0,0,0,0,0,0,,,,
1317.631999,5147,0,-1.58E-06,0,0,0,0,0,0,106.5934637,0,0,0,0,0,0,0,,,,
1317.639999,5147,0,-1.56E-06,0,0,0,0,0,0,-123.8457569,0,0,0,0,0,0,0,,,,
1317.647999,5147,0,-1.55E-06,0,0,0,0,0,0,-299.0215247,0,0,0,0,0,0,0,,,,
1317.655999,5147,0,-1.53E-06,0,0,0,0,0,0,264.8822682,0,0,0,0,0,0,0,,,,
1317.663999,5147,0,-1.52E-06,0,0,0,0,0,0,-90.44440407,0,0,0,0,0,0,0,,,,
1317.671999,5147,0,-1.50E-06,0,0,0,0,0,0,-121.0315302,0,0,0,0,0,0,0,,,,
1317.679999,5147,0,-1.49E-06,0,0,0,0,0,0,146.2213454,0,0,0,0,0,0,0,,,,
1317.687999,5147,0,-1.47E-06,0,0,0,0,0,0,-134.7117919,0,0,0,0,0,0,0,,,,
1317.695999,5147,0,-1.46E-06,0,0,0,0,0,0,38.74668981,0,0,0,0,0,0,0,,,,
1317.703999,5147,0,-1.45E-06,0,0,0,0,0,0,84.6396357,0,0,0,0,0,0,0,,,,
1317.711999,5147,0,-1.43E-06,0,0,0,0,0,0,-144.2582962,0,0,0,0,0,0,0,,,,
1317.719999,5147,0,-1.42E-06,0,0,0,0,0,0,141.1706583,0,0,0,0,0,0,0,,,,
1317.727999,5147,0,5.02E-07,0,0,0,0,0,0,-146.0303074,0,0,0,0,0,0,0,,,,
1317.735999,5147,0,2.31E-06,0,0,0,0,0,0,-415.4750052,0,0,0,0,0,0,0,,,,
1317.743999,5147,0,1.73E-06,0,0,0,0,0,0,-113.6568997,0,0,0,0,0,0,0,,,,
1317.751999,5147,0,1.77E-06,0,0,0,0,0,0,-294.1931159,0,0,0,0,0,0,0,,,,
1317.759999,5147,0,1.87E-06,0,0,0,0,0,0,-46.23239883,0,0,0,0,0,0,0,,,,
1317.767999,5147,0,1.71E-06,0,0,0,0,0,0,179.9601357,0,0,0,0,0,0,0,,,,
1317.775999,5147,0,1.81E-06,0,0,0,0,0,0,-177.0992094,0,0,0,0,0,0,0,,,,
1317.783999,5147,0,1.72E-06,0,0,0,0,0,0,65.86759433,0,0,0,0,0,0,0,,,,
1317.791999,5147,0,1.75E-06,0,0,0,0,0,0,95.96916617,0,0,0,0,0,0,0,,,,
1317.799999,5147,0,1.71E-06,0,0,0,0,0,0,-148.3969545,0,0,0,0,0,0,0,,,,
1317.807999,5147,0,1.70E-06,0,0,0,0,0,0,153.7164259,0,0,0,0,0,0,0,,,,
1317.815999,5147,0,1.68E-06,0,0,0,0,0,0,-38.8846933,0,0,0,0,0,0,0,,,,
1317.823999,5147,0,1.67E-06,0,0,0,0,0,0,-47.51440717,0,0,0,0,0,0,0,,,,
1317.831999,5147,0,1.65E-06,0,0,0,0,0,0,173.0262537,0,0,0,0,0,0,0,,,,
1317.839999,5147,0,1.64E-06,0,0,0,0,0,0,-142.6024204,0,0,0,0,0,0,0,,,,
1317.847999,5147,0,1.62E-06,0,0,0,0,0,0,95.46055951,0,0,0,0,0,0,0,,,,
1317.855999,5147,0,1.61E-06,0,0,0,0,0,0,-31.44894109,0,0,0,0,0,0,0,,,,
1317.863999,5147,0,1.59E-06,0,0,0,0,0,0,-73.82300028,0,0,0,0,0,0,0,,,,
1317.871999,5147,0,1.58E-06,0,0,0,0,0,0,193.5615568,0,0,0,0,0,0,0,,,,
1317.879999,5147,0,1.56E-06,0,0,0,0,0,0,-196.3028606,0,0,0,0,0,0,0,,,,
1317.887999,5148,0,1.55E-06,0,0,0,0,0,0,93.58738633,0,0,0,0,0,0,0,,,,
1317.895999,5148,0,1.53E-06,0,0,0,0,0,0,17.24115133,0,0,0,0,0,0,0,,,,
1317.903999,5148,0,1.52E-06,0,0,0,0,0,0,-114.8674122,0,0,0,0,0,0,0,,,,
1317.911999,5148,0,1.50E-06,0,0,0,0,0,0,201.2790864,0,0,0,0,0,0,0,,,,
1317.919999,5148,0,1.49E-06,0,0,0,0,0,0,-152.6355917,0,0,0,0,0,0,0,,,,
1317.927999,5148,0,1.47E-06,0,0,0,0,0,0,84.0355633,0,0,0,0,0,0,0,,,,
1317.935999,5148,0,1.46E-06,0,0,0,0,0,0,-8.6190376,0,0,0,0,0,0,0,,,,
1317.943999,5148,0,1.45E-06,0,0,0,0,0,0,-137.9066546,0,0,0,0,0,0,0,,,,
1317.951999,5148,0,1.43E-06,0,0,0,0,0,0,164.5864496,0,0,0,0,0,0,0,,,,
1317.959999,5148,0,1.42E-06,0,0,0,0,0,0,-196.8753191,0,0,0,0,0,0,0,,,,
1317.967999,5148,0,-5.02E-07,0,0,0,0,0,0,86.83832874,0,0,0,0,0,0,0,,,,
1317.975999,5148,0,-2.31E-06,0,0,0,0,0,0,26.06736959,0,0,0,0,0,0,0,,,,
1317.983999,5148,0,-1.73E-06,0,0,0,0,0,0,-107.3935435,0,0,0,0,0,0,0,,,,
1317.991999,5148,0,-1.77E-06,0,0,0,0,0,0,224.8989633,0,0,0,0,0,0,0,,,,
1317.999999,5148,0,-1.87E-06,0,0,0,0,0,0,-160.274103,0,0,0,0,0,0,0,,,,
1318.007999,5148,0,-1.71E-06,0,0,0,0,0,0,104.4056231,0,0,0,0,0,0,0,,,,
1318.015999,5148,0,-1.81E-06,0,0,0,0,0,0,76.63952138,0,0,0,0,0,0,0,,,,
1318.023999,5148,0,-1.72E-06,0,0,0,0,0,0,-110.7471575,0,0,0,0,0,0,0,,,,
1318.031999,5148,0,-1.75E-06,0,0,0,0,0,0,195.2600208,0,0,0,0,0,0,0,,,,
1318.039999,5148,0,-1.71E-06,0,0,0,0,0,0,-155.3664994,0,0,0,0,0,0,0,,,,
1318.047999,5148,0,-1.70E-06,0,0,0,0,0,0,90.24275306,0,0,0,0,0,0,0,,,,
1318.055999,5148,0,-1.68E-06,0,0,0,0,0,0,54.70051521,0,0,0,0,0,0,0,,,,
1318.063999,5148,0,-1.67E-06,0,0,0,0,0,0,-105.9846002,0,0,0,0,0,0,0,,,,
1318.071999,5148,0,-1.65E-06,0,0,0,0,0,0,221.0746221,0,0,0,0,0,0,0,,,,
1318.079999,5148,0,-1.64E-06,0,0,0,0,0,0,-155.2086401,0,0,0,0,0,0,0,,,,
1318.087999,5148,0,-1.62E-06,0,0,0,0,0,0,78.39642373,0,0,0,0,0,0,0,,,,
1318.095999,5148,0,-1.61E-06,0,0,0,0,0,0,71.11559053,0,0,0,0,0,0,0,,,,
1318.103999,5148,0,-1.59E-06,0,0,0,0,0,0,-108.5218159,0,0,0,0,0,0,0,,,,
1318.111999,5148,0,-1.58E-06,0,0,0,0,0,0,222.2632729,0,0,0,0,0,0,0,,,,
1318.119999,5148,0,-1.56E-06,0,0,0,0,0,0,-137.2645466,0,0,0,0,0,0,0,,,,
1318.127999,5148,0,-1.55E-06,0,0,0,0,0,0,87.43595847,0,0,0,0,0,0,0,,,,
1318.135999,5148,0,-1.53E-06,0,0,0,0,0,0,93.213152,0,0,0,0,0,0,0,,,,
1318.143999,5149,0,-1.52E-06,0,0,0,0,0,0,-106.1951148,0,0,0,0,0,0,0,,,,
1318.151999,5149,0,-1.50E-06,0,0,0,0,0,0,214.3763109,0,0,0,0,0,0,0,,,,
1318.159999,5149,0,-1.49E-06,0,0,0,0,0,0,-116.8612723,0,0,0,0,0,0,0,,,,
1318.167999,5149,0,-1.47E-06,0,0,0,0,0,0,105.2731124,0,0,0,0,0,0,0,,,,
1318.175999,5149,0,-1.46E-06,0,0,0,0,0,0,87.73058408,0,0,0,0,0,0,0,,,,
1318.183999,5149,0,-1.45E-06,0,0,0,0,0,0,-112.4700063,0,0,0,0,0,0,0,,,,
1318.191999,5149,0,-1.43E-06,0,0,0,0,0,0,231.7657903,0,0,0,0,0,0,0,,,,
1318.199999,5149,0,-1.42E-06,0,0,0,0,0,0,-108.007645,0,0,0,0,0,0,0,,,,
1318.207999,5149,0,5.02E-07,0,0,0,0,0,0,103.9887177,0,0,0,0,0,0,0,,,,
1318.215999,5149,0,2.31E-06,0,0,0,0,0,0,92.67908177,0,0,0,0,0,0,0,,,,
1318.223999,5149,0,1.73E-06,0,0,0,0,0,0,-101.2329905,0,0,0,0,0,0,0,,,,
1318.231999,5149,0,1.77E-06,0,0,0,0,0,0,280.3380849,0,0,0,0,0,0,0,,,,
1318.239999,5149,0,1.87E-06,0,0,0,0,0,0,-274.4720154,0,0,0,0,0,0,0,,,,
1318.247999,5149,0,1.71E-06,0,0,0,0,0,0,-88.56391779,0,0,0,0,0,0,0,,,,
1318.255999,5149,0,1.81E-06,0,0,0,0,0,0,386.0095058,0,0,0,0,0,0,0,,,,
1318.263999,5149,0,1.72E-06,0,0,0,0,0,0,-145.0940836,0,0,0,0,0,0,0,,,,
1318.271999,5149,0,1.75E-06,0,0,0,0,0,0,92.62354666,0,0,0,0,0,0,0,,,,
1318.279999,5149,0,1.71E-06,0,0,0,0,0,0,201.9382798,0,0,0,0,0,0,0,,,,
1318.287999,5149,0,1.70E-06,0,0,0,0,0,0,-129.3461825,0,0,0,0,0,0,0,,,,
1318.295999,5149,0,1.68E-06,0,0,0,0,0,0,161.0906951,0,0,0,0,0,0,0,,,,
1318.303999,5149,0,1.67E-06,0,0,0,0,0,0,6.865740886,0,0,0,0,0,0,0,,,,
1318.311999,5149,0,1.65E-06,0,0,0,0,0,0,-62.79990616,0,0,0,0,0,0,0,,,,
1318.319999,5149,0,1.64E-06,0,0,0,0,0,0,196.1454341,0,0,0,0,0,0,0,,,,
1318.327999,5149,0,1.62E-06,0,0,0,0,0,0,-109.4781146,0,0,0,0,0,0,0,,,,
1318.335999,5149,0,1.61E-06,0,0,0,0,0,0,116.6238021,0,0,0,0,0,0,0,,,,
1318.343999,5149,0,1.59E-06,0,0,0,0,0,0,108.664535,0,0,0,0,0,0,0,,,,
1318.351999,5149,0,1.58E-06,0,0,0,0,0,0,-88.68887207,0,0,0,0,0,0,0,,,,
1318.359999,5149,0,1.56E-06,0,0,0,0,0,0,231.5503623,0,0,0,0,0,0,0,,,,
1318.367999,5149,0,1.55E-06,0,0,0,0,0,0,-77.21168883,0,0,0,0,0,0,0,,,,
1318.375999,5149,0,1.53E-06,0,0,0,0,0,0,87.12766958,0,0,0,0,0,0,0,,,,
1318.383999,5149,0,1.52E-06,0,0,0,0,0,0,132.97284,0,0,0,0,0,0,0,,,,
1318.391999,5149,0,1.50E-06,0,0,0,0,0,0,-81.57480765,0,0,0,0,0,0,0,,,,
1318.399999,5150,0,1.49E-06,0,0,0,0,0,0,265.9012115,0,0,0,0,0,0,0,,,,
1318.407999,5150,0,1.47E-06,0,0,0,0,0,0,-53.61532279,0,0,0,0,0,0,0,,,,
1318.415999,5150,0,1.46E-06,0,0,0,0,0,0,101.5563975,0,0,0,0,0,0,0,,,,
1318.423999,5150,0,1.45E-06,0,0,0,0,0,0,171.1864092,0,0,0,0,0,0,0,,,,
1318.431999,5150,0,1.43E-06,0,0,0,0,0,0,-73.61540974,0,0,0,0,0,0,0,,,,
1318.439999,5150,0,1.42E-06,0,0,0,0,0,0,282.4407438,0,0,0,0,0,0,0,,,,
1318.447999,5150,0,-5.02E-07,0,0,0,0,0,0,-26.85228952,0,0,0,0,0,0,0,,,,
1318.455999,5150,0,-2.31E-06,0,0,0,0,0,0,125.2062604,0,0,0,0,0,0,0,,,,
1318.463999,5150,0,-1.73E-06,0,0,0,0,0,0,215.0207913,0,0,0,0,0,0,0,,,,
1318.471999,5150,0,-1.77E-06,0,0,0,0,0,0,-56.23754741,0,0,0,0,0,0,0,,,,
1318.479999,5150,0,-1.87E-06,0,0,0,0,0,0,295.2316202,0,0,0,0,0,0,0,,,,
1318.487999,5150,0,-1.71E-06,0,0,0,0,0,0,6.488549513,0,0,0,0,0,0,0,,,,
1318.495999,5150,0,-1.81E-06,0,0,0,0,0,0,118.8861258,0,0,0,0,0,0,0,,,,
1318.503999,5150,0,-1.72E-06,0,0,0,0,0,0,186.4877768,0,0,0,0,0,0,0,,,,
1318.511999,5150,0,-1.75E-06,0,0,0,0,0,0,-67.18616519,0,0,0,0,0,0,0,,,,
1318.519999,5150,0,-1.71E-06,0,0,0,0,0,0,303.7365011,0,0,0,0,0,0,0,,,,
1318.527999,5150,0,-1.70E-06,0,0,0,0,0,0,15.8461876,0,0,0,0,0,0,0,,,,
1318.535999,5150,0,-1.68E-06,0,0,0,0,0,0,132.3832497,0,0,0,0,0,0,0,,,,
1318.543999,5150,0,-1.67E-06,0,0,0,0,0,0,228.8569823,0,0,0,0,0,0,0,,,,
1318.551999,5150,0,-1.65E-06,0,0,0,0,0,0,-43.88181608,0,0,0,0,0,0,0,,,,
1318.559999,5150,0,-1.64E-06,0,0,0,0,0,0,311.1088683,0,0,0,0,0,0,0,,,,
1318.567999,5150,0,-1.62E-06,0,0,0,0,0,0,38.88568845,0,0,0,0,0,0,0,,,,
1318.575999,5150,0,-1.61E-06,0,0,0,0,0,0,153.5360468,0,0,0,0,0,0,0,,,,
1318.583999,5150,0,-1.59E-06,0,0,0,0,0,0,252.2259636,0,0,0,0,0,0,0,,,,
1318.591999,5150,0,-1.58E-06,0,0,0,0,0,0,-30.03137191,0,0,0,0,0,0,0,,,,
1318.599999,5150,0,-1.56E-06,0,0,0,0,0,0,303.3084249,0,0,0,0,0,0,0,,,,
1318.607999,5150,0,-1.55E-06,0,0,0,0,0,0,5.273672684,0,0,0,0,0,0,0,,,,
1318.615999,5150,0,-1.53E-06,0,0,0,0,0,0,124.583744,0,0,0,0,0,0,0,,,,
1318.623999,5150,0,-1.52E-06,0,0,0,0,0,0,227.1088551,0,0,0,0,0,0,0,,,,
1318.631999,5150,0,-1.50E-06,0,0,0,0,0,0,-69.49597504,0,0,0,0,0,0,0,,,,
1318.639999,5150,0,-1.49E-06,0,0,0,0,0,0,327.9862525,0,0,0,0,0,0,0,,,,
1318.647999,5150,0,-1.47E-06,0,0,0,0,0,0,61.42472935,0,0,0,0,0,0,0,,,,
1318.655999,5151,0,-1.46E-06,0,0,0,0,0,0,139.2018092,0,0,0,0,0,0,0,,,,
1318.663999,5151,0,-1.45E-06,0,0,0,0,0,0,247.8628269,0,0,0,0,0,0,0,,,,
1318.671999,5151,0,-1.43E-06,0,0,0,0,0,0,-81.35400935,0,0,0,0,0,0,0,,,,
1318.679999,5151,0,-1.42E-06,0,0,0,0,0,0,256.2424986,0,0,0,0,0,0,0,,,,
1318.687999,5151,0,5.02E-07,0,0,0,0,0,0,-10.66872171,0,0,0,0,0,0,0,,,,
1318.695999,5151,0,2.31E-06,0,0,0,0,0,0,65.65858112,0,0,0,0,0,0,0,,,,
1318.703999,5151,0,1.73E-06,0,0,0,0,0,0,180.7788746,0,0,0,0,0,0,0,,,,
1318.711999,5151,0,1.77E-06,0,0,0,0,0,0,-117.5023423,0,0,0,0,0,0,0,,,,
1318.719999,5151,0,1.87E-06,0,0,0,0,0,0,417.3234357,0,0,0,0,0,0,0,,,,
1318.727999,5151,0,1.71E-06,0,0,0,0,0,0,221.5552327,0,0,0,0,0,0,0,,,,
1318.735999,5151,0,1.81E-06,0,0,0,0,0,0,-124.4297548,0,0,0,0,0,0,0,,,,
1318.743999,5151,0,1.72E-06,0,0,0,0,0,0,172.3857425,0,0,0,0,0,0,0,,,,
1318.751999,5151,0,1.75E-06,0,0,0,0,0,0,98.31725268,0,0,0,0,0,0,0,,,,
1318.759999,5151,0,1.71E-06,0,0,0,0,0,0,11.47705566,0,0,0,0,0,0,0,,,,
1318.767999,5151,0,1.70E-06,0,0,0,0,0,0,178.6385132,0,0,0,0,0,0,0,,,,
1318.775999,5151,0,1.68E-06,0,0,0,0,0,0,103.8549255,0,0,0,0,0,0,0,,,,
1318.783999,5151,0,1.67E-06,0,0,0,0,0,0,-23.70347917,0,0,0,0,0,0,0,,,,
1318.791999,5151,0,1.65E-06,0,0,0,0,0,0,202.0676443,0,0,0,0,0,0,0,,,,
1318.799999,5151,0,1.64E-06,0,0,0,0,0,0,2.984298068,0,0,0,0,0,0,0,,,,
1318.807999,5151,0,1.62E-06,0,0,0,0,0,0,80.50644378,0,0,0,0,0,0,0,,,,
1318.815999,5151,0,1.61E-06,0,0,0,0,0,0,190.3718661,0,0,0,0,0,0,0,,,,
1318.823999,5151,0,1.59E-06,0,0,0,0,0,0,-71.62036934,0,0,0,0,0,0,0,,,,
1318.831999,5151,0,1.58E-06,0,0,0,0,0,0,232.320919,0,0,0,0,0,0,0,,,,
1318.839999,5151,0,1.56E-06,0,0,0,0,0,0,-19.84712815,0,0,0,0,0,0,0,,,,
1318.847999,5151,0,1.55E-06,0,0,0,0,0,0,-90.1876311,0,0,0,0,0,0,0,,,,
1318.855999,5151,0,1.53E-06,0,0,0,0,0,0,3.144555912,0,0,0,0,0,0,0,,,,
1318.863999,5151,0,1.52E-06,0,0,0,0,0,0,-315.5135884,0,0,0,0,0,0,0,,,,
1318.871999,5151,0,1.50E-06,0,0,0,0,0,0,-54.66141868,0,0,0,0,0,0,0,,,,
1318.879999,5151,0,1.49E-06,0,0,0,0,0,0,4.606797118,0,0,0,0,0,0,0,,,,
1318.887999,5151,0,1.47E-06,0,0,0,0,0,0,186.8858973,0,0,0,0,0,0,0,,,,
1318.895999,5151,0,1.46E-06,0,0,0,0,0,0,142.6449411,0,0,0,0,0,0,0,,,,
1318.903999,5151,0,1.45E-06,0,0,0,0,0,0,-51.10601542,0,0,0,0,0,0,0,,,,
1318.911999,5152,0,1.43E-06,0,0,0,0,0,0,271.0280269,0,0,0,0,0,0,0,,,,
1318.919999,5152,0,1.42E-06,0,0,0,0,0,0,-13.46241484,0,0,0,0,0,0,0,,,,
1318.927999,5152,0,-5.02E-07,0,0,0,0,0,0,101.5324357,0,0,0,0,0,0,0,,,,
1318.935999,5152,0,-2.31E-06,0,0,0,0,0,0,207.4729863,0,0,0,0,0,0,0,,,,
1318.943999,5152,0,-1.73E-06,0,0,0,0,0,0,-103.1869761,0,0,0,0,0,0,0,,,,
1318.951999,5152,0,-1.77E-06,0,0,0,0,0,0,234.0048904,0,0,0,0,0,0,0,,,,
1318.959999,5152,0,-1.87E-06,0,0,0,0,0,0,20.36898967,0,0,0,0,0,0,0,,,,
1318.967999,5152,0,-1.71E-06,0,0,0,0,0,0,72.53331908,0,0,0,0,0,0,0,,,,
1318.975999,5152,0,-1.81E-06,0,0,0,0,0,0,227.8375026,0,0,0,0,0,0,0,,,,
1318.983999,5152,0,-1.72E-06,0,0,0,0,0,0,-86.12750591,0,0,0,0,0,0,0,,,,
1318.991999,5152,0,-1.75E-06,0,0,0,0,0,0,246.6900088,0,0,0,0,0,0,0,,,,
1318.999999,5152,0,-1.71E-06,0,0,0,0,0,0,10.03925139,0,0,0,0,0,0,0,,,,
1319.007999,5152,0,-1.70E-06,0,0,0,0,0,0,55.80806697,0,0,0,0,0,0,0,,,,
1319.015999,5152,0,-1.68E-06,0,0,0,0,0,0,253.5061275,0,0,0,0,0,0,0,,,,
1319.023999,5152,0,-1.67E-06,0,0,0,0,0,0,-102.9990097,0,0,0,0,0,0,0,,,,
1319.031999,5152,0,-1.65E-06,0,0,0,0,0,0,259.1682541,0,0,0,0,0,0,0,,,,
1319.039999,5152,0,-1.64E-06,0,0,0,0,0,0,44.11982552,0,0,0,0,0,0,0,,,,
1319.047999,5152,0,-1.62E-06,0,0,0,0,0,0,38.36424883,0,0,0,0,0,0,0,,,,
1319.055999,5152,0,-1.61E-06,0,0,0,0,0,0,244.6956224,0,0,0,0,0,0,0,,,,
1319.063999,5152,0,-1.59E-06,0,0,0,0,0,0,-105.6308345,0,0,0,0,0,0,0,,,,
1319.071999,5152,0,-1.58E-06,0,0,0,0,0,0,251.8460125,0,0,0,0,0,0,0,,,,
1319.079999,5152,0,-1.56E-06,0,0,0,0,0,0,23.55077709,0,0,0,0,0,0,0,,,,
1319.087999,5152,0,-1.55E-06,0,0,0,0,0,0,0.54993466,0,0,0,0,0,0,0,,,,
1319.095999,5152,0,-1.53E-06,0,0,0,0,0,0,243.7592266,0,0,0,0,0,0,0,,,,
1319.103999,5152,0,-1.52E-06,0,0,0,0,0,0,-96.37362848,0,0,0,0,0,0,0,,,,
1319.111999,5152,0,-1.50E-06,0,0,0,0,0,0,248.4202069,0,0,0,0,0,0,0,,,,
1319.119999,5152,0,-1.49E-06,0,0,0,0,0,0,42.5324536,0,0,0,0,0,0,0,,,,
1319.127999,5152,0,-1.47E-06,0,0,0,0,0,0,45.5589554,0,0,0,0,0,0,0,,,,
1319.135999,5152,0,-1.46E-06,0,0,0,0,0,0,267.8239418,0,0,0,0,0,0,0,,,,
1319.143999,5152,0,-1.45E-06,0,0,0,0,0,0,-124.2773958,0,0,0,0,0,0,0,,,,
1319.151999,5152,0,-1.43E-06,0,0,0,0,0,0,231.4936164,0,0,0,0,0,0,0,,,,
1319.159999,5152,0,-1.42E-06,0,0,0,0,0,0,26.34577021,0,0,0,0,0,0,0,,,,
1319.167999,5153,0,5.02E-07,0,0,0,0,0,0,-11.96615778,0,0,0,0,0,0,0,,,,
1319.175999,5153,0,2.31E-06,0,0,0,0,0,0,234.3935386,0,0,0,0,0,0,0,,,,
1319.183999,5153,0,1.73E-06,0,0,0,0,0,0,-120.1206253,0,0,0,0,0,0,0,,,,
1319.191999,5153,0,1.77E-06,0,0,0,0,0,0,245.8690747,0,0,0,0,0,0,0,,,,
1319.199999,5153,0,1.87E-06,0,0,0,0,0,0,42.93320637,0,0,0,0,0,0,0,,,,
1319.207999,5153,0,1.71E-06,0,0,0,0,0,0,-5.338841922,0,0,0,0,0,0,0,,,,
1319.215999,5153,0,1.81E-06,0,0,0,0,0,0,236.5425688,0,0,0,0,0,0,0,,,,
1319.223999,5153,0,1.72E-06,0,0,0,0,0,0,-137.6811417,0,0,0,0,0,0,0,,,,
1319.231999,5153,0,1.75E-06,0,0,0,0,0,0,212.8012104,0,0,0,0,0,0,0,,,,
1319.239999,5153,0,1.71E-06,0,0,0,0,0,0,25.19077144,0,0,0,0,0,0,0,,,,
1319.247999,5153,0,1.70E-06,0,0,0,0,0,0,7.209918128,0,0,0,0,0,0,0,,,,
1319.255999,5153,0,1.68E-06,0,0,0,0,0,0,254.7415089,0,0,0,0,0,0,0,,,,
1319.263999,5153,0,1.67E-06,0,0,0,0,0,0,-151.9328035,0,0,0,0,0,0,0,,,,
1319.271999,5153,0,1.65E-06,0,0,0,0,0,0,207.4234879,0,0,0,0,0,0,0,,,,
1319.279999,5153,0,1.64E-06,0,0,0,0,0,0,29.73661154,0,0,0,0,0,0,0,,,,
1319.287999,5153,0,1.62E-06,0,0,0,0,0,0,-1.915315424,0,0,0,0,0,0,0,,,,
1319.295999,5153,0,1.61E-06,0,0,0,0,0,0,278.3549149,0,0,0,0,0,0,0,,,,
1319.303999,5153,0,1.59E-06,0,0,0,0,0,0,-113.557871,0,0,0,0,0,0,0,,,,
1319.311999,5153,0,1.58E-06,0,0,0,0,0,0,267.8988965,0,0,0,0,0,0,0,,,,
1319.319999,5153,0,1.56E-06,0,0,0,0,0,0,115.5017577,0,0,0,0,0,0,0,,,,
1319.327999,5153,0,1.55E-06,0,0,0,0,0,0,-98.56079665,0,0,0,0,0,0,0,,,,
1319.335999,5153,0,1.53E-06,0,0,0,0,0,0,224.9239176,0,0,0,0,0,0,0,,,,
1319.343999,5153,0,1.52E-06,0,0,0,0,0,0,137.5263116,0,0,0,0,0,0,0,,,,
1319.351999,5153,0,1.50E-06,0,0,0,0,0,0,229.2999429,0,0,0,0,0,0,0,,,,
1319.359999,5153,0,1.49E-06,0,0,0,0,0,0,-106.7319623,0,0,0,0,0,0,0,,,,
1319.367999,5153,0,1.47E-06,0,0,0,0,0,0,-3.989704681,0,0,0,0,0,0,0,,,,
1319.375999,5153,0,1.46E-06,0,0,0,0,0,0,428.8102779,0,0,0,0,0,0,0,,,,
1319.383999,5153,0,1.45E-06,0,0,0,0,0,0,104.7925331,0,0,0,0,0,0,0,,,,
1319.391999,5153,0,1.43E-06,0,0,0,0,0,0,134.1733774,0,0,0,0,0,0,0,,,,
1319.399999,5153,0,1.42E-06,0,0,0,0,0,0,302.8757074,0,0,0,0,0,0,0,,,,
1319.407999,5153,0,-5.02E-07,0,0,0,0,0,0,74.07963877,0,0,0,0,0,0,0,,,,
1319.415999,5153,0,-2.31E-06,0,0,0,0,0,0,183.6324886,0,0,0,0,0,0,0,,,,
1319.423999,5154,0,-1.73E-06,0,0,0,0,0,0,244.1400477,0,0,0,0,0,0,0,,,,
1319.431999,5154,0,-1.77E-06,0,0,0,0,0,0,-10.1107576,0,0,0,0,0,0,0,,,,
1319.439999,5154,0,-1.87E-06,0,0,0,0,0,0,240.3435128,0,0,0,0,0,0,0,,,,
1319.447999,5154,0,-1.71E-06,0,0,0,0,0,0,116.4119958,0,0,0,0,0,0,0,,,,
1319.455999,5154,0,-1.81E-06,0,0,0,0,0,0,48.58171715,0,0,0,0,0,0,0,,,,
1319.463999,5154,0,-1.72E-06,0,0,0,0,0,0,286.8034178,0,0,0,0,0,0,0,,,,
1319.471999,5154,0,-1.75E-06,0,0,0,0,0,0,-35.41469379,0,0,0,0,0,0,0,,,,
1319.479999,5154,0,-1.71E-06,0,0,0,0,0,0,194.6539487,0,0,0,0,0,0,0,,,,
1319.487999,5154,0,-1.70E-06,0,0,0,0,0,0,83.3358857,0,0,0,0,0,0,0,,,,
1319.495999,5154,0,-1.68E-06,0,0,0,0,0,0,-19.42918488,0,0,0,0,0,0,0,,,,
1319.503999,5154,0,-1.67E-06,0,0,0,0,0,0,263.9203267,0,0,0,0,0,0,0,,,,
1319.511999,5154,0,-1.65E-06,0,0,0,0,0,0,-89.86194634,0,0,0,0,0,0,0,,,,
1319.519999,5154,0,-1.64E-06,0,0,0,0,0,0,170.1559366,0,0,0,0,0,0,0,,,,
1319.527999,5154,0,-1.62E-06,0,0,0,0,0,0,66.98078409,0,0,0,0,0,0,0,,,,
1319.535999,5154,0,-1.61E-06,0,0,0,0,0,0,-48.50763517,0,0,0,0,0,0,0,,,,
1319.543999,5154,0,-1.59E-06,0,0,0,0,0,0,242.6294716,0,0,0,0,0,0,0,,,,
1319.551999,5154,0,-1.58E-06,0,0,0,0,0,0,-136.1282664,0,0,0,0,0,0,0,,,,
1319.559999,5154,0,-1.56E-06,0,0,0,0,0,0,160.9613276,0,0,0,0,0,0,0,,,,
1319.567999,5154,0,-1.55E-06,0,0,0,0,0,0,65.10797151,0,0,0,0,0,0,0,,,,
1319.575999,5154,0,-1.53E-06,0,0,0,0,0,0,-81.62583022,0,0,0,0,0,0,0,,,,
1319.583999,5154,0,-1.52E-06,0,0,0,0,0,0,244.4551582,0,0,0,0,0,0,0,,,,
1319.591999,5154,0,-1.50E-06,0,0,0,0,0,0,-147.2585802,0,0,0,0,0,0,0,,,,
1319.599999,5154,0,-1.49E-06,0,0,0,0,0,0,137.073029,0,0,0,0,0,0,0,,,,
1319.607999,5154,0,-1.47E-06,0,0,0,0,0,0,88.02545149,0,0,0,0,0,0,0,,,,
1319.615999,5154,0,-1.46E-06,0,0,0,0,0,0,-66.38495533,0,0,0,0,0,0,0,,,,
1319.623999,5154,0,-1.45E-06,0,0,0,0,0,0,253.11015,0,0,0,0,0,0,0,,,,
1319.631999,5154,0,-1.43E-06,0,0,0,0,0,0,-126.809137,0,0,0,0,0,0,0,,,,
1319.639999,5154,0,-1.42E-06,0,0,0,0,0,0,131.5899878,0,0,0,0,0,0,0,,,,
1319.647999,5154,0,5.02E-07,0,0,0,0,0,0,48.29804502,0,0,0,0,0,0,0,,,,
1319.655999,5154,0,2.31E-06,0,0,0,0,0,0,-117.3558299,0,0,0,0,0,0,0,,,,
1319.663999,5154,0,1.73E-06,0,0,0,0,0,0,211.309069,0,0,0,0,0,0,0,,,,
1319.671999,5154,0,1.77E-06,0,0,0,0,0,0,-182.5376001,0,0,0,0,0,0,0,,,,
1319.679999,5155,0,1.87E-06,0,0,0,0,0,0,73.47564798,0,0,0,0,0,0,0,,,,
1319.687999,5155,0,1.71E-06,0,0,0,0,0,0,8.37020025,0,0,0,0,0,0,0,,,,
1319.695999,5155,0,1.81E-06,0,0,0,0,0,0,-145.0412682,0,0,0,0,0,0,0,,,,
1319.703999,5155,0,1.72E-06,0,0,0,0,0,0,211.0841424,0,0,0,0,0,0,0,,,,
1319.711999,5155,0,1.75E-06,0,0,0,0,0,0,-186.9564405,0,0,0,0,0,0,0,,,,
1319.719999,5155,0,1.71E-06,0,0,0,0,0,0,58.20825768,0,0,0,0,0,0,0,,,,
1319.727999,5155,0,1.70E-06,0,0,0,0,0,0,-0.543058754,0,0,0,0,0,0,0,,,,
1319.735999,5155,0,1.68E-06,0,0,0,0,0,0,-312.1399408,0,0,0,0,0,0,0,,,,
1319.743999,5155,0,1.67E-06,0,0,0,0,0,0,56.75626815,0,0,0,0,0,0,0,,,,
1319.751999,5155,0,1.65E-06,0,0,0,0,0,0,-24.99471554,0,0,0,0,0,0,0,,,,
1319.759999,5155,0,1.64E-06,0,0,0,0,0,0,-5.051825478,0,0,0,0,0,0,0,,,,
1319.767999,5155,0,1.62E-06,0,0,0,0,0,0,-239.1665246,0,0,0,0,0,0,0,,,,
1319.775999,5155,0,1.61E-06,0,0,0,0,0,0,-86.62705908,0,0,0,0,0,0,0,,,,
1319.783999,5155,0,1.59E-06,0,0,0,0,0,0,169.9268691,0,0,0,0,0,0,0,,,,
1319.791999,5155,0,1.58E-06,0,0,0,0,0,0,-270.0839873,0,0,0,0,0,0,0,,,,
1319.799999,5155,0,1.56E-06,0,0,0,0,0,0,91.71092801,0,0,0,0,0,0,0,,,,
1319.807999,5155,0,1.55E-06,0,0,0,0,0,0,-29.18847975,0,0,0,0,0,0,0,,,,
1319.815999,5155,0,1.53E-06,0,0,0,0,0,0,-191.78442,0,0,0,0,0,0,0,,,,
1319.823999,5155,0,1.52E-06,0,0,0,0,0,0,148.6276707,0,0,0,0,0,0,0,,,,
1319.831999,5155,0,1.50E-06,0,0,0,0,0,0,-266.0605147,0,0,0,0,0,0,0,,,,
1319.839999,5155,0,1.49E-06,0,0,0,0,0,0,-10.50591167,0,0,0,0,0,0,0,,,,
1319.847999,5155,0,1.47E-06,0,0,0,0,0,0,-19.63417068,0,0,0,0,0,0,0,,,,
1319.855999,5155,0,1.46E-06,0,0,0,0,0,0,-204.2871199,0,0,0,0,0,0,0,,,,
1319.863999,5155,0,1.45E-06,0,0,0,0,0,0,158.7779708,0,0,0,0,0,0,0,,,,
1319.871999,5155,0,1.43E-06,0,0,0,0,0,0,-206.9672678,0,0,0,0,0,0,0,,,,
1319.879999,5155,0,1.42E-06,0,0,0,0,0,0,15.91541647,0,0,0,0,0,0,0,,,,
1319.887999,5155,0,-5.02E-07,0,0,0,0,0,0,18.42783255,0,0,0,0,0,0,0,,,,
1319.895999,5155,0,-2.31E-06,0,0,0,0,0,0,-201.4313609,0,0,0,0,0,0,0,,,,
1319.903999,5155,0,-1.73E-06,0,0,0,0,0,0,186.6259922,0,0,0,0,0,0,0,,,,
1319.911999,5155,0,-1.77E-06,0,0,0,0,0,0,-375.1404246,0,0,0,0,0,0,0,,,,
1319.919999,5155,0,-1.87E-06,0,0,0,0,0,0,-401.1180155,0,0,0,0,0,0,0,,,,
1319.927999,5155,0,-1.71E-06,0,0,0,0,0,0,87.65184834,0,0,0,0,0,0,0,,,,
1319.935999,5156,0,-1.81E-06,0,0,0,0,0,0,15.11555948,0,0,0,0,0,0,0,,,,
1319.943999,5156,0,-1.72E-06,0,0,0,0,0,0,-45.63826713,0,0,0,0,0,0,0,,,,
1319.951999,5156,0,-1.75E-06,0,0,0,0,0,0,-54.53716388,0,0,0,0,0,0,0,,,,
1319.959999,5156,0,-1.71E-06,0,0,0,0,0,0,78.09816453,0,0,0,0,0,0,0,,,,
1319.967999,5156,0,-1.70E-06,0,0,0,0,0,0,-124.5835283,0,0,0,0,0,0,0,,,,
1319.975999,5156,0,-1.68E-06,0,0,0,0,0,0,10.10700928,0,0,0,0,0,0,0,,,,
1319.983999,5156,0,-1.67E-06,0,0,0,0,0,0,32.85785167,0,0,0,0,0,0,0,,,,
1319.991999,5156,0,-1.65E-06,0,0,0,0,0,0,-140.7770198,0,0,0,0,0,0,0,,,,
1319.999999,5156,0,-1.64E-06,0,0,0,0,0,0,157.2594435,0,0,0,0,0,0,0,,,,
1320.007999,5156,0,-1.62E-06,0,0,0,0,0,0,-144.7800248,0,0,0,0,0,0,0,,,,
1320.015999,5156,0,-1.61E-06,0,0,0,0,0,0,-2.808622388,0,0,0,0,0,0,0,,,,
1320.023999,5156,0,-1.59E-06,0,0,0,0,0,0,30.08611563,0,0,0,0,0,0,0,,,,
1320.031999,5156,0,-1.58E-06,0,0,0,0,0,0,-198.9820749,0,0,0,0,0,0,0,,,,
1320.039999,5156,0,-1.56E-06,0,0,0,0,0,0,183.460652,0,0,0,0,0,0,0,,,,
1320.047999,5156,0,-1.55E-06,0,0,0,0,0,0,-151.2199617,0,0,0,0,0,0,0,,,,
1320.055999,5156,0,-1.53E-06,0,0,0,0,0,0,-1.241209768,0,0,0,0,0,0,0,,,,
1320.063999,5156,0,-1.52E-06,0,0,0,0,0,0,70.21221856,0,0,0,0,0,0,0,,,,
1320.071999,5156,0,-1.50E-06,0,0,0,0,0,0,-200.4560626,0,0,0,0,0,0,0,,,,
1320.079999,5156,0,-1.49E-06,0,0,0,0,0,0,182.2599095,0,0,0,0,0,0,0,,,,
1320.087999,5156,0,-1.47E-06,0,0,0,0,0,0,-136.9520579,0,0,0,0,0,0,0,,,,
1320.095999,5156,0,-1.46E-06,0,0,0,0,0,0,20.33815167,0,0,0,0,0,0,0,,,,
1320.103999,5156,0,-1.45E-06,0,0,0,0,0,0,94.54433256,0,0,0,0,0,0,0,,,,
1320.111999,5156,0,-1.43E-06,0,0,0,0,0,0,-214.6287555,0,0,0,0,0,0,0,,,,
1320.119999,5156,0,-1.42E-06,0,0,0,0,0,0,139.8552506,0,0,0,0,0,0,0,,,,
1320.127999,5156,0,5.02E-07,0,0,0,0,0,0,-157.4231051,0,0,0,0,0,0,0,,,,
1320.135999,5156,0,2.31E-06,0,0,0,0,0,0,28.59259455,0,0,0,0,0,0,0,,,,
1320.143999,5156,0,1.73E-06,0,0,0,0,0,0,118.3446686,0,0,0,0,0,0,0,,,,
1320.151999,5156,0,1.77E-06,0,0,0,0,0,0,-175.2205269,0,0,0,0,0,0,0,,,,
1320.159999,5156,0,1.87E-06,0,0,0,0,0,0,221.785112,0,0,0,0,0,0,0,,,,
1320.167999,5156,0,1.71E-06,0,0,0,0,0,0,-82.46638703,0,0,0,0,0,0,0,,,,
1320.175999,5156,0,1.81E-06,0,0,0,0,0,0,41.47068816,0,0,0,0,0,0,0,,,,
1320.183999,5156,0,1.72E-06,0,0,0,0,0,0,128.3577413,0,0,0,0,0,0,0,,,,
1320.191999,5157,0,1.75E-06,0,0,0,0,0,0,-166.521299,0,0,0,0,0,0,0,,,,
1320.199999,5157,0,1.71E-06,0,0,0,0,0,0,222.9103432,0,0,0,0,0,0,0,,,,
1320.207999,5157,0,1.70E-06,0,0,0,0,0,0,-67.66358419,0,0,0,0,0,0,0,,,,
1320.215999,5157,0,1.68E-06,0,0,0,0,0,0,64.6349564,0,0,0,0,0,0,0,,,,
1320.223999,5157,0,1.67E-06,0,0,0,0,0,0,168.8597865,0,0,0,0,0,0,0,,,,
1320.231999,5157,0,1.65E-06,0,0,0,0,0,0,-128.540564,0,0,0,0,0,0,0,,,,
1320.239999,5157,0,1.64E-06,0,0,0,0,0,0,279.2795239,0,0,0,0,0,0,0,,,,
1320.247999,5157,0,1.62E-06,0,0,0,0,0,0,-5.607194167,0,0,0,0,0,0,0,,,,
1320.255999,5157,0,1.61E-06,0,0,0,0,0,0,103.1557311,0,0,0,0,0,0,0,,,,
1320.263999,5157,0,1.59E-06,0,0,0,0,0,0,223.9620997,0,0,0,0,0,0,0,,,,
1320.271999,5157,0,1.58E-06,0,0,0,0,0,0,-97.20359673,0,0,0,0,0,0,0,,,,
1320.279999,5157,0,1.56E-06,0,0,0,0,0,0,272.4212228,0,0,0,0,0,0,0,,,,
1320.287999,5157,0,1.55E-06,0,0,0,0,0,0,-4.399970669,0,0,0,0,0,0,0,,,,
1320.295999,5157,0,1.53E-06,0,0,0,0,0,0,123.4021735,0,0,0,0,0,0,0,,,,
1320.303999,5157,0,1.52E-06,0,0,0,0,0,0,262.6010531,0,0,0,0,0,0,0,,,,
1320.311999,5157,0,1.50E-06,0,0,0,0,0,0,-66.44695031,0,0,0,0,0,0,0,,,,
1320.319999,5157,0,1.49E-06,0,0,0,0,0,0,308.9140715,0,0,0,0,0,0,0,,,,
1320.327999,5157,0,1.47E-06,0,0,0,0,0,0,20.65278,0,0,0,0,0,0,0,,,,
1320.335999,5157,0,1.46E-06,0,0,0,0,0,0,103.5039217,0,0,0,0,0,0,0,,,,
1320.343999,5157,0,1.45E-06,0,0,0,0,0,0,249.8137486,0,0,0,0,0,0,0,,,,
1320.351999,5157,0,1.43E-06,0,0,0,0,0,0,-60.47583506,0,0,0,0,0,0,0,,,,
1320.359999,5157,0,1.42E-06,0,0,0,0,0,0,441.4426307,0,0,0,0,0,0,0,,,,
1320.367999,5157,0,-5.02E-07,0,0,0,0,0,0,71.26367004,0,0,0,0,0,0,0,,,,
1320.375999,5157,0,-2.31E-06,0,0,0,0,0,0,-74.90921545,0,0,0,0,0,0,0,,,,
1320.383999,5157,0,-1.73E-06,0,0,0,0,0,0,351.5273453,0,0,0,0,0,0,0,,,,
1320.391999,5157,0,-1.77E-06,0,0,0,0,0,0,-110.8857466,0,0,0,0,0,0,0,,,,
1320.399999,5157,0,-1.87E-06,0,0,0,0,0,0,144.5856959,0,0,0,0,0,0,0,,,,
1320.407999,5157,0,-1.71E-06,0,0,0,0,0,0,168.3930457,0,0,0,0,0,0,0,,,,
1320.415999,5157,0,-1.81E-06,0,0,0,0,0,0,-128.9141595,0,0,0,0,0,0,0,,,,
1320.423999,5157,0,-1.72E-06,0,0,0,0,0,0,247.382805,0,0,0,0,0,0,0,,,,
1320.431999,5157,0,-1.75E-06,0,0,0,0,0,0,-58.97079936,0,0,0,0,0,0,0,,,,
1320.439999,5157,0,-1.71E-06,0,0,0,0,0,0,58.94159646,0,0,0,0,0,0,0,,,,
1320.447999,5158,0,-1.70E-06,0,0,0,0,0,0,188.9896264,0,0,0,0,0,0,0,,,,
1320.455999,5158,0,-1.68E-06,0,0,0,0,0,0,-340.8790729,0,0,0,0,0,0,0,,,,
1320.463999,5158,0,-1.67E-06,0,0,0,0,0,0,-98.23304133,0,0,0,0,0,0,0,,,,
1320.471999,5158,0,-1.65E-06,0,0,0,0,0,0,87.71385094,0,0,0,0,0,0,0,,,,
1320.479999,5158,0,-1.64E-06,0,0,0,0,0,0,73.19261111,0,0,0,0,0,0,0,,,,
1320.487999,5158,0,-1.62E-06,0,0,0,0,0,0,-13.10719269,0,0,0,0,0,0,0,,,,
1320.495999,5158,0,-1.61E-06,0,0,0,0,0,0,16.00852614,0,0,0,0,0,0,0,,,,
1320.503999,5158,0,-1.59E-06,0,0,0,0,0,0,74.82259744,0,0,0,0,0,0,0,,,,
1320.511999,5158,0,-1.58E-06,0,0,0,0,0,0,-131.1757667,0,0,0,0,0,0,0,,,,
1320.519999,5158,0,-1.56E-06,0,0,0,0,0,0,125.1009348,0,0,0,0,0,0,0,,,,
1320.527999,5158,0,-1.55E-06,0,0,0,0,0,0,-52.54548697,0,0,0,0,0,0,0,,,,
1320.535999,5158,0,-1.53E-06,0,0,0,0,0,0,-4.106586003,0,0,0,0,0,0,0,,,,
1320.543999,5158,0,-1.52E-06,0,0,0,0,0,0,169.708322,0,0,0,0,0,0,0,,,,
1320.551999,5158,0,-1.50E-06,0,0,0,0,0,0,-171.8756618,0,0,0,0,0,0,0,,,,
1320.559999,5158,0,-1.49E-06,0,0,0,0,0,0,142.0394078,0,0,0,0,0,0,0,,,,
1320.567999,5158,0,-1.47E-06,0,0,0,0,0,0,-57.68343714,0,0,0,0,0,0,0,,,,
1320.575999,5158,0,-1.46E-06,0,0,0,0,0,0,-64.11392272,0,0,0,0,0,0,0,,,,
1320.583999,5158,0,-1.45E-06,0,0,0,0,0,0,149.5754231,0,0,0,0,0,0,0,,,,
1320.591999,5158,0,-1.43E-06,0,0,0,0,0,0,-208.4178154,0,0,0,0,0,0,0,,,,
1320.599999,5158,0,-1.42E-06,0,0,0,0,0,0,119.4100808,0,0,0,0,0,0,0,,,,
1320.607999,5158,0,5.02E-07,0,0,0,0,0,0,-58.6446576,0,0,0,0,0,0,0,,,,
1320.615999,5158,0,2.31E-06,0,0,0,0,0,0,-72.09299686,0,0,0,0,0,0,0,,,,
1320.623999,5158,0,1.73E-06,0,0,0,0,0,0,143.429951,0,0,0,0,0,0,0,,,,
1320.631999,5158,0,1.77E-06,0,0,0,0,0,0,-196.0569728,0,0,0,0,0,0,0,,,,
1320.639999,5158,0,1.87E-06,0,0,0,0,0,0,136.9202998,0,0,0,0,0,0,0,,,,
1320.647999,5158,0,1.71E-06,0,0,0,0,0,0,-78.47686476,0,0,0,0,0,0,0,,,,
1320.655999,5158,0,1.81E-06,0,0,0,0,0,0,-105.2210864,0,0,0,0,0,0,0,,,,
1320.663999,5158,0,1.72E-06,0,0,0,0,0,0,132.5185253,0,0,0,0,0,0,0,,,,
1320.671999,5158,0,1.75E-06,0,0,0,0,0,0,-217.7014364,0,0,0,0,0,0,0,,,,
1320.679999,5158,0,1.71E-06,0,0,0,0,0,0,114.065236,0,0,0,0,0,0,0,,,,
1320.687999,5158,0,1.70E-06,0,0,0,0,0,0,-88.53390698,0,0,0,0,0,0,0,,,,
1320.695999,5158,0,1.68E-06,0,0,0,0,0,0,-106.3475927,0,0,0,0,0,0,0,,,,
1320.703999,5159,0,1.67E-06,0,0,0,0,0,0,144.6259898,0,0,0,0,0,0,0,,,,
1320.711999,5159,0,1.65E-06,0,0,0,0,0,0,-232.6289065,0,0,0,0,0,0,0,,,,
1320.719999,5159,0,1.64E-06,0,0,0,0,0,0,102.8997848,0,0,0,0,0,0,0,,,,
1320.727999,5159,0,1.62E-06,0,0,0,0,0,0,-83.89157708,0,0,0,0,0,0,0,,,,
1320.735999,5159,0,1.61E-06,0,0,0,0,0,0,-126.7437155,0,0,0,0,0,0,0,,,,
1320.743999,5159,0,1.59E-06,0,0,0,0,0,0,122.0292491,0,0,0,0,0,0,0,,,,
1320.751999,5159,0,1.58E-06,0,0,0,0,0,0,-274.4052528,0,0,0,0,0,0,0,,,,
1320.759999,5159,0,1.56E-06,0,0,0,0,0,0,56.85620318,0,0,0,0,0,0,0,,,,
1320.767999,5159,0,1.55E-06,0,0,0,0,0,0,-114.3815149,0,0,0,0,0,0,0,,,,
1320.775999,5159,0,1.53E-06,0,0,0,0,0,0,-176.5793793,0,0,0,0,0,0,0,,,,
1320.783999,5159,0,1.52E-06,0,0,0,0,0,0,94.34087752,0,0,0,0,0,0,0,,,,
1320.791999,5159,0,1.50E-06,0,0,0,0,0,0,-285.9760943,0,0,0,0,0,0,0,,,,
1320.799999,5159,0,1.49E-06,0,0,0,0,0,0,38.90868061,0,0,0,0,0,0,0,,,,
1320.807999,5159,0,1.47E-06,0,0,0,0,0,0,-99.40081921,0,0,0,0,0,0,0,,,,
1320.815999,5159,0,1.46E-06,0,0,0,0,0,0,-187.1830935,0,0,0,0,0,0,0,,,,
1320.823999,5159,0,1.45E-06,0,0,0,0,0,0,37.88926999,0,0,0,0,0,0,0,,,,
1320.831999,5159,0,1.43E-06,0,0,0,0,0,0,-374.8243182,0,0,0,0,0,0,0,,,,
1320.839999,5159,0,1.42E-06,0,0,0,0,0,0,60.28053118,0,0,0,0,0,0,0,,,,
1320.847999,5159,0,-5.02E-07,0,0,0,0,0,0,129.2907539,0,0,0,0,0,0,0,,,,
1320.855999,5159,0,-2.31E-06,0,0,0,0,0,0,-322.0368413,0,0,0,0,0,0,0,,,,
1320.863999,5159,0,-1.73E-06,0,0,0,0,0,0,-123.6628398,0,0,0,0,0,0,0,,,,
1320.871999,5159,0,-1.77E-06,0,0,0,0,0,0,-91.53969668,0,0,0,0,0,0,0,,,,
1320.879999,5159,0,-1.87E-06,0,0,0,0,0,0,-241.0091354,0,0,0,0,0,0,0,,,,
1320.887999,5159,0,-1.71E-06,0,0,0,0,0,0,-136.3896561,0,0,0,0,0,0,0,,,,
1320.895999,5159,0,-1.81E-06,0,0,0,0,0,0,-87.37072514,0,0,0,0,0,0,0,,,,
1320.903999,5159,0,-1.72E-06,0,0,0,0,0,0,-270.1598164,0,0,0,0,0,0,0,,,,
1320.911999,5159,0,-1.75E-06,0,0,0,0,0,0,-86.69043675,0,0,0,0,0,0,0,,,,
1320.919999,5159,0,-1.71E-06,0,0,0,0,0,0,-205.105417,0,0,0,0,0,0,0,,,,
1320.927999,5159,0,-1.70E-06,0,0,0,0,0,0,-228.6096615,0,0,0,0,0,0,0,,,,
1320.935999,5159,0,-1.68E-06,0,0,0,0,0,0,-21.40577968,0,0,0,0,0,0,0,,,,
1320.943999,5159,0,-1.67E-06,0,0,0,0,0,0,-318.1111139,0,0,0,0,0,0,0,,,,
1320.951999,5159,0,-1.65E-06,0,0,0,0,0,0,-45.61162285,0,0,0,0,0,0,0,,,,
1320.959999,5160,0,-1.64E-06,0,0,0,0,0,0,-176.552545,0,0,0,0,0,0,0,,,,
1320.967999,5160,0,-1.62E-06,0,0,0,0,0,0,-265.7033486,0,0,0,0,0,0,0,,,,
1320.975999,5160,0,-1.61E-06,0,0,0,0,0,0,29.91692058,0,0,0,0,0,0,0,,,,
