Time:125Hz,Epoch,FP1,FP2,C3,C4,P7,P8,O1,O2,F7,F8,F3,F4,T7,T8,P3,P4,,,,
822.2879994,3212,0.11644243,0.122775226,-0.052318316,-0.191747938,-0.233282856,-0.407923258,-0.209446312,-0.033912658,-0.069036206,0.005971615,0.03210785,-0.205447756,-0.101416267,-0.151366677,-0.172764268,-0.306500495,,,,
822.2959994,3212,0.020419063,0.153820284,0.008275077,-0.178766113,-0.082672815,-0.258342851,0.122351211,-0.264706269,0.139396366,-0.014254831,0.133286829,-0.141043298,-0.104602428,-0.152326612,-0.194571189,-0.297914518,,,,
822.3039994,3212,0.071086274,0.204521998,-0.074772956,-0.194028016,-0.011312186,-0.242149668,0.054565052,-0.214175901,0.171997945,0.033161455,0.139695051,-0.107509256,0.166876995,-0.235534153,-0.171799373,-0.210262411,,,,
822.3119994,3212,0.032023818,0.199076416,-0.116820031,-0.049379388,-0.082435965,-0.307905145,-0.045206368,0.037301142,0.055819384,0.013412768,0.041002335,-0.083749233,0.142265185,-0.17467312,-0.222186477,-0.114091061,,,,
822.3199994,3212,0.125654711,0.098067238,-0.073671186,-0.236484533,-0.143606968,-0.197524442,-0.140733953,-0.156231093,-0.016179063,-0.042792423,0.039079256,-0.172443669,-0.075703572,-0.397656225,-0.267302532,-0.161464095,,,,
822.3279994,3212,0.205201846,-0.019821602,-0.150523446,-0.274903774,-0.123758373,-0.174663633,-0.1955147,-0.048243483,-0.186370529,0.09831262,-0.020856525,-0.381385012,0.126596024,-0.306730031,-0.20851618,-0.110907739,,,,
822.3359994,3212,0.05582642,-0.038201285,0.008828872,-0.068897769,0.108059578,-0.185065141,-0.039497857,-0.046524477,-0.00061397,0.087309892,0.032038121,-0.18843866,0.11918073,-0.136318044,-0.279616181,0.04146714,,,,
822.3439994,3212,-0.067511284,-0.058299238,0.086424034,-0.127484049,-0.046125726,-0.154739183,-0.048641293,-0.223458179,0.018130956,0.14415993,0.064236861,-0.033445181,-0.171462364,-0.126432074,-0.225940481,-0.118148733,,,,
822.3519994,3212,0.067754477,-0.176521445,-0.14943665,-0.173337212,-0.233292385,-0.240445388,-0.045560306,-0.176184126,-0.102940113,-0.005083238,-0.139721488,-0.215184827,-0.134708212,-0.164519664,-0.229273755,-0.315462503,,,,
822.3599994,3212,0.067592897,-0.078567157,-0.125318347,-0.127351027,-0.03390382,-0.218954419,-0.114841642,-0.312297531,-0.009500227,-0.335152144,-0.170246429,-0.244307812,-0.098388658,-0.115615086,-0.115028905,-0.228692058,,,,
822.3679994,3212,-0.116221526,0.038094441,-0.129985027,-0.191414306,-0.013850301,0.002907417,-0.041792589,-0.145979888,-0.001191829,-0.055667346,-0.001875963,-0.199560638,-0.089354465,-0.057798043,0.041151732,-0.093178291,,,,
822.3759994,3212,0.084678107,-0.026994457,-0.192150481,-0.208349223,0.144412098,0.047961329,0.130192977,-0.135312433,0.121815643,0.085591841,0.051001849,-0.211776859,-0.026360246,-0.277786357,-0.181606255,-0.177026675,,,,
822.3839994,3212,0.077424294,-0.187323346,0.034340516,-0.179899047,0.14642649,-0.155485096,0.002357578,-0.372661774,0.101567739,-0.12530893,0.016845139,-0.202094413,-0.071636326,-0.173458361,-0.193188988,-0.312209449,,,,
822.3919994,3212,-0.041292868,-0.23310525,-0.010999818,-0.008095185,-0.105443901,-0.232237406,-0.169798569,-0.206740152,-0.049675525,-0.161133383,-0.041277226,-0.142239658,-0.112313858,0.080534745,-0.01886034,-0.269239642,,,,
822.3999994,3212,0.106892269,-0.020851015,-0.17227991,0.072662853,-0.095074147,-0.238137264,-0.173890579,-0.196685744,-0.002008319,-0.063733661,0.039361588,0.014150601,-0.090279905,-0.018528963,-0.043076759,-0.236019328,,,,
822.4079994,3212,0.12370917,-0.008114153,-0.043174794,-0.122000654,-0.176292258,-0.248643806,-0.102120844,-0.217906382,-0.009302474,-0.074789398,0.143278085,-0.056126811,-0.121921731,-0.116204331,-0.132549521,-0.320352949,,,,
822.4159994,3212,0.142926174,-0.033224052,-0.013089322,-0.185624173,-0.015619838,-0.147792231,-0.134625573,-0.290499877,-0.005471309,-0.14914304,-0.060267504,-0.202193275,-0.125726658,-0.180529542,-5.12E-05,-0.261636244,,,,
822.4239994,3212,-0.034374229,0.174736115,-0.054228957,-0.207004861,0.115931684,-0.070932065,-0.090398221,-0.407239834,0.078209616,-0.025295092,-0.107953699,-0.20864092,-0.002675637,-0.268078665,0.104403305,-0.119294306,,,,
822.4319994,3212,-0.125011379,0.209503389,-0.02234201,-0.202242687,-0.064780816,-0.148996352,-0.157013565,-0.224823818,0.100930344,-0.020055256,0.071321417,-0.423829946,-0.017794751,-0.238962464,-0.106165701,-0.218389229,,,,
822.4399994,3212,0.022689583,0.205059189,0.030666663,-0.198362771,0.097286507,-0.271153084,-0.20660135,-0.239179009,0.069287337,-0.097344825,0.09860644,-0.317834823,-0.165500421,-0.116047665,-0.105297932,-0.292423399,,,,
822.4479994,3212,-0.036122071,0.150605411,0.207001688,-0.243152641,0.104465961,-0.223553996,0.053934809,-0.145277542,0.045337476,-0.220729411,0.140603034,-0.057750952,-0.117482972,-0.14847315,-0.079075211,-0.223282616,,,,
822.4559994,3212,-0.094906677,-0.058500417,0.224105155,-0.185984978,-0.029618569,-0.140662475,-0.030703189,0.056877658,0.071915082,-0.290050239,0.167562549,-0.336512319,0.061544191,-0.218537865,-0.145113005,-0.213959589,,,,
822.4639994,3212,-0.0301883,-0.015825676,0.039740241,-0.22267214,-0.063132601,-0.091278526,-0.170508706,-0.122851977,-0.046341673,-0.072706958,0.059119836,-0.297040123,0.03769148,-0.106876215,0.037403078,-0.153198707,,,,
822.4719994,3212,-0.026433422,0.105480999,-0.052291922,-0.086772695,-0.204362908,-0.063755216,-0.011733355,-0.116880074,-0.107457048,-0.024343559,-0.105174847,-0.09387222,-0.148363886,-0.182838876,-0.049402328,-0.012338767,,,,
822.4799994,3212,-0.057822095,0.105497506,-0.123271158,0.132094166,-0.215565493,-0.22079591,-0.106288096,0.032923145,0.124535708,-0.155842136,0.010533432,-0.22477347,-0.109790982,-0.29093536,-0.233290347,-0.004509762,,,,
822.4879994,3212,0.02339541,0.068572751,-0.043526309,-0.113818764,-0.136777097,-0.295222477,-0.205886379,-0.041606045,0.069318195,-0.095189337,0.253260909,-0.112670505,-0.073862828,-0.225644151,-0.164044341,-0.146964861,,,,
822.4959994,3212,-0.011816806,-0.127545907,0.038538837,-0.323655412,0.094136364,-0.104955565,0.008848071,-0.149153949,-0.09651461,0.06899678,0.025269302,-0.00051147,-0.126988544,-0.310258291,-0.265863366,-0.213269662,,,,
822.5039994,3212,0.025076737,-0.140039209,0.034833049,-0.23821662,0.203540997,-0.107220864,0.125864284,-0.192310391,0.025248566,0.003723133,-0.017569701,-0.180901669,0.033429574,-0.301291973,-0.274312446,-0.214753707,,,,
822.5119994,3212,0.133401511,0.003132072,0.052838772,-0.201976878,0.10008092,-0.319549911,-0.031184211,-0.078787184,-0.028401365,-0.026745316,0.181483502,-0.268681529,0.026097358,-0.159107455,-0.103060227,-0.16445523,,,,
822.5199994,3212,-0.052811376,-0.044687853,-0.075814438,-0.158115216,0.075763073,-0.134641179,-0.043759837,-0.097239066,0.013723641,0.098787369,0.055373112,-0.029051546,-0.121753252,-0.183258724,-0.113133025,-0.204833789,,,,
822.5279994,3213,-0.04115076,0.181426466,-0.086442431,-0.144985738,0.00109829,-0.105468759,0.143711121,-0.265800262,0.077042746,0.110907616,0.032298648,0.032069615,-0.105069148,-0.3586279,-0.188874409,-0.251588951,,,,
822.5359994,3213,0.115353211,0.313882355,-0.117690157,-0.092909854,-0.022039644,-0.435976895,0.090275158,-0.238698761,-0.040536972,0.130571241,-0.051726088,-0.229684385,0.024657078,-0.392016389,-0.05371044,-0.014696088,,,,
822.5439994,3213,0.086852027,-0.013859535,-0.160494741,-0.111900888,-0.070658853,-0.163357475,-0.122352685,-0.329358348,0.248073525,0.027695641,-0.198327008,-0.208624821,0.004643705,-0.160760323,0.101206361,0.02461906,,,,
822.5519994,3213,0.053665474,-0.072505117,-0.029379387,-0.168161391,-0.174088123,-0.00952534,-0.158126169,-0.309070087,0.37287023,-0.068862696,-0.096978416,-0.115426557,-0.215516925,-0.219982719,-0.035327536,-0.029467046,,,,
822.5599994,3213,-0.002411544,-0.018022874,-0.081022113,0.002070704,-0.052096531,-0.322013351,-0.175791707,-0.068777016,0.0672216,0.042792489,-0.021756717,-0.170950402,-0.130563803,-0.442578634,-0.175522085,0.069023468,,,,
822.5679994,3213,-0.017317665,0.041594657,0.037354484,-0.153336238,0.125500467,-0.26018503,-0.107358672,-0.17368981,-0.010041754,0.047715304,-0.014075319,-0.191428978,0.018303094,-0.326194645,-0.270020905,0.009978217,,,,
822.5759994,3213,0.0233397,0.219525185,0.068214712,-0.307838953,0.133091315,-0.108116736,0.225461583,-0.252544026,-0.042433014,-0.005337083,-0.000383786,-0.243646016,0.002741086,-0.095447321,-0.259219362,-0.183371419,,,,
822.5839994,3213,-0.010793276,0.190905994,-0.209610236,-0.103820276,0.035591667,-0.134626543,0.194643944,-0.080877893,-0.263460656,0.007830838,0.017397709,-0.20477596,0.046584441,-0.029555107,-0.171391005,-0.36396333,,,,
822.5919994,3213,0.003533735,0.305283927,-0.025971775,-0.138184853,-0.074025807,-0.198587714,-0.143648792,-0.076808858,-0.204949758,0.042925766,-0.010575538,-0.199673881,-0.078300512,-0.239771084,-0.303468187,-0.242636541,,,,
822.5999994,3213,0.009763136,0.291454801,0.073312657,-0.222722643,-0.010693643,-0.226770305,-0.096894564,-0.181599167,0.094221079,0.156158217,-0.097535412,-0.172612313,-0.21343004,-0.32648667,-0.327169924,-0.18480199,,,,
822.6079994,3213,-0.171834823,0.075806777,-0.237136471,-0.237466006,0.020311807,-0.138407136,0.050274337,-0.056461013,0.060650779,0.097285747,0.066486711,-0.027774073,-0.067376904,-0.171935082,-0.217112454,-0.246136435,,,,
822.6159994,3213,-0.088072007,0.243678373,-0.176384325,-0.144675162,-0.054839672,-0.074793463,0.024904195,-0.027810954,-0.04651319,-0.062266643,0.166892037,-0.053243996,0.136997994,-0.11462955,-0.176362877,-0.094810046,,,,
822.6239994,3213,0.170352133,0.187179148,0.161034098,0.015672588,0.016086137,-0.081536188,-0.038644058,-0.244246774,-0.137511888,-0.05612431,-0.066360776,-0.123307197,0.11265387,-0.117623968,-0.067089683,-0.135315828,,,,
822.6319994,3213,0.071001255,0.0425204,0.086870648,-0.127119411,-0.011924359,-0.065091969,-0.11032605,-0.119465901,-0.106746873,-0.028266842,-0.051737159,-0.170966464,-0.086110147,-0.169363312,-0.097517038,-0.309670663,,,,
822.6399994,3213,0.058211978,0.04929931,-0.14696018,-0.243453677,0.080049965,-0.083711678,-0.130833695,-0.078551416,0.175831852,0.025127626,-0.051552331,-0.124845953,-0.06665521,-0.094187776,-0.182113,-0.252023489,,,,
822.6479994,3213,0.082902489,-0.102764957,-0.127645047,-0.206673093,0.115541184,-0.062475196,-0.109520036,-0.311835006,-0.000508926,-0.081675141,-0.049141033,-0.030546723,-0.032784351,-0.07747883,0.036983139,-0.056564866,,,,
822.6559994,3213,-0.00108383,-0.048988765,-0.154005709,-0.195366062,-0.091977157,-0.056420873,0.001840469,-0.254568386,-0.10725522,-0.095702186,0.188646861,0.044010497,-0.142965462,-0.317485394,0.074166573,-0.190411604,,,,
822.6639994,3213,0.206951155,0.064473917,-0.040168374,-0.195264133,0.153726932,-0.141564169,0.144385815,-0.203467646,0.065803702,0.15565819,0.117976299,0.119400256,-0.024670939,-0.225893779,-0.139067346,-0.345267381,,,,
822.6719994,3213,0.235479435,0.22007673,0.054482027,-0.256212373,0.204525723,-0.135366872,0.080176091,-0.088051257,-0.059473783,-0.00351696,0.035194293,-0.143949458,-0.073265766,-0.043038742,-0.151662645,-0.136820287,,,,
822.6799994,3213,0.020603913,0.128054997,-0.046063198,-0.138494209,-0.134541843,-0.056625898,-0.070264441,0.084382296,-0.053751721,-0.115963778,0.048105793,-0.347021143,-0.240522025,-0.23338338,-0.1339754,-0.117827596,,,,
822.6879994,3213,-0.021750372,-0.246715583,0.043270832,-0.026574104,0.101541561,-0.030146427,-0.070340198,-0.072785093,-0.043020848,0.11082333,0.000470689,-0.101065747,-0.11626665,-0.246940526,-0.108267203,-0.243734745,,,,
822.6959994,3213,-0.011868483,0.086307719,0.068208284,0.008513396,0.307921077,-0.118993466,-0.106804538,-0.183721372,-0.093332931,0.031861757,0.04460515,0.182910665,-0.107883247,-0.060864706,-0.016701477,-0.315753477,,,,
822.7039994,3213,0.089201375,0.291520157,0.062240659,0.05555585,-0.011056624,-0.072549199,-0.087121906,-0.271805829,-0.158616118,-0.071255716,-0.008529759,0.133966651,-0.178042139,-0.129386119,-0.151714983,-0.248503563,,,,
822.7119994,3213,0.142467608,-0.19611965,0.054936584,-0.233446141,-0.15064802,-0.009228321,0.071202674,-0.254346303,-0.093916951,0.020816995,0.012771413,-0.258615849,-0.060554905,-0.184795331,-0.427676759,-0.09718668,,,,
822.7199994,3213,0.094135811,-0.069210498,-0.07747301,-0.345128305,-0.04425086,-0.129114079,-0.085194961,-0.06748186,0.195856073,-0.148628097,0.084456376,-0.301090448,0.043361803,-0.033641662,-0.277027512,-0.170163176,,,,
822.7279994,3213,0.133255237,0.200592663,-0.017989087,-0.204829947,-0.030747939,-0.071734276,-0.112242496,-0.201524149,0.185173502,-0.237258443,0.026340719,-0.13030012,0.029217193,-0.037274044,0.020712537,-0.144359844,,,,
822.7359994,3213,0.048862381,0.121690899,0.079216565,-0.181412667,-0.07747667,-0.110609173,0.097012603,-0.181784258,0.144794821,0.11259753,0.087805486,-0.214378483,-0.083531209,-0.110953166,0.06941593,-0.105480858,,,,
822.7439994,3213,-0.069082504,0.207488651,-0.002655936,-0.05674208,-0.098246055,-0.159327857,-0.044502726,0.006308629,-0.005868944,0.141245516,0.011352963,-0.105597144,-0.097455439,-0.1524004,0.126555905,-0.173892991,,,,
822.7519994,3213,-0.006866484,-0.063054198,-0.101245091,-0.070075954,-0.065993536,0.040760076,-0.029143344,0.052353695,-0.042768867,0.027720392,-0.23370767,-0.127992591,0.050394615,-0.251693862,0.011775886,-0.061673761,,,,
822.7599994,3213,0.142003907,-0.145415229,-0.099972604,-0.247311434,0.026056101,0.001562141,0.093604738,0.130086758,0.268250596,0.15275171,-0.059562543,-0.155789444,0.031442825,-0.209953802,-0.101478166,-0.017955036,,,,
822.7679994,3213,0.179725522,0.164877669,-0.216537506,-0.322399811,0.019375432,-0.069700084,0.020063991,-0.060430325,0.211679605,0.179051639,0.112261976,0.052517154,0.003093107,-0.317175009,-0.021286323,-0.092803758,,,,
822.7759994,3213,0.110735515,0.046327559,-0.295638257,-0.292003575,-0.023053355,-0.024874511,0.061563088,-0.10301892,0.18348318,0.210654893,-0.014564074,-0.032478943,0.046633481,-0.396451459,-0.04525735,-0.093674993,,,,
822.7839994,3214,0.171319747,0.151563148,-0.094648543,-0.157521303,0.018455826,-0.090359454,0.082486952,-0.042709526,0.034555467,0.152780323,0.030895934,-0.019808012,-0.048498114,-0.147927801,-0.121312382,-0.159262522,,,,
822.7919994,3214,0.174546179,0.196914847,0.041885516,-0.011863045,0.026695397,-0.178825864,0.004501895,-0.247917353,-0.234439581,0.005540712,0.0775194,0.044570112,-0.141400976,-0.059964725,-0.189780464,-0.265875677,,,,
822.7999994,3214,0.050343907,-0.20136042,0.123125649,-0.067339134,0.04276978,-0.292091119,-0.068458511,-0.153658231,0.060021156,-0.140517785,0.037118064,-0.177715703,-0.172113478,-0.144931011,-0.127025765,-0.196159255,,,,
822.8079994,3214,-0.082144583,-0.025609163,0.085790645,-0.117129812,0.091973062,-0.193091277,0.001051518,-0.026948016,0.015022243,-0.077779811,-0.080212371,-0.26208166,-0.101634205,-0.220426528,-0.035815154,-0.13078494,,,,
822.8159994,3214,-0.05149576,0.162226195,0.070052233,-0.182707092,0.081270976,0.058782025,-0.023000969,-0.071879984,-0.176422219,0.059027233,-0.201972863,-0.115216634,0.083825335,-0.216244494,-0.140687566,-0.137338941,,,,
822.8239994,3214,0.148481815,0.033084469,0.190520514,-0.329389964,-0.10849073,-0.081044046,-0.063457828,-0.093058589,0.086166078,-0.040632732,-0.239870046,-0.094065586,0.127177758,-0.236057648,-0.161720343,-0.19197434,,,,
822.8319994,3214,0.037133821,0.091204925,0.081873004,-0.07531138,-0.068731221,-0.237890341,0.115915571,-0.174128136,0.066503282,0.054625866,-0.129895783,-0.247164296,0.019074405,-0.328593294,0.008133039,-0.15978307,,,,
822.8399994,3214,-0.04646049,-0.050347969,0.083479276,-0.08283426,0.191613585,-0.160814954,-0.07825116,-0.222867838,0.034755704,-0.048194781,0.06543563,-0.33266268,0.115552703,-0.266416551,0.06979165,-0.039250756,,,,
822.8479994,3214,0.150279997,-0.0210845,0.110107331,-0.30174197,-0.016014721,-0.123346701,-0.237560696,-0.208000104,0.075425027,-0.214963183,-0.027863389,-0.293916748,0.165562858,-0.158609042,-0.167204129,-0.217503854,,,,
822.8559994,3214,0.021423676,0.132663337,-0.162113047,-0.006935404,-0.202716004,-0.054223077,-0.004141374,-0.086604692,-0.134208163,-0.04504082,0.042154819,-0.184912922,0.037245254,-0.166661741,-0.348927612,-0.254984794,,,,
822.8639994,3214,-0.100503889,0.089774261,-0.180431441,-0.047127032,-0.101967643,-0.19440742,0.066344387,-0.021702971,-0.129427858,-0.212932978,0.058520019,-0.124168788,0.057933915,-0.149279928,-0.300054609,-0.147759531,,,,
822.8719994,3214,0.080078091,0.165266765,0.063492718,-0.126122338,-0.10817446,-0.117859818,0.15580956,-0.050461749,0.089382891,-0.155563731,-0.024572165,-0.02826011,-0.042292896,-0.014578862,-0.137253988,-0.301309742,,,,
822.8799994,3214,0.119377251,0.122642616,0.163972978,0.108173256,0.005759625,0.105847822,0.024085996,-0.163647739,0.077250971,0.010362871,0.152393528,-0.056016122,-0.115779852,-0.097008327,0.089822857,-0.406266809,,,,
822.8879994,3214,0.153637042,0.036617779,0.117730962,-0.123131991,0.091461628,-0.144321041,-0.236804364,-0.196570498,-0.017900948,-0.127017386,-0.002814135,-0.282380742,0.071814571,-0.204665567,-0.031848906,-0.274926607,,,,
822.8959994,3214,0.201298199,-0.068510353,-0.014458538,-0.239608602,-0.037932739,-0.199672524,-0.012314653,-0.101765909,0.107256338,0.035304313,0.006325797,-0.241589281,0.152356,-0.023154919,-0.16867619,-0.149835784,,,,
822.9039994,3214,0.133452461,-0.142321491,-0.052512574,-0.005816533,-0.049571308,-0.045691974,-0.007585715,-0.250591684,0.123745343,0.010194463,0.081739108,-0.158094314,0.046727712,-0.096407659,-0.093736262,-0.299932652,,,,
822.9119994,3214,0.097078712,0.059524516,0.118744446,-0.132805712,0.068538183,-0.093170052,-0.059762639,-0.232815796,0.046040823,-0.140646739,-0.144624864,-0.191298532,-0.155639592,-0.101026375,-0.241661281,-0.228316584,,,,
822.9199994,3214,-0.018813991,0.164059002,0.18784642,-0.344607885,0.041977306,-0.254100997,0.108697312,-0.058956464,0.128072616,-0.050482218,-0.033716549,-0.108736672,-0.094445239,0.096428477,-0.274852714,-0.007664455,,,,
822.9279994,3214,-0.088187331,0.087806512,0.024633253,-0.150039632,-0.10407759,-0.282953848,-0.072362543,-0.003173123,0.064513583,-0.154226208,0.148190738,-0.07993696,0.183464867,0.031788993,-0.135558532,-0.133498307,,,,
822.9359994,3214,0.103146122,0.02509386,-0.026978744,0.116625364,-0.079879145,-0.174602554,-0.115194947,0.028748003,-0.01924682,-0.194943696,0.071802257,-0.098835722,0.149691616,0.129871491,-0.222041505,-0.143876389,,,,
822.9439994,3214,0.304386443,-0.093234636,-0.033666887,-0.024600258,0.035482634,-0.284875549,-0.204603285,-0.12008097,-0.069339001,0.038049077,-0.08197318,-0.156310115,0.076733427,0.13139168,-0.482620873,-0.077931403,,,,
822.9519994,3214,0.214936243,-0.08110568,0.008437169,-0.239367463,0.003866688,-0.22466622,-0.305008323,-0.212292709,-0.26490666,0.001822944,-0.104350166,-0.11212295,0.08135811,-0.106807291,-0.354929469,-0.180040856,,,,
822.9599994,3214,0.027185873,0.112679033,0.125332284,-0.116115963,-0.030094717,-0.058730155,-0.13297392,-0.161752884,-0.233944518,-0.112156335,-0.043509125,0.072655079,-0.065931049,-0.156171767,-0.060477076,-0.116519519,,,,
822.9679994,3214,0.057410221,0.160682205,0.00736112,0.028759159,0.04575741,-0.248307195,-0.07252858,-0.110107339,-0.041950944,-0.069038793,-0.031536666,-0.013102136,-0.102364225,-0.135588889,-0.111577156,-0.052140444,,,,
822.9759994,3214,0.127183422,0.097633295,0.027212641,0.101945017,0.061768957,-0.203126665,0.150018649,-0.183858917,0.038849374,-0.10962729,-0.104006643,-0.186004643,-0.032009253,0.013115469,-0.028345144,-0.095267226,,,,
822.9839994,3214,0.145966161,0.008956399,0.088651573,0.052322576,0.042187483,0.022349361,0.068584666,-0.249506881,0.053446781,0.031060102,-0.12039902,-0.146647057,0.015660035,0.178796139,-0.058238647,-0.136540357,,,,
822.9919994,3214,0.049405075,-0.008726536,0.005195293,-0.094996588,-0.131395987,-0.099221741,-0.158524663,-0.11903083,0.030904858,0.053778087,0.155109101,-0.106447781,0.031840044,0.065727648,-0.177527878,-0.215896303,,,,
822.9999994,3214,-0.066617711,0.012739282,0.096213185,-0.011894791,-0.323153727,-0.154775179,0.010435184,-0.184332695,-0.062747143,-0.133133963,0.282914265,-0.181789349,0.010019296,0.052146499,-0.073227112,-0.179988904,,,,
823.0079994,3214,0.112156319,-0.094384113,0.115826538,-0.102160275,-0.049257821,-0.194338858,0.074011274,-0.311209744,-0.061386095,-0.102775065,0.110285205,-0.249194174,0.065955673,0.142867866,-0.060918184,-0.124524397,,,,
823.0159994,3214,0.10874108,-0.064450886,0.13096209,-0.281209657,0.003486898,-0.291434394,0.086529444,-0.296491354,0.107024888,-0.105020396,0.00974719,-0.222094849,0.090475186,-0.154749658,0.027470559,-0.129458085,,,,
823.0239994,3214,-0.074743926,-0.036697025,0.172095552,-0.116740764,-0.094287155,-0.163525005,-0.036036705,-0.387373117,0.021386359,-0.00676842,0.02406779,-0.225620583,0.092199186,-0.150433896,-0.121451625,-0.085086681,,,,
823.0319994,3214,0.041322668,-0.09477444,0.096192965,-0.069734484,0.029357027,-0.220809833,-0.166507082,-0.246953358,-0.034538886,0.123850087,0.007175915,-0.128991284,0.057036077,0.030495909,-0.282936942,0.043376117,,,,
823.0399994,3215,0.022403935,-0.093248912,-0.072494426,-0.162308479,-0.236390256,-0.378488681,-0.090212355,-0.045641463,0.010388813,-0.075164482,-0.120231295,-0.01234481,-0.022323311,-0.202701456,-0.146047413,0.001400579,,,,
823.0479994,3215,-0.086257544,-0.028104623,-0.100941784,-0.192592372,-0.22687121,-0.152494421,-0.038787716,-0.058370876,-0.12971172,-0.095231296,-0.073483992,-0.19349317,-0.081964992,-0.098071412,-0.194629865,-0.126594197,,,,
823.0559994,3215,0.010449756,0.176071002,0.003668725,-0.112902977,-0.004980888,0.109494159,0.023489436,0.100532457,-0.01681285,0.046522759,0.004588213,-0.174939799,-0.221286257,-0.029345727,-0.106399049,-0.034590988,,,,
823.0639994,3215,-0.016787587,0.122062959,-0.10813257,-0.007522649,-0.12764758,-0.014142123,-0.024568751,0.048498524,0.170877552,-0.005379657,0.017832526,-0.095200834,-0.186228565,-0.147334877,-0.034309447,-0.11787778,,,,
823.0719994,3215,0.029565129,-0.00626086,-0.057395711,-0.181675185,-0.115844789,-0.069190836,-0.092626943,-0.21241089,0.125689834,-0.013908729,0.052830013,-0.262000984,0.017992525,-0.057855428,-0.171646807,-0.131340085,,,,
823.0799994,3215,0.160412006,-0.052051459,0.010100192,-0.277256154,-0.038003723,-0.029459269,-0.067045611,-0.025496939,-0.039105633,0.020795679,-0.075091004,-0.15878985,0.134157368,-0.140230623,-0.127921828,0.131167312,,,,
823.0879994,3215,0.02889656,-0.150806661,-0.019970267,-0.207370934,0.010385267,-0.145322445,-0.071662874,0.163332258,-0.116832766,0.035671007,0.04031513,-0.167462619,0.122589278,-0.206396902,-0.007997005,0.114570326,,,,
823.0959994,3215,0.006017594,-0.066204147,0.057635443,-0.252230661,0.002062498,-0.089650306,-0.072023902,0.061517302,-0.05146446,0.045072565,0.119319822,-0.267058431,0.089100084,-0.181393978,0.005533926,0.063885272,,,,
823.1039994,3215,0.075851543,-0.092212179,-0.002435244,-0.233096848,-0.017458903,-0.084690267,-0.068662103,0.089136138,-0.081039506,0.02939889,-0.006172314,-0.159063116,0.122173438,-0.187314892,-0.040986199,0.121714815,,,,
823.1119994,3215,-0.014636204,0.011575822,0.064462454,-0.105784096,-0.016373322,-0.15106783,-0.002446115,0.122640127,0.034131559,-0.017709787,-0.041470423,-0.177603079,0.025251832,-0.188507409,0.029222286,0.02056237,,,,
823.1199994,3215,-0.109687395,0.282333642,0.10073199,-0.025232989,-0.068997809,-0.101434853,0.117894856,0.022612055,0.107653249,-0.095301013,-0.131421402,-0.029263923,-0.100181882,-0.23741245,0.019642845,-0.125585492,,,,
823.1279994,3215,-0.169216689,0.105688854,-0.018555059,-0.096655307,0.135335122,-0.072158544,0.042716495,-0.106182586,-0.187765625,-0.045784264,0.022594618,-0.015497124,-0.044266078,-0.292796373,-0.142529271,-0.141601419,,,,
823.1359994,3215,-0.010650772,-0.070198252,-0.018920168,-0.042780976,0.247960512,-0.024599119,-0.083308455,-0.0385312,-0.177791786,-0.022296472,-0.068839098,-0.258422899,-0.067986984,-0.209620052,-0.205833252,-0.024854275,,,,
823.1439994,3215,0.029689226,0.162022931,-0.094212628,0.072947936,0.001240563,0.06949932,0.015278667,0.054212476,0.041842121,-0.124639087,-0.236950693,-0.129841393,-0.216416779,-0.013265162,-0.226936377,-0.115005158,,,,
823.1519994,3215,-0.1065357,0.19644716,0.041060137,-0.08109477,0.032462857,0.102829778,0.032928483,-0.078997591,-0.04072645,-0.111936372,0.003021042,-0.05816146,-0.077657198,0.001575565,-0.239979568,-0.217732259,,,,
823.1599994,3215,0.103518311,-0.075665243,0.275607456,-0.162215659,0.1131178,0.065246831,-0.02239578,0.00455864,-0.022354512,-0.046409846,0.073225286,-0.124984442,0.087441778,-0.102512615,-0.190416486,-0.042424851,,,,
823.1679994,3215,-0.045135783,-0.076590539,0.012955864,-0.03269526,-0.090053775,0.039401562,-0.013011923,0.033676859,0.106750016,-0.040987546,0.129680334,-0.019787107,0.026044269,-0.155873944,-0.090344008,-0.032258886,,,,
823.1759994,3215,-0.418553425,0.106522377,-0.11207246,0.013223743,-0.102716595,-0.074457674,-0.040940168,-0.105331455,0.083800227,0.010760246,0.063086736,0.014949318,0.058455483,-0.123772534,-0.186502279,-0.204173453,,,,
823.1839994,3215,-0.170034808,0.129431456,-0.084670647,0.002804722,0.037894553,-0.071855388,0.07848414,-0.069642383,0.015362972,0.136764004,-0.006382246,-0.056395757,-0.049563007,0.001477817,-0.341409639,-0.239475883,,,,
823.1919994,3215,-0.061322812,0.048387221,-0.213705817,-0.016198744,0.052546094,-0.049444172,0.062927378,-0.030332617,-0.000653057,0.086502363,0.040518898,-0.274916675,-0.106320027,0.090828246,-0.072485917,-0.09026764,,,,
823.1999994,3215,-0.137139692,0.00815629,-0.023109642,-0.193750936,0.121276449,-0.162712135,-0.006786483,-0.041281581,0.047411454,-0.020020536,-0.065961194,-0.306176751,0.054637317,0.079754462,0.008962591,-0.111880969,,,,
823.2079994,3215,-0.060598752,0.034470105,0.030828148,-0.234813741,0.083823806,-0.248382681,0.136922415,-0.161699093,0.092925717,0.066436244,-0.020574785,-0.14357341,-0.035778947,0.057350232,-0.23531408,-0.256711659,,,,
823.2159994,3215,-0.151050233,0.162236555,0.062239403,-0.081264533,-0.111460334,-0.258522537,0.004567012,-0.067359332,0.054603899,0.047612387,0.073066507,-0.182599191,-0.091510397,0.051169602,-0.157079457,-0.022032041,,,,
823.2239994,3215,-0.055473933,0.217864071,0.178209,-0.079069981,0.049755774,0.018218412,-0.01075077,0.047006903,0.064544419,0.079011713,0.110164755,-0.083815953,-0.012237999,-0.162545481,-0.172106243,0.032620874,,,,
823.2319994,3215,0.090302955,-0.00734249,0.050787852,-0.1586703,0.068009,0.158554895,0.102113368,0.010382804,0.134164396,0.156506574,-0.013204745,0.084537683,-0.030564427,-0.243320274,-0.282208309,-0.176945056,,,,
823.2399994,3215,-0.034069303,-0.070493528,0.070897557,-0.004560904,-0.029838202,0.009285342,-0.039911207,0.075064686,0.019569482,0.042672159,-0.130485355,0.093155573,0.005814327,-0.050434468,-0.150627005,-0.090216673,,,,
823.2479994,3215,-0.121204706,0.039560952,0.017370788,0.156473543,0.130403014,-0.089885067,0.03476184,-0.123909472,-0.024616069,0.096232636,0.095067357,0.021076138,0.055529357,-0.187350307,-0.130148226,-0.137982626,,,,
823.2559994,3215,-0.077034393,-0.031525792,0.078382921,-0.05283908,0.02076618,-0.030351155,-0.009250946,-0.152051512,0.05322832,0.118641817,0.071764326,-0.046757469,-0.092735941,-0.189441766,-0.154149529,-0.08351786,,,,
823.2639994,3215,-0.045348217,-0.093887498,0.112709983,-0.146923718,-0.138826725,0.026102251,-0.114114063,0.018546425,0.114761102,-0.05586013,-0.04642092,0.102336921,-0.159955608,0.015628258,-0.064963135,0.056661693,,,,
823.2719994,3215,-0.024407171,-0.046602953,-0.130293675,-0.04378094,-0.130908905,-0.17752753,0.059593145,0.04728234,0.142285448,-0.052159955,0.06882817,0.046307404,0.017987473,-0.151795799,0.005228117,-0.312753587,,,,
823.2799994,3215,0.086985793,0.035106908,-0.144965982,0.017899064,0.068663455,-0.097048362,0.09818275,0.040527265,-0.16491997,0.057800602,-0.114630991,-0.131067166,-0.064722127,-0.162285666,0.038135483,-0.381021931,,,,
823.2879994,3215,0.099785254,0.104319181,-0.056020634,0.016805961,0.138420527,0.119138128,0.098370378,-0.223281286,-0.192018329,0.02800791,-0.125786832,-0.082788407,-0.136211237,-0.090313619,-0.008708675,-0.172383997,,,,
823.2959994,3216,0.174594996,0.146602353,0.052724805,-0.116409134,0.006052283,-0.070714523,0.05157657,-0.317374524,0.063357713,-0.058626173,-0.059215412,-0.15612327,0.065636786,-0.221097591,-0.015829949,-0.142762682,,,,
823.3039994,3216,0.251284562,0.122989353,0.050862737,-0.006921473,0.048060507,-0.088287991,-0.034256792,-0.107685242,-0.027477015,0.070281585,-0.175485161,-0.070710299,0.149382925,-0.156270871,-0.005638917,0.053892948,,,,
823.3119994,3216,0.031113531,0.137531268,0.136856146,0.120211546,0.051924296,0.045400598,0.013884121,0.04438405,0.025567587,0.188063301,0.030151891,-0.07181171,0.086148204,-0.094749367,-0.026775796,0.028181437,,,,
823.3199994,3216,-0.039034475,0.137171331,0.109446156,-0.013751593,0.048591987,-0.068033504,-0.008917367,0.074198956,0.010978776,0.051481117,0.069774071,-0.341918679,-0.075398116,-0.240824053,0.017741365,0.030233224,,,,
823.3279994,3216,0.010964961,-0.015150049,-0.176021593,-0.044950363,-0.052777868,-0.041880027,0.089815837,-0.017040563,-0.068095452,0.129932298,-0.06795472,-0.234347023,0.033372046,-0.209642807,0.04000011,0.130474636,,,,
823.3359994,3216,0.046641341,0.027841607,-0.080860176,-0.097240343,-0.060019485,-0.139545633,0.131869114,-0.09912495,0.066081156,0.179867709,-0.123987521,-0.062615351,0.169477431,-0.034223528,0.078265323,-0.106545884,,,,
823.3439994,3216,0.036594364,0.183555946,0.00240834,-0.119303351,0.146573061,-0.301493171,-0.214842681,-0.061482132,-0.014678662,-0.055673359,-0.049148924,0.048822264,-0.118330742,-0.016029509,-0.031557075,-0.09586651,,,,
823.3519994,3216,-0.045386553,0.168953803,0.040724686,-0.084651837,0.060907183,-0.004683026,-0.267688332,-0.039557884,-0.105227778,0.07087328,0.132952812,0.185131805,-0.213478983,-0.111599506,-0.182520676,-0.015551996,,,,
823.3599994,3216,0.03545372,0.11577934,0.021584158,-0.142928241,-0.055679714,0.000657136,-0.100430558,-0.136332193,-0.050733773,0.319794632,0.021273991,-0.00693742,-0.079984717,-0.196203828,-0.056123165,-0.052929995,,,,
823.3679994,3216,-0.012554998,-0.043695539,-0.146936304,0.034014517,0.063173277,-0.209413836,-0.108985417,-0.10025823,-0.012372656,0.265447705,-0.050963783,-0.174643772,0.0538399,-0.047963705,0.080476501,0.032018611,,,,
823.3759994,3216,-0.008490471,0.009850397,0.009768369,0.080869084,0.042502215,-0.056298683,-0.02304602,-0.098947172,-0.10404618,0.137526858,0.00622588,-0.047336132,0.111536132,0.050398052,0.035995302,0.064223386,,,,
823.3839994,3216,0.146735958,0.132623749,-0.003844523,-0.198469646,-0.123346127,0.052856539,-0.007131594,-0.125761213,-0.078451343,-0.027903309,-0.004237939,-0.057494588,-0.15611428,-0.167762311,-0.04657031,0.036824768,,,,
823.3919994,3216,0.071255753,-0.010701477,-0.130149849,-0.242456522,-0.104136527,-0.014158692,-0.048656125,0.002153327,0.172181149,-0.056419759,0.168728183,-0.173530689,-0.215878271,-0.232635124,0.006737449,-0.173428436,,,,
823.3999994,3216,0.052674902,0.004624794,-0.054787806,-0.096520135,0.140615729,-0.062569474,-0.063411208,0.079515702,0.160197384,0.032647797,0.100017243,0.089419969,-0.035916185,-0.022361872,0.045089428,-0.143534724,,,,
823.4079994,3216,0.108008457,-0.074079909,0.019835442,-0.041284861,0.304844455,-0.021214263,-0.048835734,0.142854646,0.114503432,-0.086894012,-0.085635049,0.19190224,-0.060531985,-0.029224334,-0.034213597,0.098101092,,,,
823.4159994,3216,0.052224235,-0.02644808,0.001770082,-0.01319859,-0.0088574,-0.021249369,0.158921258,-0.077195413,0.125026485,-0.013577184,0.095071772,-0.176501669,-0.044000495,-0.213967431,-0.119339322,-0.030333632,,,,
823.4239994,3216,-0.072014713,0.180526682,-0.190793763,0.030020456,-0.236065112,-0.08775869,0.138678374,-0.273700238,-0.042433643,0.100029755,-0.021245541,-0.172823311,-0.042793947,-0.055459083,-0.185726779,-0.157780555,,,,
823.4319994,3216,-0.2286798,-0.02224743,-0.061521481,-0.104132131,0.090198749,-0.085127807,-0.070730962,-0.147614463,0.111458892,-0.054424258,-0.168428805,0.055248839,-0.037482175,0.14896288,-0.131703453,-0.095202651,,,,
823.4399994,3216,-0.145767412,-0.165440399,0.08910005,-0.16453371,0.144546694,-0.112112047,0.041100387,-0.115565836,0.135350277,0.08954521,-0.061079358,0.115377402,0.016640355,0.080062371,-0.065599794,-0.02527034,,,,
823.4479994,3216,-0.031462096,-0.086177948,-0.056139978,-0.064341271,-0.06410336,-0.254476658,-0.021291779,-0.035985166,-0.214383806,0.114822087,-0.120845239,0.016283619,-0.066158999,0.101018419,-0.036077758,-0.0823346,,,,
823.4559994,3216,0.003557254,-0.032474861,0.02428377,-0.125217576,-0.038478299,-0.169478411,-0.139647253,-0.015834125,-0.095501463,-0.034294636,-0.042006167,-0.119966517,-0.007015753,0.26885476,-0.023457442,-0.172500327,,,,
823.4639994,3216,0.201191391,-0.031010127,0.140465331,-0.084651094,-0.016215452,-0.045316101,0.054265158,-0.046282617,-0.033123285,0.007912118,0.02464034,-0.126222557,0.066945277,0.166039553,-0.136422769,-0.058401885,,,,
823.4719994,3216,0.140015542,0.031020092,0.071122424,0.010349019,-0.042328806,-0.133457232,0.022837777,0.01987398,-0.247407781,-0.044122613,-0.09372352,-0.216497401,0.046159777,-0.096137886,-0.040634966,0.003857919,,,,
823.4799994,3216,-0.03747408,0.138958633,-0.07722849,-0.091504986,-0.13250422,-0.03043578,-0.010778745,-0.021721959,-0.145559125,0.028280356,-0.179808054,-0.015585491,0.011911259,-0.10157143,0.146186732,0.033633195,,,,
823.4879994,3216,0.029222693,0.149670075,-0.112225625,-0.133653691,-0.17080585,-0.02418066,0.045379554,-0.121789917,0.110091873,0.134906394,-0.137052502,0.138912299,-0.132321738,-0.003031309,0.008102003,0.114100678,,,,
823.4959994,3216,0.032458705,0.032744094,-0.019590761,-0.072305731,0.102142709,-0.016860239,-0.043437522,-0.156050826,0.186221673,0.039567664,0.035212695,-0.037959545,-0.144801406,0.05836574,-0.003322622,0.055158007,,,,
823.5039994,3216,-0.002363227,-0.138503937,0.035134504,-0.050542629,0.142765164,0.086025082,-0.028452393,-0.178688587,-0.00673069,-0.033093069,0.13231948,0.110025498,-0.08117792,-0.033062681,0.09764928,0.07644514,,,,
823.5119994,3216,0.109179731,-0.076380805,0.058128423,-0.04638586,-0.150639595,-0.053502574,-0.04566597,-0.131026255,-0.107044902,0.084723485,0.142243924,0.149588709,-0.043336394,-0.17342506,0.013282084,0.075633833,,,,
823.5199994,3216,0.135946622,-0.012062015,-0.011791371,-0.126979271,0.013391271,-0.007295447,-0.117749531,-0.005794932,-0.084811852,0.157078699,0.007666119,-0.036277277,0.020753574,-0.140269539,-0.070594446,-0.007479862,,,,
823.5279994,3216,-0.098946849,-0.004002774,0.004198865,-0.261207888,0.314466631,0.040004449,-0.065511172,-0.156986434,-0.118028656,0.053229468,-0.108491445,-0.064838716,-0.006715346,-0.087137216,-0.069733635,0.030843737,,,,
823.5359994,3216,-0.069337167,0.202587373,0.014754842,-0.215575113,0.126702177,-0.077666791,-0.125794984,-0.219375567,0.019789983,-0.005363824,0.098616621,-0.051175363,-0.070434682,-0.129700997,-0.015750248,-0.0082911,,,,
823.5439994,3216,0.063109451,0.132977282,-0.122872805,0.020614281,-0.10878121,-0.043538378,-0.18004949,-0.023347813,0.272699198,-0.048903846,0.179798648,-0.055453536,0.062867493,-0.222975917,-0.16975965,-0.080938743,,,,
823.5519994,3217,-0.133750338,0.022270402,-0.054639013,0.048697534,0.033366454,0.026209385,-0.030133313,-0.000703213,0.193732682,-0.005511399,0.018854346,-0.16819075,0.106774363,-0.094659678,-0.099254861,-0.139957367,,,,
823.5599994,3217,-0.190394707,0.138579962,0.082342444,-0.134298468,0.204502794,-0.00163178,0.016445232,-0.151835164,-0.093433147,-0.021601188,0.143165016,-0.208077044,-0.021228893,0.109297641,0.129763716,-0.148561786,,,,
823.5679994,3217,-0.174184415,-0.067301471,0.131568217,0.077766838,-0.009175691,0.065789764,-0.123723136,-0.224607236,-0.112390167,-0.101723162,0.183833268,-0.068084109,0.165010722,0.102821963,-0.087677558,-0.051857388,,,,
823.5759994,3217,-0.167648557,-0.14856569,0.054576719,0.19756378,-0.029995552,0.180325164,-0.176753953,-0.059520462,-0.054918656,0.081211904,-0.055638139,-0.027341712,0.117975834,-0.033825626,-0.085230875,0.028182348,,,,
823.5839994,3217,-0.004921098,-0.015417169,-0.040290221,-0.100680056,0.118082174,-0.002302542,-0.095173841,-0.092825297,0.077819029,0.066241629,-0.058420867,-0.072268244,-0.118986453,-0.098011237,0.036540443,0.009086604,,,,
823.5919994,3217,0.186072496,0.027899582,0.077010479,-0.075510943,-0.129340452,-0.088252945,-0.054532797,-0.170236882,0.160678741,-0.089520252,-0.001575606,-0.016825029,0.01794916,0.177021158,-0.094319841,-0.063656133,,,,
823.5999994,3217,0.235473206,0.101728779,0.058181198,0.003621115,-0.152143916,-0.14603734,0.051578848,-0.008789382,-0.093243234,0.019375102,0.057927979,-0.038065273,0.092386202,0.274584201,-0.098578436,-0.072566777,,,,
823.6079994,3217,0.101816736,-0.039048039,-0.009166772,-0.099537839,-0.050122678,-0.240176659,0.079239044,-0.031963203,-0.108193037,0.083933441,0.11323651,-0.117136065,0.022755348,0.036490539,0.006031483,-0.037770931,,,,
823.6159994,3217,0.066637277,-0.08485039,0.036311962,0.007044722,-0.027289483,0.061474941,0.009284827,-0.213746479,0.035689538,0.096109625,0.061503017,0.009781159,-0.065851621,0.049351547,0.141246334,0.072912236,,,,
823.6239994,3217,0.000399344,-0.05537169,-0.074519713,0.151429686,0.135576097,0.03122633,0.152234022,-0.173134229,0.00403386,0.002189931,-0.032815278,0.075986833,0.161671026,-0.054521988,0.074088007,-0.059547823,,,,
823.6319994,3217,0.061827483,-0.074332741,-0.093455653,0.10178425,0.105813292,-0.14824216,0.152198532,0.120668663,0.081535235,-0.060607312,-0.139688813,-0.107691666,0.319091678,-0.261328013,-0.161350356,-0.188268311,,,,
823.6399994,3217,0.345962162,0.010891368,0.165110111,-0.018210958,0.04086493,-0.034413705,0.036157202,0.146251077,0.042730362,0.056305931,0.048272473,-0.036634663,0.077600269,-0.089708504,-0.130747248,-0.109030336,,,,
823.6479994,3217,0.087743151,-0.040104512,0.18753634,-0.055958247,-0.064087917,-0.022197039,0.067728325,-0.11604595,-0.128116324,-0.007740396,0.078064478,0.17015519,0.106641676,0.035873654,-0.049842278,-0.062578899,,,,
823.6559994,3217,-0.160494035,-0.108625043,0.034364589,-0.049833447,-0.073565978,-0.015374755,-0.004387626,-0.159523487,-0.14409373,-0.06173858,0.031643767,-0.09618714,0.047211326,0.074057381,-0.165303148,0.114620594,,,,
823.6639994,3217,0.132910098,0.011531319,0.018377368,-0.039749447,0.044361852,-0.254610001,-0.010571425,-0.066206855,-0.094468192,0.074403998,0.151622548,-0.029900466,-0.019231997,0.001347241,-0.102406548,-0.012175363,,,,
823.6719994,3217,0.291794052,0.273075812,-0.016640959,-0.009609699,-0.020428027,-0.277198318,-0.064030956,-0.009970224,0.049870353,0.115344541,-0.059151968,0.239117102,0.102792686,-0.115111817,-0.081261868,-0.039078383,,,,
823.6799994,3217,0.221653033,0.158207603,0.03492878,-0.097785268,-0.021899345,-0.115917691,-0.207936499,0.113106891,0.198001829,0.001217109,-0.011649418,-0.153365278,0.00296316,0.037621279,-0.252864118,0.074796493,,,,
823.6879994,3217,-0.10493771,-0.134875632,-0.029633532,-0.041354285,-0.048174317,-0.144665619,-0.016015489,0.012047184,0.204851367,-0.047759561,0.117230312,-0.182607111,-0.146359631,0.039969237,-0.059782692,-0.050435845,,,,
823.6959994,3217,-0.322368033,-0.003805342,-0.072142945,0.079026543,-0.069530662,0.091422468,0.082540404,-0.14650583,0.213987508,0.154281309,0.015292487,0.176312666,-0.167681404,-0.042170451,0.092654982,0.103485742,,,,
823.7039994,3217,-0.128321201,0.132859086,0.102002206,-0.147395372,-0.018288243,0.033803191,0.015867237,0.065555413,0.102597055,0.264494548,0.108134828,0.15974898,0.057831079,-0.093866965,-0.092487921,0.000465691,,,,
823.7119994,3217,-0.026526313,0.037109652,0.087525897,-0.148824309,-0.048639013,-0.186077568,0.059933424,0.04807259,-0.091140111,0.024884768,-0.006918232,-0.014068072,0.037711174,-0.076116716,-0.035852974,-0.184044124,,,,
823.7199994,3217,0.066880506,-0.004628232,-0.101198214,-0.00149377,0.041753375,-0.135915376,-0.013440055,-0.084621218,-0.002835211,-0.109297577,-0.169258166,-0.016832142,-0.110440208,0.029207324,0.105532312,-0.068465332,,,,
823.7279994,3217,0.077126805,0.103238151,-0.136185195,-0.053063837,0.176974118,-0.046940597,-0.103945762,0.032041822,0.078747267,0.061332388,-0.06981795,0.013248924,-0.039991897,0.058489439,0.090038611,-0.08780138,,,,
823.7359994,3217,-0.203116299,-0.023746594,-0.017678393,-0.064217722,-0.005156371,-0.079124948,-0.099732817,0.007280268,0.078801648,0.168337799,-0.042454169,-0.064826192,-0.073386291,0.117749717,0.045228447,-0.007978223,,,,
823.7439994,3217,-0.145049705,-0.164695288,-0.019614234,-0.094593421,-0.19354018,-0.111246224,-0.047765265,-0.103920459,0.214777839,-0.05514157,-0.031523595,0.09089628,0.047616614,-0.039742603,-0.012862004,-0.095430964,,,,
823.7519994,3217,0.090184156,0.010047322,0.038828482,-0.019605561,-0.007607558,-0.004131669,-0.05447894,-0.202514641,0.099344579,-0.230807194,-0.006590131,0.106884985,0.114719429,-0.191123108,0.101464399,-0.258449559,,,,
823.7599994,3217,-0.04249812,-0.047235116,0.019727029,-0.010251779,-0.082324604,-0.020770691,-0.004534963,-0.072439803,-0.141860836,-0.096914127,-0.05798532,0.075567299,0.007102479,-0.1760286,0.130502733,-0.076451693,,,,
823.7679994,3217,0.048177909,-0.081152299,-0.119587129,-0.048774686,-0.230552089,0.050569462,-0.02295015,0.032023089,-0.080875388,0.032730788,-0.017652329,0.115042876,-0.007160545,-0.174796946,-0.086474649,-0.134627311,,,,
823.7759994,3217,0.225552405,0.025711775,0.049205789,-0.007941639,-0.003033217,-0.017345566,-0.199565888,-0.060521582,0.033573903,0.085196255,0.095267292,-0.186554406,0.064440615,-0.053028598,-0.001133929,-0.14639019,,,,
823.7839994,3217,0.031028539,-0.022125891,0.088335436,-0.187578692,0.018385187,0.008803439,-0.04442668,0.086784098,-0.050775352,0.008559399,0.179011048,-0.206841831,0.162310112,0.0523393,0.017230264,0.052241188,,,,
823.7919994,3217,0.028826461,0.074870982,-0.070930621,-0.251998973,0.032814495,0.150746789,-0.023431979,0.063636117,-0.006623461,-0.056337303,0.076411427,-0.046226272,-0.000816216,-0.036442573,-0.159419355,0.013773008,,,,
823.7999994,3217,-0.04816373,0.069861574,0.062206749,-0.033022088,0.191166141,0.035304604,-0.118274094,-0.151038486,0.068738174,0.115905837,0.057198978,-0.025168993,0.004298035,-0.180345666,0.010342559,0.003084437,,,,
823.8079994,3218,-0.166565795,-0.096479427,0.069394393,0.13284627,0.1080448,0.166530776,0.030707234,-0.117886116,-0.086690857,0.148661215,0.1724963,-0.017583192,0.075745787,-0.192038112,0.018854287,-0.115269474,,,,
823.8159994,3218,0.032199713,-0.076109143,-0.04913386,0.097514192,-0.002601123,0.003146355,-0.080809614,-0.04083546,0.008501137,-0.018131329,0.017304159,-0.056867764,-0.16501907,-0.128034897,-0.058922811,-0.197062904,,,,
823.8239994,3218,-0.022319695,0.03618847,0.053705281,0.03359193,0.089973105,-0.091213661,-0.098609054,-0.03758527,0.112660406,0.047784858,0.052446233,0.003069112,0.064289051,0.078717889,-0.043598159,-0.124981647,,,,
823.8319994,3218,0.067407154,0.046284968,-0.123294788,0.115420371,0.129352849,0.104896904,-0.153264427,-0.023382533,-0.08017633,0.118067489,0.125502221,-0.062134476,0.245415265,0.09279153,-0.097766986,-0.090310177,,,,
823.8399994,3218,0.244000502,-0.015393293,-0.135167195,0.014392023,-0.02352946,-0.057571551,-0.192067312,0.030827556,-0.053014018,0.031116894,-0.070500238,-0.03720638,0.007113685,-0.119536815,0.093531957,0.034983384,,,,
823.8479994,3218,0.015600083,0.060178466,0.249316198,-0.075720908,-0.085954258,-0.020762988,0.116684118,0.012963072,0.05627029,0.049717005,-0.029101604,0.083620207,-0.049917173,0.067590869,0.070211615,-0.024952112,,,,
823.8559994,3218,0.00365261,0.162226017,0.200219178,0.095390566,-0.146426069,-0.002991102,0.14346865,-0.109034368,0.00602659,-0.000939396,0.067103992,0.0636391,-0.045394247,0.211000616,-0.171970749,-0.090158941,,,,
823.8639994,3218,0.028813448,0.034287462,-0.032265942,0.107648973,-0.201554963,-0.105187416,0.103071682,-0.130542578,-0.06250771,0.02517804,0.032194747,0.166855933,0.033543336,0.11430056,0.046359928,-0.016018841,,,,
823.8719994,3218,-0.081297233,0.015474031,-0.15702913,0.066953716,-0.04803604,-0.03019363,0.034530658,-0.144128253,-0.087447302,0.199285841,0.066477258,0.066126558,-0.017424546,0.139577653,0.257112827,-0.157250347,,,,
823.8799994,3218,-0.105407247,0.226277266,-0.176595192,0.04605264,0.015081245,0.040637713,0.004146843,-0.175218632,0.029852449,0.021788256,-0.027814742,0.0411907,-0.108993106,0.139391261,0.092796238,-0.250806371,,,,
823.8879994,3218,-0.134746102,0.108861247,-0.044031467,-0.021913358,0.098746358,0.004430362,0.093865062,-0.026060726,0.038922642,-0.168682105,-0.147714692,0.214836152,-0.03751954,-0.004210321,0.132675455,-0.119758851,,,,
823.8959994,3218,-0.037880482,-0.038860215,-0.031046928,-0.032511009,0.143997534,-0.031529327,-0.067745572,0.007447023,-0.155528992,-0.038595002,-0.098384412,-0.017113655,0.078383631,-0.195822454,0.147203514,-0.041064586,,,,
823.9039994,3218,-0.079943707,0.045308752,0.021154894,-0.164125528,0.032048447,0.168629243,0.073746886,-0.11761628,-0.15111837,-0.114901257,-0.147278212,-0.135648288,0.047666559,-0.084876697,-0.132325547,0.01619678,,,,
823.9119994,3218,-0.096328418,-0.052278486,0.07252176,-0.12014563,0.08458731,0.065086368,0.080367041,-0.010620671,0.031026692,-0.176882746,-0.011612584,-0.044343693,-0.185311511,0.094396447,-0.038136286,0.013481834,,,,
823.9199994,3218,0.043656201,0.053304542,-0.073497057,0.115742381,0.09973171,-0.127442309,-0.273892193,0.154876395,0.050376395,0.034824676,0.05774009,0.021370601,-0.119645368,0.096871589,0.134507764,-0.260862121,,,,
823.9279994,3218,-0.028564831,0.293031011,-0.001326957,0.097669525,0.025395016,0.056366324,-0.039074476,0.196498203,-0.034475926,0.126334417,-0.122861371,0.121118118,-0.074571235,0.082756629,-0.021819265,-0.286932833,,,,
823.9359994,3218,0.046218073,0.215624696,0.187899331,0.097220043,-0.067066351,0.074682454,0.09172179,0.164503081,-0.061383765,-0.035146186,0.099209453,-0.085225574,-0.137954811,0.01674624,-0.00794539,0.004178012,,,,
823.9439994,3218,0.177790015,0.025416809,0.080897719,0.073767391,-0.061784909,0.140812519,0.003406254,0.087306693,-0.067345991,-0.212262268,0.143086535,-0.170070903,0.009663884,0.159168238,-0.001535668,0.012396399,,,,
823.9519994,3218,0.015844722,-0.115846537,-0.167645537,0.005047112,0.071265903,0.07317942,0.116296416,0.165017118,-0.036998594,-0.083905733,0.027161261,0.022261328,0.045453418,0.189997263,0.029831773,-0.0563567,,,,
823.9599994,3218,-0.114139711,-0.017574691,-0.251589952,0.040570303,0.059227834,-0.129973046,-0.092242646,0.140097475,-0.05601725,-0.010606019,0.108655175,0.049717189,0.04928701,-0.028214722,0.123277276,-0.099048312,,,,
823.9679994,3218,-0.072390522,0.116078699,-0.060072278,-0.071572756,0.079542139,-0.037147104,-0.10072009,0.033170925,-0.094125768,-0.024339381,-0.065950695,0.023852848,0.026819134,0.101911009,0.01461464,-0.028300096,,,,
823.9759994,3218,-0.033327688,-0.012745547,0.070600791,0.047032347,0.067538292,-0.001580466,-0.045077574,-0.026580901,0.062179407,0.050167786,-0.021173149,-0.082861958,-0.052885779,0.140682267,0.01191685,0.156732823,,,,
823.9839994,3218,-0.090760389,-0.020045179,-0.05571618,0.197358241,0.030534099,0.098532292,-0.202316001,-0.088615331,0.096491862,0.027237697,0.085276814,-0.080560495,-0.082562508,-0.115544533,-0.103701015,0.062323066,,,,
823.9919994,3218,-0.051865574,0.093445102,-0.048322566,0.026161827,0.178247329,0.081572884,-0.006912463,0.107173137,-0.08131939,0.130141424,-0.111855198,0.113773366,0.025222698,-0.078904907,-0.11688589,-0.033783841,,,,
823.9999994,3218,-0.009002748,-0.099315383,0.044970247,0.02526929,0.040784056,-0.08575519,0.010850967,0.050233904,-0.005413717,0.042303418,-0.127032723,0.100785142,0.105071153,-0.084824846,0.059977745,0.011394453,,,,
824.0079994,3218,-0.067954636,-0.039602323,-0.11130983,0.008755692,-0.240329217,-0.155226786,-0.175284233,-0.041928353,0.130557459,-0.089185343,-0.089527307,0.01142661,0.042567744,-0.208456978,0.0063927,0.087969722,,,,
824.0159994,3218,-0.065866361,0.193852367,-0.140469652,-0.115110623,-0.22645097,-0.107515128,-0.137611609,0.087700798,0.07246304,0.105245182,-0.140713889,-0.038304019,0.050371707,0.07459415,0.113712438,0.049480906,,,,
824.0239994,3218,-0.17752783,0.04840734,0.041592211,-0.102096806,-0.100585304,0.132566841,-0.005983165,-0.046536931,0.027176357,0.058702065,-0.024745528,-0.109796391,-0.075265124,0.195174022,0.187251574,-0.102645485,,,,
824.0319994,3218,-0.042236035,0.14665299,0.110608262,-0.041273752,-0.017675408,0.128135739,0.096870586,-0.021832204,0.066238725,0.092927834,0.165988005,-0.001083169,-0.043971615,-0.00880917,0.007565678,-0.095555822,,,,
824.0399994,3218,0.189451468,0.155640626,0.050464652,-0.012721239,-0.060086026,0.060698473,-0.141506242,0.001269776,0.031285571,0.145348868,0.140665674,0.091572829,0.072854312,-0.049537183,-0.017408232,-0.101917937,,,,
824.0479994,3218,-0.004588611,-0.168834753,0.0746438,-0.1048523,-0.019322852,0.063491264,-0.149663769,-0.120593103,-0.066801789,-0.110937759,0.11320988,0.059737751,-0.083700979,-0.083152089,0.050106627,0.018601251,,,,
824.0559994,3218,-0.043649039,-0.189740009,0.139898297,-0.067537159,0.096688524,-0.108600862,0.053271895,-0.021362354,0.008827929,-0.063140449,0.176425159,0.092619145,-0.10465241,-0.065898121,0.029369311,0.223441829,,,,
824.0639994,3219,0.067827802,-0.024130325,-0.065602395,0.10255718,0.13299908,-0.095537022,-0.119897389,0.113013011,0.066424781,-0.040978967,-0.027700641,-0.00042247,-0.057457419,-0.02323298,0.091139968,0.192197578,,,,
824.0719994,3219,0.127576479,0.046225608,-0.000266388,-0.016924039,0.143749998,0.038641813,-0.021807325,0.044610802,0.008936486,-0.084449736,-0.110106363,-0.031996489,0.001295571,0.083217224,0.168246642,0.086605773,,,,
824.0799994,3219,0.174911143,0.065514418,0.186152587,-0.047927487,0.010993672,0.131707818,-0.020926322,-0.008164594,-0.176419088,0.056600929,0.086638098,0.116571503,0.081487929,0.229706741,0.033095902,-0.029881974,,,,
824.0879994,3219,0.015397699,0.041407641,-0.108464496,0.177344203,-0.125036016,0.260597003,-0.099271936,0.088553165,-0.275358303,0.111870402,-0.024146437,0.077782764,0.079438585,0.100511767,-0.101463553,-0.01081205,,,,
824.0959994,3219,-0.149450177,-0.075693717,-0.221637791,0.149122526,-0.095776191,0.123350921,0.12504799,0.050571268,0.031790487,0.147850441,-0.091407343,0.01341893,0.010294876,0.030311626,-0.198033549,0.004743165,,,,
824.1039994,3219,-0.09381502,0.065282827,-0.056372693,0.008305899,0.03022961,-0.086720134,-0.038007109,0.132027145,0.097859437,0.06686176,0.026821281,0.066882371,-0.169208069,0.10490693,-0.175991378,-0.15911695,,,,
824.1119994,3219,-0.021542344,0.15560451,0.088436964,-0.059550387,-0.046808107,-0.075389233,-0.086242632,0.166182808,0.050648448,0.109993002,-0.188994892,0.045432201,-0.192029463,0.053208806,0.014878519,-0.133367716,,,,
824.1199994,3219,-0.132797721,-0.078558977,0.074646202,-0.201853693,-0.253168402,-0.118550182,0.05080552,0.051013257,0.203339524,0.136905298,-0.268783289,0.039748364,0.089853566,0.043594451,-0.016592666,0.023460594,,,,
824.1279994,3219,-0.107783439,-0.087434058,-0.100378874,-0.191150612,0.002185753,-0.044827941,-0.076759002,0.133225449,0.15268193,-0.073167289,0.009254114,0.031498041,0.198167584,0.025074224,0.076505246,0.016880233,,,,
824.1359994,3219,-0.029685731,-0.015567013,0.016358583,-0.014558945,0.06600306,0.084439504,-0.082765696,0.10195763,0.204651405,0.01613484,0.080512058,-0.103586804,0.015360273,-0.135359597,0.29790892,-0.036853526,,,,
824.1439994,3219,-0.019164142,-0.107562203,0.083877223,-0.113392321,-0.177235982,0.08495965,-0.047750245,0.117130012,0.089267829,0.124910329,0.045824847,-0.057398158,-0.040931776,-0.061904315,0.151342664,-0.018520507,,,,
824.1519994,3219,0.042365173,-0.162974513,-0.110482351,-0.150714417,0.024580139,0.239448451,-0.087346438,0.085243053,-0.075138691,-0.019787149,0.031391266,0.106318357,-0.107640087,0.214899491,0.126682757,-0.020374892,,,,
824.1599994,3219,-0.070553381,-0.031990634,-0.165689058,0.0118418,-0.088706342,0.297381933,-0.093746132,-0.061668542,0.140298562,-0.064187993,-0.071931129,0.053124563,-0.106605594,0.186476268,0.204843568,-0.127198486,,,,
824.1679994,3219,-0.10746058,0.039750736,-0.020898207,0.028933958,-0.268469114,0.124682736,-0.004251822,0.070846196,0.106366579,-0.037216636,-0.061765542,0.003507694,0.011933286,0.086585478,0.122142536,-0.167418691,,,,
824.1759994,3219,-0.11399464,-0.064459164,0.184913959,0.104082707,-0.028206266,-0.122528389,0.111494235,0.101890414,0.002272219,-0.028800939,0.012360301,-0.00186559,-0.046520965,0.15504178,0.12390909,-0.082156663,,,,
824.1839994,3219,-0.122922909,-0.148655904,0.019304946,0.063887302,-0.001905287,-0.25477715,0.043555533,0.001536092,0.027387649,-0.005459449,0.120018129,-0.028117261,0.019258365,0.042092585,0.071198662,-0.042069947,,,,
824.1919994,3219,0.018410852,-0.191148713,-0.161042548,0.110749563,0.033475139,-0.15475314,-0.031510839,0.07653651,0.005656183,0.065554612,0.183036646,-0.029585518,0.11878769,-0.126568514,-0.029960134,-0.111197252,,,,
824.1999994,3219,-0.160574441,-0.15792434,-0.107049437,0.229988969,0.077395373,-0.150421354,-0.067602923,0.094446782,-0.099962382,0.127666138,0.121619649,-0.019654437,0.021996404,-0.037175516,-0.060714743,-0.098365918,,,,
824.2079994,3219,-0.250117793,-0.066851767,-0.148873637,0.05543127,-0.008964188,-0.088249916,-0.141528759,-0.029571612,-0.258958628,-0.011642659,-0.017369549,0.064759088,-0.048325785,-0.004286761,-0.08964549,0.006446391,,,,
824.2159994,3219,0.062851086,0.049232548,0.09471626,0.000489378,0.019986736,0.040308168,-0.06335255,0.077693543,-0.114415228,-0.054795095,-0.191600659,0.115388137,-0.218325466,-0.242265974,-0.084793152,-0.096080368,,,,
824.2239994,3219,0.151708644,0.081927336,0.148264175,-0.104398555,-0.067691758,-0.031036255,0.032572823,0.147571083,-0.00053364,0.132926423,-0.061844538,0.168957936,-0.266434197,-0.188388506,0.052676171,-0.179651044,,,,
824.2319994,3219,0.021161073,0.114386746,-0.044765992,-0.093755035,-0.180874757,0.034890214,-0.002872073,-0.040712147,-0.059365722,0.084435091,0.167524721,0.131259143,-0.02802574,0.085855575,0.128329659,-0.141446015,,,,
824.2399994,3219,-0.059203132,0.085393809,0.016490622,0.1269705,-0.056617799,0.067388486,0.046041143,0.058375672,-0.010364304,-0.061918099,0.172804664,0.013266516,-0.011177799,-0.107105681,-0.00673283,-0.086284405,,,,
824.2479994,3219,-0.024221181,-0.054051328,-0.095376495,-0.010974681,-0.041841722,-0.019212042,0.062001086,0.167295631,-0.066659029,-0.04831339,0.117916109,0.078974036,-0.053372168,-0.012276594,0.042056534,-0.034340013,,,,
824.2559994,3219,0.033145182,-0.07076659,0.039141796,-0.170359502,0.001406904,0.020303914,-0.021408981,-0.065379888,-0.109013119,-0.007035758,0.054532985,0.080433957,0.052954746,0.373456092,0.076710369,-0.071037977,,,,
824.2639994,3219,0.049299663,-0.158754375,0.15531798,-0.124950399,0.078057894,-0.12637434,0.064968031,-0.209033534,0.008026538,-0.058066555,0.001684706,0.085767504,0.024101301,0.099452201,-0.055562249,-0.020478795,,,,
824.2719994,3219,0.074780108,-0.170003982,-0.122723595,-0.103581844,-0.048438918,-0.181313301,0.055958261,-0.092149535,-0.010417545,-0.142012401,-0.110812228,0.080386134,-0.042072845,0.009883922,0.086825869,-0.059697555,,,,
824.2799994,3219,0.000513254,-0.138113497,0.009265798,-0.202810564,-0.042444103,0.035051135,-0.038099555,-0.066729738,-0.053777522,0.036839645,-0.109249641,0.008700742,0.088776778,0.127137697,0.003696,-0.129255114,,,,
824.2879994,3219,-0.042006661,-0.244054127,0.095191396,-0.093825305,-0.093021075,-0.004961052,0.081535442,-0.040531725,0.208647966,0.060507244,0.073718165,0.079533497,0.13631691,-0.0368657,-0.117090705,-0.07047249,,,,
824.2959994,3219,-0.073566186,-0.111889485,-0.093804155,0.173079219,-0.133843463,-0.167925244,0.066756475,0.036616026,0.317807602,-0.174012559,-0.047382633,-0.021901294,-0.012390082,-0.002939108,0.183567318,-0.011451566,,,,
824.3039994,3219,-0.059129778,-0.0627602,-0.07617585,0.115319174,-0.049729887,-0.078443641,0.002074752,-0.022498037,0.001177865,-0.066119043,-0.161812209,-0.000458428,0.072274834,0.068850725,0.067470609,0.116043424,,,,
824.3119994,3219,0.155140445,-0.078596595,-0.111389816,0.043688896,-0.103208644,0.082501184,0.146562399,0.213504406,-0.08368549,-0.045294691,-0.070353664,0.059563034,0.128565036,0.073474407,-0.092099711,0.052755347,,,,
824.3199994,3220,0.068500278,-0.025553577,-0.148752433,0.024990765,0.005554176,0.042751577,0.098257362,0.267199046,-0.095224439,-0.142921984,-0.086300825,-0.148295233,0.069392926,0.01159368,0.117138306,-0.025393494,,,,
824.3279994,3220,-0.015661446,-0.205095372,-0.077494916,0.129800164,-0.009970602,-0.011551895,-0.016686395,-0.043303871,-0.251991938,-0.003296598,0.016213785,0.064559209,0.196144011,-0.094543796,0.07887929,0.001066548,,,,
824.3359994,3220,0.099159214,-0.08172168,-0.018994091,0.213615549,-0.112189616,0.066307836,0.058768944,-0.041289192,-0.101560222,-0.037866679,-0.104576572,0.222921256,0.123773422,-0.049148796,0.060784887,-0.120399441,,,,
824.3439994,3220,-0.184428045,-0.070984589,0.050303918,0.015270231,0.055388139,0.033554536,0.013163403,-0.112523931,0.0316672,-0.059226762,-0.195648588,-0.056276281,0.016066128,0.153378419,0.097905171,0.00819309,,,,
824.3519994,3220,-0.186859425,-0.405092111,0.034049529,0.07394758,-0.018798662,0.05793686,-0.039248954,-0.123554399,0.094423474,0.051978568,-0.020379878,0.006066358,0.115369492,0.22081358,-0.034405079,0.137197268,,,,
824.3599994,3220,0.03566649,-0.088563625,-0.017759406,0.099979675,-0.088477005,0.199964954,-0.030257809,0.098723301,0.088865233,-0.014794825,-0.117325071,0.164228392,0.079761767,-0.019159474,-0.049394421,0.099721101,,,,
824.3679994,3220,-0.047895756,0.242833927,-0.019345557,-0.058542027,0.198669187,0.116543041,0.00075736,-0.00589656,-0.128860361,-0.084186163,-0.050024289,0.057242668,0.018404366,-0.042441876,0.039197557,0.204437409,,,,
824.3759994,3220,-0.015999407,0.009994395,0.098756292,-0.035721568,0.313440624,-0.007650748,0.070558021,-0.054557328,-0.032373097,-0.002829806,0.056432994,-0.009716329,-0.025077217,0.103623594,0.089656644,0.131617952,,,,
824.3839994,3220,-0.198690274,0.032777989,0.149434343,0.031858249,-0.003993213,0.043674354,0.019285617,0.058905483,0.053909137,0.084054469,0.068709398,0.026269754,-0.022353686,0.06642212,0.013062682,0.072773869,,,,
824.3919994,3220,-0.137382681,0.188140305,-0.014847282,0.00795738,-0.186042052,0.194571281,0.031890418,0.027224962,-0.17944462,-0.01151389,0.096401712,0.076339193,0.115978127,0.121645077,-0.077214224,0.042194087,,,,
824.3999994,3220,0.282023024,0.009830177,-0.084779853,-0.098074375,-0.04978373,0.164547592,0.021384207,0.22533248,-0.143994047,-0.069840479,-0.030692829,0.036717722,0.052763173,0.044404364,0.045939783,0.047077419,,,,
824.4079994,3220,0.010164894,0.073795013,-0.06013851,-0.023013625,-0.001284391,0.055428451,-0.019163776,0.279200624,0.016576152,-0.058892632,0.110180189,0.040862637,-0.112893724,-0.041920862,0.088666331,0.135891833,,,,
824.4159994,3220,-0.187565389,0.244278282,-0.002133517,0.056914229,0.047972611,0.171478035,0.088509917,-0.096933579,0.003867971,-0.055704648,0.062961065,0.133233348,-0.105626971,0.148171954,-0.10536659,-0.011048327,,,,
824.4239994,3220,0.161131776,-0.110558543,-0.00048426,0.098471688,0.136384349,0.148111335,0.109631199,-0.116757566,0.039651253,-0.014389245,-0.133091142,0.092860119,-0.126988986,0.184187374,-0.198730794,0.067187548,,,,
824.4319994,3220,0.228210588,-0.179675033,-0.041804178,0.13653448,0.215255659,-0.006178766,-0.021373445,0.053708773,-0.008242218,-0.029249033,0.100726035,0.025813103,-0.127367954,0.188793598,-0.087355634,0.024649899,,,,
824.4399994,3220,0.035078338,-0.006083301,-0.020574791,-0.06060401,0.110600926,0.029404727,-0.128383062,-0.071883249,-0.005441022,0.138931464,0.061204268,0.035002726,0.045704391,0.127203316,0.009667434,-0.152984687,,,,
824.4479994,3220,-0.005723616,-0.228568062,-0.062116851,-0.057663543,-0.025243093,0.026506519,0.088083618,-0.094740958,0.167574071,0.057760475,-0.210358066,0.00255572,0.101835309,-0.000698976,0.028907999,0.030628433,,,,
824.4559994,3220,0.062405595,-0.042266305,-0.052412634,0.116841737,0.139438693,-0.050951543,0.287775483,0.018397289,0.099646543,-0.173429407,-0.118684247,0.053586683,0.107358296,0.053824321,0.093435993,0.048108804,,,,
824.4639994,3220,0.062914,0.11024509,-0.104503811,0.077284717,0.142086078,0.088742427,0.104581193,0.089196213,0.042082601,-0.077155938,-0.002941311,0.130701051,0.136561469,0.10236316,0.028821038,0.144009949,,,,
824.4719994,3220,0.063159843,-0.099373727,-0.188103243,0.122944505,0.141072172,0.074654072,0.051959471,0.159566834,0.056976516,-0.040454272,-0.004318227,0.038665777,0.04381515,0.09685089,0.044951616,0.164677575,,,,
824.4799994,3220,0.076007131,0.06353262,-0.160666796,0.210548772,0.200002947,0.025790189,0.117123241,0.093183991,0.003458743,0.021400676,0.075978226,-0.016481135,-0.000111081,-0.159164359,0.134690481,-0.023661201,,,,
824.4879994,3220,-0.025103106,0.099948242,-0.187118917,-0.010349016,0.006501281,0.217236304,-0.017871514,-0.066412403,-0.018955701,-0.060942967,-0.028101125,-0.060075052,-0.09255652,-0.184182376,-0.096157979,0.03866912,,,,
824.4959994,3220,-0.16963357,-0.000946988,-0.045336363,-0.090299073,-0.019956398,0.058234518,-0.08101577,0.051203985,-0.13837414,-0.1012969,-0.075766812,-0.077482798,0.070958611,0.100143301,-0.06730361,0.000640327,,,,
824.5039994,3220,-0.158138655,-0.041697763,0.095278632,0.077083381,-0.021935774,-0.013339454,0.042622893,0.078033098,-0.095256653,0.067919105,0.039115758,0.11137609,0.262684141,-0.075130893,0.056843028,0.060482837,,,,
824.5119994,3220,-0.165929774,-0.035128916,-0.043104488,0.020680542,-0.178729966,0.17645945,-0.009594084,-0.157349459,0.127264403,0.041283452,0.002093003,0.087923273,0.016187416,-0.037458852,-0.058625447,0.146450554,,,,
824.5199994,3220,-0.176074567,0.007252496,-0.181635066,-0.081150173,-0.196807178,0.111516833,-0.11502693,0.097480453,0.231227875,0.079613983,0.12538023,-0.164661872,-0.03373838,0.167677155,0.00725286,0.048863959,,,,
824.5279994,3220,0.055866461,-0.142117389,-0.185208076,-0.14298618,-0.101930124,0.037013833,0.04484307,0.2853022,0.116945055,0.049744028,0.275549185,-0.000964233,-0.035718402,0.013442202,-0.028968213,0.171221517,,,,
824.5359994,3220,0.054588702,-0.008813841,-0.034617843,-0.18386443,-0.048322451,-0.026337729,0.014302537,0.056583269,-0.00135206,-0.13056714,0.201232974,0.260754724,-0.056886032,0.02731128,-0.151982893,0.101326462,,,,
824.5439994,3220,-0.166195724,0.093622493,0.119532658,-0.126999724,0.060000691,-0.015895924,-0.07150587,-0.00501181,-0.014913891,-0.085944025,-0.050899228,0.136222557,0.043617197,-0.022503976,-0.131162599,-0.045937058,,,,
824.5519994,3220,-0.172332908,-0.037030163,0.050454924,-0.072269773,0.310548717,0.144495607,0.056704508,-0.030188538,-0.105875202,0.011923977,-0.094170857,0.200106412,0.073090174,-0.056940983,-0.038044924,0.075461433,,,,
824.5599994,3220,-0.042201172,-0.001894295,-0.116591855,0.19304368,0.264210381,0.1925216,0.081679667,0.054252382,-0.040824842,-0.025831524,0.13413145,0.427134112,0.065217529,0.085783996,0.096394338,0.029415803,,,,
824.5679994,3220,0.086404576,-0.129989902,-0.069904873,0.274217472,-0.026487096,0.142455841,0.159800309,0.219744482,0.064623127,-0.142931958,0.173504467,0.225026662,-0.183202999,-0.036383923,0.057589594,-0.044983551,,,,
824.5759994,3221,-0.024707651,-0.279266039,-0.025698128,-0.088201183,-0.042183585,0.080419609,0.0831146,0.136482357,-0.00365516,-0.164491498,0.111825259,-0.026766068,-0.135243976,-0.080708261,-0.006528907,0.163431818,,,,
824.5839994,3221,-0.109592443,-0.19274944,-0.129110019,-0.114960619,0.072108616,0.045545949,-0.088352479,0.086353352,-0.002919246,-0.092241348,-0.018140219,0.021162321,0.104991839,0.056693462,0.147043037,0.32573964,,,,
824.5919994,3221,-0.073078303,-0.063975093,0.070772232,-0.077516522,0.17824482,0.005180387,0.018594707,0.164823724,0.037690897,-0.100743314,0.02025121,-0.017393048,0.130723043,0.090469608,0.248042303,0.113704784,,,,
824.5999994,3221,-0.089991817,-0.007026332,0.095509999,-0.178273487,0.123701792,-0.001912166,0.160614754,0.013502,0.01886558,0.077369485,0.069586945,-0.076052355,0.321462563,0.087919517,0.22702738,-0.020077978,,,,
824.6079994,3221,-0.029620512,-0.03105486,-0.16811879,0.038500279,-0.118928097,0.132484607,0.176162862,-0.031214818,0.008025817,0.023958087,-0.02973455,0.041453601,0.194959791,-0.010613347,0.154789797,0.090559656,,,,
824.6159994,3221,-0.151892774,-0.060983972,0.026065967,0.240419362,-0.117335243,0.04797681,0.090739147,-0.030988047,0.031603875,-0.186852087,0.081675267,0.132111748,0.004917356,-0.002620981,0.007265545,0.033313885,,,,
824.6239994,3221,-0.255739183,0.069895816,0.1635513,0.19675049,0.024720157,-0.121666542,0.183730362,-0.03573287,-0.028047862,0.097480448,0.023409837,0.201939791,0.07496702,0.121443755,0.105807043,-0.065542059,,,,
824.6319994,3221,-0.077565596,0.161735206,0.135287989,0.142011673,0.089542357,0.070133402,0.222646926,0.22411121,-0.16867967,0.024279043,-0.196767123,0.166117048,-0.00500911,0.169518861,0.185374125,-0.130229678,,,,
824.6399994,3221,0.119497375,-0.008672023,0.244084402,0.246583553,-0.067426888,0.146687455,0.048012644,0.20269396,-0.14213963,-0.148741559,-0.120932353,0.129878668,0.070072452,0.146801302,-0.082406699,-0.082359501,,,,
824.6479994,3221,0.082525833,0.052431867,0.244316459,0.124790484,-0.227064651,0.001414919,0.046243464,0.00389895,-0.08374202,-0.001606318,-0.053152893,0.027581053,0.105105559,-0.025447765,-0.055175353,0.142090771,,,,
824.6559994,3221,-0.07077972,0.21147057,0.172880745,-0.002139536,0.123470017,-0.085663559,0.001893672,-0.194533499,-0.190871943,0.000495031,-0.146660285,-0.289698741,-0.072727718,-0.005961848,0.160781854,0.158460919,,,,
824.6639994,3221,0.130706037,0.001616209,0.012541121,0.157433094,0.282848793,-0.098108634,-0.033844724,-0.13436889,-0.149286539,0.172714505,-0.063446584,-0.204223657,0.009075913,0.123744059,0.090931382,0.098032829,,,,
824.6719994,3221,0.157744811,-0.113298772,0.003024197,0.064954976,0.118401875,-0.016665903,0.091464147,0.178007595,-0.054466404,0.194669186,-0.044603111,-0.070622082,0.03195432,0.087996684,0.099082704,0.111895216,,,,
824.6799994,3221,-0.096558551,-0.070415085,0.069550278,-0.043799836,0.153898029,0.057331298,0.098173387,0.070428368,-0.021095374,0.005285057,-0.073150947,-0.150675561,-0.210786039,0.147982699,0.123401855,0.052222001,,,,
824.6879994,3221,0.057972502,-0.108940051,0.017306619,-0.013067811,-0.000881702,0.042539248,0.125243172,-0.001214233,0.059446199,0.037260569,-0.046221137,0.067136476,-0.053984267,0.198756436,-0.00836163,0.000925304,,,,
824.6959994,3221,0.091675219,-0.018756458,-0.012869278,-0.001535185,-0.056559753,0.013340977,0.078357841,0.080460714,0.023545451,0.104914274,-0.170587515,0.077229565,0.038173851,0.113916651,0.020539458,-0.066829937,,,,
824.7039994,3221,0.046559119,0.031007659,-0.043782356,0.011701438,0.122207167,0.076937873,-0.112799266,0.159261228,0.079818995,0.002984581,-0.126553479,-0.053542595,-0.13745308,0.040154246,-0.027558613,0.0297534,,,,
824.7119994,3221,0.164518716,-0.029046201,-0.068667739,0.008136945,0.058192255,0.134824975,0.077769837,0.257025347,0.098048782,-0.126428725,0.013934196,0.024818964,0.010941996,0.093157973,-0.071165295,0.196428615,,,,
824.7199994,3221,-0.055976,0.044971069,-0.094765939,0.110593968,0.043676098,0.117697151,0.170313357,-0.010470782,-0.077564651,-0.124556194,0.022125644,0.0871051,0.022893876,0.102733508,0.223002604,0.13799028,,,,
824.7279994,3221,-0.082823564,0.081741616,-0.017366118,0.154473597,0.00389955,-0.066101522,-0.126601779,-0.138521594,-0.011664018,-0.124718612,-0.051867666,0.064152257,-0.002019856,-0.043566689,0.256292106,0.091761771,,,,
824.7359994,3221,-0.053871897,-0.010746263,-0.100970666,0.105452476,-0.137400909,-0.067280649,0.002519636,0.0324088,0.023899566,-0.127255948,0.026417647,0.064839484,0.111107246,-0.075607837,0.070722039,0.082947421,,,,
824.7439994,3221,-0.196327816,-0.025302766,-0.167376037,0.011340105,0.065485067,0.142823453,0.211348378,-0.062944878,-0.117350061,0.028023169,0.073652448,0.134500197,0.101410535,0.018005995,0.04761265,0.076491868,,,,
824.7519994,3221,0.013372177,0.080084783,0.067457248,-0.007426833,0.015995454,0.160812891,0.088472303,-0.054086342,0.022876785,0.14642947,-0.086065317,-0.008797185,0.009323341,0.100822965,0.012759496,0.172676022,,,,
824.7599994,3221,-0.010128692,0.086455943,0.064937286,0.08916351,-0.188040647,0.248847634,0.099462758,0.174903869,0.027570485,0.089489114,-0.040982514,0.010781612,0.025667416,0.153058337,0.039982344,0.141875731,,,,
824.7679994,3221,-0.031622616,-0.086590843,-0.102723248,0.132579235,0.156427079,0.110625121,0.114392645,0.103942109,-0.173704111,0.081072253,-0.121017889,0.148573025,0.18642342,0.210883639,0.090012016,-0.000504643,,,,
824.7759994,3221,0.148603096,-0.016387161,-0.029355748,0.183603762,0.280332588,-0.148460838,0.096945134,0.043970616,-0.134910326,0.003604052,-0.064295254,0.130393713,0.094749764,0.202269336,0.15534641,0.018273974,,,,
824.7839994,3221,0.051510545,0.140630951,0.126901821,0.084170769,0.064038361,0.080171374,0.078264278,0.088922373,-0.065400041,0.006786368,0.196391332,0.227385225,-0.036626337,0.117887767,0.104205683,0.089444794,,,,
824.7919994,3221,0.201634911,0.016310881,-0.002122392,-0.029224121,0.067959396,0.242853833,-0.256483127,0.039008943,0.054534918,0.117123244,0.08448682,0.175559196,-0.066498755,0.019246177,-0.071918939,-0.057327724,,,,
824.7999994,3221,0.248117625,-0.031517117,-0.094246049,-0.055291341,0.061889109,0.036165957,-0.319904023,0.036428068,0.046069253,-0.01365466,0.130451254,0.050520567,-0.020226187,-0.047997318,0.048344108,-0.148925667,,,,
824.8079994,3221,-0.108673593,0.0120734,-0.015595631,-0.159957668,-0.179838161,-0.139391778,-0.035445458,-0.123988772,0.04599651,-0.06688103,0.10093787,-0.033221805,0.06068473,0.095850826,0.120115761,0.022373807,,,,
824.8159994,3221,-0.161809901,0.117710092,0.015475465,-0.086509173,-0.137284502,-0.102562832,-0.053388189,-0.118966874,0.202042498,0.002460568,-0.165382121,-0.020244686,-0.129168352,0.209885093,-0.137513819,-0.150134978,,,,
824.8239994,3221,0.041067659,-0.00926314,0.058783073,-0.020573452,0.022850199,0.095943475,-0.052029757,0.072924174,0.052687763,0.012276908,-0.163670149,-0.018399307,-0.088276293,0.142586624,-0.175914704,-0.237660606,,,,
824.8319994,3222,0.118600542,-0.244943908,0.070812359,-0.07976703,-0.143286369,0.142852267,0.025552185,-0.045051632,0.008727439,0.016833372,-0.084719552,-0.143619923,-0.006504974,0.08016285,0.000191924,0.070793752,,,,
824.8399994,3222,0.030199513,0.014696643,0.278010222,0.028746346,0.089017746,0.046034975,0.002390632,-0.075556911,0.005993561,0.084067352,0.000411327,-0.020236362,-0.197271074,0.078826173,-0.054375903,0.001704093,,,,
824.8479994,3222,0.00404366,0.130253736,0.230330804,0.030558351,0.173273152,0.135644711,0.046457807,0.087669919,-0.147469213,0.215973187,-0.047861637,0.101940328,0.000503496,0.024176556,0.079289164,-0.031596362,,,,
824.8559994,3222,0.046627694,-0.07463033,-0.131231954,0.05672849,-0.054690624,0.060617558,0.05895078,0.102049389,0.02723053,0.196641394,-0.160326164,0.113043145,0.02456039,-0.0325914,0.173439775,0.083471538,,,,
824.8639994,3222,-0.027511355,-0.02078795,0.025047159,0.250188779,0.147450079,-0.029476002,0.109570398,0.041288566,0.126703177,0.122721847,-0.006776225,0.078667352,-0.151179558,-0.003597849,-0.127018681,0.047309032,,,,
824.8719994,3222,0.040396378,0.200367938,0.218255368,0.144246702,0.085344074,0.254239372,0.175108576,0.057394324,0.044403827,-0.045450844,0.22891598,-0.016025409,-0.014068728,-0.057597625,-0.087674339,-0.048338619,,,,
824.8799994,3222,0.073660967,0.184816077,0.046562375,-0.08315095,-0.017969357,0.364362862,0.028743274,-0.00724558,0.080498331,-0.174984141,0.118160015,0.091289482,-0.121722677,-0.021945709,0.002870869,-0.018583543,,,,
824.8879994,3222,0.017794423,0.047650147,-0.009540277,-0.164556905,0.135039967,0.20522437,0.025332703,-0.1418795,0.050425389,0.070570459,-0.090699942,0.199487337,-0.128359362,0.000699645,0.03738274,0.196900413,,,,
824.8959994,3222,0.104632187,-0.01191717,0.088918971,-0.02763827,0.061449068,-0.121373481,0.152361621,0.013211346,0.089624871,0.01205095,0.076049538,0.130032085,-0.041147216,0.071984194,0.089714388,0.041851269,,,,
824.9039994,3222,-0.075818368,-0.185973821,0.17435459,0.138956568,0.110815018,-0.226201115,-0.003357892,0.151061428,0.094451673,-0.13073502,0.164302902,0.004407278,-0.103864375,0.26543752,0.001920956,-0.107265436,,,,
824.9119994,3222,-0.140301139,-0.135953064,0.090416652,0.069472251,0.071473572,-0.013761273,-0.170987985,0.015951021,-0.105597403,0.052329102,0.036780079,-0.049133816,-0.012743225,0.086608589,0.020891092,0.040754078,,,,
824.9199994,3222,0.019088248,0.164407452,0.057723262,-0.032944266,-0.226690321,-0.077108849,-0.076533774,0.010489158,-0.107353758,-0.100165681,-0.01877722,0.019673902,-0.02012166,-0.066809731,0.016515476,0.052328971,,,,
824.9279994,3222,-0.01484407,0.056317776,0.067968191,-0.153547631,-0.07777322,0.030609507,0.079890919,0.118539085,-0.066501088,-0.074453733,0.065078835,0.008324408,0.103788088,0.059080028,0.167969523,0.03345044,,,,
824.9359994,3222,-0.084993859,-0.028966954,-0.074408034,-0.118753702,0.111954572,0.202908801,0.050431344,0.170332854,-0.030742893,0.161114746,0.079743245,-0.063917164,0.199145763,0.051143458,0.281799221,0.04746969,,,,
824.9439994,3222,-0.256107326,0.177467798,0.045793356,0.012195645,-0.085682878,0.013134754,0.087398558,0.168316423,0.094879593,0.191792813,0.006505314,0.041729493,0.002624093,0.048227428,0.161295426,0.130980595,,,,
824.9519994,3222,-0.208061006,-0.044580091,0.027885975,-0.07988263,-0.145874922,0.032150393,0.142855764,0.092972261,-0.094883276,0.225107667,0.06326167,-0.071140879,0.054993689,0.14855419,-0.021572596,0.18372058,,,,
824.9599994,3222,-0.095317618,-0.123944588,-0.164647115,-0.037935109,-0.031592379,0.091261078,-0.010358297,0.08278829,-0.087352063,0.078650188,-0.110678464,-0.286438199,0.055069873,-0.016927919,-0.060955018,0.058554084,,,,
824.9679994,3222,-0.151467223,0.217943987,-0.082269029,0.099007085,-0.061909757,-0.046625369,0.002088327,0.137410035,0.08031034,0.015921881,-0.161500964,-0.031269707,-0.052161888,-0.137939771,0.13884819,0.074875737,,,,
824.9759994,3222,-0.026752558,0.034551453,-0.108214143,0.021574879,-0.022835579,-0.066949357,-0.03041558,0.082620865,-0.07840539,-0.001874425,0.020066989,0.115822231,0.058380973,0.106061774,0.093400828,0.207032393,,,,
824.9839994,3222,0.014724811,-0.163685731,-0.011643945,-0.082133943,0.099904401,-0.055731364,-0.100098679,0.0537102,-0.022728451,-0.115151609,0.098322679,0.077358033,-0.021333449,0.099215991,0.011435283,0.229285805,,,,
824.9919994,3222,0.025431837,0.080704068,0.04742609,-0.099567622,-0.067645822,0.014606796,0.053585957,0.146412092,0.044927074,-0.068447767,0.207553021,0.214439745,0.007998475,0.04527443,0.128752462,0.163275073,,,,
824.9999994,3222,0.051381293,0.02986208,-0.067370558,-0.019756453,0.027645026,0.122379956,0.031689111,0.13910473,-0.049739183,0.030798489,-0.043650543,0.161693768,0.163587076,0.093516597,0.177600307,0.01425488,,,,
825.0079994,3222,-0.019812206,-0.086510224,0.108415633,0.066543736,0.243260434,0.128783782,-0.064463335,0.02169462,-0.078127691,0.074781499,-0.182425157,-0.069018808,0.05075566,0.001111111,0.096936671,0.054124748,,,,
825.0159994,3222,-0.079827024,0.035804793,0.089680748,0.123021998,0.141956145,0.205270845,-0.058552412,0.003446615,-0.132115649,0.022009462,0.083826789,-0.011499362,0.083701905,0.09337753,0.006415384,0.101724323,,,,
825.0239994,3222,-0.074911046,0.069310878,-0.077779392,0.188072492,0.09194801,0.140494883,-0.02583247,0.061669727,0.03759824,-0.051369216,0.08791475,0.130831256,0.275219745,0.110114311,0.072651281,-0.025390421,,,,
825.0319994,3222,0.19931854,0.019362291,0.061136756,0.097554602,0.031725592,0.085258486,-0.025560332,0.106837021,0.227075951,-0.121038005,0.012551377,0.064837685,0.231825111,-0.002658496,0.029579443,-0.054143368,,,,
825.0399994,3222,0.152013742,-0.042119862,0.172467624,-0.059960266,-0.001490699,0.288894701,-0.113489789,0.094927883,0.120858758,-0.09322619,-0.028318538,0.100599044,0.010061678,0.129805687,0.0062311,0.066627605,,,,
825.0479994,3222,-0.18000879,-0.03620746,0.034588863,-0.027183475,-0.065154108,0.261944667,0.025919914,-0.026133609,-0.002812096,0.085476734,-0.036280222,0.173215984,-0.114652609,0.199092697,0.1227842,0.252040936,,,,
825.0559994,3222,-0.074562397,0.097606605,-0.084032984,0.05126503,-0.103792519,0.166386274,0.167910476,-0.05518659,-0.129981663,-0.040035061,0.125935949,0.201570692,-0.081579696,-0.01019443,-0.003936391,0.132957074,,,,
825.0639994,3222,-0.013444012,0.185191313,0.002908867,0.078927236,-0.23025768,0.162133434,-0.088126113,-0.012200001,-0.125500035,-0.198780623,0.13371899,0.149299555,0.037469812,0.119781848,-0.0328157,0.037410485,,,,
825.0719994,3222,-0.118182336,0.013058927,0.109657837,0.076024493,-0.231753299,0.132597981,-0.105240408,0.055798318,0.003486287,-0.059567163,-0.037271068,0.108744214,-0.005796456,0.179494154,0.013608354,0.040391338,,,,
825.0799994,3222,-0.182325737,-0.069260067,0.230752899,0.07031294,0.101284833,0.166557989,0.083469361,0.22534183,-0.090864771,-0.185237982,-0.057831194,0.141923148,-0.030511851,-0.073346582,-0.169463407,-0.143336035,,,,
825.0879994,3223,-0.069443464,0.022791209,0.180738428,0.079418397,0.065540689,0.123215666,0.029293208,0.152188683,-0.092660201,-0.181054243,-0.021762454,0.010761624,0.029117794,0.185032317,0.020334269,0.002799979,,,,
825.0959994,3223,0.023401235,-0.103255909,-0.005757198,0.043583262,0.112111085,0.039861635,-0.027443563,-0.040799139,-0.088195139,-0.00449087,-0.091869229,-0.030881432,0.000615163,0.226672366,0.21414805,0.080834192,,,,
825.1039994,3223,-0.085950423,-0.168186524,0.074167928,0.117782903,0.143180569,-0.0224789,-0.145530184,-0.058959904,-0.243564543,-0.053869226,-0.048457555,0.019914857,0.149950172,0.026324213,0.010259482,-0.062364468,,,,
825.1119994,3223,0.055256784,-0.032079217,0.001368663,0.087411218,-0.158365159,0.051057232,-0.007819863,0.009424109,-0.164418369,0.086612147,0.029136909,0.144646991,0.121588777,0.11917736,0.113454359,-0.031243689,,,,
825.1199994,3223,-0.059364025,0.138263211,-0.087855416,0.065097948,-0.027394575,0.045394094,0.092639076,0.126727759,0.016395664,0.127012606,0.065614572,0.229818442,0.079669739,0.076175801,0.216680328,0.079997221,,,,
825.1279994,3223,-0.123927652,0.081897746,0.030755949,0.253542418,-0.000493869,-0.062189524,-0.102084914,0.12143811,0.148037728,0.059698058,0.036573487,0.069856932,0.297423856,0.109502727,0.036081591,0.181006838,,,,
825.1359994,3223,0.088637424,-0.131741426,0.020279208,0.165662533,-0.187242206,0.079316836,0.064168124,0.087705908,0.061135229,0.057389994,-0.148866755,0.116778377,0.12111781,0.147781443,-0.04017144,-0.00602017,,,,
825.1439994,3223,-0.112769965,-0.091445658,0.14017661,0.040780422,-0.057468265,0.069507646,-0.037796346,0.093098451,-0.044546212,-0.001781319,-0.12982148,0.124238802,-0.071938983,0.017803675,-0.040757065,-0.021416398,,,,
825.1519994,3223,-0.114673418,-0.137744838,0.01120374,0.148995095,-0.017846931,-0.056020019,-0.309097683,0.075703004,0.151253246,0.086420319,-0.093321702,-0.01458736,0.05181805,-0.02041387,0.045159508,0.123885369,,,,
825.1599994,3223,0.106307567,-0.169288442,-0.196975918,0.15065324,-0.030645559,-0.061133087,-0.004877893,0.085199627,0.137927567,-0.032096104,-0.120089208,0.162403285,0.087128745,0.096671544,0.197416396,0.030260281,,,,
825.1679994,3223,0.193616499,0.056730685,-0.136549535,0.063155635,0.079667818,-0.122107419,0.144285246,0.058135038,0.077604302,-0.174239767,-0.001288096,0.241450347,0.126407478,0.110897691,0.149481428,0.051547984,,,,
825.1759994,3223,0.097334109,0.085216294,-0.110393602,0.050173226,-0.092317766,-0.068677649,-0.107502855,0.101593838,0.141214707,-0.01938002,0.100960034,0.125197857,0.066234572,0.049117747,0.127938175,0.06419977,,,,
825.1839994,3223,-0.120907294,-0.086551008,0.097473946,-0.016539012,-0.223009805,0.009915072,0.021821028,0.2020302,0.038735544,-0.174076682,0.185402781,0.090363787,-0.063070773,0.126020151,0.166934894,0.216661601,,,,
825.1919994,3223,-0.150901323,-0.08664975,0.135369967,-0.020372533,0.142896302,0.03084805,0.296736245,0.132035566,-0.011558807,-0.244670303,0.047409371,0.079369519,-0.005659897,0.032424935,-0.031259066,0.306127724,,,,
825.1999994,3223,-0.13712633,0.159972187,0.104591599,0.114002756,0.158203962,0.074298373,0.072776462,0.013506009,-0.131791551,-0.026913481,0.029805408,0.041347305,0.021994902,0.073489914,0.108249951,0.106603406,,,,
825.2079994,3223,-0.001023763,0.164192695,0.110252794,0.078476957,-0.169527272,0.088058144,0.02447473,0.071590574,-0.261097932,-0.154316059,0.119436084,0.062330092,0.012869949,0.299035363,0.229056274,0.096535871,,,,
825.2159994,3223,0.089324603,-0.044146182,0.04207624,0.211053802,-0.120954354,0.18239051,0.122044298,0.111361374,-0.145976981,-0.134005312,-0.035490967,0.21749229,-0.024691914,0.138947482,-0.023731884,0.117148595,,,,
825.2239994,3223,-0.052263994,-0.128742606,0.073210686,0.368644301,-0.043205516,0.243834593,-0.030818081,0.09205852,-0.056586146,0.003977224,-0.000592121,0.219704773,-0.086894582,0.023913015,0.09793644,0.226349356,,,,
825.2319994,3223,-0.017209573,-0.214690778,0.035370073,0.157156327,0.066632568,0.065365918,0.012055285,0.096276014,0.022909505,-0.208389402,0.045736037,0.144551504,0.04994536,0.156638645,0.048623022,0.073262339,,,,
825.2399994,3223,0.064375093,-0.064643519,0.061420801,0.1879171,0.055288947,-0.09851216,0.091975213,0.051180945,0.241345825,-0.175894083,0.057572655,0.027177999,0.117960753,0.079306436,-0.052368322,-0.126554041,,,,
825.2479994,3223,-0.100037869,-0.007291257,-0.090473983,0.113538701,-0.090087058,-0.025485726,0.022806142,0.009635855,0.260140392,-0.043479303,0.036908108,-0.077140549,0.032541709,-0.017934433,0.26314735,0.276408432,,,,
825.2559994,3223,-0.17202843,-0.174102989,-0.095036094,-0.085680058,0.051729617,0.056379112,-0.044999533,0.090820308,0.0792609,-0.086416761,-0.020317979,0.002289961,0.087451652,0.197910832,0.167029938,0.276822001,,,,
825.2639994,3223,-0.059133597,-0.029264429,0.037879173,0.112681821,0.023119752,0.121723221,-0.086713238,0.229700237,-0.009480544,-0.024133637,0.147549579,0.037551103,0.188607466,0.124760861,-0.047337025,0.112926078,,,,
825.2719994,3223,-0.064210647,0.016298804,-0.153933054,0.123331534,-0.101817111,0.123417315,-0.078078797,0.152865862,-0.080493468,-0.171407119,0.070738061,0.181032433,0.163015014,-0.073811162,-0.037594407,0.213008906,,,,
825.2799994,3223,-0.200697621,-0.046437536,-0.006281424,0.012814592,-0.025859446,-0.042531083,-0.016794309,0.078264224,-0.092826536,-0.188345434,-0.068062154,0.105114546,0.044683281,0.174565568,0.027925321,0.051203323,,,,
825.2879994,3223,-0.167018388,-0.008405127,0.031600368,-0.08158807,0.088359243,0.052584952,-0.059754236,0.142589039,-0.029946733,-0.084959377,0.044818804,-0.126954528,0.055378319,0.085224922,0.217451557,0.035382464,,,,
825.2959994,3223,0.003971126,-0.11558564,-0.120962768,-0.019785669,0.136216765,0.297422413,0.069362616,0.090870216,-0.082895932,-0.23901478,0.05810014,0.028564001,0.035325875,0.01563196,-0.077681382,0.132526828,,,,
825.3039994,3223,-0.103938929,-0.074066511,0.133187506,0.196371647,0.006354955,0.289927439,0.253096609,0.051597875,-0.109862463,-0.033492327,0.010447687,0.054905831,-0.114084025,0.145386121,-0.20200124,0.046334127,,,,
825.3119994,3223,-0.132177169,0.050096107,0.097808275,0.104128685,-0.005709811,0.214729015,-0.073350471,0.105771,0.0662029,0.138840896,-0.003751227,0.054536291,0.056986259,-0.133576057,0.329876292,-0.019129557,,,,
825.3199994,3223,0.031320905,-0.019887611,-0.042086001,0.183175661,-0.033419111,0.112413305,-0.060865847,0.122763319,0.154453791,-0.006179504,0.015146554,0.178968788,0.250286315,0.024034291,0.171647796,0.145162575,,,,
825.3279994,3223,-0.060492493,-0.164832947,0.003186091,0.276421798,-0.275628407,0.046296322,0.232057673,0.097015195,0.104731033,-0.035958889,-0.124162654,0.023479207,0.105794501,0.219162639,-0.07158639,0.322919189,,,,
825.3359994,3223,-0.082317888,-0.067141775,-0.033047132,0.04940926,-0.164046639,0.110328452,0.087461742,0.002799536,-0.005953153,-0.072200358,-0.236628639,-0.034487218,0.024176383,0.035218447,0.128981935,0.185584872,,,,
825.3439994,3224,0.121642975,0.177353254,0.189711926,0.029831003,0.145505146,0.088348258,0.113418512,-0.009587407,-0.03302845,-0.092932858,0.013718882,0.179958178,-0.000888283,0.149049964,0.005183536,0.029446595,,,,
825.3519994,3224,0.110504884,-0.065428135,0.329581052,0.033595321,0.14655956,0.014768232,0.057472634,0.142179176,0.163592285,-0.078304897,0.03580171,0.219969891,0.00258396,0.088828209,0.085910584,0.203847855,,,,
825.3599994,3224,-0.049643789,-0.182360988,0.263783281,0.006456573,0.030176223,0.15769412,-0.107186852,0.085834081,0.09419665,-0.061207921,-0.088217505,-0.001218475,0.184036204,0.057947898,0.067496313,0.241188693,,,,
825.3679994,3224,0.011648083,0.013047955,0.224932321,0.141463988,-0.060403269,0.252380542,-0.024086926,0.163228821,-0.018774847,-0.098266054,0.01985179,-0.01850574,0.132931663,0.233423178,0.020945726,0.042670261,,,,
825.3759994,3224,0.088786885,-0.072161964,0.113183249,0.005929463,-0.046145286,0.200703774,-0.004964368,0.415141016,0.064573571,0.043089424,-0.172076031,0.134752705,-0.170035239,0.084964208,0.326843399,0.123797417,,,,
825.3839994,3224,0.074522899,0.004308791,0.153958674,-0.183037434,-0.037716476,0.412030833,0.128993546,0.261381257,-0.100911594,0.203201792,-0.279671772,0.108857283,-0.242402381,0.110881549,0.147331648,0.143680302,,,,
825.3919994,3224,-0.053698378,-0.084828779,0.016708854,-0.012423571,-0.096031194,0.391337721,0.135896254,0.209230446,-0.070287252,-0.071575424,-0.008567632,0.128502655,-0.009285102,0.259078651,0.01832184,0.092095953,,,,
825.3999994,3224,-0.114938295,-0.169172227,-0.167458485,0.171186547,0.009214124,0.094047749,-0.10420779,0.296587344,0.174339189,-0.128762101,-0.014298474,0.022019634,0.081987592,0.074114097,0.1212816,0.139539737,,,,
825.4079994,3224,-0.041189628,0.165886491,-0.016867693,0.108173449,-0.045394007,0.13196572,-0.094852344,0.185895363,0.04906941,-0.092027677,-0.15058527,-0.157393277,-0.106803378,0.059621901,0.02673448,0.120016124,,,,
825.4159994,3224,-0.127127789,0.092347327,0.057918912,0.107964608,-0.163622917,0.10203792,0.002897288,0.057743067,-0.119284704,-0.174989873,-0.073552429,0.118252606,-0.039998782,0.165300091,0.193066365,0.116724853,,,,
825.4239994,3224,-0.001606149,-0.068910432,0.054889948,0.212299247,-0.035740398,0.05981244,-0.060011089,0.007018991,-0.05486543,0.06909778,0.07861299,0.296227416,0.093371709,-0.029135583,0.251612611,0.071485824,,,,
825.4319994,3224,0.04889903,0.004535487,-0.042155508,0.121173986,-0.174625451,0.175595823,-0.008912043,0.118041361,0.018001185,0.069317446,-0.021348412,0.028181499,-0.008112011,-0.088581457,0.103429443,0.112030738,,,,
825.4399994,3224,-0.052527428,-0.12291389,-0.038889569,0.047039498,-0.286387491,-0.016002044,0.07952355,0.150373511,-0.042114595,-0.025250574,-0.295982378,0.011705237,-0.061142223,0.110464817,0.154506542,0.033336107,,,,
825.4479994,3224,0.077743348,-0.153534333,0.138151372,-0.043893437,-0.069940018,-0.183874882,0.004856502,0.050886975,-0.112061096,0.053132132,-0.229511372,0.179390031,0.022635072,0.210972586,0.036328564,0.071479136,,,,
825.4559994,3224,-0.057253785,-0.002329949,-0.041459707,-0.01035891,-0.013165894,0.019148856,0.022131981,0.066467237,-0.028424026,-0.056558279,-0.057131696,0.185759411,0.012660932,0.136345696,0.00338527,0.363710265,,,,
825.4639994,3224,-0.117988323,-0.057109481,-0.281323543,0.137410659,-0.001224369,0.060808428,0.10819179,0.253971265,-0.020620451,0.016452274,-0.140505823,0.311009071,-0.117740806,0.034792268,0.214108696,0.217044708,,,,
825.4719994,3224,0.007019087,-0.148803397,0.036661221,0.088182634,-0.025025942,0.025171498,0.107727694,0.266983923,-0.008931382,0.187933463,-0.12470166,0.357352943,-0.014125506,0.10003144,0.244659963,0.116337252,,,,
825.4799994,3224,-0.240707888,-0.031438908,0.338923793,0.311617488,-0.132793616,0.146357991,0.036329672,0.030564436,0.112808556,0.097988981,0.040386944,0.165529055,0.081035735,0.143840626,0.296812538,0.263728587,,,,
825.4879994,3224,-0.301144454,-0.024565377,0.032827941,0.271864045,-0.035089624,-0.068818362,-0.027400684,0.112028552,-0.073584684,0.102634515,0.032929027,0.007046647,0.067918102,0.097606033,0.29991173,0.152803167,,,,
825.4959994,3224,0.045258127,-0.076086808,-0.027512996,-0.03789377,0.097300812,-0.075467229,0.038802301,0.27801127,-0.18966659,0.01995915,0.027538757,0.193955544,0.112268287,0.161528023,0.142923596,0.057201942,,,,
825.5039994,3224,0.086396924,0.051166178,0.070002335,0.197350211,-0.022311253,0.189089339,0.084876471,0.142181778,-0.065070734,-0.18158557,0.091604668,0.469633453,0.020475199,0.114695484,0.046935615,0.091252582,,,,
825.5119994,3224,-0.166567912,0.061740542,-0.145019422,0.131675808,-0.127836357,0.059323112,0.075720244,0.061858998,-0.055662794,0.007464188,0.060633618,0.214301698,-0.055647126,-0.124248729,0.104609928,0.060648249,,,,
825.5199994,3224,-0.16022963,-0.100753609,4.61E-05,-0.058480367,0.039329944,0.133586437,0.103290796,0.062877452,0.04929451,-0.055949295,0.112906347,0.037234899,0.079291346,-0.122755109,0.082066627,0.053443603,,,,
825.5279994,3224,-0.042190612,-0.079351845,0.113487958,0.09521667,0.202871911,0.163244033,-0.025917889,-0.056509151,0.077891651,-0.175181968,0.064567447,0.254303822,0.16903691,0.107495735,-0.069376573,0.146555664,,,,
825.5359994,3224,-0.042106404,0.085504469,-0.049252186,0.046516176,0.129323022,0.054568676,0.001404224,0.00147482,0.050907516,0.052353542,-0.082368878,0.232489182,0.172978715,0.284367857,0.080095011,0.135617795,,,,
825.5439994,3224,-0.057065968,0.06583023,-0.029673261,0.150092011,-0.036824026,0.234889176,0.215968551,0.219969639,0.152811516,-0.161231666,-0.042293768,0.046899102,0.0999061,0.229033866,0.142579104,0.037916969,,,,
825.5519994,3224,-0.144036354,-0.090094891,-0.02955267,0.212439815,-0.099999771,0.078002226,0.177134553,0.133574156,0.041609814,-0.275836721,-0.045005924,0.073392461,-0.08739596,-0.055374801,0.00944754,0.092693904,,,,
825.5599994,3224,-0.143226849,-0.16475329,-0.124826921,0.107333802,-0.119407428,0.051015341,0.116514845,0.122318257,-0.118275124,0.081848445,-0.021768033,0.157738408,0.083710539,-0.018442594,0.033909519,0.223332205,,,,
825.5679994,3224,-0.152573268,-0.069984647,-0.134979306,0.156842235,-0.071399425,0.24753294,0.077987305,0.229787185,-0.023268258,0.176592356,-0.033257275,0.104313428,0.243526082,0.173731372,-0.086323933,0.181808326,,,,
825.5759994,3224,-0.163101506,-0.025179687,-0.040424665,0.107217499,0.090065881,0.098792655,0.010574762,0.00856317,0.055775156,-0.03415292,-0.099549404,0.117692831,0.129116178,-0.00327607,-0.031027975,0.041805769,,,,
825.5839994,3224,-0.003684576,-0.072857988,-0.01559621,0.091340694,0.04799172,0.098664042,0.063572952,0.019935285,0.070377214,-0.034006203,0.025434056,0.103317278,0.107126714,-0.18228608,0.163538952,0.039053319,,,,
825.5919994,3224,-0.097294868,-0.077959133,-0.112384775,0.065895542,-0.108877128,0.111608947,0.084169766,0.230064021,0.165698799,0.014966293,0.058073474,0.163504526,0.038756892,-0.050907199,-0.082415654,0.15791892,,,,
825.5999994,3225,-0.176832483,-0.209392432,-0.137866848,0.024053503,0.006309236,-0.060937904,-0.117922516,0.199713853,0.067631337,-0.097477403,-0.080462685,0.23934384,0.0446808,0.129538099,-0.06560529,0.165791476,,,,
825.6079994,3225,0.058301302,-0.184442461,-0.024562014,0.066985409,0.149504583,0.010219569,-0.068260083,0.207295104,-0.104757446,0.012357812,-0.119983724,0.062239408,-0.05071712,0.153417796,0.159482733,0.075435544,,,,
825.6159994,3225,0.038700854,0.008230853,0.218406167,-0.037732227,-0.03291533,0.232184541,0.233197707,0.096349626,-0.080348625,0.042498723,0.036822858,0.027081506,-0.100316864,0.139416393,0.001520273,0.174180376,,,,
825.6239994,3225,-0.124485267,-0.06686855,0.150953047,-0.044848133,-0.132831643,0.100979229,0.134983117,0.105585546,-0.097227476,-0.05431978,-0.050285396,0.040133261,0.160548276,0.09495189,0.062634233,0.069150134,,,,
825.6319994,3225,-0.031987517,-0.155928291,-0.21706604,0.186143071,0.217054449,-0.057777575,0.103380633,0.26599038,-0.14935415,0.051455473,-0.211573814,0.100389998,0.173673536,0.161783636,0.12363633,-0.201893281,,,,
825.6399994,3225,-0.040511661,-0.021947899,-0.059590168,0.362725177,0.236452381,0.075533453,0.020352333,0.139664547,-0.078362004,0.041654481,0.065650642,0.163869359,-0.046445273,0.268136858,0.118749141,0.081217164,,,,
825.6479994,3225,-0.142533729,0.097999056,0.070307644,0.351402809,-0.168073008,0.034322292,-0.123661423,0.18824287,0.021111948,-0.043941832,0.120765451,0.127050701,0.067024552,0.147104345,0.195439469,0.255897657,,,,
825.6559994,3225,-0.059728382,0.057146358,-0.089659951,0.197420295,-0.210444665,0.068845489,0.140847585,0.273541831,-0.005907765,0.059786467,-0.14391468,0.181298405,0.230254778,0.127946043,0.004672122,0.078435294,,,,
825.6639994,3225,-0.023092519,0.104883034,0.059411432,0.111496433,-0.011907076,0.226036432,0.037776511,0.149730909,0.035147737,0.147549468,-0.147100447,0.073856178,-0.049838271,0.148257114,-0.008798501,0.223500782,,,,
825.6719994,3225,0.005007106,0.148552376,-0.068740268,0.146267619,0.180816604,0.053033131,-0.047603783,0.0546396,0.07402709,0.069376778,0.115487386,-0.025350613,-0.060180353,0.102847254,0.029515071,0.21324044,,,,
825.6799994,3225,0.047516553,0.031703457,-0.127132265,0.189198091,0.083223156,-0.008391545,-0.052836538,0.046380092,-0.096466736,0.030416728,0.06366163,-0.007326057,0.050043834,0.135800561,-0.0975486,0.118164638,,,,
825.6879994,3225,-0.105881001,0.076824194,0.184434122,0.170311018,-0.10525675,0.123791317,-0.234779716,0.148330565,-0.169633447,0.022561395,-0.240984649,0.055301543,-0.151962235,-0.020733325,0.010010478,0.36602198,,,,
825.6959994,3225,-0.167273178,0.079108454,0.124964779,-0.005707472,0.061034096,0.146123439,0.11278134,0.213689032,-0.081446393,0.097643973,-0.059510385,0.044352207,-0.033868882,-0.018585697,0.166054513,0.243550109,,,,
825.7039994,3225,0.054362723,-0.010874551,-0.025081068,-0.023129574,0.042207676,0.193581644,0.163855178,0.290383024,-0.027939592,0.1259332,0.024425488,-0.030860802,0.036134699,0.181828694,0.0289806,-0.112238803,,,,
825.7119994,3225,0.03193434,-0.047587765,-0.124831598,0.198935012,-0.033917027,0.110507296,-0.026528753,0.219371448,-0.164428792,-0.093544312,0.004187889,0.089163307,-0.175283934,0.135881989,-0.025475339,0.050164481,,,,
825.7199994,3225,-0.129944127,-0.113937326,-0.145133696,0.195645209,0.144352287,0.067038461,0.114765267,0.023880707,-0.084904272,-0.085948452,0.2472302,0.108872803,-0.205257803,0.137222866,0.162248695,0.244537127,,,,
825.7279994,3225,0.17910813,-0.036977761,-0.047247888,0.078728624,0.143317233,0.082662238,-0.105541642,0.076664503,0.054203164,-0.042998869,0.09329393,0.023284505,0.057223344,0.141987168,0.183907412,0.147129532,,,,
825.7359994,3225,0.176789849,-0.151098421,-0.117820839,0.014068135,0.051070038,0.040935626,-0.327279435,0.104348685,-0.107246024,0.031301456,0.036782938,0.031184491,0.236198083,0.134997158,0.070916787,0.121566521,,,,
825.7439994,3225,-0.143132503,-0.332290936,-0.059476941,-0.130511073,-0.016798384,0.108375945,-0.044124805,-0.036650763,-0.014385159,0.102974089,0.196465327,0.082794478,0.050652895,0.211471685,0.059772451,0.081708644,,,,
825.7519994,3225,0.055947385,-0.13999172,0.01958885,-0.018544631,-1.92E-05,0.028951137,0.23850961,0.101504097,0.018787321,-0.129223086,-0.049659316,0.156882932,0.040919508,0.11368885,0.200955465,0.039285394,,,,
825.7599994,3225,-0.034730189,-0.055006632,-0.056699664,0.258307286,-0.019735561,0.084794356,-0.012300492,0.257456894,0.006335531,-0.003922821,-0.15930399,0.159472448,0.132458357,-0.013021505,0.121659538,-0.020107441,,,,
825.7679994,3225,-0.319297145,-0.031335459,0.013042134,0.181445791,-0.019832354,0.199927704,-0.165114155,0.020819626,0.09372087,0.091825342,0.105598985,0.115978382,0.017298482,-0.049360465,-0.159578599,-0.018256081,,,,
825.7759994,3225,-0.120357131,0.046818279,-0.018589492,0.066274235,0.108045169,0.071310313,0.097601353,-0.03569104,-0.071725409,-0.026798894,0.213512108,0.139672402,0.022303454,-0.048906126,-0.206328831,0.175119479,,,,
825.7839994,3225,-0.028300468,-0.036967501,-0.161578325,0.017529566,-0.148756329,0.06343907,-0.091827633,0.108509506,-0.079816217,0.118258793,0.092121673,0.152889024,0.034332138,-0.063991454,-0.118150787,0.127740611,,,,
825.7919994,3225,-0.098708551,-0.060761612,-0.035216204,-0.00541863,-0.208090394,0.110986446,-0.076892332,0.179167629,-0.056353107,0.134897205,-0.021800791,0.116849865,-0.028183634,-0.031316979,0.082809056,0.016915776,,,,
825.7999994,3225,-0.119788385,-0.109421208,0.06219697,0.224649287,-0.036734814,0.130076768,0.207211341,0.073254087,-0.027847522,0.036130133,0.00963839,0.034531084,-0.016669056,-0.005718854,0.148776938,0.137655249,,,,
825.8079994,3225,-0.11195398,-0.093889979,-0.08605757,0.223847378,-0.020234634,0.093242328,-0.029717621,-0.087321305,0.048266743,0.04674057,0.012811467,-0.054830405,0.040496513,-0.007426859,-0.0264861,0.190406915,,,,
825.8159994,3225,0.030415829,0.037401926,-0.158740906,0.043543796,0.086899335,0.018810175,-0.030130052,0.187160387,-0.170503732,0.055752692,-0.12790667,0.153246038,0.049896356,0.128672312,-0.016793043,0.114170669,,,,
825.8239994,3225,-0.004428444,-0.095043468,-0.033861288,0.085549978,-0.121157548,-0.008876888,0.041528392,0.14497844,-0.187454925,0.001610442,-0.100823041,0.195243023,-0.094696038,-0.02207346,0.109313507,0.073715004,,,,
825.8319994,3225,-0.118187641,-0.175749968,0.013939175,0.146730528,-0.021402996,0.007338518,-0.045877676,0.079644405,0.019976537,-0.010719424,-0.045591113,0.042196422,-0.258503276,-0.140072131,0.101613685,0.102067621,,,,
825.8399994,3225,-0.043546207,-0.036442024,-0.141021132,0.287034456,0.224328346,0.105113588,-0.044580422,0.301529053,0.053191134,0.016437585,-0.05498288,0.31323193,-0.251913878,0.03602759,-0.106052137,0.169999941,,,,
825.8479994,3225,-0.079037223,-0.057803232,-0.130633211,0.328603014,0.043122798,0.106317004,-0.110306949,0.107447475,0.049727215,0.008197623,-0.01145098,0.329967794,-0.212721996,-0.058653604,-0.149618867,0.202413984,,,,
825.8559994,3226,-0.084821753,-0.087739601,-0.073842648,0.236981291,0.120384006,0.070437441,-0.056168582,0.18104489,0.043960221,0.008637402,-0.045271794,0.199744073,-0.243568179,-0.046881475,-0.033089266,0.155131294,,,,
825.8639994,3226,-0.099042943,0.002159264,-0.095994229,0.222144257,0.08859766,0.104772797,-0.0866043,0.120217417,0.01662941,-0.008150856,-0.09136207,0.301997455,-0.146798324,0.089676112,-0.126089591,0.196498677,,,,
825.8719994,3226,-0.157318749,0.079782223,-0.039971371,0.114851203,0.014871609,0.096254181,-0.138950361,-0.191497659,0.07819802,0.025820738,-0.116925314,0.063747287,0.020986613,0.076735198,-0.005688523,0.145035218,,,,
825.8799994,3226,-0.033430081,0.089627517,-0.087086048,0.086549491,0.168931817,0.141517569,0.01062913,-0.094262591,0.171057563,0.169148325,0.026420476,-0.05573123,0.018997646,-0.031770791,0.181591449,0.007074183,,,,
825.8879994,3226,-0.100470244,0.05322843,-0.064646458,0.005401568,0.09164116,0.167408099,0.145209255,0.004047044,-0.004507267,0.103886133,0.115412934,0.121015986,0.010529155,0.076423833,0.066283574,0.126402458,,,,
825.8959994,3226,-0.195182261,0.183779007,0.069341915,-0.015791662,0.069977231,0.125706792,0.007639289,-0.022161968,-0.169548298,-0.072736242,0.015143821,0.028521917,0.103437323,0.353646539,0.022610273,0.209604442,,,,
825.9039994,3226,-0.071727287,0.222237521,0.11079187,0.25714523,0.093556833,0.200194634,-0.174610077,0.003044487,0.023503921,-0.031897125,0.06151376,-0.083919692,0.05653351,0.11356298,0.155508214,0.064766274,,,,
825.9119994,3226,-0.030316621,0.044600136,-0.003043155,0.312279438,0.015942585,0.203452453,-0.017648543,0.161788927,0.213576089,-0.082834988,0.039255178,0.063527265,-0.078434201,-0.086297748,0.212847498,-0.04989572,,,,
825.9199994,3226,-0.014080235,0.066608973,0.022887791,0.142383416,0.050050565,0.074267101,0.032183875,0.099191037,0.062330988,-0.046239375,0.031119916,0.20831799,-0.10361226,-0.027812668,0.086754781,0.043238684,,,,
825.9279994,3226,-0.111435932,0.145132367,0.057486392,-0.011030011,-0.089305989,-0.04196081,0.015970561,0.043488675,-0.073122932,0.029621188,0.048891925,0.163824454,0.130423067,0.068836818,-0.007586773,0.191854746,,,,
825.9359994,3226,-0.212500818,0.106358658,-0.098264335,-0.025535741,-0.196151473,-0.103406705,-0.015628869,0.215291717,0.13205766,-0.192289265,0.027391785,0.143335178,0.261476367,0.267850256,0.045541938,0.181743615,,,,
825.9439994,3226,-0.045191765,0.08288415,0.079447629,0.013883682,0.014555708,0.028584987,-0.195237229,0.116495014,0.135717659,-0.076429104,0.104361169,0.107496832,-0.00125782,0.121323505,0.109291009,0.256522917,,,,
825.9519994,3226,-0.040680741,0.071808089,0.046547218,0.02016437,0.121560469,0.120746975,-0.001922172,0.020642025,-0.038108319,0.113196955,-0.155099823,-0.131776908,-0.056793107,0.085731498,0.059468254,0.316878224,,,,
825.9599994,3226,-0.16042946,0.090647468,-0.108660417,0.053415019,0.090633722,0.019205285,0.153855424,0.052803242,-0.092778309,-0.030027231,-0.153315953,-0.078631413,0.023462519,0.372907396,0.024165547,0.126615304,,,,
825.9679994,3226,-0.00871512,0.064912241,0.062372744,-0.023061171,0.057050587,-0.028501157,0.125172238,0.145711579,-0.068878886,0.034036226,0.243945471,0.022060421,0.089256594,0.328603075,0.11066515,0.059690458,,,,
825.9759994,3226,-0.034068246,-0.055205858,0.019849265,0.006832277,0.048212523,0.076425907,0.122266712,0.222531145,0.07008087,0.079031585,0.062471806,-0.040518725,0.203001151,0.130445571,0.146963707,0.158522504,,,,
825.9839994,3226,-0.2228769,0.004150858,-0.122258574,0.180477315,0.065276069,0.071832923,-0.031763372,0.067787667,-0.019020064,-0.12810339,-0.064313963,0.181724711,0.098176839,0.073944509,0.149765529,0.178431564,,,,
825.9919994,3226,-0.108059069,0.160920296,-0.210744054,0.078627597,-0.006425719,-0.047383222,-0.079616539,0.138340834,-0.124362713,-0.243093801,0.048407919,0.113228966,0.135034484,0.052288135,0.108055896,0.016062835,,,,
825.9999994,3226,-0.012686408,0.019889415,-0.046237576,-0.077282429,-0.009816185,0.052209023,-0.103072835,0.206916152,0.15196149,-0.101944588,-0.042368679,-0.017570318,0.157620413,0.169615491,0.056606203,-0.16227226,,,,
826.0079994,3226,0.084443667,-0.094272169,0.044642687,0.062495329,0.067533875,0.092364259,0.009757902,0.054473162,0.184509045,0.168479188,0.040862641,0.313270808,-0.007653612,0.240697329,0.119367167,-0.054094909,,,,
826.0159994,3226,0.187399081,0.040781421,-0.04554265,0.114948061,-0.056981949,0.06209583,0.104548778,0.158812292,-0.206288786,0.18050417,-0.002722435,0.407843261,0.015567858,0.110813618,0.200555924,0.069727355,,,,
826.0239994,3226,0.093263254,0.034075924,0.16255433,0.030207902,0.035602217,0.057510305,-0.035221147,0.289967328,-0.200933282,0.092416788,-0.094534708,0.184135713,0.019139648,-0.034708477,0.183791007,0.085501119,,,,
826.0319994,3226,0.082662143,-0.002350302,0.118006502,0.014841296,0.156397025,-0.093666543,0.01065121,0.235702054,-0.06754026,0.146195722,0.038483854,0.114834476,0.049140157,-0.037806221,-0.121018857,0.132935395,,,,
826.0399994,3226,-0.043226076,-0.005776977,-0.09678945,0.006290855,-0.095866744,-0.013528956,-0.040003347,0.122955145,-0.143808116,0.024080411,-0.050848628,0.185200943,0.072441469,0.116155343,-0.19061384,0.048660693,,,,
826.0479994,3226,-0.158114199,-0.204338874,-0.076350679,-0.006203956,-0.049125284,0.20345485,-0.125362386,0.143791004,0.038154315,0.030798006,-0.116329689,0.126021849,0.092280608,0.097686743,0.159984274,-0.015397152,,,,
826.0559994,3226,0.028875045,-0.186156628,-0.17679356,-0.041767655,-0.078958363,0.09471366,0.032475513,0.234230254,0.063677698,0.12688757,-0.047059312,-0.01057944,0.128834659,0.042381423,0.1743473,0.136811175,,,,
826.0639994,3226,-0.096405539,0.035522107,-0.147193621,0.083123524,-0.111075746,-0.078786868,-0.006066051,0.083642517,-0.10930107,-0.106981399,0.015296989,0.037759724,-0.116140438,0.09543173,0.131731655,0.181786265,,,,
826.0719994,3226,-0.361251691,0.139029175,0.104317147,0.220492068,0.123834343,-0.043952817,0.08448662,-0.065301789,-0.089994002,-0.069180918,0.173523537,0.12459748,-0.120881379,0.119192267,0.140959307,0.058465182,,,,
826.0799994,3226,-0.024372875,0.113309114,0.169172151,0.170030866,0.120158597,-0.010905554,0.233507015,0.004582014,0.013070441,0.098887067,0.055672503,0.088730974,0.00335032,0.195746642,0.01781232,0.02011047,,,,
826.0879994,3226,0.074022944,-0.06818498,0.097969601,0.066124781,0.132465076,-0.062080761,-0.042790206,0.088500125,0.146369375,-0.057912198,-0.115134504,0.110813573,-0.031025159,0.028270791,0.155202492,0.156797458,,,,
826.0959994,3226,-0.259027401,0.021139628,-0.08201944,0.112037448,-0.157374889,0.057174722,0.017864893,0.121522159,0.143492804,-0.039576705,0.003611392,0.173237753,0.119033145,-0.058520885,0.151281336,0.4199534,,,,
826.1039994,3226,-0.04458624,0.106088443,-0.236806665,0.316367307,-0.22002693,0.265694538,0.209163036,0.066641329,-0.035941515,0.117112515,0.048314961,0.049568093,0.033393894,0.10448341,0.008787569,0.434508752,,,,
826.1119994,3227,0.048581087,-0.033141364,-0.186035188,0.072355177,0.174121822,0.15406367,-0.02835115,0.086329857,-0.070899286,0.118154737,-0.003409598,0.013585121,-0.050702991,-0.076448738,0.146135876,0.360350671,,,,
826.1199994,3227,-0.068784628,0.053879077,-0.135960734,-0.136181974,-0.026584045,0.153444769,-0.078827808,0.14437099,0.198181219,-0.017197252,-0.048464941,0.149107273,0.22214358,-0.144159482,0.090433255,0.357818082,,,,
826.1279994,3227,0.131754981,0.038729908,0.063854265,0.147853799,-0.195843234,0.298159495,0.095802983,0.002449072,0.184435943,-0.150586706,-0.160686149,-0.133692718,0.214914641,-0.00778669,0.017770398,0.261789001,,,,
826.1359994,3227,0.010707324,-0.03952157,0.147358399,0.151952814,-0.050834153,0.045549317,0.1393085,0.000913346,0.00395361,-0.061925065,-0.192748796,-0.175548155,0.063792941,-0.018526063,0.124834054,0.248874674,,,,
826.1439994,3227,-0.274505675,-0.024013664,-0.11736091,0.111086448,-0.01404542,-0.062831628,0.036823241,0.010202182,0.136262098,0.040894993,-0.059856504,0.151574269,0.058868831,0.022964927,0.045497579,0.181284349,,,,
826.1519994,3227,-0.257940711,0.011299277,-0.009137305,0.207201215,0.026369095,0.141160207,-0.00994059,-0.123887767,0.106999575,-0.012984429,-0.045769939,-0.059562308,0.058767334,0.041788687,0.02715834,0.140384327,,,,
826.1599994,3227,-0.027840682,0.177341619,0.011328309,0.09955886,-0.002997914,0.217156822,0.033799233,0.016702879,0.149458319,0.043816438,-0.109214283,-0.046429973,0.167104864,0.020992805,0.061757087,0.039234343,,,,
826.1679994,3227,0.131606609,0.023176057,-0.21212587,0.035439567,-0.073597812,0.131603581,0.04053028,0.196938985,0.086467273,0.17012677,-0.184567143,0.071228819,0.188519242,-0.017261785,0.138033339,-0.020359003,,,,
826.1759994,3227,0.075327782,-0.14989764,-0.124318746,0.099626764,-0.109135163,0.123002702,-0.027661481,0.082550606,-0.16626924,0.130952463,-0.158994332,-0.136771826,0.17735718,0.033994869,0.280142327,0.170116894,,,,
826.1839994,3227,0.103385685,-0.013898688,-0.067325239,0.182067864,0.020277671,0.226317738,-0.092075415,0.055388214,0.012015423,0.019650856,0.089150391,0.011676508,0.152407405,0.181393495,0.203547422,0.185334518,,,,
826.1919994,3227,0.141358578,-0.08407826,-0.063858626,0.214737593,0.043721342,0.12872426,-0.006250991,0.070367137,-0.037430518,0.001008505,0.073659513,0.071894005,-0.117529105,0.177163169,0.115644632,0.174930008,,,,
826.1999994,3227,0.083608355,-0.095404653,-0.184511204,0.070212844,-0.133169861,-0.024380745,-0.14834434,-0.094408728,-0.128909664,0.1036607,0.018277235,0.051010852,-0.153004775,0.097883997,0.164117736,0.075538189,,,,
826.2079994,3227,0.055321199,-0.080879843,-0.058121338,-0.046302099,-0.176024564,-0.038170814,-0.268436518,-0.002415272,0.036166719,0.073909015,0.109350616,0.213792411,0.035598252,0.156028936,0.164899169,-0.049634588,,,,
826.2159994,3227,0.028196217,-0.122622629,0.217705988,-0.045243862,-0.219148082,0.107005079,0.047227911,0.013427504,0.004150834,0.002081181,0.054545563,0.131292725,0.08205596,0.270916487,0.065942329,0.223457958,,,,
826.2239994,3227,-0.035711534,0.002104612,0.070108458,-0.011135275,-0.122618253,0.220659639,0.119355288,-0.056715615,0.00775436,0.171004539,0.02024022,0.091078625,0.080417737,0.193499367,0.057789694,0.214385941,,,,
826.2319994,3227,-0.034712302,-0.070341619,-0.031138907,0.123360868,-0.033442846,-0.050291348,-0.023515561,0.227267082,-0.112943579,0.175476695,-0.016071586,0.097673525,-0.023979312,0.056494132,0.198296314,-0.122086318,,,,
826.2399994,3227,0.240058242,-0.027307693,-0.027775758,0.063419886,-0.103458247,-0.063181995,-0.122373598,0.227287641,-0.120920601,0.030754764,-0.072346876,-0.003764446,-0.081525961,0.074029562,0.20900481,0.02457391,,,,
826.2479994,3227,0.224289311,0.108631683,-0.072980146,-0.107722928,0.079085023,0.228008138,-0.095607771,-0.042327902,0.077285361,-0.041566728,-0.067559677,-0.039630539,-0.114702135,0.136817493,0.122609303,0.050616316,,,,
826.2559994,3227,-0.160905862,-0.087689698,-0.104057171,-0.014445311,0.028295231,0.096573852,0.001435571,0.026526509,-0.050061848,-0.164467971,-0.082697866,-0.072472659,-0.056846527,0.125562862,0.110976673,-0.035335898,,,,
826.2639994,3227,-0.128727316,-0.164003161,-0.008371128,0.053530299,-0.08124751,0.001848729,-0.140962619,0.230784891,-0.211804668,-0.023946225,-0.168078567,-0.087145606,0.105895606,0.013823821,0.150650644,0.187001114,,,,
826.2719994,3227,-0.102151258,-0.142113639,0.113964695,0.013651196,0.076951318,0.157142856,-0.009956784,0.132633977,-0.065267223,0.143844522,-0.118468518,-0.072108121,-0.092129168,0.032944369,0.206981463,0.020610508,,,,
826.2799994,3227,-0.132045225,-0.147423341,0.0057291,0.066475896,-0.05441154,0.178404115,0.159901279,0.003051785,0.210157555,0.06040185,0.045413556,0.105360241,-0.233833598,0.113944855,0.149767259,-0.021206043,,,,
826.2879994,3227,0.050402233,-0.039307883,-0.181687411,0.047107861,-0.003529077,0.10308714,0.081434797,0.016761552,0.139002288,0.022973244,0.020385121,0.1922126,-0.155244172,0.088178736,0.137739929,0.169848968,,,,
826.2959994,3227,-0.011705649,-0.099910495,-0.035491088,-0.042700467,0.00484035,0.139644372,0.193872252,0.108958699,-0.04471745,0.087660564,-0.061262661,0.18222044,-0.082486149,0.167191764,0.167300728,0.143145768,,,,
826.3039994,3227,0.08018238,-0.188315047,0.150425398,-0.048560192,-0.109804119,0.170628399,0.19612807,0.295526834,0.064367967,0.102302486,-0.076639614,0.205349326,0.120975862,0.200575823,0.178425691,0.157477335,,,,
826.3119994,3227,0.174464935,-0.031340553,-0.143371174,0.057691783,0.047750011,0.10217727,0.028225669,0.197197742,-0.012492537,-0.079365358,-0.169794388,-0.008015154,0.222771923,0.16851873,0.264283908,0.074722356,,,,
826.3199994,3227,0.043372195,-0.022252434,-0.155719591,0.053076213,-0.172209935,0.076403339,0.016938783,0.150451056,0.004986289,-0.026452183,-0.103978007,0.103291305,0.121356266,0.034647059,0.151739027,0.042791399,,,,
826.3279994,3227,0.051436111,-0.151972607,-0.019600793,-0.063671587,-0.151973583,0.011882043,0.208542867,0.330765526,0.183273573,0.163905076,0.132399031,0.258694163,-0.081993884,0.043802334,-0.028728531,0.095734869,,,,
826.3359994,3227,0.008345819,-0.08717366,-0.152742436,-0.014455952,0.190593407,0.011021041,0.211424346,0.18374874,0.055714483,0.126158209,0.02990461,0.071436709,-0.067998822,0.233229014,-0.055709522,0.119527188,,,,
826.3439994,3227,0.023590882,-0.060790345,-0.033389383,0.07540119,0.060329913,0.08960258,-0.155872982,0.005829136,0.039510292,0.095801471,-0.169868727,0.062469253,-0.015750996,0.02621857,0.048567581,0.115292239,,,,
826.3519994,3227,-0.10227406,0.002763232,-0.003057196,0.266710147,0.038373435,0.136108111,-0.251005832,0.065548683,0.028633323,0.026720474,-0.124265167,-0.038886001,-0.06885701,0.160054928,0.18803299,0.125020901,,,,
826.3599994,3227,-0.103958072,0.088051,-0.014843944,0.252882709,0.174728785,0.128240348,0.074599369,0.173649719,-0.131153087,0.006933876,-0.017911424,-0.033687626,-0.044235798,0.406721537,0.145544882,0.199144184,,,,
826.3679994,3228,0.042048293,-0.098996425,-0.006780029,-0.034429822,0.006304279,0.128069661,0.092838771,0.272295024,-0.169751102,0.075056811,0.085151098,0.102822867,-0.156282002,0.141402382,0.010457218,0.044929457,,,,
826.3759994,3228,-0.126772531,-0.148595678,-0.115091975,-0.028014363,-0.130252074,0.136788026,-0.056009524,0.311711359,-0.036627766,-0.002829259,0.081144632,0.026188258,0.077173289,0.210283185,0.067035123,0.022756959,,,,
826.3839994,3228,0.00356091,-0.0361365,0.106675594,0.022641385,-0.022808551,0.149992204,0.055305517,0.324032382,0.194413872,-0.164915645,-0.104749792,0.072988993,0.111540517,0.179920544,0.177177729,0.17693081,,,,
826.3919994,3228,-0.026008671,-0.097875461,0.129693734,0.084532728,-0.000341165,0.239266794,-0.011818116,0.186433266,0.048274259,0.034312936,-0.189075676,0.054158711,-0.306390343,-0.01148329,0.070909187,-0.036237553,,,,
826.3999994,3228,-0.238016426,-0.041505915,-0.063387663,0.135268539,-0.17081736,0.038821371,-0.100319602,-0.066399523,-0.113708332,0.203751221,0.015858397,-0.020320474,-0.022204036,0.14646994,0.051617594,-0.027057133,,,,
826.4079994,3228,-0.056372727,0.036486194,0.135755826,0.090944414,-0.132800157,-0.061938827,-0.101019606,-0.085937553,0.160464444,-0.01899102,0.036668977,0.051448228,0.22772769,0.116797016,0.118931785,0.260300443,,,,
826.4159994,3228,-0.047975326,-0.164638567,0.216507252,0.264272651,0.096638924,0.041094383,-0.07882801,0.110110167,-0.007397694,0.06808047,-0.009653287,0.125988921,0.101769447,0.047872429,0.066500219,0.151695706,,,,
826.4239994,3228,0.038867423,-0.183655095,0.144602127,0.244197958,0.042504415,-0.098542335,0.023740551,0.143188184,-0.280203977,0.002116737,0.161979206,0.156441557,0.10814698,0.196377031,0.017790802,-0.015700005,,,,
826.4319994,3228,0.071299498,-0.077894998,0.070751301,0.00742874,-0.077187909,0.030100135,-0.033194445,0.019839287,0.091333,-0.189088147,-0.016456594,0.031693523,-0.008064822,0.206048841,0.072749325,0.053981525,,,,
826.4399994,3228,-0.181534947,-0.125609218,-0.028014438,0.095811713,-0.072270594,0.169570349,0.106423945,0.022714437,0.154920616,0.079420267,-0.151244986,-0.136551256,-0.024683771,0.038665061,0.119532124,0.191754739,,,,
826.4479994,3228,-0.077851244,-0.054930857,-0.087474844,0.169183878,0.025349195,0.021892501,0.114564567,0.143046379,-0.091967229,0.126494327,0.090471865,-0.090777274,0.066837963,0.167352221,-0.045486135,0.113374204,,,,
826.4559994,3228,0.089836804,-0.057946416,-0.173755268,-0.023491769,0.05681397,-0.029631647,-0.044527264,0.254810141,0.020803558,0.052456672,-0.001619668,0.141414527,0.077167374,0.322495565,-0.001779416,-0.130771401,,,,
826.4639994,3228,0.064581819,-0.023904946,0.101872554,0.003371867,-0.186349949,0.129832782,0.230943509,0.161498388,0.059312447,0.022319394,-0.06795675,0.071514404,0.014053568,0.075804353,0.115547462,-0.068384857,,,,
826.4719994,3228,0.0310074,0.004305041,0.143647121,0.102450201,-0.112628452,0.234581358,0.224280785,0.017140672,-0.017834714,0.054208996,0.170472676,-0.051694299,-0.081105682,0.149367586,0.022812972,0.046366424,,,,
826.4799994,3228,0.017056622,-0.139769508,-0.120587341,0.048596261,-0.020825727,-0.021652935,-0.047335382,0.022359139,0.058260681,0.200315392,0.166885063,0.141048046,-0.026849541,0.224479896,0.190772343,0.06684509,,,,
826.4879994,3228,-0.015917215,-0.089417043,0.172982551,0.190256934,-0.149877542,-0.011096336,0.032410389,-0.081654298,-0.018197904,0.022996015,0.08158044,0.14600245,0.074576495,-0.06297132,0.261039094,0.135561116,,,,
826.4959994,3228,-0.10820897,-0.05137507,0.300230775,0.102204725,0.121536353,0.194278433,0.14159658,0.008438103,-0.067067233,-0.03604708,-0.061725002,0.100749514,-0.09853948,0.062134304,0.09504801,0.017283757,,,,
826.5039994,3228,-0.05116078,-0.037945545,0.076129607,-0.162452448,0.095043819,0.11824705,0.088478461,0.218201913,0.033356448,0.030856857,-0.226821213,0.128452272,-0.161576902,0.164464842,0.042699338,0.057579923,,,,
826.5119994,3228,0.020484999,0.003965371,0.041938328,0.020806773,-0.197232336,0.090208171,0.000817171,0.001571793,-0.044230183,-0.04475052,-0.056475366,0.159854826,0.084160709,0.038878091,0.083104685,0.170077958,,,,
826.5199994,3228,0.009421422,0.067122218,0.028314265,0.090364077,-0.05326861,0.00474785,-0.054093263,-0.074458924,0.040755097,0.037532915,0.136722985,0.149382398,0.020821272,0.079707844,0.057070509,0.067195848,,,,
826.5279994,3228,-0.007422078,0.067975527,-0.037500797,0.009058782,0.02132563,0.100132997,-0.081941188,0.071527731,0.123474862,0.026714982,0.061639504,0.007213609,-0.024623522,0.045735323,-0.002810408,0.000521159,,,,
826.5359994,3228,-0.0665455,-0.005783478,-0.012442995,0.115927864,0.022662673,0.15463814,-0.052761317,0.104762337,-0.036248564,0.112265319,-0.018367047,0.132301842,0.0029748,0.040165583,0.159278818,0.048652077,,,,
826.5439994,3228,-0.01367729,0.048624085,0.152215695,0.111069184,-0.093041993,-0.013246459,-0.06324855,0.072857852,0.003094534,0.24450541,0.02933379,0.176676948,-0.156352285,-0.010248718,0.147592759,0.322562647,,,,
826.5519994,3228,0.087068593,-0.244384328,0.095534559,0.084910903,-0.19541845,0.259189828,-0.164451469,0.038531525,-0.03960127,0.097177653,-0.001832005,0.027100348,-0.115237456,-0.076526539,0.089057823,0.257538521,,,,
826.5599994,3228,0.129145674,-0.329517203,-0.042079456,0.099655302,0.01584657,0.280078605,-0.118944923,0.169202726,-0.118446359,0.098008869,0.031059526,0.015542451,0.047658207,0.072013444,0.226410507,0.049172968,,,,
826.5679994,3228,-0.020767711,0.073194008,0.02188616,0.187198314,-0.136796632,0.144603913,0.014729534,0.051930474,-0.044733548,0.115188328,0.134261612,0.028193597,0.219489631,0.118831943,0.167154807,0.181845125,,,,
826.5759994,3228,-0.269541642,0.013727832,-0.032942315,0.20375483,-0.183217626,0.197567603,0.010769222,0.000231782,-0.120078542,0.019766076,0.066546563,0.050926441,0.06918422,0.201409096,0.113988146,0.088630173,,,,
826.5839994,3228,-0.252909548,-0.113570661,0.039958273,0.072234266,0.018445324,0.021267958,0.131388441,0.088413051,-0.101683217,-0.015471273,0.079616228,-0.142568904,-0.051130987,0.291586791,-0.004861685,0.027069824,,,,
826.5919994,3228,-0.085063193,0.035003433,0.215270473,0.187078195,-0.037773219,0.158219335,0.23545655,0.00314955,0.021003268,-0.013033473,-0.021661573,-0.088716537,0.171151497,0.119977409,-0.183177949,-0.051468939,,,,
826.5999994,3228,0.122460919,0.042812168,0.032677645,0.161217914,0.050513414,0.119681295,-0.028004185,0.156695966,0.153583393,0.043599913,-0.197185741,0.185734356,0.025894681,0.172621286,-0.087878246,-0.138083512,,,,
826.6079994,3228,0.014431703,0.05673551,-0.136440804,-0.027615084,0.068694985,-0.029779491,0.018104947,0.17712907,0.127960603,0.02643844,0.029804675,0.024221225,-0.117849956,0.391082264,0.015672703,0.12766006,,,,
826.6159994,3228,-0.252325582,-0.024238269,-0.004972376,0.149320135,0.10170062,0.11695919,0.187399782,0.209665183,-0.093981113,-0.060388025,0.056785348,-0.061396464,-0.039556985,0.23115936,0.159635127,0.139749883,,,,
826.6239994,3229,0.07285843,-0.039419054,0.045654416,0.182173917,0.231171636,0.004983323,0.058984525,0.095620633,-0.112727385,-0.058239273,-0.101501992,-0.118539608,-0.085563511,0.094592034,0.242644667,0.098626232,,,,
826.6319994,3229,0.268656677,0.097998858,-0.02547842,0.013992365,0.053822263,0.020192702,0.130203243,-0.297490249,-0.007318918,0.050773769,0.036223814,-0.111387227,-0.039253787,0.15728122,0.086115857,0.124846444,,,,
826.6399994,3229,0.028188288,-0.111190037,-1.34E-05,0.202641641,-0.048328024,0.080508065,0.150337444,-0.132560182,0.095343699,-0.047315628,0.045920504,0.232756516,0.044161641,-0.010127022,0.212539281,-0.04241226,,,,
826.6479994,3229,0.027366689,0.019271685,-0.076419415,0.32471115,0.019526745,0.063189406,0.1481902,0.155296363,0.017681281,-0.127754137,0.040941641,0.199269717,-0.057400077,-0.089176983,0.277798772,0.102139461,,,,
826.6559994,3229,0.010713515,0.176480386,-0.115014248,-0.014064878,-0.06288953,0.115770824,0.074372136,0.119398978,-0.078566468,0.014230661,0.048823535,0.169525446,-0.219106049,-0.005110155,0.105382338,0.233861088,,,,
