Time:125Hz,Epoch,FP1,FP2,C3,C4,P7,P8,O1,O2,F7,F8,F3,F4,T7,T8,P3,P4,,,,
559.2239996,2184,0,65.2555839,7.09611032,36.60651844,5.78967545,0.246582161,12.82148729,0.570631793,-5.309721224,-19.32885586,49.47550221,0,4.398579134,-19.2716267,-8.25E-07,-1623.277316,,,,
559.2319996,2184,0,5.821100396,-10.43867865,17.22602455,15.24878515,-18.54237469,8.850931431,-5.024525716,-2.98294354,11.20198712,-19.6963546,0,13.54540778,14.29563534,-8.17E-07,-1393.322472,,,,
559.2399996,2184,0,28.98887923,-29.92379775,0.900646198,2.015957028,-42.94086876,-17.87017734,-29.66439346,-17.5438363,-26.16652958,-14.16094115,0,-9.434292772,-16.3636232,-8.10E-07,-1222.034391,,,,
559.2479996,2184,0,33.15237813,-5.115793708,29.25230169,2.448226768,-6.543069552,4.922104268,16.56147432,-1.403162809,-9.02587231,-4.389093418,0,11.92570871,8.034122079,-8.02E-07,-1807.868702,,,,
559.2559996,2184,0,4.881756441,-9.546424999,19.22159698,20.73016356,-30.32692361,-3.791853221,1.663440872,-11.45959679,-23.9761798,-70.34957818,0,6.534728449,9.40408833,-7.95E-07,-1046.753412,,,,
559.2639996,2184,0,56.47588146,6.00465741,38.19052989,-7.293376067,-10.2024141,-2.784667253,10.04149662,-16.77982564,-35.36067156,43.49122489,0,-10.21802279,-27.53542253,-7.87E-07,-1657.2419,,,,
559.2719996,2184,0,12.77568964,17.10378065,49.84117017,32.17321918,10.26087645,15.36186258,17.32618249,2.257445107,10.44716237,-21.93001321,0,7.692567457,11.13501798,-7.80E-07,-1434.582104,,,,
559.2799996,2184,0,36.17369807,-4.571419331,19.4800487,14.27704957,-19.92708698,-4.424764274,-27.92471446,4.258833938,0.346801097,6.743347039,0,10.90310017,19.82193442,-7.73E-07,-1277.173538,,,,
559.2879996,2184,0,16.76107159,-1.176805306,13.83431581,-21.18449174,-18.60122899,-5.593734613,-11.56514894,-16.43622329,-15.07597197,-11.30944674,0,3.187839342,17.60820382,-7.65E-07,-1844.097446,,,,
559.2959996,2184,0,-5.006235107,22.82383614,22.66606141,23.56425375,-20.49261013,2.980400411,6.593007436,-32.94851228,-43.68953116,-90.93068936,0,-10.10523769,-2.216816556,-7.58E-07,-1065.877922,,,,
559.3039996,2184,0,59.0888915,60.50326987,49.47086548,12.57586796,15.7282862,26.5542022,40.2986262,-0.054475956,-13.00735987,64.29218539,0,5.519574371,0.437602498,-7.51E-07,-1697.26282,,,,
559.3119996,2184,0,6.157386039,64.85570788,36.60933659,10.67165665,16.63727258,26.35902606,42.00064057,16.52986304,21.84993263,-2.968751039,0,18.57626626,22.72892934,-7.44E-07,-1479.346504,,,,
559.3199996,2184,0,42.08804014,57.47258798,12.71384967,14.25409513,0.098228546,12.07618829,9.539086912,16.67023882,-5.217389151,6.631685432,0,16.64330484,8.930280673,-7.37E-07,-1306.873022,,,,
559.3279996,2184,0,44.73985508,74.49695592,21.02459427,37.08070163,24.04871518,42.04266518,39.66113795,28.44330174,29.33288071,17.47871347,0,34.2925392,50.61508919,-7.30E-07,-1897.694736,,,,
559.3359996,2184,0,10.01688591,70.7199605,4.340906913,66.81471702,-1.962450608,32.32656765,18.06506264,3.937147138,7.532347077,-61.53547652,0,16.33478176,33.02292617,-7.23E-07,-1133.868246,,,,
559.3439996,2184,0,47.60916272,68.7524708,1.787453967,19.87416894,3.369235243,16.20031348,-7.092803458,-8.300462528,-19.87069286,46.8669877,0,-11.43300171,-15.46093301,-7.16E-07,-1749.556353,,,,
559.3519996,2184,0,-12.0762797,59.97678504,-9.862944901,22.346614,-1.983015365,16.93237736,-0.563131877,4.778400407,9.610744842,-29.47374141,0,-3.75068664,4.783879666,-7.09E-07,-1531.225839,,,,
559.3599996,2185,0,34.58983669,56.58461037,-19.9067542,21.78839056,-18.29791934,8.49531451,-8.39747837,11.42216531,-15.23039984,-10.37591462,0,7.334086816,-2.603811493,-7.02E-07,-1354.45773,,,,
559.3679996,2185,0,43.79979003,69.76824491,-4.821467987,10.17073155,7.235192892,21.71761887,9.528588544,18.57770842,6.780011313,-7.121435295,0,18.39377579,18.84901385,2.59E-07,-1939.456494,,,,
559.3759996,2185,0,11.15458597,62.52057252,-10.8090539,26.00538232,-9.577151016,15.5225681,1.416283208,14.13324855,16.7787231,-72.81060296,0,11.94030953,21.66649304,1.16E-06,-1171.454893,,,,
559.3839996,2185,0,55.51171364,72.06819773,4.779171919,-4.61159672,3.931402336,23.04503911,16.20781312,7.574272684,-9.664925126,52.12781423,0,-4.974577211,-8.906785686,8.74E-07,-1774.61827,,,,
559.3919996,2185,0,4.083397298,72.08435366,7.054255123,13.58052667,6.891329231,30.38333282,18.28455094,20.91035215,15.27684755,-21.29250738,0,7.611792164,9.124012396,8.91E-07,-1557.917444,,,,
559.3999996,2185,0,38.55851261,50.69265437,-8.078808735,7.470923877,-13.22051255,8.817950115,-10.57681987,30.35823179,20.24335063,-2.224279164,0,16.98608298,9.253898704,9.40E-07,-1388.871067,,,,
559.4079996,2185,0,10.4515661,24.61413484,-26.49724409,-26.93701968,-28.51829174,-8.202525113,-14.60940151,11.14012574,11.86531338,-13.49715055,0,1.300334992,1.742469935,8.65E-07,-1968.281292,,,,
559.4159996,2185,0,-26.45289918,14.13889698,-35.90778095,-4.025039093,-51.94381647,-18.68068198,-33.55290361,-17.91808176,-32.81297215,-103.7006712,0,-28.60498689,-32.18300254,9.10E-07,-1173.732598,,,,
559.4239996,2185,0,48.44348509,50.57519267,11.591269,-3.785749889,1.237607235,15.38326948,11.67185442,-7.003512657,-29.06194535,35.1552555,0,-22.93069642,-29.35673322,8.66E-07,-1776.079948,,,,
559.4319996,2185,0,-3.818098388,47.52146322,9.734997944,11.74039536,0.555479945,21.42139136,28.20800871,22.62744752,27.48704995,-12.61098471,0,10.45583705,20.72842657,8.80E-07,-1576.960614,,,,
559.4399996,2185,0,18.08213511,22.96227859,-16.50138583,-3.839706316,-31.62240369,-8.751281827,-7.950381851,20.65810832,7.641790969,-2.092319064,0,6.594423995,-2.485902774,8.60E-07,-1392.392029,,,,
559.4479996,2185,0,20.84497074,26.35429715,-5.52681398,-18.28538725,-10.01255673,-8.102353282,2.051943867,14.61233187,6.392888755,-6.42863389,0,4.046118162,4.988336411,8.58E-07,-1973.852746,,,,
559.4559996,2185,0,-16.55896584,13.19354349,-22.21857911,-2.855619208,-38.37900848,-10.40802524,-17.79132815,-2.319481718,-23.93706204,-80.30344572,0,-14.35317726,-6.22039991,8.47E-07,-1193.911563,,,,
559.4639996,2185,0,25.93382508,29.95302218,-7.183655836,-8.018701023,-19.79722754,28.4696945,5.434757225,-8.584760969,-27.89814923,43.93746771,0,-21.1771242,-27.33623684,8.41E-07,-1792.88745,,,,
559.4719996,2185,0,-5.781488351,43.30974168,6.364499436,30.26533676,-4.424836794,36.48206105,18.32142799,15.20660008,28.38031596,-23.77085914,0,7.821771641,12.1616581,8.33E-07,-1593.486884,,,,
559.4799996,2185,0,28.93597859,22.05796591,-14.54601689,9.074702627,-32.25396293,7.091656279,-10.04409146,29.48204772,6.553839052,-2.354221909,0,9.245063593,-0.059080318,8.25E-07,-1415.906201,,,,
559.4879996,2185,0,31.76169355,31.77116066,2.155457115,0.655597304,-2.162483367,34.57643529,14.4231795,30.31923938,16.13937753,10.38336873,0,18.20142595,20.40392646,8.17E-07,-2011.049608,,,,
559.4959996,2185,0,7.821625914,24.7757051,-2.364141945,13.52236675,-14.80951271,9.720951076,-6.246441086,9.995285514,6.163042771,-64.06537934,0,3.011103898,15.71276586,8.10E-07,-1233.909159,,,,
559.5039996,2185,0,45.27246233,12.99397285,-9.863298773,-36.12915917,-18.39035747,-7.020051197,-4.901155021,6.599496948,-11.74879184,60.5376088,0,-15.6566254,-13.81987029,8.02E-07,-1826.75105,,,,
559.5119996,2185,0,24.24227275,37.01958673,16.24692162,11.01251257,10.19159052,26.64507534,24.06354069,27.78678412,35.38327787,-9.929794855,0,8.197565557,27.37842041,7.95E-07,-1621.480113,,,,
559.5199996,2185,0,59.00576963,25.03183708,5.74512022,10.54386303,-10.00882591,12.77732998,4.948998444,41.49252013,38.28682474,15.40807079,0,17.7450592,31.58952098,7.87E-07,-1439.815368,,,,
559.5279996,2185,0,7.387416304,-23.87223417,-36.68731912,-43.26793205,-42.19082774,-15.25841827,-14.60700554,21.63100154,19.73564656,16.42238675,0,2.777836118,14.18382419,7.80E-07,-2028.681254,,,,
559.5359996,2185,0,-20.00316172,-22.1161307,-33.74534489,-5.143364778,-51.82676764,-9.081918304,-28.20641575,-19.22501131,-23.7595865,-92.37567834,0,-26.94400419,-33.66820542,7.73E-07,-1233.821973,,,,
559.5439996,2185,0,46.05242272,7.476167203,3.886704782,-5.750027997,-14.35933682,16.83924137,3.026913638,-5.925199647,-7.344492615,40.1086403,0,-18.10426101,-26.30691129,7.65E-07,-1831.973745,,,,
559.5519996,2185,0,-17.77385742,-16.97100304,-15.94074881,-7.56628927,-26.74218404,-3.697660908,-4.210397171,4.960630915,21.05801971,-18.60720477,0,-5.858930982,27.2800469,7.58E-07,-1632.833424,,,,
559.5599996,2185,0,26.26423222,-25.73974842,-25.80285739,-6.586905987,-44.34256873,-11.29734723,-24.14112434,2.064320336,-29.58342799,-18.62838764,0,-14.72163611,-4.86902195,7.51E-07,-1423.74831,,,,
559.5679996,2185,0,32.70736139,-11.35987281,-6.224519268,-6.709954619,-20.59411234,9.519882882,4.801752979,15.73126273,-0.202295071,-9.287366285,0,-2.660852826,2.262202792,7.44E-07,-2018.395934,,,,
559.5759996,2185,0,-1.100762707,-12.23009206,-5.562478387,20.17419806,-29.97614392,1.589499874,-6.519441318,4.180178439,12.0285701,-73.51193095,0,-3.785641895,10.61048484,7.37E-07,-1255.512035,,,,
559.5839996,2185,0,56.10483678,-0.052632845,12.44532701,-14.15056964,-11.09011879,7.699344635,5.605342653,3.784537504,-5.776151222,58.32406463,0,-4.403125149,-4.30878287,7.30E-07,-1857.694814,,,,
559.5919996,2185,0,-6.585044247,-18.32715554,-8.528514266,-18.47285329,-31.49420934,-2.312038468,0.202990475,6.360098033,14.45519689,-26.73319,0,-8.304712737,4.824521547,7.23E-07,-1658.659195,,,,
559.5999996,2185,0,32.04507982,-22.91016605,-15.31061284,-4.744496111,-40.58461899,-5.323882826,-3.333383889,16.42829538,-0.283188566,-19.04252615,0,-1.53893143,-8.850177821,7.16E-07,-1457.566998,,,,
559.6079996,2185,0,55.92662881,5.212690694,21.41533284,7.291664944,7.636299855,25.038961,37.62118385,29.20348836,14.8430749,-1.632387772,0,17.07146477,18.77368232,7.09E-07,-2054.187388,,,,
559.6159996,2186,0,19.39339085,0.804791999,12.10372458,25.87932891,-9.836896081,14.2709942,2.406821022,27.01236528,14.17365314,-64.67727602,0,9.50048396,31.43012342,7.02E-07,-1282.96603,,,,
559.6239996,2186,0,34.83782944,-18.55896258,-9.30366425,-31.91646467,-23.19315063,-16.10888788,-13.92438016,19.03681835,-2.023202771,59.97683864,0,-3.666665456,6.544141228,-2.59E-07,-1879.956198,,,,
559.6319996,2186,0,-33.14453542,-31.43522754,-27.27657589,-32.56280721,-40.82993046,-25.91594077,-14.2175894,-20.91013327,-4.775802734,-53.29112038,0,-28.84620367,-9.027638608,-1.16E-06,-1672.425293,,,,
559.6399996,2186,0,28.58551885,-15.08084045,-17.27458574,-11.68107611,-42.35213501,-15.01515412,-18.74403851,-2.41771278,-3.991234504,-38.019381,0,-19.11635827,-19.10245851,-8.74E-07,-1461.238486,,,,
559.6479996,2186,0,38.63626357,-5.133041568,-1.664359446,-8.126949995,-16.70119213,-6.616940512,14.49906199,28.16969231,19.71859741,3.237271224,0,9.957081665,4.836555852,-8.91E-07,-2066.910246,,,,
559.6559996,2186,0,-9.605263198,-21.89330195,-19.50640097,11.63162468,-42.18856222,-19.29142377,-9.220998721,-8.65811717,-24.63856453,-88.20268953,0,-15.68094771,-13.11797905,-9.40E-07,-1287.762129,,,,
559.6639996,2186,0,51.75529374,-2.151015942,3.0208132,-12.88731941,-15.39654351,4.639162121,3.491545459,1.656577824,-21.64984295,36.7981657,0,-18.50062209,-16.75138414,-8.65E-07,-1883.614752,,,,
559.6719996,2186,0,22.21157607,19.38557141,23.72352943,31.43296641,9.914740772,34.56085959,33.16735438,26.40113266,30.7548827,-13.67706962,0,13.24938817,24.34958164,-9.10E-07,-1703.093843,,,,
559.6799996,2186,0,44.51084628,-2.294438653,0.251161132,31.80756042,-17.89308087,7.742218762,14.42395472,28.70137302,19.73272541,8.507493459,0,18.71655303,8.236912756,-8.66E-07,-1498.67784,,,,
559.6879996,2186,0,16.70055257,-36.83816431,-26.97995454,-24.56920014,-33.57000321,-26.86496505,3.280427982,15.23752604,14.86067577,8.825915535,0,3.377985671,-6.677499693,-8.80E-07,-2098.207028,,,,
559.6959996,2186,0,-16.95151476,-41.43908164,-32.38557088,-5.934446143,-46.16877772,-31.8865189,-22.36760634,-23.07543888,-34.28183112,-96.38487395,0,-28.17793473,-32.70956747,-8.60E-07,-1302.924357,,,,
559.7039996,2186,0,36.23225875,-21.21720833,-11.62090357,-16.38437352,-26.90756142,-5.232575719,17.70594466,-17.71221596,-36.25069782,25.10763928,0,-33.66754789,-41.89879916,-8.58E-07,-1891.873461,,,,
559.7119996,2186,0,-18.51173446,-26.5227676,-21.1043719,-3.991022015,-43.05926915,4.062385251,45.70638887,2.688113613,1.907585435,-37.51203157,0,-9.136104818,-23.07738673,-8.47E-07,-1715.933227,,,,
559.7199996,2186,0,33.697964,-21.72098091,-11.62096763,17.50214167,-40.15958016,5.35381525,39.69640284,8.099962623,-13.03698868,-24.46841575,0,-0.782309334,-32.81394908,-8.41E-07,-1502.392834,,,,
559.7279996,2186,0,43.70646686,-11.43748491,14.45044558,33.41492252,2.913801156,21.15868678,65.49114662,20.56070209,29.05298929,7.634863041,0,7.973021869,19.29087429,-8.33E-07,-2122.027907,,,,
559.7359996,2186,0,-17.28608798,-42.75545156,-16.10299406,20.23901803,-32.94378983,-21.8670921,2.552521717,7.01047863,12.94855371,-65.36692274,0,-4.341590556,20.73025618,-8.25E-07,-1349.952564,,,,
559.7439996,2186,0,9.891066543,-46.74115861,-11.42833452,-50.30384376,-24.23130945,-39.946808,-12.04339757,-28.0786794,-28.77806013,24.22561167,0,-37.58292795,-25.05994862,-8.17E-07,-1920.669781,,,,
559.7519996,2186,0,-22.09666471,-25.10921726,13.45042147,-0.878466479,-0.899793535,-3.562488961,36.95452415,-15.42491508,8.866556342,-44.44284214,0,-17.73168574,20.68135991,-8.10E-07,-1734.967405,,,,
559.7599996,2186,0,21.75828482,-35.18211202,1.520511515,19.46377963,-25.55272202,-17.95453048,23.3984827,21.56435713,11.5344485,-5.949829539,0,15.00572226,14.29416843,-8.02E-07,-1525.190417,,,,
559.7679996,2186,0,22.38559898,-35.60729621,6.066381477,17.72409882,-12.177448,-17.51331074,40.06175829,13.59211067,18.52578322,-1.857366979,0,9.44789521,-4.96078432,-7.95E-07,-2129.932234,,,,
559.7759996,2186,0,11.99348239,-20.65789942,13.29365397,81.48397977,-18.84435018,-1.617267753,60.28431234,13.13186562,18.4140364,-71.2147652,0,3.35422331,-4.79671056,-7.87E-07,-1354.55028,,,,
559.7839996,2186,0,45.86935251,-35.58893846,1.78423802,23.66504922,-31.26994542,-19.52587104,59.20797729,7.937818419,10.52386867,63.02962847,0,-5.838426509,-42.67720469,-7.80E-07,-1955.867234,,,,
559.7919996,2186,0,-21.73617766,-49.10450193,-13.29474347,15.79324449,-45.09513009,-29.2984476,35.96099099,-18.42900432,7.087251129,-29.66794428,0,-18.27897136,-48.31679881,-7.73E-07,-1769.184876,,,,
559.7999996,2186,0,27.89821039,-40.08746303,-9.493788397,45.34228239,-50.23491051,-30.09145766,29.4184768,4.279039007,-17.49836624,-15.29981749,0,-8.28856143,-53.21758051,-7.65E-07,-1537.217093,,,,
559.8079996,2186,0,15.88105726,-47.46442136,-5.896783614,31.23735379,-31.59788185,-25.75407109,54.20275981,11.42064965,3.506532401,9.541136024,0,-3.161964585,-33.00309397,-7.58E-07,-2156.722427,,,,
559.8159996,2186,0,-19.49157498,-42.79203299,-3.260701365,52.4177974,-34.66807829,-25.85428393,46.80580061,-9.731918082,-13.29106189,-72.47677631,0,-17.82396754,-32.7785116,-7.51E-07,-1372.85912,,,,
559.8239996,2186,0,45.26273518,-15.15924725,23.35446087,37.39874937,-7.777885326,-8.377620818,84.83145135,1.337761003,-22.08951006,57.45570926,0,-11.20729222,-45.82567176,-7.44E-07,-1965.457153,,,,
559.8319996,2186,0,-2.407976074,-17.1249307,20.41490528,58.54516601,-11.14324677,-0.554882099,86.7547777,16.51838667,15.48023387,-4.462539501,0,12.67424296,-3.917318819,-7.37E-07,-1809.961999,,,,
559.8399996,2186,0,22.09650462,-44.03006722,-8.503728693,26.70712777,-47.474025,-45.20227844,31.93720159,23.45362799,1.151808072,11.83948178,0,14.92154523,-20.87084401,-7.30E-07,-1578.313718,,,,
559.8479996,2186,0,-8.176932077,-70.31023158,-29.91077697,-18.95961655,-59.72495304,-59.77998519,40.03466299,-6.091594971,-14.72725988,9.571253811,0,-12.94212517,-58.32589827,-7.23E-07,-2173.43206,,,,
559.8559996,2186,0,-40.32312438,-59.28036121,-21.99496059,30.61219464,-68.38545906,-29.36372001,39.70045716,-36.86617191,-62.90704121,-90.35847127,0,-40.93954013,-89.53077283,-7.16E-07,-1370.835661,,,,
559.8639996,2186,0,38.10409775,-29.99181732,14.46824828,17.78392881,-28.31801399,-17.17950681,41.49246245,-7.426768082,-47.28762084,53.36027767,0,-20.03830871,-91.02195688,-7.09E-07,-1964.842683,,,,
559.8719996,2187,0,-13.21282357,-48.02768956,-0.775357157,17.74612549,-33.62469722,-39.28937362,38.72307851,8.847246255,4.350998175,-4.158871098,0,-0.214225657,-49.14918645,-7.02E-07,-1815.531826,,,,
559.8799996,2187,0,3.426853604,-73.08339649,-34.98443347,11.3923462,-78.72339899,-52.87571095,16.99145809,-11.64239438,-48.40439127,-18.41947484,0,-24.05742082,-73.79678062,2.59E-07,-1561.82248,,,,
559.8879996,2187,0,-1.669875029,-73.95177013,-35.96386212,-9.185697925,-70.87016454,-49.42308639,22.79278258,-24.41221201,-43.45934285,-17.58042249,0,-32.8656918,-85.99384092,1.16E-06,-2163.909889,,,,
559.8959996,2187,0,-19.56956695,-51.36750138,-14.057725,31.68769256,-52.53303838,-41.3418629,32.58676779,-29.96370755,-47.98426109,-91.35272558,0,-35.26482111,-79.78977001,8.74E-07,-1383.388566,,,,
559.9039996,2187,0,39.24770405,-22.63735219,16.3588843,23.54113077,-19.28113061,-9.024511858,66.81486715,-17.48349524,-60.54881224,52.01809166,0,-25.52598706,-65.25200561,8.91E-07,-1971.372023,,,,
559.9119996,2187,0,-11.73862402,-33.73308888,3.961518276,30.3565608,-30.6253383,-12.3630733,63.59195066,11.86950705,-8.364931186,-1.378684421,0,11.50421829,-20.54302887,9.40E-07,-1831.348256,,,,
559.9199996,2187,0,17.31368342,-44.91022913,-8.198205198,23.02066746,-50.89274874,-40.85518082,34.77778477,13.71286249,-33.75373181,-3.995270963,0,9.65602286,-44.89447584,8.65E-07,-1590.884101,,,,
559.9279996,2187,0,10.46246819,-39.71655267,-0.072454453,1.420436984,-35.06550244,-35.6419036,42.1872823,-4.282266276,-34.36329646,5.487045433,0,-5.028863529,-53.34076693,9.10E-07,-2198.45006,,,,
559.9359996,2187,0,-16.1088281,-34.70851825,3.237393503,36.12631483,-39.65657936,-31.98614818,33.1036377,-0.886782364,-29.78670972,-58.81941372,0,-2.274698691,-39.44610701,8.66E-07,-1419.874235,,,,
559.9439996,2187,0,22.47156377,-26.71848235,14.56507195,30.1987034,-23.64202361,-14.4260949,53.22130341,-13.07494651,-54.10914362,60.23545668,0,-19.29477643,-54.18348605,8.80E-07,-1991.956951,,,,
559.9519996,2187,0,-32.01539827,-27.94325195,8.790746083,41.81375051,-28.01461475,3.375672523,63.18647265,-20.56049407,-33.10578813,-22.61805977,0,-15.31526316,-34.82543638,8.60E-07,-1836.712945,,,,
559.9599996,2187,0,15.01552322,-28.76747576,3.446837784,24.0302884,-37.70949795,-14.15226431,37.47437908,14.20515994,-37.06238069,0.895085973,0,14.90098341,-21.89132054,8.58E-07,-1598.285146,,,,
559.9679996,2187,0,-8.694192015,-45.85505574,-11.55601352,2.627364145,-42.02467063,-29.62409022,28.39958896,-2.122350502,-24.69153214,13.43884991,0,2.547185006,-27.49663984,8.47E-07,-2214.461229,,,,
559.9759996,2187,0,-59.93902001,-53.51524949,-20.85891349,28.41749043,-63.04730733,-39.66956432,6.41867837,-46.47053183,-57.89542917,-98.24744287,0,-36.83762629,-68.22660952,8.41E-07,-1427.294716,,,,
559.9839996,2187,0,8.819653416,-23.98787918,14.12391957,9.081634232,-19.70941654,-19.47754947,35.58327259,-26.25614976,-72.38156476,31.45647276,0,-29.23287028,-66.91774434,8.33E-07,-2007.716366,,,,
559.9919996,2187,0,-33.37936242,-26.50635915,8.506584955,39.61043462,-18.54202786,-0.473807776,50.57535868,-7.877332604,-20.06602338,-20.10910607,0,-1.964599457,-10.47998166,8.25E-07,-1871.986609,,,,
559.9999996,2187,0,3.20841556,-30.39160973,0.080886253,42.14043181,-34.81886641,-13.6337655,30.90153739,-5.478771678,-42.34092574,-16.47991779,0,1.470785202,-23.34221766,8.17E-07,-1615.765592,,,,
560.0079996,2187,0,31.23986322,-1.878072942,28.83568708,47.13680569,6.011520348,12.09013651,66.6527348,18.7739,-12.14240328,12.44983905,0,19.16232611,-1.96726961,8.10E-07,-2245.701577,,,,
560.0159996,2187,0,5.57925708,-6.817506109,17.69972527,70.6308499,-13.20077182,7.094406859,42.90658193,12.74371288,-13.76785245,-49.60343875,0,17.78256585,2.380122157,8.02E-07,-1491.374277,,,,
560.0239996,2187,0,25.93981892,-24.62259524,0.888695536,-5.64381759,-25.97752816,-33.28236958,16.99736656,-14.01019388,-60.55038246,66.05113633,0,-9.576590769,-39.45054441,7.95E-07,-2051.389526,,,,
560.0319996,2187,0,-26.93286725,-25.08814078,-4.022588807,14.40427007,-27.35963713,-20.6412226,21.49421661,-21.78404988,-23.66952531,-25.25109434,0,-10.19235034,-17.39456967,7.87E-07,-1895.961142,,,,
560.0399996,2187,0,29.18618865,-13.59790619,8.280213744,38.83520611,-19.50888923,-8.590618944,14.70944842,-8.134266263,-42.02508377,-20.98316051,0,0.29445958,-18.28372783,7.80E-07,-1645.057057,,,,
560.0479996,2187,0,33.13894683,-5.875801129,22.35968854,18.21601071,8.266496903,-4.962612677,49.92240018,9.065195299,-34.13631316,16.09188156,0,15.00169547,4.614622307,7.73E-07,-2272.907381,,,,
560.0559996,2187,0,-14.53355414,-16.27021052,5.306090994,49.5836272,-21.66432657,-3.41182283,38.70197314,-8.107536079,-29.20098461,-57.92697076,0,5.876808541,8.977128017,7.65E-07,-1501.89154,,,,
560.0639996,2187,0,22.20972031,-18.3868282,6.60935809,10.63157558,-18.64242475,-17.31957845,24.5024568,-25.75764009,-68.61750283,57.86110121,0,-16.82790287,-26.30230999,7.58E-07,-2055.921784,,,,
560.0719996,2187,0,-19.81266274,-19.79670538,0.625514853,13.97140176,-23.40626658,-21.73343669,17.53534478,-21.15833036,-46.26852001,-19.15302325,0,-8.718388397,-7.409901891,7.51E-07,-1904.854363,,,,
560.0799996,2187,0,22.81061062,-18.21849359,-5.294100613,31.45883873,-39.50691712,-17.78550817,-1.100274243,-10.03971177,-56.90928286,-12.86838947,0,4.652011733,-13.90342032,7.44E-07,-1646.61445,,,,
560.0879996,2187,0,19.65381957,-8.261874467,11.47981477,26.39332325,-10.49384572,-4.268388279,22.94135572,-4.963270438,-47.09649328,15.11368408,0,12.54191723,-0.100233069,7.37E-07,-2267.774825,,,,
560.0959996,2187,0,-5.06303514,0.713581057,16.14687054,56.92184671,-18.24469197,4.712433274,25.88949998,-17.00532601,-47.9455173,-63.78510228,0,7.119585613,-4.710520016,7.30E-07,-1494.201507,,,,
560.1039996,2187,0,40.23767607,-3.083808279,15.21348845,8.542353404,-13.38366809,-13.29793487,21.5821773,-12.20751696,-69.65703509,64.05342949,0,1.763304904,-22.22745579,7.23E-07,-2069.403693,,,,
560.1119996,2187,0,-21.92233969,-27.97252507,-6.857090381,-11.15940374,-29.26629843,-42.2218533,-5.084508112,-14.39416865,-45.53202325,-11.42515498,0,-5.286677646,5.950099062,7.16E-07,-1926.960581,,,,
560.1199996,2187,0,28.1374584,-23.69018121,-7.509279164,1.418652471,-42.13837189,-35.13517802,-8.155031731,-22.98873861,-77.24419948,-21.47006673,0,-15.65428688,-20.34089825,7.09E-07,-1636.505601,,,,
560.1279996,2188,0,47.00716104,-1.561455508,18.62631261,14.8791874,-2.514074119,-3.257680715,31.05936331,-6.808335539,-57.50142806,8.867503005,0,3.420082711,1.776003922,7.02E-07,-2260.770893,,,,
560.1359996,2188,0,24.96057285,8.63307923,25.10079445,48.82498021,-4.101668664,1.058407766,22.80796413,-1.897251485,-29.21580377,-50.2378557,0,13.37899605,25.11831557,-2.59E-07,-1504.41938,,,,
560.1439996,2188,0,59.99952347,-2.515217928,11.51275949,-3.926302448,-18.9169306,-17.37156612,13.0347855,-10.60169521,-62.38303136,79.78725141,0,3.62890083,-9.122750309,-1.16E-06,-2070.497099,,,,
560.1519996,2188,0,-15.95568946,-33.79388828,-19.5835818,-12.71677432,-48.73798059,-41.07083874,-21.66231487,-35.35308146,-71.32867153,-17.04790531,0,-15.32061328,-15.59646571,-8.74E-07,-1923.150872,,,,
560.1599996,2188,0,43.99130629,-10.78236351,3.333788403,15.90066339,-29.64084996,-28.48156801,-10.05068785,-26.62030137,-70.5911221,-22.94223284,0,-11.70735999,-26.26807609,-8.91E-07,-1643.321802,,,,
560.1679996,2188,0,65.42067806,18.07456599,31.2495563,18.9401698,13.6801597,0.507021097,49.61590867,7.51530996,-21.96217173,31.17858951,0,20.19248996,19.53447712,-9.40E-07,-2282.58867,,,,
560.1759996,2188,0,6.495936072,-1.683187015,1.999085671,27.77061078,-26.36141436,-15.72487848,10.4983731,-14.55704972,-45.95089588,-46.25064145,0,0.28524979,22.02226597,-8.65E-07,-1507.999108,,,,
560.1839996,2188,0,42.01738007,-8.84930935,-0.799032928,-11.30833584,-26.73381454,-22.92142954,-2.406847722,-29.9538901,-84.87727292,55.37679002,0,-19.23042426,-14.30022442,-9.10E-07,-2060.013646,,,,
560.1919996,2188,0,-5.194839519,-15.7776849,-2.280388923,2.866903329,-25.04488386,-19.06219327,2.991120435,-30.76323529,-55.89064691,-27.75373757,0,-10.17216822,13.35638058,-8.66E-07,-1926.79635,,,,
560.1999996,2188,0,29.40569374,-21.34250658,-12.17247784,8.076618969,-43.12308075,-30.24424579,-9.012110235,-31.21704898,-71.77502619,-23.94581854,0,-10.24510954,-1.066898622,-8.80E-07,-1635.405507,,,,
560.2079996,2188,0,14.60711949,-28.48143719,-20.61317682,-13.58188805,-40.63404108,-34.52766278,5.817698527,-27.1845305,-59.21996827,3.59039429,0,-12.66121022,-7.84278656,-8.60E-07,-2257.954449,,,,
560.2159996,2188,0,-19.95439852,-19.71223195,-15.33608208,14.0306243,-45.78296522,-27.11852771,-3.314638292,-48.13387401,-88.16956948,-86.56760212,0,-34.8024355,-20.56684889,-8.58E-07,-1472.275629,,,,
560.2239996,2188,0,54.93047602,21.69102486,29.85355611,7.453264342,2.502143116,3.23029629,38.26046882,-27.7859551,-85.15761071,50.04824529,0,-12.43413016,-0.84049325,-8.47E-07,-2029.359627,,,,
560.2319996,2188,0,-10.95947807,-0.341642174,10.06523374,13.59661798,-11.13302174,-13.8940323,20.04070385,-10.63736203,-27.37941729,-6.284940615,0,15.82107682,57.63716684,-8.41E-07,-1925.779643,,,,
560.2399996,2188,0,1.834280317,-30.52878351,-25.25115778,-15.66316589,-51.72905359,-48.18683833,-28.14578651,-34.10805178,-77.58543824,-28.63674963,0,-16.74664705,12.49122418,-8.33E-07,-1627.373215,,,,
560.2479996,2188,0,25.3181546,-2.764414512,2.067568689,-29.26352484,-15.25602676,-19.1720738,18.03709628,-31.21699842,-74.41950918,-10.4647543,0,-15.29615946,1.342069724,-8.25E-07,-2241.895549,,,,
560.2559996,2188,0,5.520506392,9.455232013,15.40860184,11.75159379,-10.38498448,-14.63727652,9.821662662,-22.68334659,-57.81846319,-66.2973538,0,1.359532483,20.13041167,-8.17E-07,-1482.388299,,,,
560.2639996,2188,0,43.97461937,10.2714778,18.30534538,-23.39890494,-4.86476102,-27.02107217,11.19439225,-19.99091829,-69.9830616,60.85630453,0,-9.571307247,10.87767741,-8.10E-07,-2038.915645,,,,
560.2719996,2188,0,-19.23457413,-5.043622837,0.421292875,-22.88132326,-24.71240433,-38.16854131,0.989476756,-25.25420142,-55.48190784,-24.78477958,0,-12.82437039,28.02720032,-8.02E-07,-1915.117332,,,,
560.2799996,2188,0,-2.194357712,-34.86490421,-30.28012607,-37.63405238,-64.2679313,-67.35004439,-40.67324902,-36.6358735,-98.13422045,-38.27431634,0,-22.65096875,-0.46861447,-7.95E-07,-1613.498343,,,,
560.2879996,2188,0,1.971464078,-16.56829603,-11.94098199,-41.39447766,-32.36327427,-34.34129903,-0.164751434,-42.6588485,-98.63049749,-30.63917282,0,-26.86492031,-6.793851095,-7.87E-07,-2227.045613,,,,
560.2959996,2188,0,-15.42065775,12.55833375,7.88482411,22.92603313,-21.55652443,4.881038533,12.83262469,-39.66514772,-87.4254828,-96.22802656,0,-18.02669159,8.119749882,-7.80E-07,-1460.470791,,,,
560.3039996,2188,0,16.1472357,1.959996113,-7.930976636,-15.02434491,-41.71652397,-12.96135446,7.693307477,-34.37466037,-98.95442357,45.8909316,0,-19.53044293,-11.8903695,-7.73E-07,-2019.453886,,,,
560.3119996,2188,0,-28.539771,3.186238045,-13.32809281,-15.23077011,-44.11254134,-24.51737377,9.199319633,-38.09345698,-84.08710653,-39.4983498,0,-11.83679422,-10.57982406,-7.65E-07,-1902.285444,,,,
560.3199996,2188,0,21.02013529,14.39051816,-11.11131559,-6.164138549,-39.34233471,-28.91296911,-6.575655915,-26.09616742,-92.92532043,-33.78171052,0,-3.421764866,-8.157578109,-7.58E-07,-1613.805147,,,,
560.3279996,2188,0,-4.586071894,8.854977495,-24.78089809,-40.69755178,-35.80487159,-35.60746185,-4.954645504,-28.35104347,-79.71349557,-5.855271419,0,-18.22384932,3.193775394,-7.51E-07,-2245.864868,,,,
560.3359996,2188,0,-33.93099957,29.5762412,-20.20869265,-15.55811104,-34.08439973,-28.41073821,-6.127763443,-44.81017819,-92.98151371,-95.65802409,0,-28.64831806,-8.240547724,-7.44E-07,-1466.506413,,,,
560.3439996,2188,0,38.19622411,59.02939741,-4.312031516,-30.9098556,-10.55212708,-6.68999808,26.63356148,-30.51691547,-101.6578276,42.06920701,0,-18.006514,-17.28881671,-7.37E-07,-2015.80685,,,,
560.3519996,2188,0,-19.62587212,47.80656279,-33.7768948,-18.67854242,-34.0461663,-4.770152008,16.35068857,-23.1897586,-71.11945051,-28.73409628,0,-11.14868322,9.444563366,-7.30E-07,-1909.541756,,,,
560.3599996,2188,0,11.26597584,45.12361928,-47.51274685,-8.597481867,-47.74474778,-14.3783105,-27.9454728,-24.86982864,-87.03840187,-42.59300518,0,-10.47677122,-12.83751602,-7.23E-07,-1602.893862,,,,
560.3679996,2188,0,27.35302795,72.17137996,-19.70236627,-13.52056408,-1.028046433,7.461102945,10.0186406,-16.29048632,-61.45226769,-10.21795254,0,-0.595721222,-4.494059688,-7.16E-07,-2229.5419,,,,
560.3759996,2188,0,-3.606210064,76.18752652,-25.22822225,13.90883502,-13.47920199,9.154730071,20.55542248,-12.26823467,-59.64302734,-75.9572205,0,-6.213963896,9.859147478,-7.09E-07,-1466.23016,,,,
560.3839996,2189,0,34.6259472,68.41069028,-30.64165769,-25.97210272,-15.28958159,2.200766186,7.675034806,-10.75888254,-73.66777402,44.99568079,0,-17.97108747,-19.70188099,-7.02E-07,-2011.578484,,,,
560.3919996,2189,0,-30.68692909,47.87452616,-47.3132455,-32.02082329,-24.26136523,-1.602144531,-14.59011973,-18.95600211,-42.88618715,-42.98495133,0,-14.53120614,-8.32707219,2.59E-07,-1898.427204,,,,
560.3999996,2189,0,-8.494464477,33.72041891,-62.31075816,-32.15551727,-48.24496624,-17.55553207,-33.93156248,-26.56103969,-79.46883271,-55.9402712,0,-20.34421887,-10.87663148,1.16E-06,-1582.623748,,,,
560.4079996,2189,0,11.49044638,60.45113253,-28.97619035,-31.62862357,-6.950939408,4.631585003,15.95845056,-15.09259964,-68.38418096,-19.25990928,0,-14.47536987,0.396244483,8.74E-07,-2210.846814,,,,
560.4159996,2189,0,-12.14451547,59.35869563,-28.48482031,-5.659654443,-13.7997151,5.995578414,2.794347397,-5.411598435,-48.49330406,-78.65772209,0,-5.256307661,15.61812448,8.91E-07,-1451.280302,,,,
560.4239996,2189,0,21.92832901,42.13997428,-38.10438587,-44.712758,-23.82175433,-6.642293975,-20.09012603,-15.14951794,-76.30987219,34.79331313,0,-20.36618553,-9.653251982,9.40E-07,-1987.41562,,,,
560.4319996,2189,0,-29.51870435,36.55233736,-43.95050435,-33.4070908,-25.08084743,-3.710158496,-13.30479532,-22.87619065,-64.24884316,-52.61815785,0,-23.05269714,-13.41907335,8.65E-07,-1876.18896,,,,
560.4399996,2189,0,9.009121023,29.067706,-51.23363911,-26.23094266,-41.09800619,-14.32781871,-23.7869854,-9.725898311,-69.44176181,-42.9899291,0,-12.35184006,-16.39306196,9.10E-07,-1567.085219,,,,
560.4479996,2189,0,22.16440408,48.3675746,-22.5509603,-20.71807854,-7.504608381,12.12376761,10.29806357,0.29918077,-46.58687995,-1.782631721,0,0.193538401,-1.474102499,8.66E-07,-2196.495496,,,,
560.4559996,2189,0,-4.524373028,58.874749,-12.19370888,15.71997866,0.41475085,22.05884724,1.037821482,1.881195958,-41.70170826,-69.20464603,0,3.4467629,10.22186299,8.80E-07,-1426.660271,,,,
560.4639996,2189,0,14.12850646,27.16530657,-36.16968384,-45.35400139,-20.70236995,-16.72127832,-30.20822878,-9.422800308,-65.54274198,45.38181465,0,-19.7049119,0.1328551,8.60E-07,-1962.559995,,,,
560.4719996,2189,0,-58.1400607,0.096181809,-64.09368513,-50.04305151,-49.5540054,-25.79612005,-32.81083813,-44.86399702,-67.05594879,-61.80876443,0,-41.68905013,-15.10534942,8.58E-07,-1843.184964,,,,
560.4799996,2189,0,2.137410226,13.96661915,-51.77758722,-20.91479386,-41.63698695,-1.859701559,-20.8456722,-26.73830942,-69.74540329,-60.83551631,0,-25.82025813,-19.41799241,8.47E-07,-1513.803843,,,,
560.4879996,2189,0,2.754918982,4.800485024,-50.70265548,-46.17196434,-33.26945808,-10.73079786,-19.12258719,-6.768171551,-40.11775704,-12.12649664,0,-17.03933913,5.563613018,8.41E-07,-2156.474766,,,,
560.4959996,2189,0,-39.93932901,0.380334943,-57.63597602,-31.53365735,-52.44754895,-23.16382517,-48.13906858,-44.64814986,-72.99939761,-104.8956487,0,-41.38148821,-28.10647795,8.33E-07,-1375.332824,,,,
560.5039996,2189,0,49.94391609,43.92842482,-9.763517087,-27.50365465,0.543604924,16.93702044,1.674252702,-11.57662841,-59.4533634,34.28251263,0,-12.85987686,-14.52232662,8.25E-07,-1911.072035,,,,
560.5119996,2189,0,-4.3191313,24.52098365,-27.41754599,-22.9875189,-12.14669268,10.00718862,6.095305925,22.3589958,2.064461261,-10.51551852,0,16.64695279,35.25272191,8.17E-07,-1839.089816,,,,
560.5199996,2189,0,-0.779387272,-11.15956617,-61.8898247,-46.2569248,-54.54713832,-32.59656633,-53.92234116,-12.92620115,-51.74092938,-37.63903854,0,-17.22855334,-14.76357272,8.10E-07,-1500.931669,,,,
560.5279996,2189,0,14.98766369,9.579487379,-33.94105858,-46.03707917,-16.07069115,-11.21085145,-20.19193483,-19.99714982,-45.92559271,-22.93219039,0,-29.67577185,-10.40081632,8.02E-07,-2124.875091,,,,
560.5359996,2189,0,1.260344545,38.8223432,-14.03116844,9.615273358,-5.652337638,20.61188342,7.354655853,2.475285629,-22.21391716,-72.92359549,0,-5.983787505,16.04702015,7.95E-07,-1370.252925,,,,
560.5439996,2189,0,59.07719199,49.39245687,1.595144034,-14.17833718,12.8434062,21.98102822,22.18172242,24.08145929,-18.03342872,75.64001212,0,20.23414587,22.24068319,7.87E-07,-1921.885515,,,,
560.5519996,2189,0,5.182483132,30.61978339,-8.538883431,-6.512515413,8.046739524,13.1411007,13.96787185,19.6705377,9.088165374,0.102921056,0,16.04264987,44.71921076,7.80E-07,-1847.382183,,,,
560.5599996,2189,0,45.5659977,34.54590953,-6.430572473,17.16762105,-4.028704486,23.36380789,2.995032653,20.85037384,-14.21892423,-7.117161082,0,11.66192253,24.72685977,7.73E-07,-1515.136943,,,,
560.5679996,2189,0,56.94166304,44.16890908,9.929038402,15.85801515,18.10527153,41.18945833,33.01991187,36.44083797,11.65389527,37.68147284,0,35.48240437,40.5444335,7.65E-07,-2163.827084,,,,
560.5759996,2189,0,10.27887948,24.27731561,-7.189753732,31.08628137,-2.019848816,24.25568212,2.365006667,24.65344633,1.003663851,-41.81998651,0,23.7398087,31.21163748,7.58E-07,-1405.396336,,,,
560.5839996,2189,0,46.22284076,8.743259479,-15.35798325,-16.58368944,-9.750309878,8.463644838,-7.612087499,8.700882216,-37.67907127,55.7426487,0,1.004659485,-2.953964451,7.51E-07,-1924.386822,,,,
560.5919996,2189,0,-16.44043955,-10.2981306,-31.5968846,-16.99604263,-26.78809451,-4.601145187,-16.02050837,-6.355687241,-21.9356052,-30.35957253,0,-3.653205887,17.34609977,7.44E-07,-1839.349931,,,,
560.5999996,2189,0,22.55642402,-2.675248233,-22.42209174,-4.151148112,-24.88853169,-6.866359041,-29.85592954,-0.212111583,-36.00818336,-24.14263452,0,-0.467953637,16.45329929,7.37E-07,-1500.796505,,,,
560.6079996,2189,0,46.5239179,20.06857837,9.390459657,-7.990211793,13.84188176,23.18811007,25.74913741,21.77930046,0.78660779,20.43714985,0,21.50920827,38.20430421,7.30E-07,-2148.798755,,,,
560.6159996,2189,0,4.442430697,6.335673126,-5.50794896,9.508216965,-8.760594704,12.40415749,18.15881772,11.38283003,-2.824638584,-63.71289678,0,9.74196692,39.39710876,7.23E-07,-1393.800476,,,,
560.6239996,2189,0,29.23401789,-15.51793434,-20.13915414,-39.73198259,-19.20494871,-12.5761497,-15.28052736,-9.036431876,-43.39983745,37.94229136,0,-15.02451953,12.75693243,7.16E-07,-1902.442055,,,,
560.6319996,2189,0,-28.10663195,-32.90761369,-37.54661659,-36.35232416,-37.22149341,-21.80569111,-36.43344399,-19.50553287,-30.91200337,-48.25062532,0,-17.058787,11.47143381,7.09E-07,-1807.14964,,,,
560.6399996,2190,0,19.29035882,-24.27101692,-38.96291779,-12.0886296,-47.70279997,-21.14333896,-36.76713587,-13.4382754,-61.50936954,-50.73268504,0,-23.01756809,-16.9987489,7.02E-07,-1458.916982,,,,
560.6479996,2190,0,28.49234581,-10.09493117,-20.70238954,-23.85957082,-14.88879922,-3.626461075,-6.49537509,-3.825646503,-34.88613625,-4.571538528,0,-7.104020807,8.318587091,-2.59E-07,-2103.836381,,,,
560.6559996,2190,0,-22.50769502,-25.85222581,-36.68402962,-26.20117976,-33.58477451,-24.93917093,-42.47686112,-18.79838753,-33.26293674,-82.40438132,0,-15.89223929,19.55546309,-1.16E-06,-1332.067628,,,,
560.6639996,2190,0,31.82165253,-20.15178856,-33.11510666,-50.58617044,-25.90784817,-29.71240464,-35.66573199,-22.5878838,-62.93915444,23.59408065,0,-35.32357333,-9.005648629,-8.74E-07,-1833.955475,,,,
560.6719996,2190,0,-6.490021966,-18.94656716,-37.3734862,-20.67425244,-26.23935827,-15.31714349,-24.2518243,-5.130304646,-16.57339049,-47.85431936,0,-8.753562705,15.40802292,-8.91E-07,-1766.314788,,,,
560.6799996,2190,0,21.37128733,-28.87683459,-47.98617866,-13.18919713,-40.8676537,-21.13696885,-44.17414255,-0.870937383,-38.01563179,-45.60796567,0,-3.798956646,3.343670205,-9.40E-07,-1419.430936,,,,
560.6879996,2190,0,35.27528999,-14.03700913,-27.54216007,-15.73094471,-11.36026949,-1.561856551,3.051160142,-5.911178139,-35.15420399,-9.744153155,0,-6.630080201,10.60313127,-8.65E-07,-2061.431126,,,,
560.6959996,2190,0,0.961611974,-13.10469713,-28.74164293,11.61884952,-26.57682372,-1.468095991,-12.02688676,-11.44222399,-24.48287612,-79.72140546,0,-6.010011013,24.52215457,-9.10E-07,-1305.680129,,,,
560.7039996,2190,0,40.3120056,-14.67162866,-20.60684909,-19.60026111,-13.44591823,1.174069379,-25.49139916,-11.3932438,-43.31676111,45.70023325,0,-8.561124891,0.782936243,-8.66E-07,-1818.130217,,,,
560.7119996,2190,0,-6.658656804,-22.04696772,-27.86030507,-4.01862662,-15.09195,9.130366697,-11.45187749,-4.032260063,-15.10951066,-27.57348197,0,-0.29351069,21.67754862,-8.80E-07,-1761.686006,,,,
560.7199996,2190,0,22.21433587,-33.86824773,-41.66185587,-7.191089561,-40.40929681,-16.62424358,-41.05957184,-1.429474558,-33.892338,-38.86196221,0,-4.685797358,15.97009539,-8.60E-07,-1414.729304,,,,
560.7279996,2190,0,25.34746485,-26.84366625,-22.24116063,-27.75495175,-12.78293838,-12.55013626,-20.83948501,-5.989066289,-28.45633052,-3.088875722,0,-0.856737676,7.646577832,-8.58E-07,-2052.872191,,,,
560.7359996,2190,0,-2.744779018,-28.08138709,-26.30913745,-3.400470936,-29.8179884,-10.9761643,-20.38061718,-15.22967219,-31.7758509,-68.61695736,0,-9.797725955,11.82395238,-8.47E-07,-1293.508915,,,,
560.7439996,2190,0,38.51765276,-33.72113089,-26.77631717,-37.75489108,-32.14492128,-21.98734249,-30.76262509,-25.54019413,-55.19057411,47.73558653,0,-27.58241782,-1.153876868,-8.41E-07,-1795.377272,,,,
560.7519996,2190,0,-23.21815655,-49.96320203,-33.33618168,-34.70233365,-35.571896,-26.36999289,-28.39281835,-31.60242953,-36.79535723,-37.2245775,0,-23.66445894,2.990593314,-8.33E-07,-1724.012686,,,,
560.7599996,2190,0,20.43758538,-52.7755095,-35.83082639,-28.89471443,-44.16706493,-34.70848956,-29.96320045,-22.33447578,-54.21102248,-43.91505917,0,-19.39615898,-7.282812367,-8.25E-07,-1365.960806,,,,
560.7679996,2190,0,29.14906599,-40.02665604,-17.58743118,-33.93179507,-14.02079812,-20.76733898,-7.740277218,-16.92316083,-26.7516153,-1.466465817,0,-13.46073301,7.346834356,-8.17E-07,-2010.462855,,,,
560.7759996,2190,0,-5.510258332,-37.91567073,-15.44108041,7.432431855,-19.64684915,-3.394323567,-20.00042693,-25.25375375,-20.79765442,-74.38586328,0,-18.19962286,13.25261423,-8.10E-07,-1247.484793,,,,
560.7839996,2190,0,62.39946509,-14.4396234,5.556858662,4.078230768,4.538724661,23.78264108,4.626253119,-15.90651318,-43.0730088,45.25109608,0,-13.13077655,11.54166653,-8.02E-07,-1752.711735,,,,
560.7919996,2190,0,7.7846488,-21.94554373,-6.453557257,4.953574369,-5.059253909,11.85107513,3.767914471,-2.23320055,-6.947721684,-17.22629025,0,8.533752844,47.21889187,-7.95E-07,-1710.610049,,,,
560.7999996,2190,0,35.71354331,-41.711852,-24.83290145,-3.885372904,-32.79606235,-18.1545429,-27.65021304,-3.647596768,-21.94447382,-19.69879182,0,4.827802417,24.50268719,-7.87E-07,-1359.69297,,,,
560.8079996,2190,0,50.74059171,-18.25356062,5.124020397,6.309415091,4.636327423,10.47305028,18.91190276,-11.66846338,-21.58140721,11.19835087,0,-2.250861794,4.074678922,-7.80E-07,-2003.9622,,,,
560.8159996,2190,0,0.666473013,-22.4378001,-2.725729496,26.54305773,-11.03575666,3.445265685,-1.980571142,-10.77699688,-20.40191607,-51.29943347,0,-1.22016808,19.18831402,-7.73E-07,-1248.493635,,,,
560.8239996,2190,0,43.49493637,-33.48791478,-9.918855369,-24.11713063,-11.34744942,-16.74994929,-25.15840888,-7.905942887,-32.53914776,70.77692457,0,-2.896655918,21.5785209,-7.65E-07,-1751.206334,,,,
560.8319996,2190,0,5.597108573,-28.78828987,-0.90169165,-13.41374184,0.090146027,-10.45684455,-1.185003586,-19.80388297,-10.31255257,-17.11929534,0,-0.506123393,42.79637555,-7.58E-07,-1700.795733,,,,
560.8399996,2190,0,40.74739841,-34.4905894,-7.227476737,-5.314688142,-16.01447995,-16.3129357,-9.399581682,-8.713114548,-27.28174538,-15.44735465,0,5.835328929,41.88218923,-7.51E-07,-1343.51615,,,,
560.8479996,2190,0,40.74197834,-38.76147271,-5.962759917,-19.52435158,-4.875248104,-7.561612321,-2.11484652,2.617320372,-15.0919648,32.08450965,0,10.89219898,33.96962951,-7.44E-07,-1994.103788,,,,
560.8559996,2190,0,-24.94009892,-57.07279455,-26.60832227,-6.525482019,-37.52320302,-25.37172984,-29.6757686,-35.96484448,-37.49119777,-62.94660416,0,-17.28279796,3.779178409,-7.37E-07,-1224.036376,,,,
560.8639996,2190,0,8.956961543,-59.67966801,-29.79105544,-38.05127509,-41.12508537,-37.46723986,-33.32937062,-56.75103965,-68.36088452,30.58271153,0,-38.50104709,-30.44384403,-7.30E-07,-1709.418187,,,,
560.8719996,2190,0,-23.13544158,-51.5283651,-19.98685182,-14.95586716,-24.79674709,-20.40029121,-17.36233717,-38.53848831,-35.41836396,-41.91469787,0,-16.8220639,2.705937955,-7.23E-07,-1669.687758,,,,
560.8799996,2190,0,10.40695176,-55.08818872,-26.66240837,-2.085400528,-38.36370841,-23.49477347,-33.96416782,-26.66516469,-43.93853843,-37.41164531,0,-8.549591228,15.72028285,-7.16E-07,-1300.03168,,,,
560.8879996,2190,0,11.71851332,-44.21775802,-13.97769485,-13.03535444,-17.76039522,-14.09601145,-15.51946608,-22.35871447,-29.28430902,1.622157797,0,-9.478843606,22.75884212,-7.09E-07,-1939.691831,,,,
560.8959996,2191,0,-38.98876778,-51.14643484,-23.68221738,-2.487460428,-33.93357996,-23.43821541,-35.20857438,-46.27109145,-69.30496061,-80.58386025,0,-27.48493396,-0.598791422,-7.02E-07,-1176.654473,,,,
560.9039996,2191,0,15.69352489,-48.93485258,-21.13358742,-26.69767892,-28.77910974,-23.86459748,-19.8848317,-52.68318259,-81.22257257,33.83642711,0,-33.31530276,-25.47111455,2.59E-07,-1670.45995,,,,
560.9119996,2191,0,-12.53727857,-42.64353986,-12.34967581,1.863722394,-17.23789642,-6.949454759,9.743986939,-23.79779781,-8.99156798,-32.26765881,0,-5.866652447,19.43971113,1.16E-06,-1644.8935,,,,
560.9199996,2191,0,13.23266488,-57.65473567,-25.3231903,-13.68231459,-35.58768162,-28.22678099,-37.96664432,-21.51836465,-48.66965851,-34.94432728,0,-9.542613975,6.649150873,8.74E-07,-1277.28964,,,,
560.9279996,2191,0,32.55616818,-43.94179842,-3.447763485,-36.98591794,-0.321097442,-20.29117844,-22.10921344,-23.42726552,-34.72228009,4.396452572,0,-11.90373512,16.80421986,8.91E-07,-1927.322206,,,,
560.9359996,2191,0,3.583148413,-36.26776321,-0.745733945,-9.733488097,-8.836983312,-15.65790012,-3.624364272,-29.04650983,-16.89296974,-70.17001107,0,-21.3650242,32.51945476,9.40E-07,-1176.824827,,,,
560.9439996,2191,0,47.52992922,-41.29668046,-5.775787385,-52.2145999,-18.89461454,-27.8803186,-13.63846331,-28.88757227,-40.01969412,51.92527759,0,-26.71818145,3.129889654,8.65E-07,-1678.205526,,,,
560.9519996,2191,0,-6.819411509,-56.90403211,-17.97794051,-42.64596449,-28.51840852,-28.17372447,-20.8038115,-25.38886279,-18.24476489,-25.53802982,0,-10.85865861,9.418171581,9.10E-07,-1649.458402,,,,
560.9599996,2191,0,21.57193042,-61.05845586,-28.11431652,-31.73949361,-43.7092476,-36.35562669,-25.6601969,-34.51318644,-50.07577625,-46.23841281,0,-18.14310246,-6.695622385,8.66E-07,-1261.760508,,,,
560.9679996,2191,0,51.19346869,-29.57908284,7.036101167,-31.63881416,2.071424723,-13.9328687,-7.972086066,-23.92431122,-16.91343257,5.124571435,0,-10.13121287,13.22008635,8.80E-07,-1918.265695,,,,
560.9759996,2191,0,9.667436807,-33.09352656,-0.117591344,6.137021402,-16.23543091,-12.453553,-32.4758847,-25.14963536,-10.51008979,-59.23256655,0,-12.6021246,16.00358831,8.60E-07,-1171.039328,,,,
560.9839996,2191,0,36.96715772,-48.14740939,-17.12541922,-34.28832321,-29.97848925,-34.55388032,-27.37927528,-36.80656143,-39.51109928,45.60520638,0,-24.80134069,-15.16771181,8.58E-07,-1652.250825,,,,
560.9919996,2191,0,-10.01824955,-44.883665,-12.69775188,-25.75197539,-20.67955886,-28.47154104,-19.85514999,-34.92200612,-17.66632816,-36.27279059,0,-17.09984564,5.992272165,8.47E-07,-1622.64487,,,,
560.9999996,2191,0,35.50176626,-32.18834481,-6.085786286,1.877267633,-25.79307834,-12.0697796,-25.22873379,-18.92863762,-53.44789181,-34.90596403,0,-8.116140448,9.478066666,8.41E-07,-1247.255216,,,,
561.0079996,2191,0,49.95603633,-17.37660619,8.488954166,-2.434479043,0.479318833,6.880448083,7.513476801,-12.44052558,-20.65088441,20.53708693,0,8.887926875,17.27127871,8.33E-07,-1911.328482,,,,
561.0159996,2191,0,3.954878892,-19.61578378,2.577463694,16.00725255,-11.24495104,-4.582387948,-7.131750308,-24.57133312,-9.530908271,-51.78418487,0,6.010127893,9.497268665,8.25E-07,-1164.051961,,,,
561.0239996,2191,0,50.81794766,-21.21599021,3.377583659,-22.17713952,-10.01698351,-11.55069961,-3.270398974,-14.8714208,-34.49035442,64.46501956,0,-0.256259704,2.285771076,8.17E-07,-1650.576714,,,,
561.0319996,2191,0,-5.860495471,-37.08026231,-12.43048588,-16.6310902,-25.90535254,-7.642431063,-0.949397696,-18.00613688,-6.295442143,-17.96932533,0,3.220953923,11.77517666,8.10E-07,-1627.11094,,,,
561.0399996,2191,0,28.39143444,-38.77332312,-16.33248942,-6.8725179,-38.87452293,-20.50739055,-17.14145408,-23.62332297,-33.48607595,-31.48955595,0,-3.315086353,-11.74647452,8.02E-07,-1237.544666,,,,
561.0479996,2191,0,58.14262587,-16.63759756,13.24108506,-23.60113246,5.31338598,-5.580444115,6.412439043,-9.855427266,-8.365643687,21.45308706,0,1.332569167,14.69750185,7.95E-07,-1897.992993,,,,
561.0559996,2191,0,15.00154842,-19.22811798,7.748384149,0.941685963,-6.923184525,-7.953024206,-9.317456433,-19.41462679,-20.18883571,-54.21568975,0,1.048669699,26.51751153,7.87E-07,-1156.015573,,,,
561.0639996,2191,0,53.79204495,-27.14066365,1.065718657,-25.34566969,-9.707245034,-20.92084939,-6.169251627,-29.68167379,-51.46570753,55.43033479,0,-12.76344936,8.859385193,7.80E-07,-1641.171997,,,,
561.0719996,2191,0,-6.165516267,-44.37788406,-16.69104373,-27.75823027,-21.95623165,-17.18880746,-3.175899353,-31.04558716,-9.539139499,-24.54578491,0,-14.73344509,17.8100638,7.73E-07,-1623.718434,,,,
561.0799996,2191,0,8.77956497,-58.31735373,-33.51499754,-32.09796761,-48.46811275,-33.24882641,-20.20616437,-35.56017118,-42.61174464,-42.5652319,0,-16.64176717,-6.829454829,7.65E-07,-1224.007684,,,,
561.0879996,2191,0,25.86459781,-42.66311417,-10.88411824,-46.10331784,-15.16665097,-31.37016608,-1.83616478,-45.09288445,-41.16587895,-4.880250069,0,-24.98427448,-0.742478948,7.58E-07,-1867.543233,,,,
561.0959996,2191,0,-8.101911314,-39.10149251,-13.4901619,-17.72963497,-26.0375435,-30.45533678,-28.80863176,-50.56047223,-41.43677747,-78.84392975,0,-29.39386995,2.635665542,7.51E-07,-1118.954599,,,,
561.1039996,2191,0,42.433566,-42.8144705,-19.45902545,-41.16815238,-31.27655797,-27.49662243,-29.285115,-47.14492503,-63.71699189,35.20467254,0,-33.12230229,-19.83894588,7.44E-07,-1597.361222,,,,
561.1119996,2191,0,1.952207039,-40.56334071,-17.17695029,-31.43809735,-26.08621999,-24.4459669,-17.72968585,-44.99358462,-36.36259301,-45.0454789,0,-27.59091973,1.810472709,7.37E-07,-1579.273725,,,,
561.1199996,2191,0,27.58017102,-40.19031133,-19.13002958,-31.18100423,-36.75113559,-45.40487579,-33.06980075,-30.0681357,-49.96324519,-41.86064645,0,-14.15919326,4.703945693,7.30E-07,-1188.139803,,,,
561.1279996,2191,0,38.52908994,-34.19842713,-6.192837003,-50.50285136,-14.87904931,-36.61339452,-3.716387356,-24.94805165,-25.17907359,10.95481161,0,-9.012380578,4.456160962,7.23E-07,-1845.327629,,,,
561.1359996,2191,0,-2.954585181,-35.88185756,-11.99551269,-26.85432293,-31.08631481,-41.54407141,-18.17115607,-39.48035943,-31.15115908,-75.19524029,0,-24.96260121,-6.503003289,7.16E-07,-1087.578986,,,,
561.1439996,2191,0,43.13709313,-32.6574881,-10.35626026,-46.84594688,-27.67178041,-42.0589198,-25.79612186,-36.61475832,-57.40664949,40.54593897,0,-30.94375238,-12.82441419,7.09E-07,-1560.194631,,,,
561.1519996,2192,0,-0.176449966,-37.40940296,-15.03108265,-39.33171491,-25.87133009,-35.07520304,-31.43952062,-30.34324697,-23.01386846,-27.55509258,0,-15.90959862,14.60115374,7.02E-07,-1553.963361,,,,
561.1599996,2192,0,14.45953479,-53.24177623,-33.94859222,-44.87130487,-54.54523618,-56.96447781,-59.40662033,-37.12692752,-56.33773165,-41.90202327,0,-26.76417571,-16.76995047,-2.59E-07,-1144.506511,,,,
561.1679996,2192,0,26.28299729,-34.79126359,-9.345954783,-33.61517182,-22.2515236,-25.84335606,-9.975714803,-43.71870398,-60.2982059,-2.891186891,0,-31.43376227,-22.01630442,-1.16E-06,-1793.0056,,,,
561.1759996,2192,0,12.67993156,-7.200949044,16.67688941,18.76821657,-0.171807734,-2.474229205,9.207802312,-43.25120567,-45.25218844,-73.66327218,0,-24.16374874,7.361373298,-8.74E-07,-1043.875507,,,,
561.1839996,2192,0,66.52699288,-2.192378672,17.64968208,-27.22900497,2.428279529,-12.03673845,6.440582996,-22.75417941,-36.21503308,59.21107853,0,-11.17488463,26.6837589,-8.91E-07,-1524.413523,,,,
561.1919996,2192,0,3.922736643,-17.59367061,-2.231359339,-34.18241631,-17.00368162,-18.92324311,1.814000043,-20.30381224,-12.64385644,-16.05584491,0,2.827986829,28.81543218,-9.40E-07,-1529.663791,,,,
561.1999996,2192,0,31.64786177,-17.65929514,-4.48697364,-18.05629674,-26.81997926,-28.66435771,-17.0359648,-21.06148855,-53.63005694,-29.81057945,0,-7.640091006,-4.065861732,-8.65E-07,-1121.319999,,,,
561.2079996,2192,0,50.01772081,-0.687479568,16.74232173,-27.57899195,5.651887866,-11.10569689,3.808300511,-4.607427779,-27.26215617,34.06827404,0,4.312720344,37.25340281,-9.10E-07,-1789.290568,,,,
561.2159996,2192,0,-3.193441607,-8.592356395,5.115239711,-7.205893194,-14.18041711,-20.06842587,-17.11604128,-23.61570667,-30.88663557,-53.21001623,0,-5.164708552,22.62415683,-8.66E-07,-1043.772598,,,,
561.2239996,2192,0,31.04697311,-18.979883,-3.91326533,-37.85964021,-24.28843726,-29.44177733,-21.47762533,-34.11274211,-78.48674395,46.74169803,0,-25.3939632,-22.47515781,-8.80E-07,-1501.972512,,,,
561.2319996,2192,0,-28.89406515,-36.51809276,-22.01098419,-38.21837495,-38.40595805,-32.77071899,-25.10543907,-35.66497135,-52.52466202,-31.73615497,0,-11.07069318,12.26314347,-8.60E-07,-1501.502525,,,,
561.2399996,2192,0,-0.000221708,-36.66903346,-26.79763546,-28.1097768,-46.89844806,-41.84457503,-41.10737991,-40.84412499,-75.89794198,-56.54681982,0,-20.37313775,-11.07490783,-8.58E-07,-1078.633201,,,,
561.2479996,2192,0,20.98888697,-16.10964855,-4.799982285,-28.69006287,-12.75653277,-15.21681839,3.954846335,-35.79291613,-69.28388537,-1.262188877,0,-23.67723382,-1.620823532,-8.47E-07,-1734.937253,,,,
561.2559996,2192,0,-31.85424981,-25.30337819,-18.5958296,-9.479298621,-36.09688424,-30.23844614,-15.42965289,-53.89408852,-76.98657223,-79.82316023,0,-25.88820151,-3.941105705,-8.41E-07,-991.2072491,,,,
561.2639996,2192,0,24.75775831,-17.56569301,-7.2287866,-35.98495808,-20.77225711,-37.1437528,-28.66979334,-48.75235091,-87.4090549,27.15604707,0,-30.82570874,-24.52425727,-8.33E-07,-1455.446801,,,,
561.2719996,2192,0,-14.66009385,-19.41187797,-8.05383373,-31.12872453,-16.19545793,-29.06659393,-11.72035622,-36.73757914,-40.42818136,-35.5546479,0,-17.37327773,27.0295415,-8.25E-07,-1466.440893,,,,
561.2799996,2192,0,-5.601514816,-36.20114884,-29.76003036,-42.4483553,-55.14630158,-56.96214071,-25.78220709,-43.63186439,-82.73809306,-52.47459385,0,-22.74632245,-0.536438628,-8.17E-07,-1045.618691,,,,
561.2879996,2192,0,18.12818211,-4.450255896,5.273534787,-39.13007042,-11.51417193,-26.55994292,5.330266118,-27.70488626,-68.41274758,-0.057229619,0,-18.31170186,-1.444632956,-8.10E-07,-1712.198773,,,,
561.2959996,2192,0,-2.527013491,22.79378005,25.73477254,0.386197225,6.945683865,-11.69156001,2.370128497,-28.53156482,-58.2450483,-64.48436199,0,-16.52334481,25.75505015,-8.02E-07,-972.8946269,,,,
561.3039996,2192,0,47.28494229,28.0715181,20.45540776,-36.57707504,0.778556011,-23.00260594,2.750184468,-25.05176218,-78.26423401,58.73238472,0,-7.896733021,9.031371188,-7.95E-07,-1441.745798,,,,
561.3119996,2192,0,2.995496563,29.19318576,4.680648956,-18.39932866,-9.450865843,-5.438745353,2.909878893,-3.236287662,-29.82374352,1.982791582,0,15.29696069,30.52542108,-7.87E-07,-1468.112493,,,,
561.3199996,2192,0,37.30449433,39.7113541,-0.376489186,-3.824007096,-15.52365271,-12.09694147,-30.5019672,-3.626807371,-61.56831219,-12.68752852,0,5.038954412,6.3424723,-7.80E-07,-1044.830474,,,,
561.3279996,2192,0,52.24472871,57.51881394,6.023401533,-17.00476163,7.189653617,5.470103905,1.01481991,1.303111646,-41.79424692,39.65101028,0,9.73142301,8.9284561,-7.73E-07,-1719.995614,,,,
561.3359996,2192,0,1.085309838,58.60249327,-14.17697417,11.43302953,-13.41705084,10.33146604,-6.31890219,-7.903998326,-42.23944722,-43.30336682,0,1.375845272,5.156230263,-7.65E-07,-977.8131548,,,,
561.3439996,2192,0,54.93579842,71.54348211,-7.243813607,-16.42733365,2.71423776,-1.469033651,-10.68817894,-8.795919286,-82.25970325,56.79848494,0,-9.135689644,-16.78341711,-7.58E-07,-1430.350062,,,,
561.3519996,2192,0,2.679570418,48.84201736,-37.34772649,-30.75414375,-15.27261805,-14.51077271,-17.55006358,-3.199866258,-28.06584468,-9.478710786,0,5.447704569,28.40683369,-7.51E-07,-1462.940005,,,,
561.3599996,2192,0,13.07264335,25.81687048,-69.5479462,-49.7877964,-48.12679756,-43.76290585,-60.33073449,-26.69569796,-59.125725,-43.95560948,0,-18.10928556,-6.454196023,-7.44E-07,-1026.018648,,,,
561.3679996,2192,0,40.27191209,62.62056262,-29.40572255,-46.80945183,5.28152597,-9.572637031,-23.75646419,-18.76071102,-61.40896281,-0.817809731,0,-20.82145071,-12.43434016,-7.37E-07,-1686.225582,,,,
561.3759996,2192,0,-8.347682596,60.75995707,-38.3162197,-26.35913151,-15.627076,-5.873039968,-39.82514851,-17.38418002,-42.55047538,-66.76154442,0,-14.65818845,9.070680118,-7.30E-07,-951.9106005,,,,
561.3839996,2192,0,22.38866727,40.89739451,-57.51479366,-86.13182355,-36.04352284,-32.62322459,-55.02849715,-28.81926467,-65.87012639,34.87820349,0,-27.64906578,-27.18496209,-7.23E-07,-1402.862338,,,,
561.3919996,2192,0,-18.54922973,37.28345909,-58.88822073,-73.77473321,-32.20408436,-24.25812211,-38.49082889,-21.43818414,-39.34090416,-47.27534295,0,-26.52518427,-14.45939466,-7.16E-07,-1419.844805,,,,
561.3999996,2192,0,12.22804604,33.68032624,-62.53662686,-55.45471995,-48.37451337,-28.49307385,-55.64959194,-19.01279007,-57.18999273,-63.06181823,0,-26.50519271,-22.45561468,-7.09E-07,-975.522702,,,,
561.4079996,2193,0,15.99711601,31.5404698,-54.22038228,-74.8220383,-32.41562028,-22.55827604,-29.19497403,-19.35102703,-49.14501965,-2.191293973,0,-24.51507618,-27.52470113,-7.02E-07,-1639.983597,,,,
561.4159996,2193,0,-17.03114368,44.15160434,-37.48253111,-30.41138995,-21.97357605,-10.05676387,-16.46775175,-30.17086699,-49.52255568,-87.5342931,0,-33.57966443,-32.62614789,2.59E-07,-892.4773517,,,,
561.4239996,2193,0,59.14746637,65.17798901,-6.8433062,-35.16018462,9.509006106,2.743651521,-7.938925663,-5.235266803,-36.93418824,44.80077571,0,-12.98283048,-12.88842542,1.16E-06,-1351.832923,,,,
561.4319996,2193,0,1.57317193,33.7929738,-31.86932303,-41.95820833,-9.264163311,-9.204133731,-36.72924448,10.75314453,1.509082424,-4.995686022,0,-1.239402888,31.79104283,8.74E-07,-1394.99879,,,,
561.4399996,2193,0,33.37801092,39.91552678,-28.70447195,-18.48229938,-13.65277413,9.76817628,-41.63204991,-2.398219842,-36.19349332,-47.23131533,0,-18.69116668,-4.423990072,8.91E-07,-942.6979544,,,,
561.4479996,2193,0,61.96128768,66.36579729,3.696910194,-21.73458365,25.06371757,41.9510414,10.29478745,12.45091022,-3.998490591,18.43826215,0,8.301328562,15.7593826,9.40E-07,-1618.868804,,,,
561.4559996,2193,0,-9.738841123,34.15911744,-26.7290341,-26.64586851,-13.62473169,3.067341945,-21.21583945,-6.46443599,-19.35010042,-57.84578064,0,-6.544792765,4.757895914,8.65E-07,-880.6344393,,,,
561.4639996,2193,0,23.00211576,20.36515909,-40.10809277,-67.84607265,-23.38309647,-16.39111685,-33.91187964,-23.98316599,-52.6156493,34.48530344,0,-33.72325044,-44.44211948,9.10E-07,-1305.132761,,,,
561.4719996,2193,0,-20.66692747,9.315826775,-51.04539033,-68.13350785,-30.95811085,-26.6175152,-35.52835124,-13.04087565,-12.88028136,-35.7171058,0,-20.44633106,-0.095559017,8.66E-07,-1327.299111,,,,
561.4799996,2193,0,22.14627206,18.57728423,-37.20054454,-45.98334795,-26.81493857,-22.34326543,-39.27795035,-7.355550588,-46.36398206,-59.66416032,0,-21.79864382,-14.32922407,8.80E-07,-872.8411186,,,,
561.4879996,2193,0,39.33494336,29.79395773,-16.09662086,-59.25940231,5.106847585,-0.561446493,-15.33268966,-1.268026726,-22.29159329,9.274770243,0,-12.60331227,-19.14415272,8.60E-07,-1548.82459,,,,
561.4959996,2193,0,-15.60176703,20.9360295,-32.41335395,-39.31126424,-23.43400953,-9.722162197,-39.27661679,-13.75144559,-18.2676946,-70.87714404,0,-22.91941144,-20.34408074,8.58E-07,-803.8921163,,,,
561.5039996,2193,0,61.05993397,53.64780924,-0.908825199,-28.50070937,5.047489495,19.01044754,0.341298007,5.510460457,-29.92522768,40.43605781,0,-14.82056715,-36.55257307,8.47E-07,-1237.242236,,,,
561.5119996,2193,0,26.2562384,42.37094139,-5.117509293,-12.97972237,8.842833424,20.95070873,8.984353353,29.02176621,27.0469766,-3.930546282,0,19.39683067,20.69522954,8.41E-07,-1297.525959,,,,
561.5199996,2193,0,19.12869622,-0.048935938,-46.79637897,-40.83781951,-35.43622481,-33.03599737,-57.72006316,4.083989231,-14.84194448,-35.89403999,0,-4.255184411,5.304150301,8.33E-07,-842.1888893,,,,
561.5279996,2193,0,22.5178514,15.71341782,-27.69525452,-61.13272621,-1.045501886,-21.48604392,-23.0311939,-16.00170517,-21.54235953,1.374263809,0,-27.07651307,-13.56083051,8.25E-07,-1488.833364,,,,
561.5359996,2193,0,7.071288191,50.93852357,4.38397207,13.68552228,17.82594468,37.31185664,8.855459537,-11.45215456,-2.795303534,-64.74523367,0,-12.68333343,4.68832738,8.17E-07,-745.5728268,,,,
561.5439996,2193,0,69.74912939,51.27925803,9.648846773,-6.983076635,15.61480817,37.47556079,2.697328657,21.58502823,-11.33279416,75.24648908,0,16.98715469,7.686556614,8.10E-07,-1196.370753,,,,
561.5519996,2193,0,-12.02165826,-2.384634432,-36.47043605,-54.66646406,-21.10601915,-28.09379018,-34.05747886,10.2558604,8.880424679,-3.659146132,0,3.206118395,14.34937795,8.02E-07,-1238.533463,,,,
561.5599996,2193,0,7.760608146,-8.834381183,-41.80697755,-44.15562554,-32.28712393,-34.77875867,-57.89711493,-26.13448324,-31.82115682,-57.09622606,0,-36.49059719,-22.79002749,7.95E-07,-749.5034274,,,,
561.5679996,2193,0,43.23411125,16.45029403,-12.32559601,-41.89038257,5.003789275,-3.532527284,-16.84977989,-8.18113014,-11.16834081,22.57116275,0,-17.34577867,1.901075706,7.87E-07,-1420.883639,,,,
561.5759996,2193,0,-18.37924616,-5.709858344,-37.2151301,-30.25932527,-27.54090106,-28.0996146,-51.50218574,-23.49963973,-14.19568434,-54.46487473,0,-29.20688531,-9.277595965,7.80E-07,-687.8105309,,,,
561.5839996,2193,0,52.12039763,16.34227169,-9.321414262,-33.28809275,-1.221444824,-7.941875478,-35.11219925,-23.94312012,-45.74058474,42.24091792,0,-41.64043479,-39.32459673,7.73E-07,-1108.078379,,,,
561.5919996,2193,0,39.31792178,38.19864072,16.28576058,-0.11729754,27.10776709,20.83204786,15.46211612,23.03196192,28.30791603,6.277383636,0,5.971734795,41.8773175,7.65E-07,-1181.446068,,,,
561.5999996,2193,0,49.59282616,24.70137938,-1.383503144,1.80203319,0.562077652,2.341339878,-18.70839497,34.80523148,24.77544458,4.092335091,0,22.02575815,36.61659029,7.58E-07,-735.8182349,,,,
561.6079996,2193,0,46.03407176,17.13929825,-4.478566117,-22.66453166,7.951561543,5.336560547,-18.74225169,22.15819487,9.413426394,61.65466504,0,13.03132695,18.14911402,7.51E-07,-1398.905437,,,,
561.6159996,2193,0,-17.11783183,-3.269110871,-29.21777924,-5.285999943,-26.83937345,-12.23006979,-31.36544407,-19.94043519,-17.7722706,-48.09033034,0,-23.61931081,-5.217899104,7.44E-07,-646.6652353,,,,
561.6239996,2193,0,37.66306486,5.283208423,-18.71023167,-35.31956056,-15.45084181,-17.71897051,-21.64786582,-29.19726411,-45.06005533,43.17376901,0,-38.09691891,-48.58247502,7.37E-07,-1059.651032,,,,
561.6319996,2193,0,-2.523697357,-0.183746653,-17.20436856,-28.73708433,-1.647958111,-3.534767236,-20.61708462,-0.551021453,6.225816208,-3.627445237,0,-5.592094799,9.472153434,7.30E-07,-1117.065121,,,,
561.6399996,2193,0,10.06889693,-9.41159555,-29.1819093,-18.37452574,-21.37392502,-11.23535195,-43.74010358,-5.16998547,-29.72436502,-34.12452099,0,-12.23089818,11.87874732,7.23E-07,-645.5982031,,,,
561.6479996,2193,0,34.05111081,13.77845691,-7.011474042,-34.56140088,6.260267244,-2.699561815,-3.368174649,-5.645177849,-24.13080489,26.07310659,0,-11.9619632,6.13210874,7.16E-07,-1322.834143,,,,
561.6559996,2193,0,-14.24064384,5.110952564,-19.6416484,-17.24783205,-18.35598553,-13.37458468,-19.84353501,-7.555842367,-5.59295297,-42.5044193,0,-12.64658125,-2.31193812,7.09E-07,-598.0029237,,,,
561.6639996,2194,0,26.31723923,0.160629915,-18.69030532,-46.34724764,-17.70722104,-19.88111614,-21.01674586,-11.2506968,-37.77714451,60.28123093,0,-29.79054993,-35.55590441,7.02E-07,-1009.832522,,,,
561.6719996,2194,0,-11.45630427,-5.047845849,-19.82382477,-35.00431945,-8.946917175,-15.1780076,-7.300915397,-1.277431574,0.025521734,-5.530229722,0,-14.99131688,4.243194122,-2.59E-07,-1065.995584,,,,
561.6799996,2194,0,24.02678068,-1.238083387,-20.15523761,-8.811430791,-18.15388595,-13.94734566,-28.52563434,-4.54811356,-10.74355306,-34.30155342,0,-21.9763401,-10.08316907,-1.16E-06,-590.70489,,,,
561.6879996,2194,0,64.62375356,38.7890485,28.36634784,-4.853800585,39.23445832,25.06372384,14.48130494,14.41995312,11.62122394,50.01249891,0,1.017516052,19.51136121,-8.74E-07,-1270.793413,,,,
561.6959996,2194,0,22.37799744,31.50356992,20.69358085,11.39744178,22.43762951,12.19930053,-4.563679561,27.31516914,23.13291073,-5.51809931,0,30.16244657,55.63603576,-8.91E-07,-559.222593,,,,
561.7039996,2194,0,51.0280797,2.401311317,-10.33508243,-25.34768872,-11.09045817,-13.71338757,-33.81732647,-0.061217341,-22.69960724,76.72125393,0,-15.1255656,-7.630038799,-9.40E-07,-971.5435818,,,,
561.7119996,2194,0,14.69523307,3.456112596,-4.474178892,7.121117657,4.726888314,15.68739099,-0.820952506,10.11618552,24.88889057,2.586264211,0,-1.952161949,13.17309578,-8.65E-07,-1031.095037,,,,
561.7199996,2194,0,35.24388415,-0.713011911,-9.820562162,26.08151098,-4.699100479,11.54389721,-7.183579337,30.02708434,17.55002121,-9.41281575,0,28.79581252,20.563415,-9.10E-07,-566.5555181,,,,
561.7279996,2194,0,28.82640273,-12.804957,-18.12980671,-17.11208295,-1.204589206,-2.644623846,-12.78144287,6.251028777,-2.425522781,43.78118982,0,-0.154581701,2.890162009,-8.66E-07,-1234.680868,,,,
561.7359996,2194,0,-4.018424393,-9.878355011,-14.71274969,9.480714634,-7.437677288,1.712506375,-11.90937529,-10.28760321,0.292184329,-50.19367578,0,-7.136269721,5.29798101,-8.80E-07,-494.8862037,,,,
561.7439996,2194,0,46.96255211,-6.814219867,-7.298571017,-10.433726,-4.383404208,5.190690612,-0.354818323,-7.347178275,-31.24931256,57.40738878,0,-7.496348345,-12.35833007,-8.60E-07,-909.4616375,,,,
561.7519996,2194,0,-19.84420338,-35.02849831,-29.22997234,-32.96919455,-18.55618874,-19.33462003,-28.67605741,-7.687668983,-12.60886525,-8.961367599,0,-12.03026731,10.68293532,-8.58E-07,-964.7691723,,,,
561.7599996,2194,0,-1.668341989,-52.30955355,-46.6193157,-44.39912259,-43.36249041,-52.58045938,-62.17523179,-17.51227986,-34.39356877,-53.6738046,0,-24.08600373,-9.209069073,-8.47E-07,-465.8846104,,,,
561.7679996,2194,0,18.37068986,-34.5639319,-24.37508958,-57.80261976,-15.85031098,-34.29240356,-14.56811921,-25.8867317,-38.64208275,0.990656315,0,-40.41891254,-20.97944311,-8.41E-07,-1134.270302,,,,
561.7759996,2194,0,-4.78505713,-6.330224538,-2.171472246,5.223066825,-7.67763534,-3.109813145,0.929871099,-9.578498201,-10.75097907,-65.73423769,0,-22.63637562,-6.328373197,-8.33E-07,-409.3259698,,,,
561.7839996,2194,0,55.92868882,1.648411445,5.897353957,2.280132685,-2.969035973,5.582601319,-5.249711974,13.01793745,-4.915826702,63.89597303,0,7.233893916,-10.0215515,-8.25E-07,-839.1420677,,,,
561.7919996,2194,0,1.570051034,-16.95796223,-3.959451884,-5.773869584,-1.856134935,0.191349944,-10.85219608,8.998721997,21.27371965,3.638202682,0,11.02649994,25.51391732,-8.17E-07,-912.8468336,,,,
561.7999996,2194,0,36.67588833,-5.311397304,6.328678983,23.43112592,3.128797715,6.445067272,-13.00195525,11.76130479,-8.903282104,-29.74005072,0,11.02390875,26.00877207,-8.10E-07,-421.5187538,,,,
561.8079996,2194,0,43.57479775,-3.614907876,8.903881408,6.273572797,10.84027476,11.70484631,-3.323329058,7.988080328,-20.66949024,41.63871998,0,11.88202645,8.53888601,-8.02E-07,-1112.49337,,,,
561.8159996,2194,0,-16.00771843,-19.15721915,-8.004473057,9.899699229,-13.7417078,-2.580126783,-26.43301331,-17.29169212,-19.61488718,-53.3152383,0,-13.40283545,-4.241664485,-7.95E-07,-378.1432453,,,,
561.8239996,2194,0,42.56102906,-11.99002837,4.062659618,-17.20375174,2.008151917,-6.594274932,-12.7151459,-6.862809555,-24.55984307,43.23118787,0,-13.33682486,-11.1822993,-7.87E-07,-786.9654666,,,,
561.8319996,2194,0,-1.043075218,-20.04254003,-0.426292616,-16.53591285,3.1600096,-9.48733275,-6.540856294,6.133842786,10.29080138,-13.06779086,0,3.185755429,21.62800542,-7.80E-07,-881.1571027,,,,
561.8399996,2194,0,33.93291673,-17.94131265,-1.44150464,0.385256024,-7.842047889,-12.68077187,-16.67986184,9.302378783,-10.40956367,-36.03279281,0,2.068894046,9.640470618,-7.73E-07,-390.4880011,,,,
561.8479996,2194,0,45.27034678,-18.99194949,6.159618624,-38.38681287,10.98946417,-18.34336353,-10.12866744,3.788414499,-10.03614208,40.86160475,0,-5.012654589,-13.03975051,-7.65E-07,-1071.723009,,,,
561.8559996,2194,0,-9.509997378,-25.54996587,0.194818178,-31.47432773,2.411599163,-31.08833089,-38.99730892,-18.72514813,-9.758915859,-45.66663885,0,-25.86724906,-3.910243655,-7.58E-07,-335.909648,,,,
561.8639996,2194,0,51.81343598,-16.46587456,5.328603566,-43.58697215,5.044331683,-29.25960265,-28.36943794,-8.126654655,-22.09729268,60.48055675,0,-20.30409775,-5.065984622,-7.51E-07,-735.8238329,,,,
561.8719996,2194,0,8.630866871,-27.13473324,-8.612539323,-39.39178,-12.76661948,-29.1457486,-26.27079503,1.427053934,14.48691621,4.796036081,0,-9.676271941,-0.572749956,-7.44E-07,-826.1818923,,,,
561.8799996,2194,0,39.17460231,-17.4662413,-4.473597077,-13.93309731,-18.41532413,-25.53063519,-39.35695563,-0.365391741,-7.052271341,-28.88812587,0,-17.66085714,-14.10863925,-7.37E-07,-325.7274651,,,,
561.8879996,2194,0,61.04220294,8.742820197,26.95889809,-5.329518844,27.96291247,6.033563044,1.534485984,9.832614953,-2.897144056,54.42940437,0,0.396406652,-2.064160027,-7.30E-07,-1020.508677,,,,
561.8959996,2194,0,7.235936131,6.69795865,22.23665983,28.12923959,20.13262186,15.27559252,-2.79873983,4.621449861,0.955088233,-20.59171206,0,11.80944787,14.85130706,-7.23E-07,-310.7584776,,,,
561.9039996,2194,0,58.29985371,8.437598542,19.22296307,-4.776378389,19.56337712,-0.545089212,-4.831869294,1.868586362,-17.23592717,67.42407924,0,6.405506244,-2.445863018,-7.16E-07,-713.4431194,,,,
561.9119996,2194,0,15.89092602,9.797932236,20.27619194,4.665625338,23.22393825,3.235505751,-1.147654808,18.09772031,28.4840847,11.96818626,0,22.99901899,21.2221526,-7.09E-07,-821.4461949,,,,
561.9199996,2195,0,27.79127117,-2.826722695,7.92410731,18.13804514,-2.702628288,1.247345039,-21.84243448,20.53385531,11.71305677,-13.79171258,0,23.72514285,14.90753743,-7.02E-07,-335.1866789,,,,
561.9279996,2195,0,31.75778803,-14.72578678,3.694351311,-29.93416785,5.172895543,-11.03841323,-7.175249945,-7.662750748,1.61536851,40.70555956,0,-4.517573891,2.700425946,2.59E-07,-1020.94595,,,,
561.9359996,2195,0,-27.01361376,-27.32073934,-14.34816333,-20.81201422,-16.30875546,-24.87692544,-34.27707196,-33.68111807,-14.32278172,-54.6681897,0,-27.14766614,-2.340889149,1.16E-06,-297.279349,,,,
561.9439996,2195,0,31.91717111,-14.1878887,-1.593563604,-30.20178453,-5.058811233,-16.26983059,-33.07959913,-20.72543951,-49.7911237,42.35678634,0,-23.14143662,-29.17946577,8.74E-07,-693.6944135,,,,
561.9519996,2195,0,6.280029823,-4.727383959,13.45723895,-13.35144991,16.99919146,-4.180001429,-7.967012172,7.313222452,2.960547921,-2.317584839,0,5.985367488,7.960783953,8.91E-07,-806.1321227,,,,
561.9599996,2195,0,12.64600827,-23.94039015,-15.43961397,-16.36241784,-20.50396795,-27.6094218,-35.64244951,5.202222645,-7.859281544,-29.56975735,0,4.814999646,2.677092909,9.40E-07,-312.6538968,,,,
561.9679996,2195,0,27.93671541,-14.85661024,-6.7128435,-29.52034618,-9.048944642,-15.22460546,-4.323454444,-13.04223099,-23.38638633,23.75642835,0,-17.05508067,-28.85137055,8.65E-07,-996.3203641,,,,
561.9759996,2195,0,6.949673952,10.1551581,20.59738621,17.89737788,11.18948297,3.617377699,4.23506258,-14.13589392,-0.237910069,-51.28016469,0,-13.45010898,-9.084149395,9.10E-07,-280.0452265,,,,
561.9839996,2195,0,67.11043793,20.15427692,33.47352232,-17.58985166,32.60438966,-6.749774041,-16.6003868,17.0694534,6.510610098,80.25190391,0,13.73993781,20.55518111,8.66E-07,-697.8404127,,,,
561.9919996,2195,0,14.42682576,3.065784534,17.73106869,-14.12846163,23.85223297,-7.094423685,-11.16066912,37.59043455,31.03096806,33.09054236,0,33.41734062,40.88546242,8.80E-07,-824.6746798,,,,
561.9999996,2195,0,23.84470994,-12.44432772,-2.091055576,3.063835924,-7.706496384,-11.75656698,-24.25079507,9.052080576,-6.755346703,-22.03421866,0,9.485956762,-1.293245275,8.60E-07,-309.5081129,,,,
562.0079996,2195,0,56.76555224,17.44468145,32.92040437,-1.380695537,38.32938203,18.99981251,20.44427784,4.686947519,-3.503690213,46.02340096,0,3.698692731,9.530501271,8.58E-07,-1005.019378,,,,
562.0159996,2195,0,23.3483716,38.38808739,48.65268521,56.71418363,48.06191174,43.98089958,44.87651726,29.05091232,20.09232118,-10.82685459,0,27.11707442,36.35838338,8.47E-07,-312.0580143,,,,
562.0239996,2195,0,57.19523164,20.7929332,27.82205119,17.61313024,27.03160367,16.04492561,22.67396783,29.92156938,7.562010455,94.54561208,0,26.48113699,14.88525676,8.41E-07,-720.1505275,,,,
562.0319996,2195,0,3.488978709,-5.450834001,4.003263113,-6.252332827,8.514344216,-7.514610087,0.968634243,20.96954144,34.19787124,26.83134205,0,20.9636893,40.49226274,8.33E-07,-841.5026974,,,,
562.0399996,2195,0,28.02530797,-5.236718819,0.523591783,2.449122398,-5.879034112,-19.7631393,-35.25161592,4.436294072,-6.432328058,-19.20586119,0,4.692086292,7.635379678,8.25E-07,-314.8813874,,,,
562.0479996,2195,0,47.90435668,14.73820599,25.82556591,-21.84442055,27.72128518,-9.142824005,-8.869827531,3.235001563,-25.22486692,53.19929073,0,-0.066738462,-11.72364734,8.17E-07,-1005.295946,,,,
562.0559996,2195,0,-12.72052981,9.567169181,15.41721428,7.12943495,12.02191215,-1.73070644,-6.182601043,4.778717602,-3.741029897,-19.03103069,0,4.047978746,2.419556186,8.10E-07,-299.2050473,,,,
562.0639996,2195,0,34.56852314,6.490525623,10.45834634,-12.77299132,4.70855899,-8.35718814,-14.42732954,-5.177399789,-15.08556345,72.32484436,0,-9.099003639,-17.11820794,8.02E-07,-675.8996854,,,,
562.0719996,2195,0,4.669064081,3.999808675,13.49534785,-24.28748457,9.952984754,-14.99524318,-2.102340863,9.476949917,3.0810211,16.67203659,0,2.66185219,16.08401294,7.95E-07,-798.1624666,,,,
562.0799996,2195,0,32.46922313,3.723537065,7.862397241,-14.94367482,-0.866037757,-16.62585212,-18.34976465,18.36815613,-11.15843077,-2.36217049,0,15.87365398,8.616098008,7.87E-07,-283.8768284,,,,
562.0879996,2195,0,57.28514916,18.14117945,24.58599948,-15.23733332,27.98348877,9.946574218,3.241899794,7.49464604,1.642067181,71.79033715,0,11.12499831,4.76559842,7.80E-07,-982.2079541,,,,
562.0959996,2195,0,-1.761983205,5.666627155,11.4951716,3.912855581,6.473333864,-0.19425519,-14.48773712,-8.465340879,-9.611710595,-21.98756865,0,-9.029504448,11.59761609,7.73E-07,-276.6469203,,,,
562.1039996,2195,0,49.20809335,11.16441569,17.31067076,-21.18978176,9.234954789,-7.22809548,-3.571626504,-2.12607266,-34.98033509,70.16752429,0,-10.56634984,-11.90322362,7.65E-07,-653.3911619,,,,
562.1119996,2195,0,0.401688401,1.676560054,8.61496877,-18.07454859,6.923490256,-9.249421399,4.377044697,18.3859603,27.43710401,15.36287101,0,16.6979154,8.979742694,7.58E-07,-787.2783041,,,,
562.1199996,2195,0,6.679607244,-12.01417369,-7.294712029,-13.25221977,-12.95622126,-28.26276797,-39.75664839,0.241921893,-8.336224012,-32.91621404,0,2.106936166,-3.649234364,7.51E-07,-257.7744375,,,,
562.1279996,2195,0,50.16200263,26.63213581,36.54446144,-8.078800896,38.96507068,11.37232373,15.12548793,-5.142672873,-16.46747788,48.83122662,0,3.556858345,10.78517895,7.44E-07,-951.7793796,,,,
562.1359996,2195,0,-16.44470361,8.64019395,12.93342245,-4.547284794,4.447240961,-7.477292162,-1.688234951,2.730375293,16.01913607,-17.85572096,0,2.616859543,11.91605702,7.37E-07,-258.4605136,,,,
562.1439996,2195,0,13.40955384,-11.3134449,-9.969666369,-49.05201727,-21.13756702,-34.69114147,-40.60529134,-6.920036202,-31.92348207,59.72603516,0,-21.02529166,-26.50275592,7.30E-07,-622.5099972,,,,
562.1519996,2195,0,-2.393299565,13.14973649,12.04127739,-6.51384542,4.337084502,0.906946732,-8.011085307,-3.731800422,-6.474137064,0.456103177,0,3.987232639,-3.189066188,7.23E-07,-745.6378035,,,,
562.1599996,2195,0,26.55288801,23.65053979,21.32089469,13.72639099,7.328669259,-7.711175848,-19.23893986,13.6091918,2.378453944,-12.51815505,0,9.37144784,-6.949418118,7.16E-07,-224.424025,,,,
562.1679996,2195,0,55.87059323,38.19387362,43.05352617,-14.12078752,43.91115895,-0.725758439,2.109877494,31.68397149,13.02482421,89.99949469,0,19.69815625,18.0805023,7.09E-07,-936.1166011,,,,
562.1759996,2196,0,-3.361766173,25.13827388,19.13291202,-0.079320136,14.30777591,-4.79084795,-12.95218904,9.627057167,15.92886297,5.67226513,0,20.44427216,15.6978689,7.02E-07,-229.4447029,,,,
562.1839996,2196,0,9.370742117,-9.035655132,-16.29527132,-53.86658213,-25.46783424,-47.10835732,-43.90929588,-25.28770671,-45.3300335,65.82381157,0,-28.92399786,-46.2782645,-2.59E-07,-570.1298844,,,,
562.1919996,2196,0,-30.94376912,-13.7965927,-17.44791072,-40.1491446,-21.46561564,-43.12818015,-29.61676433,-24.43189845,-29.46332257,-6.012638461,0,-28.77690479,-24.18425902,-1.16E-06,-692.2535254,,,,
562.1999996,2196,0,21.28482035,19.36318665,8.635028457,13.20078279,-3.565181929,-12.338098,-21.56192386,-2.460265064,-17.51854491,-29.48983388,0,-2.082251681,-4.399463753,-8.74E-07,-155.1540179,,,,
562.2079996,2196,0,42.3120131,37.75618259,30.50757545,-4.860550889,28.98982244,6.550695955,14.47830837,6.1373681,-7.827445152,63.13348573,0,7.104651808,12.08465073,-8.91E-07,-858.4673669,,,,
562.2159996,2196,0,-32.86223748,14.45425114,2.085115298,1.870575945,2.188694089,-6.922559623,-13.02315951,-9.697676527,-10.94055173,-25.86644145,0,-2.641090003,6.405536893,-9.40E-07,-163.2329442,,,,
562.2239996,2196,0,9.974115935,-0.814505623,-14.04540142,-34.73024629,-12.76958841,-31.42904228,-44.29456112,-23.24381304,-45.50471843,51.18562495,0,-24.89105213,-33.54827279,-8.65E-07,-505.7534686,,,,
562.2319996,2196,0,-12.01608434,11.86303107,0.203611847,-21.95290079,3.903017508,-16.43328841,-8.212470307,-18.7745914,-4.736548444,-5.240481764,0,-8.69320095,-0.731499888,-9.10E-07,-636.9373868,,,,
562.2399996,2196,0,31.8653423,35.6975499,19.18168542,22.24714841,14.18668026,10.5022835,-1.911268666,9.118126835,3.05797267,-23.43273718,0,18.93588628,15.3077264,-8.66E-07,-107.9231937,,,,
562.2479996,2196,0,39.86525993,32.41033834,23.26457893,-13.67107548,24.89383451,3.038439988,-0.199439406,1.700469503,-16.09865256,58.39225759,0,1.439758841,5.38432589,-8.80E-07,-796.2144352,,,,
562.2559996,2196,0,-16.52707008,31.21035879,20.2107201,1.873132013,13.24884921,-1.359991643,-3.494118112,-21.57569958,-19.08226775,-38.68447203,0,-17.31385904,-5.381908981,-8.60E-07,-86.24392298,,,,
562.2639996,2196,0,52.14243161,42.28559296,32.73835385,-1.398336187,25.05820895,4.883369229,-4.955086547,7.9383859,-12.72213764,61.89581448,0,6.48683477,-3.618442818,-8.58E-07,-453.1278223,,,,
562.2719996,2196,0,-3.705199582,19.58969439,14.84152858,-12.17236547,13.12151177,-15.44210477,-14.34204735,15.13750564,11.67089298,8.87218747,0,17.55596575,33.48917811,-8.47E-07,-608.3386208,,,,
562.2799996,2196,0,16.33926373,25.46199077,15.79986836,8.506700154,3.240211618,-11.63274646,-17.98790782,8.137455484,-10.13680854,-34.65074187,0,9.453988828,7.330183654,-8.41E-07,-56.55194698,,,,
562.2879996,2196,0,52.49674934,49.14515533,43.06477698,2.432039373,39.652122,15.43389668,15.01461065,15.88924908,1.700102615,53.42327826,0,15.31102934,3.850154329,-8.33E-07,-753.0313067,,,,
562.2959996,2196,0,-19.18444069,27.0615803,13.68182161,9.439285593,7.45765046,-0.590534264,-4.787346469,0.572233789,-3.237618638,-31.15308926,0,2.227401255,10.73506607,-8.25E-07,-65.71570789,,,,
562.3039996,2196,0,5.197580867,3.135535749,-12.8167244,-31.30883317,-21.06921409,-26.25961946,-24.58711946,-13.17899535,-42.23726793,42.88069353,0,-17.98194203,-34.67477244,-8.17E-07,-403.0606699,,,,
562.3119996,2196,0,-32.56109317,13.05595221,3.989797263,-26.26408974,-1.166060545,-18.77116916,-6.315335847,-19.45541479,-25.28042654,-29.44115224,0,-16.18421346,-19.71084842,-8.10E-07,-540.2638944,,,,
562.3199996,2196,0,5.986101196,39.33556695,23.41286264,5.889283142,10.31630304,-4.281855697,-2.592392524,8.956225029,-23.05324774,-45.43417173,0,7.014863126,6.77682948,-8.02E-07,-4.092243165,,,,
562.3279996,2196,0,25.05156659,46.31545789,28.16633328,-18.46365864,29.68282075,-0.332478623,2.633877703,12.64823874,-8.418061153,54.6742839,0,10.39319804,14.85913709,-7.95E-07,-708.3139659,,,,
562.3359996,2196,0,-31.38930913,47.64353248,21.01896338,0.399985099,21.70229404,-8.76642096,-13.63005444,-19.90412024,-16.37352759,-42.15083855,0,-13.72565012,6.831259779,-7.87E-07,-16.18742203,,,,
562.3439996,2196,0,15.44954481,50.4201437,10.21603357,-24.82371742,13.42646877,-22.13161844,-17.22949325,3.331671624,-28.11438821,49.9591047,0,-3.883973869,-10.9234882,-7.80E-07,-367.2226138,,,,
562.3519996,2196,0,-34.00854929,47.14624518,-7.740898083,-34.36977679,7.208536396,-22.99761361,-20.63602089,-1.993990257,-4.981907676,-21.67916525,0,-5.807512504,-4.00388533,-7.73E-07,-511.4110981,,,,
562.3599996,2196,0,5.256525488,84.57590943,11.01238324,2.360236859,23.89376315,5.760233261,-18.01137482,-2.300785884,-20.72614375,-60.05406109,0,-7.073899785,-0.05955521,-7.65E-07,48.91607165,,,,
562.3679996,2196,0,45.99337914,124.0844209,40.90426558,5.399517741,68.59043641,45.11494414,31.90240151,35.83810896,18.09321866,57.61345088,0,30.48720548,27.21514946,-7.58E-07,-669.0865634,,,,
562.3759996,2196,0,-18.67753425,114.7033902,17.88397372,17.07282326,42.86513308,29.5757416,13.90641556,22.15710865,32.1415073,-21.41749716,0,27.86221644,25.89810268,-7.51E-07,-3.261622354,,,,
562.3839996,2196,0,14.42645725,94.82587711,-7.881411595,-28.86231732,19.1295195,-9.681631063,-14.79072681,13.84983291,-3.150946438,59.55864466,0,7.970115566,4.978137095,-7.44E-07,-348.0798387,,,,
562.3919996,2196,0,-42.20211255,66.932475,-39.63722839,-52.11175765,-2.921708963,-30.43736072,-19.1991872,7.024670093,8.652626218,-18.06730142,0,-0.383200024,13.41629411,-7.37E-07,-492.7131638,,,,
562.3999996,2196,0,-33.34055116,57.95551493,-55.82993628,-45.94406375,-20.97901967,-37.43318301,-45.77562151,-16.18986429,-30.85674874,-80.45664158,0,-23.70354053,-24.53477522,-7.30E-07,87.05124935,,,,
562.4079996,2196,0,5.60858706,85.1665308,-23.96025732,-46.42365213,26.08565541,-1.684174698,-14.69863306,-16.13127079,-29.15614958,11.32885178,0,-32.34467762,-24.41322358,-7.23E-07,-598.0481698,,,,
562.4159996,2196,0,-22.68001952,109.8316659,-5.219427701,16.67225316,35.06526079,34.65174745,6.770885465,-1.851625549,6.236285942,-52.99673122,0,-14.38728148,1.618991696,-7.16E-07,85.27973425,,,,
562.4239996,2196,0,40.3760709,118.2222172,5.270537727,21.04354735,44.21466681,49.06765986,16.77848952,31.43138981,16.59875916,64.02494757,0,19.55347071,11.41168564,-7.09E-07,-263.5235714,,,,
562.4319996,2197,0,-1.889429965,92.46822162,-6.497638191,1.543719483,44.97712276,27.40247875,6.771742815,41.870138,49.87300871,14.93250905,0,30.69060185,48.02987562,-7.02E-07,-436.6277498,,,,
562.4399996,2197,0,-3.594499554,69.50405108,-29.52168106,-17.66008794,13.34814057,-10.84741893,-33.85663953,16.8685333,6.75667393,-44.86535501,0,1.400680871,11.77818334,2.59E-07,134.7074079,,,,
562.4479996,2197,0,21.49735524,85.21402754,-13.53712021,-31.20478841,34.32423552,14.5313572,-5.553128719,9.030823694,5.801454808,40.59110041,0,-7.574872099,-11.78788613,1.16E-06,-550.9563643,,,,
562.4559996,2197,0,-24.77292699,87.17897632,-8.25319317,3.284555877,29.17280765,21.18374875,-14.11896511,3.378475471,15.04031929,-40.92587157,0,-8.213944027,-11.58086122,8.74E-07,135.475358,,,,
562.4639996,2197,0,9.217192904,68.74151167,-16.45949254,-36.37308942,19.91099194,-1.891215403,-33.74356621,3.795362593,-15.60630691,45.61728643,0,-9.373686346,-17.86711891,8.91E-07,-196.672469,,,,
562.4719996,2197,0,-35.21709348,50.5856293,-28.33742095,-48.53151269,13.9541505,-10.60032567,-25.47111387,13.29098643,31.76166551,-7.278545041,0,5.370755239,17.97216398,9.40E-07,-369.1200098,,,,
562.4799996,2197,0,-9.46261357,59.02183863,-20.66001585,-27.68764989,9.386378641,-8.019332272,-23.42810271,12.51214143,7.828613007,-49.03510647,0,-0.111875418,-4.331715436,8.65E-07,198.9536385,,,,
562.4879996,2197,0,15.50793465,77.00432159,4.830885949,-37.91386711,44.34810826,25.57358016,23.80206542,9.541948582,5.08955461,43.14799465,0,-3.154149892,-1.769708847,9.10E-07,-499.3836066,,,,
562.4959996,2197,0,-55.49972651,49.95622875,-19.38322318,-25.44333086,12.64298263,7.582606933,-5.590575284,-3.537464324,24.26381453,-44.62528807,0,-12.33548775,0.928403329,8.66E-07,178.0812668,,,,
562.5039996,2197,0,0.812900095,47.18922545,-14.7938281,-51.72460171,13.06468176,-2.545523073,-25.71795288,-0.498527344,-15.12498197,34.82259973,0,-22.53550349,-25.28719091,8.80E-07,-144.9119236,,,,
562.5119996,2197,0,-24.55182455,52.5295736,-7.365292189,-45.02763859,22.26497615,7.384367558,-2.936274353,14.94882647,27.43549729,-9.749937687,0,4.040839246,7.846262608,8.60E-07,-324.3882094,,,,
562.5199996,2197,0,-22.56743932,35.66174,-28.7626362,-31.14394522,-10.55041166,-17.10040139,-32.61111608,21.82435395,20.7296472,-37.32322386,0,8.841992405,-19.77137032,8.58E-07,246.3216265,,,,
562.5279996,2197,0,9.252308117,57.48408666,-0.506641946,-32.75219625,29.92545054,15.12401671,-7.078108084,15.63366108,6.23606912,49.37216038,0,-13.80619915,-26.44772146,8.47E-07,-434.7747186,,,,
562.5359996,2197,0,-36.63752353,59.170627,-2.109850788,5.274571632,24.69027868,25.65918004,-12.23002686,2.916344898,29.28284739,-37.81019486,0,-11.27173197,0.526686963,8.41E-07,238.598306,,,,
562.5439996,2197,0,9.326695114,43.8107227,-15.58757571,-19.74505761,17.96599061,2.336797093,-20.65169315,18.37577221,10.34667263,57.27545906,0,5.164591584,-22.12461959,8.33E-07,-96.68642094,,,,
562.5519996,2197,0,-12.21805278,53.34317953,-3.917304172,-21.20554292,41.44892072,17.30965326,17.52018675,33.67820566,44.82416345,6.97695928,0,17.93425626,18.77877793,8.25E-07,-277.4427323,,,,
562.5599996,2197,0,8.589749222,57.95316668,-2.871778135,-2.575657475,29.64289236,19.4838416,11.10810515,44.44519276,51.60002436,-25.70526868,0,33.1532127,35.5913366,8.17E-07,282.0357333,,,,
562.5679996,2197,0,5.419179433,45.01443605,-6.553495346,-27.72493086,34.87266986,17.49391755,21.13937388,35.19336288,28.49061471,68.86374797,0,21.79234758,8.520370219,8.10E-07,-421.0160627,,,,
562.5759996,2197,0,-72.31883277,24.24193554,-30.2187137,-16.88692032,1.10970658,5.669876612,1.468607051,-4.017326527,8.152877576,-38.69606508,0,-15.77881562,-7.468764755,8.02E-07,273.1932722,,,,
562.5839996,2197,0,-33.58340455,10.54643525,-41.75520775,-45.3470996,-15.87304532,-17.18030259,-29.10597129,-1.917889255,-11.20650009,36.26148745,0,-15.36630498,-30.30583397,7.95E-07,-42.32695694,,,,
562.5919996,2197,0,-79.15018737,-7.623754666,-50.11744616,-49.42582398,-10.32233962,-20.48470882,-30.77099366,3.775035789,2.172101474,-19.40000316,0,-5.376336148,-9.901990763,7.87E-07,-226.2844567,,,,
562.5999996,2197,0,-52.94253394,-2.871319803,-46.53744941,-24.88981157,-15.76543227,-10.11128193,-34.64424272,-5.647176883,-20.18624714,-70.22120534,0,-15.94029909,-14.38078017,7.80E-07,361.1080501,,,,
562.6079996,2197,0,-34.85817497,1.288746981,-35.16732372,-52.08893515,-2.014554698,-5.514248442,-17.56207401,-7.404772492,-18.86477317,28.35885561,0,-14.67325655,-21.43875343,7.73E-07,-346.0492475,,,,
562.6159996,2197,0,-92.5723458,-4.706439489,-36.72683029,-25.02329195,-12.24676554,-12.42912792,-25.64014855,-22.83510958,-28.98553645,-59.52556425,0,-21.14061605,-23.82299311,7.65E-07,324.9460627,,,,
562.6239996,2197,0,-14.0099072,17.77153896,-9.368863409,-5.011896761,10.97953447,3.77132569,-4.653436784,-4.221929023,-9.522120539,33.92903656,0,-6.963603859,-28.93701665,7.58E-07,5.589654051,,,,
562.6319996,2197,0,-60.40722406,-1.39099006,-25.36330987,-14.06191129,-3.491175081,9.864913196,11.31831746,10.96478366,46.28611161,1.510313251,0,9.884159216,0.09479745,7.51E-07,-200.5411334,,,,
562.6399996,2197,0,-46.10584762,-2.656585096,-24.69417052,-21.48501086,-12.74945292,0.848138877,-16.92936495,3.053130012,-8.587253381,-48.96312527,0,-0.555600448,-18.54068029,7.44E-07,391.7337534,,,,
562.6479996,2197,0,-4.968868467,18.04367788,10.54967788,-40.38257601,39.7287904,4.499222713,5.657883154,10.36754734,-2.049527132,49.91541149,0,6.678633524,7.4480054,7.37E-07,-306.1895495,,,,
562.6559996,2197,0,-80.29882301,-19.15266405,-25.88595659,-31.06114963,-8.319436234,-14.8601353,3.900709689,-17.82745967,2.620259286,-38.8331421,0,-23.05881737,2.174938583,7.30E-07,369.9377582,,,,
562.6639996,2197,0,-26.63933451,-15.88499594,-22.36402814,-45.13093349,-12.71516269,-11.07742019,-6.134134422,-21.20434668,-28.85502282,31.45701598,0,-37.5348342,-37.58238327,7.23E-07,83.71962035,,,,
562.6719996,2197,0,-54.36657999,-9.434593979,-13.11378223,-34.50577739,7.585259263,1.060899216,1.3394223,12.01475307,33.03431004,-1.14627,0,2.09780034,17.00908114,7.16E-07,-117.9804083,,,,
562.6799996,2197,0,-36.30128841,-3.462642024,-13.51121256,-9.089381928,-8.024807872,-4.225349159,-4.554753663,9.366780803,23.06238905,-39.40462731,0,-2.260341539,-13.08000685,7.09E-07,469.2381652,,,,
562.6879996,2198,0,2.82553455,24.7485546,18.59417011,-14.31158254,30.37885547,10.9489659,17.77361315,18.52530828,20.95622857,59.89750001,0,3.220855938,-23.06761299,7.02E-07,-237.7143954,,,,
562.6959996,2198,0,-68.12761064,-4.506613676,-10.99242205,-4.560877097,-4.404411339,-3.085671798,-10.49613361,16.20152485,28.70323438,-21.4417737,0,2.895243561,-5.043943138,-2.59E-07,416.265733,,,,
562.7039996,2198,0,-24.30074925,-11.32119144,-17.59167935,-26.04996444,-12.55726893,-11.9056706,-19.04208725,-6.61261103,-7.061043119,36.30001254,0,-23.40218388,-36.85869367,-1.16E-06,131.1767277,,,,
562.7119996,2198,0,-53.63208248,-7.249515553,-12.87307126,-13.5228663,3.452674044,-0.940053407,11.47678485,12.94897361,27.80310489,-9.318232312,0,2.951288771,10.72855312,-8.74E-07,-70.8991572,,,,
562.7199996,2198,0,-46.33181033,-19.47627921,-27.99680366,-6.314043441,-17.61872542,-9.039884614,-6.660768857,22.21474314,28.12684263,-36.74531117,0,10.51895843,-1.397203148,-8.91E-07,525.6509524,,,,
562.7279996,2198,0,-5.489520178,6.85959097,8.525144736,-31.62709781,28.61906396,9.846178153,17.51073523,-0.57239064,25.23687088,48.01484864,0,-8.520259745,-22.48400244,-9.40E-07,-157.4870992,,,,
562.7359996,2198,0,-17.28039412,32.07395746,36.67545733,13.54018794,50.47210414,35.44751311,43.15872614,13.7876611,42.57724642,-21.56652131,0,9.316886105,21.9200568,-8.65E-07,484.8503944,,,,
562.7439996,2198,0,50.70589773,29.99631145,35.28857135,1.589694906,48.05823675,29.0707266,48.56994277,51.0892322,56.94791527,96.49849961,0,39.05031078,35.9607016,-9.10E-07,158.4058932,,,,
562.7519996,2198,0,-11.77772257,-4.22573147,1.531729099,-23.08548925,16.89997741,0.97262135,30.1366719,48.14739196,86.85009348,41.28204789,0,38.9309345,45.95417666,-8.66E-07,-52.97973626,,,,
562.7599996,2198,0,-13.80655951,-15.844624,-13.30084033,-11.65138079,-11.99919411,-6.178590761,-7.029966476,26.16625111,37.19435797,-30.15371954,0,8.272803411,5.650811962,-8.80E-07,559.2900261,,,,
562.7679996,2198,0,-0.755267411,-11.01544156,-0.892865964,-40.28665551,8.70050963,-6.648341515,1.536723173,8.581613317,15.51848458,61.45330464,0,-6.499660674,-21.14748164,-8.60E-07,-129.6638585,,,,
562.7759996,2198,0,-64.51115262,-26.94530897,-19.54983392,-28.30458874,-18.58297943,-30.16003634,-19.84839475,-10.15512362,19.67191377,-27.08080301,0,-19.07277819,-21.80477001,-8.58E-07,538.5421612,,,,
562.7839996,2198,0,5.559049417,-16.7826022,-8.770756403,-25.5425054,-9.15769592,-14.57821396,-12.72884401,-2.330313185,7.720046138,52.01387575,0,-20.21312556,-39.45672882,-8.47E-07,254.295463,,,,
562.7919996,2198,0,-30.6163969,-19.26506902,-5.781009073,-18.18568899,3.655688713,-6.227199591,-0.881504864,14.18811475,43.82692212,9.504419943,0,5.890596722,-16.75125711,-8.41E-07,38.46612959,,,,
562.7999996,2198,0,-20.47744319,-25.67710157,-18.43190374,-2.93752369,-16.9636589,-19.74975611,-29.54066455,29.10606613,35.37225832,-27.01665513,0,18.11075718,-15.38617591,-8.33E-07,637.5120127,,,,
562.8079996,2198,0,17.66791761,-3.439650325,11.38767333,-6.760667061,26.60255125,7.682231348,11.4002725,18.48997123,23.62018945,73.90331943,0,3.656083939,-19.74388139,-8.25E-07,-55.31909452,,,,
562.8159996,2198,0,-30.23042026,1.226721433,20.49887054,30.23869874,31.74247055,13.63011416,15.79446132,-2.715509481,27.7404927,-12.70205256,0,-11.9912126,-6.370212439,-8.17E-07,603.7043397,,,,
562.8239996,2198,0,14.08153454,-18.34276391,-1.551546861,-11.52218954,5.032431603,-11.62139505,-16.77524536,20.92679281,27.8450792,75.19737631,0,5.751802118,9.148347736,-8.10E-07,301.2838557,,,,
562.8319996,2198,0,-34.44874514,-33.39005979,-12.91260441,-34.91159275,0.128964164,-15.9913469,-11.88826216,11.9036706,36.72978536,10.0453128,0,7.830726352,15.71385139,-8.02E-07,91.05270274,,,,
562.8399996,2198,0,8.61377466,-0.602437924,22.38339191,20.86906718,27.30582275,15.52738895,19.41705066,24.48171471,34.36382989,-32.3793301,0,21.17189351,11.06315924,-7.95E-07,700.0523541,,,,
562.8479996,2198,0,39.44226147,4.187086931,31.13781523,1.765261917,44.4053477,24.87778993,53.1788301,48.8187095,56.73652493,97.46955316,0,41.11505032,33.23299221,-7.87E-07,-27.46090074,,,,
562.8559996,2198,0,-60.23104796,-45.08253865,-20.03780639,-26.57969232,-13.1788024,-25.74246824,-5.68962262,-11.39231471,17.28515921,-17.30894128,0,-13.15284834,-8.705991931,-7.80E-07,637.3306,,,,
562.8639996,2198,0,-11.10731756,-47.29375899,-15.86724959,-49.59947369,-3.609979234,-39.65944593,-34.56684048,-19.00530955,-19.77893696,34.44338433,0,-30.49141002,-36.29389815,-7.73E-07,372.30668,,,,
562.8719996,2198,0,-39.78448962,-42.31421905,-7.45964895,-42.55300306,13.50208556,-21.98583545,-0.877529375,2.575886359,30.24320901,-3.551059245,0,-5.624273761,12.73534592,-7.65E-07,147.1766546,,,,
562.8799996,2198,0,-25.11863133,-36.56137395,-5.910132456,-22.04803445,-1.135846044,-17.17962659,-8.174991434,0.426501286,27.96257986,-48.430192,0,-9.491575924,2.740436066,-7.58E-07,767.0550865,,,,
562.8879996,2198,0,9.924432905,-16.94021792,18.92071132,-29.57874512,34.13619079,-0.090487119,0.608036679,6.000871258,19.91322061,51.06554298,0,-5.25003885,-0.17050914,-7.51E-07,63.35582303,,,,
562.8959996,2198,0,-44.95926072,-17.85662325,12.34934021,-4.763194242,22.19607384,-8.183536306,-4.021664709,-10.82918609,18.77062946,-34.14346913,0,-8.43975253,1.472074487,-7.44E-07,705.1108683,,,,
562.9039996,2198,0,22.49735492,-3.93546417,24.42164968,-12.306702,29.13667998,-9.187159641,1.819958884,13.23811722,16.99791165,62.25033812,0,7.527374312,4.851013129,-7.37E-07,418.9096066,,,,
562.9119996,2198,0,-14.40580782,-9.938090471,18.48118229,4.296665378,31.28476838,9.972493549,21.5430807,33.26855895,53.22852195,29.96938808,0,30.46132577,33.99555979,-7.30E-07,180.4738408,,,,
562.9199996,2198,0,-33.61719216,-35.11810327,-9.437511107,10.17673371,-4.976777336,-2.81199093,-3.894922692,6.64535303,19.81616794,-32.34719624,0,8.000818637,-6.976723314,-7.23E-07,806.1707478,,,,
562.9279996,2198,0,-23.54701563,-37.53308502,-3.482840038,-35.65056049,6.469390714,-13.110293,-6.955241599,-13.60929925,-9.122682044,45.97206577,0,-15.79911445,-24.18921447,-7.16E-07,119.2968984,,,,
562.9359996,2198,0,-62.07646719,-28.93470557,4.507468404,-12.06142769,2.98419274,-13.65901738,-8.669531535,-26.45461112,-11.14722374,-50.50307255,0,-25.25765369,-22.05306865,-7.09E-07,776.252001,,,,
562.9439996,2199,0,14.5312609,-14.86297812,21.75502892,-20.76053824,19.71837204,-9.687148835,-5.188542669,4.99335364,2.990655194,47.37370661,0,-5.346030686,-9.177574846,-7.02E-07,502.8070988,,,,
562.9519996,2199,0,-19.9425246,-20.1447678,19.06656786,-16.37858668,27.3503516,-1.962667305,12.18585564,25.7586684,60.41413297,16.02679888,0,18.95136061,38.60337757,2.59E-07,249.52108,,,,
562.9599996,2199,0,-10.08878314,-17.10400724,18.91754389,10.23909579,18.53544527,-0.682660113,9.454786914,16.68406916,33.01242868,-37.05530617,0,10.92626698,12.3039651,1.16E-06,861.8010237,,,,
562.9679996,2199,0,6.395087778,-16.34449576,23.27691202,-23.25852473,36.62020933,-1.683853275,20.26395489,10.52926287,5.412542543,61.12120929,0,3.690823244,13.34231572,8.74E-07,154.115092,,,,
562.9759996,2199,0,-59.82107713,-24.98375838,6.608698607,-2.370277968,14.25054661,-3.596960569,5.941492394,-24.81200696,0.26546904,-39.38516056,0,-15.49565186,10.84609003,8.91E-07,792.5085125,,,,
562.9839996,2199,0,8.411537078,-9.192757853,20.68973771,-5.234804249,21.78413698,3.80209093,-9.726407547,-7.951549482,4.948332186,45.58110615,0,-5.014387356,-13.17146656,9.40E-07,525.0556899,,,,
562.9919996,2199,0,-21.92927704,-15.38023451,13.6358518,-11.16296765,23.30462286,-2.983970669,-3.632043466,19.25508937,47.68194976,14.55691605,0,21.95688112,24.42655854,8.65E-07,270.0826026,,,,
562.9999996,2199,0,-14.81214935,-17.15413935,5.44895826,6.82732989,5.859561777,-14.43571777,-5.688737581,4.533139058,24.41616172,-36.30614301,0,8.037857912,8.314515277,9.10E-07,890.4725362,,,,
563.0079996,2199,0,8.11393335,-8.214321868,22.16541782,-13.57973681,27.08197258,-3.047790906,9.610542199,3.136181067,25.16060905,69.03658743,0,-0.024786049,-3.821217357,8.66E-07,184.6791789,,,,
563.0159996,2199,0,-48.47543766,-2.38368219,25.37510913,23.13937078,25.08490014,16.9854303,9.070550126,-11.84591582,10.7253754,-22.12728538,0,-7.317298618,-0.930092958,8.80E-07,810.7916224,,,,
563.0239996,2199,0,-1.742915593,-3.72396706,23.0081332,4.969068236,24.85566965,6.850166347,5.873172599,4.593926577,-13.95007379,63.26910225,0,5.787050127,1.392489533,8.60E-07,541.3901531,,,,
563.0319996,2199,0,-60.93925747,-40.86508245,-12.72973098,-28.33522076,-3.074987768,-29.50303555,-5.010733152,3.984889963,17.52961374,8.144972514,0,12.08558033,21.46200281,8.58E-07,295.5323731,,,,
563.0399996,2199,0,-45.55906348,-33.59919938,-10.11678793,-1.435557021,-10.06442143,-25.69732144,-22.1168453,-23.81053857,-10.2226733,-68.45744495,0,-11.51000111,-9.1401113,8.47E-07,937.9281276,,,,
563.0479996,2199,0,-10.09591193,-15.2405901,16.98356828,-20.48344273,29.67467003,-16.39316024,-5.180311281,-17.05225587,-2.374366562,41.69032243,0,-12.23800447,-9.591936128,8.41E-07,235.6564854,,,,
563.0559996,2199,0,-60.95733422,-16.57701136,13.80531568,4.907028982,20.73031354,-14.0799219,-1.268229262,-24.13299035,2.156345769,-34.81548831,0,-17.71164409,0.087963974,8.33E-07,857.3194666,,,,
563.0639996,2199,0,7.705763095,0.055818875,27.17120409,17.69823299,28.09236532,8.679076476,19.09361578,5.152122339,2.220267274,63.01160879,0,3.862956019,10.92370628,8.25E-07,590.1723008,,,,
563.0719996,2199,0,-45.38433703,-28.66750415,0.525351236,-3.278682074,11.63159696,-11.2030616,9.415090094,19.4183654,36.84317254,24.43766758,0,21.82250704,27.5293956,8.17E-07,326.5798096,,,,
563.0799996,2199,0,-49.1385978,-40.8387537,-14.50007766,-2.736959338,-10.85671957,-26.09240677,-26.60164483,-11.90059282,-16.54375307,-53.34007862,0,-9.109917865,-12.68437996,8.10E-07,957.852455,,,,
563.0879996,2199,0,-21.54512049,-17.39043968,13.68325916,-16.09845803,24.40759956,-3.631875954,-2.537433534,-18.96527347,-21.51198794,43.75140171,0,-18.9328933,-16.53787205,8.02E-07,260.7491384,,,,
563.0959996,2199,0,-81.33093231,-22.10864266,4.969798442,-0.263426751,11.12954459,-9.243365614,-6.023883173,-22.59947828,-3.625690282,-31.84008613,0,-11.84682883,-3.53819463,7.95E-07,878.719977,,,,
563.1039996,2199,0,-24.79942843,-23.59286365,0.919835077,-15.39658381,2.947945418,-13.9769621,-4.115376357,-7.735463969,-14.64979074,46.03141367,0,-6.154915445,-2.858896407,7.87E-07,615.2971582,,,,
563.1119996,2199,0,-54.91904639,-21.57849164,2.753687464,-9.869666766,10.20285384,-10.63879149,16.18178581,-1.408333679,8.049873446,-6.223125434,0,-0.883546349,11.49918011,7.80E-07,358.3673689,,,,
563.1199996,2199,0,-34.9794227,-17.57439605,1.689144997,11.31791876,2.051395621,-13.18896053,3.641604001,-2.840149083,-12.32147741,-50.74205711,0,4.439985085,-8.091429486,7.73E-07,979.8736036,,,,
563.1279996,2199,0,-20.09963536,-22.48721811,2.353115186,-19.5533241,15.02176808,-16.35638854,-9.293596598,-8.706639923,-8.417966242,52.6078813,0,-7.244092227,-11.71283448,7.65E-07,272.3160449,,,,
563.1359996,2199,0,-92.79592787,-25.37569198,-5.350025514,-8.461138511,5.653923205,-27.24875095,-34.43877246,-35.55171967,-23.72045495,-52.50072245,0,-34.45270327,-25.51529746,7.58E-07,901.1724206,,,,
563.1439996,2199,0,-17.58782843,-5.098166279,9.162343632,-15.42232131,17.845187,-11.24389158,-17.36596123,-10.77202174,-30.73822434,37.15735473,0,-7.506518907,-26.18039192,7.51E-07,641.4623401,,,,
563.1519996,2199,0,-39.93609656,-14.44931727,4.888978698,-18.73585901,22.80220286,-9.370595285,-1.693607236,16.69811872,27.66108533,13.32520212,0,26.59109437,34.98549605,7.44E-07,364.1173203,,,,
563.1599996,2199,0,-37.78322652,-21.14398188,-4.898015556,-5.274227356,5.209685454,-25.39265248,-20.36118041,-5.277415529,-7.70816815,-51.36845221,0,-0.596192093,10.20974831,7.37E-07,997.8423971,,,,
563.1679996,2199,0,5.22632578,6.513985709,21.69960485,-3.833838518,37.28877675,9.035907776,8.869451394,-3.837839964,-10.54041644,49.42256975,0,-2.408924422,-10.34182739,7.30E-07,293.2123955,,,,
563.1759996,2199,0,-44.18682762,9.523322621,22.16060006,24.98922667,34.03388285,15.79978388,8.109913238,-0.868922619,-0.850467633,-23.3996216,0,9.202868574,15.85845705,7.23E-07,895.6259311,,,,
563.1839996,2199,0,4.464091838,2.737914999,12.91245734,-0.881371975,23.96057338,-5.631113157,-4.57257808,-2.827058361,-25.21891397,53.12366528,0,2.601377107,-2.643268021,7.16E-07,637.8010899,,,,
563.1919996,2199,0,-18.47950265,5.969691649,17.91766274,-3.382851018,37.60180479,-2.576917789,6.583804434,21.17689284,33.88998006,13.24879915,0,26.58415232,28.90975097,7.09E-07,356.3186204,,,,
563.1999996,2200,0,-19.98926942,1.42382924,7.495335929,4.781220919,20.31151788,-13.03548846,-9.90837575,21.77749114,12.36191005,-33.25165992,0,25.26744671,20.74026833,7.02E-07,982.41845,,,,
563.2079996,2200,0,-3.185518563,2.724545417,8.289644113,-5.610022413,28.09582539,1.50900244,-2.72507227,-3.054897756,-17.20864908,58.46976448,0,-0.474713243,-21.83913417,-2.59E-07,284.9021471,,,,
563.2159996,2200,0,-48.82093799,7.758589068,14.06219724,24.5288652,28.12218715,3.955137058,-8.409883604,-14.19174459,-11.50792941,-32.51274424,0,-5.228794052,-4.484207444,-1.16E-06,897.9740599,,,,
563.2239996,2200,0,-4.087555026,-2.594571712,0.560956498,-27.67887573,13.21300025,-28.96085541,-24.4432759,-3.126350185,-32.95139005,54.15788217,0,-2.420350968,1.817170648,-8.74E-07,655.0511311,,,,
563.2319996,2200,0,-40.81303763,-6.352272685,-5.456377151,-21.91506745,12.8415479,-14.00602108,-15.88361713,0.070197846,-0.313128024,7.778497745,0,1.37564927,12.31723875,-8.91E-07,386.3299407,,,,
563.2399996,2200,0,-16.66393679,12.6540109,14.3120891,29.03554733,22.51683363,5.037143575,-14.39082836,0.402591264,-10.94505577,-41.70970908,0,7.496024074,-1.936069962,-9.40E-07,1019.579851,,,,
563.2479996,2200,0,11.97572419,18.77816043,24.19259073,-3.493568288,41.88560722,4.940496037,10.21865103,5.946544016,-4.25466031,75.57615039,0,12.30040256,-4.915791528,-8.65E-07,309.2424288,,,,
563.2559996,2200,0,-48.33967216,12.26811301,10.19218336,13.62837686,15.52885273,5.607903963,11.85733372,-6.446595875,0.604828762,-20.31323526,0,1.543698483,7.345455836,-9.10E-07,914.9745782,,,,
563.2639996,2200,0,2.969619665,15.88764303,18.34644385,-2.938342857,17.93290755,-0.186332698,-6.762438197,0.107459181,-38.7256504,46.58060563,0,4.021793008,-7.595428762,-8.66E-07,677.1403301,,,,
563.2719996,2200,0,-27.83501829,15.20735378,27.82583438,-5.98149364,41.58799097,3.5733019,-5.933696863,17.42461212,7.391667522,13.15791334,0,27.69791682,30.14362526,-8.80E-07,394.7131969,,,,
563.2799996,2200,0,-18.44390575,6.355885451,13.89103395,11.36025304,17.07619341,-3.451716447,-16.15047975,5.898507659,1.730420332,-39.3307497,0,19.52095943,16.55688577,-8.60E-07,1031.694778,,,,
563.2879996,2200,0,-2.151789712,6.631234011,17.05944806,-21.66818793,28.01866891,-4.135108903,-7.930919406,-19.04090245,-29.82981403,52.67419804,0,-10.96191856,-17.12091207,-8.58E-07,337.9060582,,,,
563.2959996,2200,0,-65.22418585,-0.122632122,6.319145707,-8.487076584,13.43883964,-13.74328214,-25.30810519,-30.87573412,-23.20101643,-34.35723405,0,-20.48151521,-3.197813657,-8.47E-07,943.0181321,,,,
563.3039996,2200,0,-14.0632312,-14.64791289,-13.787473,-36.92118119,-11.7471356,-34.19760641,-42.86776496,-19.88845848,-41.27033537,37.41857172,0,-19.09829081,-32.17107214,-8.41E-07,710.9883393,,,,
563.3119996,2200,0,-35.93680874,-1.1804875,2.907735948,-23.96947141,10.75826045,-14.9433407,-20.85692688,-6.629275696,-16.5370107,-14.13254313,0,-9.354514457,-19.93118114,-8.33E-07,431.0827931,,,,
563.3199996,2200,0,-12.46575002,19.58294121,23.71028314,13.07162073,18.73877202,-2.601311048,-21.96924075,3.133601794,-11.5347519,-50.76800864,0,2.263897606,-4.5239493,-8.25E-07,1063.127017,,,,
563.3279996,2200,0,20.05110847,31.41988689,38.77038604,-11.39793656,42.49286548,11.29956514,4.405582759,6.617329926,-5.220306451,70.87129689,0,6.824223641,-4.025267181,-8.17E-07,354.0357702,,,,
563.3359996,2200,0,-45.20954552,25.93341728,26.81919505,0.574463149,19.84465445,9.395839531,-6.256716963,-9.457458502,-9.773545518,-20.95524284,0,0.029677045,-8.647030258,-8.10E-07,954.5236617,,,,
563.3439996,2200,0,-1.859880064,16.37450715,14.95596857,-31.07944371,0.420659168,-17.18205876,-35.57825906,-11.31568437,-37.81408452,44.96822563,0,-8.570906628,-34.7378441,-8.02E-07,731.6140258,,,,
563.3519996,2200,0,-25.57372717,27.88327068,25.90062377,-18.16772598,24.61400207,-4.456308717,-8.17166423,2.184215145,-5.852772499,0.798080784,0,7.755804852,3.038451593,-7.95E-07,441.1272721,,,,
563.3599996,2200,0,-24.70268231,39.87492361,25.96223802,8.86105632,11.3202222,1.006237963,-6.701084149,0.371594603,-24.88929357,-51.40930159,0,11.10257582,-6.124176342,-7.87E-07,1081.983369,,,,
563.3679996,2200,0,7.033038642,68.66890231,49.52753052,-12.78927273,43.15074205,16.2712529,15.09739124,4.260551596,-19.3939661,60.95610997,0,9.010259137,-10.99572337,-7.80E-07,372.5594116,,,,
563.3759996,2200,0,-52.76378833,70.81738839,33.97200639,7.883710279,32.7130467,15.96400991,-8.605178327,-0.993825643,-6.894400288,-20.7769708,0,7.822616254,8.654863344,-7.73E-07,948.4380389,,,,
563.3839996,2200,0,-24.76030767,55.00571339,-1.359411239,-12.90789119,4.692306876,-4.351539628,-39.95913031,-3.337447146,-44.53530033,41.99898565,0,3.615448687,-27.09836011,-7.65E-07,724.6861139,,,,
563.3919996,2200,0,-38.19067605,79.73522128,15.19052392,20.82104828,40.89417678,26.56141588,-2.049607121,12.03092512,-1.286228279,-4.440203574,0,24.56367987,5.561021294,-7.58E-07,433.5765794,,,,
563.3999996,2200,0,-22.05352859,95.80357431,21.57521734,53.98724451,43.10133137,33.02280298,-2.662509636,12.17100191,0.241888472,-45.62124583,0,25.75401789,18.7713865,-7.51E-07,1072.559084,,,,
563.4079996,2200,0,-2.476344418,110.157251,32.59108909,28.89488515,67.23149981,35.67088433,22.62319264,15.3594794,-1.507027248,73.05829823,0,21.21661766,17.98915979,-7.44E-07,364.87412,,,,
563.4159996,2200,0,-62.45965206,112.3523377,25.37383534,52.84844224,62.85860429,40.29439485,16.99774672,15.03204698,16.88272212,-9.488320407,0,17.74852949,27.69805778,-7.37E-07,954.902501,,,,
563.4239996,2200,0,-13.67731989,99.25736176,9.27441465,21.92542366,45.43580396,21.65255408,-11.71580766,20.62620024,-1.002130525,63.70729229,0,16.47928738,-2.260778641,-7.30E-07,744.5807311,,,,
563.4319996,2200,0,-38.26625858,95.83001387,8.490169199,19.44437643,49.40147515,22.28929289,-7.007332744,27.17215202,27.47921296,21.02101928,0,34.21530665,16.90455469,-7.23E-07,441.0882857,,,,
563.4399996,2200,0,-23.53886763,99.07800796,4.43492737,38.75105275,33.37001581,28.27889271,-17.29823706,21.05687864,13.90140981,-31.06707665,0,23.66195471,9.967444876,-7.16E-07,1084.520136,,,,
563.4479996,2200,0,26.3666385,117.6545753,27.54553959,13.17727046,64.53521496,49.28842318,22.37694306,31.20188207,17.02231342,88.08261639,0,24.17970478,8.141625517,-7.09E-07,377.9852274,,,,
563.4559996,2201,0,-34.22848309,103.0586028,16.45263992,28.06231156,48.07890149,36.35802134,5.788750586,21.71107805,10.63421458,-0.098717283,0,24.09712002,12.41685707,-7.02E-07,953.5348774,,,,
563.4639996,2201,0,10.73680891,86.76605314,5.610944896,13.10948297,35.01861853,21.93097141,-15.68123367,23.12113319,-16.60028772,61.81856734,0,14.07409674,-11.45153238,2.59E-07,742.6076027,,,,
563.4719996,2201,0,-18.31073986,80.34419559,11.90036582,18.48754852,49.57464066,32.08218243,5.680373092,36.84941456,33.14639313,18.92917363,0,31.49111901,19.54650721,1.16E-06,431.0077017,,,,
563.4799996,2201,0,-31.4855316,67.86109747,5.698600071,24.25850392,29.75457631,13.19462932,-20.82729135,10.98243238,0.532235169,-47.96177882,0,12.35260362,0.428554807,8.74E-07,1079.766901,,,,
563.4879996,2201,0,17.22756853,85.90200739,32.48751446,5.359116973,64.2801141,29.85874972,9.379530944,12.09650638,6.738618568,61.63489538,0,8.067202283,-1.543687532,8.91E-07,379.0086898,,,,
563.4959996,2201,0,-42.01432054,59.57251706,4.732079175,22.65381401,34.42052578,22.2941747,-7.526507308,10.83838541,30.15281316,-25.27195488,0,13.31201336,16.16799891,9.40E-07,949.7163576,,,,
563.5039996,2201,0,-16.2650444,37.40548143,-15.28413838,-8.090679527,12.78640015,2.756666573,-32.5967126,-13.45225363,-28.85246266,15.39160554,0,-15.44177985,-26.61507677,8.65E-07,761.8794922,,,,
563.5119996,2201,0,-24.71990095,64.22537982,15.76643376,10.13688533,55.84834127,33.52409189,12.24144324,10.42295212,7.834923846,-19.15117667,0,13.26110767,14.62937724,9.10E-07,457.1066863,,,,
563.5199996,2201,0,-20.88994664,59.29332061,4.722210836,33.45121477,34.9241072,31.79032496,-2.56084207,32.69611744,18.88032866,-42.98092502,0,38.50404517,36.37393996,8.66E-07,1088.071477,,,,
563.5279996,2201,0,1.049753562,66.69014639,18.62600048,5.722628225,51.83971319,49.21246451,15.42073259,11.13976194,19.35440299,60.49450649,0,13.60824474,3.727306248,8.80E-07,389.8248312,,,,
563.5359996,2201,0,-41.95789691,75.77931419,27.41136481,28.35944146,54.0358339,57.0056098,15.23346419,2.110420675,53.77859677,-29.87099618,0,9.470094706,8.329477509,8.60E-07,957.7573064,,,,
563.5439996,2201,0,12.95257771,61.84751378,13.15331875,1.962539284,38.45341331,30.41742607,-8.614012373,27.83639814,75.30492387,53.19396729,0,28.43931686,18.86420545,8.58E-07,740.3145995,,,,
563.5519996,2201,0,-33.39727174,39.36263966,-5.82264671,-8.12558586,30.81258968,19.60661501,-7.316749944,21.25485072,104.0134395,2.498196326,0,23.62982772,30.01407503,8.47E-07,432.0318953,,,,
563.5599996,2201,0,-46.6051202,20.16728819,-31.3441806,-1.29372615,-1.374399282,-4.500273739,-41.47991101,-6.54121983,56.63959194,-70.17812894,0,-6.130121644,-9.910780104,8.41E-07,1096.155645,,,,
563.5679996,2201,0,1.435621687,43.41800764,-4.249335255,-12.175392,35.71656388,17.63126802,-14.75572836,-3.592444838,48.99169721,41.26215558,0,-5.745179004,-21.53309506,8.33E-07,398.3942097,,,,
563.5759996,2201,0,-49.21727569,45.21208673,-3.070580463,17.30060878,32.87637475,25.99838767,-17.9797619,-1.986151497,62.499127,-30.82304781,0,2.175413152,-6.744728589,8.25E-07,959.6796424,,,,
563.5839996,2201,0,-7.021985106,24.13676893,-20.7334726,-20.87791564,15.74015935,-8.361120043,-45.28174708,3.189374158,51.45008321,44.53383907,0,-0.042721229,-15.8520897,8.17E-07,759.4299394,,,,
563.5919996,2201,0,-37.55656525,16.73721606,-22.03538557,-25.27091802,25.61520751,-6.101851729,-28.13903897,7.284465813,85.94747382,-5.499142466,0,7.16041952,16.29046635,8.10E-07,445.3485206,,,,
563.5999996,2201,0,-36.12307735,20.76783869,-22.19281808,1.148084197,12.38806517,5.379436152,-36.17516544,-0.713779659,62.11032419,-60.72912479,0,1.06985238,-2.168760001,8.02E-07,1108.253544,,,,
563.6079996,2201,0,10.99335144,45.20142969,9.889898314,-16.98424586,47.77295045,26.86462209,-3.230753279,2.293829366,66.50536481,62.9456736,0,4.831231384,-11.20049054,7.95E-07,412.4217832,,,,
563.6159996,2201,0,-55.45886719,22.69723147,-10.58928376,-10.29055258,20.68975281,7.556062775,-23.35067448,-5.432861146,89.2665131,-20.60891027,0,-0.43434623,4.749906534,7.87E-07,976.1705308,,,,
563.6239996,2201,0,-30.08036408,-4.980945449,-34.63420963,-38.39493553,-3.935364637,-18.18730456,-61.9671782,-16.94210721,55.61863033,33.16883808,0,-19.46760272,-24.38967517,7.80E-07,798.8197996,,,,
563.6319996,2201,0,-45.11225375,12.95879308,-8.691545189,-14.30419211,31.25455087,12.01614809,-29.07534668,-2.198498544,76.87097258,-7.627404742,0,8.555468822,8.006218604,7.73E-07,478.7729654,,,,
563.6399996,2201,0,-34.70066007,21.05783376,-2.410073222,13.73145171,24.38241792,23.06076171,-27.6775382,5.646707038,75.69170263,-45.213572,0,17.0024513,13.12282825,7.65E-07,1131.341126,,,,
563.6479996,2201,0,-8.570269505,27.39963392,10.83811929,-10.94886918,46.45105592,26.47122241,-12.09782643,-9.306655389,63.1277779,65.6250352,0,-4.539495371,-6.284073977,7.58E-07,441.3435546,,,,
563.6559996,2201,0,-46.06740684,37.53531924,24.91866206,30.25979716,54.52986534,32.05085172,-7.134732127,-1.028972281,90.59910711,-15.69107293,0,11.29240507,14.39046315,7.51E-07,998.2615646,,,,
563.6639996,2201,0,22.20502942,44.83514697,36.34276528,25.36776717,55.63756474,36.37092691,-11.48057232,30.88854391,110.5443462,71.95459213,0,32.83364954,17.75782597,7.44E-07,802.0020337,,,,
563.6719996,2201,0,-12.02097963,38.50359055,30.6212513,11.22129068,58.68957507,36.61833907,-8.790763439,38.51953249,121.3199215,31.83560142,0,40.87895373,35.53270634,7.37E-07,467.4346106,,,,
563.6799996,2201,0,-24.64807556,24.23372958,9.328735272,7.324331155,29.33971345,20.06859082,-32.30752866,26.02768271,91.32252558,-29.43665124,0,31.64029475,13.98286873,7.30E-07,1125.50112,,,,
563.6879996,2201,0,-6.843244965,23.7051501,15.88754767,-28.79933856,44.07848949,20.79740366,-16.33374522,6.38036677,85.05973825,74.74843578,0,10.93559035,-12.5064093,7.23E-07,430.2728169,,,,
563.6959996,2201,0,-71.97623729,21.89443086,10.77009714,-2.598490107,37.46666758,17.35764987,-23.69676442,-6.091239461,76.68591354,-21.56126771,0,3.716072859,-13.07050481,7.16E-07,984.4366756,,,,
563.7039996,2201,0,-29.03810991,18.21890629,1.350773995,-11.20034864,24.66006714,17.25710994,-26.56012607,10.57167313,67.58888729,49.59276819,0,14.21166763,-10.7843334,7.09E-07,798.9244424,,,,
563.7119996,2202,0,-76.2789308,-5.018222874,-19.70379369,-28.03313321,13.64181752,2.921951221,-22.86747876,7.788687415,90.42936253,1.483873781,0,15.23190962,12.9275698,7.02E-07,467.2048567,,,,
563.7199996,2202,0,-96.00956816,-22.4137054,-42.75086924,-20.60998704,-16.53487476,-25.21563008,-68.08789423,-21.88097841,37.06097155,-75.0566035,0,-13.64021807,-30.44735924,-2.59E-07,1143.871419,,,,
563.7279996,2202,0,-53.30554223,11.81597041,-3.97436347,-6.062135289,32.89955004,8.028058278,-39.40401377,-29.63718013,21.96856306,34.16514225,0,-21.08095252,-33.36257307,-1.16E-06,452.592594,,,,
563.7359996,2202,0,-91.38959027,31.78893963,15.18229764,53.20839767,50.292409,20.56701295,-23.83346877,-20.62563261,51.887217,-39.18867836,0,-3.737537255,0.330220885,-8.74E-07,989.5731995,,,,
563.7439996,2202,0,-41.44054621,21.4933942,3.478915989,44.5803442,35.11242706,8.773292886,-39.23580646,8.983188877,67.57034014,48.5469044,0,15.30009935,-10.47174221,-8.91E-07,796.5146778,,,,
563.7519996,2202,0,-67.54930097,11.25646755,-0.896112264,46.66722471,35.96164206,13.2735252,-26.55648973,16.70882101,101.9666093,15.52799931,0,27.24082778,25.05156711,-9.40E-07,456.9130606,,,,
563.7599996,2202,0,-67.89847484,8.628204246,-7.934259069,53.01994839,12.41903134,-5.329965489,-47.22855912,-16.40216468,53.66640085,-54.02214521,0,5.302076527,-11.67579105,-8.65E-07,1135.679419,,,,
563.7679996,2202,0,-19.54139772,30.85603277,18.32908462,32.20715369,49.82408872,14.02313447,-22.12916984,-12.08783831,55.16092528,60.59143438,0,4.247215192,-34.45888432,-9.10E-07,441.9996658,,,,
563.7759996,2202,0,-56.04439901,32.59938077,19.21716002,65.23886818,50.39740218,17.53730803,-16.85307013,0.268413683,91.55705317,-13.73664456,0,17.84430304,9.900758915,-8.66E-07,983.0364567,,,,
563.7839996,2202,0,-7.67713153,18.00645941,4.263182731,30.89129133,27.08927261,-2.425802345,-29.61336134,7.182120043,78.21111614,62.23232999,0,20.7230935,-6.398755137,-8.80E-07,806.0396334,,,,
563.7919996,2202,0,-41.97334142,4.457212141,0.335965307,18.77650783,33.40189352,4.059489232,-19.49440853,23.64223491,105.0017765,27.79473779,0,35.39095139,5.70377318,-8.60E-07,458.3334909,,,,
563.7999996,2202,0,-48.12278394,-5.936154379,-10.22067315,31.15802217,15.17139961,-8.351121041,-44.5749248,10.23323406,67.96006899,-40.8551752,0,20.19527309,-1.181506642,-8.58E-07,1136.593573,,,,
563.8079996,2202,0,-17.79965509,0.720774302,3.364600097,-7.114451403,33.75936904,-2.688653782,-26.40203615,-6.95534621,64.79456621,65.72827972,0,-4.85105631,-16.05169233,-8.47E-07,456.3995567,,,,
563.8159996,2202,0,-96.15193287,-22.66193911,-16.91054507,0.697075597,7.990400503,-15.80561809,-48.28643277,-25.48577356,70.80581765,-25.44825113,0,-16.2322267,-25.34714655,-8.41E-07,1018.824774,,,,
563.8239996,2202,0,-50.05598395,-34.60435025,-26.92197099,-27.83368222,-5.905398052,-35.99873758,-70.58986878,-25.42622447,28.08765302,27.58437608,0,-17.87790063,-55.86105044,-8.33E-07,877.9299576,,,,
563.8319996,2202,0,-51.32734782,-19.7364763,-6.358032146,-22.03771648,20.9689831,-18.13937419,-42.8803621,2.491524621,88.47816147,-2.32545401,0,2.76166951,-9.951317644,-8.25E-07,536.2546524,,,,
563.8399996,2202,0,-58.66301263,-29.76540497,-20.73421689,-0.03160623,-7.396924393,-30.17427857,-73.11881803,1.715968718,81.48413676,-44.73319539,0,2.314445388,-13.05981082,-8.17E-07,1204.038401,,,,
563.8479996,2202,0,-31.14360115,-23.614208,-10.3291369,-24.09736876,11.00506133,-21.71459713,-54.67418588,-27.15528933,34.78884313,55.97629824,0,-21.67474188,-57.43525498,-8.10E-07,524.9829736,,,,
563.8559996,2202,0,-73.33020923,-10.3273197,1.1049846,21.870799,25.31530357,-2.385003358,-42.85208251,-30.98067236,59.68790079,-32.64690536,0,-18.45140818,-27.76728578,-8.02E-07,1067.325602,,,,
563.8639996,2202,0,-22.38757394,-23.6285508,-16.98797551,9.094002433,8.870682017,-23.99642067,-63.49457197,-2.515954413,71.03670212,49.1813099,0,-0.200656722,-9.233608454,-7.95E-07,896.3430819,,,,
563.8719996,2202,0,-40.74278295,-23.7313095,-15.15023999,20.39151119,17.5358209,-13.41688997,-30.59365884,0.914033712,83.39074411,8.933538214,0,4.281359206,-10.40314607,-7.87E-07,564.2446683,,,,
563.8799996,2202,0,-30.00509471,-10.96154446,-2.451598131,58.69507367,17.91776273,-4.129282826,-35.54768844,-4.051158927,58.38468367,-41.27827525,0,4.280813144,-23.31186166,-7.80E-07,1254.227536,,,,
563.8879996,2202,0,5.871630211,-7.930724131,8.937911759,10.57340958,33.62281433,-8.022909908,-33.98288865,-5.642307389,54.72723967,80.13040125,0,-2.312287156,-24.79097896,-7.73E-07,557.3701253,,,,
563.8959996,2202,0,-24.08814184,11.99592714,30.09554033,47.16566004,47.8767862,21.01987689,-2.860125707,0.596347595,81.4141541,-4.525695837,0,7.007968107,-2.925887779,-7.65E-07,1085.021914,,,,
563.9039996,2202,0,28.69176433,6.011115557,25.05843443,20.12214649,41.57476409,4.915839871,-13.14252302,28.92991711,79.70906692,79.58877169,0,29.17996003,6.302833656,-7.58E-07,909.984917,,,,
563.9119996,2202,0,-30.82556956,-33.93325784,-14.9795738,-31.0261635,8.257156867,-35.15921768,-45.93006771,15.26154326,83.68508529,30.46617039,0,17.32730379,5.826113719,-7.51E-07,558.4065847,,,,
563.9199996,2202,0,-35.66849745,-26.5661947,-13.5172342,-5.434098189,-3.162932252,-35.45261754,-56.95844154,-8.402142837,50.30406825,-44.56487898,0,-7.962293356,-30.08861758,-7.44E-07,1253.594058,,,,
563.9279996,2202,0,-3.380473254,-8.987901007,11.77402387,-36.88104145,30.66124076,-27.40546247,-34.7894647,-15.07822661,46.6134912,77.22743026,0,-20.24053627,-38.62348655,-7.37E-07,567.0355557,,,,
563.9359996,2202,0,-41.5526297,8.241158176,28.758893,7.810907733,42.56833815,1.107161947,-22.81200312,-1.727389748,75.14153711,2.311655902,0,2.015843723,-7.17827419,-7.30E-07,1102.275359,,,,
563.9439996,2202,0,24.31587098,20.57912571,40.03285188,19.77915564,53.92675812,7.984402762,-23.87617462,30.57134777,78.06681467,84.71449684,0,30.80007654,1.757451175,-7.23E-07,946.3103537,,,,
563.9519996,2202,0,-23.38361478,-0.293905141,20.97114964,-6.499758305,45.78898993,-15.61827307,-28.24426879,21.26730881,100.0403025,39.03589616,0,25.32775879,24.33078184,-7.16E-07,586.4889318,,,,
563.9599996,2202,0,-6.748612727,15.31933417,33.18833559,27.15863538,42.6590506,3.159898223,-18.45275233,24.54772958,76.998521,-24.57803881,0,28.96293885,14.80917237,-7.09E-07,1263.36363,,,,
563.9679996,2203,0,37.60144675,23.07743275,49.52474004,1.026290811,65.90510633,18.13417346,-3.29297853,26.20798185,66.40130981,104.1723819,0,24.10817281,-0.796979334,-7.02E-07,569.344812,,,,
563.9759996,2203,0,-36.55744008,1.375475248,25.34640101,8.955788613,38.65860874,2.532760805,-24.31922211,7.357543935,83.70144515,6.570563673,0,8.393590187,9.722614289,2.59E-07,1108.529568,,,,
563.9839996,2203,0,15.54453161,3.182252882,24.36862707,12.11155766,32.32790419,4.310076971,-19.52437807,22.33800703,72.71640855,63.12807057,0,16.85004798,-3.533471921,1.16E-06,958.6072059,,,,
563.9919996,2203,0,-13.65997166,-3.312710149,25.22667719,13.72278349,43.26162604,8.019528601,-7.397108205,24.13164197,87.30923689,33.54329251,0,26.66461393,16.82645688,8.74E-07,592.8473715,,,,
563.9999996,2203,0,-16.0924612,3.125876962,30.04846368,35.77856407,40.61307248,7.691838946,-18.96315008,22.96739412,63.91914098,-17.10977142,0,28.97103156,14.24566497,8.91E-07,1274.71368,,,,
564.0079996,2203,0,16.26377158,9.57359748,36.1845677,-1.857124949,54.04317349,8.577169993,-6.803297749,9.074958858,56.06958215,99.96305825,0,10.23443475,-2.002904429,9.40E-07,578.4632845,,,,
564.0159996,2203,0,-27.72043518,10.17082435,32.19442496,14.4210986,43.17639452,0.329690237,-9.411253268,0.502839441,75.19111939,8.498953604,0,2.983434538,18.6325647,8.65E-07,1113.327348,,,,
564.0239996,2203,0,42.03415173,21.97236847,46.64061419,13.10271855,55.08342231,9.23335998,-10.56824466,44.53436434,83.14950843,87.11781117,0,33.70219984,20.82591018,9.10E-07,973.018652,,,,
564.0319996,2203,0,-0.662113113,2.4429258,30.62803834,0.606905897,52.35211107,12.15069194,-15.29836675,42.89626017,113.1243904,48.9029666,0,32.68890546,33.06480027,8.66E-07,609.9915552,,,,
564.0399996,2203,0,-16.78420125,3.738744256,23.63805895,17.78102296,33.25552082,3.362681845,-22.64672516,17.94529796,64.38687322,-25.91601522,0,16.02480611,17.02804695,8.80E-07,1302.102043,,,,
564.0479996,2203,0,1.234823673,3.940388536,27.36041263,-19.12778706,42.62346202,3.121633569,-13.18177382,5.583856026,37.52515256,96.32726798,0,17.06249064,-2.986402617,8.60E-07,606.4768766,,,,
564.0559996,2203,0,-58.27387708,-10.80025402,12.11143459,2.586196545,26.82697562,-1.077365358,-29.7088834,-13.63875079,51.33300049,-4.554387362,0,-2.060098073,2.14011422,8.58E-07,1135.697881,,,,
564.0639996,2203,0,7.215393111,-3.213823031,18.07872206,2.263228771,31.08168656,1.337258153,-12.00466658,10.95273727,46.80242203,55.37053463,0,6.333895124,8.486472388,8.47E-07,993.9723629,,,,
564.0719996,2203,0,-33.62663738,-23.84726033,-1.216343927,-13.66425225,24.20421029,-2.175552069,-2.354607544,17.2006376,71.07945456,25.72130066,0,21.37946638,25.76088811,8.41E-07,623.4713234,,,,
564.0799996,2203,0,-22.10412902,-1.370098678,15.8814371,29.77904061,36.58125714,16.34921223,-12.90847704,7.456408,44.46202994,-46.82710266,0,4.589528534,2.469517695,8.33E-07,1328.131785,,,,
564.0879996,2203,0,29.3128736,26.6458579,50.04518303,7.335124748,77.60930992,33.04772777,17.53085834,18.06999112,54.77156036,92.43645004,0,22.64607908,21.33349949,8.25E-07,625.4685558,,,,
564.0959996,2203,0,-40.37647378,-4.714163037,18.71240107,-4.349510656,38.44094114,-0.833488977,-14.05643599,2.652818745,65.14935883,12.74153479,0,19.62641881,46.7720848,8.17E-07,1129.104297,,,,
