Time:125Hz,Epoch,FP1,FP2,C3,C4,P7,P8,O1,O2,F7,F8,F3,F4,T7,T8,P3,P4
317.5359998,1240,33.16830852,50.57961232,-227.4186975,-14.01825457,0,0.17720023,0,72.73005033,-291.8074916,52.19870364,-253.7247413,-50.38854099,-167.2770586,34.35007489,0,54.32434773
317.5439998,1240,50.91197576,-4.14489062,233.623803,-8.903890733,0,-43.13427639,0,110.142792,1.777863016,-12.86884133,91.90021378,-41.78027164,89.65972026,-39.55932433,0,93.05054553
317.5519998,1240,46.17223649,65.8408983,-227.519664,-7.991606727,0,-10.55648814,0,51.28690523,-57.12768631,23.95445297,118.6586836,26.00790951,53.14588674,-31.882819,0,28.20776312
317.5599998,1240,36.55651004,3.405066906,55.1518096,-3.695695541,0,-19.77423157,0,93.69185852,-257.9146364,40.59275522,-288.3182977,-109.9911366,-152.3280316,42.01270526,0,53.63274213
317.5679998,1240,36.92618766,18.17532731,37.76666654,-6.0820443,0,-38.88122608,0,53.38954247,132.4061525,-11.97729402,349.3705656,29.69683621,192.3356677,-13.61303505,0,30.70073257
317.5759998,1240,9.86075884,16.62043808,-226.3314573,-20.3883109,0,12.73278154,0,74.24636942,-294.0406104,22.74977344,-251.6480556,-58.65092115,-164.4914233,-20.17163515,0,21.78976525
317.5839998,1240,49.5568287,-15.58475876,222.9815106,-13.88681479,0,-46.67060175,0,101.8149034,2.622211753,-19.86274961,88.71219379,-51.91450644,63.1032048,-53.41539121,0,65.99199473
317.5919998,1240,55.02837633,64.20097045,-230.7344099,-3.686060105,0,-17.42114201,0,31.94666264,-45.82072415,25.49112964,124.1243954,21.93339109,33.14150817,33.62811287,0,1.353952204
317.5999998,1240,41.90327392,2.175114045,62.91663637,-5.211299438,0,-14.95408142,0,88.63102125,-251.0818162,37.47639093,-280.145936,-108.3266082,-151.8324858,26.68430029,0,39.13843842
317.6079998,1240,55.26374322,30.34890385,41.16436809,-8.531898815,0,-29.4764337,0,58.92135709,140.5557008,-1.570993818,348.2934492,30.79904326,183.7720917,-67.55467479,0,24.65236737
317.6159998,1240,34.13228488,40.07682728,-229.4363453,-9.290543525,0,18.58138575,0,63.41593014,-279.3932409,55.62209456,-254.8924161,-46.11751037,-166.9886198,44.42571398,0,25.93526291
317.6239998,1240,43.9831898,-16.05711394,221.8941505,-0.108663069,0,-36.96510745,0,87.24818796,7.761105263,-5.506951741,79.85406282,-46.81413315,59.31543208,-27.33820356,0,58.9980376
317.6319998,1240,29.96110632,41.56271307,-228.7539994,-0.530908581,0,4.806493916,0,47.12262179,-47.59654136,8.2447046,107.6242627,10.39858214,23.64775183,-65.99271814,0,-10.90452179
317.6399998,1240,21.74572639,-23.93180139,62.8317036,-17.54921947,0,7.317077597,0,126.8605986,-252.0674314,14.87094207,-298.35087,-109.4629685,-143.0000357,-11.60787682,0,63.81737174
317.6479998,1240,42.80616807,0.966865368,35.58860323,-31.49971583,0,-21.05834483,0,90.24881735,135.9138844,-33.07142953,323.6882441,25.95213764,189.8399523,-42.70973319,0,58.41981132
317.6559998,1240,39.94902588,29.99878082,-228.2347235,-17.61522531,0,25.32594063,0,89.52219077,-280.5042361,20.81587597,-278.6454941,-65.81372443,-164.4125925,9.097575885,0,34.28197954
317.6639998,1240,57.70805577,-15.06786385,234.9057423,1.259739457,0,-28.76726186,0,119.4946255,13.37778118,-10.45467505,66.33911656,-52.79575084,84.50636736,-46.79928807,0,69.27255052
317.6719998,1240,43.45625986,37.98231133,-220.301108,-4.477276682,0,7.336644232,0,71.61050811,-46.38637092,15.09203563,95.68745179,18.75485521,44.569367,-30.51462094,0,14.8653877
317.6799998,1240,44.4267586,-10.9805759,67.10740399,-4.749059452,0,8.024631153,0,134.667796,-248.1825879,15.67228309,-311.4234863,-106.8561609,-146.3722212,22.73504134,0,74.71054002
317.6879998,1240,57.76363565,12.78089532,41.18258505,-11.63896528,0,-26.41449947,0,93.15818039,142.5500497,-26.4913475,316.4593772,19.96504589,194.7188747,-33.31732936,0,47.02564633
317.6959998,1241,41.00183676,24.73650351,-228.0523439,-10.25893322,0,14.14139906,0,92.52228509,-283.9485041,28.67169254,-284.2559361,-79.04837368,-153.6132002,-0.709049852,0,25.10595773
317.7039998,1241,63.4606091,-13.64156837,226.858126,3.37580176,0,-38.86176874,0,118.1198935,10.27973197,-6.812137811,59.31428479,-67.45613794,84.29193985,-41.29333435,0,65.54356227
317.7119998,1241,50.41628519,48.13107744,-234.6722087,-2.772723628,0,-4.658498809,0,69.30973679,-44.05985768,7.292259837,94.03364949,10.20518462,49.5158663,-37.37861321,0,5.453772275
317.7199998,1241,40.56995561,-7.627268683,49.84477944,-0.022674162,0,-10.34044788,0,129.2314445,-249.9162004,19.62611994,-310.6347489,-112.6793612,-146.8131214,6.317362701,0,54.12384274
317.7279998,1241,48.2154454,9.679080416,29.80608439,-5.974128477,0,-32.73791718,0,103.2278188,146.037307,-12.54150906,318.6804362,23.6957728,188.4750598,-22.79465165,0,34.94989269
317.7359998,1241,47.49084207,33.25310246,-236.8512671,-6.9547171,0,25.99605738,0,121.0548433,-269.0447104,30.40960387,-275.7237611,-56.01568701,-151.0683043,7.83582411,0,38.91322776
317.7439998,1241,89.40359313,6.757608931,218.5411117,13.07337016,0,-30.3698342,0,131.9635996,26.9854027,10.70357055,73.25555825,-41.18060376,89.41464593,-73.26268918,0,83.26398969
317.7519998,1241,68.28563255,59.37997761,-228.8813503,17.22300234,0,8.106623232,0,87.37459415,-27.44417555,47.11107908,115.1939823,33.37211431,63.93712537,-44.4250092,0,26.10894629
317.7599998,1241,58.95417792,7.708830748,61.33259688,18.93554038,0,13.78644187,0,162.5824995,-239.7823961,50.25190678,-284.802351,-82.31230222,-125.2880097,48.14374259,0,92.46661438
317.7679998,1241,76.92953897,35.46576399,30.76716289,13.32608779,0,-21.3059369,0,117.3249377,146.837817,10.64218645,341.2786146,54.88937772,207.668654,-21.31687752,0,72.1141011
317.7759998,1241,44.91659993,33.42424078,-233.3120129,12.03989863,0,28.39569833,0,134.5771794,-272.9148058,52.40933859,-260.7458225,-33.64426233,-142.0416152,12.41610617,0,61.11969
317.7839998,1241,58.80806066,-10.5463116,228.6017176,15.8595469,0,-17.89270883,0,167.9431077,11.46062765,1.440486256,81.67775364,-24.46383307,81.22058755,-28.01398467,0,106.6716416
317.7919998,1241,48.33251707,50.54687137,-234.3127722,7.677725842,0,8.016141626,0,107.2448977,-48.19155795,16.60508248,113.0181026,43.51662864,45.65413366,-44.7233177,0,45.37140367
317.7999998,1241,43.72834471,-4.892355953,53.37188365,20.2250044,0,-5.802115032,0,160.4777033,-244.1305774,29.09194188,-293.8990297,-83.0060995,-142.336479,7.644008522,0,89.22129049
317.8079998,1241,50.9189569,14.277048,38.22443499,22.81306407,0,-31.67866519,0,127.0363638,152.598279,-11.99687908,343.2167022,55.03510943,204.2057717,-24.58301285,0,66.53526301
317.8159998,1241,18.95641682,13.45761266,-234.8766261,5.618589661,0,23.1726568,0,152.2061125,-277.6647997,19.66590063,-257.9411994,-30.11167471,-133.2586087,-3.239766988,0,74.38472245
317.8239998,1241,55.49572816,-16.09100731,206.6027442,-1.026668544,0,-31.11503921,0,173.6169775,5.929022038,-21.12957779,72.19408248,-29.57226534,93.83115593,-62.83972927,0,125.4903844
317.8319998,1241,55.35719212,55.75454193,-258.2776327,-1.312003259,0,5.403461846,0,104.6902822,-50.16281731,11.80172986,100.0712329,31.10877971,55.71048136,-15.70970182,0,41.84507036
317.8399998,1241,35.52140721,-9.204686251,36.04443298,10.39097953,0,6.953866151,0,162.2430607,-250.6088246,17.92680078,-299.7184785,-90.3243595,-131.0792416,38.85625663,0,84.10177272
317.8479998,1241,49.76350732,14.72319719,20.78326475,5.884372801,0,-23.15057141,0,124.4705765,149.2247146,-27.52744552,342.8549803,50.09203356,217.49042,-40.03328035,0,77.6135564
317.8559998,1241,29.06943127,28.30514939,-242.407651,4.003896119,0,29.31433229,0,133.0914318,-276.1968763,17.52891209,-262.8489261,-41.32274243,-133.8635117,-27.09732523,0,58.94508577
317.8639998,1241,40.16235416,-18.86132846,219.2869283,14.17740192,0,-21.09737181,0,160.323588,11.5829389,-30.43918166,76.01051587,-34.18492587,84.51826821,-96.17300328,0,98.33062876
317.8719998,1241,30.90535849,37.76722255,-237.2919757,2.372005293,0,12.3532186,0,122.9444488,-47.18860716,-14.21047016,114.5310513,38.40419781,54.9567112,-39.00052204,0,54.96440709
317.8799998,1241,38.36542001,-9.571655338,57.60940839,8.260267565,0,9.58798828,0,182.7788893,-252.6268907,7.374724379,-294.5300144,-88.24592311,-132.4355021,50.07524058,0,111.1834366
317.8879998,1241,61.65684662,26.18781609,43.11256183,18.05513999,0,-16.43622519,0,125.8437249,152.3453796,-22.72783304,344.5628647,46.53424591,195.8165308,-44.38443555,0,88.07306076
317.8959998,1241,31.14264321,24.23423178,-226.5849833,5.184858467,0,42.16221462,0,145.1595785,-271.1929305,13.92976176,-254.4893131,-32.25472072,-157.3814002,-9.859817894,0,89.20302549
317.9039998,1241,52.10365447,-24.82031202,220.9713824,-5.817082855,0,-14.18368093,0,165.9908473,15.24770462,-34.88807754,74.22388116,-28.89907953,70.62216879,-56.29485679,0,136.1047517
317.9119998,1241,47.83293168,41.76941599,-241.67783,-6.382294942,0,17.01438307,0,108.9764522,-39.79791758,-12.47995594,97.1575597,26.56541774,29.85257337,-71.30591219,0,59.6627269
317.9199998,1241,33.46951546,-22.20942211,48.58930554,0.75435647,0,10.29733442,0,187.5773286,-245.9901251,0.337011738,-312.1654549,-92.44798993,-153.9560126,25.30982279,0,119.9802151
317.9279998,1241,56.64922244,16.28942634,20.14631249,1.160794986,0,-31.41333345,0,130.0295307,151.5423044,-37.29601995,320.5934721,43.15977201,182.3057015,-29.83652014,0,100.9764539
317.9359998,1241,33.92036474,28.71656834,-246.560329,2.591609025,0,27.55778956,0,134.9441939,-271.2980826,16.29859618,-282.3982798,-45.65836671,-181.5567339,-19.76328148,0,71.22853994
317.9439998,1241,38.09272778,-36.67520862,212.9874248,-5.271541961,0,-24.68128543,0,168.7952905,16.67816441,-33.1734515,59.64052212,-38.48329752,51.58870229,-67.75032107,0,113.3583784
317.9519998,1242,33.37576236,30.31805907,-249.8488624,-3.631987943,0,12.83559526,0,117.5656939,-39.5082333,-17.43566175,87.75981949,20.30201881,16.83241791,-56.22729739,0,44.04567517
317.9599998,1242,25.47608221,-28.35809494,43.94489741,3.55786195,0,27.1175136,0,207.6718073,-236.5411357,8.645666801,-311.8508748,-88.13675558,-162.8771098,43.2242724,0,115.722655
317.9679998,1242,47.37720779,1.165583778,8.949082227,-20.280538,0,-16.77117996,0,158.2580131,162.9794232,-43.17616083,330.9186567,49.25045607,192.6835945,-51.53655189,0,108.9414329
317.9759998,1242,37.96732562,28.94576421,-265.311892,-14.37965956,0,36.38107388,0,154.6097875,-267.571154,10.54014885,-281.6021183,-52.77297924,-167.796129,-29.26227155,0,62.58650632
317.9839998,1242,47.57381916,-20.52842143,209.5428685,-7.862371572,0,-1.590886904,0,204.6744585,26.54746173,-6.916302213,72.07318819,-23.30440212,74.40824805,-29.54619683,0,116.1485041
317.9919998,1242,40.7045178,45.78630477,-256.4182004,-17.58768483,0,16.23435401,0,133.44347,-29.6614161,8.95129739,107.048419,46.08382745,42.76686525,-37.00808097,0,52.66040751
317.9999998,1242,31.6374358,-13.70221184,26.90991392,-9.450670361,0,2.775406777,0,165.5218627,-247.4622523,17.38184615,-320.4677958,-96.78777675,-170.0863483,25.66145348,0,67.78474916
318.0079998,1242,40.26892023,10.24332775,16.82511325,-24.52693168,0,-22.08811427,0,128.6583253,143.4670987,-30.91301005,320.06608,43.12531133,178.1419476,-57.21699582,0,48.53707425
318.0159998,1242,32.75818697,38.69205987,-234.7466081,-9.806391937,0,44.12458564,0,149.705941,-278.6767036,36.84128664,-278.0388639,-33.65769318,-172.2337344,1.767790616,0,39.57146193
318.0239998,1242,52.71768503,-9.680440551,244.3222761,4.869645954,0,-4.377149087,0,177.6637773,20.00060105,14.85199553,73.24202105,-10.87713947,57.47027848,22.41961152,0,100.0043404
318.0319998,1242,31.97832687,33.06135663,-212.4880934,-25.41156111,0,24.03610006,0,117.6674035,-37.34067474,3.633336802,106.3392277,49.62470839,22.53558293,-36.41847808,0,44.28958922
318.0399998,1242,26.35480945,-31.16012229,74.1504973,-38.95806204,0,24.25361235,0,178.1967864,-248.2873851,1.011583773,-321.2983379,-88.11632359,-179.4632775,-18.6730714,0,87.35632564
318.0479998,1242,54.17020288,12.39947118,55.35267547,-49.47403524,0,-8.844537703,0,128.8309638,155.0641741,-22.29207412,319.0940108,53.04186035,171.3747285,-30.28397415,0,71.17678822
318.0559998,1242,33.24846918,26.32529385,-215.1004199,-38.73955309,0,43.12534365,0,129.1186725,-268.7026476,35.84252955,-286.8635191,-37.30695641,-178.9995771,21.12105684,0,36.46450721
318.0639998,1242,43.3937387,-29.05806174,243.0910248,-20.63092716,0,-12.51695841,0,151.8303621,26.47050046,-13.99721484,51.9253148,-28.64519531,52.90247405,-10.37315517,0,73.33780595
318.0719998,1242,31.6063595,36.73142721,-211.7540395,-17.52379644,0,19.46376142,0,99.8954197,-27.84672621,4.52596887,88.25577671,39.22686519,23.40985562,-28.62362797,0,7.590548063
318.0799998,1242,17.52007342,-28.65804229,84.03008549,-5.903798627,0,24.94587723,0,175.0402976,-243.4184544,18.80083623,-327.9951708,-83.4387551,-169.4644952,-18.97719805,0,58.28047263
318.0879998,1242,24.4885321,-5.243115717,52.09474221,-18.17842016,0,-10.12851517,0,128.100087,152.7879125,-25.8372168,316.3583903,59.19407356,183.1436543,-33.69792334,0,54.63122117
318.0959998,1242,2.69098593,6.369744199,-241.4292996,-30.68612414,0,32.76615369,0,114.6737981,-280.9441519,15.03398539,-296.0547154,-39.68183066,-179.2098189,21.11562758,0,20.70162514
318.1039998,1242,27.55103428,-38.33998742,211.6558338,-27.92514473,0,-21.79187859,0,121.4066416,12.37723785,-35.75631899,38.68187442,-40.96520837,41.46386008,-42.15553107,0,45.19504704
318.1119998,1242,19.71692809,29.59228086,-237.3116146,-18.61694885,0,23.09246901,0,62.25439119,-24.58208785,-2.071212207,81.28829944,25.46503734,18.78858027,-14.2378996,0,-34.98293223
318.1199998,1242,9.034710865,-33.06155885,56.11884396,-9.34756131,0,24.40111851,0,130.5994474,-229.0116738,13.99090809,-331.9207446,-92.90339202,-168.5092937,20.14127715,0,12.37197914
318.1279998,1242,21.98514588,-6.061410171,33.36189865,-21.16982832,0,-16.32321573,0,81.17719783,171.2968954,-29.74761286,313.7798236,49.26207956,176.9959167,-46.44370051,0,3.932363979
318.1359998,1242,-3.365355034,-0.896114781,-235.3772762,-21.37621935,0,42.46987843,0,98.29608375,-256.0899229,13.07778511,-287.7838791,-42.15081389,-183.0150759,-12.84981587,0,-15.10303611
318.1439998,1242,14.87039,-50.2756221,222.8059728,-21.50834187,0,-10.09429784,0,136.2267312,29.22445069,-44.15975817,55.96097978,-34.12119422,45.69428147,-58.66972709,0,47.69008625
318.1519998,1242,10.26784579,26.33015561,-243.0589568,-17.71040543,0,13.30159842,0,60.68443007,-29.47114381,-5.441171528,92.67299619,23.43452458,17.6700287,11.20162268,0,-28.84377604
318.1599998,1242,8.535845169,-22.32119742,49.44107349,-11.68143409,0,13.64628878,0,112.5994724,-243.7452811,4.258804306,-322.6291493,-106.374977,-174.4201122,23.33818261,0,1.860108865
318.1679998,1242,17.53756711,0.444653055,36.93804778,-30.03101116,0,-13.95799335,0,75.79504725,160.9474796,-52.52967376,333.4874762,35.20532236,174.3673434,-78.34932372,0,-6.830408419
318.1759998,1242,-1.709193319,8.067079599,-233.8700974,-30.08187716,0,38.57590337,0,88.42720474,-268.6906459,-0.002217556,-272.5500372,-52.45826169,-181.1248379,1.344475419,0,-25.85856686
318.1839998,1242,36.2043403,-25.51453239,232.8945987,-27.29749051,0,-16.679498,0,115.4746186,23.24510654,-39.32295071,65.80379686,-35.02266628,61.43300389,-61.11687979,0,39.25349629
318.1919998,1242,24.15172616,35.67460224,-221.6366982,-23.04665389,0,14.47948486,0,50.95173279,-21.71857241,4.605399586,108.3449759,35.43973533,40.88570776,-13.51234049,0,-21.97707936
318.1999998,1242,7.76100373,-31.91256057,70.94831608,-23.07133318,0,15.81789943,0,114.4923993,-242.4127773,4.202202051,-322.6164213,-94.50453129,-159.4353326,33.65143615,0,19.64932739
318.2079998,1243,22.00363751,-2.916005472,60.43289751,-39.66609819,0,-14.74731409,0,76.17713528,159.8820323,-50.35594177,319.2163189,38.40232311,192.3645965,-88.5362454,0,12.51688104
318.2159998,1243,-8.797668817,0.1000363,-217.8046663,-34.94311229,0,38.22832928,0,84.22162509,-270.2665336,7.400876976,-287.6358412,-59.758656,-168.7402461,-14.97833794,0,-10.26910524
318.2239998,1243,7.609562608,-44.73782249,242.5246826,-35.54227474,0,-11.3745954,0,119.6339836,4.909923759,-50.02494315,40.20266202,-56.80749169,49.64327349,-45.54789127,0,47.60426125
318.2319998,1243,5.947121935,25.29582482,-212.5253813,-26.45717471,0,14.59670436,0,57.16547783,-41.77587834,-13.38078879,86.16573254,12.00352697,28.17558819,-22.11078454,0,-15.88867036
318.2399998,1243,0.578660257,-39.85979937,73.8365515,-25.10394167,0,9.444520147,0,114.4021833,-260.4024881,-7.449578437,-334.8969285,-114.8510163,-168.1121624,11.7637324,0,21.63161908
318.2479998,1243,24.18527496,-0.474438706,62.6115989,-42.23906322,0,-16.08529905,0,72.0337088,131.7703899,-63.86723998,307.835767,16.89713797,174.8268807,-112.3711642,0,10.86478085
318.2559998,1243,13.38593966,23.36273218,-209.3851743,-21.1254233,0,34.81363246,0,67.7754419,-287.8529653,19.54563141,-288.1137634,-69.48482188,-179.2978015,-30.11039818,0,-19.75650036
318.2639998,1243,27.33583635,-36.24833753,254.5496215,-17.890505,0,-20.54473647,0,104.1774512,3.34571329,-16.29056786,47.63810957,-54.724442,51.23807146,12.30603309,0,29.95300139
318.2719998,1243,15.25003708,25.22266042,-203.2745054,-28.09781545,0,13.14698793,0,57.93320956,-40.77259109,-10.7854066,98.11008724,13.90827631,27.31276892,-26.64239106,0,-23.0457052
318.2799998,1243,4.666058019,-28.93940697,69.7959955,-32.59806091,0,5.512809752,0,108.9954226,-252.3345631,-5.147146969,-321.9766404,-120.3185351,-175.4657651,-46.87941217,0,13.90167902
318.2879998,1243,14.38450172,-3.481727267,49.73542523,-48.95542119,0,-28.77209729,0,65.19483511,146.8298384,-49.18559673,311.6205551,7.208626024,172.8451657,-90.3172791,0,-1.058205323
318.2959998,1243,-0.698825975,14.97797015,-221.1574298,-41.33586764,0,34.90927043,0,74.69771056,-268.1349982,2.48522376,-285.1495298,-73.81908189,-170.6868739,-37.58112943,0,-14.38941482
318.3039998,1243,17.80239063,-34.04147967,235.0980452,-33.29337959,0,-21.28925261,0,92.28844785,20.45206752,-30.61964837,42.81105583,-70.6661737,49.87466378,1.237318243,0,22.04492989
318.3119998,1243,2.427414118,19.82723126,-225.4310041,-22.32572703,0,5.588699739,0,40.95171455,-37.79359575,-9.529049177,84.610018,-7.710781173,21.20480265,-9.15304902,0,-43.89341479
318.3199998,1243,7.823241522,-26.00989035,58.60893124,-17.37728368,0,11.88214625,0,105.6260008,-255.2975065,-8.617135788,-329.999371,-123.9773131,-166.8069206,-53.37878127,0,19.31982286
318.3279998,1243,33.6064699,12.55784426,57.11150176,-15.45098735,0,-13.82985411,0,56.07054088,143.323651,-33.3152822,306.7226257,7.862289293,172.4355921,-45.55022202,0,1.747420565
318.3359998,1243,7.945594603,19.73468616,-203.8845549,0.11151392,0,48.68921705,0,69.56901344,-277.0726157,24.14386355,-280.3076777,-67.37614018,-176.0063206,8.820855198,0,-15.64286949
318.3439998,1243,27.89530974,-23.22525257,248.0712431,-9.290554666,0,-3.137018775,0,88.85771482,14.83533893,-29.67441764,59.08994944,-59.36653918,60.6384858,-26.60919717,0,31.45555322
318.3519998,1243,8.343764953,34.36206596,-207.3372634,-7.037118665,0,29.72790349,0,31.60292738,-34.86922811,-7.912778574,106.8979691,-4.123902955,21.01119945,-11.74114248,0,-57.92279628
318.3599998,1243,-6.521599698,-31.77270374,81.35202807,-3.79576306,0,30.66632717,0,113.7121534,-252.7908942,-7.255600802,-303.0013016,-114.6817753,-179.3480933,-31.65911297,0,-4.608481289
318.3679998,1243,28.63988769,6.975114824,72.25540861,-5.323001247,0,-8.655948761,0,86.40325132,152.042087,-40.03417756,341.6721726,29.75907924,175.0137108,-47.57770854,0,-2.963334158
318.3759998,1243,13.61270668,22.96962857,-200.05357,7.276891799,0,35.76041579,0,91.92944316,-259.0715705,30.93959352,-239.7723648,-47.63030694,-173.268306,20.16797607,0,-27.80787486
318.3839998,1243,16.38863684,-33.82001107,251.5891946,-7.15272262,0,-19.68550582,0,116.2460393,24.98194461,-27.31732202,89.6353766,-47.07641955,46.5926543,-90.15909794,0,6.686147572
318.3919998,1243,0.738640133,22.50685798,-201.8915365,-8.954287341,0,15.06073809,0,75.9854622,-34.64961229,-14.36275499,129.6007062,15.2828082,3.363852508,-74.24758271,0,-60.50337688
318.3999998,1243,3.821390537,-24.08974036,83.09431981,3.947494766,0,7.575938267,0,142.635269,-252.4046343,11.59264244,-293.2132748,-96.60493131,-184.6222246,47.53599934,0,-3.140973434
318.4079998,1243,25.33983566,13.47921118,80.58703201,0.381482299,0,-20.72223273,0,103.7634001,152.9379885,-17.03179907,333.3269356,30.5290832,184.8444896,-3.506861494,0,-20.98206553
318.4159998,1243,-2.69085435,18.59775593,-193.2172913,-4.516443842,0,38.14175835,0,111.6643198,-269.4187637,34.19145989,-256.6395924,-57.57699588,-171.8357168,13.4891155,0,-42.65884203
318.4239998,1243,4.951006987,-37.66394452,253.8437834,-9.508588262,0,-16.48959336,0,143.5717966,9.796529558,-21.53325442,63.61623681,-55.14761956,55.94381667,-31.16930021,0,3.647363705
318.4319998,1243,-3.772742585,27.89955508,-198.1394243,-10.41461985,0,14.09620609,0,89.89473745,-41.11009992,-2.193173968,101.1155823,8.710388841,38.95234172,-51.05573131,0,-59.36232012
318.4399998,1243,5.276894758,-15.49365774,79.97956018,-10.37184795,0,5.592100093,0,124.5860777,-258.2417598,16.45249846,-321.814157,-118.5963928,-174.9521876,-9.660871358,0,-21.75234636
318.4479998,1243,21.63841456,6.440075236,77.25559423,1.212758427,0,-14.73506397,0,89.11166649,142.1298259,-14.92286845,301.6713468,2.471820642,165.1295099,-45.60358541,0,-61.96764552
318.4559998,1243,-4.57873628,7.862812724,-192.8012216,5.102813541,0,38.90307214,0,105.7746186,-280.5228934,37.14398103,-282.6360489,-72.73696116,-176.535062,9.93761724,0,-73.05166659
318.4639998,1244,14.94432202,-39.17205582,248.4447381,-10.16703959,0,-26.1607363,0,121.9531535,4.42373937,-25.72868671,39.70615105,-67.15731169,55.74749067,-43.80596534,0,-23.67892197
318.4719998,1244,5.59110416,24.55004634,-197.7696953,-0.012608943,0,17.25806766,0,70.67535601,-38.22952311,-4.216095073,83.86302461,-0.936905664,33.34098167,-35.57016193,0,-99.1507417
318.4799998,1244,7.066943715,-21.49166531,93.50550969,15.14329247,0,23.07024762,0,129.9758423,-247.019615,28.31336018,-308.5832452,-106.6478548,-158.4650172,26.87155272,0,-39.80119832
318.4879998,1244,18.07116555,2.917949727,81.04496068,10.59672107,0,-11.03052305,0,93.88063389,154.2743824,-12.65323376,331.6553313,28.16939808,197.4549631,-62.84101758,0,-49.54958205
318.4959998,1244,-9.999445399,11.15192563,-194.5774467,14.00106319,0,34.36567803,0,105.2349887,-272.2556102,32.76257886,-258.5385926,-53.66439186,-156.2755298,-18.57546611,0,-63.4280219
318.5039998,1244,18.7935867,-25.70616589,261.6365653,24.67949621,0,-18.95000468,0,142.4202955,12.34827625,-3.627684261,68.24154922,-44.57914372,62.34113086,-17.73440441,0,-14.73477543
318.5119998,1244,20.20351249,39.32076097,-181.8832281,25.32463305,0,23.84595504,0,104.6522322,-27.16328407,21.09902336,118.0087138,26.24798059,36.73518485,-25.49973511,0,-77.91929864
318.5199998,1244,15.0477299,-15.66452625,95.2745869,9.736964634,0,16.1532864,0,150.4151341,-240.658459,34.07488022,-289.5144085,-95.08538192,-162.7894465,-12.51626238,0,-29.45456997
318.5279998,1244,16.94884392,-1.718130954,80.93977788,3.01433459,0,-20.5773765,0,111.974593,146.0709446,-9.61666621,333.6635373,26.08955952,185.5240077,-25.28132173,0,-60.78482031
318.5359998,1244,-2.980996868,5.704925332,-194.7952253,5.054698485,0,28.91215817,0,133.3126961,-275.0598203,36.1592082,-251.5792876,-57.01770728,-157.7479109,44.597507,0,-76.75362259
318.5439998,1244,27.10697041,-25.72284557,237.4717873,-6.247787616,0,-35.19016727,0,141.7002409,20.32719774,-1.829274284,75.7496136,-53.21862681,62.54331794,-32.42511505,0,-35.24386659
318.5519998,1244,19.84055784,37.83529884,-219.4474324,-5.289161749,0,1.52508215,0,80.67505,-29.01839691,18.24634531,115.1120294,6.924553914,27.15874874,-11.25903823,0,-118.3240161
318.5599998,1244,26.40206168,-10.84053168,58.5982645,0.835446723,0,3.886757386,0,133.3035441,-237.9081409,30.45055636,-287.8946521,-115.544264,-168.0627059,34.28687759,0,-78.61115011
318.5679998,1244,38.98482012,19.0424515,45.26581986,5.483936918,0,-22.75070257,0,88.00110764,169.6638464,2.564215644,346.205786,20.30087529,188.6500016,-44.75220616,0,-108.9184196
318.5759998,1244,7.284965783,21.43981583,-218.3241143,8.852483274,0,33.03062357,0,105.1468202,-254.813324,50.20483879,-237.9521626,-53.31363552,-163.0426639,28.93069941,0,-120.3865688
318.5839998,1244,28.02137156,-22.54832591,234.651702,4.080321187,0,-24.3040563,0,130.2106593,29.2275898,-3.528655843,83.09550337,-53.15394742,55.17733841,14.22933064,0,-77.64204982
318.5919998,1244,15.29885285,47.82540671,-197.100737,23.03958714,0,26.59750753,0,99.78237009,-12.67761474,22.89874506,126.0631453,20.84572548,51.83633225,-6.461760612,0,-143.4664774
318.5999998,1244,10.09574368,-8.836031736,78.89231573,22.80271357,0,23.93332235,0,164.3849105,-227.5569274,43.6249396,-276.300784,-83.1455255,-138.5191124,24.92379745,0,-74.40020669
318.6079998,1244,18.89891373,0.849576563,48.57573646,-2.053973733,0,-22.69903662,0,109.0000765,164.3711862,-14.35791961,337.7621528,39.24347388,188.9271657,-9.513722438,0,-103.5511653
318.6159998,1244,-14.07328694,4.003421458,-212.6064348,-5.383873915,0,38.68989407,0,139.2870703,-257.7837691,14.06463598,-252.7722529,-45.24023984,-156.3473264,12.90163494,0,-112.4757705
318.6239998,1244,12.56908228,-33.8135817,218.1969888,-17.1655257,0,-25.45913568,0,162.2527203,22.24678586,-19.44386185,73.73740592,-37.93934569,66.7778664,-35.55024266,0,-43.51271968
318.6319998,1244,8.575305833,31.26951655,-244.5505128,-14.94953558,0,4.274957051,0,100.2640593,-20.67986891,8.78204928,108.62648,23.77013186,43.3119886,-9.875222102,0,-107.8360118
318.6399998,1244,6.242480418,-13.46026273,45.79404688,-0.105987965,0,18.88629607,0,160.3086229,-226.2219751,29.0793544,-290.7912871,-88.83804429,-147.8210899,20.64625755,0,-54.88561914
318.6479998,1244,47.11599618,42.54431868,24.27692666,-0.244233686,0,-20.97463296,0,83.35340676,168.8124034,9.911134462,340.9798667,45.90152046,175.0486983,-19.53781441,0,-92.27893951
318.6559998,1244,23.28958477,52.1959805,-237.432091,15.96187973,0,20.61565882,0,70.46832442,-240.7303811,74.28630162,-241.1029186,-37.7903912,-183.4996166,73.5053777,0,-141.3570007
318.6639998,1244,10.76143839,-22.40473912,228.926595,19.07748647,0,-25.09238161,0,106.5182071,40.65849023,29.26086706,89.39715528,-23.14641083,53.48954427,26.92718121,0,-101.6366473
318.6719998,1244,3.718076231,38.58982888,-213.7636111,2.915117955,0,20.81482635,0,70.65510009,-22.52653186,25.31178741,122.937335,53.31777383,44.85121687,-18.54763711,0,-138.107375
318.6799998,1244,12.76848578,-7.449457786,71.08542476,3.662704573,0,15.46576718,0,127.4012156,-225.7466387,37.48569144,-286.8820913,-68.97216373,-145.3914198,27.47949697,0,-73.71054395
318.6879998,1244,31.39478302,23.13671782,54.79760957,4.462423273,0,-22.78625697,0,62.40264827,179.8576867,16.05213164,343.6685938,59.93065744,186.3724199,4.713531257,0,-112.9059504
318.6959998,1244,5.440629445,32.12044557,-214.5558425,-2.242841989,0,27.4546905,0,61.97164377,-246.9207367,51.95751755,-242.2160745,-23.28939162,-167.3703868,51.26337739,0,-134.8864681
318.7039998,1244,13.10598686,-26.03708128,234.1118458,-5.713409027,0,-33.2527214,0,87.91034636,31.00683555,-1.336319498,77.72619764,-25.15301077,56.21049673,0.272611139,0,-92.86462936
318.7119998,1244,-0.768398096,28.74519151,-217.7253231,-8.300189057,0,8.199961691,0,56.08546763,-14.42898154,22.71114787,117.0604047,46.70256915,35.67665922,-15.56469278,0,-145.3087005
318.7199998,1245,-2.335703788,-24.47568689,64.72487592,-14.50447694,0,15.3035675,0,135.5979303,-223.6983298,29.14716558,-290.8769125,-70.24995184,-154.2971523,38.67167478,0,-63.06132398
318.7279998,1245,5.444475717,-4.324753196,53.5331555,-20.47059813,0,-21.20362553,0,85.61018063,169.1056199,-14.02556629,327.6402322,50.93756642,177.7881478,-48.22729872,0,-84.4976921
318.7359998,1245,-31.19183428,-3.484522943,-211.0090159,-22.06628094,0,27.93983822,0,108.377438,-256.0833242,26.09979824,-263.1198943,-31.39979043,-179.2736074,-40.37890312,0,-87.90132204
318.7439998,1245,1.26304921,-31.51196882,243.5306098,-9.721844418,0,-30.05791881,0,136.2009114,28.73314189,-6.303047513,58.00100557,-27.70698496,38.92757727,18.35561392,0,-30.52357314
318.7519998,1245,-0.313642458,40.7720861,-203.3267848,-4.510930883,0,-0.005645789,0,52.93360125,-10.22542416,32.53585721,107.4179457,35.99278897,31.14120653,17.81856667,0,-112.0571158
318.7599998,1245,-14.51782727,-20.51044314,78.05999077,-16.57494013,0,0.830962671,0,104.885325,-224.8631665,37.0704583,-291.8396832,-86.74942991,-146.7793217,-1.791948703,0,-65.90968896
318.7679998,1245,12.31575457,15.3266957,61.67225367,-12.98580999,0,-27.37918696,0,52.51739218,161.3784746,0.404143637,326.2657073,37.3260262,175.3589036,-2.91496551,0,-99.70309455
318.7759998,1245,-5.885972181,28.07550241,-209.4525726,-8.150660595,0,25.37044587,0,47.01649617,-250.9603801,45.30825627,-254.132396,-45.85091086,-167.5415294,35.14399807,0,-120.5189814
318.7839998,1245,7.90916446,-17.87538987,244.8758903,-1.661084972,0,-29.75497082,0,67.11141511,44.11736978,6.311482038,75.62149949,-44.18057996,63.94871924,-5.809601824,0,-85.82147057
318.7919998,1245,-12.05809073,33.43711665,-199.6016695,4.143834023,0,11.08783712,0,22.4406668,-7.145386279,32.935182,115.9094809,32.66310072,35.64331815,23.22075552,0,-147.3757632
318.7999998,1245,-26.83095128,-34.63821165,79.87195863,-15.76132342,0,17.96587858,0,100.2434002,-227.2069038,18.32223924,-294.6632068,-80.42428616,-152.8008847,4.877239806,0,-63.20272481
318.8079998,1245,8.227316282,11.10432315,63.55227228,-17.82073821,0,-18.7295943,0,40.75781771,169.581136,-20.92979558,325.6530389,37.04570387,169.991063,-55.5822241,0,-86.91647699
318.8159998,1245,-7.990989199,29.50980479,-207.439037,-2.815964881,0,29.71414643,0,43.49555056,-242.5120818,43.78420657,-254.7196907,-40.93878265,-178.5154665,52.50229292,0,-97.42217484
318.8239998,1245,-0.543647826,-25.41339262,240.1917791,-6.366820162,0,-19.09456112,0,76.24679594,41.78811223,3.307802026,60.00403228,-34.83238527,51.11441966,-5.750513459,0,-51.36740779
318.8319998,1245,-10.06858231,31.97993465,-205.202166,-5.942437236,0,24.5772884,0,19.98468906,-6.419286445,14.46661002,93.98431107,25.82694992,14.12551867,-43.77058514,0,-129.1341108
318.8399998,1245,-18.04001591,-28.71014923,74.09991835,-10.22554392,0,28.17115351,0,91.89606496,-216.2689959,9.561431592,-314.622718,-91.22593375,-180.2251012,20.81777275,0,-61.47294065
318.8479998,1245,14.26615555,11.20818589,51.0019358,-12.38161818,0,-13.26647533,0,29.0981656,179.3039149,-16.47055486,302.8746132,32.5426342,151.9134846,-3.421206182,0,-94.68817636
318.8559998,1245,5.327988359,26.51566546,-216.0175179,1.626526813,0,35.44213842,0,18.79774858,-226.6340739,42.49138376,-272.9511643,-52.41611596,-190.2198045,20.94798433,0,-128.8458742
318.8639998,1245,10.32351651,-31.99902608,241.596122,2.287624006,0,-9.123280461,0,62.35796026,62.96032338,-13.52118862,54.81281642,-43.87668985,47.00833952,-29.26179207,0,-74.29171728
318.8719998,1245,1.0200411,34.27442228,-204.9592931,2.60016496,0,30.19033304,0,17.24001355,5.950319402,10.88432388,97.04705263,23.43806023,15.67526275,-35.34551945,0,-134.5104467
318.8799998,1245,-3.157775878,-20.06013509,71.36579197,-4.585727459,0,29.40375332,0,82.30491882,-208.2753672,27.16063199,-312.3618938,-97.19214701,-168.8921819,-11.20623555,0,-81.09055271
318.8879998,1245,22.83750386,11.14282162,55.47630855,-8.078461512,0,-7.305286805,0,28.37802578,186.2386801,-9.362612885,304.7140399,36.38895956,174.4209307,11.62452027,0,-102.6873121
318.8959998,1245,8.911390559,22.15626454,-212.0735239,5.764583127,0,38.78667547,0,18.89266745,-227.2997311,43.17001114,-271.9072542,-41.02995921,-187.3567954,49.55237923,0,-126.2198968
318.9039998,1245,7.046454917,-45.7954287,242.3502973,1.006769049,0,-8.595069343,0,53.23624212,54.49934115,-13.45695546,51.25771028,-41.11548546,37.13288475,-45.28290394,0,-97.17495546
318.9119998,1245,-12.40561712,7.86859608,-199.2163146,-4.428647133,0,33.77479695,0,10.24921262,-2.43301951,-5.471952389,94.51134728,28.51543314,21.25875412,-6.752109586,0,-156.5771128
318.9199998,1245,-18.47358047,-38.19528848,69.39219812,-9.943473653,0,27.68374962,0,63.27520749,-215.2976478,3.654085976,-316.954021,-96.26756668,-177.5811609,11.71706211,0,-90.82460166
318.9279998,1245,5.305998813,4.825572122,44.53511662,-9.795962374,0,-8.764174441,0,-0.367861167,186.46892,-12.10611702,295.8814903,20.66450955,153.7594474,-19.36714568,0,-130.0036661
318.9359998,1245,-20.88877514,6.922936839,-223.4089882,-7.784358507,0,42.00852688,0,-0.630760654,-221.6253559,42.08808399,-282.7616383,-62.71894011,-182.4759195,26.99074403,0,-157.1593725
318.9439998,1245,-15.75370823,-58.30379951,230.1710898,-12.78190047,0,-9.204264743,0,39.79338992,53.75733508,-31.46199489,34.8042634,-66.83282016,44.79986253,-51.95910654,0,-110.1216806
318.9519998,1245,-20.34043014,8.396336506,-207.1281518,1.233995212,0,34.61827584,0,4.159111775,-0.10237076,-3.431465455,83.36481853,8.827429071,20.54696389,7.551753922,0,-164.2842493
318.9599998,1245,-21.27415947,-40.19389015,66.61861058,-8.049688021,0,26.73803474,0,61.08214217,-209.2616246,17.3954085,-318.3245776,-101.3709876,-166.0496446,40.41396064,0,-90.95694545
318.9679998,1245,13.13785294,3.316310113,49.66408718,-17.76154794,0,-12.19123633,0,4.498428148,184.0428359,-24.14176579,294.4291277,21.37813269,172.2060377,-24.50355552,0,-109.0138491
318.9759998,1246,-15.87470077,8.487229715,-205.9598625,-5.879654529,0,47.98670803,0,19.18148111,-227.370315,37.37047716,-280.3681617,-53.03354018,-167.9028027,23.32513262,0,-132.1233934
318.9839998,1246,-23.71570595,-57.65309301,241.4866998,-14.20626113,0,-3.655104459,0,54.26108006,50.66020747,-16.96274323,41.43028557,-49.92203419,53.24248244,-47.63458458,0,-88.1169063
318.9919998,1246,-17.79537721,21.94213529,-210.7370043,-14.60978851,0,34.13188731,0,5.69496885,-5.749077949,-3.717644092,76.15362557,16.04024873,21.29371062,0.345889431,0,-138.7446548
318.9999998,1246,-9.854092319,-23.66125746,74.16895851,-6.896761357,0,34.55153695,0,65.82946103,-209.1681466,27.29027528,-325.2807331,-102.5717377,-163.8299844,50.89081752,0,-86.81564819
319.0079998,1246,3.012673878,-6.695820538,58.26144364,-1.348657066,0,0.635769411,0,13.10906987,189.8180527,-4.172495464,308.2602448,22.98042612,177.6362723,-41.3631671,0,-119.6949152
319.0159998,1246,-22.09672801,-2.304427102,-218.5504212,-4.751803633,0,52.04229655,0,25.67304243,-235.8229805,29.06398927,-271.1166962,-53.00208401,-168.4006911,3.183895373,0,-124.4036782
319.0239998,1246,-7.998956028,-51.14015604,230.2802509,-14.45404882,0,-6.552105475,0,63.37753812,46.27886112,-23.28818333,50.35594016,-48.90940743,56.92208654,-27.91545496,0,-74.20972485
319.0319998,1246,-15.99374659,15.66704537,-217.1270901,-0.116219482,0,25.61139165,0,10.37237242,2.915605611,14.75699009,100.5621027,19.01124696,25.06993478,11.89317711,0,-140.8953844
319.0399998,1246,-25.0973459,-39.47396449,64.74927311,7.720844428,0,19.91669978,0,73.12481861,-211.1417903,26.14992886,-306.0274699,-105.8838238,-160.6485513,46.25128615,0,-87.31372135
319.0479998,1246,-12.52006138,-10.17361398,49.98111137,4.560101685,0,-10.83288556,0,43.85041072,183.8356306,-27.83302568,320.8956775,24.01704325,191.3291221,-56.8802311,0,-97.8824069
319.0559998,1246,-31.42478176,7.868281272,-219.8655031,5.635883178,0,49.99102133,0,67.29687972,-233.0698929,35.20186448,-254.9998585,-43.01471611,-154.9241154,0.491908139,0,-94.58833397
319.0639998,1246,-9.506066508,-37.30569438,233.7834241,-3.149567272,0,-13.92056019,0,89.63545054,52.35070218,-4.597623662,66.36779194,-46.3951471,74.15447017,-14.82460715,0,-50.19692739
319.0719998,1246,-19.92234712,21.70362872,-224.9362528,1.095496601,0,5.605108479,0,14.95361652,3.801688671,7.715470933,104.8133776,11.3014562,34.87546983,7.73180763,0,-138.2185812
319.0799998,1246,-40.70531417,-43.69886002,54.92387642,1.434735741,0,10.04740664,0,83.55180962,-211.0433719,12.84822844,-306.5909205,-101.2210704,-166.3970869,43.68705392,0,-92.19475787
319.0879998,1246,-27.84245395,-16.58254132,42.89780288,-4.964261622,0,-16.28320121,0,51.30577712,185.3998757,-32.67917711,321.204164,34.15240976,183.6907983,-34.82669187,0,-100.0498755
319.0959998,1246,-45.25820766,-1.945236085,-232.1792508,7.681700491,0,31.64149835,0,51.31646817,-239.7052669,23.23312363,-266.6869318,-47.36565809,-166.2347594,18.07821942,0,-115.3653492
319.1039998,1246,-22.27412174,-41.71905796,224.6537907,3.812330915,0,-28.12495862,0,82.69629933,43.41779615,-27.34443009,52.63092128,-47.01479313,77.81576312,-63.5404664,0,-61.37181011
319.1119998,1246,-8.990721359,40.36636139,-223.0968768,12.67270445,0,-0.595570898,0,11.70320001,3.690540982,11.69691057,93.98644249,22.62695261,54.5733429,-37.76567179,0,-136.9888377
319.1199998,1246,-18.28334413,-20.11097848,78.0419113,35.23502241,0,5.279046836,0,72.78580772,-199.8461311,43.42451144,-313.3296962,-84.2382199,-139.5137601,88.78814539,0,-91.18397174
319.1279998,1246,-3.417895869,9.149852604,76.89287458,27.70098679,0,-18.79012985,0,43.94412896,209.7130563,-12.69390239,328.2136401,52.35936745,231.1546772,-8.879751124,0,-79.38881823
319.1359998,1246,-20.56921014,22.86806805,-207.0400135,19.23419493,0,26.28518348,0,37.88217427,-206.6562263,42.91998751,-257.5417445,-34.99798629,-126.9287446,8.741226752,0,-96.53571017
319.1439998,1246,-23.26948542,-42.05092078,254.157655,10.2900819,0,-26.79933344,0,81.74129018,71.96944834,-12.25016516,57.78295098,-39.84647008,96.51423088,-18.48932714,0,-50.74952546
319.1519998,1246,-11.1856842,46.38612932,-189.8786158,14.46369197,0,13.71116839,0,27.88846183,23.67209107,0.784770811,102.4886565,27.03139658,81.28055183,-24.2680392,0,-101.0226891
319.1599998,1246,-6.255200981,-1.417868273,95.84914598,19.25209677,0,7.866828681,0,70.3276854,-182.9832336,33.16105648,-305.2726807,-92.94709913,-125.4719036,16.39063383,0,-62.46329868
319.1679998,1246,-5.505611742,3.085134951,88.34111251,3.810271896,0,-31.52777311,0,40.24541156,216.1372207,-20.17658818,330.3584766,32.185801,222.3303739,-35.40231265,0,-85.27252777
319.1759998,1246,-2.6824414,31.67686503,-195.3997339,3.881204489,0,20.13803047,0,50.15021537,-211.0425504,24.85632929,-255.6587664,-43.1559071,-124.9093372,11.47343047,0,-86.48058138
319.1839998,1246,16.45617673,-15.62091076,262.0200491,7.215598283,0,-25.48406803,0,88.07841686,75.0753577,-8.74120985,69.3760318,-37.84565689,104.3511643,-46.04814585,0,-35.23173011
319.1919998,1246,-0.560432964,36.1044867,-194.6211065,-0.78366251,0,13.61942023,0,45.21645136,28.98285823,9.180073577,117.4869543,28.98690891,80.60064916,8.980790469,0,-95.10346795
319.1999998,1246,8.136983673,-12.26579237,66.51548245,-18.72645067,0,-3.572562308,0,83.85643205,-187.6738296,18.10148679,-309.4012799,-99.12100244,-136.8252757,45.11185322,0,-44.93860696
319.2079998,1246,12.29495006,3.006257697,55.45017969,-15.00691684,0,-42.66683022,0,35.10944826,213.8841695,-28.05904164,313.287657,14.98806659,189.1358219,-57.91576631,0,-88.28511378
319.2159998,1246,-11.9682647,14.44336463,-222.9643761,-4.954979269,0,19.37525467,0,57.8490022,-208.7730313,18.00865082,-267.0133901,-50.3443059,-162.2498059,29.3980979,0,-94.70728733
319.2239998,1246,22.75681477,-18.90651925,226.2102405,-20.7213536,0,-39.56976909,0,79.54962477,81.11889892,-22.14729713,55.29000701,-41.11300906,68.75435698,-27.84906397,0,-30.61746182
319.2319998,1247,15.17776999,45.14283917,-221.0342706,-9.826257424,0,-3.046465192,0,13.0919099,39.72639282,7.533764894,102.1002424,16.43162064,28.9290471,-47.40988927,0,-122.6846388
319.2399998,1247,14.26090322,-7.663263004,60.4101775,-5.691444308,0,-2.007687903,0,75.48164281,-176.3822103,17.44111667,-310.0988871,-96.31812652,-171.2960258,21.3294775,0,-76.36106195
319.2479998,1247,29.57892604,17.43603503,61.69514672,-5.48781224,0,-34.6157123,0,49.26449517,232.9963398,-23.18262811,325.2158653,36.36799092,191.8552806,20.28952062,0,-89.00022731
319.2559998,1247,-2.885683456,21.71830138,-206.2474883,1.766622907,0,30.61232529,0,74.16258908,-195.5395592,28.82245754,-260.2458368,-35.90099917,-167.2125754,57.01395892,0,-100.3401578
319.2639998,1247,22.11747179,-19.45118563,247.3810412,-12.83775577,0,-27.79731449,0,96.74134701,81.21746207,-21.23617425,51.69465483,-30.63443147,51.82898344,-43.92792776,0,-38.53370485
319.2719998,1247,13.70794148,47.38978447,-193.9929826,11.03187107,0,7.81495442,0,52.16545616,45.47669966,16.30480185,97.42396985,39.90004511,36.01523096,11.20608479,0,-112.2473431
319.2799998,1247,-3.378917426,-20.49184736,87.42626517,8.198652184,0,8.696603788,0,129.1012188,-171.7019405,31.47084159,-316.611058,-66.78584471,-161.8271659,51.68283793,0,-45.27369527
319.2879998,1247,24.2341865,16.03881587,66.85849099,-18.29505126,0,-35.74166052,0,66.72224104,228.3858246,-31.28091138,312.4363869,54.65863998,178.6706471,-50.98302765,0,-42.52660187
319.2959998,1247,7.777560189,33.98422608,-209.9357664,-5.560183909,0,21.08777254,0,73.98166102,-197.8648141,26.85290056,-274.7217013,-25.61357736,-186.0925249,38.98558957,0,-73.9704519
319.3039998,1247,27.18336322,-18.72932529,253.8483488,-17.75293892,0,-33.45680817,0,106.0120139,88.3990094,-6.019722348,46.9255426,-21.0194433,37.0605331,-8.417026572,0,-32.38990509
319.3119998,1247,32.29295151,65.06913113,-193.8866777,-10.52943558,0,3.270435152,0,33.40425207,56.44596239,17.18913255,103.962942,43.93750986,26.29904801,-17.27933069,0,-101.9557772
319.3199998,1247,10.97080532,-5.567804851,89.15326591,-2.503816457,0,7.127153994,0,100.3697134,-166.9141614,38.01447526,-311.2379836,-65.31515459,-177.0463086,66.67014326,0,-58.5423059
319.3279998,1247,22.20668317,2.285968441,77.82041228,-26.26146235,0,-37.76754636,0,48.72974917,225.7512384,-26.46757709,312.3560874,51.78211856,157.9645068,-28.99212719,0,-84.02964929
319.3359998,1247,17.71775237,30.84816609,-207.1355452,-15.13803205,0,15.1396973,0,40.47762172,-200.3411575,12.48871393,-276.5172853,-32.58823565,-195.2552288,5.399333355,0,-116.4332411
319.3439998,1247,29.84683519,-21.92826492,259.0987907,-3.439053929,0,-30.57652961,0,88.06396753,89.96250394,-14.78871772,46.17596701,-14.41080685,48.42603466,26.5178185,0,-67.02774782
319.3519998,1247,17.28714139,39.25127611,-197.2959493,-11.7883432,0,1.044500004,0,29.11827756,48.32772771,-11.24465266,92.54557399,54.26267839,41.11699559,-16.70113442,0,-121.4255396
319.3599998,1247,2.136927624,-19.6628382,68.28607093,-25.10791734,0,-3.904498679,0,70.80260339,-182.7337186,-11.50760726,-341.9448308,-70.76305825,-179.8777891,-36.86021248,0,-82.32991537
319.3679998,1247,2.00202323,-5.110564634,69.81649382,-26.34945209,0,-32.63615985,0,37.02567068,215.2422144,-56.00651184,284.3465496,54.46805856,153.1376848,-46.25626851,0,-111.5387444
319.3759998,1247,-5.040517471,23.70970101,-207.2961181,-13.91556162,0,22.88549729,0,48.49025237,-211.8072926,-0.090159714,-298.1786958,-11.06680891,-196.9228106,44.02708856,0,-113.3835397
319.3839998,1247,27.51514875,-12.41877013,265.3153803,-13.20419169,0,-30.26340486,0,75.67417223,83.00649146,-14.77615846,24.55047471,2.479530482,43.78613086,-13.27049197,0,-62.56939243
319.3919998,1247,3.162929486,33.06394054,-174.3867663,-12.28660546,0,7.138346695,0,26.68821467,41.16811232,-1.646390543,81.04818871,67.53766384,38.48706112,-18.32849082,0,-139.621959
319.3999998,1247,-3.897569428,-23.98600244,86.80652428,-28.56611386,0,-6.514388032,0,77.68222496,-198.8518089,-11.42936714,-351.4717652,-53.87953382,-174.3886586,3.880139599,0,-84.96217985
319.4079998,1247,32.72241512,24.43177825,90.0361729,-28.34995086,0,-40.52943907,0,24.18875269,212.8769905,-46.19204853,283.0535521,67.56668614,173.1816095,-76.37651335,0,-111.2819487
319.4159998,1247,14.39176031,42.35384887,-169.7885961,8.800501292,0,34.88882417,0,41.61476145,-201.4004115,27.42854973,-282.4926316,0.922521593,-174.2981814,25.94981168,0,-136.1767521
319.4239998,1247,26.49074409,-14.99001395,292.079323,5.103280485,0,-20.84510027,0,73.81401807,87.48713693,-8.968657735,37.51324904,16.96920822,51.73320132,27.75872141,0,-72.85904611
319.4319998,1247,11.16488443,38.18527511,-162.9481919,-5.635066125,0,2.645792576,0,8.062886337,46.27354351,-11.64375227,83.02150604,74.56648078,25.33802063,-6.440033332,0,-145.1921286
319.4399998,1247,-0.843833077,-16.15017728,112.4193632,3.38151082,0,8.397572281,0,74.33881008,-186.9674924,-10.5273219,-356.7594492,-50.0476245,-191.931982,-1.609138025,0,-105.6968541
319.4479998,1247,21.51680766,24.79986247,119.5371587,3.737326547,0,-18.37386113,0,31.33251512,230.0248639,-35.30136494,277.995507,82.46903686,171.417495,-57.91299602,0,-115.9301495
319.4559998,1247,-8.832213359,30.63036939,-157.6107016,10.78472913,0,37.53346759,0,24.15917867,-195.7961007,27.39026615,-295.0110595,5.789641477,-179.1515973,14.35684836,0,-143.6092545
319.4639998,1247,-15.75301697,-37.86337732,296.3223189,6.178929658,0,-17.93126845,0,65.03147667,74.36256527,-33.93136829,9.933007318,6.851827663,33.79115884,-16.97189048,0,-96.43149765
319.4719998,1247,-23.02008825,32.05098494,-162.4093625,0.340970827,0,12.45296333,0,9.767371709,33.08330786,-20.94240647,63.68435953,76.94976929,22.0856368,-26.41079743,0,-154.9248221
319.4799998,1247,-14.35892517,-8.418067408,106.1826824,-8.504168039,0,10.58527579,0,50.49350685,-198.4828218,8.936672147,-355.121709,-44.21399819,-178.9660745,-4.108249508,0,-121.0992275
319.4879998,1248,3.874046268,22.21293392,110.2840089,-9.173410811,0,-21.30722963,0,3.665458925,219.813728,-21.7090694,290.2573917,75.78267768,170.0626343,-72.2254457,0,-156.96096
319.4959998,1248,-24.62208157,31.09538556,-170.3744485,6.838594266,0,34.17425639,0,10.22249664,-210.7306561,31.14743157,-282.5219525,0.648965462,-192.5429617,16.25299932,0,-182.535398
319.5039998,1248,-17.34782409,-28.36587879,288.6312538,0.694390583,0,-21.20785331,0,59.93226179,57.16664571,-25.9819628,27.22942745,12.72248402,41.81983798,3.420079677,0,-118.065977
319.5119998,1248,-26.06124999,39.98096017,-158.3515322,10.18707082,0,17.62481248,0,26.44251656,36.22719591,-13.30203457,92.56705555,91.18926701,42.7507484,-23.42120235,0,-165.1454295
319.5199998,1248,-24.95021159,-9.976716062,102.3373764,5.150035852,0,18.17447233,0,84.11750463,-193.0276351,4.711376826,-330.0835183,-22.4385775,-174.1577405,-2.918345405,0,-109.2108342
319.5279998,1248,0.426730983,17.72395959,88.60585108,-19.62293499,0,-27.37585495,0,24.48445906,209.9097228,-39.28485764,295.1485711,91.20737034,175.332639,-77.94956478,0,-132.8376274
319.5359998,1248,-14.89641823,40.39258416,-194.7011066,-2.585854418,0,24.21451657,0,11.88149883,-206.1489512,21.23643859,-286.0553319,0.024831412,-183.1735925,-7.661722793,0,-178.5766164
319.5439998,1248,-0.228735788,-14.91985547,266.2789745,9.164314876,0,-33.57895375,0,40.22051008,78.28072496,-6.991572159,28.66191265,1.138169301,38.69042673,20.43502424,0,-142.5982276
319.5519998,1248,-9.878178603,43.85474609,-181.7249536,9.667823923,0,-2.888778645,0,-14.42520066,44.19761908,8.176622811,92.05559961,73.50372443,39.90443919,7.449080002,0,-208.6729542
319.5599998,1248,-23.83257232,-16.33277116,89.10615659,-0.759751801,0,6.536365354,0,58.16493115,-195.2201578,8.999461593,-332.9337847,-36.37802038,-176.4854192,-5.975825278,0,-153.8015713
319.5679998,1248,-6.613893693,4.227724991,83.38475681,-10.6085499,0,-31.41643078,0,19.69748425,210.1660694,-32.13453178,295.3158448,83.90159118,167.9556171,-52.74002943,0,-169.7040966
319.5759998,1248,-11.50341597,31.46516978,-205.5438215,2.692925019,0,19.19350996,0,0.396555476,-203.2933385,26.77706664,-286.2218532,-0.64712277,-184.3797348,23.14342327,0,-212.2878194
319.5839998,1248,3.304629257,-17.36653829,257.4490862,5.672317939,0,-28.06977452,0,33.76605278,80.01054917,-22.35028093,30.20339477,8.002080108,31.44066662,-4.773447468,0,-164.5329125
319.5919998,1248,-11.39336607,39.60099614,-185.600369,15.02407778,0,8.05104732,0,-5.787116972,43.49435037,-5.470992095,101.9408079,86.45172541,29.18754531,-14.00432286,0,-206.2226633
319.5999998,1248,-14.03735296,-12.02761042,79.72342816,4.965551915,0,8.139253405,0,42.89094353,-188.0710744,13.15024865,-324.609374,-25.46935495,-178.4890194,13.46120825,0,-151.1688735
319.6079998,1248,-13.22220081,1.094424064,78.10401605,-11.81046883,0,-23.36256209,0,-5.797418866,218.2100997,-35.26114821,295.2204828,85.82566423,142.2891175,-69.87477502,0,-184.9932792
319.6159998,1248,-53.54059799,0.5779234,-200.6709176,-2.633705319,0,39.11367813,0,23.07670839,-216.2672296,8.01539947,-283.4175853,14.46787817,-215.616594,-20.67734398,0,-188.9720932
319.6239998,1248,-17.01600912,-26.93133051,253.1173507,-2.473864532,0,-24.50882581,0,54.45787714,57.82828574,-25.81459607,28.28921802,32.52549929,28.54573993,36.13615437,0,-109.6728302
319.6319998,1248,-6.053262576,57.69440219,-198.0591253,9.042141931,0,-7.069745771,0,-43.38262273,36.2026082,13.54818489,83.78178113,86.24846303,9.089822317,38.62520573,0,-207.1226665
319.6399998,1248,-27.1043798,-8.883996751,77.89510735,-5.07935705,0,-7.091413885,0,-3.907644881,-187.1211913,21.74656854,-342.8491278,-38.12580788,-202.9999317,-2.776917892,0,-181.4331351
319.6479998,1248,-21.75280868,10.1069939,87.07958232,-18.96022198,0,-32.74368006,0,-32.81442985,217.216398,-37.84344919,288.1174086,80.81445387,156.4992506,-59.56647655,0,-193.0014336
319.6559998,1248,-41.65831393,33.67825358,-188.6352645,4.665468002,0,33.93892032,0,-7.729257535,-211.5742253,20.1320931,-284.0994658,10.88702041,-204.1702254,27.55126195,0,-200.272072
319.6639998,1248,-15.70282886,-7.091134029,268.0460011,-0.276698616,0,-27.67830022,0,14.97102654,66.51865124,-1.583689776,28.32656272,26.28890074,24.21283092,31.26374929,0,-135.9398246
319.6719998,1248,-25.38032746,46.16287231,-182.0752027,-1.276952066,0,2.644710832,0,-59.16326495,33.9812202,12.73047159,85.7724234,79.87300142,13.13909973,-6.255871502,0,-225.0618076
319.6799998,1248,-45.18140772,-23.77355857,85.19252218,-6.764028452,0,13.66737165,0,5.700798695,-203.4011628,3.703701875,-342.19914,-42.68049986,-208.5625125,-9.857247947,0,-181.8694437
319.6879998,1248,-16.95089946,11.45168343,88.5235705,-8.365395515,0,-26.56732469,0,-41.60101904,207.021006,-27.42759008,282.3891603,77.561388,152.074783,-30.30698737,0,-194.8082214
319.6959998,1248,-34.8250098,32.00188626,-179.8642885,11.12949809,0,32.41892572,0,-29.18533949,-201.7701492,40.56073163,-285.8305124,6.200438766,-177.564312,49.85496255,0,-219.6383818
319.7039998,1248,-33.1270255,-26.84627821,289.0094579,-4.486774596,0,-8.837665123,0,27.54904646,71.91451418,-13.51284416,30.12673099,20.15390827,54.84069353,-7.041721119,0,-153.4380589
319.7119998,1248,-41.23539736,35.26189727,-165.7710771,-3.562752433,0,17.57173532,0,-28.27072748,29.04160393,-4.272842926,90.41185825,83.88629517,36.46048408,-34.82872207,0,-208.7840913
319.7199998,1248,-54.56176338,-22.23576224,86.14843898,2.660933632,0,8.847944467,0,26.80573296,-203.8402534,8.196949338,-334.7066324,-35.75453849,-182.1139265,2.507422256,0,-162.033468
319.7279998,1248,-41.90979916,1.271060002,91.77564681,5.571153647,0,-13.81177097,0,5.985415906,204.0328805,-37.20514333,288.946797,86.38957583,175.1508769,-72.97560727,0,-174.0334103
319.7359998,1248,-55.76451402,23.6477792,-187.73884,31.01644984,0,50.84876776,0,29.36808606,-206.4309365,30.80816607,-280.2709033,28.12754897,-164.8842105,29.02742204,0,-167.087569
319.7439998,1249,-31.06036163,-13.3387263,261.4927438,27.121821,0,-10.65294918,0,50.34297766,68.23706022,1.234709378,23.68277132,32.50255592,54.05677886,25.79789725,0,-108.7570648
319.7519998,1249,-27.03605281,60.96881779,-172.9472002,29.74057387,0,22.97221292,0,-17.95995218,37.356919,22.84463106,90.10573988,90.67937258,49.58270138,-20.88999851,0,-184.5381492
319.7599998,1249,-39.08230262,-0.135626519,95.70960692,20.5704149,0,24.13791519,0,42.84764829,-182.6291946,40.35825625,-319.6752283,-18.23621279,-153.9685493,6.341631362,0,-132.82221
319.7679998,1249,-18.21042074,28.95779804,93.36077796,15.57326246,0,-14.91509902,0,6.180421216,214.6707158,-5.613816715,295.201233,92.57841557,187.5980624,-38.11547462,0,-157.0776549
319.7759998,1249,-19.46543315,57.77131454,-181.8459057,47.41528192,0,38.56785283,0,6.70512374,-195.3667379,73.50569079,-267.2147916,26.6838965,-158.4609314,71.892296,0,-178.8013133
319.7839998,1249,-3.146106258,5.13405029,270.362108,37.98814684,0,-21.10093084,0,31.96423027,87.49945871,30.66097292,53.15850044,38.97459149,59.05394443,14.6775443,0,-131.3855439
319.7919998,1249,-18.70159889,59.33724153,-169.4341023,35.85987272,0,11.45595967,0,-16.50842125,44.40418445,30.80870697,113.2276694,92.23035418,44.32268491,-28.55469652,0,-210.5125991
319.7999998,1249,-34.86141385,-8.934116156,90.7810055,22.56739137,0,16.52461178,0,53.28215693,-184.9960891,48.19785884,-306.3252861,-20.60161206,-156.2785978,17.5349929,0,-152.5736224
319.8079998,1249,-16.86200608,17.90382953,81.14746378,3.947035825,0,-11.30449624,0,26.9121561,214.4805036,-11.45886337,306.4898603,92.76938663,179.2137517,-48.53924862,0,-155.9141942
319.8159998,1249,-29.92165891,40.67725135,-199.4119064,20.18277124,0,43.95055985,0,40.76159514,-198.7456796,49.61531111,-266.5434765,18.93591148,-172.2723821,55.26206066,0,-163.5802537
319.8239998,1249,-7.089924997,-2.320553664,238.6254384,6.757315566,0,-30.82127607,0,48.04605187,82.84800739,8.079097377,25.46717296,19.49518599,50.02349962,-4.751283959,0,-121.342405
319.8319998,1249,-8.331732543,68.42157347,-203.0836668,24.42630021,0,-10.22460034,0,-39.22147634,52.7859562,29.49542728,73.78703879,68.7397523,8.032722381,-7.909470528,0,-231.4821747
319.8399998,1249,-32.96878876,-5.804736298,69.29148769,19.56922543,0,1.486291407,0,23.17849602,-171.2845013,48.90635034,-336.5787373,-37.97678731,-200.2464781,19.94349806,0,-197.5516734
319.8479998,1249,-24.63987192,12.95548259,71.77846003,-0.910281145,0,-17.57944081,0,12.14688926,220.094782,-20.48077606,288.1632247,89.8651692,160.7035022,-102.1885159,0,-197.4403819
319.8559998,1249,-33.87562518,41.92250501,-201.9096425,26.92896671,0,41.10056143,0,26.40861913,-199.2854874,57.61902317,-267.0905244,25.36549503,-193.8201152,81.77108954,0,-202.6889589
319.8639998,1249,-24.74233536,-19.03708512,237.2920669,8.714247184,0,-16.56011983,0,53.48152757,71.50744813,12.39518917,30.00908381,26.73274681,39.65558335,41.1992068,0,-152.653863
319.8719998,1249,-31.69588592,36.91896525,-208.2332576,10.66896778,0,17.98294589,0,2.67731472,26.20355853,0.565777871,79.06856665,80.42075467,21.87901205,-40.64670559,0,-226.6398787
319.8799998,1249,-27.13587853,-8.197011973,48.55523123,15.19929591,0,18.38557391,0,59.13485573,-194.2916257,35.35172018,-328.1043405,-27.15386786,-194.9539354,32.52019494,0,-180.3875729
319.8879998,1249,-13.06025862,10.7018111,43.90439371,2.631150119,0,-13.49284018,0,32.84089728,216.1865692,-9.931990583,293.1808136,92.26852652,173.7805353,-49.34903068,0,-199.8761326
319.8959998,1249,-15.05862748,36.52658422,-229.1403443,22.15942882,0,30.72578088,0,29.30639647,-200.0887148,42.63456976,-264.6618545,18.09003743,-176.8083646,64.89689794,0,-212.0192178
319.9039998,1249,20.98270782,6.207773732,215.3495049,18.68616711,0,-32.31473456,0,32.57160118,83.64801848,21.06495144,44.80261818,18.11299529,29.93402844,31.23122592,0,-176.8271067
319.9119998,1249,-6.75652647,40.95863625,-212.4395146,25.23793009,0,16.31281147,0,2.836210707,59.65907496,39.01956563,119.5164523,83.78887767,26.56433442,6.412950182,0,-243.089313
319.9199998,1249,-21.17082421,-30.34566065,41.7243115,2.674294591,0,8.121231895,0,65.03843761,-176.8800328,31.55835963,-291.6425674,-31.7905293,-183.572201,60.41586211,0,-172.9239894
319.9279998,1249,-0.904247249,4.369424745,25.4893203,-14.8516506,0,-36.64239027,0,11.53128229,219.3410841,-25.62618174,309.6432659,69.05467753,148.5849317,-64.63224338,0,-212.1007755
319.9359998,1249,-24.12815933,19.82555284,-243.3791476,7.394513548,0,22.93811971,0,34.53747872,-190.3391289,30.75645219,-239.4381282,6.2025149,-194.5241091,29.59584983,0,-220.8824671
319.9439998,1249,3.113423629,-21.9005509,195.7020502,-0.436150848,0,-34.82976416,0,66.0469993,81.58145032,-8.879060782,64.88504427,19.65828567,16.20809403,26.85082468,0,-159.1966742
319.9519998,1249,-6.311712879,38.31140541,-235.0218555,20.39385507,0,4.635619233,0,17.82370548,47.64245797,13.86127391,113.7601853,83.43469726,-7.303054459,-22.65786696,0,-234.003202
319.9599998,1249,-9.661649563,-8.494075362,34.8207455,22.59114988,0,-3.389468923,0,75.67568259,-172.0603058,34.77120661,-291.7971402,-16.71741032,-197.7587424,22.14465823,0,-161.2568335
319.9679998,1249,16.88427594,27.0304868,33.1916491,20.59374179,0,-41.93627398,0,28.6966479,231.751854,7.493328809,316.9963114,103.5585485,144.4524778,8.037185872,0,-192.399832
319.9759998,1249,-8.859463569,31.21233525,-234.5822583,37.14006214,0,23.12733234,0,45.90318321,-187.4751715,59.28798146,-241.8822949,33.11019721,-209.6419164,66.34102587,0,-207.2849766
319.9839998,1249,16.10986017,-9.087910651,199.8808284,19.96889594,0,-33.51351344,0,67.35010408,79.72823894,6.677214205,61.82655998,28.25676198,4.02240596,-5.43494066,0,-149.816285
319.9919998,1249,17.63155915,62.63559084,-219.8158385,45.47775867,0,11.16875231,0,13.39513911,49.21440545,43.17848491,116.3060977,83.95351299,-8.278707141,21.26044061,0,-237.5434259
319.9999998,1250,13.95677804,10.87041376,53.90102959,47.58408337,0,5.69920381,0,64.87644223,-169.3178122,66.28575015,-284.1722649,-14.5782444,-192.3432453,64.05527202,0,-167.590938
320.0079998,1250,34.31955399,40.20980292,35.79179291,29.76125469,0,-37.73453522,0,-1.230609514,231.2533504,24.68890889,322.786879,104.8252727,151.1248897,-13.70673098,0,-199.803592
320.0159998,1250,0.179155516,37.11211723,-231.165303,36.1640003,0,31.4115143,0,11.12437131,-184.449997,71.66139513,-238.2098354,31.12516189,-196.5811142,64.58542353,0,-229.8132617
320.0239998,1250,12.78309179,-14.39277639,205.0428142,19.03333059,0,-27.04100234,0,33.59072722,77.29451306,11.29755309,58.32967721,28.51083796,20.47684464,18.32077216,0,-172.837363
320.0319998,1250,16.76580805,62.28781103,-231.0113429,37.56609642,0,10.68413731,0,-32.67719984,42.7118536,36.75000889,99.36317628,78.32154002,11.5552071,30.50123831,0,-261.6934148
320.0399998,1250,6.505424364,5.135389878,43.4389753,35.70988119,0,19.24968349,0,31.56711005,-169.9744084,54.45475528,-300.1324893,-32.37147795,-174.5871601,88.37614809,0,-203.9467275
320.0479998,1250,14.04610566,25.37974492,36.42136553,19.68500001,0,-16.14415695,0,-25.33090171,224.4694349,8.699916339,304.8581416,74.42570422,157.6968367,-16.47374908,0,-240.5126172
320.0559998,1250,-19.55984706,23.57503712,-225.0238217,29.7405696,0,48.29924437,0,-16.08489334,-192.8916046,53.60978233,-260.675892,-9.913080885,-178.9019682,19.82374726,0,-265.2316185
320.0639998,1250,-1.053803338,-26.0768001,215.815967,21.8761132,0,-3.507135443,0,24.76705896,69.49876298,-2.712569807,45.986194,-3.045476636,49.17773261,18.95126279,0,-181.9822459
320.0719998,1250,-6.769298027,39.55903651,-230.1264626,32.22520843,0,31.39627507,0,-35.24404106,28.98212295,27.10572471,92.17339093,54.47539746,27.49863307,46.40654376,0,-246.4233945
320.0799998,1250,-39.63513692,-40.97742593,33.06627987,16.82556985,0,33.80484208,0,38.65942885,-186.3161963,26.72546821,-306.6886378,-62.21168739,-155.7647519,34.80316945,0,-182.5305687
320.0879998,1250,-16.42465146,-6.056732146,21.7865056,9.004307123,0,1.75419652,0,3.637228748,206.2211587,-27.97415715,303.3639071,53.31488021,188.4511375,-62.94291978,0,-194.5878985
320.0959998,1250,-27.82217898,19.89928353,-246.5929134,27.06639438,0,58.68201855,0,12.83801001,-201.4757364,42.00391939,-251.6532453,-14.52905003,-133.9680801,73.37835595,0,-197.6224761
320.1039998,1250,-17.77517976,-29.92757652,189.2360637,13.20828863,0,-10.07757237,0,36.14346223,73.79527629,-5.350046647,66.55816399,-2.722669463,99.99753089,36.69959839,0,-133.0996496
320.1119998,1250,-9.577209452,50.01158867,-247.6210122,28.70859018,0,19.17283632,0,-42.03025981,33.96552914,22.98852327,109.072959,55.20080307,51.02413282,-16.21810096,0,-227.0029993
320.1199998,1250,-18.02313551,-6.471767793,37.29552792,34.08550583,0,27.96169938,0,28.06499413,-174.8631157,43.59889726,-288.3193981,-48.31958924,-137.3462535,46.47493359,0,-167.1720736
320.1279998,1250,-5.080537086,18.64074594,29.05243032,24.16096937,0,-11.85206398,0,-7.005848784,224.8967178,-3.982582158,336.0212881,83.21555923,209.6836255,-4.232934368,0,-164.0571571
320.1359998,1250,-28.72933285,27.16413882,-243.8576321,28.60154597,0,36.04369166,0,-8.700487101,-186.3377165,51.98193009,-225.0235192,2.520832994,-157.7742639,68.27794863,0,-180.2777236
320.1439998,1250,-20.76046469,-31.06080621,201.0996196,11.5026022,0,-21.41200868,0,17.75181215,86.77049031,-3.552293164,80.97195824,-3.069545598,56.58825016,15.03592577,0,-136.3689981
320.1519998,1250,-20.88258151,36.15539896,-233.7916109,22.02289055,0,15.43503224,0,-38.56053953,44.91603812,20.55518711,118.9217914,56.22320448,29.25214319,-4.905200947,0,-211.6933939
320.1599998,1250,-36.78087431,-30.04061269,44.37539101,24.36652733,0,27.86594774,0,37.23206956,-167.9962101,39.76540843,-295.4037932,-55.08667042,-166.1866543,76.00921771,0,-144.3250405
320.1679998,1250,-29.27738445,-11.34805445,24.72286783,7.095424636,0,-9.854168195,0,2.017174848,222.0655454,-18.29897174,310.0018582,65.37874892,175.6750691,26.62013137,0,-147.1027253
320.1759998,1250,-49.93907703,-1.642295517,-256.3079105,12.51627633,0,26.48292563,0,-0.302070163,-198.8849558,31.31821361,-268.0102899,-22.84323387,-176.1772215,39.83431943,0,-163.4320226
320.1839998,1250,-41.9044702,-59.89900402,203.7342623,11.88923438,0,-23.78124578,0,32.40456806,80.23287328,-16.01888428,39.29375672,-23.46330837,51.46265092,-24.79608442,0,-114.2169839
320.1919998,1250,-35.70265212,17.55321117,-220.8992084,23.0902716,0,24.65313805,0,-8.140508471,41.85662323,0.634471098,102.4146852,55.23546259,37.1647414,-10.80804884,0,-160.3684511
320.1999998,1250,-32.64961727,-28.79640581,51.26015268,22.50340302,0,19.01188185,0,47.06882844,-175.2568036,19.70998005,-306.8491338,-61.41799116,-171.282141,41.93734703,0,-98.87280194
320.2079998,1250,-21.65257324,-5.483344753,51.45068399,17.63539098,0,-12.60699399,0,0.888809813,227.9397211,-21.79790864,303.2257655,59.61557646,162.0954276,13.35289445,0,-118.309052
320.2159998,1250,-26.63214169,25.23331843,-216.4207289,20.83281559,0,41.22286051,0,3.068385906,-184.8170674,30.87315556,-256.8901864,-7.11262356,-174.2319253,51.02655245,0,-111.3477719
320.2239998,1250,-0.208454823,-15.98513757,229.2127205,15.07711356,0,-25.15424708,0,6.968490799,84.89259005,-4.539720273,45.15908411,-17.01894493,40.25466289,-4.178419992,0,-87.29835222
320.2319998,1250,-17.4868324,35.42696206,-196.0297208,30.001874,0,19.46905001,0,-43.70092482,45.06256166,16.17029023,97.04742044,49.06133531,16.71796044,30.94061202,0,-174.8229813
320.2399998,1250,-25.32341937,-18.60217078,73.93443775,21.87138279,0,19.32585201,0,16.2068625,-181.2224389,18.44261097,-316.5284816,-57.40990434,-164.3467152,35.45315582,0,-102.9518231
320.2479998,1250,-6.60287372,13.1228182,68.10005351,16.17040964,0,-20.70931533,0,-39.41778715,214.6043391,-10.98714257,292.1589214,64.864834,184.9650289,-11.96709776,0,-136.1482002
320.2559998,1251,-34.38534354,24.12724298,-197.938997,25.21309711,0,36.38114574,0,-33.61816666,-186.6937187,46.46801345,-264.0382014,-7.502645297,-151.1693735,39.92292557,0,-153.6667202
320.2639998,1251,-28.08893781,-27.5396823,244.347906,29.10144162,0,-15.91744921,0,1.612625543,82.01994005,-9.857327979,39.15022526,-7.998794973,74.96820917,-21.56909111,0,-103.2445774
320.2719998,1251,-35.06302208,35.39675138,-187.5104846,53.66929943,0,32.12957998,0,-25.09577116,39.82356859,22.27054148,97.8560609,77.30440031,61.31399706,46.27788527,0,-159.3536839
320.2799998,1251,-32.85905414,-17.16366804,76.61715246,41.43547892,0,23.44094025,0,26.42679903,-174.0021732,33.95014416,-307.0439573,-35.46827012,-139.1660094,43.89828051,0,-92.19106365
320.2879998,1251,-19.38762626,1.478979876,68.5069107,33.64955872,0,-18.10716069,0,-28.00864555,219.6467627,-22.50667113,299.222811,62.71878094,180.4442174,-45.48813931,0,-136.0334504
320.2959998,1251,-35.33347722,16.90840267,-194.927937,49.5880265,0,43.84880009,0,-9.785420771,-188.6278592,36.65614464,-257.2639873,-7.77372918,-158.9248781,53.14645905,0,-147.6153513
320.3039998,1251,-17.11071296,-28.55106371,241.6092646,52.44242063,0,-16.48312194,0,13.98307246,88.85458189,1.993296847,50.93671329,-6.581001205,72.17642116,0.155135356,0,-99.41756147
320.3119998,1251,-31.36797079,25.24027511,-207.7997137,67.89745145,0,22.44031479,0,-33.01398571,44.80121724,20.28064581,109.2652927,61.01027664,51.67917877,13.55224588,0,-169.4402307
320.3199998,1251,-29.40133218,-26.99258091,51.41154948,58.15646342,0,23.70282767,0,26.37223239,-172.8027328,22.04221462,-291.9203669,-49.59205845,-136.7582195,42.88575585,0,-102.500466
320.3279998,1251,-20.49964195,-10.27915569,39.15402565,45.25956571,0,-17.34774765,0,-23.8360925,226.5194968,-33.14019837,314.3256862,58.0917489,207.9365457,-39.11479497,0,-140.2782874
320.3359998,1251,-46.72049001,-1.867816867,-237.1414778,35.84438238,0,29.07256888,0,-26.72009421,-188.8083647,8.433263862,-254.2660879,-22.08232453,-133.451019,32.58655642,0,-154.5777722
320.3439998,1251,-22.68304229,-43.10273282,211.0746164,33.01999423,0,-24.66962285,0,-1.686118069,87.4978284,-28.024277,46.96083623,-28.46700446,91.40164782,-0.687174814,0,-111.3123152
320.3519998,1251,-35.20619393,10.30971075,-212.4506272,60.70851693,0,24.43754242,0,-30.10081152,51.98686913,13.77195056,101.6086448,49.66336676,79.33485177,15.87531548,0,-178.3927051
320.3599998,1251,-50.01981533,-54.62466966,51.4255991,33.41798497,0,13.25586407,0,33.69085183,-174.7421173,14.03077099,-299.8107818,-52.06907276,-112.0966202,39.70805354,0,-90.70593469
320.3679998,1251,-32.89331183,-29.59815756,41.06394394,13.69576996,0,-22.4568895,0,-5.456698169,213.6845306,-53.64457944,311.6370531,49.03939128,222.7324297,-61.48861487,0,-116.3883964
320.3759998,1251,-34.43810096,-1.756601878,-217.1136315,36.70931081,0,45.02248048,0,17.52610061,-193.9883574,13.25969324,-241.5343244,-20.42994809,-110.1609575,20.12746961,0,-121.4023032
320.3839998,1251,-13.54004531,-50.4452457,223.305816,28.21092598,0,-23.73920504,0,39.69780304,87.16837812,-17.96595535,74.54729438,-19.11886553,111.9531422,29.10418501,0,-55.93426929
320.3919998,1251,-27.28343488,-1.142612396,-227.1799178,26.08561642,0,5.67546935,0,-13.69577601,46.67531433,-10.37604513,122.0852958,36.15833035,74.17208242,14.24405105,0,-127.2261783
320.3999998,1251,-26.66706036,-50.926571,30.8515767,7.061034957,0,-0.15732878,0,30.55067845,-175.8106632,-4.153252102,-285.9293895,-76.10830732,-118.1926298,2.430662869,0,-61.60627021
320.4079998,1251,-11.11292206,-20.84316819,10.95948924,6.401734446,0,-35.64560391,0,-25.41388125,220.5273039,-40.9824328,322.2869004,27.03783534,217.0682508,-67.27788417,0,-102.9930676
320.4159998,1251,-27.89540853,2.295101855,-256.5682653,28.17615679,0,33.26110854,0,-1.161169243,-182.9757701,32.5313875,-234.5671949,-33.34320093,-123.3259054,42.93595424,0,-110.9830582
320.4239998,1251,-15.56991491,-51.54406491,188.8967002,8.243570942,0,-29.53330236,0,20.51889278,96.66602217,-10.80774976,77.93581729,-23.52618928,110.2442593,27.72624565,0,-45.38162556
320.4319998,1251,-36.76243736,-6.035332125,-257.0656066,14.89598304,0,7.424193586,0,-30.40924738,49.33183637,-11.37222084,107.7767522,26.60249151,77.48839466,3.475203495,0,-123.0064934
320.4399998,1251,-36.69800775,-50.90111565,15.14188479,14.53406296,0,18.73663483,0,42.59988581,-166.6141962,6.208649709,-299.5946513,-71.55217591,-108.262961,22.07699712,0,-36.88858187
320.4479998,1251,-8.027109509,-11.78699787,4.976187522,5.450791844,0,-17.92378469,0,-18.28377321,232.3259257,-34.64824815,315.6259356,39.63886653,223.3788445,-37.25948963,0,-59.25428868
320.4559998,1251,-27.18743536,-1.597413378,-256.1042009,25.02345661,0,37.47855811,0,-13.3477719,-184.2521207,15.5213925,-256.9256524,-40.32045092,-131.7947885,77.97614245,0,-88.4080004
320.4639998,1251,-21.6895492,-61.98136114,198.787716,18.91389139,0,-23.03523725,0,19.98710148,94.28126375,-30.94642551,59.68812966,-32.23553279,115.0646326,19.39126043,0,-23.0146069
320.4719998,1251,-37.05487455,-0.3475814,-251.7107314,19.99253239,0,10.3626335,0,-39.25618174,47.03363503,-19.34656657,104.7428165,22.06196392,76.52884101,-19.48441136,0,-93.61817874
320.4799998,1251,-48.61219017,-55.48830635,29.54613549,11.28784989,0,16.19899476,0,34.53580574,-169.610457,-1.548513905,-297.4658779,-80.57939334,-123.533431,59.04114639,0,-22.46428715
320.4879998,1251,-31.29272261,-27.1178888,22.27424849,2.587548306,0,-19.78577207,0,-7.582741753,234.5685355,-48.39015387,315.9240099,35.75723183,224.9305781,-22.94088335,0,-33.2283749
320.4959998,1251,-43.74477975,-5.509136948,-254.2962072,20.48150633,0,32.46643433,0,-9.801802105,-184.7950914,2.72008138,-267.9688814,-46.34888726,-140.2058444,47.49806717,0,-57.47366931
320.5039998,1251,-24.72143714,-55.16345045,203.6378762,8.826635353,0,-24.97850488,0,20.15887625,103.1187914,-35.83663573,57.75735329,-37.35589232,94.38466255,30.5928343,0,8.115515565
320.5119998,1252,-20.14568566,15.16424056,-250.1752777,14.98055038,0,5.300782277,0,-52.2094933,65.95214206,-9.659812646,107.7704418,22.11158049,63.87869102,15.80349251,0,-58.80721067
320.5199998,1252,-26.15371516,-43.39274941,15.73167261,18.84360939,0,2.216844507,0,-0.661111414,-160.0823118,5.223887011,-302.7573668,-92.13489802,-145.6529167,45.43631173,0,-15.51433
320.5279998,1252,-18.39942509,-27.85943118,-0.231634927,-3.186988631,0,-37.08301797,0,-47.17327101,240.5048519,-47.8134809,324.4944708,21.53348096,200.8130266,-39.77097239,0,-38.55959537
320.5359998,1252,-34.59915102,-14.14735814,-269.0528021,-0.185340026,0,17.60149775,0,-49.33692966,-181.9339595,-0.153335066,-255.2012092,-57.54060148,-160.0474517,38.9075387,0,-64.34816854
320.5439998,1252,-14.12819767,-60.3201108,211.9684063,5.948566628,0,-29.80598254,0,-6.311551404,99.32121492,-44.14319977,67.50521487,-45.99216757,83.6867074,8.120842495,0,-6.288731738
320.5519998,1252,-11.87514798,8.640172606,-231.8745869,15.39605033,0,6.475458104,0,-61.91159269,64.09822751,-5.738119745,124.3620631,28.39595994,74.47276811,14.79164885,0,-57.40554487
320.5599998,1252,-19.48236801,-54.83031983,40.60051607,0.522836467,0,8.499104949,0,-0.982315612,-159.5596017,-4.035206256,-284.3046303,-78.37619921,-132.8246568,38.22209986,0,7.931587556
320.5679998,1252,-7.743117514,-27.53645776,33.56585356,-6.763313953,0,-22.55696046,0,-36.18806263,246.0298923,-62.31516245,346.7928968,38.57351967,208.2385135,-28.33046144,0,-8.766757174
320.5759998,1252,-27.48526009,-10.52207358,-245.7141093,14.65821894,0,35.85501641,0,-26.58113738,-170.7594137,13.99742311,-233.1671031,-28.87144088,-151.6554339,68.58183231,0,-27.21562035
320.5839998,1252,-17.10090681,-67.23401215,215.8079315,9.727586502,0,-11.38065273,0,21.44886336,100.8754379,-42.24780418,85.14190173,-11.78157688,88.52934134,-2.251750424,0,53.30728818
320.5919998,1252,-27.53992616,-6.764636887,-236.544765,21.69148966,0,23.54775423,0,-31.7476464,50.53984524,-28.52873743,130.4616357,50.18415363,75.2267278,11.18374227,0,-2.268010777
320.5999998,1252,-33.36576091,-62.96126779,30.70446282,16.88104936,0,21.77372338,0,30.348252,-168.2980285,-13.97134634,-294.2102171,-70.31141951,-138.9575313,37.27940601,0,45.70598165
320.6079998,1252,-9.705432583,-25.59327955,18.3217966,2.629465576,0,-8.724002854,0,-1.925032035,244.1727408,-65.48535293,334.1334845,42.25865233,198.2200444,-79.19271236,0,39.10542714
320.6159998,1252,-27.35508755,-12.38982924,-258.500105,19.54763102,0,48.74464673,0,9.271604379,-177.6206947,-2.152804386,-246.0320323,-36.06036117,-150.1869162,36.30526544,0,23.02073032
320.6239998,1252,1.354350179,-50.9295892,199.0555886,13.58978163,0,-13.08804045,0,33.97220847,107.3657271,-47.38167666,75.52692133,-29.13752782,93.71692769,20.15942862,0,84.3208154
320.6319998,1252,-4.041403271,16.47147003,-251.2926231,24.92939246,0,20.32637853,0,-27.66688934,68.43724966,-16.69313063,129.6447304,29.56865166,67.49425622,9.153732793,0,3.355474976
320.6399998,1252,-28.23600769,-59.34716274,35.37964725,26.89906169,0,28.7405871,0,51.70639287,-159.0897198,-5.754192701,-286.216376,-84.73379223,-136.9908208,52.76396728,0,48.28623437
320.6479998,1252,-1.408624037,-22.01031053,32.60445817,15.99597337,0,-11.01068464,0,11.64385505,249.4356921,-54.03940838,344.9171896,39.8934956,218.0018077,-19.1546003,0,49.62074894
320.6559998,1252,-23.24395147,-13.62474255,-237.4704033,30.40760955,0,43.2342146,0,21.94637666,-176.1991922,15.28256496,-243.0087261,-34.81950676,-141.4846162,21.179816,0,26.77140472
320.6639998,1252,-6.463779135,-59.1015411,230.4306344,24.92356099,0,-10.82197796,0,63.22766848,103.2249268,-38.22801398,75.44049449,-19.91896434,88.10491457,-20.45491405,0,94.44214911
320.6719998,1252,2.37171443,23.34746643,-223.0153676,36.16016429,0,15.34149216,0,-9.447396068,69.18866599,-5.906856755,125.6379357,46.83106737,61.01862889,20.16847778,0,19.90478105
320.6799998,1252,-17.23859853,-47.74959142,57.24171271,31.07209806,0,20.23196717,0,52.85715491,-156.7792816,14.05349388,-298.8284429,-69.88031773,-147.4238004,27.89346215,0,53.74147075
320.6879998,1252,11.13982107,-3.502052823,51.07894141,14.2784512,0,-13.98070043,0,7.061488685,245.0133739,-41.3824121,336.4420613,58.93563151,203.3079903,-47.75167228,0,59.32683974
320.6959998,1252,9.013021869,21.27025345,-222.2113844,42.45766593,0,45.47825555,0,7.554450902,-167.6480777,39.26432481,-234.2156057,-6.854345327,-145.5490412,82.88316291,0,35.86103706
320.7039998,1252,7.000631562,-49.70925886,245.2899071,44.63482603,0,-0.085852305,0,58.68454071,122.9725709,-10.72887219,92.74811337,8.237620012,101.26401,28.75718615,0,88.63459219
320.7119998,1252,-5.077478689,14.9821613,-216.0219599,37.0470519,0,26.7133669,0,2.895952161,73.72332252,-13.46450175,137.1324688,72.40089783,80.80094556,-12.24016249,0,37.94097249
320.7199998,1252,-6.161806936,-40.39629714,57.67721871,36.38498332,0,26.36809094,0,52.43610442,-151.6122174,12.24920842,-285.4721833,-48.98364102,-134.9136273,31.58900835,0,79.49320956
320.7279998,1252,8.253418615,-12.57458354,53.26006135,26.92619957,0,-9.193595274,0,1.730429306,262.9981899,-30.07607304,353.3331376,71.61759565,210.3971402,-33.55172368,0,58.58616034
320.7359998,1252,-11.85779323,5.915791584,-229.3420433,30.65246308,0,44.89870969,0,5.606494627,-161.9553556,24.50410611,-232.0791834,-3.975118258,-145.1889725,26.14432947,0,37.85947819
320.7439998,1252,3.613524389,-45.2917661,233.3081907,24.45385286,0,-2.229767666,0,37.1068066,122.7096649,-17.46665816,84.96174601,1.671298061,90.17456978,11.43638905,0,80.24283882
320.7519998,1252,-13.3123854,8.807333864,-211.3400966,25.69326119,0,34.1364592,0,-13.87939318,85.23804228,-12.63214791,138.5674339,64.84780129,75.17133074,24.35281828,0,15.69183043
320.7599998,1252,-29.51085793,-59.71856642,71.95924535,25.68384765,0,40.440905,0,73.46927153,-146.1755062,-8.858124048,-280.0157375,-46.40525998,-122.4676893,39.90943521,0,83.4715923
320.7679998,1253,-8.252881197,-25.80811137,57.69531326,12.45139294,0,4.857593882,0,32.98545131,261.6895851,-42.54216658,354.2132862,81.69256616,229.7474122,-25.25641526,0,80.14005286
320.7759998,1253,-31.20961386,-14.49444126,-235.0276533,16.78574517,0,57.86572065,0,32.24358403,-165.8192313,12.02749318,-236.8569257,-1.96202904,-136.7243819,34.69460655,0,57.47000322
320.7839998,1253,-18.02208612,-70.78905725,220.7739712,11.33919727,0,9.783752698,0,76.46041391,104.7185227,-46.80168547,75.20577928,-0.858900129,96.00870611,-7.198111346,0,112.1582035
320.7919998,1253,-8.341900626,9.785885876,-237.0198847,12.53698995,0,34.55479242,0,0.298253898,71.25932909,-20.950885,127.3081147,57.20090546,80.49822215,11.37500556,0,36.33468425
320.7999998,1253,-11.90376837,-38.05475928,41.01339749,27.45243546,0,31.05678368,0,42.44324947,-140.8495387,4.696204134,-293.0219253,-68.51697149,-134.0794237,59.45891215,0,58.06463155
320.8079998,1253,-5.41191366,-18.75994642,43.2095515,24.73554329,0,1.714686576,0,12.06236208,269.2958571,-36.32936514,342.5133949,61.69295294,224.5102102,6.893761084,0,40.60683326
320.8159998,1253,-32.75329266,-22.4942724,-232.8021675,23.56080272,0,52.29761872,0,28.92307396,-161.3909685,6.294639179,-246.1046052,-15.67132017,-122.7019998,44.96715,0,25.16717573
320.8239998,1253,-13.03337252,-69.01777308,236.6161933,24.78843244,0,3.427156305,0,74.74361799,119.399909,-47.23456397,71.24946217,-13.09482662,107.2049552,-19.26143272,0,81.87771937
320.8319998,1253,0.120232563,20.28197578,-204.4668906,34.7122519,0,40.97959059,0,21.11563512,89.00903707,-11.11471344,138.070818,58.54025763,97.25592858,-17.86227792,0,28.73976387
320.8399998,1253,-7.685564493,-42.42886915,73.63497137,43.41135084,0,37.600739,0,80.26696209,-134.9270842,12.41909144,-277.2710293,-58.15678719,-115.174965,25.32527311,0,74.42323323
320.8479998,1253,-5.350564156,-33.32312095,70.30676934,30.57197612,0,4.540307155,0,50.22300676,266.1598094,-38.6132114,351.2236985,64.66144855,233.6326183,-12.21077602,0,69.92266592
320.8559998,1253,-8.888218689,-5.06036173,-210.7850034,25.94316444,0,55.63013366,0,50.18264496,-168.1584892,11.38404109,-238.7557687,-19.44497405,-105.4495998,51.68134106,0,61.61465911
320.8639998,1253,14.86596698,-47.08234043,247.4295803,37.81136377,0,-1.446527172,0,69.64832882,113.8870207,-15.22728139,68.59080096,-20.89949586,112.2772323,14.77372783,0,87.97516188
320.8719998,1253,-22.72226996,-13.78322363,-191.7368418,46.64229786,0,42.29464005,0,29.28979148,78.70013979,1.250086099,121.6522729,43.85549494,86.29541899,3.81929521,0,9.837107586
320.8799998,1253,-33.17905404,-75.29151569,76.78372716,28.67686381,0,49.11468661,0,99.26703765,-155.2060331,-14.91562711,-296.3450332,-72.8474832,-104.0944989,14.71424815,0,76.04086918
320.8879998,1253,4.316012591,-33.45458584,63.28984349,15.79635565,0,2.317023341,0,50.65547711,250.3852367,-52.90553893,323.7187608,50.512206,241.1441925,-41.09300398,0,57.89418877
320.8959998,1253,-15.12652411,-25.4705493,-201.3939722,34.61291126,0,51.91428292,0,66.39110525,-165.5507003,14.04771299,-255.9017389,-26.68146985,-112.3182624,35.34431722,0,27.07210326
320.9039998,1253,4.409069324,-65.85743288,244.8733979,33.51444386,0,-2.801241015,0,90.16926421,120.8091578,-27.51605831,71.53330471,-11.99586134,124.7556795,26.3082057,0,81.19217789
320.9119998,1253,1.791732449,1.783958755,-213.3120705,31.58525231,0,21.34204169,0,6.707730305,70.89664677,-13.37566042,114.9518086,46.03923537,96.35099924,19.73267219,0,-12.77940341
320.9199998,1253,-6.214645113,-58.63703635,68.15947155,38.95651605,0,25.94862132,0,61.64844659,-158.5603788,-9.983727188,-297.4741156,-76.63512009,-105.9589022,23.92015064,0,-1.855652808
320.9279998,1253,15.73887048,-23.55445453,61.23095871,41.90048713,0,-4.61805992,0,22.22930759,258.4573191,-38.61933659,344.0492441,64.45585148,257.4805116,-25.52332206,0,-29.91909163
320.9359998,1253,-3.807986348,-15.38882699,-211.5274918,48.40272313,0,47.08811049,0,30.78824873,-163.5251921,20.26748988,-242.0305887,-5.246776891,-84.51106115,72.24686839,0,-55.31933916
320.9439998,1253,9.172223179,-66.55086515,228.5900162,30.61518633,0,-8.442826177,0,51.98274871,120.4025962,-27.05840919,66.95824986,1.122317252,140.5767362,20.90277488,0,-15.48260227
320.9519998,1253,-0.357815658,-0.75312368,-223.8371371,26.1203606,0,26.86980109,0,-16.53312755,74.27556142,-1.705800705,109.1281845,62.11617758,114.2438368,-21.06177574,0,-101.6923367
320.9599998,1253,-18.78283505,-73.43123137,59.13119774,18.58417907,0,38.26784755,0,63.81881475,-154.2603339,-0.378035628,-295.403945,-47.89290982,-71.38384047,27.02874578,0,-45.15200683
320.9679998,1253,-2.458515163,-48.3195737,33.64799238,-3.852798048,0,-3.267891681,0,25.38894887,255.3415299,-46.49532628,339.7378782,86.34354402,275.5133247,-7.570100406,0,-47.4886813
320.9759998,1253,-4.718037542,-20.29581136,-240.9882674,6.728105978,0,34.16502482,0,7.127507263,-174.6089174,16.82726392,-246.2667962,-1.061006362,-99.07376097,60.30985718,0,-88.97982349
320.9839998,1253,17.38508189,-68.06182947,225.9457367,10.87332776,0,-21.74495824,0,28.69847189,112.708623,-28.8733075,84.18186065,1.160216678,126.6162183,-10.85841062,0,-56.06153248
320.9919998,1253,10.44233424,-4.868584979,-211.4600069,14.91121389,0,15.79379911,0,-31.52797768,75.32737118,-4.533289984,140.2690261,69.5561414,106.4871255,-14.29382999,0,-122.5209016
320.9999998,1253,-0.68829313,-63.26355076,66.4044208,6.708143893,0,19.04292908,0,17.62196201,-153.4324328,10.57779773,-275.4028276,-45.00304816,-98.70033672,57.28249599,0,-76.49051817
321.0079998,1253,6.664914451,-40.61973892,38.24779126,-11.20179891,0,-22.6862969,0,-47.92587415,246.2123911,-43.62387226,342.9110551,72.42449354,236.9548023,-35.25834337,0,-112.3556079
321.0159998,1253,-14.17996377,-26.81332018,-226.2136688,6.13383618,0,32.38795836,0,-43.023626,-180.0124379,14.03434315,-238.6211347,-8.259865297,-122.460054,25.66233037,0,-148.762589
321.0239998,1254,-5.643077959,-78.65703661,237.4738926,10.9908225,0,-15.17811666,0,2.682574522,115.1120772,-17.28813461,95.54502115,9.146617128,113.5772813,38.64220764,0,-91.70062908
321.0319998,1254,-23.83762024,-18.65239162,-218.356914,9.793940525,0,13.61714698,0,-58.78795527,70.26637102,-5.721016196,139.9400532,73.50309244,88.28753673,18.8078911,0,-149.1367571
321.0399998,1254,-31.96261418,-72.99296748,62.75410871,2.18295549,0,10.31918366,0,-3.173027788,-157.3775337,1.675925662,-274.7666655,-45.4461858,-120.8505139,29.19688122,0,-99.20081268
321.0479998,1254,-8.713673734,-38.552079,50.67839342,-5.878727529,0,-24.20899112,0,-53.34500182,255.5254245,-35.71617628,347.5948808,75.8920668,215.8229083,-31.11277796,0,-125.8494099
321.0559998,1254,-25.49788835,-26.53222824,-210.14468,10.41806645,0,34.92274347,0,-42.63073658,-167.9003206,17.40242329,-238.2611254,0.547154645,-130.9702845,20.46412754,0,-148.6750024
321.0639998,1254,-20.03153849,-86.59178639,242.5127729,1.707396257,0,-26.4566965,0,-13.45511526,116.4140203,-27.41362097,83.57928101,6.069249566,103.7637874,2.613207161,0,-100.9919665
321.0719998,1254,-31.38048064,-26.19788018,-219.3874474,2.093974393,0,0.82890095,0,-80.87804487,64.65701891,-24.56024514,113.6289503,57.58535898,60.61813951,6.538100191,0,-178.9420379
321.0799998,1254,-31.91798094,-79.9131216,68.47654081,4.451457762,0,7.281115079,0,-9.713302616,-154.4350154,-18.1926742,-289.936813,-49.57127399,-130.2573929,22.30258982,0,-121.7138199
321.0879998,1254,-20.52424982,-57.66192434,49.11419155,-12.00191324,0,-27.31962195,0,-51.19328068,257.9495495,-57.45077581,341.0151879,73.16334757,223.7720874,-35.16308329,0,-131.9455326
321.0959998,1254,-45.10766226,-44.7559238,-236.4453428,-3.553997366,0,32.9062313,0,-41.76645189,-180.3394631,-13.27540782,-257.7107385,-11.61916209,-146.2172466,27.97628009,0,-143.2495807
321.1039998,1254,-32.24272728,-89.62390529,207.7043843,-2.322650258,0,-18.24098162,0,-2.912844501,105.5941804,-45.46741016,68.34049763,0.858241462,88.63825892,-23.96533891,0,-82.21594652
321.1119998,1254,-34.5658181,-23.34571919,-253.8630474,1.171151577,0,12.13451268,0,-65.79750807,61.00287241,-20.21797957,105.3905257,57.08347164,60.53847638,6.572486821,0,-145.9310017
321.1199998,1254,-33.01595318,-79.69376203,25.23937343,3.388457659,0,12.1492372,0,-8.677521607,-164.009983,-8.183671409,-308.5799232,-62.09254312,-149.1319909,70.24995012,0,-94.3220371
321.1279998,1254,-31.88623332,-67.41164561,8.463561581,-8.038490317,0,-22.26156937,0,-35.23926744,245.9842929,-54.37552568,324.5970095,59.21706006,199.6427457,-20.32522574,0,-108.4261129
321.1359998,1254,-40.9819846,-49.63030593,-266.6098413,-6.890415198,0,28.57914182,0,-27.10682763,-187.2778586,-11.19165823,-264.8630699,-18.51904044,-165.8169672,35.06683727,0,-109.7836448
321.1439998,1254,-8.865496018,-86.8411705,193.4659332,-5.679202422,0,-26.19227049,0,-10.43584958,104.1272558,-40.25971114,62.20558661,-10.57442013,65.66933183,-16.8817124,0,-55.4865483
321.1519998,1254,-25.78837884,-28.71917871,-252.0527888,2.61889043,0,15.22227964,0,-58.48030548,70.3264566,-18.07503621,111.3226387,53.32823283,59.62475591,-15.26188343,0,-114.0744227
321.1599998,1254,-28.61558217,-80.71692279,23.80035799,-0.184734116,0,12.20981057,0,3.688622228,-152.5119063,-9.823143841,-292.1561599,-53.05907476,-139.5959047,50.09743451,0,-45.91588444
321.1679998,1254,-5.670947811,-50.0025096,2.736836853,-2.131736738,0,-27.14741476,0,-45.99640643,247.866573,-44.35101261,334.4001408,64.17162033,201.8553856,7.348528067,0,-59.98782103
321.1759998,1254,-19.98708376,-41.93483436,-266.8030164,2.468825689,0,25.26021269,0,-48.88322099,-182.4213026,6.565731929,-255.3695855,-25.88401737,-154.6300209,69.17355015,0,-81.55887716
321.1839998,1254,-14.05069954,-98.29745018,186.9855576,-10.91437531,0,-29.76991189,0,-17.42181204,101.0589636,-45.61759768,72.5480987,-23.2142322,68.16110557,-12.37259194,0,-38.46509706
321.1919998,1254,-30.49972959,-33.69276597,-266.1231009,-3.691408692,0,11.82203829,0,-49.55284267,50.09963937,-31.42676563,120.02461,48.52941421,37.91095195,-17.85318154,0,-78.21565516
321.1999998,1254,-23.09256967,-85.60847587,16.6319195,-6.313265255,0,6.841070307,0,8.324772814,-167.3314244,-10.36609869,-285.6067932,-61.62094037,-158.5721273,27.69898493,0,-5.991493227
321.2079998,1254,7.837772754,-52.68297633,3.773946935,-16.90603167,0,-41.75182524,0,-56.48119919,243.8555981,-45.6336617,331.1163883,42.25805232,195.591621,-28.32061326,0,-37.22421095
321.2159998,1254,-3.087726963,-27.40221699,-261.3920277,-7.791546037,0,3.895838179,0,-61.90652992,-173.0236873,7.15876027,-250.0086251,-41.95030708,-158.1381031,54.3227986,0,-60.82907701
321.2239998,1254,10.38166697,-74.13148144,192.1617941,-4.320422086,0,-49.59755493,0,-36.45500681,120.0154072,-29.18793891,81.51543952,-37.23773648,64.52934146,-6.710651074,0,-20.95478877
321.2319998,1254,-3.573782564,-17.99652969,-253.6452791,12.38270579,0,-1.463386844,0,-72.84536245,75.23649976,-6.388862832,123.0202826,24.44271996,50.6480854,-5.496708376,0,-79.48858794
321.2399998,1254,-6.744499326,-69.30884432,19.53405545,1.544176865,0,-6.32097849,0,-8.680944089,-140.8824184,0.415002004,-274.7414726,-81.78063802,-133.7256938,53.30520053,0,-6.950251496
321.2479998,1254,19.95285921,-24.34495484,-10.5312003,-3.877755107,0,-48.66932381,0,-69.75733884,257.4959549,-39.49843894,335.0819206,27.08326096,191.38066,-23.6318687,0,-45.10786071
321.2559998,1254,-5.986997192,-19.46012006,-264.599134,19.9621665,0,22.69909662,0,-37.33794214,-160.0553504,15.54371772,-245.3217951,-45.62117662,-154.4811197,54.82955023,0,-65.13184802
321.2639998,1254,7.262915507,-74.55752246,173.7384146,2.735115211,0,-36.38950887,0,1.706644743,123.1313985,-36.67233075,84.45943751,-27.11580794,96.59568508,21.88692995,0,15.09453309
321.2719998,1254,9.657682559,-1.263663258,-281.8015671,13.88993187,0,-9.913815397,0,-64.92730045,66.666164,-9.199060399,107.331396,24.47024219,50.26879115,-11.91444682,0,-60.88809801
321.2799998,1255,0.265888707,-60.51336512,12.12089532,19.77444539,0,-2.914478443,0,8.841410779,-136.2339449,11.44514582,-286.7680382,-81.62883392,-139.0643396,34.78318983,0,-8.873379443
321.2879998,1255,17.89497718,-28.21099416,-18.33428838,-1.017824504,0,-37.06464837,0,-32.29084485,261.3800789,-30.65376003,327.8077298,39.91618861,212.6208643,15.93811119,0,-0.119584091
321.2959998,1255,-8.259646761,-20.40441932,-269.8898443,16.40793074,0,25.82649089,0,-4.212337449,-158.9470379,29.43466109,-251.2326896,-35.81329893,-139.4242381,83.26401231,0,-7.704613375
321.3039998,1255,6.694778413,-74.54032159,172.8241334,5.534127648,0,-35.40378614,0,31.45244943,130.2697862,-24.79075398,82.61807091,-22.89356466,94.87175082,5.599854406,0,46.36504418
321.3119998,1255,10.56071782,-3.067358011,-283.9086295,1.381300882,0,-7.340550416,0,-34.75383738,72.25145486,-17.05575574,107.9999139,22.01184347,41.03556651,-4.046971891,0,-24.22289447
321.3199998,1255,7.378808858,-50.27434062,19.35064695,16.78701036,0,1.894131827,0,30.10826444,-124.7295568,12.26907029,-272.1924587,-86.09237587,-146.6015162,58.338018,0,23.81845039
321.3279998,1255,24.78023664,-20.10375253,0.594187577,20.46330976,0,-31.4813096,0,-15.74888809,276.9802374,-9.47050223,350.8692437,47.57695914,200.951262,11.62496193,0,5.849125297
321.3359998,1255,-6.88142629,-21.95168172,-251.8291102,21.90844697,0,29.96881144,0,11.49369634,-146.516583,30.07348102,-230.8837097,-30.99000672,-152.9272074,56.39872272,0,0.0041927
321.3439998,1255,17.81156978,-57.33820119,189.9441006,12.07411343,0,-25.29888245,0,32.07055496,142.9292932,-19.74873541,93.8855751,-29.72899456,86.10613263,21.30048251,0,49.56670591
321.3519998,1255,24.7247097,16.34219612,-257.0267758,26.84192074,0,-1.093694971,0,-54.59927545,85.5876438,15.35511711,114.5794653,20.70375919,33.03008108,25.27851201,0,-40.39424757
321.3599998,1255,9.633416325,-53.68882674,44.54983058,30.63422704,0,3.600851669,0,13.82579734,-113.8669014,22.39681915,-267.4892869,-91.47657356,-149.5852723,40.51335184,0,4.448513478
321.3679998,1255,27.10636641,-23.9302631,25.91047292,30.92127351,0,-13.81562935,0,-11.6618462,282.4466737,-20.8190404,341.7956778,34.32433098,212.2599869,5.267858877,0,-4.707925896
321.3759998,1255,1.014968809,-21.85063536,-225.5564008,37.67224756,0,45.02869788,0,11.65831684,-139.8508939,27.45802039,-237.3994574,-33.10112583,-139.0242909,52.5070689,0,2.953792544
321.3839998,1255,10.38793568,-74.27265801,206.0756929,25.99187522,0,-21.73817295,0,43.23739605,142.3226452,-26.36367946,90.7482528,-22.9737802,85.33501462,-16.48060365,0,60.15878535
321.3919998,1255,9.788714637,1.385530955,-245.7177965,37.37547148,0,3.139691216,0,-20.56416158,73.22048125,0.425841286,99.95584911,31.48685231,36.94168,14.6462114,0,-11.95430281
321.3999998,1255,1.927550259,-52.38471269,44.38145224,33.46848888,0,-0.697130902,0,34.21195013,-125.8774472,19.08725445,-278.4810779,-77.15213402,-140.7873694,72.16492211,0,38.76545658
321.4079998,1255,15.20888797,-24.58110365,19.97396254,30.2581949,0,-23.14435668,0,-5.487284209,260.348937,-17.90707182,331.8654137,40.44782648,202.2428229,-4.053705979,0,3.658425435
321.4159998,1255,-2.80714998,-14.61301788,-221.9693462,39.08229098,0,39.60470833,0,7.851297044,-164.9583134,29.78764477,-244.7107227,-33.53395965,-141.6384519,43.39017075,0,-3.025357915
321.4239998,1255,8.328976762,-62.85640598,216.5168649,29.85865911,0,-8.636996912,0,46.77129167,129.0357287,-18.09654305,96.62314194,-17.24675637,105.8932819,31.4229156,0,55.09057846
321.4319998,1255,5.942028849,5.999693194,-223.2083087,44.28012348,0,34.51712265,0,6.061977332,64.6295683,9.046257485,118.5996792,44.39866366,61.4654649,44.13624572,0,-7.562296022
321.4399998,1255,21.96497989,-31.73699072,60.74872446,44.11805287,0,13.76036819,0,34.59798324,-132.2124442,30.20218787,-253.3155518,-66.72926003,-123.9068603,72.09232473,0,46.63984879
321.4479998,1255,30.9333517,-8.364254528,26.75928268,42.97664556,0,-18.9484946,0,-23.4183004,257.6170739,-3.794844377,347.7878525,41.67734448,204.3435762,-6.232499316,0,-5.966936749
321.4559998,1255,-8.288011182,-19.59265587,-198.4014772,52.93084789,0,53.08080454,0,24.35162545,-161.5967542,38.931653,-224.8177906,-27.39681919,-131.9720298,45.43387793,0,-3.633188301
321.4639998,1255,11.27498357,-56.50680286,233.2891743,45.98504012,0,-9.862253659,0,57.1992041,128.5348259,-3.666596291,113.1046773,-8.218489594,126.1165717,36.61985675,0,65.39098473
321.4719998,1255,3.681171408,6.651676079,-226.8544704,52.04155012,0,19.09928801,0,-6.101597043,57.85278083,25.65433838,111.4101448,37.26779996,75.07325899,37.51920811,0,-17.65266716
321.4799998,1255,-1.671404747,-53.75150677,60.3145304,44.15045946,0,13.22618427,0,53.90445367,-136.422452,28.50153723,-260.6847099,-75.66799224,-103.6929168,53.94183494,0,36.6215443
321.4879998,1255,17.85222566,-16.97354018,24.64582195,48.95445556,0,-13.12959173,0,11.76892855,254.3869811,1.389741588,349.9824348,48.35744669,230.3327546,6.704116405,0,3.257525425
321.4959998,1255,-7.556347133,-17.4753402,-222.6209696,47.59863688,0,40.69778213,0,27.05564762,-161.7557546,56.58689266,-225.4833954,-26.49405907,-125.2448069,64.47795333,0,1.297052798
321.5039998,1255,7.446485876,-61.3738449,208.1812477,34.88160629,0,-23.27239985,0,43.99350284,127.4042949,-0.754475886,104.4766969,-24.80803408,104.604164,0.402309273,0,43.92326033
321.5119998,1255,-7.454194927,-0.529045176,-219.8804513,56.55547579,0,24.26682438,0,5.060400363,60.40468663,32.02700602,117.5947944,38.21244132,63.32605904,27.44239331,0,-29.93885707
321.5199998,1255,-20.70861108,-65.57443128,63.66105129,38.39241742,0,17.34095634,0,72.2987757,-133.7554035,30.67046951,-250.0814712,-61.00267618,-107.9681636,58.3381717,0,54.07035061
321.5279998,1255,7.333870867,-23.65016281,10.7929511,36.53354249,0,-18.70218786,0,7.823266637,240.9822829,-15.46206623,330.6452085,42.12427997,206.3413865,-29.36738154,0,10.03874934
321.5359998,1256,-7.82079072,-9.187737601,-217.1153033,56.57513814,0,41.0436062,0,15.57117611,-174.0986762,47.27773347,-237.4332443,-35.8737714,-134.1251525,73.80126182,0,-10.32473737
321.5439998,1256,13.25375098,-42.12867282,212.6222251,43.95550223,0,-19.750156,0,21.56782714,122.0446361,2.0630648,109.6956379,-26.25954462,103.5973294,35.56816992,0,27.7579752
321.5519998,1256,-2.029005009,11.15053323,-222.8185211,51.41010673,0,23.28865222,0,-29.96083981,55.00312075,33.93952136,113.5380829,29.41560037,58.30571139,12.93414901,0,-54.47271328
321.5599998,1256,-42.29090681,-79.25843427,73.7631465,32.88721322,0,15.40216037,0,57.75821514,-139.6292541,25.09865102,-249.1938347,-70.20824606,-92.57214812,43.83767154,0,34.27998735
321.5679998,1256,-34.40103116,-53.6443958,14.52068398,23.72098968,0,-25.72649027,0,26.11149214,223.6315393,-30.22109516,327.9933889,40.19903031,213.1844161,1.28992385,0,20.22544408
321.5759998,1256,-41.97064255,-41.76355386,-229.4274028,24.56622267,0,31.19750287,0,55.64571223,-195.9279126,21.23919244,-253.5940806,-38.45939357,-142.7377473,32.60235502,0,31.27328589
321.5839998,1256,0.505312602,-62.30641107,185.9279925,6.682295859,0,-29.07123547,0,61.65554552,100.4481118,-24.03585243,88.69169597,-35.01980464,100.7639646,-48.59945504,0,89.23065782
321.5919998,1256,24.06949739,29.77437776,-254.24726,37.67780968,0,7.034413994,0,-26.48141834,40.98215006,32.95226034,92.98520238,11.7600687,39.04652168,56.57480796,0,-9.92138233
321.5999998,1256,6.966176176,-36.5564514,51.11097757,41.25809382,0,2.311311459,0,25.45685682,-121.7185984,49.06634699,-246.1816958,-87.97167019,-116.2566918,102.5212201,0,31.82479628
321.6079998,1256,-0.217510518,-27.36451838,0.464729678,28.33239947,0,-24.22647624,0,-11.75123146,255.4300281,-6.993546183,348.1387905,28.1222994,211.4405765,-16.74316301,0,0.571948932
321.6159998,1256,-19.16718836,-26.3746851,-229.0095746,32.35544776,0,35.52374779,0,12.5930516,-173.0090742,38.94243991,-233.828535,-51.25354094,-143.2234211,47.14639057,0,4.487718834
321.6239998,1256,2.798381066,-64.87114538,191.2634507,19.01688561,0,-24.3329244,0,40.6132178,115.217593,-8.742488546,112.889407,-35.50065293,97.58474441,-20.63867516,0,62.2873116
321.6319998,1256,2.579361112,1.143981167,-258.7136027,26.88349209,0,15.92816645,0,-14.51005853,35.92382461,23.77334317,105.5232607,18.17333811,34.34880384,33.7076444,0,-10.25040229
321.6399998,1256,-0.062269399,-55.82726055,38.35299555,17.21291895,0,0.29883424,0,20.17348971,-146.9539228,22.6054689,-252.0725004,-96.2497143,-139.7260876,67.75839981,0,34.31359199
321.6479998,1256,12.54760311,-23.48769201,-9.53896834,18.25250531,0,-35.9017473,0,-29.95592445,230.4992666,-9.454861519,341.1124636,19.83807406,182.7011365,-39.71396623,0,-8.711987621
321.6559998,1256,-6.335961331,-17.57561531,-225.5688789,23.44529232,0,28.94614942,0,0.596136407,-173.6955267,57.60992535,-228.2771642,-45.63558748,-153.343879,62.59320814,0,-1.997180924
321.6639998,1256,1.089193517,-73.38191059,197.0686231,-7.391386184,0,-30.64125614,0,24.07893866,123.9328076,-16.81415367,119.8190652,-29.75906931,86.0767881,-5.010436326,0,51.69367288
321.6719998,1256,-8.9803164,-14.46121658,-253.93242,-4.521788513,0,9.27316377,0,-13.4329341,33.90527622,-3.035506441,105.9856117,25.59558447,16.90829341,-1.109525833,0,-9.247049469
321.6799998,1256,-1.386137231,-56.35494264,43.95447852,-5.192858891,0,6.184878265,0,44.07810555,-140.0967759,21.0632686,-245.1561703,-76.79619847,-142.9882225,80.29533436,0,64.32038865
321.6879998,1256,10.84345718,-25.78307426,-11.21007006,-2.374303598,0,-18.24768907,0,-3.9547008,242.9105184,-14.74569887,345.8167926,36.76944874,178.0779634,-11.61745313,0,22.97971076
321.6959998,1256,-22.5556646,-33.23196266,-231.5107657,1.518114726,0,40.50576842,0,32.36179201,-172.1963408,26.06725569,-225.1216677,-33.01328329,-163.3618647,34.9247555,0,33.9915101
321.7039998,1256,-1.293691146,-69.56643907,185.8290072,-10.51957061,0,-28.8634887,0,41.18046679,123.7833693,-33.05146803,121.2494568,-25.04868526,73.32696563,-5.824283494,0,91.94305748
321.7119998,1256,5.333894425,11.38549509,-261.5874211,20.53376619,0,12.31992948,0,-22.28337527,47.62209878,9.252018526,101.8582736,16.30556953,5.538721822,7.633343531,0,-0.915969895
321.7199998,1256,-2.918122782,-49.7397594,46.1702135,19.85954075,0,9.704120568,0,43.61005697,-117.1235617,30.29624641,-240.1041307,-76.11399132,-126.603343,64.5770423,0,62.11726964
321.7279998,1256,2.717740283,-29.85468774,-15.96522081,13.07335938,0,-22.64180604,0,-8.378796071,254.0993391,-22.25587627,339.9617263,41.80861737,193.9251977,-4.346867602,0,31.72516031
321.7359998,1256,-10.92329134,-12.22039174,-238.9168925,29.31836078,0,32.95854344,0,-1.406507525,-163.7930301,30.53573458,-243.353592,-43.21586539,-174.6410891,55.29096016,0,18.20261259
321.7439998,1256,7.820122189,-51.39565776,186.6903303,19.81289418,0,-30.27259871,0,14.56412527,148.1083362,-7.727244546,122.6863455,-28.73080368,86.39299969,15.08695388,0,63.0584992
321.7519998,1256,-10.97362384,-5.916875765,-256.5294491,30.52572401,0,9.561099904,0,-21.71629798,72.40264812,13.66553742,111.9388905,26.18077626,38.84662751,0.5867065,0,0.666742954
321.7599998,1256,-17.72642041,-68.41574302,51.38186782,13.62670496,0,2.964133099,0,45.70023727,-106.5399655,5.287770093,-237.7138196,-79.12593074,-128.4541093,16.95425236,0,76.12925796
321.7679998,1256,1.822316069,-37.17812866,-10.54893148,0.882934384,0,-34.81778218,0,-6.166287885,256.1993229,-38.21008852,338.5775633,25.92414125,175.4541397,-8.941259716,0,45.3320501
321.7759998,1256,-12.32738878,-32.43561705,-218.9415459,23.57695019,0,13.18713917,0,15.13645567,-159.4212943,23.01194684,-240.7866847,-54.58941265,-174.7245697,53.4266948,0,47.5121521
321.7839998,1256,10.82678972,-69.97919619,220.4369247,21.70694055,0,-40.41805424,0,34.79410729,148.0000738,-29.97165087,123.745476,-39.49758957,91.37573024,-33.91809051,0,92.32243515
321.7919998,1257,5.742287591,-4.965895925,-231.5857086,26.63365603,0,4.941147994,0,-22.46936933,56.98283757,-4.989411149,98.17150729,8.126864456,34.72848078,15.32448551,0,15.47605626
321.7999998,1257,-6.39312438,-68.49022795,62.97059561,18.80913812,0,-5.945122613,0,31.48103557,-119.6945976,-3.93592555,-246.1228543,-95.58847701,-129.5269722,43.46061579,0,81.11438363
321.8079998,1257,5.255514009,-36.71193193,-6.108937268,23.27470925,0,-34.34026386,0,-14.47786277,251.3496856,-50.58553965,335.9667083,20.93914608,193.19173,-44.74374969,0,45.50995379
321.8159998,1257,-5.066551531,-26.45404143,-219.5896495,35.9335383,0,18.03174096,0,8.611962906,-161.0731996,17.8806031,-246.4872852,-50.92719116,-139.7345572,71.44615162,0,45.00495429
321.8239998,1257,19.64493688,-66.95787395,202.2788666,18.46959713,0,-46.57676796,0,20.10956353,151.0974404,-34.00405731,128.793603,-33.11619717,115.5102697,-7.493081125,0,92.72401599
321.8319998,1257,12.8058354,-4.788922353,-257.9751312,21.00545181,0,-7.426527123,0,-43.03193834,60.88925337,-8.113355047,98.46802453,13.54295929,45.54705401,-27.01313956,0,14.91376981
321.8399998,1257,-10.93038351,-81.63012994,56.29951145,5.6136583,0,-12.60727229,0,28.39403292,-117.010461,-6.016671162,-249.7268114,-90.70861175,-103.1035252,14.95617105,0,84.99243071
321.8479998,1257,6.415807533,-40.98199754,-6.774725507,5.170181458,0,-30.58024835,0,-9.331904511,241.8295455,-59.55850655,337.7954942,24.31569419,218.9126728,-49.14937797,0,70.19704049
321.8559998,1257,-3.989613371,-27.42500298,-219.3377135,30.37960486,0,31.88309051,0,10.71295457,-175.0938496,22.22647397,-244.7281416,-49.16647074,-128.7085229,67.74949167,0,68.82306117
321.8639998,1257,0.856784426,-88.5326984,196.438769,13.80973325,0,-36.8611616,0,27.87485056,131.356686,-28.6778225,122.6665287,-35.95460991,119.7799547,-4.735311447,0,110.8203317
321.8719998,1257,11.38175041,-7.889273419,-277.4911474,15.6767812,0,-8.225015363,0,-51.14233303,20.31779287,-18.18501592,70.54218209,-3.392406044,29.04224434,-51.57410771,0,25.01144811
321.8799998,1257,16.69661392,-58.60267266,53.24918368,28.61202931,0,-13.0832859,0,0.456995105,-135.8722922,9.060302785,-266.7828681,-105.9987338,-124.9449792,2.676249135,0,61.29005552
321.8879998,1257,16.13257944,-41.17520148,4.060888916,33.99068738,0,-31.86788141,0,-25.90429297,250.0265324,-28.09705036,333.581866,24.13653227,214.4606999,0.926711268,0,37.06999421
321.8959998,1257,-13.5213215,-44.94908456,-214.9572459,24.15161063,0,22.90736374,0,6.388994922,-185.1350198,12.11984334,-272.2027641,-48.39907789,-132.5886944,57.03753338,0,62.15068186
321.9039998,1257,8.658811402,-81.18120145,200.0138386,-4.163769105,0,-50.17023248,0,8.503981895,126.0233693,-45.99845157,96.67985108,-33.55350016,113.1486339,-54.89233511,0,113.2947466
321.9119998,1257,13.78558719,0.052930778,-258.9730783,14.94759675,0,-10.76177843,0,-65.42516606,44.93282058,-9.804029573,66.92091133,7.954556291,34.68071521,-19.08132327,0,22.13584856
321.9199998,1257,0.134215283,-61.09207013,62.77942645,26.345857,0,-10.46225285,0,2.113585582,-109.1870849,11.30465482,-251.1133893,-80.72286632,-112.094933,49.5939617,0,85.78741225
321.9279998,1257,6.602435878,-33.49976647,-20.7640613,21.28107074,0,-37.94989134,0,-43.7683579,261.8752057,-23.32918912,353.1776073,51.41148334,210.5556151,-1.299058681,0,68.42134366
321.9359998,1257,-17.38327619,-38.59127,-237.8554978,22.75646669,0,20.59524611,0,-20.30568553,-177.2421063,16.73456609,-251.8067041,-34.01784787,-158.5983711,32.55172881,0,60.69348149
321.9439998,1257,-3.895398129,-85.4219891,181.5898069,6.403247163,0,-43.2004875,0,12.03365938,135.8995384,-49.04502705,134.8543246,-6.564683062,99.05349147,-50.86616514,0,121.7698058
321.9519998,1257,-0.045226466,-13.13198507,-283.7118956,25.34275915,0,-6.894733445,0,-34.23892782,45.61511955,-9.627203936,95.83114246,44.07344308,34.30469725,4.765722849,0,54.94997588
321.9599998,1257,6.622962962,-68.21483599,53.26688074,27.44131911,0,-14.77161491,0,26.96321075,-114.6577013,0.950308221,-237.98089,-57.45310279,-120.3961989,41.68073446,0,118.587938
321.9679998,1257,32.3814997,-22.0788548,-23.21892257,9.510288497,0,-52.701537,0,-51.02377043,259.3817132,-33.85427962,355.4777809,63.22986393,193.368898,-40.54496438,0,86.86782064
321.9759998,1257,-0.183900974,-33.10804338,-218.3435072,30.87210547,0,10.7758164,0,-37.80067395,-166.9183518,26.48813758,-262.2208351,-35.60301923,-172.6348742,33.11797976,0,48.11841614
321.9839998,1257,-8.519221467,-105.1534939,234.457083,27.3070205,0,-27.36434586,0,25.0436058,153.4615439,-45.97403863,139.001849,-3.925619366,109.2497681,-10.6976476,0,124.8956258
321.9919998,1257,-5.078845248,-27.59261781,-242.2086989,19.76957106,0,3.949963272,0,-18.65597982,41.75806741,-28.39394072,91.94128367,43.54704179,41.88532648,10.06528018,0,92.85532207
321.9999998,1257,-1.235454558,-72.81301707,81.65390163,29.33043973,0,-15.68785904,0,27.92769095,-123.9633437,-9.687527798,-259.2730508,-76.80939933,-128.6041066,15.18036094,0,136.9837165
322.0079998,1257,8.270790349,-41.18568722,17.38734439,33.85117267,0,-41.55896638,0,-22.13611342,252.0028426,-45.88524024,341.6930421,47.43836677,198.970348,-63.84714034,0,103.9466012
322.0159998,1257,-2.180890589,-33.5462478,-181.5264159,38.98429337,0,8.006312234,0,-8.588659857,-186.7701817,5.542401267,-274.3143207,-45.27092963,-158.6510721,29.73175116,0,90.01783303
322.0239998,1257,17.0964999,-74.75799675,250.1716846,16.68605809,0,-53.6909215,0,-3.914913622,145.5059541,-36.98547604,128.2532378,-22.5145736,101.9915053,-10.96094296,0,132.5820375
322.0319998,1257,-0.384550046,-15.385609,-220.4942656,3.077993876,0,-11.68360113,0,-65.09409962,40.1064282,-12.88208577,81.61895522,20.80860565,18.82617784,-10.04200109,0,53.81876943
322.0399998,1257,-8.861930402,-78.75695762,127.905054,1.048375437,0,-10.87803037,0,10.37361682,-137.97018,-17.77808649,-259.4300645,-81.60959097,-138.4172431,19.06265872,0,118.2681506
322.0479998,1258,25.21785727,-25.99890346,58.28249121,-0.388007746,0,-34.94698618,0,-52.07991487,245.5081074,-41.56999076,346.5336521,52.97328311,188.9157947,-26.55147903,0,101.1058244
322.0559998,1258,26.20797995,-1.971545852,-149.9678697,25.10834721,0,18.25807362,0,-55.37323974,-179.5695852,26.01432181,-275.9077572,-41.9265009,-166.5979331,20.43378127,0,69.71320874
322.0639998,1258,30.86011888,-60.53428568,276.7128081,29.99140033,0,-33.28543351,0,-27.98633521,153.0583959,-20.46512358,136.7013066,-4.180215225,110.1132498,-42.31224724,0,123.5979763
322.0719998,1258,6.02149295,-16.2175199,-213.240037,25.65672225,0,7.672101129,0,-79.45831386,44.82519757,-7.234915027,84.52200158,43.2713327,24.5965022,-0.429424237,0,61.94333994
322.0799998,1258,12.17999232,-62.83342052,119.2111198,26.85733597,0,1.840256057,0,-16.69529368,-123.2793655,-19.99595197,-262.5352049,-66.27672761,-115.5766735,33.97670591,0,122.1382743
322.0879998,1258,31.72294637,-20.3486949,38.550702,23.29614084,0,-21.82319986,0,-72.2189526,264.5833851,-41.04078285,352.2441865,69.4921751,233.1680295,-25.25111953,0,97.5796684
322.0959998,1258,-7.112197174,-35.72340707,-171.2530061,24.41115152,0,37.60405921,0,-40.37001377,-184.6971518,5.162947727,-278.4403108,-30.34155074,-142.7790694,13.12754096,0,83.06481421
322.1039998,1258,20.0628107,-65.36938674,261.1996292,10.71156646,0,-18.64335052,0,-7.931928009,135.959613,-53.68069295,126.0869977,-1.860055719,121.4256958,-48.74713471,0,156.5367076
322.1119998,1258,24.59468286,13.95452166,-218.3239268,21.17340046,0,12.94762678,0,-80.97264473,48.21095735,2.259298787,76.99492763,37.39588392,43.581525,32.07395099,0,68.81272146
322.1199998,1258,-4.957855255,-69.51777461,127.5121369,28.58546601,0,10.75822763,0,-0.773232498,-112.9200943,7.26011622,-254.6205691,-69.89050827,-105.740497,58.78142425,0,120.2559246
322.1279998,1258,14.16178026,-27.21761002,36.80124853,10.95451497,0,-22.04417251,0,-53.06985387,252.3652192,-37.43607674,361.7029819,64.55603751,219.1100041,-42.21921464,0,119.1499874
322.1359998,1258,9.110917644,-14.5968595,-183.4398568,22.06380619,0,22.55419951,0,-52.04749281,-191.4043049,20.67534771,-274.9787671,-50.07614575,-166.0431421,43.69288561,0,80.73201787
322.1439998,1258,8.565834754,-74.18473196,252.0746351,19.79670102,0,-23.17627639,0,-9.238514817,147.5942205,-29.96602432,141.2375256,-18.06188322,108.887195,-42.319668,0,134.3648302
322.1519998,1258,-4.223897592,-8.671861887,-238.3417233,14.79114136,0,8.363792536,0,-66.94520087,32.09161086,-2.762456072,78.23925157,29.05529175,24.38355632,-48.29925411,0,69.23685199
322.1599998,1258,0.446955747,-63.26520019,106.6007343,25.65271404,0,-6.149072939,0,2.974426474,-134.911485,5.726382688,-259.5161212,-81.26699152,-124.0619887,39.06624344,0,122.4835814
322.1679998,1258,20.72893424,-18.51594365,29.45187439,19.20788609,0,-39.30314952,0,-48.86424303,259.9514543,-14.81162146,369.5255342,61.10996844,221.8157097,-21.79443417,0,109.8423211
322.1759998,1258,-10.88742709,-26.24218615,-181.6275536,15.86985359,0,9.053936931,0,-38.83977949,-185.2450297,30.33411999,-275.9689678,-43.10192028,-172.026449,20.11208584,0,73.01698523
322.1839998,1258,-7.872112467,-87.80016811,262.0050284,6.173467721,0,-30.41097208,0,21.08293957,143.3406831,-40.57401226,142.4122843,-3.536825437,98.84127925,-34.5787973,0,147.7523226
322.1919998,1258,8.170187975,0.144141557,-221.1853015,8.162380232,0,-0.288047295,0,-33.83515017,37.53553066,-0.677961049,86.75029003,48.72913991,39.9497976,-16.27422578,0,105.0643893
322.1999998,1258,17.6006207,-45.83314681,124.3010167,22.08753519,0,-12.93456519,0,16.36331552,-123.6972997,18.28734083,-252.1735244,-67.44574114,-124.7504809,35.56302097,0,152.5677647
322.2079998,1258,17.14640754,-19.72185063,42.73465338,14.87140573,0,-31.89137177,0,-28.83998189,262.6493569,-12.50359801,376.223552,66.99036473,194.6929356,-36.63479746,0,143.2058302
322.2159998,1258,-7.040063263,-22.59485439,-169.601928,17.93344646,0,15.70338868,0,-9.408020776,-185.4224158,29.52072581,-269.0386513,-40.20743425,-176.4028511,15.37794871,0,122.5825188
322.2239998,1258,16.172175,-62.24795698,264.2583963,11.04825676,0,-35.19572366,0,22.76334372,145.5043306,-34.99966091,149.6787904,-1.900429404,91.31579325,-29.91637543,0,186.3319031
322.2319998,1258,15.80944439,12.03201856,-218.149455,5.972361256,0,-2.840133307,0,-48.78766759,47.42662157,11.68891643,91.4874444,44.27168536,13.85567247,-3.818299154,0,107.3439556
322.2399998,1258,9.565243883,-51.34682742,136.5313166,22.29172577,0,-12.17268348,0,13.60549556,-101.9530214,18.9374989,-243.4471484,-69.93748628,-127.8646258,46.66555952,0,139.1254325
322.2479998,1258,24.23790944,-19.32721303,45.13593258,14.8720206,0,-37.06364023,0,-29.37169278,281.0713344,-28.69600207,383.9074197,76.67927989,199.7844737,-28.1430028,0,147.5078225
322.2559998,1258,-3.374375381,-29.49852646,-165.0328428,10.98352825,0,12.86552951,0,-14.73562885,-164.026809,19.99081816,-260.5702099,-32.77758613,-166.7450482,34.34752715,0,125.9796198
322.2639998,1258,-0.50602583,-82.47871127,274.0463321,1.762182302,0,-27.7900821,0,27.18670623,170.6613654,-47.13492022,156.6774611,-0.383928678,115.6976144,-23.57978908,0,186.0071579
322.2719998,1258,-2.446505793,-8.437852,-217.1689442,-7.037437363,0,9.102824969,0,-29.87868029,57.09134697,-14.52064707,88.629483,52.03630391,22.05096809,-22.75777673,0,129.8463382
322.2799998,1258,-12.06256701,-75.85910789,128.8875576,-3.695494654,0,1.628288392,0,42.12862944,-98.77467759,-8.197470256,-241.6179402,-59.83815515,-124.5241047,22.53955058,0,174.9053074
322.2879998,1258,-3.761009411,-43.36591646,25.19962427,-24.65203643,0,-22.7036389,0,-4.727460145,274.6684889,-59.49062884,375.3002377,77.03201378,196.3585856,-53.31601461,0,178.5387774
322.2959998,1258,-16.30759423,-34.59508711,-188.4316056,-16.89322376,0,25.8827143,0,-2.63360032,-176.4398318,-3.584981918,-278.7536502,-38.4196452,-189.1838091,32.94016951,0,146.2433805
322.3039998,1259,3.520830077,-73.560983,253.5443214,-10.6783601,0,-18.9407267,0,34.32584081,172.5630027,-50.14057083,153.4302813,-6.725529671,106.7962295,-22.83243283,0,200.6918013
322.3119998,1259,7.653171137,3.37700756,-233.8100745,-17.64500953,0,10.47570279,0,-32.29787494,63.45879187,-11.5797272,89.93036299,43.07249607,27.11533476,-45.36555861,0,146.0138392
322.3199998,1259,9.655898637,-54.34175064,117.7092152,-6.586175011,0,-2.42331315,0,21.13455818,-98.43033896,0.330855899,-243.9487179,-69.99774535,-124.5838607,19.34544051,0,178.2252594
322.3279998,1259,17.78132232,-24.2423154,28.71690284,-17.80507176,0,-25.95839947,0,-20.57428523,272.9431528,-42.1687673,374.6465926,68.97153734,193.1618403,-39.5313664,0,169.1739533
322.3359998,1259,5.960632708,-18.1386775,-164.6685969,-2.011829526,0,22.52570967,0,-9.614580535,-171.3127588,16.7255072,-268.6668227,-34.39570835,-187.7091612,30.20483112,0,144.0022062
322.3439998,1259,36.53008175,-47.8832426,267.8974487,2.217207215,0,-31.3642666,0,8.163707889,170.6809725,-25.15678193,162.9809704,4.415146332,97.49369603,-16.90349944,0,197.9467764
322.3519998,1259,20.17474301,5.167989909,-234.6349018,-19.87205674,0,-5.785850059,0,-65.63774326,44.09266345,1.649948744,89.45342831,43.02807605,1.476212802,-20.49508705,0,133.1571246
322.3599998,1259,5.742133494,-74.12769506,118.1695277,-11.9336652,0,-9.352475946,0,-8.705978237,-113.8362428,-11.0469944,-247.730208,-78.28820902,-141.0370892,14.0277729,0,160.3322343
322.3679998,1259,21.26347236,-32.17266484,27.4766771,-15.66155757,0,-23.60367769,0,-52.2138885,263.817776,-56.09490689,359.8854193,65.05332547,192.3827245,-62.69739213,0,154.8027297
322.3759998,1259,-1.979924461,-33.89386236,-168.4045511,-8.908542492,0,23.14930098,0,-34.17949731,-180.5022803,8.886859777,-290.4497171,-38.39414248,-177.6482612,25.20933035,0,138.7985738
322.3839998,1259,18.29478744,-78.25999642,267.5502742,-10.44820563,0,-31.9445772,0,-7.686270531,159.6346352,-44.81594357,133.5960866,-9.407490649,105.9437676,-21.61773719,0,185.9195375
322.3919998,1259,14.30248569,-7.377123222,-228.5717262,-23.96101932,0,-1.113774177,0,-76.02883076,36.71667138,-20.79585572,60.94989666,36.65181948,8.666765456,-31.32946078,0,121.7118805
322.3999998,1259,2.522083825,-74.4360847,117.8531035,-17.21405993,0,-5.278924678,0,-14.21467289,-111.9082015,-14.45010664,-262.2009797,-74.49607575,-130.3655639,19.46031405,0,158.8346539
322.4079998,1259,14.21697455,-37.51818196,16.79838946,-22.9415663,0,-20.27468098,0,-46.53053428,256.6713749,-54.49433994,345.7398118,63.12825495,189.1368287,-31.87437236,0,150.7125739
322.4159998,1259,-2.120458173,-32.30495182,-187.2442592,-19.52506919,0,25.62295428,0,-22.60252203,-192.7135111,8.449056686,-289.7345627,-30.77465242,-187.6910211,40.86306545,0,144.2374569
322.4239998,1259,6.226071282,-82.73433016,231.3448241,-26.07900002,0,-36.4602109,0,-6.244124297,146.5409073,-42.50542288,140.1635096,-4.564756238,90.50634498,-29.03884474,0,191.3248423
322.4319998,1259,-8.624211001,-23.17664407,-261.6553913,-38.47593996,0,-6.69131012,0,-72.26746518,12.45249966,-25.63899855,52.30522217,24.61142432,-13.33912936,-50.2796472,0,118.9712746
322.4399998,1259,-0.514438556,-74.90905561,105.0433649,-33.87297554,0,-7.036370459,0,0.999619446,-126.8084866,-9.937365256,-259.2454145,-74.4460165,-134.0457033,-13.94089317,0,171.3200602
322.4479998,1259,19.28161867,-28.61867006,7.279415101,-36.60537798,0,-26.74026841,0,-47.80407634,262.209105,-31.98979373,350.5713513,64.45321762,200.0323927,-31.23955397,0,162.7505317
322.4559998,1259,-4.017300357,-28.5246056,-196.7418022,-26.57345397,0,18.24961568,0,-41.21007197,-179.0911332,18.88101562,-299.0907116,-47.24184779,-181.6639007,42.88949123,0,137.924475
322.4639998,1259,15.99722734,-70.55398396,232.9937496,-25.05195949,0,-31.84876647,0,-11.44224074,161.6476587,-37.13983871,135.562144,-13.76504191,103.46994,-45.67367483,0,190.3718386
322.4719998,1259,7.766651399,-4.687622086,-250.0083064,-23.39576452,0,-3.358721906,0,-75.99006867,34.60544838,-0.447779191,57.92240157,21.83704483,5.68749862,-14.14931783,0,118.9981385
322.4799998,1259,-0.521715287,-66.80335887,108.556138,-8.437038325,0,-12.83457236,0,-11.97685725,-107.4407194,9.499615631,-253.608259,-88.10044364,-131.0995958,22.24400545,0,160.329093
322.4879998,1259,18.67253506,-22.80988243,8.996444036,-5.446065534,0,-26.32743823,0,-50.38393463,259.8098863,-29.58304044,350.1488889,57.64218668,199.3467227,-57.48373314,0,163.8249979
322.4959998,1259,-1.146356314,-26.98552587,-180.2062162,-2.820891297,0,22.09229121,0,-33.26950964,-186.7202334,22.60238676,-290.2368337,-40.08501931,-167.8369508,26.54807995,0,145.7858669
322.5039998,1259,8.91665633,-76.34058383,249.0873541,-8.577098623,0,-25.65117171,0,8.629891239,155.9016752,-33.36303825,148.1644892,-4.925547075,122.1305287,-5.081976286,0,194.7869849
322.5119998,1259,14.77504189,2.844973158,-234.7899454,-0.762297123,0,10.00853236,0,-39.7306438,29.74453454,4.477613633,70.59219692,48.3561654,39.19603628,19.69202308,0,147.1689637
322.5199998,1259,14.79647289,-60.16619688,116.0249863,4.556805446,0,-5.702169063,0,18.29757019,-106.796183,17.25177141,-231.1461461,-48.29552992,-89.72041299,17.4927222,0,203.3806488
322.5279998,1259,17.35478764,-34.07014732,6.12456078,-8.346096972,0,-28.90935244,0,-38.13602764,253.7834366,-27.59153463,361.3638474,75.39625328,214.5514659,-45.53573748,0,191.072856
322.5359998,1259,-8.750001883,-37.53013964,-173.0405137,-2.386415757,0,21.244424,0,-10.80010112,-187.9553135,12.89775111,-281.2533654,-31.0522493,-150.3054799,30.27772517,0,176.8507818
322.5439998,1259,12.97936283,-71.40859596,251.1638711,1.716300282,0,-26.28120391,0,30.7890878,154.4996107,-37.60501965,151.3946875,5.765182134,138.1197547,-36.92165325,0,235.7628837
322.5519998,1259,33.33434949,16.94355841,-233.485902,6.965474356,0,0.61769352,0,-56.13170895,21.1005351,18.37916552,55.73388319,41.35297663,23.77378729,30.33617037,0,168.912371
322.5599998,1260,22.77479302,-53.66391982,134.301768,8.092505427,0,-9.308544668,0,-3.765250152,-104.0679902,26.3020094,-242.0197098,-66.77042357,-102.497922,38.92966184,0,192.178271
322.5679998,1260,18.15904175,-29.97093215,30.04495869,1.436913134,0,-20.17380425,0,-40.61756502,252.9236353,-27.74475712,347.6654996,57.98361065,205.0120765,-59.25499306,0,168.0043435
322.5759998,1260,15.99480876,-19.02282746,-149.9979939,9.557406797,0,21.89510879,0,-26.92118266,-189.6333911,24.00466017,-291.7595311,-46.76789016,-163.5423814,51.44582705,0,156.434903
322.5839998,1260,34.91750109,-53.74745495,269.2866016,11.37456527,0,-28.3309049,0,-0.129234826,167.7771229,-14.70298936,151.1049305,-5.016478761,138.1278789,-5.725234943,0,200.0706276
322.5919998,1260,10.22825373,0.832093878,-217.469953,6.462630429,0,12.84197782,0,-58.44266667,33.85290014,13.14584052,55.24392429,41.02285664,26.47129093,-18.76949441,0,140.3455332
322.5999998,1260,-0.539457282,-67.61980463,137.6055348,2.996512491,0,2.233431075,0,19.08162434,-100.9185783,-2.700286925,-246.4985076,-60.90259271,-96.51918844,-10.79454134,0,195.9133584
322.6079998,1260,36.03448631,-0.280099939,15.71420717,5.926691517,0,-22.33131753,0,-41.56860286,256.1223062,-21.66651675,336.5287344,66.63954304,217.4278048,-30.37151743,0,172.4100183
322.6159998,1260,19.42441871,1.191306009,-162.1676855,6.763338608,0,18.20289985,0,-48.10239614,-178.0919172,43.51417334,-293.2680109,-42.95071863,-160.3306506,61.56678134,0,133.7951275
322.6239998,1260,10.39363682,-61.00939711,260.0523444,0.537993272,0,-26.57603081,0,2.344424784,164.1173583,-19.89532855,148.4801854,-13.22532302,136.0352334,-31.37526365,0,172.764062
322.6319998,1260,16.87198986,14.101282,-227.8150609,5.816266217,0,10.41335808,0,-51.42544457,11.46973968,13.5676892,49.25076041,29.27485291,29.27567922,-20.10813727,0,127.0663913
322.6399998,1260,21.86745495,-44.74589823,130.6784215,4.398311851,0,-5.707816412,0,2.523221665,-116.0774805,12.7970408,-233.0424023,-72.41241451,-87.08368031,8.918654456,0,169.4101173
322.6479998,1260,19.05908226,-10.41212506,23.83371834,8.82714159,0,-21.32809448,0,-22.50137553,241.2947358,-15.19807196,351.7539424,59.14641495,239.7488298,-24.56874509,0,147.2181201
322.6559998,1260,2.600059369,-10.33198576,-157.3884244,17.80925804,0,18.00100885,0,-3.284680865,-198.2096836,41.51436989,-282.7781521,-40.27687886,-132.8999126,38.70536813,0,143.4464265
322.6639998,1260,22.74569807,-46.73006325,241.6499363,10.14884146,0,-35.15527751,0,14.78269848,147.6596308,-23.77500988,156.8266801,-8.229599815,151.0952437,-44.22863574,0,178.337299
322.6719998,1260,8.778466001,14.38388145,-235.9777395,8.958217435,0,6.319485964,0,-34.15616433,8.131836001,5.75710437,52.53844881,28.83671307,40.54238919,-34.23794714,0,110.4542553
322.6799998,1260,7.00838916,-52.42049323,124.2017542,2.668968644,0,-13.90086286,0,26.56809821,-112.1578679,3.294965599,-232.78218,-75.20541926,-83.88474332,-16.73495869,0,164.520932
322.6879998,1260,28.59931829,-3.91005476,3.350321565,7.721142159,0,-32.65128215,0,-18.46780292,240.2921173,-21.06343516,339.2968666,58.18192683,219.2829468,-12.83248651,0,157.618098
322.6959998,1260,4.121801508,-10.05191681,-165.626518,14.46913681,0,5.992931202,0,-3.372965567,-191.5839076,39.33396966,-299.8207214,-44.65492517,-152.8534909,42.67479263,0,148.6152131
322.7039998,1260,14.51328971,-46.22247558,241.1647433,4.011583684,0,-50.13341746,0,18.75588682,156.2005233,-22.7135397,139.41203,-15.33733416,140.8636021,-77.22975869,0,186.2658933
322.7119998,1260,10.79988108,29.48027773,-224.6017817,15.98831241,0,0.354600534,0,-17.9713523,11.17979329,22.39157196,47.24709349,35.83483898,43.07722673,-7.208260786,0,147.9011491
322.7199998,1260,0.16189744,-43.87572903,145.072464,17.67431381,0,-15.05825952,0,52.07739483,-109.8711463,30.07743514,-221.6766828,-58.16822313,-71.1952583,49.09132505,0,204.9711784
