Time:125Hz,Epoch,FP1,FP2,C3,C4,P7,P8,O1,O2,F7,F8,F3,F4,T7,T8,P3,P4
248.7919998,971,79.33770405,-54.13556576,3.947868664,47.87320154,-30.15506099,-87.21724234,84.13346905,50.07533115,-186.6765661,204.579582,-89.76330499,4.019447118,-20.99534441,-44.34657223,80.10628455,80.49366122
248.7999998,971,-8.684600874,36.48429546,4.02299696,73.15730576,30.5509262,31.68038709,-437.6735186,-174.6616028,-128.7291279,269.8647954,-61.71152093,4.093859584,9.077709312,24.43063451,-70.42463148,355.3586313
248.8079998,971,-48.22328803,-80.11908391,4.097735257,48.57463597,-10.20854681,-89.68416641,198.0916203,72.03560161,-110.1457807,270.6749614,-56.09339382,4.167883009,3.798558248,-8.42116695,-74.05626065,-803.3584773
248.8159998,971,76.39492798,-19.38401147,4.172083167,16.07246295,-54.62450001,-48.70182557,-330.5083174,-133.1449823,-208.1814756,177.6753645,-116.0783523,4.241517018,-63.7533421,-96.29164185,70.75416633,797.8730658
248.8239998,971,-98.24887057,-19.54196588,4.246040311,84.80238518,26.03795644,-13.63378939,-131.563443,-67.71599871,-85.40063408,306.5571108,-39.97290592,4.314761248,49.89897026,56.16658618,-178.80886,-616.5473285
248.8319998,972,71.75378388,-86.80668378,4.319606323,0.125946108,-68.7329861,-117.0819148,61.51858074,22.73299411,-198.3306022,167.4163459,-104.7906695,4.387615347,-74.95984915,-83.57039758,77.63803216,103.870268
248.8399998,972,-20.558187,36.861732,4.392780849,65.10923554,-8.552007377,21.57720164,-459.3347691,-184.19745,-117.3703428,261.7105332,-74.79666839,4.460078974,16.95020051,-5.500531232,-94.83725576,359.35136
248.8479998,972,-43.41736838,-78.73193055,4.465563545,64.63214727,12.42464559,-82.04781288,204.0862684,82.93130736,-101.6088845,284.4334356,-45.36880016,4.532151799,25.18135329,10.00280122,-74.83828795,-798.1635993
248.8559998,972,84.75853921,6.566246586,4.537954078,-8.479652906,-54.70474676,-19.89864266,-586.8888402,-234.4328254,-212.7513034,155.6104899,-119.8549398,4.603833504,-86.77995226,-99.32919295,76.64290847,1245.881507
248.8639998,972,-132.8108208,47.21255432,4.609952126,109.4658495,51.20639398,56.88902247,-331.992529,-132.1872666,-24.83140851,342.9688123,-19.54906555,4.675123781,117.18664,93.45715282,-245.8014436,-513.5956741
248.8719998,972,63.37558205,-101.5735623,4.681557381,39.11427435,-11.65156055,-123.2427433,399.221236,180.494785,-143.8196062,229.9854209,-55.73777633,4.746022334,-45.9682507,-35.7840904,104.6632673,-434.1372774
248.8799998,972,9.692650509,43.68450055,4.752769541,24.162651,-19.82381649,19.12480503,-580.2859181,-227.7951653,-151.5589205,220.8875405,-74.90438518,4.816528877,-79.40847309,-39.45484576,13.72888169,909.3213699
248.8879998,972,-132.8511006,-29.46794853,4.82358832,90.99852097,42.40474586,-8.503103074,96.31128586,48.85974761,-42.05438305,299.0000201,-14.63018593,4.886643137,78.53110915,64.59052834,-161.9549773,-990.1135748
248.8959998,972,81.36385836,-64.53668907,4.89401344,1.297537276,-42.97471308,-78.00145623,-26.92166502,2.572904189,-172.9508533,153.9301399,-84.83556703,4.956364848,-63.94058712,-73.96624733,150.9382274,470.6988916
248.9039998,972,-107.251984,22.75871323,4.964044635,39.70729502,-4.556918354,10.69706903,-457.025654,-196.6395368,-72.08050104,274.904945,-51.81020305,5.02569376,35.85032708,36.02210741,-146.9207536,40.96491496
248.9119998,972,-55.35145894,-97.86230403,5.03368165,14.8113557,-18.28026747,-109.2502023,251.7045336,103.7532764,-117.09517,220.5372574,-70.44117094,5.09462963,0.985359956,-21.09157953,-40.01750024,-700.8213541
248.9199998,972,19.7235871,-2.809728921,5.102924242,-21.10138958,-32.99779198,-27.98232745,-405.4317733,-164.5187471,-174.6632183,163.284124,-97.39454211,5.163172227,-90.91065639,-83.47399563,57.81319234,798.1839377
248.9279998,972,-145.0802975,-29.70021497,5.171772176,40.82353348,19.01521914,-25.3176853,-62.35358554,-40.08454013,-55.83624081,281.0613642,-32.01766899,5.231321331,62.5848339,62.2462481,-161.1134048,-729.7923683
248.9359998,972,36.31128542,-87.17486979,5.24022523,-35.4393542,-51.8592347,-104.9192316,31.96120324,14.35659624,-164.403898,151.7453436,-94.86588948,5.299076734,-46.47727572,-54.32808741,92.14193972,198.2903792
248.9439998,972,-69.43490727,21.23596203,5.308283192,5.379751707,-0.546217579,7.304970967,-442.2327557,-179.8480827,-112.0236629,239.9855148,-70.86838318,5.366438235,-29.40845267,-21.36540808,-99.26287844,246.3501569
248.9519998,972,-64.20654656,-90.88199428,5.375945863,-3.720757499,-9.528345624,-91.90933298,209.666803,80.91819334,-125.1583458,221.8122696,-75.08395564,5.433405649,-29.24927925,-27.52494313,-62.6925704,-734.8288656
248.9599998,972,30.53893963,-18.18034659,5.443213051,-51.91421182,-45.22807372,-27.19217405,-352.9638609,-144.1915333,-174.2388263,143.1551657,-111.7948563,5.499978797,-93.69748966,-72.8924552,63.03416442,796.6423417
248.9679998,972,-150.1972477,-4.288790351,5.510084577,30.04907854,28.53935989,5.682999518,-100.7423762,-38.77006717,-33.14796894,302.7345132,-21.52953363,5.566157513,46.71221031,55.9553352,-164.7845682,-644.3179253
248.9759998,972,27.30209038,-79.09718196,5.576560273,-50.44051772,-28.03770751,-94.79472761,80.17830444,42.80637819,-150.6409539,177.1872242,-79.5806779,5.631941641,-62.99331777,-60.36512337,98.64104922,109.4435964
248.9839998,972,-68.35878928,17.57434354,5.64263998,-34.07292635,-2.668357889,6.837545439,-436.8558161,-179.4573716,-99.45350501,254.145525,-66.30613794,5.697331036,-21.52303047,22.61546161,-75.04891725,320.9795525
248.9919998,972,-91.14878904,-85.05599786,5.708323552,-30.96213132,-13.3392575,-94.31245712,213.7203903,88.77708345,-82.92363646,283.6432071,-52.10123145,5.762325562,-4.732034579,5.431020663,-70.04067413,-788.0461702
248.9999998,972,26.82973847,-25.2709369,5.77361085,-71.75492065,-30.92391066,-42.56281809,-303.1140457,-119.3384283,-165.6809361,186.2580314,-98.49760625,5.826925095,-88.07388387,-89.42304533,88.20566498,791.6404129
249.0079998,972,-160.5843024,-24.18137142,5.838501749,-14.64370554,13.88730568,-17.97710339,-111.9218971,-60.79645035,-45.36169995,301.239686,-33.58446854,5.891129522,10.74748025,36.05903459,-162.5159943,-619.3319758
249.0159998,972,14.73511775,-101.2508176,5.902996133,-92.01286863,-64.80679262,-116.3560556,84.05583227,31.87490919,-173.0667084,152.584163,-105.2562747,5.954938739,-134.7631305,-116.960886,78.70299897,85.99119801
249.0239998,972,-64.05488682,21.21893896,5.967093896,-30.83528996,5.513244549,25.52056648,-423.1248916,-169.5372904,-108.8219491,228.0325678,-67.47646972,6.018352652,-44.79781393,35.00264771,-80.20629229,361.9916781
249.0319998,972,-83.47474326,-88.05756346,6.030794943,-55.1908558,-14.186771,-82.87586618,220.2364287,84.23177692,-70.27990062,243.0444435,-34.12200999,6.08137118,-4.389535558,63.62158943,-72.49027816,-785.6418467
249.0399998,972,47.40542778,-36.73307208,6.094099189,-125.7566079,-65.06141361,-47.37711937,-308.69128,-127.7471011,-181.629159,123.4514622,-104.3735191,6.143994248,-120.9895824,-105.4724112,77.22958602,811.9569439
249.0479998,972,-142.1532337,-0.82252891,6.157006561,-27.56749552,16.72892895,1.489961951,-115.3339392,-42.40463211,-46.66592999,283.4273189,-23.3887406,6.206221795,9.250762681,53.79788655,-181.237664,-595.8112055
249.0559998,972,16.32371383,-104.3593619,6.219516994,-129.656131,-72.52755284,-136.4350897,83.88050064,41.58409302,-137.3453848,170.9434096,-66.60078536,6.268053768,-107.964718,-93.15561821,71.41220825,71.75167539
249.0639998,972,-66.25334919,-10.87600474,6.281630434,-107.2175756,-26.54801881,-15.3325865,-443.8044829,-180.4100984,-109.0457653,195.8980028,-62.09565595,6.329490127,-52.42427392,-40.56280639,-95.92190106,354.4511075
249.0719998,972,-81.6507979,-79.75791017,6.343346838,-91.52953815,-9.641457042,-60.02923199,222.0322487,113.282637,-86.49953187,234.6967948,-29.2289955,6.390530839,-33.12103428,29.41904526,-82.57914084,-778.7924255
249.0799998,972,27.44844797,-43.64759112,6.404666173,-182.2699057,-61.1517018,-32.57870674,-305.3245215,-98.72483843,-153.7928745,169.6116036,-66.37709129,6.451175882,-133.6820218,-78.89637949,86.17148541,835.9745301
249.0879998,973,-178.8286423,-36.01802522,6.465588414,-159.5122937,6.330593097,-14.18353719,-129.446395,-41.3274665,-33.40089558,281.7996234,-12.35882048,6.511425245,9.477474965,49.86690851,-190.2834071,-588.8258361
249.0959998,973,-1.424887969,-88.23954374,6.52611355,-228.1508958,-58.99355358,-99.59250957,103.1500644,80.74786397,-151.8598015,164.0799254,-69.2991485,6.571278926,-110.1462391,-71.12098461,64.51992275,89.65541619
249.1039998,973,-92.56439133,18.77407491,6.586241576,-135.4663433,-2.498796698,35.35364402,-412.7408214,-128.3569686,-87.27817148,238.7574497,-33.17808812,6.630736934,-47.19865974,-7.967817204,-77.90203235,400.2143031
249.1119998,973,-142.4942414,-94.50512751,6.6459725,-165.9926278,-20.62021192,-66.7033149,224.0749462,114.7540025,-64.08932918,223.0712239,-17.91901008,6.689799286,-27.430257,14.58664246,-78.57215006,-777.4622325
249.1199998,973,-24.14638566,-33.98027095,6.705306339,-277.5837649,-77.91995625,-40.66854037,-290.5683102,-93.77998795,-152.7744587,67.52881338,-86.24902486,6.748466013,-131.0725817,-104.0098938,70.33376608,805.366509
249.1279998,973,-201.6986912,3.338210854,6.76424312,-186.6915506,28.19206674,28.14333794,-76.0073902,0.412688165,-13.25666447,161.4548249,-4.011214715,6.80673715,22.96643474,78.95575796,-177.6015648,-602.7085036
249.1359998,973,-23.83312972,-94.82636916,6.822782879,-289.9979923,-50.84497064,-77.18870435,148.8772562,95.64675333,-128.7454994,-22.43356645,-54.49025305,6.864612747,-101.1410519,-44.36968964,100.8735121,75.42562346
249.1439998,973,-110.4428305,2.162873519,6.880925664,-252.7160993,-13.94371552,19.88267385,-381.3957484,-131.7683294,-82.80017401,11.62173575,-52.7817567,6.922092861,-45.7093591,-41.23419247,-67.04150818,383.2457876
249.1519998,973,-148.3162917,-91.40631799,6.93867153,-253.0948764,-18.68486343,-86.33684377,255.9167025,123.2602746,-68.22587811,-0.620591878,-44.49745549,6.97917756,-27.29047199,15.61700436,-85.35347736,-781.2585332
249.1599998,973,-45.98342647,-38.65080734,6.996020544,-358.1911332,-74.98374218,-70.11162812,-271.1069775,-92.97602041,-143.8713069,-218.4638146,-108.4933196,7.03586692,-132.563481,-77.5126254,74.63678718,815.6224163
249.1679998,973,-244.1693257,-3.991617465,7.052972783,-217.9593436,28.33027097,8.805917896,-56.17321474,-0.959060209,-5.064247935,-83.96172513,-30.33948826,7.09216103,11.28382295,74.01645326,-179.3170013,-603.4206358
249.1759998,973,-77.96931666,-103.7534842,7.109528332,-277.0895147,-58.94106134,-100.949699,166.2707295,87.57996669,-146.3628243,-192.2212288,-84.94957242,7.148059985,-115.206492,-29.55330023,84.24687686,62.68296937
249.1839998,973,-182.8423095,8.88270599,7.165687286,-289.2912355,-17.03569003,5.119200551,-362.0332011,-133.1381115,-74.61682982,-199.4863344,-74.49560278,7.203563892,-39.87271153,-31.80412238,-79.55638875,364.1976237
249.1919998,973,-202.5912299,-59.85105941,7.22144975,-232.6694315,14.65884007,-39.67622234,320.5355644,164.3756115,-40.99539129,-140.9196441,-38.87308079,7.258672866,-9.315204117,10.29663533,-82.42237864,-828.7233127
249.1999998,973,-71.54435279,-29.99283088,7.276815841,-323.1080433,-53.1834793,-40.74061036,-203.7243223,-59.28065169,-153.8164212,-223.6167579,-89.79610222,7.313387032,-115.6045628,-91.60095558,98.78974554,786.4664655
249.2079998,973,-278.294988,-27.15503854,7.33178568,-293.713176,10.02915137,-12.70936557,-36.67609543,-7.565179935,-16.38431425,-133.4992673,-29.76612365,7.367706526,12.7083139,10.46753687,-158.7250409,-597.8978564
249.2159998,973,-103.5820591,-103.6938276,7.386359404,-306.1288988,-59.32259771,-87.50341493,187.1670518,93.57162217,-155.2099095,-247.9418462,-94.13094131,7.421631491,-128.7412247,-36.5567514,79.04491731,57.7769941
249.2239998,973,-190.6438504,14.97733852,7.440537154,-278.1674132,-15.52288091,3.533504081,-345.3541406,-135.7600805,-98.98597818,-179.6343142,-73.53426852,7.475162081,-50.11203961,22.90622577,-79.2627304,368.3652303
249.2319998,973,-224.4681062,-85.63542989,7.494319083,-289.4473789,0.719847533,-87.1686517,304.4473827,124.7220135,-41.16950791,-153.2562811,-45.25755787,7.52829846,0.798674725,38.26219642,-68.10196911,-797.9397377
249.2399998,973,-118.7114492,-52.75803843,7.547705354,-331.2163513,-66.98742476,-70.46559322,-216.6738821,-92.40907416,-161.0199557,-248.3516986,-115.0013395,7.581040798,-124.3086621,-33.90804294,91.68548744,808.4366646
249.2479998,973,-321.9510802,-33.73844468,7.600696138,-228.5935579,-3.315582249,-27.49960199,-33.06006967,-25.23109456,-40.6823457,-113.0644468,-51.66613753,7.633389278,-1.454997222,26.9243871,-176.4007633,-596.4842583
249.2559998,973,-132.1029694,-98.98685866,7.653291615,-285.0115369,-38.27567573,-70.06874128,211.4295961,93.20562761,-138.3206009,-211.2188127,-98.42648507,7.68534409,-91.86031813,-94.59778216,93.01069243,86.54726367
249.2639998,973,-236.4986813,22.49022291,7.705491977,-287.3676539,-3.676042495,19.21142864,-318.7292053,-131.8453518,-84.56187908,-117.9167886,-75.82148385,7.736905435,-61.58042515,28.88198856,-57.95351775,404.3757103
249.2719998,973,-267.1084984,-83.69047518,7.757297422,-266.157201,-9.828230456,-86.5663586,322.8770007,123.8075503,-51.61367929,-93.47652019,-55.6516535,7.788073521,-43.34559675,44.02075452,-75.45601001,-812.4161487
249.2799998,973,-116.9403024,-32.77397304,7.808708158,-283.5252309,-25.02705161,-15.53139631,-175.2912304,-65.99516411,-145.1482225,-203.3468326,-113.0475731,7.838848567,-94.38359647,-72.49908859,102.2557822,811.8760131
249.2879998,973,-322.4943199,-10.59146651,7.859724404,-213.0878631,34.05193648,5.586628883,-3.696966101,-6.40209418,-19.40462045,-35.20871667,-36.91737639,7.8892308,16.47270943,63.47925977,-147.4488614,-569.5647654
249.2959998,973,-152.3203243,-113.6420531,7.910346387,-308.6277254,-59.09020524,-118.9108697,201.8852805,67.37233066,-134.2928418,-150.4450364,-103.0246512,7.939220457,-121.5064622,-52.7347293,82.64267758,70.1701856
249.3039998,973,-232.2501388,3.547712862,7.960574341,-262.6302302,-4.954354777,0.331235934,-327.5794125,-154.6937293,-80.73617359,-122.3743238,-97.74566548,7.988817782,-56.31831098,-9.32350217,-81.1876926,398.0752073
249.3119998,973,-264.3814478,-73.14538755,8.010408512,-209.3092063,9.301091182,-68.24767013,324.003046,123.4141913,-41.16676418,-70.90425541,-51.37142788,8.038023031,-15.11946513,24.60474738,-72.07868912,-792.558213
249.3199998,973,-128.0277387,-39.95763706,8.059849155,-270.8484639,-45.72226287,-47.85574872,-185.9967966,-83.37048906,-134.8370527,-145.8333909,-97.47728415,8.086836465,-107.8682971,-34.41303113,99.62832304,813.3275033
249.3279998,973,-313.9556944,-15.36153602,8.108896531,-203.5884066,20.85474386,-18.73892163,-18.05182261,-28.49339975,-15.12605876,-32.95833502,-44.18371507,8.135258359,8.006197833,90.01038658,-163.6750241,-564.1698054
249.3359998,973,-147.6071845,-95.14799975,8.157550912,-265.5387842,-53.86914421,-105.3644187,192.5135404,63.11817784,-126.8368157,-142.3909949,-98.36647636,8.183288991,-92.98478138,-50.05553984,85.94231371,88.93868749
249.3439998,974,-245.8866699,-12.63628786,8.20581258,-236.0500176,-25.68859558,-5.260914285,-350.9071889,-172.9331642,-80.94937468,-114.3263781,-96.53154952,8.230928652,-46.01195954,-10.28272394,-93.96989943,394.0795203
249.3519998,974,-263.48263,-86.81504175,8.253681823,-198.9290442,5.396669552,-80.02781629,307.1391208,101.6076479,-57.44130047,-120.9800212,-68.65942296,8.278177641,-32.94082521,0.608621061,-96.61438484,-797.4902492
249.3599998,974,-124.524682,-35.75621141,8.30115894,-225.2022337,-31.96081147,-45.52218768,-195.5793077,-98.51229185,-147.8548154,-177.2871812,-97.6813989,8.325036265,-133.3472284,-71.40634547,105.9472403,833.9972483
249.3679998,974,-331.6879866,-40.10172746,8.348244238,-147.5074621,12.85005226,-22.04517596,-44.01626126,-59.84475963,-15.69006952,-65.13023581,-45.66141435,8.37150484,-1.013508292,58.34177641,-166.8484161,-553.8063674
249.3759998,974,-162.6466083,-105.6908977,8.394938033,-220.983768,-50.50137467,-118.5250916,175.7384326,37.82223898,-128.0606657,-213.9204728,-101.5404899,8.417583689,-88.52631868,-73.54442411,78.44107277,103.969975
249.3839998,974,-256.1932656,-0.134493796,8.441240648,-166.8834226,-6.131215286,-4.216604921,-362.7763381,-185.2479285,-80.84297218,-145.0823369,-79.05824537,8.463273147,-40.94809622,12.42936804,-73.51244719,440.2248551
249.3919998,974,-299.218829,-104.9527285,8.487152418,-143.2271494,-8.379232048,-80.1326567,266.9376771,71.29851882,-44.89735558,-110.870305,-59.32446023,8.508573554,-17.92323384,43.23592065,-87.24644142,-754.5433934
249.3999998,974,-190.4278055,-63.03377503,8.532673683,-225.0431057,-57.93253869,-60.19180362,-247.8990907,-135.2553737,-141.7774028,-207.9663118,-113.56597,8.553485261,-117.3382268,-80.29151434,84.26635922,849.1917524
249.4079998,974,-394.1058002,-56.60594771,8.577804794,-142.7232708,4.958502547,-30.15818857,-76.24269301,-77.52542088,-38.40829529,-101.6699085,-68.1920886,8.598008627,-20.86859929,39.22191129,-191.859835,-562.0521045
249.4159998,974,-212.6847806,-138.5723089,8.622546109,-201.6197258,-62.71949163,-115.8749266,150.9770563,25.274667,-158.3908467,-201.3279914,-121.442526,8.642144018,-133.914593,-76.9980815,65.19510828,103.0703075
249.4239998,974,-320.4437449,-38.79081793,8.666897996,-166.7908398,-14.77940934,-0.567165801,-390.6394308,-199.0793614,-94.70063527,-135.1994437,-95.0785052,8.68589181,-62.14353305,-25.18772429,-80.79538444,446.9088049
249.4319998,974,-367.4431983,-146.3873068,8.710860829,-139.3179686,-19.98887395,-93.46213631,250.829681,60.48355564,-66.42855997,-144.1670342,-84.23762485,8.729252387,-24.6235153,-4.981184939,-104.1037495,-774.3547581
249.4399998,974,-238.7555132,-109.7517741,8.754434993,-207.4187938,-78.49485403,-75.23784432,-258.1313143,-148.5596801,-168.0675928,-233.6631196,-138.6957418,8.77222614,-118.3521628,-92.49750188,62.74329057,835.7703772
249.4479998,974,-436.7017106,-91.2088719,8.797620881,-101.8506413,4.933980403,-16.97053548,-88.1525518,-85.3177411,-45.45832303,-111.6939677,-71.8184834,8.81481347,-28.34811701,57.76544829,-197.2419586,-547.9968142
249.4559998,974,-261.8774436,-172.8244619,8.840418891,-149.7099911,-65.138544,-114.4643603,130.8824801,12.27418219,-162.9516249,-270.3180779,-131.1032055,8.857014786,-156.9439883,-57.17449251,61.88395938,100.7500095
249.4639998,974,-353.0476398,-66.61462031,8.882829434,-126.9895374,-22.99000826,-13.60137053,-409.6669729,-216.9915843,-95.45714987,-211.7451575,-106.4643286,8.898830503,-49.77322361,-19.36171809,-90.66951551,428.1644423
249.4719998,974,-378.4276207,-148.9377195,8.924852926,-92.7786427,1.466125027,-80.00430913,248.1888637,58.5565911,-68.77402015,-175.4475605,-84.40041579,8.940261048,-38.67971345,-6.048081799,-102.3744635,-781.431733
249.4799998,974,-172.3471151,-117.8029259,8.966489793,-184.8359182,-80.80594154,-100.7659119,-177.5657177,-111.9334384,-209.1837794,-313.7896965,-161.5975434,8.981306852,-220.6099676,-130.3869352,164.1588349,1066.39409
249.4879998,974,-344.1049044,-71.15536779,9.007740467,-109.3087736,-21.80156347,-47.74344388,-163.948795,-123.4336987,-53.74377675,-185.124625,-84.62793081,9.021968357,-55.92011586,11.5630632,-100.682239,-64.01193298
249.4959998,974,-194.7486752,-118.1251456,9.04860539,-163.9263852,-76.42781098,-105.7784708,-87.0171707,-86.49209767,-163.6621039,-295.9062888,-138.9904752,9.062246011,-161.8350628,-109.5393289,101.0880559,637.0948982
249.5039998,974,-123.0043359,-64.89397421,9.089085011,-185.4611841,-91.49875158,-75.81212036,-389.7017939,-199.6893929,-222.12936,-340.5791123,-167.3950045,9.102140271,-233.9621244,-167.3761542,194.9441233,1563.955169
249.5119998,974,-207.4456729,-134.6418261,9.129179788,-124.8795226,-57.01289393,-122.8700043,213.6197044,46.90650804,-128.8188744,-264.2050696,-109.8455399,9.141651603,-142.2774071,-87.38241374,93.63182099,53.31348398
249.5199998,974,-229.202268,-55.15686701,9.168890185,-131.2347385,-45.73887829,-46.0948129,-334.6710004,-187.8990743,-131.4542915,-256.5586126,-123.6305484,9.180780479,-130.4990587,-84.28205279,21.9327551,761.2062122
249.5279998,974,-382.0708574,-27.48907418,9.208216677,-29.8361765,17.5868984,-1.254471104,-143.9403484,-114.12089,-2.944757291,-124.5979855,-49.68976917,9.21952738,5.210134946,46.91623376,-209.0007137,-538.55589
249.5359998,974,-230.1498439,-111.6189805,9.247159744,-75.32810357,-53.48536064,-102.129353,194.7968888,34.06500229,-96.64214864,-211.0728309,-85.43107791,9.257892793,-101.4801465,-23.62210885,16.87424432,-253.6992098
249.5439998,974,-252.7935539,-20.7392421,9.285719875,-105.2098267,-31.22200538,-21.27559742,-435.6705907,-231.3292448,-105.8327905,-214.3280568,-102.025784,9.295877215,-104.901303,-17.03220392,-26.51331815,686.9669797
249.5519998,974,-365.2394676,-87.8826481,9.323897567,-49.38187973,11.40257493,-57.20557388,89.8241793,-23.64879913,-14.53199806,-142.2497013,-58.54233229,9.333481149,-8.590686646,43.28749405,-174.5007343,-861.2533857
249.5599998,974,-172.6636123,-95.30887166,9.361693324,-112.6101724,-66.19551277,-90.28318232,-74.20207308,-75.68517244,-141.2068012,-249.0098994,-129.1222809,9.370705108,-151.6857824,-77.55338587,61.49486219,421.6248731
249.5679998,974,-298.9684431,-9.903455274,9.399107658,-56.80748972,-7.07369625,3.055457606,-326.5609247,-178.5879534,-49.41025859,-137.1642324,-76.84536937,9.40754961,-46.53835111,27.68129734,-139.9913371,36.94343025
249.5759998,974,-266.3777192,-106.179773,9.43614109,-62.06339604,-30.38112724,-88.08133413,192.4097413,34.69542768,-67.47294208,-157.9518543,-79.53017086,9.444015181,-74.25620963,-7.162340057,-77.14794408,-619.3217213
249.5839998,974,-178.8745971,-39.86500554,9.472794147,-98.03528955,-47.90720314,-50.20329939,-328.0371163,-180.0203262,-112.7729994,-210.5905632,-104.2843136,9.480102356,-135.2925243,-57.29821294,28.89513288,735.4011173
249.5919998,974,-338.0528558,-46.13862297,9.509067363,-31.28917777,4.507844314,-37.31590298,-53.98837771,-80.27585199,-3.118695363,-111.9177296,-42.77065873,9.515811678,4.048573772,41.02041733,-184.9719712,-655.5286502
249.5999998,975,-157.7494322,-90.57528935,9.544961281,-83.82938212,-47.74253589,-89.57571975,52.99911039,-21.1278119,-125.3731588,-227.5593344,-115.9375265,9.551143693,-134.9167763,-76.42140339,40.988703,164.6292808
249.6079998,975,-250.1969178,12.69977721,9.580476452,-40.4789906,10.47830044,18.60775968,-360.9462117,-194.0658533,-29.73667335,-124.8819832,-59.51053365,9.58609896,-22.87118822,18.76287579,-97.86308389,266.0836529
249.6159998,975,-264.6354336,-88.68785985,9.615613432,-39.91140173,-23.00224956,-79.90711997,209.972327,33.65235315,-29.15508035,-124.447701,-50.34991516,9.620678042,-17.76641555,-4.101302477,-83.05538862,-729.537207
249.6239998,975,-139.8816413,-29.44638715,9.650372787,-83.12927327,-40.70680708,-40.09319563,-275.4842105,-156.6202119,-134.3822565,-213.4600092,-117.4615636,9.654881511,-165.3454319,-57.14419784,50.20404277,769.0427923
249.6319998,975,-320.6903693,-12.73594295,9.684755088,-9.482058616,25.03316027,-7.305347023,-86.25205788,-89.8867623,15.06888,-70.25396981,-26.39761567,9.688709945,25.04645105,89.83334492,-178.3836947,-593.0161749
249.6399998,975,-136.2128832,-93.96128408,9.718760916,-76.90156062,-58.50929865,-107.9059565,97.34271566,-8.430795413,-89.30484071,-199.2131321,-83.19099275,9.722163929,-91.69831177,-74.90802641,58.07356216,78.76551923
249.6479998,975,-214.4446602,14.77923902,9.752390856,-40.33781798,21.97449381,4.074994982,-396.5368024,-210.1103266,-35.49461555,-133.477936,-58.75003159,9.755244057,-52.79456204,12.4637003,-92.45998117,372.8978331
249.6559998,975,-257.7476164,-76.73265815,9.785645504,-27.74079566,3.897693622,-82.66783053,214.6092315,39.33443826,-11.48526979,-102.6028704,-32.46481028,9.787950929,-0.891582053,20.36716625,-94.31660429,-782.7933493
249.6639998,975,-112.057898,-16.8071924,9.81852546,-63.37348472,-62.6444248,-46.97450337,-280.4713201,-155.559303,-113.6908439,-200.2528764,-99.85358418,9.820285152,-122.2464269,-104.243029,54.4486262,781.6222479
249.6719998,975,-287.2593754,18.44540061,9.851031333,24.15388073,27.93750598,-2.379177989,-101.4869223,-89.97788365,35.72459746,-44.84973153,-10.15478823,9.85224734,29.03483032,72.12227687,-187.3279766,-574.0451092
249.6799998,975,-112.2307304,-74.11644452,9.883163738,-57.98253949,-48.03780085,-104.9027612,111.5923005,-1.990500469,-73.41410196,-155.7550173,-60.53347467,9.883838115,-95.1865629,-46.25650427,62.54812853,50.46301465
249.6879998,975,-180.6261499,23.35136897,9.914923298,-26.65673913,-19.4826609,0.505329105,-426.9382298,-228.3257318,-48.92867036,-108.0879309,-60.41538644,9.915058105,-63.50674011,-9.744684229,-95.73831187,401.0874962
249.6959998,975,-214.9440087,-61.34442248,9.946310642,-7.041454801,-14.97188049,-85.10862442,212.2576609,38.99087733,-10.5070744,-71.54209092,-26.4899074,9.945907945,20.79681535,17.22802843,-96.53195572,-781.9644882
249.7039998,975,-74.11319305,-5.243687531,9.977326407,-53.08330156,-36.12222568,-38.74450023,-270.0406111,-144.9394874,-92.1860189,-159.5789449,-78.44492397,9.976388278,-66.45541359,-78.66435809,72.92425242,805.005228
249.7119998,975,-258.511031,4.456485815,10.00797124,13.64211833,19.30198442,-13.86229199,-114.6028057,-97.61488237,26.0083879,-31.16123041,-11.88825476,10.00649975,17.38200416,59.85597701,-180.8315702,-555.4522404
249.7199998,975,-87.80892599,-95.59609564,10.03824578,-82.13807713,-80.95721648,-135.5989572,98.33477967,-15.97192875,-109.0698184,-164.6514921,-84.67220737,10.03624302,-128.6921676,-82.25973306,55.95038262,77.51692102
249.7279998,975,-161.2085426,32.10088301,10.06815069,-17.61428885,-6.984972958,4.560199888,-427.745265,-225.4210776,-55.81527329,-93.50606196,-76.49101225,10.06561876,-61.23388543,-27.51024987,-108.3794324,436.5715636
249.7359998,975,-199.0186158,-50.93968562,10.09768665,15.29701216,-5.0426854,-80.5661072,221.2363741,44.36149848,4.984617739,-51.34546392,-29.42272594,10.09462762,18.23519742,21.84632795,-105.4225528,-775.508633
249.7439998,975,-62.43542489,-14.81629363,10.1268543,-58.83247247,-59.85134826,-66.77554681,-277.9753772,-160.0872363,-94.33470037,-164.0964944,-91.17291034,10.12327028,-67.80927274,-89.09904141,62.5080371,824.439183
249.7519998,975,-237.2953862,24.95499211,10.15565435,47.00827595,37.92680883,-4.108599839,-105.6487883,-88.77624239,30.44241414,-17.36221081,-14.95244088,10.15154744,28.21640229,51.28379366,-188.9721291,-541.8691666
249.7599998,975,-58.80849013,-40.9003773,10.18408746,-7.709785823,-32.78883299,-91.71328205,133.5590709,25.25067623,-68.04561851,-117.4747615,-53.32789609,10.17945977,-83.12514072,-52.97461574,74.17834796,74.77648161
249.7679998,975,-140.4543109,60.12019487,10.21215433,24.7057766,13.85590628,21.03359304,-407.8199076,-200.3734546,-12.55503118,-48.40870578,-40.08220877,10.20700797,-1.409423837,3.737047448,-78.37386218,427.600717
249.7759998,975,-175.7414116,-47.2682828,10.23985565,42.10519363,4.890130088,-75.63631859,229.1817264,50.54775474,14.59608037,-35.33968919,-19.91236802,10.23419275,22.66772604,22.49386481,-92.72695501,-787.9475542
249.7839998,975,-41.35528016,-6.547152582,10.26719214,-29.54017084,-66.57558432,-57.97506237,-277.3922851,-162.1280444,-102.3522565,-167.7204795,-92.53758148,10.26101482,-99.10449846,-103.517047,62.2912969,823.2358375
249.7919998,975,-225.6575475,13.27808637,10.29416449,55.52104561,16.75071762,-12.63826308,-113.0543849,-100.4914212,33.07957524,-21.74713314,-12.40401149,10.28747488,40.06394042,16.33354344,-194.6354119,-539.9204296
249.7999998,975,-43.90902447,-72.45937169,10.32077344,-14.50868392,-45.98858559,-121.4266268,125.4193726,4.075437583,-70.33090473,-140.8175746,-62.3969439,10.31357367,-55.47163789,-108.1080109,64.05224303,90.22991062
249.8079998,975,-118.1067986,54.28418869,10.34701969,33.25432359,5.524504182,9.016722697,-409.6994321,-213.4572992,-32.88818411,-78.90902741,-55.07443774,10.3393119,-33.35792588,-21.09831144,-93.01500021,450.3380737
249.8159998,975,-145.7436991,-25.30166178,10.37290399,71.98866017,22.53304662,-55.39165232,249.7598072,69.8248099,18.9537157,-14.06539413,-2.884070132,10.36469032,4.68071662,26.27541015,-93.89789288,-776.5000348
249.8239998,975,-12.06548433,15.08034243,10.39842706,-0.822147025,-20.94440777,-39.80997722,-248.6756164,-133.9989123,-71.75139243,-114.5322543,-54.09095146,10.38970966,-65.29350988,-89.53961506,97.43599551,843.1935932
249.8319998,975,-199.2530671,47.3063605,10.42358965,91.25726628,64.34749926,16.28646726,-84.82555144,-71.71279144,54.13102356,18.78882621,10.0909995,10.41437067,47.5506619,61.86149489,-158.5685046,-534.673329
249.8399998,975,-10.88922254,-30.23904539,10.44839251,28.97568816,-16.44445612,-75.39627277,160.2655223,44.41909545,-41.24538391,-85.08804607,-27.93611588,10.43867411,-63.36733932,-58.25599562,94.4125221,76.41999708
249.8479998,975,-88.55303509,71.73540251,10.47283639,50.45210887,9.955273421,29.45802461,-396.6677419,-193.2661833,-0.837144089,-24.84016015,-14.09969336,10.46262073,-11.40889131,-9.987510061,-54.2854619,458.0515496
249.8559998,976,-123.3882853,-26.6821056,10.49692206,67.07713746,20.7592426,-59.26573126,242.3855946,69.26257086,26.30687666,3.257151521,16.41189218,10.4862113,32.63511224,11.81020537,-71.54349752,-767.1144595
249.8639998,976,13.92198093,1.224454825,10.52065027,-18.57471735,-55.44284289,-57.45470189,-272.4169915,-143.0903522,-78.85250288,-118.2408841,-41.16445889,10.50944658,-86.6718568,-121.5538393,100.1720341,848.667908
249.8719998,976,-174.7264852,24.21563083,10.54402181,60.6218916,3.253395473,-13.45600442,-134.8825601,-92.33063974,32.92381675,8.130330027,12.27472056,10.53232736,3.463977075,1.54302466,-174.3677962,-511.1232391
249.8799998,976,4.563095548,-49.67622871,10.56703745,2.020084937,-55.05880893,-102.2327611,108.1447135,29.25721378,-74.63032247,-91.79441365,-29.62159326,10.55485443,-87.39718362,-104.7103002,72.0628247,102.7254626
249.8879998,976,-77.85756167,45.23516088,10.58969798,18.87570138,-33.59598,-1.014249588,-451.3215034,-206.8978554,-29.73381175,-41.48152581,-15.87153515,10.57702856,-56.37342321,-41.69960666,-77.01601809,477.4485137
249.8959998,976,-107.5509019,-49.68648884,10.61200418,41.25258424,-8.325147684,-83.95464328,192.7652381,59.49874139,11.55384667,-18.48498141,7.482300887,10.59885055,-13.94832648,-25.09824355,-105.2298485,-751.0697054
249.9039998,976,35.3777316,2.563512575,10.63395686,-15.16294366,-40.83324825,-57.08341507,-291.1222087,-129.6238897,-79.31380216,-106.5651291,-33.87315173,10.62032121,-91.07928976,-122.2786057,78.08792214,860.002999
249.9119998,976,-161.4518399,34.03481637,10.65555682,71.36830609,9.946102027,-3.326691743,-137.441277,-71.68753112,41.42532222,36.5669848,34.62524787,10.64144134,-1.373867229,15.43506502,-178.0553727,-512.0926374
249.9199998,976,17.96773707,-46.88570617,10.67680487,7.557814739,-35.17607727,-94.00818885,117.6094632,44.02649006,-56.08998224,-66.70190655,-12.22300687,10.66221176,-95.01419069,-103.6425222,68.71003227,83.65141177
249.9279998,976,-61.04060715,49.22317207,10.69770182,29.71668116,4.056494992,9.527800369,-430.8019524,-189.4805536,-8.548037709,-2.344488715,2.440676366,10.68263327,-36.87568582,-31.30615671,-67.64467173,452.4453475
249.9359998,976,-104.5455139,-37.42418727,10.71824849,54.33953704,-7.179139249,-69.60910395,209.0929287,77.54692828,30.7210687,24.41162278,26.65973848,10.70270672,-14.36150695,-11.17334183,-82.36673178,-778.8105156
249.9439998,976,42.91345313,6.523461067,10.73844571,-6.662450512,-37.60665188,-40.87849788,-274.1153616,-115.1998339,-64.41346729,-76.12132471,-24.48350189,10.72243291,-100.0155854,-120.3928557,94.29043115,836.3758543
249.9519998,976,-151.3785992,11.90426402,10.7582943,61.05389333,12.01676087,-7.165434681,-137.6471663,-75.44175076,46.71311154,53.48474454,34.81781478,10.7418127,6.17344945,8.246304289,-163.0626078,-520.0637719
249.9599998,976,14.08878518,-77.65244658,10.77779512,-15.02297363,-62.85187747,-119.075708,98.38193779,24.40103917,-62.03449593,-74.31833554,-29.64771791,10.76084691,-125.8947711,-125.4782996,69.0609687,79.98226126
249.9679998,976,-56.68156812,40.27282923,10.79694899,29.2132746,1.070974473,5.709659599,-433.2057951,-192.649585,-16.74258656,-14.4251375,-20.30224538,10.7795364,-75.06667461,-76.0435044,-90.40645799,456.4716331
249.9759998,976,-98.03269631,-32.31508282,10.81575677,68.8464557,1.855522704,-53.98866272,218.0640604,85.90000191,35.21261902,39.41819476,26.17816778,10.79788202,-28.88578841,-29.77239408,-93.49025164,-768.9264637
249.9839998,976,36.86202666,10.80790153,10.83421931,6.805035499,-31.00191623,-32.77622519,-264.9554324,-109.9211773,-53.00846661,-54.60785598,-15.89046092,10.81588462,-100.7936356,-92.62843316,98.30662296,836.9289352
249.9919998,976,-152.0197006,24.34600806,10.85233746,80.85049583,40.44041416,6.372832297,-118.8877678,-61.15039084,63.82174684,67.09408657,44.29755966,10.83354507,34.08127169,25.94161112,-157.2155105,-529.9236856
249.9999998,976,17.0572139,-65.10348239,10.87011211,-4.939955438,-68.64820859,-103.8293601,109.5029942,35.50752711,-39.87336724,-55.91355639,-15.56634706,10.85086424,-127.4568132,-119.6829754,80.43414289,57.37618376
250.0079998,976,-59.72399295,27.49139467,10.88754411,13.10395976,-30.42679013,-8.801921481,-442.6306283,-202.4213337,-2.962717084,-12.54729203,-21.22509186,10.86784298,-97.79640294,-72.25214178,-82.29160253,432.138108
250.0159998,976,-93.79572941,-64.97091249,10.90463433,43.16508342,-15.61405985,-85.01106284,201.6129576,69.19368557,21.25533786,2.479945361,-4.600619155,10.8844822,-37.13154061,-61.22037318,-103.412129,-782.1743891
250.0239998,976,43.88561389,-18.66825631,10.92138367,-17.55686093,-68.15476407,-50.68599162,-287.6985934,-127.2908602,-80.11635685,-98.62913112,-51.95495188,10.90078276,-142.4726449,-132.4832479,77.39798416,832.6584388
250.0319998,976,-152.1268116,7.620882396,10.937793,71.7489003,38.47664175,-1.104774342,-131.2896264,-70.92272033,59.13685004,44.3375579,26.90185374,10.91674556,7.799441109,9.866252637,-173.604462,-528.6222209
250.0399998,976,18.25052942,-56.99752071,10.95386322,24.45371825,-22.89131913,-89.09560771,124.5786232,48.8811355,-30.02122402,-56.81099341,-12.33620938,10.93237149,-105.9107334,-110.8255918,81.65263375,63.32604864
250.0479998,976,-62.44134972,44.68745068,10.96959522,42.65941065,-23.499098,15.64987356,-431.9524824,-194.3458509,17.54249898,4.296720029,0.272819084,10.94766144,-72.54036936,-44.28851864,-65.38137567,439.0987902
250.0559998,976,-102.3960609,-59.43685897,10.9849899,52.04324771,-12.7019161,-77.93534582,201.5302842,62.20898447,42.45870381,23.48519345,9.82611106,10.96261633,-25.92119757,-49.54047217,-97.81088717,-785.0384645
250.0639998,976,36.31994689,-17.38818151,11.00004817,-6.474431012,-42.64421165,-52.16613624,-287.5866377,-132.5188948,-72.49947375,-77.68957166,-50.90608625,10.97723706,-149.913047,-128.8421027,78.25064762,827.0008868
250.0719998,976,-169.6788351,-1.645788173,11.01477094,59.42597449,5.04663827,-16.09991758,-155.409668,-93.35213578,50.34413679,47.28629384,3.397188768,10.99152454,-15.30558483,10.45538083,-185.5194986,-538.2445184
250.0799998,976,5.256282281,-71.83028333,11.02915913,-2.074671463,-71.95371667,-106.1984464,98.69705266,28.37838281,-49.07658464,-73.30418579,-53.30262428,11.00547969,-110.0614878,-137.6671209,43.2324141,40.33828788
250.0879998,976,-50.06554774,38.15412792,11.04321366,39.99353312,-9.941306204,14.60173758,-429.5384094,-189.0727452,8.753654094,-4.71552282,-10.83265652,11.01910344,-47.97379033,-65.07033957,-80.29181701,427.3565515
250.0959998,976,-182.249271,-92.25799095,11.05693545,88.4779666,18.94195253,-95.68825885,491.1572989,175.8986131,85.9550857,61.08978415,28.7419682,11.03239672,35.5780052,-0.079191209,-206.5361466,-1753.048437
250.1039998,976,13.99985135,-80.6060131,11.07032543,1.207330036,-64.92851201,-106.323825,94.88770918,22.00295278,-68.40236265,-93.66045816,-63.98606519,11.04536045,-140.9221679,-138.5256749,40.7669058,80.83538121
250.1119998,977,-40.90138257,37.8071937,11.08338454,36.79784061,-9.759953277,21.49935697,-483.1065986,-209.986887,-14.4058341,-24.65518356,-24.87803119,11.05799557,-86.80014911,-63.25362713,-56.17906515,648.1707972
250.1199998,977,-86.28819635,-31.79517935,11.09611372,68.45073463,11.03545689,-43.87496392,107.9055753,37.25978412,30.44617429,12.77647548,4.480100348,11.07030303,-35.12285114,-39.21760569,-69.66210564,-510.7467271
250.1279998,977,-38.56868461,-32.04228837,11.10851392,29.64847051,-31.74017086,-51.66528001,-71.97005446,-42.09505963,-11.71336892,-30.44121997,-25.12135778,11.08228378,-88.62817091,-84.54590187,-6.433006519,83.67548144
250.1359998,977,-51.22284828,-12.60603152,11.12058608,23.38626444,-42.22138791,-28.46478185,-265.2479676,-122.2023165,-25.38026471,-41.0098669,-40.94693735,11.09393876,-94.53220384,-97.28147945,-37.97492204,330.4447987
250.1439998,977,-102.7944779,-33.19520134,11.13233116,57.05461441,-13.11042935,-37.21609978,18.48196362,-1.799654583,25.18507879,0.060426605,-2.771981352,11.10526893,-19.20618698,-34.32057493,-101.6162088,-443.7907033
250.1519998,977,0.192084897,-43.24562555,11.14375012,8.470781191,-38.59199265,-62.63168712,-95.05506436,-50.87376283,-21.16999225,-52.36013379,-18.67336608,11.11627525,-52.70952239,-92.67361122,31.88474182,257.0401651
250.1599998,977,-57.70333799,-2.730432946,11.15484392,31.31026123,-18.9690895,-21.85703462,-256.5358347,-121.168753,-6.44887834,-19.73102475,-33.13247359,11.12695869,-40.25192854,-68.63621983,-73.16687801,156.0557263
250.1679998,977,-70.87061954,-47.1013129,11.16561353,49.03863294,-14.7769529,-50.84503739,114.2188403,38.89215733,12.02026833,-0.478720466,-26.21605298,11.13732022,-46.05596883,-39.1851605,-87.05600019,-487.5291912
250.1759998,977,30.12467645,-24.6756621,11.17605992,-0.338649646,-36.3199149,-35.06681791,-243.4918491,-108.175416,-53.17421988,-71.00407305,-53.67455228,11.1473608,-104.3889772,-120.9470749,50.2362662,659.9144307
250.1839998,977,-115.7980958,-18.6551954,11.18618407,61.78835215,-0.137611715,-14.90320196,-92.6323025,-53.30438517,17.97312126,10.66978799,-8.937707829,11.15708143,-27.62993619,-24.63843031,-132.2249342,-436.8200644
250.1919998,977,12.41500346,-85.58731047,11.19598696,32.85890564,-29.96743862,-97.15461041,305.3440624,126.3412048,-32.96196989,-46.37685452,-24.63625954,11.16648308,-102.5074461,-85.31593665,54.0644274,-329.228502
250.1999998,977,1.356882771,-3.737685078,11.20546957,41.43666532,-4.324062058,-23.16924351,-137.8779289,-64.05297161,-5.15374842,-13.17189406,-15.91191746,11.17556673,-36.22044579,-67.26136333,8.876966063,251.4816118
250.2079998,977,-38.50515701,-5.630880177,11.2146329,57.56793049,-16.89056343,-24.05427907,-110.9423029,-57.66128148,-0.648453999,-4.738735386,-24.87250294,11.18433339,3.408004825,-29.54297597,-69.26661677,-91.04351489
250.2159998,977,24.51929564,-7.359305985,11.22347793,38.99106389,-19.10843387,-34.1540959,-128.1230941,-58.270551,-21.00548922,-28.68614095,-38.87545375,11.19278404,-30.29134601,-57.66522853,-3.216420079,262.4883126
250.2239998,977,-38.57436553,-18.71371218,11.23200568,59.64659254,7.752104839,-32.05350958,14.08965647,-9.021357426,24.5476244,17.87907738,-8.520402183,11.20091968,-17.35364464,-37.67001852,-69.4288669,-319.1375169
250.2319998,977,37.44167531,-23.79018615,11.24021713,14.41084935,-27.11468778,-39.51109899,-187.0662216,-91.59932535,-47.21277258,-73.74385147,-52.50297781,11.20874132,-101.9301186,-115.1066595,29.68255535,469.277562
250.2399998,977,-62.36773319,-16.3353487,11.24811331,45.86082263,-6.427770868,-25.82145834,-113.1907323,-67.98219235,23.74174031,-3.249185214,-16.27546972,11.21624997,12.11517501,-29.46231702,-107.1941698,-235.1956653
250.2479998,977,35.62108866,-36.24104663,11.25569521,29.86609115,-34.04963113,-61.70970688,38.64799925,6.475407513,-48.08466374,-48.88708843,-45.0971486,11.22344664,-61.68312212,-85.3891177,17.29215771,32.10130139
250.2559998,977,23.99025116,37.52981122,11.26296385,54.44203192,4.683456677,14.330184,-320.889932,-139.2514452,-21.84959137,-14.84569488,-33.85754164,11.23033234,-46.74491802,-59.51420036,-36.36257872,455.1239649
250.2639998,977,-124.7424365,-59.63934959,11.26992025,105.5989263,28.04596561,-56.84404024,443.489301,168.554432,98.62661453,86.34306605,32.94301639,11.23690809,104.2578909,50.59492712,-175.965163,-1548.876263
250.2719998,977,49.73842933,-53.07897545,11.27656543,27.14396711,-17.82302038,-73.01773168,167.1143878,68.962831,-40.202887,-60.69577654,-43.61918619,11.24317492,-49.65737962,-91.93928026,78.74405313,16.21726246
250.2799998,977,17.56094079,51.34004891,11.28290043,28.06937845,4.570880441,20.50391076,-475.4376036,-206.407837,-20.98567512,-36.32404178,-40.84103998,11.24913385,-43.04941115,-63.39998587,-11.8014137,803.5351964
250.2879998,977,-42.22043365,-16.72823899,11.28892627,57.33109122,10.30363858,-37.15771681,81.05332275,21.95546853,39.31895056,25.86759787,-5.022181095,11.25478592,20.36214467,-11.09438881,-92.03191109,-506.4267569
250.2959998,977,40.09172552,-19.42781097,11.29464398,11.55917819,-11.50678509,-46.02669538,-32.59056224,-20.29091037,-12.70244862,-14.24318887,-31.61264133,11.26013216,-58.01364971,-78.96500213,20.6017799,150.717438
250.3039998,977,20.18942904,5.642032918,11.30005461,-7.702155026,-30.9742421,-26.24363683,-285.1824728,-139.5723411,-23.86420393,-16.08325774,-46.34442032,11.2651736,-67.0353896,-82.77653411,-16.23517765,456.1494211
250.3119998,977,-39.97809407,-23.55242522,11.30515919,30.37516154,-2.287209936,-40.27697286,34.213646,-5.500233374,4.766970692,26.23013364,-29.37354706,11.2699113,-35.40514842,-48.41523111,-93.04870396,-395.2850572
250.3199998,977,61.4387272,-31.4225316,11.30995877,-19.01787337,-29.05136921,-56.71464892,-90.41621455,-53.93614512,-50.57817277,-22.71727014,-55.02535229,11.2743463,-102.9330015,-92.94630421,42.16486319,370.6892791
250.3279998,977,-6.950266813,10.53100999,11.31445441,-4.149485224,-18.73858268,-14.91406255,-261.2486573,-131.5368634,-14.38705864,10.33049179,-53.65946379,11.27847965,-47.65232264,-39.6114264,-73.14060939,220.738085
250.3359998,977,-17.42937222,-36.84145923,11.31864715,7.091576674,-11.9952505,-53.83114317,115.8913681,36.15474498,5.343152859,31.59954085,-40.67002575,11.28231239,-32.59973192,-54.2116929,-68.57075458,-409.9903767
250.3439998,977,79.90151314,-2.954147893,11.32253805,-52.06639455,-34.63002492,-32.31732592,-252.073747,-112.3941856,-43.38130186,-20.65968748,-60.47947906,11.28584559,-90.16844242,-123.1085965,56.62662974,732.6758531
250.3519998,977,-70.54111133,8.466969061,11.32612817,2.726513056,11.32953959,-9.735660455,-83.85290571,-50.44724492,49.42927979,69.5984384,-14.39580869,11.28908032,9.701814776,-14.43141848,-143.0772373,-399.4306411
250.3599998,977,68.21927393,-43.6511737,11.32941857,-36.80655255,-37.72958624,-73.02841708,63.79579767,22.24266462,-28.45853034,11.16456484,-46.06299291,11.29201762,-80.80392597,-92.76818986,51.97689521,162.1470873
250.3679998,978,20.34013661,43.36744648,11.33241033,-10.72318267,9.738893881,13.44134675,-346.9486935,-154.1768218,12.79792713,82.07666365,-28.10919373,11.29465857,-57.62801003,-28.62738516,-54.84622811,420.5992279
250.3759998,978,-16.27861377,-30.47246796,11.3351045,3.765905996,12.42839798,-54.8763196,190.0208194,66.39773833,42.87500771,109.1664145,-7.291260468,11.29700425,-35.39392695,-1.674192798,-72.35043584,-612.5214339
250.3839998,978,106.7663253,-4.545415527,11.33750218,-56.05058934,-38.43271125,-38.18779105,-242.1083181,-109.6623861,-47.47414218,31.86800831,-51.4454458,11.29905572,-117.4408262,-94.58569957,85.41323625,827.1520931
250.3919998,978,-60.63324714,26.269974,11.33960443,16.46513118,36.87887946,7.226410912,-106.8191849,-58.3059324,55.01913449,140.631065,-1.474245132,11.30081406,-21.64874135,15.30713243,-155.6027226,-421.0299284
250.3999998,978,99.28580723,-27.56279827,11.34141233,-33.39457628,-7.893749133,-63.89936183,128.4286361,54.6916641,-22.55223005,42.57702244,-33.68508853,11.30228035,-93.47886098,-93.94175439,76.86069512,130.021626
250.4079998,978,27.2697078,45.28740942,11.34292697,-26.03714986,5.366548003,13.33055885,-390.3275037,-180.6825474,34.38356347,106.5717136,-6.210125396,11.30345568,-33.5685887,-18.18764635,-51.19937606,483.3997109
250.4159998,978,-19.42300993,-57.83640285,11.34414944,-33.22425018,-15.71860491,-83.88932636,195.4391495,52.66625073,41.28273055,94.3627015,-12.38116418,11.30434113,-48.90658447,-20.72318482,-87.79272771,-684.654462
250.4239998,978,114.1762908,-8.380789749,11.34508082,-83.36986703,-48.653355,-48.03707147,-263.7879866,-126.9537464,-65.23799104,-12.79154376,-78.81828789,11.30493779,-157.166701,-157.8623224,76.27119565,870.9898873
250.4319998,978,-67.24593095,24.63739932,11.34572221,15.38946068,36.15644586,4.895322064,-119.9703422,-71.88563035,78.11252183,139.8930447,2.642242611,11.30524676,-4.909375803,22.09264173,-170.1040772,-450.4909706
250.4399998,978,99.92796242,-44.06866963,11.34607471,-46.21998226,-23.57075286,-79.90375281,142.9004352,55.63405267,-16.69821874,33.73218425,-37.06896162,11.30526913,-81.91365832,-67.78294095,86.55449661,125.3081842
250.4479998,978,22.84251999,36.2561448,11.34613942,-36.80461904,-9.087173378,10.02263976,-401.1965258,-184.4659511,10.21283064,82.57783298,-31.69608395,11.30500601,-71.88358381,-27.011858,-48.30517221,526.9885333
250.4559998,978,-21.19141783,-50.29118292,11.34591743,-13.18950861,-7.299380005,-76.67969236,221.8980237,73.0823565,30.96856419,103.1926481,-27.28603909,11.30445849,-75.23943261,15.8436246,-92.08526991,-694.2342903
250.4639998,978,122.6441032,12.50914058,11.34540986,-73.20273775,-28.53645919,-43.69003327,-233.7125688,-99.52954882,-55.43323263,12.13229759,-71.61210647,11.30362767,-139.2075171,-103.7242618,85.88968138,902.7473806
250.4719998,978,-69.06822913,15.38522969,11.34461781,-11.21290739,24.57513069,-0.049621979,-97.49709621,-60.94084318,90.25442422,151.9103711,19.01149007,11.30251468,1.267625587,21.44841054,-155.086983,-433.4379994
250.4799998,978,99.80581249,-59.76966505,11.3435424,-80.87054287,-42.41474685,-85.00581613,156.2449727,55.72779786,-26.14408577,25.42549314,-49.7191728,11.30112061,-121.4691574,-108.3707143,82.72900974,142.9149226
250.4879998,978,34.85617002,57.00847142,11.34218474,-73.60092017,17.69699534,26.64924743,-385.0185729,-168.6302383,11.70182244,85.98352136,-46.77662629,11.29944659,-77.92265797,-72.04278409,-60.33795546,549.315075
250.4959998,978,-37.55252808,-96.95189737,11.34054595,-55.74786583,8.097027481,-99.69873781,634.797545,253.7544487,80.58753821,173.9352984,3.738871558,11.29749373,-22.18131433,39.30190523,-92.4800516,-1449.643742
250.5039998,978,168.7888582,-55.75807136,11.33862714,-165.4706267,-61.00231324,-88.0279811,114.1851129,55.01448626,-60.29517427,34.03229181,-76.68602242,11.29526314,-145.7025167,-118.1701765,179.4760241,647.8812951
250.5119998,978,-40.24353713,101.1320781,11.33642945,-96.9375472,41.52670251,94.35161417,-550.8746629,-226.9181591,68.67567352,180.4371027,-12.64519731,11.29275596,-18.15413684,-47.91163737,-138.7664538,476.0356278
250.5199998,978,1.287897021,-51.13265331,11.33395399,-96.93425508,-0.750604371,-48.26488885,357.9451754,161.2261046,50.57126181,214.694621,-0.289909453,11.2899733,-50.16522832,-49.71262149,-18.11317865,-694.1732795
250.5279998,978,123.0750995,20.19074855,11.3312019,-185.2543227,-19.95417629,-11.55061262,-157.8840879,-39.36891458,-17.52146915,172.6805059,-48.70616086,11.28691629,-96.65479676,-85.24352797,106.3827772,785.7727403
250.5359998,978,-30.3208157,57.95140478,11.3281743,-129.1761492,42.96992277,56.31211506,-194.8918759,-62.83320369,86.80407345,295.0138659,-1.573460481,11.28358607,11.81035969,25.02725573,-112.2134729,-77.18513159
250.5439998,978,61.08426754,-62.14376608,11.32487233,-200.9464904,-19.1335821,-67.06306804,276.8158344,129.6210925,17.44808233,262.6858558,-29.63612977,11.27998376,-74.20246905,-57.42554723,54.5588553,-226.2111364
250.5519998,978,65.28151124,30.43179933,11.32129713,-285.4350192,-18.95399163,-3.405310094,-319.2044478,-122.5247757,-6.778352414,271.245613,-58.64328591,11.27611051,-103.8061037,-60.17205359,19.42484212,768.3671666
250.5599998,978,-36.40560326,6.142089973,11.31744984,-191.2246512,8.779158797,-4.417573088,74.28090045,38.16657855,67.54767603,320.2301513,-8.971748905,11.27196744,-21.30229708,46.93851334,-101.968585,-460.9009989
250.5679998,978,112.9859889,-27.94944358,11.31333159,-259.7292709,-46.25899536,-37.23577156,73.87653413,46.23675652,-5.328066954,153.9497452,-39.24737632,11.2675557,-103.1779659,-69.18081184,96.93685949,359.5347333
250.5759998,978,20.10781065,43.67562414,11.30894353,-275.3453762,-5.960748543,38.80508149,-294.4620444,-112.0925662,50.49380547,173.2813665,-22.73843915,11.26287643,-49.49207379,-30.93321458,-70.51016125,355.9719395
250.5839998,978,22.52720928,-42.74242075,11.30428681,-239.5973854,-9.398578137,-36.89941716,277.0130983,136.708896,53.49469825,120.5938944,-11.02758937,11.25793077,-36.7090608,-12.83427431,-25.41970111,-496.9029968
250.5919998,978,117.3317515,21.15953194,11.29936257,-304.8460699,-33.64380344,16.85891029,-208.9309203,-54.69738895,-6.185415634,-19.38634555,-45.05131609,11.25271988,-97.3361711,-42.05498561,90.18981953,860.6554596
250.5999998,978,-37.03041192,16.38518981,11.29417196,-265.2709175,7.959665495,17.57344362,2.515325614,14.54457054,83.6831953,40.93549206,9.476002884,11.2472449,-3.543488457,67.37122993,-122.4053082,-399.7241714
250.6079998,978,121.6315143,-37.95239512,11.28871615,-317.5019566,-53.50480498,-67.96391591,178.3686443,100.2465724,-14.63039561,-110.7216465,-37.77134732,11.24150699,-113.97394,-25.40285784,94.18407067,220.6493206
250.6159998,978,56.31096476,64.0658707,11.28299628,-279.0708375,-7.169716531,47.37427337,-300.0377996,-99.76338695,49.23272256,-84.56921363,-12.88519736,11.23550729,-43.36520963,64.421395,-46.22589778,512.2748323
250.6239998,979,35.96002155,-38.83903874,11.27701351,-265.2909165,-10.52865577,-19.64671215,305.1090392,145.0940479,70.91020506,-88.81459437,15.05377761,11.22924696,-6.941563666,31.70012729,-48.73951314,-595.9373868
250.6319998,979,145.3402872,21.16733438,11.27076901,-342.6549251,-54.85184742,7.461612268,-171.8136756,-39.23054392,-13.1978183,-189.8277862,-34.16445787,11.22272717,-102.7338746,-63.68744824,104.0927501,922.8589604
250.6399998,979,-31.84167661,46.57765813,11.26426393,-236.3917115,14.11725015,38.28029007,-7.070794993,19.33545987,121.3302017,-49.20708925,42.39877672,11.21594907,25.40633296,90.92697623,-134.3719052,-398.4280376
250.6479998,979,146.9740496,-38.88355236,11.25749944,-282.3132335,-55.476051,-50.56043609,223.4912979,120.3341065,1.342291265,-162.2893524,-1.045019273,11.20891382,-104.2100196,-39.23122502,113.8128671,200.7503805
250.6559998,979,54.20366401,60.04698187,11.2504767,-274.3102445,-26.1397352,56.19701809,-315.2186721,-103.0463929,36.15343119,-135.6208932,8.424985041,11.20162259,-57.19663656,58.27670235,-34.01715572,596.5772735
250.6639998,979,6.410294179,-32.50976908,11.24319688,-250.7839911,-15.05984541,-23.7813297,318.1719169,163.5633855,83.93107912,-119.4751481,38.67550583,11.19407655,0.848043031,73.85756883,-61.25572561,-625.8967854
250.6719998,979,133.3292501,8.089105262,11.23566116,-341.6761978,-69.8947573,-12.25203347,-155.1901896,-28.94629847,-21.43287519,-200.7232187,-10.43399415,11.18627686,-116.5047003,-62.36807759,111.2671161,947.9470084
250.6799998,979,-69.37422928,15.99142933,11.2278707,-300.677295,-23.42044405,13.22778154,-25.99245933,2.350317391,87.2659419,-77.95295751,48.7571107,11.17822469,-4.981727748,127.9360693,-158.7162233,-389.4986262
250.6879998,979,100.0830713,-54.18584035,11.21982669,-316.4969573,-56.48848936,-52.67504297,241.4110076,134.1355044,-3.056891893,-179.9597291,3.715253015,11.16992122,-94.71190924,-4.724464542,81.30288795,177.6724451
250.6959998,979,13.7582706,70.80697887,11.21153028,-211.9970827,11.81015129,90.21661573,-282.3393282,-68.05652838,60.17648316,-81.45772342,39.86966896,11.16136762,-25.91590533,19.24142108,-35.35404146,586.7944179
250.7039998,979,-43.61272449,-27.80900656,11.20298267,-233.3725782,-1.200649844,-8.377614478,343.0007929,183.9164317,93.39878634,-71.18028334,63.2671286,11.15256506,9.999019232,86.96189383,-59.74484735,-669.3653359
250.7119998,979,87.03620684,14.12093189,11.19418504,-306.9232583,-45.57129524,18.97432643,-125.7414829,-0.957342284,-8.270015614,-186.2109641,-0.597253618,11.14351473,-104.0431712,-45.8013962,108.5070014,925.383177
250.7199998,979,-109.1238919,25.86444337,11.18513856,-193.558059,21.52438983,56.1915908,12.60705576,40.08820687,109.5675606,-41.67763175,69.47434593,11.1342178,15.99459944,82.7166418,-140.825059,-396.1874288
250.7279998,979,56.11624937,-63.67836601,11.17584442,-319.4192863,-53.49155504,-73.60928312,255.1478528,137.8382898,-11.97172564,-167.847619,0.293001528,11.12467545,-101.1764437,-19.38930862,90.70668257,173.5614673
250.7359998,979,-25.50089016,70.33062215,11.1663038,-247.1452753,6.04280037,67.76552867,-277.6685392,-70.4817425,53.57852294,-97.7248993,24.02645774,11.11488887,-40.01899026,42.94675158,-49.66925553,588.2848138
250.7439998,979,-69.10301755,-17.20840364,11.15651789,-188.8622575,12.16174103,8.830965826,365.1908382,197.4833153,105.3354509,-73.57416256,75.75887071,11.10485924,35.93702866,100.462072,-54.15892116,-654.8109772
250.7519998,979,67.66328152,14.21351868,11.14648788,-287.6277863,-43.75869357,22.80396894,-116.6696597,0.88794335,-9.220728718,-157.0718763,5.912558468,11.09458775,-74.30001561,-25.52693011,114.6486757,947.8418358
250.7599998,979,-124.6086467,37.5969571,11.13621495,-202.6233114,26.19284647,47.92006947,20.77242386,40.90957684,113.3838619,-5.484486658,71.31850063,11.08407558,24.52671733,125.6126165,-143.9334506,-388.5526715
250.7679998,979,48.71145842,-67.1072542,11.12570031,-303.7750424,-57.36006026,-68.24068535,259.9491686,131.2826518,-9.072021712,-170.3047624,10.48738667,11.07332392,-96.63849554,15.6933221,102.2682957,184.3682344
250.7759998,979,-30.2088137,33.31585075,11.11494514,-264.920035,-17.82372698,51.95694411,-297.6443319,-99.65490963,26.06325139,-102.1653477,-2.132382327,11.06233396,-71.58914087,19.98503023,-55.73422265,615.3838008
250.7839998,979,-77.77620402,-36.00867155,11.10395063,-207.4562492,6.57818694,-25.55163832,356.484523,178.8414871,68.53836792,-65.64522361,38.24185523,11.0511069,-13.52845733,48.95304459,-72.18779673,-623.4721758
250.7919998,979,57.90147027,0.24182441,11.09271799,-263.9318905,-42.16684485,16.00833857,-115.2673255,-8.42479626,-23.90608977,-177.6178124,0.527237764,11.03964393,-101.5657864,-33.10897394,113.3426093,973.1168278
250.7999998,979,-137.9368387,15.23601413,11.0812484,-189.8824804,18.12451673,54.21095855,12.02951829,26.76961281,114.2788899,-20.73197853,59.69993626,11.02794624,13.76010064,82.32327904,-147.3839831,-359.2279312
250.8079998,979,29.71107851,-48.49741081,11.06954308,-279.3305688,-53.29490661,-65.94479307,268.1032897,141.2692407,1.699289038,-134.9263865,0.517931594,11.01601503,-73.63326684,-25.98785872,97.41268993,210.9896153
250.8159998,979,-46.4668201,64.04457749,11.05760322,-239.976779,-7.154339264,68.50714488,-275.6104651,-78.2248231,52.28693888,-55.81773714,23.37021929,11.00385149,-28.46692254,72.14483706,-46.43317309,615.8985672
250.8239998,979,-91.23133238,-41.20763365,11.04543001,-225.0002995,5.066741704,-14.97456097,361.5622684,173.3245367,96.54392766,-50.59503098,60.3743264,10.99145683,5.544666373,74.47685568,-57.4212653,-642.3729499
250.8319998,979,40.91669821,-6.307985645,11.03302467,-292.6031541,-51.92156278,0.36497117,-124.1252824,-27.70841095,-28.32838023,-171.2146417,-18.23787539,10.97883224,-88.28925648,-18.42940778,114.4186631,959.393622
250.8399998,979,-159.2902859,19.24683244,11.02038839,-154.9685666,16.9175235,74.71008569,14.55275566,28.83618031,90.06127508,1.779083546,33.26391566,10.96597893,19.01472779,110.8155923,-159.58506,-373.0167328
250.8479998,979,11.86167884,-63.6368101,11.00752239,-234.1982411,-33.57291557,-37.31843317,282.9190608,144.6395251,5.444953777,-140.8172276,2.499039378,10.95289809,-83.58480299,-69.68401691,103.3737585,182.4023973
250.8559998,979,-60.05478917,33.72020569,10.99442787,-265.1351309,5.964989855,30.37858701,-272.8251762,-105.9110689,42.24854974,-85.10129865,7.50254584,10.93959093,-23.37913195,24.12878775,-27.38379103,602.3890349
250.8639998,979,-110.905087,-49.4873621,10.98110603,-200.4344964,2.604899688,-31.09014969,363.569294,158.8884744,74.01756261,-23.44733019,19.3315172,10.92605866,2.481756036,80.17954032,-60.97242267,-640.0394329
250.8719998,979,25.97548936,11.16817612,10.96755808,-222.0247359,-30.11702989,27.48682261,-100.4835523,-11.50026439,-9.053918628,-125.8898205,-22.05281752,10.91230248,-105.9985933,1.342435158,117.1851941,945.468025
250.8799998,980,-157.7094695,25.19275574,10.95378524,-163.2062016,38.32117829,60.84692221,34.03198782,27.89933572,107.7353172,21.01661661,46.48878069,10.8983236,26.12445834,145.4435173,-130.850187,-390.4661197
250.8879998,980,17.59143786,-63.53197694,10.93978871,-236.3273918,-43.05919534,-47.13425282,285.2768257,134.5000973,2.577367941,-95.52907731,-8.261097136,10.88412322,-57.37762361,-35.22124382,117.1019295,179.9229689
250.8959998,980,-56.02813297,36.40646317,10.92556971,-194.1038853,0.858583969,56.13528793,-268.0556103,-100.5054255,48.9574163,-48.23726009,-3.192593125,10.86970255,-21.59640374,23.44835022,-35.78044791,594.7944954
250.9039998,980,-102.2450095,-52.01588664,10.91112945,-163.3095289,6.855434297,-20.21958286,368.1789825,165.0837257,81.2816946,-22.2550728,17.27806082,10.8550628,0.830305833,85.71073298,-65.44475099,-647.8877538
250.9119998,980,40.8309106,8.122879632,10.89646914,-240.7396959,-40.67865985,19.35670673,-105.5325838,-15.24655084,-12.81793642,-101.3515365,-22.38548692,10.84020519,-78.50904759,-9.430079031,120.4448663,957.3488414
250.9199998,980,-146.0241406,2.755314228,10.88159,-153.3017235,11.63560616,42.68948658,15.04917333,8.444777334,97.82546985,36.111206,37.86368503,10.82513091,28.07975567,102.7585119,-145.709906,-376.7105955
250.9279998,980,25.02834615,-84.60604754,10.86649324,-196.233504,-52.51452174,-46.5687216,270.5814176,124.8573646,-14.61297939,-133.2190125,-27.36016082,10.8098412,-83.69764635,-61.90658139,90.93492664,201.9381284
250.9359998,980,-50.44731264,44.03939636,10.85118008,-189.464841,12.68921519,66.12983181,-267.2379141,-94.46812083,36.71240479,-63.45240836,2.505549063,10.79433725,-15.42791285,5.390787975,-32.9014475,628.0833961
250.9439998,980,-112.8406634,-57.62598976,10.83565173,-160.2996611,-7.610366857,-26.47655404,356.1632316,152.4895693,65.73784361,3.762406912,25.48092974,10.77862028,3.018281467,64.91016904,-57.5618119,-621.9756462
250.9519998,980,18.75215451,-3.832624788,10.81990941,-201.4126569,-50.98535814,29.40080305,-107.3054081,-16.88100565,-25.07013271,-113.4722437,-36.10017739,10.7626915,-93.78185041,-44.13220866,105.8696051,972.8724574
250.9599998,980,-161.8617839,20.16864677,10.80395435,-155.3338393,37.70997301,43.34535067,36.09044092,21.6900288,107.9760508,21.79496838,43.47608802,10.74655214,44.83518089,104.0403446,-142.5930318,-368.5530925
250.9679998,980,8.215246645,-72.59190713,10.78778775,-217.7741433,-57.24644388,-67.06218382,264.029654,106.0785971,-15.78836427,-92.24526761,-19.83557529,10.7302034,-81.3525448,-6.865111722,103.8882575,207.3222246
250.9759998,980,-66.2029411,55.54098938,10.77141085,-130.3216688,-4.277922478,78.47039035,-279.7248739,-105.9663947,39.42031085,-40.33279167,-8.796794408,10.7136465,-23.34286471,51.18701052,-50.41059801,621.045894
250.9839998,980,-111.1438091,-34.70005148,10.75482485,-94.72199971,19.23375578,-19.63530924,365.8589321,160.7864243,92.35559074,-14.26744707,40.46076907,10.69688266,30.06995568,83.16213433,-61.18505355,-631.7464511
250.9919998,980,19.12186446,-8.427438504,10.73803099,-204.1182838,-45.40675731,-1.274884663,-125.5577186,-45.52233312,-24.502409,-138.1785743,-20.49570563,10.6799131,-94.52137598,-50.08277496,126.7859189,979.6390156
250.9999998,980,-175.1732527,17.30198814,10.72103048,-114.2267233,21.98649094,48.66758418,0.251119221,-6.47471207,90.4525279,-11.2607046,25.52875909,10.66273902,25.22485454,92.54107366,-148.784315,-361.6318762
251.0079998,980,0.176753288,-62.86035501,10.70382454,-143.970082,-39.82105641,-52.01260865,252.1483725,106.1833138,-6.891827163,-123.5534673,-17.56762342,10.64536166,-60.48701836,-27.07677061,100.807926,209.9094951
251.0159998,980,-79.88461551,35.63451311,10.6864144,-129.9990464,-13.36247106,53.87587677,-305.7314713,-134.6185946,34.59991578,-80.99530769,-6.5807686,10.62778223,-24.03082324,10.43539378,-37.8367465,635.6687479
251.0239998,980,-131.3687069,-58.03000904,10.66880128,-96.17173863,-17.10747556,-39.65997035,318.28711,113.0125925,54.9332234,-67.02342829,2.336681164,10.61000195,-8.296885319,74.24208401,-78.91552774,-620.5281373
251.0319998,980,19.95299751,-9.667573513,10.65098641,-145.324661,-46.02153643,-3.656041828,-155.351295,-69.99417091,-51.49935295,-173.1021127,-53.06987989,10.59202203,-100.5595933,-62.50430331,103.264989,986.627401
251.0399998,980,-166.3675247,18.3718333,10.632971,-53.8265521,30.54482925,53.40595693,-16.49385658,-20.04048593,86.71844928,-32.94807513,22.33469803,10.57384371,47.06136598,52.96031579,-144.1722514,-341.5085656
251.0479998,980,-5.360372793,-59.15655074,10.61475629,-105.5707272,-32.23697033,-53.95486349,233.3311222,88.56203867,-0.753790965,-143.2053025,-14.41573408,10.55546819,-49.49935881,8.837963322,102.6885388,214.1018406
251.0559998,980,-93.1717972,46.76969959,10.59634349,-78.10848058,6.283861358,62.92554942,-324.6621967,-146.0857778,32.53221274,-94.3666299,-9.954274325,10.5368967,-26.90441659,49.49277884,-48.10467868,616.4248445
251.0639998,980,-145.342683,-52.54848227,10.57773383,-46.37122246,-17.28294511,-31.64562668,294.0782092,97.24510975,51.8977371,-84.62554661,1.457320888,10.51813046,1.972619533,49.45863278,-82.17858381,-639.1239974
251.0719998,980,-2.243735505,-10.7400723,10.55892853,-113.8965636,-63.07365502,-22.34611952,-186.6671635,-99.84775587,-41.46466119,-213.6249726,-51.51540353,10.49917069,-81.85118585,-52.31175429,95.88350603,966.0277902
251.0799998,980,-190.7771621,3.265039122,10.53992883,-21.97140157,16.04969908,43.83386437,-42.50254223,-45.76993278,86.86548527,-69.68961283,14.80474932,10.48001861,24.64497912,70.055481,-156.7315585,-363.7928405
251.0879998,980,-12.36174973,-97.65110042,10.52073595,-102.3960155,-72.61722395,-88.06109463,204.1910392,52.3244132,-39.18972114,-172.0391876,-48.63854482,10.46067545,-113.6515378,-29.56000867,84.96940967,203.5189306
251.0959998,980,-88.60027008,29.54321808,10.50135111,-78.77466556,-29.75299408,21.77118934,-348.8923137,-177.8179386,6.789124779,-129.4835099,-47.71902813,10.44114242,-51.25696269,7.571221592,-74.34121408,613.5885618
251.1039998,980,-128.9167221,-35.85578917,10.48177553,-2.660949326,1.408921666,-11.79536665,308.5726028,110.915641,77.73135956,-72.6474851,5.588235584,10.42142074,36.50265477,35.14555026,-79.80741901,-646.2821281
251.1119998,980,24.76537077,-12.6658338,10.46201046,-74.92671011,-41.38485026,-10.8811034,-168.763485,-89.49342813,-29.78879444,-180.3458594,-39.15777525,10.40151165,-66.61020042,-57.39764658,121.3508926,969.1543611
251.1199998,980,-181.5325819,-5.339175377,10.4420571,-13.57648262,10.87667301,20.58482116,-55.87546951,-65.9763551,66.61025031,-82.87469016,-6.435408133,10.38141635,26.14038668,53.68645688,-160.5571164,-359.3890664
251.1279998,980,-8.285140828,-79.19671249,10.42191669,-72.43995584,-62.23784204,-74.14929667,204.8232448,55.40620017,-37.74520617,-181.8645853,-56.11178485,10.36113607,-81.1272694,-58.74613689,80.03931117,189.418813
251.1359998,981,-64.16246367,35.49072296,10.40159045,-28.50744532,-4.617900237,44.22219061,-331.602427,-165.572376,22.82166963,-123.1360667,-20.82072996,10.34067204,-38.01010083,-1.674313367,-41.32867173,615.7160948
251.1439998,981,-121.6281112,-63.08197836,10.38107961,6.540847631,-11.40711636,-43.37144604,290.653049,79.8616208,62.87953292,-96.30128193,3.347161887,10.32002547,-2.953982618,50.03805098,-63.12754831,-632.3526177
251.1519998,981,14.02587278,-21.23332565,10.36038539,-68.48832129,-66.53172957,-37.04918912,-195.5516237,-118.8969993,-51.83981421,-197.8082831,-62.51653089,10.29919758,-103.4941517,-27.87885094,101.657637,958.9827038
251.1599998,981,-164.1393018,17.88477355,10.33950903,39.3985636,28.5998577,39.0615068,-49.64629247,-59.39073569,67.94845543,-77.25546929,6.915966519,10.2781896,29.76629926,71.60608387,-160.542598,-365.874044
251.1679998,981,5.149828817,-72.71837932,10.31845174,-27.19007736,-49.2370266,-71.53398449,203.0171572,47.1828194,-28.07864609,-186.4600462,-32.32286866,10.25700276,-44.21844947,-55.57458606,97.72574344,197.8656933
251.1759998,981,-73.18105378,31.03032657,10.29721475,-7.509923274,-15.04888737,24.24098043,-354.8205025,-190.8378045,19.41709709,-133.2007764,-23.78046579,10.23563826,4.476243167,25.17695594,-45.21545839,616.3392672
251.1839998,981,-112.8140421,-44.76636405,10.2757993,40.41203289,-0.995410957,-34.20561624,285.9687202,80.39552459,49.86311409,-98.98852528,-4.316156801,10.21409733,6.557824295,44.87604104,-76.16435274,-628.7738164
251.1919998,981,31.69321376,-9.640546236,10.25420659,-39.90278465,-58.26937684,-26.79259308,-194.1206518,-113.4251723,-44.21406539,-188.3407228,-55.88039793,10.19238119,-84.9949179,-69.17869032,99.93674706,963.7690924
251.1999998,981,-161.54125,12.95717824,10.23243786,53.72127899,9.631878461,19.56178001,-69.98187352,-72.33442285,84.61508664,-59.41818317,8.11262333,10.17049106,73.04611263,74.60467579,-166.3404931,-376.1174659
251.2079998,981,4.61640022,-59.53890004,10.21049434,10.93533993,-56.90704251,-65.28099781,191.0270954,51.00444586,-18.48590804,-158.6431037,-34.84546747,10.14842817,-56.10303155,-39.30748287,80.22115954,174.2202164
251.2159998,981,-58.34002924,39.91846143,10.18837725,28.91068466,-0.742931408,38.30103392,-350.4914692,-177.9033313,20.61925128,-101.3615696,-16.44157309,10.12619372,-11.74946672,15.82293173,-51.94306567,589.4844006
251.2239998,981,-93.48110878,-55.11100713,10.1660878,54.79006706,4.353850484,-52.01428033,272.4272923,70.34763838,32.66501918,-91.72094764,-7.072547171,10.10378895,27.4576053,39.5852783,-73.52572653,-638.3885287
251.2319998,981,37.21913471,-13.00713128,10.14362723,-23.94884015,-70.25893187,-42.16489485,-215.1022665,-130.2915523,-60.54604841,-176.3305126,-61.45286614,10.08121507,-107.6220588,-82.16037972,99.41695835,963.0623392
251.2399998,981,-270.6008934,18.52951115,10.12099676,107.2334988,45.89104866,32.42379388,2.995386374,-59.83253278,149.8294263,51.03687506,49.13156704,10.05847329,116.1937123,113.7687296,-327.0156503,-1198.515324
251.2479998,981,-72.32331394,-106.0658352,10.09819762,43.18889749,-42.20255848,-102.2873111,456.2377275,139.4949735,16.35886986,-100.8953101,-16.75316523,10.03556485,-1.191947826,-11.52362057,-33.63277054,-788.7292515
251.2559998,981,70.72319249,2.942485563,10.07523102,-37.80684756,-100.0824764,-14.71618283,-497.530969,-246.038894,-95.06717978,-216.8958648,-90.9604453,10.01249094,-113.6888238,-99.28397454,116.613711,1586.721983
251.2639998,981,-182.8893599,-14.44584267,10.05209818,89.61317062,19.96643995,4.345457017,21.13062508,-39.33856474,71.70780628,-34.88693609,-3.243432737,9.989252802,71.54189071,69.52945512,-224.3878921,-723.0494067
251.2719998,981,-0.222514663,-57.62229765,10.02880034,36.12877903,-29.27154857,-65.13574665,163.7572803,39.57358593,-32.47187735,-129.3803205,-44.02422225,9.965851639,-73.26359881,-42.55998885,52.126811,116.3962721
251.2799998,981,-18.7415982,32.13171592,10.0053387,32.43058387,-34.81670904,18.55692063,-354.8671084,-175.5262598,-13.98845937,-103.6785537,-35.10551584,9.94228867,-40.79449655,-23.25381628,15.32439521,826.2919312
251.2879998,981,-135.4990614,-31.95927265,9.981714497,82.49266891,5.429259103,-22.43414831,158.6785089,29.55486008,61.20302586,-30.91295048,0.617412975,9.918565112,46.25705785,34.92763223,-135.1734987,-689.6204031
251.2959998,981,44.66790699,-43.31273313,9.957928944,3.818413212,-54.81459143,-53.79118665,-62.45706102,-55.42862588,-57.47672999,-139.2362362,-58.82311216,9.894682178,-102.1297183,-80.06379651,98.02728779,680.7774692
251.3039998,981,-84.53939105,17.52317881,9.93398326,62.79747791,-19.97062801,15.72456659,-237.1246882,-138.9170591,32.65033446,-40.88316258,-13.66409983,9.870641084,22.27927478,7.664323585,-105.9094159,151.6702669
251.3119998,981,-60.17773306,-51.55089135,9.909878666,69.87303056,-25.30874052,-54.96880508,214.6180098,54.84497265,22.83922486,-68.22556917,-15.88756142,9.846443044,2.742460551,-21.23335869,-46.80364736,-377.6078393
251.3199998,981,11.18472831,-1.077249331,9.885616378,28.19262455,-41.52933433,-8.920337983,-250.3613814,-128.9259084,-39.52750167,-126.7247502,-41.91653466,9.822089269,-72.70398546,-52.23019015,64.01158589,876.5670602
251.3279998,981,-154.8657305,2.940467194,9.861197616,109.7767975,7.515189642,21.98160512,-9.325217086,-30.23142557,73.65596627,-4.298583312,24.48529071,9.797580973,62.23035259,51.16330862,-151.3790779,-493.4273018
251.3359998,981,24.02669256,-48.76875531,9.836623595,39.6100674,-52.0786143,-62.45235711,92.99299067,19.56364456,-33.38707019,-105.3162778,-30.15015936,9.772919366,-59.99865187,-80.93754076,80.58314058,290.4270796
251.3439998,981,-59.83438807,23.87943293,9.811895531,55.65199235,-21.80072306,13.56782769,-333.3162047,-170.8920373,8.609034779,-54.33090809,-22.54793698,9.748105659,-12.73133452,-19.38609634,-78.56098791,413.2938432
251.3519998,981,-77.50829447,-56.50365615,9.787014639,92.19569576,-29.05013639,-53.65229222,221.1620554,59.83326011,40.82763229,-47.38546308,-3.84313235,9.723141063,28.36901386,-16.46591717,-80.44537401,-584.6984737
251.3599998,981,52.12483686,-9.833664873,9.761982134,34.46784251,-61.6149115,-35.43292813,-239.3600799,-131.1163667,-41.2969835,-135.6321242,-47.16737141,9.698026787,-73.43130779,-102.1615633,82.57673454,886.2375352
251.3679998,981,-137.7613979,6.755870686,9.73679923,106.9961841,-5.327084863,9.399996961,-97.12562228,-79.69096446,63.19341283,-21.75816388,4.313865944,9.672764037,40.15619656,19.63543882,-169.4747398,-426.0652829
251.3759998,981,30.72019334,-70.71590902,9.711467139,56.91345117,-61.83477475,-76.14400278,129.0121742,28.6365147,-36.20688466,-120.7008007,-36.07571853,9.647354023,-42.2043579,-78.13859548,76.14474116,179.6920294
251.3839998,981,-25.60734649,24.30916869,9.685987072,81.33623171,-6.721202896,18.57481856,-374.0414917,-188.6218397,6.406929993,-66.12677078,-26.98624804,9.62179795,-22.78744933,-12.24317082,-61.17788386,530.720777
251.3919998,982,-67.76292823,-43.51683702,9.660360241,117.3098112,-7.11578735,-41.07010783,226.3440235,67.6911525,37.93438803,-32.55117287,-9.967148887,9.596097024,9.005765049,0.26947666,-89.47952334,-630.8555626
251.3999998,982,57.03057124,1.24720249,9.634587856,55.83625474,-51.34174718,-23.83240434,-229.8297047,-115.7613295,-32.63392312,-96.07664752,-29.82560253,9.570252449,-36.99865915,-79.09971369,97.1082195,903.5948503
251.4079998,982,-132.8705535,8.1794298,9.608671126,113.1408123,-6.923933092,-2.594559735,-104.1964525,-88.47078861,82.74567974,15.84039792,24.55911726,9.544265429,57.5203783,31.86545163,-166.3077015,-425.8355567
251.4159998,982,34.3381716,-62.21666485,9.582611258,57.28291634,-76.19350467,-90.06793701,135.2200739,22.06571768,-36.7914164,-108.5476884,-46.29086176,9.518137165,-70.10478255,-106.6514991,52.20784751,142.5196863
251.4239998,982,-27.20898125,50.04700184,9.55640946,102.3972601,2.883860204,31.75799928,-377.9903038,-188.0574504,29.72071908,-26.0917864,-7.509413136,9.49186886,22.76881005,-16.63726883,-66.20960499,534.9661585
251.4319998,982,-75.73670458,-59.62183539,9.530066937,110.0315904,-18.63802326,-64.52035572,240.3549632,56.59106621,56.31434701,-1.101270893,16.12120797,9.465461715,35.10880472,1.500748964,-71.25127016,-682.201232
251.4399998,982,62.65040509,-26.06951097,9.503584894,30.98632547,-76.6351818,-53.15622125,-248.064665,-146.1303565,-70.76212231,-127.2817895,-67.76927757,9.438916927,-97.25708421,-129.4525864,85.6923413,909.5142143
251.4479998,982,-117.0325755,4.60336083,9.476964535,117.4589021,6.201240381,2.085869818,-112.662852,-97.45320821,56.30359052,7.232579813,-1.282934322,9.412235695,50.44635131,3.230146752,-176.1896913,-416.8717794
251.4559998,982,40.05509525,-71.7931619,9.450207063,58.55750673,-84.24430057,-90.14882621,138.6777221,19.87788139,-39.45091881,-94.40664117,-38.41857984,9.385419216,-70.09706182,-104.5356667,70.81192048,143.1810523
251.4639998,982,-17.78821672,46.01696671,9.423313679,102.9299782,-11.40273983,33.81800779,-393.2641283,-197.5213105,10.76758629,-35.85169002,-20.21919289,9.358468686,-18.7052207,-16.83284139,-72.04108821,548.6149874
251.4719998,982,-52.68129608,-46.95954642,9.396285583,131.2123855,5.0693864,-48.74209857,244.9344022,61.99917329,37.74640822,2.474441788,10.78100016,9.3313853,31.42092629,8.004658313,-80.99187516,-679.3676622
251.4799998,982,76.09881857,-6.810629061,9.369123974,60.38583739,-64.02120462,-34.12517079,-239.7244412,-138.3521879,-58.63832502,-102.6790349,-41.47249099,9.30417025,-76.16154513,-108.802819,96.72300036,929.5987054
251.4879998,982,-99.52702996,17.71790713,9.34183005,142.8975438,11.45747561,19.92021432,-103.727732,-90.35635608,81.07347681,26.44916009,26.55770335,9.276824729,77.02823676,38.26307078,-170.7574753,-409.4917237
251.4959998,982,65.72971173,-74.94514372,9.314405008,68.45039539,-74.21479563,-83.09799956,146.397166,24.15084784,-44.46406962,-88.58913717,-35.11401264,9.249349928,-46.87571154,-90.45143844,76.59811066,161.8919195
251.5039998,982,-12.33897829,17.59800942,9.286850043,80.34686361,-38.95671674,6.12914104,-413.5970666,-218.8459028,-12.3911526,-49.96503558,-38.26993565,9.221747036,-39.48642681,-48.19963232,-73.03049669,581.8269289
251.5119998,982,-43.22291399,-74.76011465,9.259166349,105.0389231,-22.40291335,-81.30745568,221.8633801,42.47192082,20.25171613,-36.91622463,-16.2185903,9.194017241,-3.021334533,-43.17462776,-109.2391137,-664.8184298
251.5199998,982,93.19850087,-1.721325479,9.231355118,65.62271258,-63.6367267,-29.21539848,-244.1740842,-128.0735668,-71.16491479,-119.7558633,-52.90509043,9.16616173,-75.28220043,-134.0508473,78.65132234,945.668555
251.5279998,982,-99.30014842,26.37222325,9.203417542,150.2245792,6.987766749,28.47958031,-102.5018128,-75.78880773,71.74392301,38.57265709,26.10889634,9.138181688,56.97712769,31.40030625,-176.4882205,-409.2407311
251.5359998,982,77.35526196,-67.51616327,9.17535481,75.22359023,-56.89739209,-77.16674534,159.1041008,43.37723114,-36.04194731,-72.19529956,-23.22162847,9.1100783,-60.40724911,-99.2745557,67.00553706,142.500016
251.5439998,982,11.83816869,37.19545317,9.147168112,93.80457995,-29.54624656,23.45211998,-400.9316062,-194.6452621,6.24500391,-7.081845568,1.924833295,9.081852748,12.97627988,-32.8134974,-63.43114041,564.8849951
251.5519998,982,-27.34477076,-73.54112611,9.118858634,95.7122431,-55.28161028,-71.71757786,217.7436259,57.61388714,15.39603016,6.341442473,7.066668725,9.053506213,24.97574841,-26.97576287,-101.650606,-675.8332981
251.5599998,982,112.5235333,-19.98087443,9.090427562,39.78423262,-74.52817721,-31.20810701,-251.0810984,-110.8316266,-79.57479164,-91.49335852,-45.93260595,9.025039875,-78.37800179,-144.150637,75.9570995,949.3378647
251.5679998,982,-73.68113382,7.739874914,9.06187608,122.4098682,1.372379581,12.01104633,-116.4207005,-64.91074205,68.40335394,64.38485147,46.21718367,8.996454911,75.99022024,29.70851908,-169.9536433,-399.2946568
251.5759998,982,103.9504723,-98.59374212,9.03320537,33.53555809,-93.04655737,-105.7314665,130.2164643,38.67636686,-58.14483643,-69.10705946,-19.01543074,8.967752499,-53.98977486,-128.2637604,65.90369309,160.2499827
251.5839998,982,32.86936196,9.061276066,9.004416614,59.70445282,-57.67685062,9.715296159,-428.2804247,-191.4070879,-23.73982496,-16.90339219,-18.52069902,8.938933814,-19.74172442,-100.0267281,-77.51748383,597.3708166
251.5919998,982,-13.99449028,-55.07412266,8.975510991,114.9428489,-49.7333733,-48.93665547,220.016858,88.279568,17.20772917,34.50065663,7.518207706,8.910000029,11.83748153,-14.71712538,-106.2517607,-662.1466441
251.5999998,982,118.9266718,4.994156753,8.946489679,70.41881891,-59.5942497,-5.470321113,-232.9302242,-80.30231882,-52.21920857,-37.48187518,-16.00034317,8.880952315,-62.71492788,-96.13328936,87.03962011,929.6116807
251.6079998,982,-80.78960846,-1.105980415,8.917353854,122.8796956,5.682956978,14.95491656,-112.9671934,-56.50157886,70.18555936,86.88766796,49.83968913,8.851791844,58.56439131,13.08689577,-159.8473251,-427.181255
251.6159998,982,86.51729298,-94.96534742,8.888104692,49.20933028,-75.690276,-95.25385823,134.881742,46.8676657,-62.0342563,-59.69046519,-33.61022194,8.822519783,-67.44167632,-123.7532003,73.52702597,132.4203941
251.6239998,982,17.26459805,17.28017474,8.858743365,80.9234621,-37.30981422,19.45493991,-421.874901,-186.170917,6.05164773,0.434894665,-1.85601936,8.7931373,25.11011033,-74.64986481,-59.5432784,567.0707239
251.6319998,982,-20.42127441,-91.62066968,8.829271044,89.57818164,-61.80661902,-85.90731433,197.0443007,56.99540308,29.71341911,18.08826469,12.19697613,8.763645561,36.74570469,-53.56084892,-93.68331844,-683.2968131
251.6399998,982,114.1350574,-43.96428117,8.7996889,26.00464599,-104.3782849,-63.51714335,-281.8784672,-136.2853169,-94.66207469,-95.42067397,-66.61162043,8.734045728,-118.5598535,-157.635413,67.04865896,929.0353208
251.6479998,983,-204.8350392,-3.937870496,8.7699981,154.9607129,6.270956185,18.02434092,-71.21958289,-63.62641148,115.7811378,124.8787708,47.44141502,8.704338963,90.84251699,63.83447569,-354.8716693,-1224.948036
251.6559998,983,-122.8134264,-118.4716397,8.740199811,123.0150972,-39.55885398,-99.81425696,476.9303905,165.8024208,64.85018735,63.72388154,24.23577997,8.674526426,39.28099303,4.334547907,-220.5561349,-1638.682499
251.6639998,983,-56.64579681,-23.43773789,8.710295196,91.07975689,-44.25720397,-19.94822801,-170.7931442,-98.79184454,15.90641892,20.70852451,-8.780303171,8.644609276,-8.60536589,-39.45921322,-161.854046,-223.6535204
251.6719998,983,-53.42393125,-75.74565015,8.68028542,98.49761409,-44.41673332,-63.28464455,163.8520439,46.22437952,26.89710877,19.90082871,2.837838841,8.614588669,29.99629235,-45.76503078,-141.7682865,-728.2762612
251.6799998,983,148.2576495,-44.94240651,8.650171642,35.49611907,-76.38110717,-51.22629529,-204.0237426,-81.42425191,-88.92599475,-103.6536969,-55.24048583,8.58446576,-62.18613809,-172.2206717,120.2908075,1015.851854
251.6879998,983,-48.41991419,16.24002278,8.619955022,123.8382668,-4.538754833,31.26663258,-244.9685965,-105.9685936,50.5446099,55.82580692,21.58743028,8.554241702,49.47096065,1.115630662,-138.8746714,-96.47936869
251.6959998,983,26.02856877,-94.00529961,8.589636717,78.591945,-75.28865345,-86.83582749,216.0313661,78.29146069,-8.650188465,-11.60505319,-15.35009251,8.523917645,-25.14359453,-73.88064452,-13.46278961,-347.9621671
251.7039998,983,81.7796003,-5.01013242,8.559217883,53.06661373,-64.24360567,-5.581029409,-380.0965557,-163.4041841,-65.23969627,-61.29194605,-54.4442168,8.493494738,-48.4910133,-136.0445762,33.10053719,982.2921715
251.7119998,983,-83.23419531,-27.51029662,8.528699672,134.1195452,-2.185176913,-3.128528224,47.16290887,7.52532659,47.4955765,67.5855909,23.75610972,8.462974129,62.92984194,11.59976809,-153.3478311,-666.3900557
251.7199998,983,106.1567439,-73.61225967,8.498083236,53.11677409,-72.80748575,-70.19194542,17.39524726,3.205960252,-64.67845831,-66.33660881,-38.9160511,8.432356963,-69.9961609,-120.7150586,103.2024895,477.366596
251.7279998,983,-9.894144158,13.04854743,8.467369725,103.0215572,-7.816191385,33.43801317,-329.0865015,-139.8164955,12.51224927,15.60860437,-9.855746544,8.401644382,13.77644497,-48.08898498,-84.72688364,329.6329307
251.7359998,983,-10.46784689,-89.88447017,8.436560287,99.29159041,-45.88252053,-63.52612548,227.855838,87.03369241,7.49540043,15.80199229,-2.025535835,8.370837529,13.3484784,-47.0112277,-47.91580543,-548.5374841
251.7439998,983,106.7586937,-47.710383,8.405656067,36.5771817,-76.61342301,-39.66185716,-290.1072736,-132.0584467,-82.556454,-80.96477932,-64.65681926,8.339937542,-69.40789581,-141.103369,73.36640836,948.18628
251.7519998,983,-67.12840019,-39.33738815,8.374658209,112.3313198,-15.92818109,-5.976019393,-69.83419696,-53.09441074,28.41559113,38.63948111,-6.369960918,8.308945559,29.5749035,-16.53990965,-160.7313655,-446.8841298
251.7599998,983,100.2874883,-94.73719957,8.343567854,54.26674608,-91.29857889,-80.87287224,94.17831004,28.11832233,-72.76078834,-71.92332998,-55.48001572,8.277862715,-83.08691865,-138.9776471,79.19670888,286.4335331
251.7679998,983,19.12414087,15.99124511,8.312386142,102.0405767,-17.02748539,33.07745216,-361.237035,-159.5554556,-4.187027821,2.467578248,-28.77990695,8.246690142,19.31008411,-67.27499813,-68.23934488,498.7783189
251.7759998,983,-11.40692438,-70.07319038,8.281114211,117.2343244,-30.31413925,-43.30988071,243.4648125,88.62402354,24.47794171,32.51971135,1.478505758,8.215428973,33.43212467,-26.05067794,-62.19265509,-611.577767
251.7839998,983,118.1803054,-30.60662794,8.249753196,49.5041657,-63.08837354,-25.4012706,-235.348044,-105.2319263,-70.73831309,-70.57921404,-52.74332437,8.184080335,-72.40255417,-131.5413056,90.66766819,928.4629945
251.7919998,983,-64.49118179,-16.31382148,8.218304229,123.9240297,8.12848888,8.474060676,-84.99648937,-54.39536757,43.62978977,53.28516,2.169890731,8.152645356,39.60061024,3.680073812,-164.3072701,-418.1600939
251.7999998,983,101.217103,-86.24131645,8.186768444,66.11755956,-79.2874737,-75.93368974,149.1297668,56.83343151,-55.82023339,-50.42332843,-45.83095682,8.12112516,-72.79017537,-95.92690506,79.44696571,192.2813217
251.8079998,983,34.54777891,6.126481812,8.155146967,91.16885344,-22.54334762,23.9610515,-373.4498547,-166.1126416,-2.4075529,4.591113033,-25.57565785,8.08952087,44.08091093,-52.81456339,-52.85449446,564.3291374
251.8159998,983,-2.801833664,-106.5479738,8.123440927,90.838594,-47.05667478,-73.63122611,229.7188447,71.19706027,3.427825054,6.695898233,-26.08248783,8.057833607,31.59776904,-47.72002123,-76.76567006,-626.2000791
251.8239998,983,134.7343275,-57.44397779,8.091651448,31.59924371,-87.31183513,-42.9684055,-246.6102989,-114.6438957,-103.0530906,-102.9913999,-85.82019547,8.026064487,-118.6527963,-161.0573445,80.39849339,966.2628167
251.8319998,983,-50.69486718,-25.89612443,8.059779652,118.5991323,5.887975853,4.9474398,-102.5948026,-61.76667376,36.132784,40.13586683,1.665994935,7.994214627,34.41895114,-21.98889008,-166.0330933,-365.3162945
251.8399998,983,114.6830781,-104.4958779,8.02782666,51.72509287,-79.07523602,-90.48471772,145.6369471,50.22854841,-57.95343872,-66.84025169,-47.03461741,7.962285141,-59.14335806,-118.4344723,78.03684141,203.7716874
251.8479998,983,43.01192765,7.225663642,7.995793589,81.88164942,-23.53570027,26.9724064,-393.4346977,-171.6019576,-8.47145486,-9.879785898,-32.92945515,7.93027714,15.67486007,-60.26211211,-65.93745861,606.1741814
251.8559998,983,-10.16751489,-69.47236529,7.963681556,111.8318505,-13.71859584,-44.34600521,248.7135811,97.41011829,23.0977192,24.61738115,-4.098511955,7.898191734,5.899340979,-35.06624107,-81.07877831,-643.8282242
251.8639998,983,131.468368,-17.38560327,7.931491673,59.69238626,-55.1800239,-13.95476352,-215.5288126,-86.54468754,-67.76480396,-62.20965757,-46.94518604,7.866030028,-88.93021484,-116.8090605,108.5165207,947.1242416
251.8719998,983,-44.59254097,-10.95624631,7.899225053,122.9144564,3.241236059,19.63073434,-91.20929603,-54.26368581,48.89124579,67.32585075,17.0507036,7.833793127,70.15050547,9.898621515,-149.3690328,-381.3213112
251.8799998,983,122.7671344,-88.55568469,7.866882803,54.08628166,-69.8248852,-75.94776652,166.6996627,64.0234571,-61.88437878,-58.69465797,-46.84796103,7.801482134,-61.49920935,-127.0380356,85.8826765,183.9557455
251.8879998,983,55.01120703,30.48678231,7.83446603,99.16178645,-3.041782542,43.21106519,-369.2769095,-156.4149838,4.786006333,12.14254534,-18.73561017,7.769098148,26.53552365,-47.35213149,-40.17081542,603.4090671
251.8959998,983,12.10641399,-90.14013859,7.801975838,95.59566448,-33.27122272,-64.98883569,248.4475742,83.30650529,26.91324083,32.36834559,-5.460138583,7.736642267,37.05516663,-21.5156839,-75.08710197,-641.8810354
251.9039998,984,143.1561392,-40.13425947,7.769413329,31.88985935,-81.04414414,-41.04599038,-230.0886155,-104.7524279,-86.33521607,-89.15677809,-73.04940799,7.704115586,-91.28998671,-135.2516554,83.57022102,968.0253511
251.9119998,984,-57.96981621,10.36852867,7.736779602,137.3705471,15.96310252,32.33965172,-80.50086228,-43.48501259,61.50640731,66.15924457,12.83648127,7.671519196,76.24235804,11.4082679,-164.4415254,-385.1339282
251.9199998,984,113.7478364,-88.96707866,7.704075754,53.98207758,-61.31721219,-76.35854672,181.416848,59.85311391,-47.0837868,-51.14414814,-44.30559565,7.638854189,-48.0761388,-120.6304883,86.26494554,163.2827604
251.9279998,984,54.6308089,16.05286541,7.67130288,81.51877955,-9.211398124,26.45736392,-364.7607117,-175.5816101,-7.666932688,-4.160487389,-28.00081376,7.606121652,3.185521142,-55.03678422,-40.91215373,611.2288267
251.9359998,984,4.583084117,-76.54607878,7.638462071,110.97019,-14.38555452,-54.24615363,265.8172823,87.29837515,32.45809932,36.29391635,4.467581843,7.57332267,47.55968396,-4.509215544,-60.24730403,-626.7379526
251.9439998,984,137.7274089,-51.79258102,7.605554417,22.6413212,-96.77016229,-48.42093886,-233.4968967,-118.1662725,-85.91994266,-88.70894756,-74.79708636,7.540458326,-85.43881473,-128.4670596,98.55617735,981.1308804
251.9519998,984,-49.88387775,-15.76571378,7.572581005,103.0872587,-35.38176182,5.01317417,-101.4473089,-69.46340175,32.73026707,36.44875207,-17.96488077,7.5075297,20.97753286,-7.562062092,-175.0846352,-355.9624739
251.9599998,984,125.2379582,-81.18346441,7.539542919,58.70570592,-66.35839372,-71.67319775,179.1938809,66.80348629,-57.52736846,-54.78305774,-55.38652932,7.47453787,-69.47455204,-108.772038,73.32540952,193.5104132
251.9679998,984,59.6574668,19.81142868,7.506441241,84.70664914,-13.90297966,33.28491956,-371.6062659,-166.2185236,2.469494949,13.03639492,-25.35609916,7.441483911,20.03790895,-41.6981388,-55.58156527,608.4727109
251.9759998,984,13.62099104,-76.22504907,7.473277052,99.80492496,-32.00499686,-54.26970538,261.6098519,91.08286852,28.73387476,35.23586814,-3.945397981,7.408368896,40.52175787,-21.72500656,-81.81020217,-644.8132271
251.9839998,984,149.859882,-38.06939717,7.440051427,33.76749864,-69.65927608,-30.40339869,-212.1977541,-100.2619828,-83.33697779,-83.50080767,-76.94869702,7.375193894,-88.6469417,-141.3433657,89.80757403,962.1035754
251.9919998,984,-45.16353559,-15.98848091,7.406765441,113.2625498,0.750572748,16.37142946,-83.23806371,-57.03741499,46.90073897,51.70452486,-4.249797567,7.341959973,53.43292675,-1.644742723,-167.6162253,-382.437759
251.9999998,984,125.0620809,-85.96440136,7.373420165,56.42785435,-62.94399572,-71.59801082,183.9367726,68.40958183,-57.88291397,-49.14399392,-44.79182194,7.308668199,-38.77233488,-81.11289039,80.17174028,174.9843444
252.0079998,984,56.96032073,26.54649771,7.340016669,89.51334989,-8.198794953,47.29406596,-358.2224492,-160.0480421,-2.807817995,14.83968153,-29.9330526,7.275319632,18.88727676,-12.44500427,-56.1470504,596.8483891
252.0159998,984,7.398140899,-75.60813066,7.306556019,101.0835394,-23.59214182,-41.13622006,274.6457662,94.2737465,34.66754185,36.9113424,-0.241549389,7.241915333,37.64063304,-12.2750325,-76.3010048,-657.3842663
252.0239998,984,146.5825929,-40.752675,7.273039279,26.13007583,-72.38318256,-32.10682538,-209.3840729,-105.683084,-76.87302511,-83.43910294,-65.74676147,7.208456359,-69.56492326,-130.6682141,97.28039423,951.9633424
252.0319998,984,-90.56743254,-36.31571618,7.23946751,125.5785054,19.38619514,1.089321451,98.37149901,3.798622243,84.87321802,92.41586741,12.32064831,7.174943764,111.9280908,49.66514521,-230.8172961,-991.9045208
252.0399998,984,123.1110616,-149.3775643,7.205841771,32.07334539,-92.35312301,-129.6910186,410.37087,139.2850292,-60.2200242,-51.99624669,-63.10731091,7.141378598,-49.06760437,-101.4676198,63.29593089,-299.7825886
252.0479998,984,133.745039,31.26206517,7.172163116,35.72769518,-58.20360477,37.70395943,-592.7481275,-268.448187,-76.8104256,-63.43485039,-91.18492743,7.107761912,-68.14755344,-110.6659476,6.646110184,1341.802433
252.0559998,984,-38.82842205,-43.60223786,7.1384326,129.882249,15.01405576,-5.645194089,258.7896254,83.69479598,76.21315339,84.15231448,22.0993628,7.074094752,79.83372368,29.71018605,-156.1398158,-980.0596626
252.0639998,984,185.6869508,-82.84918919,7.104651272,11.89364754,-96.76157169,-74.35695153,6.574561257,-20.69603189,-80.41525469,-80.3948596,-62.58141884,7.040378159,-98.16651401,-137.4440732,142.670283,711.5237702
252.0719998,984,24.14479486,27.95452891,7.070820179,87.07371135,-4.428173443,44.95510575,-364.7192165,-180.5065637,21.3660756,21.00898615,-38.16228484,7.006613176,24.28846969,-25.68042806,-139.8920828,293.037148
252.0799998,984,72.48240947,-82.64138944,7.036940368,93.22341796,-11.39029116,-60.34552353,382.8343432,139.2370586,25.39701277,20.67291501,-5.406357884,6.972800841,29.33813466,-36.16065802,-11.19642004,-599.642531
252.0879998,984,159.4115844,-1.243587487,7.003012879,37.55628339,-65.36073091,2.988475618,-334.9027722,-159.4527614,-59.79122246,-46.33889212,-58.50079597,6.938942187,-72.34388747,-100.0381224,80.5721296,1087.775309
252.0959998,984,-34.26747532,-10.49287191,6.969038752,121.0556994,-0.545611163,15.7053189,35.13677638,-9.647005017,56.40220698,69.76212838,-3.20253979,6.905038247,59.0448112,40.28894725,-170.1761192,-575.6774439
252.1039998,984,242.2485087,-117.9213047,6.935019023,5.15550602,-110.9130048,-121.9821345,283.7816258,111.0504495,-124.2832059,-122.9615097,-85.50792446,6.871090052,-138.8132288,-157.6047007,245.6804937,699.169223
252.1119998,984,253.8681879,-35.60741907,6.900954727,-10.21849524,-110.7248098,-45.87838462,-282.5164783,-127.2074415,-144.9595761,-134.4080072,-110.128325,6.837098627,-165.7438032,-172.1421984,222.0901494,1646.101941
252.1199998,984,24.20672924,-30.10032412,6.866846892,88.56143761,-21.48863283,-12.91400326,21.09619471,-15.28946894,23.32988519,25.32723848,-18.70378483,6.803064996,12.28597212,-3.949710036,-91.54605922,-227.9239631
252.1279998,984,52.29467975,-22.42797211,6.832696548,76.10111735,-29.20351224,-9.783789699,-98.88663332,-65.94783621,8.789137189,8.4279824,-28.51293142,6.768990179,4.56856085,-29.03615703,-70.88989444,78.25479124
252.1359998,984,88.32399853,-38.15615359,6.79850472,81.03551283,-20.61747554,-19.95866534,74.01795852,17.50683339,-10.25148627,1.536466278,-31.96478632,6.734875196,19.76370717,-42.44877566,-2.458197514,46.25720746
252.1439998,984,90.28829674,-10.26846943,6.764272429,75.61967804,-11.567604,4.644290402,-84.53064956,-49.94134758,-6.404028698,2.504276709,-22.90745941,6.700721061,-7.422303762,-41.65514205,16.75919281,355.4805101
252.1519998,984,17.1246944,-19.58493156,6.730000694,79.79015559,-26.69277891,-4.843214891,-76.61686635,-61.57359158,25.29284375,24.28857903,-16.63588177,6.666528787,7.406009864,-17.90388009,-100.2499383,-141.546493
252.1599998,985,123.3741269,-59.95335234,6.695690533,51.1564202,-72.35167116,-56.17327201,100.7227758,27.59606393,-46.20376399,-42.50240507,-56.95803717,6.632299381,-28.5224735,-78.75840681,31.27665114,154.7547318
252.1679998,985,77.12459855,30.51939696,6.661342958,96.18608028,3.35363907,41.54068279,-259.7852041,-117.3482789,14.90227599,34.09992402,-22.46443627,6.598033852,13.0761317,5.285296867,-74.4382836,372.4710892
252.1759998,985,70.83831935,-44.08620056,6.62695898,105.8245839,11.79320672,-24.00080875,211.2588,77.70091046,29.15774539,38.35651949,-0.153710672,6.563733203,31.50198387,10.46983636,-56.6047418,-449.7303532
252.1839998,985,163.1585807,-8.648938334,6.592539605,55.48515855,-42.7994268,-5.597422059,-164.3534658,-72.46809817,-40.08066543,-39.37009995,-36.98024673,6.529398433,-24.9930543,-70.08003071,77.03830379,741.6403687
252.1919998,985,10.06159238,12.26662677,6.55808584,112.6578684,16.71785969,30.37374082,-73.42688539,-42.74879722,72.78945379,72.5292018,19.4054511,6.49503054,69.8131262,36.07878668,-133.4710482,-315.1029127
252.1999998,985,152.0074681,-53.44738132,6.523598685,58.32165239,-26.37752422,-49.6294319,177.371618,71.29337666,-29.96379291,-37.49146364,-35.62789144,6.460630519,-37.67636378,-89.2242974,70.44167616,125.4737354
252.2079998,985,85.3755512,39.128208,6.489079138,82.09359787,-7.768812989,46.72194669,-329.1016792,-149.0752551,14.19956545,18.52429968,-20.78036323,6.426199361,-2.488992046,-23.92192173,-52.43578661,509.2485353
252.2159998,985,50.81019897,-62.29155703,6.454528196,91.35007833,-13.51564675,-43.87254627,249.5364989,82.89738953,39.46937286,40.44180412,2.377917873,6.391738055,45.83057544,22.94661901,-70.93221018,-617.634966
252.2239998,985,170.692067,-17.26397013,6.41994685,31.3764569,-46.59939999,-16.92061233,-188.4086027,-91.0845947,-58.5006135,-69.52549557,-62.93758464,6.357247586,-45.69769966,-91.3936182,81.69368094,862.8283802
252.2319998,985,-9.795849993,4.280584518,6.385336091,96.96845747,6.937213959,26.97978988,-81.01267307,-56.49748825,66.11997072,54.25624914,1.449379754,6.322728936,54.87826415,29.04554156,-163.3424428,-383.0200312
252.2399998,985,155.9222047,-88.20030203,6.350696904,23.95142131,-62.13945727,-79.78539662,183.5637159,61.02515212,-57.93419554,-65.8490297,-48.53859966,6.288183085,-28.71460654,-94.35558812,70.98322739,130.7387261
252.2479998,985,92.86640849,41.10041244,6.316030272,73.22252806,7.61990364,51.04159762,-343.7980153,-151.9575204,3.543435901,-3.844388903,-28.50018306,6.253611009,40.26222164,-36.62193223,-62.43270053,565.9518632
252.2559998,985,51.40839224,-41.75881167,6.281337176,99.15509571,17.29247832,-28.0435536,280.5528024,106.7615904,64.97972438,39.81299585,18.40820629,6.219013681,72.76487188,25.58542712,-72.11741237,-666.5184364
252.2639998,985,186.5985765,-22.07862108,6.246618594,14.57338497,-43.47483123,-27.54814485,-189.9262237,-93.11134362,-57.55961185,-66.45877999,-43.45148567,6.184392071,-41.64037601,-82.93187684,108.8225086,905.2859047
252.2719998,985,-2.782991291,13.17656595,6.211875499,105.1865507,29.74390334,37.62659573,-62.52485435,-43.13986387,66.10707803,74.64461673,11.23098989,6.149747146,65.2837083,48.19528969,-158.8403496,-398.0646263
252.2799998,985,153.9958932,-71.03009104,6.177108861,32.99545295,-46.14573728,-67.15024818,201.1246615,74.39102877,-40.46353747,-57.18101306,-42.62575546,6.11507987,-45.81233243,-76.22217279,78.53684511,134.4633865
252.2879998,985,78.29267874,23.92996927,6.142319649,47.21585243,2.992441065,36.03592038,-341.6740223,-159.5986031,4.90571453,-24.42909238,-27.06521305,6.080391204,16.93248456,-36.71542596,-46.59094105,556.8577695
252.2959998,985,31.99392018,-59.13900914,6.107508828,78.76849131,17.79696828,-28.44659214,299.7041098,116.1848248,40.80540595,13.42435299,1.483504907,6.045682105,62.59524066,-1.511458303,-66.74010505,-685.4045824
252.3039998,985,169.3449487,-11.85585647,6.072677359,5.072398697,-36.26142183,-13.32989481,-181.1585316,-77.67486099,-83.4698312,-95.13454166,-68.72461566,6.010953528,-66.03585313,-122.4728391,101.1714651,921.0676068
252.3119998,985,-21.11746663,20.76285814,6.037826199,91.73643776,39.89602938,45.74353039,-42.25571463,-26.80738733,73.01271668,63.32718122,19.95859402,5.976206423,81.51248633,37.61120247,-153.848148,-416.5442072
252.3199998,985,148.7230634,-63.20588565,6.002956305,22.03299431,-32.4362573,-56.82322522,232.3311156,95.6699498,-17.91447399,-41.75308174,-13.24888312,5.941441739,8.62255909,-51.61641224,98.37035773,130.5807509
252.3279998,985,81.45783698,46.07755835,5.968068628,33.25272778,9.146362593,37.83760171,-326.6385592,-148.5991615,1.772058303,1.091843316,-23.14158049,5.906660421,15.20746945,-6.778149556,-48.61359401,558.3516066
252.3359998,985,35.85818935,-31.616837,5.933164117,69.53331561,31.51698733,-20.18105038,319.6443887,130.4384652,50.69546866,53.52841014,12.88656506,5.87186341,66.35553396,25.58898282,-70.13091192,-693.5308597
252.3439998,985,180.2071884,3.151994164,5.898243718,2.348212716,-10.52755784,3.771867061,-138.8100592,-52.15968644,-52.8705735,-45.97203109,-27.57349409,5.837051645,-16.69395655,-77.13938283,127.2453713,913.6957164
252.3519998,985,-10.31531797,17.23479314,5.863308372,64.98939719,47.60649934,38.73286563,-11.69047063,-16.91604981,69.54566654,93.48763684,34.78669592,5.802226061,82.0033706,57.53019456,-136.0149315,-422.8186094
252.3599998,985,153.2222206,-49.94185813,5.828359019,-1.969045016,-14.38236923,-45.07843619,255.7297762,114.2357181,-20.6074828,-16.95241085,-16.75506333,5.767387589,-2.161437128,-68.75487786,94.7712731,131.9072869
252.3679998,985,87.62998505,54.45543628,5.793396594,23.31270277,37.68449765,64.61589738,-285.1830587,-116.1689515,18.70069361,38.05758685,0.046068348,5.73253716,39.51338778,-2.104680689,-33.83722249,541.7571945
252.3759998,985,45.5820441,-58.85608916,5.758422031,17.64370186,21.29779461,-39.90561324,341.7815729,130.6232686,42.84639219,70.78350036,29.30065918,5.697675697,80.96992874,30.91354044,-50.65051667,-703.4321332
252.3839998,985,185.398025,-1.222658871,5.723436257,-50.07324462,-31.14993595,-8.862675079,-136.0161353,-54.15233128,-66.24435956,-34.19622629,-38.86947,5.662804123,1.091625137,-100.8101582,113.4796751,918.2563147
252.3919998,985,-7.431642483,32.31389744,5.688440201,44.63532411,46.27309571,52.25171683,0.958768125,-0.297088279,64.87721032,119.1184605,24.96685459,5.627923358,94.64947765,32.75069332,-148.0844862,-427.895532
252.3999998,985,153.9177944,-57.09398941,5.653434783,-42.53200308,-23.33091149,-55.01873227,264.4217027,120.1330919,-30.450903,17.79663898,-16.67115426,5.593034316,-0.743061202,-58.68060872,108.2787412,134.0643149
252.4079998,985,86.22763799,57.58305445,5.618420923,-8.113380602,30.63151467,64.81669969,-277.9290098,-105.4708704,12.75505676,85.15167734,-7.956753411,5.55813791,66.80881664,6.893134501,-30.05731838,550.3765924
252.4159998,986,45.13086713,-46.43238169,5.583399539,11.92109847,19.90222337,-21.6633022,352.3160969,146.8844661,39.56091861,108.3013044,6.478929883,5.523235049,78.65584882,26.49743905,-61.00933248,-696.4811816
252.4239998,986,183.8358765,-5.964087264,5.548371541,-75.4435476,-46.83007868,-12.47927416,-133.0828136,-50.26788212,-72.41517186,7.056741524,-57.2187884,5.488326639,-27.2218265,-89.72550047,105.0541226,934.1139594
252.4319998,986,1.74616431,21.20059564,5.51333784,0.105579998,35.97226917,35.99900611,1.830751508,-2.833441639,45.9422894,180.7634798,7.651925974,5.453413581,86.48283271,24.07673983,-156.4536355,-405.7310729
252.4399998,986,174.1066907,-77.83727707,5.478299342,-87.01922549,-35.42936111,-80.2748568,258.5971264,106.3966979,-70.12447367,65.31089551,-48.57911373,5.418496776,-49.81203015,-78.1228163,91.57731868,163.2297288
252.4479998,986,101.3590457,52.74553936,5.443256948,-36.87988005,13.46999962,52.45002542,-281.3977967,-106.8291815,-18.3705662,135.9187157,-24.41251196,5.383577118,48.8268064,10.09255491,-50.27456535,591.2293079
252.4559998,986,52.30605619,-24.06034613,5.40821156,-17.24223154,31.0948292,1.809382622,367.3005229,176.1076394,33.01911344,203.3325476,26.51852825,5.348655499,126.9527601,39.73972718,-59.86284837,-669.0429181
252.4639998,986,191.4663538,-2.796339638,5.373164073,-122.4191422,-31.58630205,9.305294968,-115.9783794,-18.37666343,-70.96059148,81.77967686,-26.94751802,5.313732809,-11.76031889,-80.41894785,125.0969093,938.7061126
252.4719998,986,11.43174004,27.75279465,5.338115379,-26.83009955,40.16002836,63.56406901,21.87302981,40.84765254,54.52237158,217.8204427,35.51864503,5.278809934,105.1709865,37.54904618,-141.9455047,-400.3847117
252.4799998,986,175.1317683,-56.69400654,5.303066367,-112.0645961,-25.23540503,-39.5414295,283.5718897,158.3023541,-63.29175611,110.8358002,-17.02229539,5.243887754,-12.22582779,-71.31244773,107.9603598,172.6844452
252.4879998,986,93.13624166,34.61563427,5.268017924,-106.4425526,4.178687326,53.48490411,-274.7476975,-84.67039893,-29.75377862,142.7390975,-11.4253739,5.20896715,35.27299212,-27.88719434,-34.17524125,590.7538281
252.4959998,986,44.71034432,-49.97442428,5.232970931,-67.40520352,10.25215741,-11.08253874,370.1543304,192.4345146,16.58565985,182.7035534,14.07606623,5.174048995,93.39753006,-20.5691673,-64.19307905,-675.124798
252.5039998,986,186.0535871,9.150325055,5.197926268,-120.9976387,-9.153051104,41.27002002,-85.47487962,21.08499661,-81.21312096,95.89343692,-31.49015342,5.139134163,9.083630404,-74.45624331,124.1570684,938.7265107
252.5119998,986,-2.273089939,39.88361678,5.16288481,-52.93245849,69.43379411,81.09708738,55.27566418,68.28477785,48.58238892,250.1605042,46.85898604,5.104223521,129.4476206,72.34135877,-120.5498983,-409.7222796
252.5199998,986,162.9553538,-55.56648986,5.127847429,-154.5525336,-30.51214607,-45.64588653,308.0037982,172.2167203,-42.28142494,160.0085659,0.020752758,5.069317935,6.574620381,-61.41958919,125.863252,138.8203512
252.5279998,986,97.29211509,43.22119412,5.092814994,-124.2985733,24.13686845,80.85341249,-243.8626572,-61.51604542,-6.807790491,201.0232854,1.462814207,5.034418265,63.48368165,28.48458259,-24.12950875,560.0141927
252.5359998,986,47.72402032,-47.03167255,5.05778837,-90.03142613,44.48509724,-0.678022124,390.348161,201.1409772,7.857653567,221.2732737,21.45242322,4.999525371,88.40157879,5.150583968,-42.64199318,-683.160114
252.5439998,986,175.5423543,-1.666707176,5.022768419,-134.1982267,-20.23626554,18.97177522,-81.88775718,13.56235475,-83.62813053,126.6838363,-25.46467725,4.964640107,-0.088672147,-127.4919108,140.5427523,926.3585864
252.5519998,986,-15.31338665,25.13834938,4.987755999,-49.10098162,60.75165252,71.90247293,53.20204905,59.77823377,37.10413327,264.4714076,38.81598921,4.929763324,113.4532324,70.56511791,-125.508246,-429.7542
252.5599998,986,156.2744015,-53.6372418,4.952751965,-145.7959957,0.533900265,-34.24518182,311.2165283,170.5903533,-70.52280932,154.6941232,-6.92403557,4.894895869,-3.492852865,-63.69569574,126.6798129,137.754579
252.5679998,986,88.19386102,57.48246148,4.917757167,-119.9213071,27.52709498,86.18077104,-240.2099732,-56.52866382,-8.501755058,216.3876345,12.34390826,4.860038587,84.62617708,-12.68208354,-14.34607696,564.3839641
252.5759998,986,37.76523516,-51.00528752,4.882772455,-115.9652185,20.69929939,-8.54549501,383.7534424,196.1227126,11.68194302,246.0852515,22.62289639,4.825192319,97.51928953,51.17460674,-45.16364904,-688.553737
252.5839998,986,176.1303089,-18.55798175,4.847798671,-204.8537089,-26.75181321,5.980483126,-89.6162056,1.374144459,-95.7606618,128.904389,-43.71540665,4.790357902,-19.35835947,-88.31922218,131.8620082,930.2761497
252.5919998,986,-9.627310187,11.98876374,4.812836657,-121.920015,43.95884677,59.1415239,48.03118066,57.28481841,27.05134202,259.4615784,20.99291201,4.755536169,107.5832114,44.15757607,-133.1078979,-414.9803221
252.5999998,986,154.8516961,-68.14857665,4.77788725,-180.8922452,-17.5379443,-29.80657004,304.7065832,173.137098,-84.4835521,137.8756783,-33.74685976,4.72072795,-12.02036609,-38.77610711,112.8770579,149.7064086
252.6079998,986,80.65442635,47.55867311,4.742951284,-145.4080469,38.81583977,97.2455926,-233.8903742,-50.69960051,-16.40890528,194.4462467,-10.58182438,4.685934073,74.31426112,1.108678062,-27.35161656,561.12694
252.6159998,986,36.21050463,-43.3321307,4.708029588,-128.0200067,33.26626226,13.60305318,404.1866929,216.271977,23.07129644,216.695022,24.25607309,4.65115536,138.5090271,47.88210011,-49.6033068,-704.7850579
252.6239998,986,172.2531766,4.453413249,4.67312299,-196.1017091,-26.66493701,37.20662105,-73.8798959,22.7701913,-85.73039907,77.87492754,-38.21380017,4.616392632,-4.329131522,-19.07059325,128.3635983,911.6445529
252.6319998,986,-22.9985187,34.49542653,4.638232313,-115.9804072,56.17520524,78.03035374,67.46972422,69.82181826,54.74503799,212.6082922,44.13196082,4.581646703,118.3180243,98.15052211,-126.6756209,-444.102995
252.6399998,986,240.8078376,-114.056668,4.603358375,-249.3795676,-56.24148976,-103.1253931,474.7886016,239.5727253,-111.881949,4.068949314,-34.32946589,4.546918386,-11.58860833,-99.51513177,274.7557779,464.9661147
252.6479998,986,179.3357481,25.65700775,4.568501993,-231.4140146,-23.93494542,36.24709001,-322.6029962,-99.00303088,-97.01880601,15.8945632,-54.55494451,4.512208491,-27.55536649,-51.41233817,129.0906694,1362.758028
252.6559998,986,-101.0799769,19.64973782,4.53366398,-77.40966821,96.77265076,74.83468362,216.2900131,120.70215,82.77006645,195.1537385,48.28778187,4.477517823,133.9888816,159.2396656,-235.3859608,-1140.544363
252.6639998,986,182.1010897,-49.01211819,4.498845143,-189.7388953,9.877017343,-10.77344982,285.940631,168.9633857,-84.07539223,-24.28334971,-31.89760127,4.442847183,10.90756305,-27.92192902,178.4022749,432.4201576
252.6719998,987,74.17597892,39.69824239,4.464046289,-170.9658334,30.39484178,90.90031231,-170.984634,-32.70079554,-12.11817756,49.84834894,-7.149836741,4.40819737,54.51975371,-3.602979288,5.907387944,530.6516727
252.6799998,987,-9.100566558,-38.18777629,4.429268219,-181.3732719,21.70915417,0.551246051,296.7195221,144.1267296,22.9454244,57.47077328,9.125479481,4.373569178,60.3350339,60.65706356,-93.70858482,-705.2469899
252.6879998,987,175.0687504,-31.97828929,4.39451173,-246.652775,-14.85020162,-12.39717435,79.81715424,74.72076787,-96.27836782,-97.31539362,-56.41008407,4.338963398,-30.69123305,-30.76798604,136.2023729,712.8531692
252.6959998,987,5.313466708,46.27061238,4.359777618,-143.9326145,74.3812725,116.5277013,-43.91243731,30.29790483,29.44328792,41.45557274,15.57019728,4.304380818,112.3220622,59.71915516,-99.3411299,-63.48964755
252.7039998,987,71.63491846,-31.14951676,4.325066672,-200.3510735,36.55205774,-8.062796933,375.6287742,198.8902479,-0.937933666,-14.91744038,8.813091264,4.269822221,79.7751941,58.23845939,27.02947648,-324.4263853
252.7119998,987,127.7909394,27.30264054,4.290379681,-226.4991729,12.31207118,33.27755967,-71.90359909,13.59255497,-36.95451989,-90.1010318,-19.58147567,4.235288388,28.09988087,48.74173151,84.16027021,730.3792735
252.7199998,987,-24.30911962,10.02726787,4.255717427,-148.5397555,70.9481215,96.60377817,168.01159,114.5952262,55.75403105,-24.94703681,34.58425946,4.200780095,127.9254316,112.1233479,-110.9919213,-529.8844985
252.7279998,987,153.662807,-48.71978005,4.22108069,-240.5992338,14.84724726,-2.662391417,271.6404285,158.6974389,-61.10379652,-175.6649006,-18.82349559,4.166298115,21.24254279,-41.10739117,129.9835025,280.1672777
252.7359998,987,54.64800428,45.86099743,4.186470248,-228.785078,35.11294924,69.4949158,-149.7409319,-29.50550296,-2.674354473,-129.7208932,-5.541873632,4.131843218,51.08779846,37.48344455,-41.46554188,338.2775234
252.7439998,987,37.52276907,-37.74022562,4.151886872,-220.7780236,30.49423149,13.83377295,399.4337704,210.3977471,9.355394511,-101.5675604,2.069032854,4.097416168,55.54892574,89.89018095,-31.62415877,-578.5258245
252.7519998,987,156.0092178,7.398327775,4.117331331,-263.3780575,7.331463835,40.4297636,-33.86759034,32.7384538,-66.35839823,-191.3313541,-32.89305036,4.063017729,11.09753698,-12.79648399,117.9289148,808.228978
252.7599998,987,-20.79042601,19.73183364,4.082804392,-173.1082809,55.38645083,59.80200502,106.5981572,72.73785047,39.37185014,-122.789221,30.54324055,4.028648658,121.2682499,113.2426832,-112.5711555,-447.7873093
252.7679998,987,139.0314572,-58.2988904,4.048306814,-224.1075174,-14.97204894,-29.32568251,315.2732965,171.8380779,-65.03524399,-221.3024726,-21.90440815,3.994309711,-7.716964994,26.04279795,115.4931522,157.7347184
252.7759998,987,72.3703953,43.77912797,4.013839357,-211.0870439,29.95395068,100.5420048,-182.4595154,-40.54976991,1.246519638,-169.0922809,-2.493274337,3.960001638,56.90681966,42.43795525,-24.64413229,476.6434541
252.7839998,987,36.42868123,-39.14455986,3.979402775,-195.8749241,38.64534512,16.14772936,418.2693263,208.294232,23.47420153,-174.4712255,13.9463422,3.925725186,89.56972999,83.97716813,-38.48852843,-656.8671209
252.7919998,987,153.6754592,3.626513335,3.944997818,-246.4065055,-1.192510385,27.90769645,-40.50220293,24.48525817,-74.16736207,-244.711903,-41.42347894,3.891481101,-8.47408205,1.083235548,124.8723709,863.0961376
252.7999998,987,-20.31260567,36.29642812,3.910625233,-139.6049066,81.95605609,106.9489885,109.0404964,82.77076892,57.68551833,-122.553572,36.46632601,3.85727012,120.57754,112.5590932,-115.508561,-452.8025716
252.8079998,987,153.9014849,-40.29011877,3.876285765,-213.6462397,7.22584954,-9.023834169,349.4059819,190.6210635,-44.56400408,-241.2546193,-3.964500073,3.823092982,23.25531419,43.94057023,132.4979988,126.8073448
252.8159998,987,71.36044569,45.06315696,3.841980151,-211.7483658,23.06756873,69.61373205,-202.500254,-55.68047693,-7.297248443,-176.1683961,-3.818086422,3.788950419,54.26147911,77.89896553,-17.71432296,516.2308948
252.8239998,987,38.47618868,-43.36342557,3.807709129,-160.7219455,44.73202608,12.87979178,421.0841654,205.9424761,20.29112018,-161.0021368,12.42067534,3.754843159,56.92341519,68.97110307,-50.7408147,-697.0696771
252.8319998,987,169.634894,-5.690784731,3.77347343,-242.3361064,-10.62443147,17.45216493,-49.83484098,11.40986244,-70.45470741,-249.6107821,-33.51484691,3.720771929,-21.9934615,-18.93948623,125.5538896,893.8011508
252.8399998,987,-28.84317591,15.24322021,3.739273783,-149.7121593,54.95729983,78.16134552,86.44248671,56.84136844,43.95894278,-117.2227978,23.05062714,3.686737449,116.1743295,107.6969172,-137.2894889,-436.4160648
252.8479998,987,250.7006558,-92.33416993,3.705110913,-204.5517237,-20.26928123,-37.05590237,509.455627,264.7278523,-121.3765167,-309.0044456,-57.24613761,3.652740438,-49.56352847,-53.56276547,255.2793481,485.5394342
252.8559998,987,286.6892889,-7.791746754,3.670985541,-247.1637372,-33.35142129,24.64005456,-122.5295446,-2.190211082,-147.6207203,-331.9576836,-77.65035822,3.61878161,-72.61580141,-87.30629882,280.6425508,1717.074808
252.8639998,987,22.24566055,1.950681049,3.636898384,-149.263457,51.73740349,57.80692642,159.5251726,91.75380177,30.4358714,-147.9892698,15.68501426,3.584861676,86.6227847,81.32475612,-72.14976904,-303.0804815
252.8719998,987,70.4881626,0.401905087,3.602850156,-185.7888143,32.47242521,34.79237861,108.339979,68.98650149,15.72995015,-172.1131056,10.48769064,3.550981343,47.2175489,66.43507752,-13.15384983,9.73722639
252.8799998,987,93.05028049,-21.42395371,3.568841567,-192.8607475,8.299970942,12.45479155,173.4719774,97.18785686,-28.28110214,-189.3152559,-13.12923917,3.517141313,17.52004495,54.39166578,20.0540575,72.59048529
252.8879998,987,94.19724229,1.329971352,3.534873323,-166.752122,22.42440799,41.91904653,78.1798501,60.54286492,-28.68803046,-187.0057232,-15.33100496,3.483342286,31.17027473,58.9051243,24.04050938,281.748697
252.8959998,987,24.41194825,12.22232858,3.500946127,-140.6179493,41.65513687,55.41029958,81.58527047,51.77450038,28.04459151,-138.1840652,14.86007699,3.449584958,76.94399077,82.50916702,-62.4781922,-119.6971575
252.9039998,987,113.6999522,-26.23792411,3.467060678,-151.7898601,0.56008627,-4.573511484,247.0723111,127.6892547,-40.09597496,-200.5269288,-18.38680547,3.415870021,6.729467358,17.80052747,59.76657061,110.7980617
252.9119998,987,68.30867598,47.58366552,3.43321767,-146.8941465,46.3197513,71.80665279,-111.0134198,-23.88127815,11.87644198,-157.6700798,9.605061462,3.382198162,60.34433283,67.66009237,-26.90375409,346.069943
252.9199998,987,48.83404404,-31.4312386,3.399417794,-145.5608792,32.74721845,15.39831522,327.9829534,154.0346688,21.80746791,-155.6777811,13.52615248,3.348570068,69.40931616,85.60615951,-24.20986835,-458.8752734
252.9279998,988,135.8339986,7.19046502,3.36566174,-150.8157312,-6.183774876,31.25009233,-23.02205351,14.66183176,-46.73192519,-245.5783151,-32.52546984,3.314986418,8.352118255,25.03782301,94.67598974,688.9122611
252.9359998,988,-16.58192529,25.84365128,3.331950189,-90.68376076,64.27082536,64.24783549,57.73355239,38.88369255,62.78816553,-132.1358664,37.09165374,3.281447889,116.5222816,105.0908789,-97.84791817,-336.3184373
252.9439998,988,121.4885137,-37.21179103,3.298283823,-135.4565551,11.95866836,-10.96053259,296.1507085,147.4941223,-51.56777554,-212.5344667,-17.67380616,3.247955155,-3.193013811,11.91027992,108.3725359,95.53904238
252.9519998,988,51.2758159,67.8341434,3.264663317,-100.3255162,47.77996912,96.64502642,-198.7272219,-62.80340191,3.328046244,-155.3545196,-1.585184929,3.214508886,46.14217789,67.44323318,-15.09183626,473.5376123
252.9599998,988,21.51089282,-33.82161633,3.231089345,-97.78396532,35.89449181,7.31486228,362.781272,161.6239906,46.57494159,-125.2292425,27.62819662,3.181109747,72.165482,80.82001816,-39.09069933,-655.3936601
252.9679998,988,148.8074915,0.741914906,3.197562574,-147.4586732,-12.74370632,14.84286797,-71.68549152,-16.80937201,-70.70726389,-250.4983505,-40.22195576,3.147758401,-42.57848909,1.513049764,113.0466171,828.7017992
252.9759998,988,-30.09176124,31.30543461,3.164083671,-54.65945069,71.04970369,61.35330201,47.54667109,21.4274627,53.52227581,-113.7737109,30.54210603,3.114455505,110.8553304,127.2446824,-120.6732579,-401.8517796
252.9839998,988,134.6821534,-51.68448837,3.130653296,-132.1813895,-6.576180967,-42.82681624,297.3274815,127.5213638,-52.23212751,-208.1922418,-17.97045902,3.081201715,11.71627289,10.84212452,115.7118298,116.0629697
252.9919998,988,51.45833453,59.60141076,3.097272107,-88.22662303,27.34832375,88.90989008,-233.5756172,-92.25076888,-17.52549705,-180.8642624,-14.61461069,3.047997681,26.60369689,52.45863574,-28.40301117,540.3853252
252.9999998,988,9.128248659,-21.33532154,3.063940758,-36.04891496,31.68774071,11.90083162,380.849052,161.6942856,52.00878667,-117.4157885,33.18478089,3.014844051,78.35646002,108.3281111,-49.40531466,-696.2381777
253.0079998,988,154.0259835,12.28435484,3.030659898,-124.1080486,-27.08059212,12.22896447,-96.8067344,-42.53258997,-63.90964454,-223.2143298,-31.28058573,2.981741467,-23.29489683,16.97804048,116.2775188,872.192034
253.0159998,988,-31.34892237,38.0425162,2.997430174,-38.29453499,60.8510841,73.59650286,38.96174301,10.46256767,39.77960832,-106.3541649,21.27892471,2.94869057,73.78271451,118.5208737,-149.1302138,-443.7864669
253.0239998,988,142.5223141,-54.31131452,2.964252229,-110.3260286,-17.79386388,-41.35505271,293.3039247,123.0925702,-37.7104546,-204.5755489,-8.838633576,2.915691995,-26.70117609,19.1610965,108.0570043,100.3618225
253.0319998,988,70.58973459,39.09031884,2.931126701,-77.60989642,18.58365513,76.79412639,-256.5352854,-111.9486249,-11.1537464,-174.8108192,-12.57946665,2.882746374,44.25714156,68.44984754,-38.14257524,525.0980887
253.0399998,988,31.53297079,-32.74708162,2.898054225,-15.90041653,41.06483361,17.53166835,388.7015798,168.4047201,23.4602319,-123.901365,15.62474076,2.849854337,71.27365216,96.51376158,-63.71569982,-714.9885392
253.0479998,988,174.8538444,20.95313674,2.865035433,-85.58174892,-2.542513514,45.8792577,-73.24846679,-12.80411191,-58.58626727,-207.901472,-19.58270626,2.817016506,-44.79526452,-15.17730313,137.1792181,891.5662102
253.0559998,988,-21.55929418,43.70600643,2.832070951,-7.845427745,69.51954892,86.54225922,48.63290614,26.56105079,63.83569839,-75.02292638,43.3403329,2.784233504,105.840717,129.9623229,-122.7806174,-448.705007
253.0639998,988,138.9982396,-41.22645699,2.799161403,-94.37882925,-8.5278037,-38.81295563,292.9113784,131.6642208,-26.49208859,-172.0099077,-0.582546515,2.751505946,6.316867889,29.20883239,112.1880696,101.9501864
253.0719998,988,63.41321548,67.25532242,2.766307409,-52.80062513,47.70724402,100.341504,-239.1891645,-94.67575072,10.58134449,-128.4142689,1.933887478,2.718834447,42.71585396,38.11231879,-31.87515789,504.3590878
253.0799998,988,16.57299404,-23.18976943,2.733509586,-15.03993086,25.63947738,9.475785072,379.6844323,158.5696038,34.98929217,-95.52241955,28.26635882,2.686219616,77.2776617,106.7905018,-51.00928752,-742.1518102
253.0879998,988,151.1967266,5.346380629,2.700768544,-121.9687736,-33.98634338,2.943385797,-105.9928265,-45.06567912,-58.38661473,-197.0066077,-21.88070683,2.653662059,-42.32217144,8.944536835,121.841117,868.4597233
253.0959998,988,-34.21163106,32.39897791,2.668084894,-7.635245824,90.43094128,80.16353609,53.85865369,19.55379422,62.60923238,-77.11144745,29.3240574,2.621162377,84.33520066,86.67931892,-139.4363866,-475.0299341
253.1039998,988,133.1833632,-31.75200479,2.635459239,-36.30742641,12.93361922,-9.712719024,310.9330094,146.9503626,-37.85605374,-186.6636613,-11.29529828,2.588721169,7.631952906,6.956415874,130.9622246,103.8151231
253.1119998,988,60.73863044,61.57475869,2.602892181,-51.63447462,19.81475064,76.29609365,-250.1837305,-104.6620598,6.752895574,-133.4471089,5.876475467,2.55633903,55.07610906,83.56903856,-8.924664623,507.8920778
253.1199998,988,35.90065227,-39.21117828,2.570384316,-29.91516546,29.00997292,-16.93443581,376.7265114,150.2940941,25.46731426,-101.8609424,20.86831262,2.524016549,97.62413982,86.70972538,-50.74372815,-731.0966274
253.1279998,988,174.4119083,45.84265391,2.537936238,-60.55958821,21.18035105,46.00966607,-78.28637909,-8.471718136,-55.23658081,-164.6877529,-20.71821597,2.491754314,16.71073866,10.28260964,135.4977089,898.8447346
253.1359998,988,-28.59297769,79.32742555,2.505548536,31.12433704,97.77817137,112.1617746,57.47001059,38.94936438,91.79342604,-2.066450996,61.38946785,2.459552907,93.64027049,183.3591026,-107.7195033,-465.3015994
253.1439998,988,140.8197804,-40.34077309,2.473221797,-32.2086911,-13.02744103,-23.48096551,290.1261308,130.8560476,-39.94733258,-158.2989854,-4.449369981,2.42741291,-20.75143244,25.61797641,122.8584699,90.56398936
253.1519998,988,72.01751453,56.07844944,2.440956603,-38.05403266,15.86114422,65.36161451,-254.859735,-109.4491834,6.911193412,-126.2613387,-3.538834875,2.395334895,98.91866937,53.18061394,-30.45205447,509.2860155
253.1599998,988,38.45815199,-37.547155,2.40875353,-26.33069735,18.98696048,-15.10681053,367.5560855,142.830404,38.53426162,-84.34446463,17.07758499,2.363319437,94.99999054,76.73979343,-56.14085582,-715.3222434
253.1679998,988,174.4546151,21.60556619,2.376613155,-72.75321636,-15.28725533,16.96543551,-104.5735313,-35.19958852,-81.54941761,-197.6947672,-40.96917558,2.331367102,-49.54129785,-55.41363009,108.3560525,899.763408
253.1759998,988,-18.90357327,73.67512492,2.344536047,30.89648772,90.34378819,95.95814127,53.48473761,35.91081343,80.06189422,-33.427968,60.25827081,2.299478455,150.4787534,129.2472221,-133.4920607,-467.879604
253.1839998,989,161.7339973,-17.79503006,2.312522773,1.893135618,38.88157648,12.50017526,311.8258246,154.8887519,-26.17180794,-128.4748125,20.834643,2.267654056,68.26530288,74.65233978,133.5776376,113.2561694
253.1919998,989,81.4150522,80.18113049,2.280573897,-2.695596014,49.90663372,90.99384192,-241.9276618,-94.49878286,-1.245731789,-100.6920957,21.13276428,2.235894463,79.32616897,92.31119446,-6.759631221,532.0418883
253.1999998,989,34.28822615,-4.250204228,2.248689978,12.7701448,27.06220483,7.490727885,382.021347,158.904255,48.99668537,-62.42572512,46.84284138,2.204200227,98.90342205,78.57983149,-42.87075393,-729.688516
253.2079998,989,178.1504143,29.11919131,2.216871571,-31.72475684,6.584399267,35.28565575,-87.44076647,-29.1795774,-61.47639159,-161.9837516,-18.45157339,2.172571899,17.85330039,9.539143267,120.7170775,880.8024143
253.2159998,989,-22.23303246,46.42256954,2.185119228,28.06824911,72.44113057,69.19268995,39.92403202,7.202141662,54.95957021,-49.02674692,44.91844552,2.141010023,151.0807789,142.9500404,-132.0959976,-455.9474026
253.2239998,989,146.6336865,-18.41813286,2.153433496,-12.77167966,-9.940776137,-13.78638669,284.7294675,125.402956,-41.13195687,-160.1221808,-5.871743215,2.109515142,28.22441605,-18.79755229,104.2329861,115.9212237
253.2319998,989,71.63057691,95.2748067,2.121814921,34.46670783,49.0760767,101.8030428,-246.9103299,-95.81151607,12.27630245,-80.71405831,21.98113947,2.078087792,93.89083484,77.27378966,-37.31916604,511.3032369
253.2399998,989,20.74462006,-16.17652069,2.090264042,46.61215728,44.98747387,12.12086676,377.4048695,158.5038111,38.96432357,-57.63969904,47.54080712,2.046728509,133.2967345,126.9385242,-57.52715645,-735.4505197
