Time:125Hz,Epoch,FP1,FP2,C3,C4,P7,P8,O1,O2,F7,F8,F3,F4,T7,T8,P3,P4,,,,
580.8079996,2268,-638.8308269,-60.85218693,1.13E-06,-59.71133034,5.67E-07,0.224018219,0.006625492,0.22839027,175.8920907,-118.3514316,-81.48820754,-325.6952051,69.70496333,-232.7067275,0.001199667,0.084310658,,,,
580.8159996,2268,-553.3760142,24.56099995,1.12E-06,50.23931185,5.65E-07,0.223528591,0.006611005,0.227902615,2.64272554,66.48643586,196.3772223,149.6844393,24.64918631,35.61820566,0.001196999,0.084128528,,,,
580.8239996,2268,-751.8690331,-61.52678578,1.12E-06,-119.130995,5.62E-07,0.2230352,0.006596407,0.227411081,-142.037424,88.14147917,-278.4381576,123.5295041,-118.9240572,112.4754788,0.001194312,0.083944974,,,,
580.8319996,2268,-445.7767343,-18.37999091,1.11E-06,24.71142517,5.60E-07,0.222538075,0.006581698,0.226915694,251.1407396,-130.0469946,263.5420262,-329.1137084,170.2055848,-281.4717789,0.001191605,0.083760006,,,,
580.8399996,2268,-723.1682936,-1.42252584,1.11E-06,-85.12638023,5.57E-07,0.222037242,0.00656688,0.226416482,-247.7725337,197.899906,-108.7957912,406.8399414,-127.2949046,260.8638393,0.001188878,0.083573635,,,,
580.8479996,2268,-564.7441278,-71.95176025,1.10E-06,-83.12259558,5.55E-07,0.221532728,0.006551953,0.225913473,160.4807962,-124.6787314,-27.36774833,-344.3708508,63.21057797,-251.6664469,0.001186132,0.083385869,,,,
580.8559996,2268,-484.6119755,16.60428655,1.10E-06,19.73046072,5.52E-07,0.221024559,0.006536918,0.225406693,3.035422059,43.36293685,246.4931448,96.9253454,45.39987219,-25.07416267,0.001183366,0.08319672,,,,
580.8639996,2269,-688.359742,-66.58658734,1.09E-06,-153.8617593,5.50E-07,0.220512763,0.006521775,0.22489617,-150.5330689,74.10788574,-230.9692358,87.47210419,-111.593999,55.5619156,0.001180581,0.083006198,,,,
580.8719996,2269,-378.5933134,-23.3708465,1.09E-06,-13.9172583,5.47E-07,0.219997367,0.006506526,0.22438193,264.4393263,-164.0434245,290.7267572,-390.9698471,165.4483335,-366.2562976,0.001177777,0.082814312,,,,
580.8799996,2269,-621.4008693,-23.15981709,1.08E-06,-99.29716149,5.45E-07,0.219478397,0.006491172,0.223864002,-229.7520694,166.6471957,-66.47742589,364.3747854,-124.169764,174.9859426,0.001174954,0.082621072,,,,
580.8879996,2269,-439.9936907,-95.77798777,1.08E-06,-84.78687058,5.42E-07,0.21895588,0.006475712,0.223342412,154.0358735,-125.4031395,51.30809585,-346.6039286,56.48342411,-293.7136631,0.001172112,0.082426489,,,,
580.8959996,2269,-358.308177,9.335203659,1.07E-06,11.9901373,5.40E-07,0.218429842,0.006460149,0.222817188,8.09133735,31.3152709,339.19911,78.46215691,38.02847883,-74.78924747,0.001169252,0.082230573,,,,
580.9039996,2269,-553.5499496,-84.08193352,1.07E-06,-145.4160606,5.37E-07,0.217900311,0.006444482,0.222288357,-148.9318194,63.84570093,-143.292951,96.06779254,-118.6033849,10.54122811,0.001166373,0.082033334,,,,
580.9119996,2269,-228.2954056,-36.64646684,1.06E-06,6.589841222,5.35E-07,0.217367314,0.006428713,0.221755945,260.4187551,-156.1676664,413.8067676,-365.1872464,158.5861314,-391.1992488,0.001163475,0.081834781,,,,
580.9199996,2269,-505.8904322,-5.004931356,1.06E-06,-106.1818477,5.32E-07,0.216830877,0.006412842,0.221219981,-222.5211035,163.1739495,41.24354842,372.6099283,-138.6906931,138.1073753,0.001160559,0.081634925,,,,
580.9279996,2269,-356.3876871,-92.61882121,1.05E-06,-104.9436509,5.30E-07,0.216291026,0.00639687,0.220680491,182.71463,-151.3247881,94.69681113,-359.5062724,44.03123945,-357.740603,0.001157626,0.081433776,,,,
580.9359996,2269,-252.3276642,-7.253025027,1.05E-06,13.24197174,5.27E-07,0.215747789,0.006380797,0.220137502,47.9653651,11.47799183,397.319801,67.01842317,40.60901697,-134.230834,0.001154674,0.081231344,,,,
580.9439996,2269,-455.5266839,-82.93852307,1.04E-06,-148.4096539,5.25E-07,0.215201193,0.006364626,0.219591042,-130.8418724,57.48336082,-92.49882737,97.64593732,-130.1030515,-23.13928896,0.001151704,0.081027639,,,,
580.9519996,2269,-164.9940502,-12.99706136,1.04E-06,-19.68792987,5.22E-07,0.214651263,0.006348356,0.219041138,285.8867658,-180.919472,427.2556498,-403.139089,146.704639,-447.8573762,0.001148717,0.080822671,,,,
580.9599996,2269,-454.3910032,21.92093835,1.03E-06,-127.3001432,5.20E-07,0.214098027,0.006331988,0.218487816,-193.765406,145.7533869,46.53407248,346.9467501,-136.756419,75.43845848,0.001145712,0.08061645,,,,
580.9679996,2269,-320.8387062,-64.32253822,1.03E-06,-123.392205,5.17E-07,0.213541511,0.006315523,0.217931104,190.0359181,-152.1348502,89.25309674,-360.4412839,47.70845576,-411.1579288,0.00114269,0.080408986,,,,
580.9759996,2269,-261.4517685,44.1192088,1.02E-06,-27.31721222,5.15E-07,0.212981742,0.006298963,0.217371029,62.09147858,-9.630264577,379.1226803,32.10911152,47.3970571,-223.8584589,0.001139651,0.080200289,,,,
580.9839996,2269,-487.2243069,-57.27397346,1.02E-06,-185.9780095,5.12E-07,0.212418746,0.006282306,0.216807618,-109.2785185,26.94197186,-144.5689996,64.42924338,-128.5885768,-137.0322098,0.001136595,0.079990369,,,,
580.9919996,2269,-167.3233039,-41.10611597,1.01E-06,-28.50902713,5.09E-07,0.21185255,0.006265555,0.216240897,302.5167612,-211.7131363,388.0959557,-436.4223823,150.604434,-572.5499773,0.001133521,0.079779236,,,,
580.9999996,2269,-478.5838109,14.53575237,1.01E-06,-151.3298614,5.07E-07,0.211283181,0.00624871,0.215670895,-195.58121,110.8121239,31.31794498,303.6596188,-134.2475257,-58.19215532,0.001130431,0.0795669,,,,
581.0079996,2269,-393.7192918,-50.91837549,1.00E-06,-168.9963198,5.04E-07,0.210710665,0.006231773,0.215097637,202.6574623,-205.1921426,28.64431587,-431.885091,46.92459309,-581.8175436,0.001127324,0.07935337,,,,
581.0159996,2269,-324.3104779,45.19505171,9.96E-07,-43.3330986,5.02E-07,0.210135029,0.006214742,0.214521151,94.92511952,-67.24767131,308.5209862,-47.43136006,50.9605243,-423.8438085,0.001124201,0.079138658,,,,
581.0239996,2269,-584.9556352,-33.53371196,9.91E-07,-205.556361,4.99E-07,0.209556298,0.006197621,0.213941464,-105.6189345,-14.39703708,-229.2221453,13.61754631,-135.3321564,-321.596779,0.001121061,0.078922773,,,,
581.0319996,2269,-289.4974077,-17.89152654,9.86E-07,-48.21681844,4.97E-07,0.208974501,0.006180409,0.213358602,306.9547086,-260.8996533,280.224153,-505.4198667,149.1111252,-768.9757641,0.001117905,0.078705724,,,,
581.0399996,2269,-577.3613894,10.24724884,9.81E-07,-134.6930384,4.94E-07,0.208389662,0.006163106,0.212772593,-206.0690621,74.53333684,-53.5616281,261.9470479,-134.5651786,-232.2891605,0.001114733,0.078487522,,,,
581.0479996,2269,-510.5798449,-64.30472493,9.76E-07,-160.5458912,4.91E-07,0.207801808,0.006145715,0.212183464,161.692529,-229.8470007,-61.89176482,-453.4743424,25.7528582,-727.3727302,0.001111545,0.078268177,,,,
581.0559996,2269,-444.6166563,25.52658901,9.71E-07,-46.40754447,4.89E-07,0.207210967,0.006128235,0.21159124,62.77834321,-107.1992643,223.0093831,-94.69298929,31.95376271,-585.5277115,0.001108341,0.078047698,,,,
581.0639996,2269,-699.213652,-55.58455919,9.66E-07,-205.305044,4.86E-07,0.206617164,0.006110668,0.210995949,-139.5170649,-48.57484164,-302.3668377,-3.088770182,-136.0482635,-460.8279545,0.001105121,0.077826096,,,,
581.0719996,2269,-394.5565526,-38.69303609,9.60E-07,-48.31306202,4.84E-07,0.206020425,0.006093014,0.210397618,294.6924871,-294.6886335,213.5922296,-519.0216381,155.5716931,-903.4780265,0.001101886,0.07760338,,,,
581.0799996,2269,-666.7961159,8.019397542,9.55E-07,-127.7177218,4.81E-07,0.205420777,0.006075274,0.209796274,-195.6751535,44.62709033,-109.2913641,255.1341682,-132.9693624,-368.1438006,0.001098635,0.07737956,,,,
581.0879996,2269,-591.0143724,-47.52227933,9.50E-07,-143.1096995,4.78E-07,0.204818246,0.006057448,0.209191943,181.3287683,-244.3613249,-122.6728731,-426.7147347,48.35379561,-828.4897591,0.00109537,0.077154647,,,,
581.0959996,2269,-485.092364,30.33146051,9.45E-07,-3.223984435,4.76E-07,0.204212859,0.006039539,0.208584652,98.77926481,-104.9052856,196.3083795,-51.18710725,71.98078598,-650.243519,0.001092089,0.076928649,,,,
581.1039996,2269,-709.5745947,-56.40598197,9.40E-07,-140.6390234,4.73E-07,0.203604641,0.006021545,0.207974427,-115.0544055,-16.29996656,-298.621494,81.75975471,-123.2104873,-462.0644351,0.001088793,0.076701578,,,,
581.1119996,2269,-416.5335835,-10.50128178,9.34E-07,5.86483962,4.71E-07,0.202993619,0.006003469,0.207361296,314.0134645,-266.6056113,212.7295811,-443.8722423,167.2266946,-877.76896,0.001085482,0.076473442,,,,
581.1199996,2270,-692.3898865,30.51802607,9.29E-07,-71.51421744,4.68E-07,0.202379819,0.00598531,0.206745284,-190.4964608,72.36570909,-113.4490397,328.6918495,-121.1319,-322.0368853,0.001082157,0.076244252,,,,
581.1279996,2270,-588.5135842,-66.99845308,9.24E-07,-58.38498076,4.65E-07,0.201763267,0.00596707,0.20612642,170.0880245,-192.0405051,-114.7604287,-318.9422447,36.29640685,-725.0225866,0.001078817,0.076014017,,,,
581.1359996,2270,-482.9726264,17.32800039,9.19E-07,81.11404624,4.63E-07,0.201143989,0.00594875,0.205504728,82.92263884,-55.54897832,223.1022231,36.68496789,61.12839779,-525.0468211,0.001075463,0.075782747,,,,
581.1439996,2270,-768.6130591,-49.51797437,9.14E-07,-93.28647843,4.60E-07,0.200522012,0.00593035,0.204880235,-157.6771198,28.52740596,-304.4678421,157.6715622,-143.8994754,-320.5530916,0.001072094,0.075550452,,,,
581.1519996,2270,-516.7909214,-13.26972688,9.09E-07,38.49306672,4.58E-07,0.199897361,0.00591187,0.204252969,288.4139662,-234.1341899,161.0212499,-396.0091497,144.159449,-738.4500596,0.001068711,0.075317143,,,,
581.1599996,2270,-794.4708651,16.68603291,9.03E-07,-15.85197964,4.55E-07,0.199270063,0.005893313,0.203622955,-200.2280228,110.5378739,-177.3488493,375.9589362,-137.3708015,-159.1496408,0.001065314,0.075082827,,,,
581.1679996,2270,-714.0443116,-79.34636272,8.98E-07,0.506975811,4.52E-07,0.198640143,0.005874678,0.202990221,141.8347831,-138.1011364,-193.1956866,-253.4894896,9.333791779,-507.1948309,0.001061904,0.074847517,,,,
581.1759996,2270,-641.6095216,24.06862148,8.93E-07,131.9574546,4.50E-07,0.198007627,0.005855966,0.202354791,69.64337954,-14.61423788,126.8381083,73.65916672,35.91035866,-293.9506786,0.00105848,0.07461122,,,,
581.1839996,2270,-946.9197066,-39.03648141,8.88E-07,-32.97975599,4.47E-07,0.197372541,0.005837178,0.201716693,-165.6640781,75.66460624,-428.9967401,204.2546295,-175.2408493,-66.64590284,0.001055042,0.074373947,,,,
581.1919996,2270,-693.5631255,-32.86547559,8.82E-07,113.4565233,4.45E-07,0.196734912,0.005818315,0.201075954,277.862627,-184.1103177,26.90130846,-354.3797939,113.1652113,-471.923018,0.001051591,0.074135708,,,,
581.1999996,2270,-981.9636497,-7.207876178,8.77E-07,51.27461174,4.42E-07,0.196094764,0.005799377,0.200432599,-219.5666155,159.5546391,-296.8969321,416.3658774,-164.9617554,123.9032784,0.001048126,0.073896512,,,,
581.2079996,2270,-946.1553459,-78.65194491,8.72E-07,28.59522241,4.39E-07,0.195452124,0.005780366,0.199786654,116.9816731,-97.52850648,-329.5294199,-215.5658484,-21.85506783,-230.2886653,0.001044648,0.073656369,,,,
581.2159996,2270,-889.908988,29.46242374,8.67E-07,141.1949939,4.37E-07,0.194807018,0.005761282,0.199138146,67.08614081,-0.539404138,-32.19691601,80.82740843,19.41745668,-68.40267688,0.001041158,0.073415288,,,,
581.2239996,2270,-1190.317757,-30.17774876,8.62E-07,-26.69291575,4.34E-07,0.194159471,0.005742126,0.198487101,-168.1303645,93.83554709,-595.6096218,233.6872548,-190.0974168,155.2128421,0.001037654,0.07317328,,,,
581.2319996,2270,-918.9082487,-10.78157617,8.56E-07,125.6755487,4.31E-07,0.193509509,0.005722898,0.197833546,290.3588842,-161.7972864,-118.5297992,-322.8286591,105.6954458,-261.5721842,0.001034138,0.072930354,,,,
581.2399996,2270,-1191.940252,23.10789365,8.51E-07,63.04303965,4.29E-07,0.192857157,0.0057036,0.197177505,-190.1005856,180.7805345,-421.3106137,443.4631094,-153.7389777,306.2388621,0.001030609,0.07268652,,,,
581.2479996,2270,-1162.515422,-54.52718095,8.46E-07,14.39275406,4.26E-07,0.192202442,0.005684231,0.196519006,138.2315861,-83.78704157,-466.8891418,-205.2604196,-7.694950503,-84.69115344,0.001027067,0.072441787,,,,
581.2559996,2270,-1073.339329,28.62267303,8.41E-07,134.8659923,4.24E-07,0.191545389,0.005664794,0.195858075,80.86390871,-0.101136186,-150.1194339,57.27473688,38.81223527,29.65853922,0.001023513,0.072196165,,,,
581.2639996,2270,-1343.482031,-44.84786185,8.35E-07,-33.68127481,4.21E-07,0.190886023,0.005645288,0.195194737,-185.5161162,99.94995071,-682.631994,224.917999,-173.7130507,240.5929559,0.001019947,0.071949664,,,,
581.2719996,2270,-1075.750558,-13.69149854,8.30E-07,83.67064965,4.18E-07,0.19022437,0.005625715,0.194529018,269.5155524,-175.6056639,-194.2065298,-364.2493483,122.565635,-226.3003592,0.001016369,0.071702293,,,,
581.2799996,2270,-1338.185761,34.48309694,8.25E-07,17.73875927,4.16E-07,0.189560455,0.005606075,0.193860945,-205.6561181,153.6554482,-501.0729413,376.1751782,-140.8855617,292.6840816,0.001012779,0.071454061,,,,
581.2879996,2270,-1294.318731,-38.92279009,8.20E-07,-27.73921071,4.13E-07,0.188894304,0.005586368,0.193190543,113.5427081,-99.07451948,-547.5908577,-255.7309626,-7.636345427,-110.2356981,0.001009178,0.071204979,,,,
581.2959996,2270,-1192.997138,37.79711578,8.15E-07,93.85950631,4.10E-07,0.188225942,0.005566597,0.192517838,78.78775628,-13.90239878,-207.0003788,2.678862785,53.5503088,-18.48343894,0.001005564,0.070955055,,,,
581.3039996,2270,-1445.638609,-48.89227731,8.09E-07,-57.94709671,4.08E-07,0.187555395,0.00554676,0.191842856,-181.1650717,100.3253694,-738.6371972,184.5942247,-161.0411054,198.2828941,0.001001939,0.0707043,,,,
581.3119996,2270,-1168.185446,-17.13892334,8.04E-07,61.1421999,4.05E-07,0.186882687,0.00552686,0.191165622,267.7140855,-170.3951265,-225.6554783,-408.9247129,123.0362648,-264.0054764,0.000998303,0.070452723,,,,
581.3199996,2270,-1424.606345,21.25011055,7.99E-07,-6.377425654,4.03E-07,0.186207845,0.005506897,0.190486163,-208.7189875,152.6629445,-512.2196556,329.4794921,-128.7649049,251.2569088,0.000994656,0.070200333,,,,
581.3279996,2270,-1368.218793,-65.88496984,7.93E-07,-47.66223476,4.00E-07,0.185530893,0.005486871,0.189804504,113.2424215,-100.4616076,-568.6541657,-295.7461697,6.347598215,-145.7250188,0.000990997,0.06994714,,,,
581.3359996,2270,-1284.520741,51.85779286,7.88E-07,52.81202156,3.97E-07,0.184851856,0.005466784,0.189120671,90.13593433,-26.40153196,-213.1134381,-52.16170025,63.21070411,-65.3558263,0.000987328,0.069693154,,,,
581.3439996,2270,-1549.441537,-21.23266355,7.83E-07,-106.7701031,3.95E-07,0.18417076,0.005446636,0.188434688,-166.3687319,83.13440581,-774.2004653,141.9293114,-152.5077896,136.193536,0.000983647,0.069438383,,,,
581.3519996,2270,-1248.453802,-13.81769999,7.78E-07,28.07777727,3.92E-07,0.183487629,0.005426428,0.187746583,292.2307974,-184.8006223,-272.1076113,-441.7914929,135.272696,-341.8923488,0.000979956,0.069182837,,,,
581.3599996,2270,-1522.234756,48.17146983,7.73E-07,-54.95819133,3.89E-07,0.182802489,0.00540616,0.18705638,-189.6168174,142.8375929,-545.8559439,314.8651781,-113.6169483,170.463065,0.000976254,0.068926526,,,,
581.3679996,2270,-1454.010667,-45.62364008,7.67E-07,-85.10013657,3.87E-07,0.182115365,0.005385834,0.186364105,132.5976494,-103.6067865,-613.2873965,-283.1110056,21.35299554,-226.8096617,0.000972542,0.068669459,,,,
581.3759996,2271,-1317.877228,44.5712395,7.62E-07,51.40771007,3.84E-07,0.181426281,0.005365449,0.185669782,110.2601088,-20.71173412,-212.3942716,-24.25588093,79.24127838,-135.1875863,0.00096882,0.068411646,,,,
581.3839996,2271,-1596.888617,-10.53673943,7.57E-07,-124.4295581,3.81E-07,0.180735263,0.005345008,0.184973439,-174.9581507,93.13978387,-757.8621992,181.8538333,-132.6995434,88.74370709,0.000965087,0.068153095,,,,
581.3919996,2271,-1287.576143,-2.929078101,7.52E-07,12.82465106,3.79E-07,0.180042335,0.00532451,0.184275099,289.1685907,-181.7876839,-253.9538183,-416.8928445,166.4549973,-400.2075309,0.000961345,0.067893817,,,,
581.3999996,2271,-1527.157046,44.63005141,7.47E-07,-50.84598209,3.76E-07,0.179347523,0.005303956,0.183574789,-198.6083199,156.1780667,-496.5243983,356.3231329,-102.7574418,126.0802256,0.000957592,0.067633819,,,,
581.4079996,2271,-1474.027537,-51.41083674,7.41E-07,-101.218138,3.74E-07,0.17865085,0.005283348,0.182872533,102.5414262,-93.29330144,-587.3147314,-248.7802953,9.28065701,-262.9697642,0.00095383,0.067373113,,,,
581.4159996,2271,-1324.641842,29.38397527,7.36E-07,44.11111158,3.71E-07,0.177952342,0.005262685,0.182168356,88.64447448,-16.24095183,-185.8816747,-16.1034212,65.8229536,-179.5322871,0.000950058,0.067111707,,,,
581.4239996,2271,-1566.494887,-33.01728178,7.31E-07,-107.1226208,3.68E-07,0.177252024,0.005241968,0.181462284,-201.0926065,124.3854357,-717.5249918,226.5581795,-168.3403629,82.86929491,0.000946276,0.06684961,,,,
581.4319996,2271,-1230.987552,-29.35310855,7.26E-07,35.84720718,3.66E-07,0.176549919,0.005221199,0.180754342,277.1557854,-151.3434105,-211.9799713,-378.1463192,134.0337886,-388.3675481,0.000942486,0.066586832,,,,
581.4399996,2271,-1439.346495,17.5170086,7.20E-07,-13.32245712,3.63E-07,0.175846053,0.005200378,0.180044554,-206.4558456,183.0864252,-429.2543962,395.7606221,-117.5176145,163.7510381,0.000938686,0.066323381,,,,
581.4479996,2271,-1366.392695,-61.35501061,7.15E-07,-63.09853095,3.61E-07,0.17514045,0.005179505,0.179332947,88.85272259,-55.51454501,-509.2100403,-191.5635995,1.465026808,-193.3654944,0.000934876,0.066059268,,,,
581.4559996,2271,-1214.660201,52.10453367,7.10E-07,67.4736138,3.58E-07,0.174433134,0.005158582,0.178619544,99.10034046,13.5513488,-93.12882685,22.19421774,83.63538112,-121.9995049,0.000931058,0.065794501,,,,
581.4639996,2271,-1450.861855,-5.473582204,7.05E-07,-81.14711102,3.55E-07,0.17372413,0.005137609,0.177904371,-189.3084782,153.754197,-627.6068501,283.4071274,-142.0561809,147.2647325,0.000927231,0.06552909,,,,
581.4719996,2271,-1076.514541,-23.39282492,7.00E-07,81.91911208,3.53E-07,0.173013463,0.005116586,0.177187452,293.1401173,-117.2247896,-103.4234212,-315.0559613,158.1345185,-313.7045049,0.000923396,0.065263043,,,,
581.4799996,2271,-1254.668521,17.6453248,6.94E-07,42.32120768,3.50E-07,0.172301156,0.005095515,0.176468812,-196.0842764,224.8251515,-281.2714445,458.0380012,-102.26971,247.6953154,0.000919552,0.06499637,,,,
581.4879996,2271,-1161.200216,-82.52023613,6.89E-07,-4.03787218,3.48E-07,0.171587233,0.005074397,0.175748477,79.60073638,-12.28638956,-354.2850184,-123.205172,2.667909443,-98.0213985,0.000915699,0.06472908,,,,
581.4959996,2271,-966.1038009,8.469607591,6.84E-07,135.7160187,3.45E-07,0.17087172,0.005053231,0.17502647,92.41380028,48.71320682,94.88826295,77.29013363,90.79179976,-24.00857597,0.000911838,0.064461182,,,,
581.5039996,2271,-1202.496011,-21.34252283,6.79E-07,-34.93152591,3.42E-07,0.17015464,0.005032019,0.174302816,-205.5974357,189.6423157,-430.1444297,340.1498316,-140.7817291,262.2769473,0.000907969,0.064192685,,,,
581.5119996,2271,-828.3587751,-26.4549328,6.73E-07,109.7872181,3.40E-07,0.169436018,0.005010762,0.17357754,295.1632156,-98.77676304,78.00248265,-283.4426353,165.7867173,-222.4849701,0.000904091,0.063923598,,,,
581.5199996,2271,-952.6207895,-6.452046439,6.68E-07,94.85171981,3.37E-07,0.168715876,0.00498946,0.172850667,-175.6496501,245.3552582,-81.95003606,498.1040948,-75.19422843,335.1225028,0.000900206,0.063653931,,,,
581.5279996,2271,-831.2477083,-84.29766668,6.63E-07,49.56401597,3.34E-07,0.16799424,0.004968113,0.17212222,100.7257101,28.94305454,-134.6091679,-57.38626997,31.67754503,26.91441329,0.000896313,0.063383692,,,,
581.5359996,2271,-620.6719245,22.70620571,6.58E-07,185.4158164,3.32E-07,0.167271133,0.004946723,0.171392225,141.3477469,85.60213769,334.7729298,125.5855164,127.9671622,95.01870964,0.000892412,0.06311289,,,,
581.5439996,2271,-830.3138058,-36.12111289,6.53E-07,36.09248927,3.29E-07,0.166546579,0.00492529,0.170660705,-170.6793795,238.2349393,-185.2213426,401.6601116,-108.5077464,389.9263213,0.000888504,0.062841534,,,,
581.5519996,2271,-444.1126329,-32.74226435,6.48E-07,184.339125,3.27E-07,0.165820603,0.004903815,0.169927685,306.6964454,-44.38268554,336.2855484,-234.6933154,187.6270335,-84.88029961,0.000884588,0.062569634,,,,
581.5599996,2271,-612.3751365,22.63220605,6.42E-07,136.7610984,3.24E-07,0.165093227,0.004882299,0.169193189,-168.2901015,288.7829478,170.2169391,521.2600447,-63.25725784,456.7491784,0.000880665,0.062297198,,,,
581.5679996,2271,-565.3830476,-63.46238856,6.37E-07,55.44530643,3.21E-07,0.164364475,0.004860742,0.168457241,89.47094108,50.62195079,48.10957947,-61.35960531,30.79779028,109.851341,0.000876735,0.062024235,,,,
581.5759996,2271,-379.804758,21.05737968,6.32E-07,190.7177782,3.19E-07,0.163634372,0.004839145,0.167719866,116.1805876,78.83104261,481.9888972,84.59410581,115.3871621,135.6331562,0.000872798,0.061750754,,,,
581.5839996,2271,-639.2209815,-43.8060031,6.27E-07,19.63741349,3.16E-07,0.16290294,0.004817509,0.166981088,-214.8802553,221.4035459,-68.09187082,365.8165887,-148.2815965,429.2056681,0.000868853,0.061476764,,,,
581.5919996,2271,-316.2028502,-55.9555914,6.22E-07,135.4020093,3.14E-07,0.162170204,0.004795834,0.16624093,265.7203076,-89.62017714,403.0859242,-299.7707285,153.9055278,-75.974386,0.000864903,0.061202274,,,,
581.5999996,2271,-621.8949916,28.41737743,6.16E-07,76.20813843,3.11E-07,0.161436186,0.004774122,0.165499416,-479.0785541,423.5007367,103.4751514,897.8342609,-225.8005987,755.2452566,0.000860945,0.060927292,,,,
581.6079996,2271,-777.2078161,-52.11461207,6.11E-07,-65.87514435,3.09E-07,0.160700911,0.004752372,0.164756571,-514.4622722,384.4157491,-321.0704177,741.7431421,-323.6417797,727.3600742,0.000856981,0.060651828,,,,
581.6159996,2271,-354.0934771,-38.88894053,6.06E-07,108.1177152,3.06E-07,0.159964401,0.004730586,0.164012419,138.24223,-14.53689474,345.5362507,-113.3604763,86.28523296,50.45449915,0.00085301,0.06037589,,,,
581.6239996,2271,-429.5369216,-28.29068324,6.01E-07,48.43679873,3.03E-07,0.15922668,0.004708764,0.163266982,41.18656984,21.81755898,213.8349164,-19.09433588,11.12394686,127.0916379,0.000849033,0.060099488,,,,
581.6319996,2272,-442.9906805,-0.75016397,5.96E-07,48.4990563,3.01E-07,0.158487772,0.004686907,0.162520285,-20.68982904,71.04964621,195.464144,109.7715416,-23.64252711,201.8517313,0.00084505,0.059822629,,,,
581.6399996,2272,-442.1673471,-20.55410755,5.91E-07,34.34658234,2.98E-07,0.157747698,0.004665015,0.161772352,-36.95377686,68.97680282,123.2925584,95.9691884,-42.88216181,205.1500268,0.000841061,0.059545322,,,,
581.6479996,2272,-348.4480583,-25.02677968,5.86E-07,49.3064819,2.96E-07,0.157006483,0.00464309,0.161023206,128.4082156,-54.76684718,250.4404854,-167.68439,53.04632129,9.03317218,0.000837066,0.059267577,,,,
581.6559996,2272,-448.0697041,4.430791008,5.81E-07,39.99563501,2.93E-07,0.15626415,0.004621132,0.16027287,-122.8419738,123.2096531,169.9425142,257.2136737,-68.45520651,289.6140325,0.000833065,0.058989402,,,,
581.6639996,2272,-430.6484945,-57.31162122,5.75E-07,-7.618541268,2.90E-07,0.155520721,0.004599141,0.159521369,49.94421672,-25.64051456,73.47589564,-123.1723756,-11.50511886,59.7163128,0.000829059,0.058710805,,,,
581.6719996,2272,-354.2168113,13.12722679,5.70E-07,64.23289586,2.88E-07,0.15477622,0.004577119,0.158768725,70.89125473,-0.108936222,342.8394382,-17.96879598,45.46995985,67.85701094,0.000825047,0.058431796,,,,
581.6799996,2272,-560.2877418,-35.91567984,5.65E-07,-53.68959002,2.85E-07,0.154030669,0.004555065,0.158014962,-163.620995,114.8400439,-77.286272,201.4939181,-126.3834493,271.4086573,0.000821029,0.058152383,,,,
581.6879996,2272,-350.1463836,-40.27467242,5.60E-07,18.53864461,2.83E-07,0.153284092,0.004532982,0.157260103,229.7997902,-136.2014126,238.929712,-362.1956558,103.813562,-155.0004691,0.000817007,0.057872573,,,,
581.6959996,2272,-549.683449,16.54702181,5.55E-07,-22.18475847,2.80E-07,0.15253651,0.004510868,0.156504172,-144.0253838,128.1925663,68.12072647,253.1857106,-102.9481352,253.8435826,0.000812979,0.057592378,,,,
581.7039996,2272,-550.2184788,-69.21182542,5.50E-07,-90.00501258,2.78E-07,0.151787948,0.004488726,0.155747192,65.89561756,-49.12501143,-120.5135222,-208.4396304,-40.67331245,-41.61796322,0.000808946,0.057311803,,,,
581.7119996,2272,-403.6523275,17.13967201,5.45E-07,32.24623396,2.75E-07,0.151038426,0.004466555,0.154989185,128.5401589,-27.44372643,270.5718533,-98.00437047,64.38298383,-61.07067004,0.000804908,0.057030859,,,,
581.7199996,2272,-667.2207107,-29.33364576,5.40E-07,-115.2790019,2.73E-07,0.150287969,0.004444357,0.154230175,-187.9700351,130.3987514,-252.2463567,228.8480417,-170.8770936,227.2212044,0.000800865,0.056749553,,,,
581.7279996,2272,-377.749874,-37.47899558,5.35E-07,-2.847246167,2.70E-07,0.149536598,0.004422131,0.153470185,273.8502206,-155.5096127,154.1469068,-398.7696499,113.7103494,-263.6583753,0.000796817,0.056467895,,,,
581.7359996,2272,-548.5736972,28.75067235,5.30E-07,-18.66094688,2.67E-07,0.148784336,0.00439988,0.152709238,-150.8868707,153.5788004,18.79306898,320.7738749,-93.73782248,222.1165553,0.000792765,0.056185892,,,,
581.7439996,2272,-542.6768515,-54.00898941,5.24E-07,-88.61332529,2.65E-07,0.148031206,0.004377602,0.151947356,72.76042075,-42.03271528,-174.0196773,-172.8492665,-26.32108552,-77.7101457,0.000788709,0.055903553,,,,
581.7519996,2272,-348.827328,17.78309812,5.19E-07,64.98999298,2.62E-07,0.147277229,0.0043553,0.151184563,157.756654,-28.87033324,271.1040923,-76.64304556,97.36341818,-111.6714666,0.000784648,0.055620887,,,,
581.7599996,2272,-584.7065493,-50.75228586,5.14E-07,-69.79584414,2.60E-07,0.146522429,0.004332973,0.150420882,-197.2066563,159.0400858,-249.5460126,293.6615408,-151.833045,224.9726423,0.000780583,0.055337901,,,,
581.7679996,2272,-267.9521828,-45.86092016,5.09E-07,34.28742902,2.57E-07,0.145766826,0.004310623,0.149656334,286.1152557,-150.8616017,190.6836185,-392.1822395,145.1935076,-285.5422537,0.000776514,0.055054605,,,,
581.7759996,2272,-435.4018906,18.95960687,5.04E-07,-0.808415047,2.55E-07,0.145010444,0.004288249,0.148890942,-144.41761,152.6089199,47.90674354,329.8247391,-75.92043425,204.5184375,0.00077244,0.054771006,,,,
581.7839996,2272,-376.8222063,-102.0786361,4.99E-07,-60.35665336,2.52E-07,0.144253304,0.004265853,0.14812473,82.05642986,-36.97964197,-137.6506668,-151.0593287,-15.64838557,-83.68801383,0.000768363,0.054487113,,,,
581.7919996,2272,-122.4308701,-18.22734126,4.94E-07,102.3741384,2.50E-07,0.143495429,0.004243436,0.147357719,165.1422399,-14.65499719,371.3033208,-47.42866521,104.1139887,-91.11203421,0.000764283,0.054202933,,,,
581.7999996,2272,-367.8738068,-50.10201411,4.89E-07,-60.23119985,2.47E-07,0.14273684,0.004220997,0.146589932,-214.038215,184.6175145,-136.6716185,340.3296518,-165.2916893,273.3466057,0.000760198,0.053918477,,,,
581.8079996,2272,-22.16399535,-61.64067452,4.84E-07,56.00773397,2.45E-07,0.141977559,0.004198538,0.145821391,290.7687312,-128.6136276,306.3936646,-364.4775226,150.6839538,-259.541708,0.00075611,0.053633751,,,,
581.8159996,2272,-147.3028901,0.204815149,4.79E-07,44.60660564,2.42E-07,0.141217608,0.004176059,0.145052119,-149.1608848,194.9545934,212.5940441,377.0558892,-64.65759515,253.2407285,0.000752019,0.053348764,,,,
581.8239996,2272,-127.5760884,-80.26954921,4.74E-07,-48.69377164,2.40E-07,0.140457009,0.004153561,0.144282138,40.37418703,7.66002397,29.59708205,-113.4486552,-24.07661247,-20.00471502,0.000747924,0.053063524,,,,
581.8319996,2272,107.9929756,8.69682567,4.69E-07,103.3763699,2.37E-07,0.139695783,0.004131045,0.14351147,144.1574155,4.056471456,501.5214104,-58.91299511,121.4327083,-72.64880944,0.000743826,0.052778039,,,,
581.8399996,2272,-96.45986437,-49.98800201,4.64E-07,-28.86308766,2.35E-07,0.138933953,0.00410851,0.142740136,-221.0890577,220.5137312,2.152108208,367.8907665,-127.9906149,315.2934682,0.000739726,0.052492318,,,,
581.8479996,2272,266.0828018,-47.26039814,4.59E-07,85.72316922,2.32E-07,0.138171539,0.004085959,0.14196816,286.2551723,-86.70221975,469.3113488,-320.4655963,171.9779539,-196.1801347,0.000735622,0.052206368,,,,
581.8559996,2272,127.1584101,36.74004142,4.54E-07,64.15919157,2.29E-07,0.137408563,0.004063391,0.141195563,-132.4049119,219.7491306,357.6882207,411.7503479,-40.10818917,302.0710187,0.000731515,0.051920197,,,,
581.8639996,2272,163.4946065,-62.76343808,4.49E-07,-5.769040348,2.27E-07,0.136645047,0.004040806,0.140422366,65.36207087,40.69645784,165.2389206,-53.0563966,7.333695032,53.35838526,0.000727406,0.051633814,,,,
581.8719996,2272,429.7620693,11.49133946,4.44E-07,169.4166446,2.25E-07,0.135881011,0.004018207,0.139648592,166.0312198,45.20964211,682.2786468,7.122400759,134.1009562,19.61529319,0.000723294,0.051347227,,,,
581.8799996,2272,174.4665579,-44.53663576,4.39E-07,12.32691985,2.22E-07,0.135116478,0.003995593,0.138874263,-231.0833419,255.2560059,170.2431341,424.4817089,-138.8116627,409.9311643,0.00071918,0.051060444,,,,
581.8879996,2273,454.5727056,-35.75016529,4.34E-07,91.97951303,2.20E-07,0.134351468,0.003972964,0.138099399,257.8711589,-82.76492159,575.0309938,-321.0772587,153.8755644,-133.7375502,0.000715063,0.050773472,,,,
581.8959996,2273,202.3387598,41.05697141,4.29E-07,46.05500878,2.17E-07,0.133586002,0.003950323,0.137324023,-352.5763147,340.1214453,307.061105,665.5645058,-182.2804025,561.4605289,0.000710944,0.05048632,,,,
581.9039996,2273,211.2080312,-99.55261117,4.25E-07,-50.46864261,2.15E-07,0.132820102,0.003927668,0.136548157,-131.0702011,124.2818623,29.89849126,90.79573475,-141.8817293,268.9229285,0.000706823,0.050198995,,,,
581.9119996,2273,653.1704661,-0.309337431,4.20E-07,206.0903431,2.12E-07,0.132053788,0.003905001,0.135771821,374.7349897,-140.135549,867.0954531,-406.7596533,241.4044483,-212.9117074,0.0007027,0.049911506,,,,
581.9199996,2273,242.1135995,-24.09267484,4.15E-07,51.22911085,2.10E-07,0.131287081,0.003882323,0.134995037,-342.4586056,310.7282537,182.0735869,589.6267791,-207.2793487,559.2099081,0.000698575,0.04962386,,,,
581.9279996,2273,482.7752126,-112.9087495,4.10E-07,83.84123791,2.07E-07,0.130520003,0.003859634,0.134217826,164.5950737,-59.96317245,395.5907202,-287.0149295,55.08262035,-9.454199533,0.000694448,0.049336065,,,,
581.9359996,2273,525.0632305,4.642289316,4.05E-07,180.3215295,2.05E-07,0.129752574,0.003836934,0.13344021,38.42572519,67.74834797,698.6152373,95.80513042,51.54045427,182.3420634,0.000690319,0.04904813,,,,
581.9439996,2273,208.8769795,-59.06597599,4.00E-07,-19.16934364,2.02E-07,0.128984814,0.003814225,0.13266221,-243.5994694,179.4474342,46.88281885,293.9661998,-199.4329843,430.1222071,0.000686189,0.048760061,,,,
581.9519996,2273,561.3613224,-20.77468842,3.95E-07,150.0846239,2.00E-07,0.128216745,0.003791506,0.131883846,288.4896464,-129.7706216,610.3609608,-376.4927512,151.7820601,-102.8339915,0.000682058,0.048471867,,,,
581.9599996,2273,330.9338008,0.323010377,3.90E-07,114.1014274,1.97E-07,0.127448387,0.003768779,0.13110514,-215.0032008,229.3854445,310.0119659,437.42829,-120.6516761,477.6535488,0.000677925,0.048183555,,,,
581.9679996,2273,364.0954231,-87.11283655,3.85E-07,51.16069062,1.95E-07,0.12667976,0.003746044,0.130326114,40.05735862,1.043965039,210.903628,-133.213981,-27.55413202,141.4635662,0.000673791,0.047895134,,,,
581.9759996,2273,496.3108236,13.70404046,3.81E-07,169.5065158,1.93E-07,0.125910885,0.003723302,0.129546786,94.44536214,15.79315316,610.216546,-35.85983056,81.07792843,123.8417237,0.000669655,0.04760661,,,,
581.9839996,2273,188.2998741,-40.8889683,3.76E-07,1.623225499,1.90E-07,0.125141782,0.003700553,0.12876718,-254.6111165,196.2777423,31.74324801,325.8828191,-176.039217,455.3718417,0.000665519,0.047317992,,,,
581.9919996,2273,453.3203363,-41.09375949,3.71E-07,96.43394504,1.88E-07,0.124372472,0.003677797,0.127987315,240.0816749,-137.3129874,449.5771613,-397.6774012,123.0036548,-91.78908294,0.000661381,0.047029287,,,,
581.9999996,2273,235.2105563,33.77932928,3.66E-07,53.34513619,1.85E-07,0.123602974,0.003655037,0.127207211,-187.7771546,158.183689,276.5149378,309.549581,-82.6925824,375.2261249,0.000657243,0.046740502,,,,
582.0079996,2273,173.7803857,-47.07128036,3.61E-07,-52.22775369,1.83E-07,0.122833309,0.003632271,0.126426891,7.175235595,-35.68565572,25.08574086,-170.3899887,-32.52113507,77.38126295,0.000653104,0.046451646,,,,
582.0159996,2273,359.855899,19.3500329,3.57E-07,100.9387853,1.80E-07,0.122063497,0.003609501,0.125646373,145.7304241,-66.84865496,459.5572618,-165.493394,101.8313642,-31.49469363,0.000648965,0.046162726,,,,
582.0239996,2273,67.35152967,-29.75364534,3.52E-07,-43.55916983,1.78E-07,0.121293558,0.003586728,0.124865679,-252.2481731,162.1627664,-65.92483931,293.6348638,-176.0322633,352.2644887,0.000644825,0.045873749,,,,
582.0319996,2273,333.6758447,-49.09846937,3.47E-07,48.00381395,1.76E-07,0.120523512,0.003563951,0.124084828,224.9822251,-163.0856004,319.469761,-441.1153144,115.9656277,-203.5817289,0.000640685,0.045584723,,,,
582.0399996,2273,176.2199766,13.80749047,3.42E-07,47.45969203,1.73E-07,0.119753378,0.003541171,0.123303842,-179.1351403,122.6163327,224.0211034,256.6869209,-83.98943562,240.8995622,0.000636544,0.045295656,,,,
582.0479996,2273,119.7725085,-69.0746754,3.37E-07,-53.77444811,1.71E-07,0.118983177,0.00351839,0.122522741,-15.39296351,-35.33205918,-27.52668478,-160.4808598,-60.3713091,-0.692250236,0.000632403,0.045006555,,,,
582.0559996,2273,324.3577064,15.10044468,3.33E-07,91.82688513,1.69E-07,0.118212927,0.003495607,0.121741544,148.1552522,-79.94417781,461.3138128,-193.412596,121.89562,-132.0751621,0.000628262,0.044717426,,,,
582.0639996,2273,5.245661501,-7.627853403,3.28E-07,-74.70633658,1.66E-07,0.11744265,0.003472824,0.120960271,-259.638054,138.1867816,-84.74760233,280.2558656,-149.5880527,258.6039481,0.000624122,0.044428279,,,,
582.0719996,2273,255.1118836,-16.85616443,3.23E-07,1.720840228,1.64E-07,0.116672363,0.00345004,0.120178943,253.6411344,-199.6631412,259.326489,-480.6319236,139.2685867,-313.3365349,0.000619981,0.044139119,,,,
582.0799996,2273,129.1155704,26.56615404,3.18E-07,16.74948369,1.61E-07,0.115902087,0.003427257,0.11939758,-131.0967425,92.35292436,197.6860438,217.0524886,-48.61679296,124.2351696,0.00061584,0.043849955,,,,
582.0879996,2273,85.50361171,-83.68483616,3.14E-07,-82.00778523,1.59E-07,0.115131842,0.003404474,0.118616201,-4.485281176,-51.75826036,-59.33081844,-168.8018829,-45.95966776,-86.87776157,0.0006117,0.043560794,,,,
582.0959996,2273,276.4293724,33.85169366,3.09E-07,41.91726925,1.57E-07,0.114361645,0.003381693,0.117834826,181.622398,-114.3667514,440.3712157,-243.3565954,133.5690419,-246.2706176,0.000607561,0.043271643,,,,
582.1039996,2273,-52.45237548,22.74132234,3.04E-07,-129.2851834,1.54E-07,0.113591518,0.003358914,0.117053476,-217.5651501,106.4587446,-121.2285932,240.346028,-139.2465241,122.0663313,0.000603421,0.042982508,,,,
582.1119996,2273,239.2867801,-20.8252554,3.00E-07,-24.81434757,1.52E-07,0.112821478,0.003336138,0.116272168,283.059448,-217.3313998,251.1664844,-491.0620866,160.2090234,-442.9190052,0.000599283,0.042693399,,,,
582.1199996,2273,93.32558608,61.35278132,2.95E-07,-29.91720944,1.49E-07,0.112051545,0.003313365,0.115490924,-108.2766292,69.37472394,232.5971063,196.9211537,-17.7105845,-13.06640791,0.000595145,0.042404321,,,,
582.1279996,2273,-9.02521617,-32.40871361,2.90E-07,-164.5121416,1.47E-07,0.111281738,0.003290595,0.114709762,20.84800893,-98.72773482,-92.19381475,-220.7836728,-19.3425989,-278.2859274,0.000591008,0.042115282,,,,
582.1359996,2273,239.7531372,10.70025023,2.86E-07,-0.457503608,1.45E-07,0.110512075,0.00326783,0.113928702,213.0702466,-162.0847574,428.9934391,-304.7000686,170.9884732,-464.0514794,0.000586872,0.041826289,,,,
582.1439996,2274,-64.49711684,-25.41272167,2.81E-07,-172.8865979,1.43E-07,0.109742577,0.00324507,0.113147764,-226.5102572,81.11111547,-71.22443489,196.2736225,-120.0853992,-67.92312783,0.000582737,0.041537349,,,,
582.1519996,2274,170.055832,-38.64449412,2.76E-07,-137.2050887,1.40E-07,0.108973261,0.003222315,0.112366966,265.4984887,-280.7799362,258.3004691,-618.2175881,161.296398,-701.9350549,0.000578604,0.041248469,,,,
582.1599996,2274,27.09161577,37.76277742,2.72E-07,-153.9315238,1.38E-07,0.108204146,0.003199566,0.111586327,-107.9708933,-27.61843936,214.2429635,2.36148155,-7.597242912,-354.65138,0.000574471,0.040959657,,,,
582.1679996,2274,-59.21659933,-68.25670403,2.67E-07,-277.0013903,1.36E-07,0.107435251,0.003176824,0.110805867,2.727265141,-180.0935614,-106.7514553,-386.9201296,-15.31637029,-614.8738656,0.00057034,0.040670919,,,,
582.1759996,2274,193.1086197,-8.057085036,2.63E-07,-98.76349984,1.33E-07,0.106666595,0.003154088,0.110025605,186.6461856,-238.4113901,419.208576,-436.529116,165.0676645,-783.3203953,0.00056621,0.040382262,,,,
582.1839996,2274,-96.70695006,-33.61829516,2.58E-07,-232.551701,1.31E-07,0.105898195,0.003131361,0.10924556,-268.6667934,27.91508613,-86.32156768,144.4744295,-139.2644296,-325.8181439,0.000562082,0.040093693,,,,
582.1919996,2274,139.1266199,-44.78684102,2.53E-07,-174.1969661,1.29E-07,0.105130071,0.003108641,0.10846575,223.7568387,-313.5456015,244.9645904,-622.6105393,143.005815,-912.0740348,0.000557956,0.03980522,,,,
582.1999996,2274,17.71535009,29.19988631,2.49E-07,-148.3609421,1.26E-07,0.10436224,0.00308593,0.107686194,-142.963568,-36.36446683,229.1018376,50.68934524,-20.34643708,-517.8108874,0.000553831,0.039516848,,,,
582.2079996,2274,-38.6741499,-80.83264822,2.44E-07,-230.9984596,1.24E-07,0.103594721,0.003063229,0.106906911,-51.85698826,-146.615562,-82.77159049,-251.1863849,-49.06050851,-672.3763125,0.000549708,0.039228586,,,,
582.2159996,2274,199.620831,-6.914242523,2.40E-07,-74.55304533,1.22E-07,0.102827532,0.003040537,0.10612792,152.7315656,-210.375095,443.4365344,-335.9257834,136.8620686,-821.2563966,0.000545587,0.038940439,,,,
582.2239996,2274,-110.2621671,-34.43122258,2.35E-07,-219.9665462,1.20E-07,0.102060691,0.003017856,0.105349239,-280.2545139,51.08334545,-79.63829434,212.2037685,-147.2079994,-371.0901966,0.000541469,0.038652415,,,,
582.2319996,2274,147.5244833,-56.34378809,2.31E-07,-138.4434655,1.17E-07,0.101294216,0.002995185,0.104570887,222.7037894,-282.002604,241.0473811,-536.534259,127.8529189,-909.7802543,0.000537352,0.038364521,,,,
582.2399996,2274,31.01441175,37.22426167,2.26E-07,-114.2846488,1.15E-07,0.100528126,0.002972526,0.103792881,-127.9748961,-8.501320528,231.1486696,129.9323064,-38.50283553,-486.8736653,0.000533237,0.038076763,,,,
582.2479996,2274,-29.30090312,-79.27653625,2.22E-07,-194.8646259,1.13E-07,0.099762437,0.002949879,0.103015241,-37.16411624,-106.4113544,-94.89448201,-173.0155202,-58.05179339,-624.6714167,0.000529125,0.037789148,,,,
582.2559996,2274,245.3593892,-29.68096846,2.17E-07,-9.954188275,1.10E-07,0.098997168,0.002927244,0.102237984,168.2814226,-163.5836779,459.296897,-258.439483,128.3292756,-751.7827779,0.000525015,0.037501683,,,,
582.2639996,2274,-73.39245962,-38.64232541,2.13E-07,-162.591898,1.08E-07,0.098232336,0.002904622,0.101461129,-281.0331232,103.9102527,-51.31130046,308.9887732,-178.4332206,-267.9494448,0.000520908,0.037214373,,,,
582.2719996,2274,179.7423212,-57.70867945,2.08E-07,-83.57659897,1.06E-07,0.09746796,0.002882014,0.100684693,227.6559969,-222.5801585,249.2438044,-447.4652013,101.6429056,-795.8222826,0.000516804,0.036927227,,,,
582.2799996,2274,88.24532368,23.57254597,2.04E-07,-43.86837868,1.04E-07,0.096704055,0.002859419,0.099908695,-120.8234299,59.61851171,267.5636715,209.8309473,-39.4929899,-349.7005722,0.000512702,0.036640251,,,,
582.2879996,2274,-19.20417565,-73.21145105,1.99E-07,-164.5852229,1.02E-07,0.095940641,0.002836839,0.099133153,-50.99329758,-47.21486774,-76.51165511,-112.4044507,-77.98667,-472.3587262,0.000508603,0.036353451,,,,
582.2959996,2274,245.6722607,-19.67416711,1.95E-07,12.07952665,9.93E-08,0.095177734,0.002814274,0.098358083,180.565029,-136.5845342,439.3009584,-261.5211897,112.0243757,-643.7446917,0.000504506,0.036066833,,,,
582.3039996,2274,-33.2918383,-39.74578095,1.91E-07,-105.2605231,9.70E-08,0.094415353,0.002791725,0.097583505,-271.4198288,144.4638915,-53.36328552,326.9049762,-172.4382046,-143.1681184,0.000500413,0.035780405,,,,
582.3119996,2274,221.2295201,-50.56417427,1.86E-07,-36.14036038,9.48E-08,0.093653512,0.002769192,0.096809436,225.528467,-175.1102912,259.6262417,-418.1823636,99.78487919,-657.2259133,0.000496323,0.035494173,,,,
582.3199996,2274,145.3427523,41.39104329,1.82E-07,3.841937891,9.26E-08,0.092892231,0.002746675,0.096035893,-106.1999577,92.80860038,273.7586587,221.4472361,-45.96786008,-235.2403444,0.000492236,0.035208143,,,,
582.3279996,2274,52.84964803,-52.47910098,1.77E-07,-105.7373382,9.04E-08,0.092131526,0.002724175,0.095262894,-42.13126037,-2.914598606,-76.89636972,-67.67815672,-68.4608788,-346.9297609,0.000488152,0.034922322,,,,
582.3359996,2274,319.8307262,5.788088719,1.73E-07,60.95115951,8.82E-08,0.091371414,0.002701693,0.094490456,197.5121747,-94.44827909,455.0878105,-216.6801853,145.5393812,-532.3960309,0.000484072,0.034636716,,,,
582.3439996,2274,30.82766312,-13.05479288,1.69E-07,-69.15752287,8.60E-08,0.090611912,0.002679229,0.093718597,-261.6084263,183.2407374,-37.54637239,377.4640537,-150.698061,-32.88310607,0.000479995,0.034351331,,,,
582.3519996,2274,276.0243369,-41.97335821,1.64E-07,-7.178731229,8.39E-08,0.089853037,0.002656784,0.092947333,229.0442223,-154.1040316,249.978647,-384.6678295,115.723908,-561.1952382,0.000475921,0.034066174,,,,
582.3599996,2274,238.8194878,19.03457976,1.60E-07,57.44309035,8.17E-08,0.089094806,0.002634357,0.092176683,-106.743642,105.6308979,290.6914742,252.9819033,-23.2850271,-150.6552359,0.000471851,0.033781252,,,,
582.3679996,2274,181.9513319,-90.53268538,1.56E-07,-30.01790119,7.95E-08,0.088337234,0.00261195,0.091406663,-76.47252174,33.3667548,-24.22087682,6.8047035,-70.16909948,-210.0812644,0.000467785,0.03349657,,,,
582.3759996,2274,456.094902,-19.43235278,1.51E-07,125.8650341,7.73E-08,0.08758034,0.002589564,0.090637289,167.0459392,-57.9611153,527.7931749,-153.8459455,131.9719646,-380.7049641,0.000463723,0.033212134,,,,
582.3839996,2274,181.2139099,-33.68482167,1.47E-07,-4.683057141,7.52E-08,0.086824139,0.002567197,0.08986858,-288.3111931,225.9484249,36.48776678,454.9259121,-166.0143095,127.0329175,0.000459665,0.032927952,,,,
582.3919996,2274,444.9088269,-58.58913661,1.43E-07,62.90512467,7.30E-08,0.086068647,0.002544852,0.089100552,201.925256,-98.66939825,329.0808324,-290.8705727,108.2081071,-368.5543301,0.00045561,0.032644029,,,,
582.3999996,2275,389.7374614,27.9329738,1.39E-07,102.2553924,7.09E-08,0.085313882,0.002522528,0.088333221,-113.5034628,165.4604353,384.8692076,339.0155053,-25.80979579,61.5865116,0.00045156,0.032360371,,,,
582.4079996,2275,296.1542869,-75.5381199,1.34E-07,-14.0474647,6.88E-08,0.084559859,0.002500226,0.087566605,-70.66243455,85.12402914,19.31912165,81.23319372,-81.08314128,-2.576912857,0.000447513,0.032076984,,,,
582.4159996,2275,567.7282967,-0.992763449,1.30E-07,142.0435677,6.66E-08,0.083806594,0.002477947,0.08680072,190.1695972,-30.00435504,546.3621114,-123.0049583,132.6777795,-196.4078636,0.000443471,0.031793876,,,,
582.4239996,2275,285.4667694,-12.52047256,1.26E-07,18.73628522,6.45E-08,0.083054104,0.00245569,0.086035582,-275.846724,258.3247432,58.88138615,488.0792373,-169.4464608,321.9241923,0.000439434,0.03151105,,,,
582.4319996,2275,551.0582977,-60.13649631,1.22E-07,98.67546283,6.24E-08,0.082302405,0.002433457,0.085271208,203.8452196,-65.98043025,339.6013628,-261.3631022,100.6897442,-174.0532331,0.0004354,0.031228515,,,,
582.4399996,2275,500.5976436,25.81885207,1.17E-07,145.9617107,6.03E-08,0.081551512,0.002411248,0.084507614,-108.9864768,186.8491008,410.1241256,359.2817452,-9.642810101,245.2585007,0.000431371,0.030946275,,,,
582.4479996,2275,377.1865449,-67.75078927,1.13E-07,21.98736996,5.82E-08,0.080801442,0.002389063,0.083744817,-77.40928245,112.8829196,35.09102468,128.1758327,-63.94621736,192.1574291,0.000427347,0.030664337,,,,
582.4559996,2275,666.0459676,-10.51955343,1.09E-07,203.1825074,5.61E-08,0.08005221,0.002366903,0.082982832,188.6651376,-0.705785868,569.2478131,-69.89669652,138.3474811,0.570338641,0.000423327,0.030382707,,,,
582.4639996,2275,197.9152296,-30.49818462,1.05E-07,8.399482175,5.40E-08,0.079303831,0.002344769,0.082221676,-567.2709572,461.281902,-203.5944358,928.7186234,-346.431298,811.5315518,0.000419312,0.03010139,,,,
582.4719996,2275,444.4383334,-112.0198328,1.01E-07,46.52871095,5.19E-08,0.078556322,0.00232266,0.081461366,22.41130738,51.7485215,31.32799289,-39.74958319,-43.15496017,167.6936516,0.000415302,0.029820393,,,,
582.4799996,2275,806.9855277,1.674561735,9.66E-08,307.8209074,4.98E-08,0.077809698,0.002300577,0.080701915,224.7829318,30.30747608,804.3268814,-11.95642638,175.0765463,106.29262,0.000411297,0.029539721,,,,
582.4879996,2275,386.9468681,-49.07711811,9.25E-08,89.1782968,4.77E-08,0.077063975,0.002278521,0.079943342,-328.3059277,331.6712558,19.08172161,592.1133112,-221.3135587,692.1031753,0.000407297,0.02925938,,,,
582.4959996,2275,630.9639934,-65.92864514,8.84E-08,165.0745227,4.57E-08,0.076319167,0.002256492,0.079185661,141.5001305,23.09300856,326.0705256,-101.8366393,50.23140559,219.7644109,0.000403302,0.028979377,,,,
582.5039996,2275,702.9428114,-0.285159798,8.43E-08,269.2387648,4.36E-08,0.07557529,0.00223449,0.078428888,-9.391936885,190.4343358,531.1793176,315.1851,18.89879453,512.3093076,0.000399312,0.028699716,,,,
582.5119996,2275,500.0250192,-69.16462963,8.02E-08,137.3393222,4.16E-08,0.07483236,0.002212517,0.077673039,-232.8536431,300.1390813,62.7544962,491.4207183,-175.1268303,777.1422699,0.000395327,0.028420403,,,,
582.5199996,2275,805.1527903,-57.05382871,7.61E-08,284.848295,3.95E-08,0.074090391,0.002190572,0.076918129,162.0170257,74.61618826,548.6001973,12.85610831,95.88760994,443.9324029,0.000391348,0.028141445,,,,
582.5279996,2275,667.6359722,-36.21070904,7.21E-08,266.2308019,3.75E-08,0.073349398,0.002168656,0.076164174,-208.4084372,336.1421288,357.3907742,608.7687499,-105.2956023,930.9345002,0.000387374,0.027862847,,,,
582.5359996,2275,682.3844166,-98.85174746,6.80E-08,215.7169483,3.55E-08,0.072609397,0.002146769,0.075411189,-62.03920333,221.1898435,227.5321057,278.857731,-80.06204284,811.2423789,0.000383405,0.027584614,,,,
582.5439996,2275,879.4003057,-26.75340111,6.40E-08,336.3438029,3.34E-08,0.071870402,0.002124912,0.074659189,87.4437699,185.0981198,639.5095278,211.929935,60.08174108,762.9976587,0.000379442,0.027306752,,,,
582.5519996,2275,596.1077916,-38.45140149,6.00E-08,183.0927654,3.14E-08,0.071132428,0.002103085,0.07390819,-284.0654974,399.7690165,163.1607778,643.0371793,-190.498076,1180.237479,0.000375485,0.027029267,,,,
582.5599996,2275,821.5331987,-67.28508871,5.60E-08,232.4118486,2.94E-08,0.070395489,0.002081289,0.073158206,152.9258808,99.67254525,445.1122803,-49.95683535,58.35672946,716.3444996,0.000371533,0.026752165,,,,
582.5679996,2275,751.3158949,-5.324446818,5.20E-08,236.9126846,2.74E-08,0.069659601,0.002059524,0.072409253,-151.1740236,310.3141056,442.6352673,447.5370997,-82.39853538,1056.146589,0.000367587,0.02647545,,,,
582.5759996,2275,619.0558062,-66.59103069,4.80E-08,85.66771111,2.54E-08,0.068924778,0.00203779,0.071661346,-113.936985,208.53387,103.26002,161.3053111,-120.7661547,936.5564729,0.000363647,0.026199129,,,,
582.5839996,2275,855.8790082,-18.27531876,4.41E-08,209.8974817,2.34E-08,0.068191034,0.002016089,0.070914499,153.8110466,71.71206571,569.5234411,-86.4769904,96.27240577,680.1523499,0.000359713,0.025923206,,,,
582.5919996,2275,584.1813746,-36.59487985,4.02E-08,80.35330902,2.14E-08,0.067458384,0.00199442,0.070168727,-297.0625954,336.5727175,119.5384802,492.2959389,-196.7844832,1128.381636,0.000355784,0.025647688,,,,
582.5999996,2275,777.0784979,-57.04052914,3.62E-08,99.14722525,1.95E-08,0.066726842,0.001972783,0.069424046,158.2921528,7.157951601,356.1238592,-252.156673,63.74714352,593.8677217,0.000351863,0.025372579,,,,
582.6079996,2275,703.2695069,33.68799209,3.23E-08,118.9545572,1.75E-08,0.065996422,0.00195118,0.068680468,-99.32403853,208.9561077,423.0665361,269.5710979,-32.20224896,886.1615331,0.000347947,0.025097885,,,,
582.6159996,2275,533.853916,-38.14675086,2.84E-08,-25.90453268,1.55E-08,0.065267139,0.00192961,0.06793801,-101.0481644,135.0538879,12.71725477,64.10517236,-109.6766005,797.6405877,0.000344037,0.024823611,,,,
582.6239996,2275,779.5788899,26.18246398,2.45E-08,126.1457514,1.36E-08,0.064539006,0.001908075,0.067196686,201.8939893,-21.55752628,507.3555707,-205.2841231,139.6475118,503.2421333,0.000340134,0.024549764,,,,
582.6319996,2275,473.0204901,16.77924804,2.07E-08,30.03371447,1.16E-08,0.063812037,0.001886574,0.066456509,-260.77721,274.3628876,39.81439659,459.3899741,-160.4067009,1006.311525,0.000336237,0.024276347,,,,
582.6399996,2275,687.1500978,-41.00413427,1.68E-08,173.5945774,9.70E-09,0.063086246,0.001865107,0.065717494,205.3310863,-8.062613096,255.7673795,-179.7138392,72.58003067,584.3587608,0.000332346,0.024003366,,,,
582.6479996,2275,684.134884,27.57451365,1.30E-08,379.4767481,7.80E-09,0.062361647,0.001843676,0.064979656,-53.3872516,317.9724914,393.1562418,625.0023756,-29.87916122,1181.466227,0.000328462,0.023730826,,,,
582.6559996,2276,511.3032518,-43.38105555,9.10E-09,241.9965021,5.80E-09,0.061638254,0.001822281,0.064243008,-80.65555565,349.2245743,-10.25333823,606.9332093,-135.0192812,1396.805469,0.000324585,0.023458734,,,,
582.6639996,2276,734.2646001,41.86298574,5.30E-09,234.1687933,3.90E-09,0.060916081,0.001800922,0.063507565,241.1777165,108.2586087,481.0594644,51.31575436,124.5959006,970.0872479,0.000320714,0.023187092,,,,
582.6719996,2276,398.8339248,44.84538418,1.50E-09,-9.875923203,2.00E-09,0.06019514,0.001779599,0.06277334,-236.3171478,287.4488389,-13.38235755,398.7429644,-147.3237025,1180.061799,0.000316851,0.022915908,,,,
582.6799996,2276,575.2981495,-1.712526787,-2.20E-09,-30.52442513,1.00E-10,0.059475446,0.001758313,0.062040347,222.5363975,-88.63799355,181.1109788,-447.8861039,111.3240058,501.962879,0.000312993,0.022645186,,,,
582.6879996,2276,525.5736122,87.32282106,-6.00E-09,-19.28211539,-1.80E-09,0.058757011,0.001737065,0.0613086,-21.57330498,74.46062868,297.4332401,15.31476047,37.29832763,663.9032992,0.000309143,0.02237493,,,,
582.6959996,2276,317.4354364,4.219134839,-9.80E-09,-197.3276918,-3.70E-09,0.058039849,0.001715854,0.060578113,-53.27935472,0.88273694,-150.4343425,-170.3981528,-63.8623058,517.5914691,0.0003053,0.022105147,,,,
582.7039996,2276,549.5746755,68.11462378,-1.35E-08,-101.5991046,-5.60E-09,0.057323973,0.001694681,0.0598489,282.3485984,-198.5816396,375.8302742,-518.5401021,197.5829181,92.15139776,0.000301464,0.02183584,,,,
582.7119996,2276,194.9316501,70.99092094,-1.72E-08,-294.3395097,-7.40E-09,0.056609397,0.001673547,0.059120973,-194.5822259,38.98477076,-111.1118626,41.94089031,-90.38360928,399.4123802,0.000297635,0.021567016,,,,
582.7199996,2276,325.3488068,40.00481278,-2.09E-08,-320.897769,-9.30E-09,0.055896133,0.001652451,0.058394346,269.7849224,-338.3143766,38.83382361,-794.8287694,151.818074,-318.7340579,0.000293813,0.021298678,,,,
582.7279996,2276,279.0106092,136.8300904,-2.46E-08,-277.2189976,-1.12E-08,0.055184195,0.001631395,0.057669033,45.90072724,-169.6000099,160.0078118,-309.1649717,98.02596206,-201.3339066,0.000289999,0.021030832,,,,
582.7359996,2276,131.8762364,17.92292317,-2.83E-08,-355.5494406,-1.30E-08,0.054473595,0.001610378,0.056945046,-1.882791978,-191.2460049,-271.6245597,-354.1011004,-11.16437121,-280.2812264,0.000286191,0.020763483,,,,
582.7439996,2276,436.745636,70.76563562,-3.20E-08,-140.8084296,-1.48E-08,0.053764346,0.001589401,0.0562224,317.0763489,-308.525147,313.3543551,-521.004451,218.5271327,-540.8668451,0.000282391,0.020496636,,,,
582.7519996,2276,112.2053491,96.42467436,-3.56E-08,-256.647029,-1.67E-08,0.05305646,0.001568465,0.055501107,-171.8797102,19.73526248,-125.5096823,224.1959836,-77.22423946,-23.83676046,0.000278599,0.020230294,,,,
582.7599996,2276,273.7090336,30.72331283,-3.93E-08,-226.3920276,-1.85E-08,0.052349951,0.001547569,0.05478118,282.5301535,-297.8828199,32.78280531,-501.6052113,161.6512342,-565.3607922,0.000274814,0.019964464,,,,
582.7679996,2276,256.7814026,102.0493165,-4.29E-08,-167.4074427,-2.03E-08,0.051644831,0.001526715,0.054062631,36.39989672,-101.812682,190.5487227,-3.568774195,92.97771408,-320.6139816,0.000271036,0.01969915,,,,
582.7759996,2276,92.06651861,-5.349772887,-4.65E-08,-301.7128804,-2.21E-08,0.050941112,0.001505902,0.053345475,-43.86866906,-135.5815243,-245.3195697,-153.1019933,-23.08140087,-383.0145745,0.000267267,0.019434356,,,,
582.7839996,2276,384.3163154,35.0399404,-5.01E-08,-146.1141773,-2.40E-08,0.050238807,0.00148513,0.052629724,280.3070057,-307.8710176,325.4766699,-504.5146961,212.3941649,-742.9344807,0.000263505,0.019170088,,,,
582.7919996,2276,59.15752675,50.25185596,-5.37E-08,-288.3659295,-2.58E-08,0.049537928,0.001464401,0.051915389,-211.4142102,-19.35118434,-118.5580441,137.9332415,-95.62143896,-298.612358,0.00025975,0.018906349,,,,
582.7999996,2276,223.0370914,-7.884216168,-5.72E-08,-259.2398492,-2.75E-08,0.048838488,0.001443715,0.051202485,242.4861873,-350.9840726,30.23203852,-615.9140967,130.2635443,-865.8132981,0.000256004,0.018643145,,,,
582.8079996,2276,213.3786695,74.20826593,-6.08E-08,-185.9134411,-2.93E-08,0.048140497,0.001423071,0.050491023,11.79142457,-147.429591,206.7780845,-95.50947718,56.30372296,-610.5003342,0.000252266,0.01838048,,,,
582.8159996,2276,25.29896058,-23.33195666,-6.43E-08,-321.2358076,-3.11E-08,0.04744397,0.001402471,0.049781016,-63.49529088,-166.7524585,-256.662295,-183.8266447,-71.68370854,-630.6117251,0.000248535,0.018118359,,,,
582.8239996,2276,299.9802599,32.10937627,-6.78E-08,-157.0428499,-3.29E-08,0.046748916,0.001381914,0.049072476,288.8178941,-343.0271327,279.5891837,-505.6795361,182.1106544,-967.676607,0.000244813,0.017856786,,,,
582.8319996,2276,-12.52250029,52.09551297,-7.13E-08,-263.9706122,-3.46E-08,0.046055349,0.001361401,0.048365415,-200.4456312,-26.74164897,-160.4829808,207.2104483,-102.8106681,-457.6589596,0.000241098,0.017595765,,,,
582.8399996,2276,170.1345251,-13.28142298,-7.48E-08,-211.1670067,-3.64E-08,0.04536328,0.001340933,0.047659846,246.5663196,-327.4853573,1.962652822,-490.6012387,121.7369155,-945.887145,0.000237392,0.017335302,,,,
582.8479996,2276,165.8976429,86.63668843,-7.83E-08,-127.3305268,-3.81E-08,0.044672721,0.001320509,0.046955781,27.88831002,-124.514111,189.8548974,20.44264017,53.91279,-655.6772415,0.000233694,0.0170754,,,,
582.8559996,2276,-42.05748538,8.187001075,-8.17E-08,-267.2629549,-3.99E-08,0.043983683,0.00130013,0.046253231,-64.72456351,-136.173672,-295.6430962,-68.65754673,-69.55828048,-639.2255151,0.000230004,0.016816065,,,,
582.8639996,2276,259.3721959,29.8238119,-8.52E-08,-89.75342512,-4.16E-08,0.043296178,0.001279797,0.045552209,285.3252031,-306.0471101,254.8025601,-408.137177,181.1555362,-952.4993717,0.000226323,0.016557299,,,,
582.8719996,2276,-19.2675845,12.9654382,-8.86E-08,-181.6419226,-4.33E-08,0.042610218,0.001259509,0.044852726,-220.9624888,20.74834835,-156.3445594,302.1284014,-125.5687134,-410.9257353,0.00022265,0.016299109,,,,
582.8799996,2276,137.1009846,-47.37214636,-9.20E-08,-163.2254428,-4.50E-08,0.041925813,0.001239268,0.044154794,202.2374467,-293.5447779,-8.617037406,-432.0970513,84.68442746,-902.8234583,0.000218986,0.016041497,,,,
582.8879996,2276,124.6334513,50.79599082,-9.54E-08,-101.0979318,-4.67E-08,0.041242976,0.001219072,0.043458425,-3.373615251,-114.9614304,181.1480048,29.29024551,30.21108514,-644.3305817,0.00021533,0.015784469,,,,
582.8959996,2276,-76.79477053,-37.49533664,-9.88E-08,-242.7276953,-4.84E-08,0.040561717,0.001198924,0.04276363,-90.45809041,-123.3978877,-311.0714445,-53.01572497,-98.43149863,-621.9072343,0.000211682,0.015528028,,,,
582.9039996,2276,227.0055069,-5.929448011,-1.02E-07,-72.78042531,-5.01E-08,0.039882047,0.001178822,0.042070422,274.2988159,-301.7874353,240.7959622,-416.4202501,155.2082962,-951.1426595,0.000208044,0.015272179,,,,
582.9119996,2277,-43.17041854,-8.051193027,-1.06E-07,-163.0875409,-5.18E-08,0.039203978,0.001158768,0.04137881,-238.9153514,35.57273993,-151.685851,304.6813612,-148.364807,-398.3370596,0.000204413,0.015016926,,,,
582.9199996,2277,127.4202053,-62.52253489,-1.09E-07,-136.1488111,-5.35E-08,0.03852752,0.001138761,0.040688807,187.4728837,-264.0182722,-8.644168561,-409.9912004,59.50932273,-868.2572197,0.000200792,0.014762273,,,,
582.9279996,2277,153.2922045,30.65669191,-1.12E-07,-50.26999997,-5.52E-08,0.037852685,0.001118803,0.040000424,2.482296544,-81.55820627,203.8029931,53.26174985,19.72565119,-599.57351,0.00019718,0.014508225,,,,
582.9359996,2277,-33.51153114,-57.75186337,-1.15E-07,-187.797189,-5.68E-08,0.037179483,0.001098893,0.039313672,-117.503017,-68.19147367,-263.142891,9.052584645,-110.765622,-525.4998042,0.000193576,0.014254784,,,,
582.9439996,2277,239.4258254,5.409166927,-1.19E-07,-46.07473071,-5.85E-08,0.036507925,0.001079031,0.038628562,250.9988584,-262.2012207,282.3082873,-379.6498862,149.6673211,-857.9212124,0.000189982,0.014001956,,,,
582.9519996,2277,-58.35430733,21.96376309,-1.22E-07,-144.231703,-6.01E-08,0.035838022,0.001059219,0.037945105,-232.964395,58.16929823,-144.4892157,332.2592693,-146.1105425,-323.3529424,0.000186396,0.013749745,,,,
582.9599996,2277,120.9531586,-55.91015775,-1.25E-07,-97.0622089,-6.18E-08,0.035169784,0.001039455,0.037263312,192.9201572,-230.7185278,-15.3085313,-348.441512,60.29006191,-765.7705484,0.00018282,0.013498154,,,,
582.9679996,2277,163.8903437,27.97812335,-1.28E-07,4.434437965,-6.34E-08,0.034503221,0.001019741,0.036583193,2.669675439,-42.10796652,232.7178485,128.1516733,18.58587295,-465.4149247,0.000179252,0.013247187,,,,
582.9759996,2277,-24.90624,-60.38212413,-1.32E-07,-135.3245114,-6.50E-08,0.033838344,0.001000078,0.03590476,-123.1803354,-19.49858338,-240.9540647,95.71802357,-120.8285122,-365.5063172,0.000175694,0.012996848,,,,
582.9839996,2277,267.306947,-9.159280463,-1.35E-07,15.00344769,-6.66E-08,0.033175164,0.000980464,0.035228023,262.5448283,-216.1985252,304.3653355,-315.7919823,145.5542227,-697.966056,0.000172145,0.012747142,,,,
582.9919996,2277,-15.72180833,2.057109743,-1.38E-07,-75.07540608,-6.82E-08,0.03251369,0.000960901,0.034552993,-224.64238,110.7746188,-100.9989338,393.316772,-155.0667781,-139.1087074,0.000168605,0.012498072,,,,
582.9999996,2277,156.4003506,-73.7276301,-1.41E-07,-42.97957039,-6.98E-08,0.031853932,0.000941388,0.03387968,193.8100051,-171.2547987,16.57044843,-300.3186919,61.59571826,-572.8684591,0.000165075,0.012249642,,,,
583.0079996,2277,194.0835987,30.62982509,-1.44E-07,47.78585816,-7.14E-08,0.031195901,0.000921927,0.033208095,8.895182458,12.38293999,263.4540031,148.3094412,31.27018126,-299.2648383,0.000161554,0.012001855,,,,
583.0159996,2277,-8.565817282,-35.24050758,-1.48E-07,-91.64669596,-7.30E-08,0.030539608,0.000902517,0.032538248,-128.9409681,42.24574863,-232.3329341,137.3185018,-126.7826861,-187.7745199,0.000158042,0.011754716,,,,
583.0239996,2277,305.0356524,6.581978329,-1.51E-07,76.36842339,-7.46E-08,0.02988506,0.000883159,0.031870149,268.1312479,-150.6136134,316.014125,-258.7564912,155.8258534,-509.9778158,0.00015454,0.011508229,,,,
583.0319996,2277,48.71848943,11.16409701,-1.54E-07,-1.577016607,-7.61E-08,0.029232269,0.000863852,0.031203808,-221.6256092,192.2472879,-53.46474367,487.2997509,-144.4464747,76.34412953,0.000151047,0.011262396,,,,
583.0399996,2277,221.83524,-45.88139073,-1.57E-07,22.46538334,-7.77E-08,0.028581245,0.000844598,0.030539235,194.6541205,-85.47325075,64.27262525,-195.5866815,53.94754735,-330.532887,0.000147564,0.011017222,,,,
583.0479996,2277,257.9111522,69.21527947,-1.60E-07,102.6080554,-7.93E-08,0.027931995,0.000825397,0.029876441,35.31082973,77.81335119,307.3780006,222.636719,44.30785943,-73.09121895,0.00014409,0.010772711,,,,
583.0559996,2277,30.31655738,-8.862135763,-1.63E-07,-61.27655285,-8.08E-08,0.027284532,0.000806248,0.029215435,-103.5354981,97.11196821,-209.2119243,207.0748165,-118.371706,21.95731816,0.000140627,0.010528865,,,,
583.0639996,2277,329.1679116,25.93348652,-1.66E-07,85.8034537,-8.23E-08,0.026638863,0.000787152,0.028556227,295.9290086,-119.0334675,323.5687532,-231.0168622,147.027132,-339.1658042,0.000137173,0.010285689,,,,
583.0719996,2277,63.45333114,30.78055849,-1.69E-07,-3.98081577,-8.39E-08,0.025994999,0.00076811,0.027898827,-202.4770835,203.718462,-64.45787182,484.2940586,-143.584477,209.1662169,0.000133728,0.010043186,,,,
583.0799996,2277,225.3310888,-45.13678829,-1.72E-07,4.802928331,-8.54E-08,0.025352948,0.000749121,0.027243245,198.3326706,-80.53956918,36.34671358,-210.8362605,63.89943097,-229.1487309,0.000130294,0.00980136,,,,
583.0879996,2277,272.3380422,57.09409341,-1.75E-07,78.87242624,-8.69E-08,0.02471272,0.000730187,0.026589489,43.36091508,74.73709082,304.2797702,179.18705,47.94198552,-7.735381433,0.00012687,0.009560214,,,,
583.0959996,2277,73.08296344,-35.62397475,-1.78E-07,-72.32635756,-8.84E-08,0.024074323,0.000711306,0.02593757,-109.9583097,99.63210289,-210.2064063,159.9159403,-122.3706516,80.87481482,0.000123455,0.009319752,,,,
583.1039996,2277,409.2040304,-17.23487887,-1.81E-07,87.98928419,-8.99E-08,0.023437768,0.00069248,0.025287497,283.240908,-110.4151534,354.1522891,-293.4598893,165.8060465,-287.3620216,0.00012005,0.009079977,,,,
583.1119996,2277,123.081169,12.6109297,-1.84E-07,-25.61146856,-9.14E-08,0.022803063,0.000673709,0.024639279,-221.0633153,205.454438,-10.73130611,409.2788495,-127.3613474,245.4984878,0.000116656,0.008840892,,,,
583.1199996,2277,246.6055841,-44.1264329,-1.87E-07,-41.44333786,-9.29E-08,0.022170217,0.000654993,0.023992926,185.9867047,-105.0662107,42.64829889,-309.8483681,52.64639062,-233.8933361,0.000113271,0.008602502,,,,
583.1279996,2277,308.0896562,45.68735719,-1.90E-07,47.3495306,-9.43E-08,0.021539239,0.000636332,0.023348446,44.2835774,43.27123946,317.6748333,83.48341058,39.3326964,-40.88764712,0.000109897,0.008364808,,,,
583.1359996,2277,83.20562287,-41.7339114,-1.93E-07,-114.414228,-9.58E-08,0.020910137,0.000617726,0.022705849,-122.7857286,69.61785682,-203.0036966,96.25509189,-133.141057,48.558103,0.000106533,0.008127815,,,,
583.1439996,2277,374.1190254,0.118222994,-1.96E-07,19.22915576,-9.72E-08,0.020282921,0.000599177,0.022065144,294.4279806,-171.2256613,321.2041689,-383.9481406,168.8180893,-363.6670445,0.000103179,0.007891526,,,,
583.1519996,2277,96.59422753,32.47387376,-1.99E-07,-78.19407871,-9.87E-08,0.019657599,0.000580683,0.021426339,-195.7027686,156.8943249,-43.03485376,346.7898667,-107.3157339,157.8018475,9.98E-05,0.007655945,,,,
583.1599996,2277,207.72625,-28.38823181,-2.01E-07,-93.00730553,-1.00E-07,0.019034178,0.000562246,0.020789444,202.662642,-142.2101667,-9.626804658,-351.0151419,69.17304519,-320.6669679,9.65E-05,0.007421073,,,,
583.1679996,2278,235.8287619,75.36558063,-2.04E-07,-24.46522444,-1.02E-07,0.018412669,0.000543865,0.020154466,68.00544868,-13.81396922,250.0606623,14.10894854,67.40426732,-158.564138,9.32E-05,0.007186915,,,,
583.1759996,2278,17.77539413,-22.01824408,-2.07E-07,-176.7510048,-1.03E-07,0.017793079,0.000525541,0.019521416,-117.5692277,30.42091594,-269.9108668,55.83034694,-113.9760086,-64.78520961,8.99E-05,0.006953474,,,,
583.1839996,2278,322.4272348,3.50312013,-2.10E-07,-40.49827021,-1.04E-07,0.017175416,0.000507273,0.018890301,292.8167014,-211.9632982,264.7957543,-438.2634794,163.3066881,-497.2800638,8.66E-05,0.006720753,,,,
583.1919996,2278,21.89945227,48.1035089,-2.13E-07,-164.3428822,-1.06E-07,0.016559689,0.000489064,0.01826113,-205.9319972,96.35191669,-96.99096375,260.9267876,-117.7251134,-10.10387101,8.33E-05,0.006488755,,,,
583.1999996,2278,118.9704012,-10.3009012,-2.15E-07,-192.2930662,-1.07E-07,0.015945905,0.000470911,0.017633912,186.4488397,-212.7929563,-75.97084361,-461.5419348,60.66984641,-524.0155428,8.00E-05,0.006257483,,,,
583.2079996,2278,161.012672,84.87935426,-2.18E-07,-113.767636,-1.09E-07,0.015334073,0.000452817,0.017008654,70.83325908,-93.92306889,204.6212251,-134.5797615,63.54152391,-411.4810342,7.67E-05,0.006026939,,,,
583.2159996,2278,-73.54167772,-13.35843912,-2.21E-07,-276.0118563,-1.10E-07,0.014724201,0.00043478,0.016385365,-115.7956616,-45.16411322,-317.1270324,-92.50603342,-110.6106952,-338.5664246,7.35E-05,0.005797129,,,,
583.2239996,2278,189.3955346,19.61883725,-2.24E-07,-175.8014744,-1.11E-07,0.014116297,0.000416802,0.015764053,305.3639514,-308.689898,203.6727947,-624.1373093,170.2861159,-827.4579368,7.02E-05,0.005568053,,,,
583.2319996,2278,-139.6858692,52.09330073,-2.26E-07,-323.1220012,-1.13E-07,0.013510368,0.000398882,0.015144727,-187.2588311,-27.52196771,-172.5880409,23.72834345,-114.0527024,-421.6994397,6.70E-05,0.005339715,,,,
583.2399996,2278,-38.31046278,-39.70214352,-2.29E-07,-354.9987737,-1.14E-07,0.012906422,0.00038102,0.014527393,202.9910916,-345.4707758,-161.1517942,-725.6844319,74.13024608,-998.2574446,6.37E-05,0.005112119,,,,
583.2479996,2278,5.20943475,64.73483323,-2.32E-07,-280.4879677,-1.15E-07,0.012304466,0.000363218,0.013912061,93.04851194,-246.6781317,139.4031733,-418.7022708,83.80543765,-944.8559903,6.05E-05,0.004885266,,,,
583.2559996,2278,-240.7226715,-6.67538433,-2.34E-07,-422.4367851,-1.17E-07,0.011704509,0.000345475,0.013298738,-109.0439869,-196.7217438,-402.1681304,-325.6287114,-101.3860653,-877.5760982,5.73E-05,0.00465916,,,,
583.2639996,2278,72.55088978,25.12115076,-2.37E-07,-245.6120083,-1.18E-07,0.011106558,0.000327791,0.012687431,325.3345473,-413.6640522,132.3155736,-740.0696407,191.2244482,-1299.466876,5.41E-05,0.004433804,,,,
583.2719996,2278,-217.7376993,77.50281407,-2.40E-07,-324.0577181,-1.19E-07,0.010510619,0.000310166,0.01207815,-163.8444531,-57.06408993,-196.116512,68.18405611,-93.2137242,-756.4846298,5.09E-05,0.0042092,,,,
583.2799996,2278,-122.0889813,7.862494989,-2.42E-07,-314.9222381,-1.21E-07,0.009916702,0.000292602,0.0114709,210.1700383,-320.0544729,-196.016283,-560.7697115,79.08326112,-1195.849039,4.78E-05,0.003985351,,,,
583.2879996,2278,-29.44652186,91.58529414,-2.45E-07,-174.8554808,-1.22E-07,0.009324811,0.000275097,0.010865689,111.1173542,-182.0635607,113.59564,-176.7544713,97.62614385,-1029.141582,4.46E-05,0.003762261,,,,
583.2959996,2278,-216.1318533,-13.79801861,-2.48E-07,-274.3567561,-1.23E-07,0.008734956,0.000257653,0.010262526,-105.5519903,-72.06687335,-379.2424561,-3.82286223,-97.67135847,-823.8054279,4.15E-05,0.003539931,,,,
583.3039996,2278,143.4093573,-15.22936083,-2.50E-07,-90.72415487,-1.25E-07,0.008147143,0.000240268,0.009661417,310.8675078,-274.0398919,201.3367344,-460.2495598,182.831537,-1185.623043,3.83E-05,0.003318364,,,,
583.3119996,2278,-107.4759184,19.71230477,-2.53E-07,-164.7517729,-1.26E-07,0.007561378,0.000222945,0.00906237,-196.8225192,66.11672553,-111.1394352,276.7535788,-104.7252522,-626.6272169,3.52E-05,0.003097564,,,,
583.3199996,2278,-0.99152974,-42.49630013,-2.55E-07,-170.3049379,-1.27E-07,0.006977669,0.000205682,0.008465392,170.7168125,-196.6053968,-107.3894565,-365.7333616,56.05144281,-1020.381475,3.21E-05,0.002877532,,,,
583.3279996,2278,103.7260437,49.67542114,-2.58E-07,-45.24565519,-1.29E-07,0.006396023,0.000188481,0.007870489,89.49561353,-63.6517633,223.6985257,-23.85554801,79.75433762,-841.1031853,2.90E-05,0.002658272,,,,
583.3359996,2278,-188.0449432,-21.10733285,-2.60E-07,-195.4248278,-1.30E-07,0.005816447,0.00017134,0.00727767,-310.705983,162.7829683,-403.3655534,371.594165,-215.3282459,-438.0924988,2.59E-05,0.002439785,,,,
583.3439996,2278,153.1083061,-15.58908618,-2.63E-07,-48.3278128,-1.31E-07,0.005238946,0.000154261,0.006686941,142.6980053,-76.31817524,76.09611832,-201.3621295,61.97059724,-844.8073731,2.28E-05,0.002222075,,,,
583.3519996,2278,148.7563025,16.2967265,-2.65E-07,-32.65459398,-1.32E-07,0.004663529,0.000137244,0.006098309,26.92387017,8.785180649,88.5094353,-5.288856145,3.412704909,-711.2799703,1.97E-05,0.002005144,,,,
583.3599996,2278,123.4483705,-5.903496041,-2.68E-07,-76.43330302,-1.34E-07,0.0040902,0.000120289,0.00551178,85.44896793,-57.45104285,-6.190924424,-169.3529735,11.7601464,-795.3751495,1.66E-05,0.001788994,,,,
583.3679996,2278,125.8128974,32.49323004,-2.70E-07,-42.29340299,-1.35E-07,0.003518967,0.000103395,0.004927362,-22.96249172,52.25313556,73.37996571,91.89587937,-19.02841723,-625.1732185,1.36E-05,0.001573628,,,,
583.3759996,2278,145.2076093,-13.50316295,-2.72E-07,-58.76376138,-1.36E-07,0.002949836,8.66E-05,0.004345061,92.91216858,-33.83105872,-34.87638166,-143.9293166,7.474129405,-746.423495,1.05E-05,0.001359048,,,,
583.3839996,2278,251.8928512,51.17109947,-2.75E-07,26.92110713,-1.37E-07,0.002382814,6.98E-05,0.003764884,108.2580658,19.47082145,198.8019091,-8.238664339,57.04679198,-682.380045,7.52E-06,0.001145257,,,,
583.3919996,2278,141.4187738,2.543131909,-2.77E-07,-39.89588844,-1.38E-07,0.001817906,5.31E-05,0.003186837,-63.77565613,116.1994862,-92.81187083,159.044734,-66.59270135,-490.3505243,4.50E-06,0.000932257,,,,
583.3999996,2278,354.198754,-0.796461238,-2.80E-07,42.28725001,-1.40E-07,0.001255119,3.64E-05,0.002610926,244.4343412,-72.89349646,211.7821775,-253.9253912,122.0357676,-774.7596082,1.50E-06,0.000720051,,,,
583.4079996,2278,214.8143752,40.77925297,-2.82E-07,22.57820085,-1.41E-07,0.000694459,1.99E-05,0.002037159,-124.6074291,192.5078406,49.68606459,341.7808304,-72.71173114,-334.6495066,-1.50E-06,0.00050864,,,,
583.4159996,2278,287.928036,-33.4160916,-2.84E-07,8.314790842,-1.42E-07,0.000135932,3.35E-06,0.00146554,112.0978183,18.00585432,-6.774996115,-115.6664877,20.21272401,-578.6572971,-4.48E-06,0.000298027,,,,
583.4239996,2279,405.9952663,58.99068649,-2.87E-07,114.451971,-1.43E-07,-0.000420457,-1.31E-05,0.000896077,83.72432731,92.5975365,314.4603122,104.4192621,66.79187679,-460.2241507,-7.45E-06,8.82E-05,,,,
583.4319996,2279,222.8916932,-10.5066265,-2.89E-07,7.718152688,-1.44E-07,-0.000974701,-2.95E-05,0.000328776,-153.4892907,213.4771515,-153.7443825,295.224361,-126.2758194,-212.2374373,-1.04E-05,-0.000120795,,,,
583.4399996,2279,540.4011689,-15.9472175,-2.91E-07,150.9560517,-1.45E-07,-0.001526795,-4.58E-05,-0.000236358,259.5539388,-3.555892146,313.7788209,-208.0435969,130.9872191,-554.4272191,-1.34E-05,-0.000329001,,,,
583.4479996,2279,338.4453817,32.71708229,-2.94E-07,97.11935832,-1.47E-07,-0.002076733,-6.21E-05,-0.000799319,-192.8108806,305.8863894,86.65981126,480.6495979,-114.5516998,-21.00801575,-1.63E-05,-0.000536399,,,,
583.4559996,2279,398.1126098,-36.79334589,-2.96E-07,56.81057814,-1.48E-07,-0.00262451,-7.83E-05,-0.0013601,97.06624128,82.39260854,16.35170104,-94.45392803,-2.913280486,-332.3972737,-1.92E-05,-0.000742989,,,,
583.4639996,2279,525.3475301,61.56203966,-2.98E-07,172.3827844,-1.49E-07,-0.003170119,-9.44E-05,-0.001918696,84.76956883,159.4739622,362.0369831,134.5618506,48.87545838,-218.1226784,-2.21E-05,-0.000948768,,,,
583.4719996,2279,291.5360466,-4.856112299,-3.00E-07,29.67074334,-1.50E-07,-0.003713555,-0.000110497,-0.002475102,-164.5498975,275.0712867,-172.360279,328.8908241,-163.7466304,30.15116319,-2.50E-05,-0.001153733,,,,
583.4799996,2279,605.9418575,3.525480191,-3.02E-07,164.4629715,-1.51E-07,-0.004254814,-0.000126504,-0.003029311,288.4955159,27.00624347,317.1304743,-217.9917074,127.2663304,-364.7301837,-2.79E-05,-0.001357883,,,,
583.4879996,2279,388.2581239,44.99206293,-3.05E-07,112.3539766,-1.52E-07,-0.00479389,-0.000142446,-0.003581318,-180.76771,344.2857563,49.67744438,509.0179971,-121.8440405,176.5652926,-3.08E-05,-0.001561216,,,,
583.4959996,2279,466.9419649,-39.80087035,-3.07E-07,90.758123,-1.53E-07,-0.005330777,-0.000158324,-0.004131117,122.8001971,113.4406756,-16.5966222,-68.22296687,3.926118378,-147.5489344,-3.37E-05,-0.00176373,,,,
583.5039996,2279,600.6366597,65.64509148,-3.09E-07,209.1853271,-1.54E-07,-0.00586547,-0.000174137,-0.004678704,105.6005087,197.3896657,356.6052625,174.8535428,62.23270355,-21.76119223,-3.65E-05,-0.001965422,,,,
583.5119996,2279,338.7015937,15.00415249,-3.11E-07,54.21736915,-1.55E-07,-0.006397965,-0.000189884,-0.005224072,-161.4984087,311.3986352,-206.9387639,368.8125954,-159.1362638,230.7275964,-3.94E-05,-0.002166291,,,,
583.5199996,2279,845.5393347,20.86291978,-3.13E-07,287.5171857,-1.57E-07,-0.006928256,-0.000205567,-0.005767217,586.8717949,-116.1924519,573.4536082,-554.9854526,325.9960389,-478.0151527,-4.22E-05,-0.002366336,,,,
583.5279996,2279,777.9304446,98.80624986,-3.15E-07,322.7281449,-1.58E-07,-0.007456338,-0.000221184,-0.006308133,285.3140434,123.6080167,642.4798107,36.99335353,206.1431483,-114.3641334,-4.50E-05,-0.002565553,,,,
583.5359996,2279,428.9271105,0.248421689,-3.18E-07,110.6299418,-1.59E-07,-0.007982207,-0.000236736,-0.006846816,-41.74757072,251.9719786,-82.13258978,238.9155221,-81.22450398,165.0548264,-4.78E-05,-0.002763942,,,,
583.5439996,2279,518.4087619,0.746883469,-3.20E-07,179.067995,-1.60E-07,-0.008505857,-0.000252222,-0.00738326,-15.84697192,269.7145816,50.07219278,277.9734736,-51.63122544,233.9263155,-5.06E-05,-0.002961499,,,,
583.5519996,2279,578.3565776,10.9272104,-3.22E-07,206.7609821,-1.61E-07,-0.009027285,-0.000267642,-0.00791746,73.0320025,224.0262912,134.9819296,167.597536,2.624773606,205.8254109,-5.34E-05,-0.003158225,,,,
583.5599996,2279,571.7241682,31.52098424,-3.24E-07,219.0302342,-1.62E-07,-0.009546485,-0.000282996,-0.008449411,28.58468567,267.4862633,132.5818019,268.0635547,-9.078903082,315.2097662,-5.62E-05,-0.003354116,,,,
583.5679996,2279,510.6137137,-0.806355474,-3.26E-07,198.3796011,-1.63E-07,-0.010063453,-0.000298284,-0.008979109,-93.67910598,341.172663,-63.27372335,408.837601,-101.8085517,496.1013371,-5.89E-05,-0.003549172,,,,
583.5759996,2279,691.1137766,3.275772855,-3.28E-07,273.1342419,-1.64E-07,-0.010578184,-0.000313507,-0.00950655,182.912871,185.5424537,204.0466386,60.21413469,58.23806664,288.2111664,-6.17E-05,-0.003743389,,,,
583.5839996,2279,526.6299595,32.7287733,-3.30E-07,226.0761983,-1.65E-07,-0.011090674,-0.000328663,-0.010031727,-134.1975108,413.5847834,3.533100253,564.3422347,-118.682537,699.8920676,-6.44E-05,-0.003936768,,,,
583.5919996,2279,574.6140981,-23.56134813,-3.32E-07,197.1164465,-1.66E-07,-0.011600919,-0.000343752,-0.010554637,101.2380357,235.0631827,-41.11546539,109.6366776,-9.030220197,464.9077742,-6.71E-05,-0.004129305,,,,
583.5999996,2279,642.4469735,54.04956968,-3.34E-07,242.1503279,-1.67E-07,-0.012108914,-0.000358775,-0.011075275,97.1714319,264.2917282,224.8637549,207.094533,46.01235374,514.7081986,-6.98E-05,-0.004321,,,,
583.6079996,2279,384.73548,20.67146911,-3.36E-07,75.34770383,-1.68E-07,-0.012614655,-0.000373731,-0.011593637,-136.0701079,338.7686008,-248.7636036,326.2780098,-141.9126693,669.96197,-7.25E-05,-0.004511851,,,,
583.6159996,2279,607.6459548,30.08260716,-3.38E-07,145.9785915,-1.69E-07,-0.013118139,-0.000388621,-0.012109718,294.1400383,54.5012778,124.1610633,-282.3110027,132.3879798,190.6640793,-7.52E-05,-0.004701855,,,,
583.6239996,2279,378.0404938,76.55472085,-3.40E-07,67.74206747,-1.70E-07,-0.01361936,-0.000403443,-0.012623514,-123.5054243,318.2017764,-104.036515,337.5359523,-87.61800944,598.1120845,-7.79E-05,-0.004891013,,,,
583.6319996,2279,399.6637613,-0.874868071,-3.41E-07,20.8406245,-1.71E-07,-0.014118316,-0.000418199,-0.013135022,133.4889234,90.99027675,-203.3001274,-206.9439476,9.485354389,232.8843683,-8.05E-05,-0.005079321,,,,
583.6399996,2279,502.6037284,86.31697493,-3.43E-07,111.6775856,-1.72E-07,-0.014615001,-0.000432887,-0.013644236,148.4667615,122.5286049,158.3079702,-50.24478407,93.09828014,240.3272808,-8.32E-05,-0.005266779,,,,
583.6479996,2279,197.3304395,40.13651341,-3.45E-07,-63.62691441,-1.73E-07,-0.015109413,-0.000447508,-0.014151153,-134.1423621,227.607068,-381.8744706,165.3594205,-125.8097521,437.5631832,-8.58E-05,-0.005453386,,,,
583.6559996,2279,454.219199,34.55331666,-3.47E-07,49.7968101,-1.74E-07,-0.015601547,-0.000462062,-0.014655769,330.0070262,-65.55136785,53.04876125,-435.4570477,161.7558211,-65.91054274,-8.85E-05,-0.005639139,,,,
583.6639996,2279,226.8945838,67.35219298,-3.49E-07,5.281613624,-1.74E-07,-0.016091401,-0.000476548,-0.015158079,-125.3933684,236.8769995,-164.8904684,284.1260637,-80.03453063,394.8487319,-9.11E-05,-0.005824037,,,,
583.6719996,2279,243.9934729,-22.96483037,-3.51E-07,-33.47032364,-1.75E-07,-0.016578969,-0.000490967,-0.015658081,132.0482885,9.990017662,-277.8720094,-267.6454644,14.94436326,39.3189896,-9.37E-05,-0.006008079,,,,
583.6799996,2280,354.5617115,80.01400685,-3.53E-07,68.05695548,-1.76E-07,-0.01706425,-0.000505318,-0.01615577,154.5622475,50.26998323,116.1501558,-101.166536,104.2048738,59.85057121,-9.63E-05,-0.006191264,,,,
583.6879996,2280,65.41730223,20.12893785,-3.54E-07,-86.13284359,-1.77E-07,-0.017547238,-0.000519601,-0.016651142,-146.1853218,187.3498727,-448.3983286,154.5567255,-130.769631,294.8958939,-9.88E-05,-0.00637359,,,,
583.6959996,2280,374.057766,-2.821945748,-3.56E-07,61.92507797,-1.78E-07,-0.018027932,-0.000533816,-0.017144195,322.9142415,-84.84834346,26.878743,-437.0633279,159.356405,-178.2860966,-0.000101393,-0.006555056,,,,
583.7039996,2280,136.8344237,55.1883051,-3.58E-07,-2.690654079,-1.79E-07,-0.018506327,-0.000547964,-0.017634924,-149.3933183,230.6348571,-169.9507775,295.0106951,-87.31953893,322.6088429,-0.000103943,-0.006735661,,,,
583.7119996,2280,126.1628205,-14.97933875,-3.60E-07,-67.27891744,-1.80E-07,-0.01898242,-0.000562043,-0.018123326,112.6458769,-9.588861623,-318.0374204,-274.3328711,9.788605458,-34.16147957,-0.00010648,-0.006915403,,,,
583.7199996,2280,250.4819196,83.40129398,-3.61E-07,53.31559769,-1.81E-07,-0.019456209,-0.000576054,-0.018609397,154.8697216,28.94123052,79.50865784,-104.5617169,107.1322608,-16.77905282,-0.000109006,-0.007094281,,,,
583.7279996,2280,-54.68770443,31.80603558,-3.63E-07,-104.3154889,-1.82E-07,-0.019927689,-0.000589997,-0.019093135,-158.1357615,174.2333467,-491.1547465,168.0950517,-135.1471113,236.6273113,-0.000111519,-0.007272294,,,,
583.7359996,2280,232.2296479,17.80662364,-3.65E-07,29.20728275,-1.83E-07,-0.020396858,-0.000603871,-0.019574536,318.2014922,-117.5403426,-31.83398102,-446.9771302,164.7786439,-246.2336495,-0.000114019,-0.007449441,,,,
583.7439996,2280,5.06985219,57.21893878,-3.66E-07,-21.89933221,-1.83E-07,-0.020863714,-0.000617677,-0.020053596,-142.9211493,196.7408078,-232.1157192,293.5990474,-85.04032987,258.2735798,-0.000116507,-0.00762572,,,,
583.7519996,2280,9.089302013,-31.14697592,-3.68E-07,-70.00452058,-1.84E-07,-0.021328252,-0.000631415,-0.020530313,117.0307778,-23.77516529,-375.992924,-254.2334381,-1.096512273,-78.68295279,-0.000118983,-0.007801131,,,,
583.7599996,2280,143.6477521,69.15432896,-3.70E-07,53.99174898,-1.85E-07,-0.021790471,-0.000645084,-0.021004684,161.4612643,15.33445466,42.19472421,-96.02233862,114.8771969,-56.57258176,-0.000121446,-0.007975673,,,,
583.7679996,2280,-178.0522031,26.55558171,-3.71E-07,-117.8542966,-1.86E-07,-0.022250367,-0.000658684,-0.021476706,-166.3197723,159.5058807,-545.1089203,172.0920113,-139.0774102,207.336177,-0.000123896,-0.008149344,,,,
583.7759996,2280,94.87353301,24.32922775,-3.73E-07,13.48303973,-1.87E-07,-0.022707938,-0.000672215,-0.021946375,319.5104435,-127.4278913,-99.09212688,-458.8740779,149.1781578,-279.5153231,-0.000126334,-0.008322143,,,,
583.7839996,2280,-127.1564848,68.97592825,-3.75E-07,-16.61117137,-1.88E-07,-0.023163181,-0.000685678,-0.02241369,-135.7503556,203.803909,-296.511556,293.682575,-82.89641846,236.7099049,-0.000128759,-0.008494069,,,,
583.7919996,2280,-113.4491972,-40.00137383,-3.76E-07,-42.16881831,-1.88E-07,-0.023616094,-0.000699071,-0.022878646,100.8417055,-0.867261149,-449.8238688,-222.1897079,-11.53649083,-59.57047711,-0.000131172,-0.008665122,,,,
583.7999996,2280,41.3551801,48.07808602,-3.78E-07,106.4211482,-1.89E-07,-0.024066673,-0.000712396,-0.023341242,137.6130892,45.43773019,3.659362618,-44.48276049,92.34782972,3.579160004,-0.000133573,-0.0088353,,,,
583.8079996,2280,-357.031884,17.42160194,-3.79E-07,-41.84415034,-1.90E-07,-0.024514918,-0.000725651,-0.023801475,-355.0932512,342.2901551,-639.4124508,552.8897599,-245.9731766,556.0070741,-0.00013596,-0.009004602,,,,
583.8159996,2280,-32.81280257,31.10169983,-3.81E-07,171.9660317,-1.91E-07,-0.024960825,-0.000738838,-0.024259343,175.189634,88.67019675,-35.3295529,-4.632559545,85.78670845,166.9670034,-0.000138335,-0.009173028,,,,
583.8239996,2280,-158.7810058,74.42054938,-3.82E-07,129.6298435,-1.91E-07,-0.025404392,-0.000751955,-0.024714842,-90.62541521,262.8974787,-135.9074477,404.5720025,-45.96142403,457.7163812,-0.000140698,-0.009340577,,,,
583.8319996,2280,-337.3515285,-71.01545749,-3.84E-07,-54.40672139,-1.92E-07,-0.025845616,-0.000765003,-0.025167971,-4.743008738,85.24776885,-732.5310225,-94.70175751,-114.8954905,257.6980627,-0.000143048,-0.009507247,,,,
583.8399996,2280,-25.59655261,37.56263171,-3.85E-07,194.7116743,-1.93E-07,-0.026284497,-0.000777981,-0.025618726,245.8866764,42.49360523,13.6421571,-95.3501968,136.7998729,184.8933744,-0.000145385,-0.009673038,,,,
583.8479996,2280,-345.7605843,17.31906064,-3.87E-07,42.13283788,-1.94E-07,-0.026721031,-0.00079089,-0.026067107,-217.9008031,289.3370974,-501.8865331,430.9470404,-163.2733359,625.7569747,-0.00014771,-0.00983795,,,,
583.8559996,2280,-210.9093645,-49.77535174,-3.88E-07,61.88793999,-1.94E-07,-0.027155216,-0.00080373,-0.026513111,173.3729309,-2.898004637,-419.2390789,-259.4530284,23.13657486,190.5536735,-0.000150022,-0.01000198,,,,
583.8639996,2280,-164.4826815,74.84671246,-3.90E-07,165.6091049,-1.95E-07,-0.027587051,-0.0008165,-0.026956734,25.8437367,171.1757534,-81.25543464,208.2405752,29.95258795,455.8172122,-0.000152321,-0.010165129,,,,
583.8719996,2280,-426.7150003,-20.48030741,-3.91E-07,-21.41779949,-1.96E-07,-0.028016534,-0.000829201,-0.027397977,-142.3439478,188.0881669,-664.4694506,165.3271244,-149.1627137,538.1993131,-0.000154608,-0.010327396,,,,
583.8799996,2280,-117.9939898,-5.670071661,-3.93E-07,153.5838556,-1.97E-07,-0.028443663,-0.000841831,-0.027836835,256.3279894,-14.51471452,-114.9962132,-256.3294167,124.1007882,198.1615301,-0.000156882,-0.01048878,,,,
583.8879996,2280,-332.4469215,18.91233125,-3.94E-07,86.92926015,-1.97E-07,-0.028868436,-0.000854393,-0.028273309,-174.3165087,272.6892196,-362.5704068,388.0149152,-117.3927359,674.317546,-0.000159143,-0.010649281,,,,
583.8959996,2280,-300.9852923,-56.10253728,-3.95E-07,31.42514217,-1.98E-07,-0.029290852,-0.000866884,-0.028707395,89.95627138,35.82565755,-459.5113619,-187.8601182,-17.41185867,329.9277049,-0.000161392,-0.010808897,,,,
583.9039996,2280,-188.191495,52.81690106,-3.97E-07,133.1167028,-1.99E-07,-0.029710908,-0.000879306,-0.029139091,106.9657882,81.51781533,-62.25333461,11.26660063,63.32525103,388.3635941,-0.000163628,-0.010967628,,,,
583.9119996,2280,-485.3040142,1.695421014,-3.98E-07,-50.06770437,-1.99E-07,-0.030128604,-0.000891658,-0.029568397,-173.0283819,196.8744619,-639.9303322,227.0978321,-166.2468092,614.3028656,-0.000165851,-0.011125474,,,,
583.9199996,2280,-184.7073495,8.917472747,-4.00E-07,95.47920884,-2.00E-07,-0.030543938,-0.00090394,-0.029995311,286.2561465,-68.91614602,-178.2573788,-345.4634854,130.6304285,160.3889739,-0.000168062,-0.011282434,,,,
583.9279996,2280,-375.4265927,55.98973278,-4.01E-07,56.00048273,-2.01E-07,-0.030956908,-0.000916152,-0.03041983,-137.6367283,234.2275684,-333.7098229,359.1517842,-78.18823241,651.0959149,-0.00017026,-0.011438507,,,,
583.9359996,2281,-386.9006063,-35.59950506,-4.02E-07,-22.05161137,-2.01E-07,-0.031367514,-0.000928294,-0.030841954,73.52348901,22.6664936,-510.639715,-161.430247,-11.16900333,334.9247619,-0.000172445,-0.011593693,,,,
583.9439996,2281,-207.3386381,52.48845299,-4.04E-07,119.3583012,-2.02E-07,-0.031775753,-0.000940366,-0.03126168,141.4924677,36.98533789,-54.31035227,-53.42379297,96.87163937,312.2961807,-0.000174617,-0.011747991,,,,
583.9519996,2281,-486.8585158,-1.223566399,-4.05E-07,-44.0829453,-2.03E-07,-0.032181624,-0.000952368,-0.031679008,-209.799791,213.7200219,-582.710144,284.8847549,-163.2666595,627.9446934,-0.000176777,-0.011901401,,,,
583.9599996,2281,-184.0118987,-10.25958338,-4.06E-07,75.71589605,-2.03E-07,-0.032585127,-0.0009643,-0.032093936,277.3139103,-90.89967986,-137.657015,-381.0610051,127.4565292,113.5044133,-0.000178924,-0.012053922,,,,
583.9679996,2281,-359.3182534,55.20549027,-4.07E-07,46.13011955,-2.04E-07,-0.032986261,-0.000976162,-0.032506463,-138.2557435,212.3235057,-269.4932449,333.4015795,-81.96623291,585.0024095,-0.000181058,-0.012205554,,,,
583.9759996,2281,-373.8140279,-26.11016737,-4.09E-07,-36.05121216,-2.05E-07,-0.033385023,-0.000987954,-0.032916588,62.87375182,18.14025995,-477.2540668,-151.1982052,-22.93935983,296.2553202,-0.00018318,-0.012356297,,,,
583.9839996,2281,-155.3936082,53.80859365,-4.10E-07,124.1218773,-2.05E-07,-0.033781414,-0.000999676,-0.033324309,169.870977,26.56473405,6.921485881,-53.95872177,99.95424855,271.2792483,-0.000185288,-0.01250615,,,,
583.9919996,2281,-427.0904959,-7.217617556,-4.11E-07,-33.3592456,-2.06E-07,-0.034175433,-0.001011327,-0.033729626,-198.1818574,230.5988228,-515.6096037,343.6641544,-170.2991365,624.8715476,-0.000187384,-0.012655113,,,,
583.9999996,2281,-148.6143676,-9.675793856,-4.12E-07,57.78638832,-2.06E-07,-0.034567078,-0.001022909,-0.034132537,290.1719901,-91.00093742,-88.1171549,-356.2548906,133.9230841,98.35526133,-0.000189467,-0.012803185,,,,
584.0079996,2281,-334.2897697,70.68153952,-4.13E-07,27.01592012,-2.07E-07,-0.034956349,-0.00103442,-0.034533042,-127.8105249,197.9378707,-228.7457363,345.9133318,-75.17534317,556.7876862,-0.000191538,-0.012950366,,,,
584.0159996,2281,-340.6683153,-27.56055693,-4.15E-07,-38.13963794,-2.08E-07,-0.035343245,-0.001045861,-0.03493114,64.19557357,18.287129,-454.0998539,-128.9552607,-28.75141175,264.7477829,-0.000193595,-0.013096656,,,,
584.0239996,2281,-131.6448144,53.50629878,-4.16E-07,113.9879765,-2.08E-07,-0.035727765,-0.001057231,-0.035326829,179.9365512,21.60963133,56.24555059,-67.64679329,129.5282279,224.8748959,-0.00019564,-0.013242054,,,,
584.0319996,2281,-435.7682972,13.89896488,-4.17E-07,-50.22699344,-2.09E-07,-0.036109909,-0.001068532,-0.03572011,-201.33277,214.7503266,-500.3175781,314.8465775,-142.8847741,566.8673757,-0.000197672,-0.013386561,,,,
584.0399996,2281,-127.6906512,-2.181589048,-4.18E-07,78.70725072,-2.09E-07,-0.036489677,-0.001079762,-0.036110981,299.0290042,-97.12614579,-79.96076946,-381.0266549,141.6639802,30.71745198,-0.000199691,-0.013530175,,,,
584.0479996,2281,-288.3917895,76.86824936,-4.19E-07,60.2525567,-2.10E-07,-0.036867067,-0.001090921,-0.036499441,-114.1373659,223.2727145,-150.843692,363.2511586,-55.88180689,534.1560235,-0.000201698,-0.013672898,,,,
584.0559996,2281,-328.6710378,6.062237377,-4.20E-07,-37.23868974,-2.11E-07,-0.03724208,-0.001102011,-0.036885491,70.7712221,37.12821215,-396.3749534,-111.4109368,-6.36909402,257.090855,-0.000203691,-0.013814728,,,,
584.0639996,2281,-116.3454653,93.43447285,-4.21E-07,116.3460716,-2.11E-07,-0.037614714,-0.00111303,-0.03726913,208.6331554,16.01444323,87.11606514,-72.03491934,148.372926,180.6412752,-0.000205672,-0.013955666,,,,
584.0719996,2281,-395.5841223,23.84462004,-4.22E-07,-34.60951542,-2.11E-07,-0.037984971,-0.001123978,-0.037650357,-180.5437229,228.3260827,-454.8586138,364.3881592,-139.6440851,554.2072703,-0.00020764,-0.014095711,,,,
584.0799996,2281,-73.99309477,-13.93542698,-4.23E-07,85.62129946,-2.12E-07,-0.038352849,-0.001134857,-0.038029172,306.9194684,-81.33574155,-19.81246849,-324.8392809,145.6054373,38.46335132,-0.000209596,-0.014234863,,,,
584.0879996,2281,-219.9879133,59.69277033,-4.24E-07,68.8199685,-2.13E-07,-0.038718349,-0.001145665,-0.038405575,-124.4370282,227.6875631,-81.16071834,393.7939742,-54.25758404,525.3062521,-0.000211538,-0.014373122,,,,
584.0959996,2281,-259.6490824,-36.81218792,-4.25E-07,-29.49545748,-2.13E-07,-0.03908147,-0.001156402,-0.038779565,22.79822931,41.04571346,-343.2071579,-94.27492125,-44.48784028,250.6168579,-0.000213468,-0.014510489,,,,
584.1039996,2281,-54.73145732,62.3306843,-4.26E-07,110.8731587,-2.14E-07,-0.039442213,-0.00116707,-0.039151143,156.7620304,6.99248587,153.0982165,-94.39806477,109.143227,160.0727862,-0.000215385,-0.014646963,,,,
584.1119996,2281,-361.9536433,44.69497826,-4.27E-07,-54.35018187,-2.14E-07,-0.039800576,-0.001177667,-0.039520307,-229.0382353,219.6254534,-389.9820489,339.1733161,-154.7324659,530.0800845,-0.000217289,-0.014782543,,,,
584.1199996,2281,-59.2748173,7.026868397,-4.28E-07,61.43770433,-2.15E-07,-0.040156561,-0.001188193,-0.039887059,280.8824703,-104.6586381,15.39024038,-370.3043651,133.6653791,-6.012564417,-0.00021918,-0.014917231,,,,
584.1279996,2281,-203.1638652,74.29166622,-4.29E-07,51.63973488,-2.15E-07,-0.040510168,-0.001198649,-0.040251397,-126.0218958,187.2619861,-53.5373217,340.3176569,-58.37939679,460.1469901,-0.000221059,-0.015051026,,,,
584.1359996,2281,-228.4333831,-20.18674565,-4.30E-07,-33.64236575,-2.16E-07,-0.040861396,-0.001209035,-0.040613323,28.73295718,14.66922578,-316.3424665,-107.6931479,-34.43731612,204.3235764,-0.000222925,-0.015183928,,,,
584.1439996,2281,15.80933144,43.78362066,-4.31E-07,122.9124682,-2.16E-07,-0.041210247,-0.001219351,-0.040972836,178.0924773,-11.19503407,214.2507441,-94.38516557,126.7983501,121.9168525,-0.000224778,-0.015315936,,,,
584.1519996,2281,-291.5341188,26.34408079,-4.32E-07,-53.88687664,-2.16E-07,-0.041556719,-0.001229596,-0.041329936,-227.9913711,204.0775911,-327.643484,346.6990625,-150.865808,497.4822023,-0.000226618,-0.015447053,,,,
584.1599996,2281,8.961188053,10.92767579,-4.33E-07,51.94785524,-2.17E-07,-0.041900815,-0.001239771,-0.041684624,276.9690626,-125.3665276,43.52690675,-390.619562,136.9799295,-61.69062577,-0.000228446,-0.015577277,,,,
584.1679996,2281,-111.2994072,67.53925667,-4.34E-07,49.96354628,-2.17E-07,-0.042242533,-0.001249875,-0.0420369,-127.0337205,178.480994,0.559015958,327.6278034,-45.62491013,404.988601,-0.00023026,-0.015706608,,,,
584.1759996,2281,-154.1182272,-21.7161347,-4.35E-07,-50.88651996,-2.18E-07,-0.042581875,-0.00125991,-0.042386765,8.554573891,13.32059301,-264.822333,-99.1091352,-27.7184422,160.4737575,-0.000232062,-0.015835047,,,,
584.1839996,2281,91.0581529,52.04455538,-4.35E-07,104.4685816,-2.18E-07,-0.042918842,-0.001269874,-0.042734218,170.3084782,-28.8774261,246.4306221,-116.5209363,134.1819022,42.84684753,-0.000233852,-0.015962594,,,,
584.1919996,2282,-187.8461889,16.37453913,-4.36E-07,-52.92584953,-2.19E-07,-0.043253433,-0.001279767,-0.04307926,-240.588247,204.5210316,-270.6982628,357.2820528,-148.0149866,441.356856,-0.000235628,-0.016089249,,,,
584.1999996,2282,119.2481094,-0.248476615,-4.37E-07,54.57208126,-2.19E-07,-0.043585649,-0.001289591,-0.043421892,265.8567049,-121.8148849,124.7752129,-376.2607935,151.3313341,-104.2263348,-0.000237392,-0.016215012,,,,
584.2079996,2282,1.824893138,70.56486092,-4.38E-07,54.35908446,-2.20E-07,-0.043915492,-0.001299344,-0.043762114,-124.3870902,169.1063883,84.78403703,312.1616303,-25.92908336,338.1395471,-0.000239143,-0.016339884,,,,
584.2159996,2282,-32.89235141,-28.40407337,-4.39E-07,-39.71344687,-2.20E-07,-0.044242962,-0.001309027,-0.044099928,9.148345107,17.92059065,-188.9287816,-102.9398163,-22.13422661,104.8781195,-0.000240881,-0.016463864,,,,
584.2239996,2282,201.1687083,55.78802845,-4.40E-07,104.6511565,-2.20E-07,-0.04456806,-0.00131864,-0.044435333,195.3506858,-30.52899423,334.2969069,-136.8116934,150.0054212,-22.03416752,-0.000242606,-0.016586954,,,,
584.2319996,2282,-116.5176144,38.28633801,-4.40E-07,-72.72398107,-2.21E-07,-0.044890786,-0.001328183,-0.044768331,-216.2348801,186.2198253,-221.7253682,327.4273417,-138.3625634,356.3369393,-0.000244319,-0.016709153,,,,
584.2399996,2282,189.5687633,6.379180379,-4.41E-07,36.25372959,-2.21E-07,-0.045211142,-0.001337656,-0.045098922,279.2110631,-141.9001794,140.6221476,-402.2172622,146.6332385,-193.7772258,-0.000246019,-0.016830462,,,,
584.2479996,2282,78.96592097,78.39035031,-4.42E-07,37.212163,-2.22E-07,-0.045529128,-0.001347059,-0.045427107,-108.1029902,153.3908466,119.8974364,304.7281371,-31.75382356,253.5282855,-0.000247706,-0.016950882,,,,
584.2559996,2282,40.89576682,-27.75359654,-4.43E-07,-50.82156779,-2.22E-07,-0.045844747,-0.001356391,-0.045752888,11.73061676,5.045549347,-175.826594,-93.61943137,-31.06975814,27.77599105,-0.000249381,-0.017070411,,,,
584.2639996,2282,319.7931912,32.62470863,-4.43E-07,127.1651054,-2.22E-07,-0.046157998,-0.001365654,-0.046076265,186.1002964,-29.98953487,379.2440393,-122.3465744,149.996843,-77.85955934,-0.000251042,-0.017189051,,,,
584.2719996,2282,12.58620566,15.59310781,-4.44E-07,-46.57260063,-2.23E-07,-0.046468883,-0.001374846,-0.046397238,-241.1696756,207.9643022,-138.0941993,367.3490705,-133.3281362,336.4396139,-0.000252691,-0.017306803,,,,
584.2799996,2282,304.3130608,-14.83403763,-4.45E-07,53.92688162,-2.23E-07,-0.046777403,-0.001383969,-0.046715811,262.9865174,-129.7030146,205.0111796,-390.8174228,157.587054,-228.3348225,-0.000254328,-0.017423667,,,,
584.2879996,2282,216.5456965,54.44855407,-4.45E-07,73.28566441,-2.23E-07,-0.047083561,-0.001393022,-0.047031983,-119.4879625,167.6742787,205.2997583,302.8842291,-17.62136094,221.159943,-0.000255951,-0.017539642,,,,
584.2959996,2282,162.4615143,-33.542364,-4.46E-07,-32.55584399,-2.24E-07,-0.047387356,-0.001402005,-0.047345755,-11.11396494,24.53725964,-96.15417488,-92.52033604,-30.02500995,16.6605419,-0.000257562,-0.017654731,,,,
584.3039996,2282,413.284751,54.10560912,-4.47E-07,117.9595112,-2.24E-07,-0.04768879,-0.001410918,-0.04765713,187.5707205,-36.00756019,426.510104,-164.9891932,145.8587116,-125.8633409,-0.000259161,-0.017768932,,,,
584.3119996,2282,107.9558762,31.90797301,-4.47E-07,-51.46617934,-2.24E-07,-0.047987865,-0.001419761,-0.047966108,-236.7205509,210.0273433,-98.6090482,348.0467452,-144.3444435,287.5792402,-0.000260746,-0.017882247,,,,
584.3199996,2282,390.6335649,-7.624760813,-4.48E-07,39.05151646,-2.25E-07,-0.048284582,-0.001428535,-0.048272691,264.7827424,-127.8511419,236.4398438,-401.4975303,149.1180672,-277.4527951,-0.000262319,-0.017994677,,,,
584.3279996,2282,294.8173362,63.14656661,-4.49E-07,51.17277379,-2.25E-07,-0.048578943,-0.001437238,-0.04857688,-111.4552622,158.5660321,233.8805826,287.9032822,-20.36156507,157.6545549,-0.00026388,-0.018106221,,,,
584.3359996,2282,236.7279125,-37.67105122,-4.49E-07,-51.25168048,-2.25E-07,-0.048870949,-0.001445873,-0.048878677,-19.61858224,27.42751742,-71.11904271,-81.09629689,-41.33293278,-31.27238262,-0.000265427,-0.018216881,,,,
584.3439996,2282,487.265213,43.09252316,-4.50E-07,102.805076,-2.26E-07,-0.049160602,-0.001454437,-0.049178084,187.4322105,-43.77498295,460.650538,-179.982216,151.1647655,-189.2056677,-0.000266963,-0.018326656,,,,
584.3519996,2282,177.4319779,19.64907511,-4.50E-07,-58.82948662,-2.26E-07,-0.049447905,-0.001462932,-0.049475101,-242.7606438,206.7332648,-65.85232997,334.5572913,-140.8980356,234.4648849,-0.000268485,-0.018435549,,,,
584.3599996,2282,449.3253329,-13.22275824,-4.51E-07,31.83405169,-2.26E-07,-0.049732857,-0.001471358,-0.049769731,252.8394048,-128.8524694,264.1481577,-425.7706493,134.4166985,-319.8959294,-0.000269995,-0.018543558,,,,
584.3679996,2282,348.2886653,65.32886295,-4.51E-07,50.21899745,-2.26E-07,-0.050015462,-0.001479714,-0.050061975,-104.8525283,144.0726738,264.6864903,238.2248794,-26.18223993,98.61502114,-0.000271492,-0.018650685,,,,
584.3759996,2282,227.1528941,-115.3036274,-4.52E-07,-105.2062513,-2.27E-07,-0.050295722,-0.001488001,-0.050351835,35.97562929,-51.8111726,-273.9560454,-313.7150365,-64.72058353,-176.2502203,-0.000272977,-0.018756931,,,,
584.3839996,2282,531.1645347,-92.58997266,-4.52E-07,47.58261787,-2.27E-07,-0.050573637,-0.001496218,-0.050639313,464.198146,-295.8141602,240.243936,-822.783696,221.1499742,-593.2458974,-0.000274449,-0.018862297,,,,
584.3919996,2282,329.7305863,18.63524723,-4.53E-07,30.0844869,-2.27E-07,-0.050849211,-0.001504366,-0.050924411,-86.9058186,108.432435,171.1575906,148.9170048,-39.66605462,50.21429998,-0.000275908,-0.018966782,,,,
584.3999996,2282,387.6717364,-20.1049726,-4.53E-07,36.3753489,-2.27E-07,-0.051122445,-0.001512445,-0.051207131,-15.53010331,39.80607113,208.3612196,2.965783569,-8.858411688,-56.60742653,-0.000277355,-0.019070388,,,,
584.4079996,2282,365.1520532,-49.38848005,-4.54E-07,-0.000119277,-2.28E-07,-0.051393341,-0.001520455,-0.051487474,-43.96837753,34.64985544,122.6931457,-6.30931216,-34.66235414,-46.03654589,-0.00027879,-0.019173115,,,,
584.4159996,2282,422.3468598,-53.5577625,-4.54E-07,13.54451164,-2.28E-07,-0.051661901,-0.001528396,-0.051765443,18.13759596,-18.57324856,204.8145169,-109.1970874,16.50568649,-123.6961777,-0.000280211,-0.019274965,,,,
584.4239996,2282,406.6144622,-33.08145407,-4.55E-07,20.47423975,-2.28E-07,-0.051928128,-0.001536268,-0.052041041,-86.26479364,47.76739936,231.8561598,72.88633061,-24.17335805,-17.98072187,-0.000281621,-0.019375938,,,,
584.4319996,2282,341.4450959,-101.5489234,-4.55E-07,-47.84512525,-2.28E-07,-0.052192024,-0.00154407,-0.052314268,-65.86236986,-7.932159541,-7.688128538,-91.76955551,-62.11779286,-90.54856084,-0.000283018,-0.019476034,,,,
584.4399996,2282,527.7574889,-58.36116774,-4.56E-07,69.57430238,-2.29E-07,-0.052453591,-0.001551804,-0.052585127,70.10234686,-54.0292268,366.8623736,-154.4654355,65.75137941,-190.5159707,-0.000284402,-0.019575256,,,,
584.4479996,2283,294.1000293,-53.2981847,-4.56E-07,-55.71473571,-2.29E-07,-0.052712831,-0.001559469,-0.052853621,-237.9249918,111.9324836,-0.187293423,201.4208487,-133.4311421,114.3826417,-0.000285774,-0.019673603,,,,
584.4559996,2283,484.2925105,-70.42326745,-4.56E-07,11.21585755,-2.29E-07,-0.052969748,-0.001567066,-0.053119751,135.676058,-130.6887249,208.5210376,-344.0477832,82.31590556,-277.7744273,-0.000287133,-0.019771076,,,,
584.4639996,2283,450.4189885,-16.58672966,-4.57E-07,60.35426217,-2.29E-07,-0.053224342,-0.001574593,-0.053383521,-110.9517543,88.61645341,264.3499444,174.2656643,-17.83160026,45.19871502,-0.00028848,-0.019867677,,,,
584.4719996,2283,355.5501265,-101.3649052,-4.57E-07,-38.66981757,-2.29E-07,-0.053476617,-0.001582052,-0.053644932,-86.18918896,18.84409116,-37.71221839,-49.10516513,-74.87585829,-33.64565719,-0.000289814,-0.019963406,,,,
584.4799996,2283,578.5841985,-23.88025999,-4.58E-07,92.51958074,-2.29E-07,-0.053726575,-0.001589443,-0.053903987,135.894847,-72.84364405,433.1692526,-184.4125271,102.1475859,-197.2305699,-0.000291136,-0.020058264,,,,
584.4879996,2283,273.1739944,-24.34493934,-4.58E-07,-56.15954231,-2.30E-07,-0.053974219,-0.001596765,-0.054160689,-258.2225045,164.659418,-57.75756315,322.5186976,-157.5299043,212.8591162,-0.000292446,-0.020152252,,,,
584.4959996,2283,502.1791853,-61.87090561,-4.58E-07,28.25668417,-2.30E-07,-0.054219552,-0.001604019,-0.054415039,192.9774235,-129.1826149,200.2588001,-348.1074079,97.91211758,-260.7830546,-0.000293743,-0.020245372,,,,
584.5039996,2283,437.6081554,18.76973116,-4.59E-07,66.65807698,-2.30E-07,-0.054462576,-0.001611204,-0.054667042,-105.4930564,113.9674448,248.4988437,251.7433179,-31.84753935,123.9350958,-0.000295028,-0.020337623,,,,
584.5119996,2283,319.8891092,-72.4281947,-4.59E-07,-47.09882154,-2.30E-07,-0.054703293,-0.001618322,-0.054916698,-61.22329374,20.41926257,-111.2956776,-20.34187084,-80.59377364,19.74657213,-0.0002963,-0.020429008,,,,
584.5199996,2283,574.7847536,-11.59076625,-4.59E-07,115.8827449,-2.30E-07,-0.054941708,-0.001625371,-0.055164012,178.035446,-75.98246575,414.0776413,-169.9667028,119.2540479,-156.1868791,-0.000297561,-0.020519527,,,,
584.5279996,2283,271.4839514,-22.24498346,-4.59E-07,-20.98494841,-2.30E-07,-0.055177821,-0.001632352,-0.055408985,-271.5198373,194.6478955,-78.00583019,396.067975,-173.2779377,303.4538918,-0.000298808,-0.02060918,,,,
584.5359996,2283,516.6759205,-60.09485455,-4.60E-07,63.90151205,-2.31E-07,-0.055411637,-0.001639265,-0.05565162,209.1498479,-113.9722865,204.5693435,-332.4972817,106.1116919,-195.8508851,-0.000300044,-0.02069797,,,,
584.5439996,2283,450.32957,11.09387977,-4.60E-07,100.3802093,-2.31E-07,-0.055643158,-0.00164611,-0.055891921,-99.97545094,145.2910103,267.8581978,287.8979924,-23.33519138,216.9451078,-0.000301267,-0.020785897,,,,
584.5519996,2283,321.6339634,-86.63732683,-4.60E-07,-22.71158545,-2.31E-07,-0.055872388,-0.001652887,-0.05612989,-67.55959416,47.07960899,-114.5726578,-6.544630124,-90.14857477,103.3598994,-0.000302478,-0.020872963,,,,
584.5599996,2283,566.7499823,-14.29980884,-4.60E-07,133.0895839,-2.31E-07,-0.056099328,-0.001659597,-0.056365531,186.9063917,-59.32985225,403.1865115,-184.3791833,125.3856538,-92.04698579,-0.000303676,-0.020959168,,,,
584.5679996,2283,263.7843093,-36.60888084,-4.61E-07,-3.301168288,-2.31E-07,-0.056323983,-0.001666239,-0.056598845,-269.862662,216.2825839,-101.5907943,409.2960955,-172.5836276,389.7180257,-0.000304863,-0.021044514,,,,
584.5759996,2283,501.3480119,-64.66967014,-4.61E-07,65.65505707,-2.31E-07,-0.056546355,-0.001672814,-0.056829837,209.1141334,-114.2902366,171.1328843,-336.8332737,88.60789389,-125.513076,-0.000306037,-0.021129001,,,,
584.5839996,2283,404.2422241,35.68303314,-4.61E-07,79.20345687,-2.31E-07,-0.056766448,-0.001679321,-0.057058509,-94.19644168,131.0823891,219.4218358,276.5972016,-37.0305423,265.2806442,-0.000307198,-0.021212631,,,,
584.5919996,2283,277.1706488,-78.12126441,-4.61E-07,-37.6052753,-2.31E-07,-0.056984264,-0.001685761,-0.057284864,-71.00427056,37.25579606,-178.5606705,0.27242537,-99.78477277,151.4178557,-0.000308348,-0.021295405,,,,
584.5999996,2283,536.7579176,-7.518386602,-4.61E-07,126.9675968,-2.31E-07,-0.057199807,-0.001692134,-0.057508906,181.2546206,-74.99731306,363.1455652,-183.847656,127.548929,-50.34162085,-0.000309486,-0.021377325,,,,
584.6079996,2283,203.810381,-12.71794343,-4.61E-07,-22.83694695,-2.31E-07,-0.057413081,-0.001698439,-0.057730638,-269.6653133,197.7970295,-142.7823764,407.905592,-164.839871,431.2390202,-0.000310611,-0.021458391,,,,
584.6159996,2283,456.273521,-74.62797011,-4.62E-07,67.66106027,-2.32E-07,-0.057624087,-0.001704678,-0.057950063,210.7040338,-125.3090041,127.3625725,-340.8931748,91.87815167,-84.80560389,-0.000311724,-0.021538605,,,,
584.6239996,2283,410.6158661,9.545234458,-4.62E-07,117.9322781,-2.32E-07,-0.057832831,-0.001710849,-0.058167184,-106.4607267,137.829409,224.7876232,284.1299647,-32.4126933,320.6794412,-0.000312825,-0.021617967,,,,
584.6319996,2283,267.6632387,-78.23233285,-4.62E-07,-18.46117379,-2.32E-07,-0.058039315,-0.001716954,-0.058382005,-90.48055549,48.06303814,-173.8885739,7.673390503,-106.6556004,223.6071393,-0.000313914,-0.02169648,,,,
584.6399996,2283,532.1177176,-16.56378443,-4.62E-07,139.8750571,-2.32E-07,-0.058243543,-0.001722992,-0.058594529,185.6497556,-79.41290298,356.2697533,-204.0333121,116.4796062,1.738892077,-0.00031499,-0.021774145,,,,
584.6479996,2283,215.558479,-23.39648427,-4.62E-07,-1.045989554,-2.32E-07,-0.058445518,-0.001728963,-0.058804759,-276.0792423,205.5900873,-134.8261892,413.3470359,-179.660336,493.3916409,-0.000316055,-0.021850962,,,,
584.6559996,2283,420.0569044,-46.03570934,-4.62E-07,52.46032868,-2.32E-07,-0.058645244,-0.001734868,-0.0590127,202.96942,-126.4417322,106.683487,-348.338485,75.44142643,-36.01875646,-0.000317108,-0.021926933,,,,
584.6639996,2283,344.4704519,36.28320428,-4.62E-07,87.46807825,-2.32E-07,-0.058842724,-0.001740707,-0.059218354,-87.50260979,111.8037562,173.1748029,253.1596978,-32.74489659,330.2912529,-0.000318148,-0.022002059,,,,
584.6719996,2283,198.1100679,-79.99361338,-4.62E-07,-36.23431751,-2.32E-07,-0.059037963,-0.001746479,-0.059421726,-79.08559455,27.71760371,-240.1580741,5.951231408,-101.7186524,243.150766,-0.000319177,-0.022076343,,,,
584.6799996,2283,454.2255588,-13.96882141,-4.62E-07,121.7849279,-2.32E-07,-0.059230962,-0.001752185,-0.059622818,203.0636363,-104.3753221,295.2778443,-217.5716645,121.8336511,13.14986898,-0.000320194,-0.022149784,,,,
584.6879996,2283,123.3043977,-26.47456335,-4.62E-07,-22.22542545,-2.32E-07,-0.059421728,-0.001757824,-0.059821635,-259.6085797,184.8563483,-192.0610816,407.5113712,-177.930522,503.4185896,-0.000321198,-0.022222385,,,,
584.6959996,2283,351.4055784,-86.23979913,-4.62E-07,53.31109694,-2.32E-07,-0.059610262,-0.001763398,-0.06001818,215.62773,-140.0717425,50.16457196,-351.0786705,72.27657868,-17.84221911,-0.000322191,-0.022294147,,,,
584.7039996,2284,334.5901078,-15.50394243,-4.62E-07,124.5877797,-2.32E-07,-0.05979657,-0.001768906,-0.060212457,-72.47015744,108.9473362,167.17587,251.6777492,-41.27142248,366.0835714,-0.000323172,-0.022365071,,,,
584.7119996,2284,189.9422664,-106.6469556,-4.62E-07,-7.222906894,-2.32E-07,-0.059980654,-0.001774348,-0.060404469,-80.10600091,44.82710364,-221.5022622,20.92336002,-113.4425743,307.0381439,-0.00032414,-0.022435159,,,,
584.7199996,2284,439.840054,-21.12202444,-4.62E-07,135.6881352,-2.32E-07,-0.060162519,-0.001779725,-0.060594222,210.6971415,-100.5390215,303.6773621,-243.8057593,118.9476262,52.01393589,-0.000325097,-0.022504412,,,,
584.7279996,2284,116.4414643,-22.71836781,-4.62E-07,-4.574439372,-2.32E-07,-0.060342168,-0.001785036,-0.060781717,-255.6071985,187.1924812,-189.0113414,382.3328466,-182.6175903,540.5336573,-0.000326042,-0.022572832,,,,
584.7359996,2284,332.4853145,-73.01145785,-4.62E-07,61.36556022,-2.32E-07,-0.060519607,-0.001790282,-0.06096696,220.0051468,-135.6379147,43.31181697,-366.818425,80.30480304,21.46908441,-0.000326975,-0.02264042,,,,
584.7439996,2284,291.2887446,12.70089628,-4.62E-07,117.0541423,-2.32E-07,-0.060694837,-0.001795462,-0.061149955,-53.22964724,93.19997319,143.4379541,217.989357,-19.6937228,370.3707112,-0.000327897,-0.022707177,,,,
584.7519996,2284,128.606522,-83.41956396,-4.62E-07,-12.78457808,-2.32E-07,-0.060867865,-0.001800577,-0.061330705,-69.10587843,31.52664577,-272.899259,8.45438597,-111.3769303,306.1691221,-0.000328806,-0.022773105,,,,
584.7599996,2284,390.9199841,-11.96505751,-4.62E-07,142.965639,-2.32E-07,-0.061038693,-0.001805627,-0.061509214,233.4773571,-102.1458608,281.3481418,-243.5525318,127.3214634,52.89708327,-0.000329704,-0.022838206,,,,
584.7679996,2284,53.43077113,-6.34109723,-4.62E-07,-7.346005337,-2.32E-07,-0.061207326,-0.001810613,-0.061685486,-228.7771863,185.4319992,-206.351847,388.5830398,-171.3627999,534.7710663,-0.00033059,-0.022902481,,,,
584.7759996,2284,266.8041912,-69.89938782,-4.62E-07,56.18418255,-2.32E-07,-0.061373767,-0.001815533,-0.061859527,246.6862796,-143.7586418,-0.801592799,-371.214757,72.28379082,5.303558904,-0.000331464,-0.022965932,,,,
584.7839996,2284,249.8618592,11.78239333,-4.62E-07,117.4707277,-2.32E-07,-0.061538023,-0.001820389,-0.062031339,-27.63222947,94.79855118,138.6233021,216.835422,-17.98481956,365.6469244,-0.000332327,-0.02302856,,,,
584.7919996,2284,69.34285759,-61.37319575,-4.62E-07,-33.18302401,-2.32E-07,-0.061700095,-0.00182518,-0.062200927,-57.80319713,36.57468157,-290.0619311,11.95577258,-107.6445988,305.4802156,-0.000333178,-0.023090367,,,,
584.7999996,2284,338.8708497,17.58850124,-4.61E-07,125.6720194,-2.32E-07,-0.061859989,-0.001829907,-0.062368295,267.2673277,-114.7469525,243.4821104,-264.6613012,134.6880063,21.10319932,-0.000334017,-0.023151354,,,,
584.8079996,2284,27.35114732,18.19645729,-4.61E-07,-0.412181518,-2.31E-07,-0.06201771,-0.001834569,-0.062533448,-200.484764,186.2182446,-214.9202481,402.5651941,-151.7142445,523.7436429,-0.000334844,-0.023211523,,,,
584.8159996,2284,232.2253932,-45.83727431,-4.61E-07,64.85621309,-2.31E-07,-0.06217326,-0.001839168,-0.06269639,251.2183335,-136.3365232,0.898362506,-348.4895894,96.8578192,8.932005009,-0.00033566,-0.023270876,,,,
584.8239996,2284,207.5746401,45.11839008,-4.61E-07,131.6563289,-2.31E-07,-0.062326646,-0.001843702,-0.062857125,-16.73678507,88.45931027,145.6678789,213.6681972,4.897754282,343.8724061,-0.000336465,-0.023329414,,,,
584.8319996,2284,9.187322698,-33.62721141,-4.61E-07,-19.21060186,-2.31E-07,-0.06247787,-0.001848172,-0.063015658,-52.06078496,28.34095179,-300.4373775,14.80636489,-100.3252285,278.7646924,-0.000337257,-0.023387139,,,,
584.8399996,2284,267.3536245,15.4022038,-4.61E-07,131.2198023,-2.31E-07,-0.062626939,-0.001852579,-0.063171993,267.7450675,-137.5829308,227.5102505,-283.7068205,142.4406573,-20.58995426,-0.000338039,-0.023444052,,,,
584.8479996,2284,-51.82551543,-1.734712544,-4.60E-07,-4.071425882,-2.31E-07,-0.062773855,-0.001856922,-0.063326134,-226.6595992,155.5328226,-236.2873327,378.8755083,-159.6207649,473.250193,-0.000338808,-0.023500156,,,,
584.8559996,2284,129.5282504,-56.67120296,-4.60E-07,35.28872893,-2.31E-07,-0.062918625,-0.001861201,-0.063478087,216.6899802,-178.3701382,-47.12085677,-390.2655762,65.56908055,-63.74602679,-0.000339567,-0.023555451,,,,
584.8639996,2284,109.986343,34.62028103,-4.60E-07,93.82622498,-2.31E-07,-0.063061252,-0.001865417,-0.063627855,-34.6867336,39.722446,99.34794422,158.9223616,-15.90440732,252.7311073,-0.000340313,-0.023609941,,,,
584.8719996,2284,-61.30055525,-61.34290795,-4.60E-07,-46.2953553,-2.31E-07,-0.06320174,-0.00186957,-0.063775444,-81.82102136,-1.53893149,-346.1819756,-12.10327901,-105.1607606,206.2404839,-0.000341048,-0.023663625,,,,
584.8799996,2284,218.3658164,-4.459451365,-4.60E-07,107.5348025,-2.31E-07,-0.063340096,-0.00187366,-0.063920857,245.7681443,-160.4604853,203.8084332,-316.687287,142.1135305,-93.98436199,-0.000341772,-0.023716507,,,,
584.8879996,2284,-105.598145,5.681562743,-4.59E-07,-34.20331554,-2.31E-07,-0.063476322,-0.001877687,-0.0640641,-244.1836626,140.7090864,-253.223957,357.3972888,-166.8987056,403.0707301,-0.000342485,-0.023768587,,,,
584.8959996,2284,78.99343382,-55.51784326,-4.59E-07,9.569130007,-2.30E-07,-0.063610425,-0.00188165,-0.064205178,200.8538286,-192.5485228,-85.81630228,-410.4966596,66.21228758,-138.5065584,-0.000343186,-0.023819868,,,,
584.9039996,2284,80.40843348,18.77067816,-4.59E-07,85.46742096,-2.30E-07,-0.063742408,-0.001885552,-0.064344094,-46.88475623,29.50458195,91.37447018,141.1866697,-12.97966024,179.1328041,-0.000343875,-0.023870352,,,,
584.9119996,2284,-114.980233,-56.52793254,-4.59E-07,-61.67793764,-2.30E-07,-0.063872277,-0.001889391,-0.064480854,-110.2173671,-2.896388904,-356.0014272,-11.92891204,-118.833705,145.1086849,-0.000344554,-0.023920039,,,,
584.9199996,2284,152.9271322,9.597909073,-4.58E-07,92.77516624,-2.30E-07,-0.064000037,-0.001893167,-0.064615463,233.8349975,-176.376075,170.761716,-344.867947,138.9201984,-184.0906785,-0.000345221,-0.023968933,,,,
584.9279996,2284,-142.6459346,-7.568275455,-4.58E-07,-20.13931309,-2.30E-07,-0.064125692,-0.001896881,-0.064747925,-249.9072209,141.8289489,-270.4713416,351.1557177,-164.2951488,326.2229288,-0.000345877,-0.024017034,,,,
584.9359996,2284,52.95614905,-62.40657791,-4.58E-07,33.95694245,-2.30E-07,-0.064249247,-0.001900533,-0.064878246,191.5749004,-170.7507592,-84.97605325,-398.553349,65.10487999,-189.205452,-0.000346521,-0.024064345,,,,
584.9439996,2284,54.20384776,41.72272697,-4.57E-07,106.2144532,-2.30E-07,-0.064370707,-0.001904123,-0.06500643,-41.01291846,43.56328033,103.0337821,139.0342372,-5.674608213,116.9267274,-0.000347155,-0.024110867,,,,
584.9519996,2284,-124.4556917,-46.49224651,-4.57E-07,-28.61302162,-2.29E-07,-0.064490077,-0.001907651,-0.065132483,-111.0164295,16.99767329,-349.7286518,13.30701438,-114.0794133,102.7924355,-0.000347777,-0.024156602,,,,
584.9599996,2285,167.5547334,12.71259031,-4.57E-07,136.0018168,-2.29E-07,-0.064607362,-0.001911118,-0.065256408,236.0300602,-156.8994667,209.131302,-318.9178261,146.7885491,-209.7288955,-0.000348388,-0.024201553,,,,
584.9679996,2285,-164.4015717,22.63994992,-4.56E-07,-6.890193189,-2.29E-07,-0.064722568,-0.001914523,-0.065378212,-249.5490178,148.2022181,-233.9033528,369.278325,-161.1002835,294.7220097,-0.000348988,-0.02424572,,,,
584.9759996,2285,-5.04870936,-27.01515455,-4.56E-07,26.09203545,-2.29E-07,-0.064835698,-0.001917867,-0.065497899,203.9859163,-175.7116356,-98.14767542,-388.1619928,81.61443421,-234.9466478,-0.000349577,-0.024289107,,,,
584.9839996,2285,14.68615608,67.83171049,-4.55E-07,117.1557814,-2.29E-07,-0.064946759,-0.001921149,-0.065615475,-1.355026338,45.16410861,99.20465267,155.0394237,31.76059223,77.01028668,-0.000350154,-0.024331714,,,,
584.9919996,2285,-169.2811982,-38.46579209,-4.55E-07,-15.07648191,-2.29E-07,-0.065055756,-0.001924371,-0.065730945,-90.02915131,30.69547883,-365.0392047,46.86356018,-110.4457723,85.3956019,-0.000350721,-0.024373544,,,,
584.9999996,2285,132.8909354,10.41162386,-4.55E-07,153.7182069,-2.28E-07,-0.065162693,-0.001927531,-0.065844313,251.452375,-140.1827679,194.452574,-293.9499389,139.0212786,-220.8486262,-0.000351276,-0.024414599,,,,
585.0079996,2285,-178.5153998,39.08725393,-4.54E-07,20.14509387,-2.28E-07,-0.065267576,-0.001930631,-0.065955585,-233.9168485,181.2541303,-224.3778207,422.6779336,-156.9757956,318.864234,-0.000351821,-0.02445488,,,,
585.0159996,2285,-5.688151536,-19.88460902,-4.54E-07,54.77010313,-2.28E-07,-0.06537041,-0.00193367,-0.066064766,216.4079904,-148.222635,-102.4600679,-336.0352968,76.21312148,-200.8467723,-0.000352355,-0.02449439,,,,
585.0239996,2285,50.24717227,64.38963635,-4.53E-07,152.4752935,-2.28E-07,-0.0654712,-0.001936649,-0.066171862,9.966262082,70.18176329,127.3500239,203.0102999,29.66662846,108.8445275,-0.000352878,-0.02453313,,,,
585.0319996,2285,-137.8377164,-13.45135086,-4.53E-07,-3.256237571,-2.28E-07,-0.065569952,-0.001939567,-0.066276877,-93.9203439,70.03434818,-322.228307,121.3556328,-100.8150039,141.9954538,-0.000353389,-0.024571103,,,,
585.0399996,2285,175.6484329,31.89687681,-4.53E-07,162.942339,-2.27E-07,-0.065666671,-0.001942426,-0.066379818,269.5600636,-114.0343365,226.9912902,-254.3645795,158.353778,-185.0585299,-0.00035389,-0.02460831,,,,
585.0479996,2285,-100.8018739,41.18492125,-4.52E-07,51.55607266,-2.27E-07,-0.065761362,-0.001945224,-0.066480689,-225.0639254,224.4116072,-163.9764177,470.0741771,-149.8056712,364.5184481,-0.00035438,-0.024644753,,,,
585.0559996,2285,53.97074251,7.736991285,-4.52E-07,63.97899665,-2.27E-07,-0.065854031,-0.001947963,-0.066579496,208.6468999,-96.66634086,-44.5691488,-294.0309174,72.07681238,-146.0356925,-0.00035486,-0.024680435,,,,
585.0639996,2285,92.38847932,99.68294994,-4.51E-07,154.5066757,-2.27E-07,-0.065944683,-0.001950641,-0.066676244,39.99615894,94.82299116,162.4900592,201.8685419,41.59414846,132.5883212,-0.000355328,-0.024715358,,,,
585.0719996,2285,-96.52753219,-11.33952008,-4.51E-07,15.45851544,-2.26E-07,-0.066033324,-0.001953261,-0.066770939,-66.18705908,98.73901927,-302.8374557,144.607306,-92.68401918,175.8945915,-0.000355786,-0.024749522,,,,
585.0799996,2285,220.9817657,34.98689728,-4.50E-07,175.6289098,-2.26E-07,-0.066119958,-0.001955821,-0.066863586,291.4336608,-92.73457363,251.2243823,-232.2026948,161.5154054,-157.480132,-0.000356233,-0.024782932,,,,
585.0879996,2285,-70.71879374,60.63032745,-4.50E-07,46.34607404,-2.26E-07,-0.066204592,-0.001958322,-0.066954191,-192.6854133,231.9594919,-149.226392,490.8874335,-145.3952811,387.0733358,-0.000356669,-0.024815588,,,,
585.0959996,2285,72.81773258,-0.371252522,-4.49E-07,54.77078308,-2.26E-07,-0.066287232,-0.001960764,-0.067042759,230.7484927,-92.20538972,-58.28768695,-270.9845846,60.99322316,-123.1761661,-0.000357095,-0.024847493,,,,
585.1039996,2285,137.3586931,78.47440633,-4.49E-07,152.7568804,-2.25E-07,-0.066367881,-0.001963147,-0.067129295,40.14572797,99.90790931,173.5249566,219.5281844,14.7460409,155.0186975,-0.00035751,-0.024878648,,,,
585.1119996,2285,-76.64454185,-2.421381581,-4.48E-07,-10.17610876,-2.25E-07,-0.066446547,-0.001965471,-0.067213807,-87.70374038,106.2522498,-294.3013629,157.176368,-124.7814436,215.3427276,-0.000357914,-0.024909057,,,,
585.1199996,2285,208.8278527,45.80225408,-4.48E-07,140.2030524,-2.25E-07,-0.066523235,-0.001967737,-0.067296298,285.3681647,-111.7949401,218.5911373,-281.5755731,162.8947639,-158.064373,-0.000358308,-0.02493872,,,,
585.1279996,2285,-46.6636177,39.76403626,-4.47E-07,50.24216812,-2.25E-07,-0.066597951,-0.001969945,-0.067376775,-212.1818036,223.1018186,-165.1196282,457.8758698,-133.8656399,390.017977,-0.000358691,-0.02496764,,,,
585.1359996,2285,128.7421634,-35.85785466,-4.47E-07,79.97695545,-2.24E-07,-0.066670699,-0.001972094,-0.067455244,186.3239317,-76.29980287,-30.13393967,-270.8651081,53.0590739,-80.71966721,-0.000359064,-0.024995819,,,,
585.1439996,2285,182.5854866,55.11545349,-4.46E-07,169.0137929,-2.24E-07,-0.066741487,-0.001974186,-0.06753171,12.19215039,101.5541807,217.8429257,187.3067876,15.76368091,176.9279831,-0.000359426,-0.02502326,,,,
585.1519996,2285,-42.54220212,-21.68471944,-4.45E-07,3.160240576,-2.24E-07,-0.066810319,-0.001976219,-0.067606179,-115.389502,107.9641507,-265.7288068,136.7129888,-137.8558408,236.0705091,-0.000359778,-0.025049964,,,,
585.1599996,2285,263.6992487,12.81079989,-4.45E-07,166.1503865,-2.23E-07,-0.066877202,-0.001978195,-0.067678656,266.5925915,-106.0079353,259.2641835,-298.4315122,128.7132768,-131.8989182,-0.000360119,-0.025075934,,,,
585.1679996,2285,-0.447294526,6.226650787,-4.44E-07,71.04138746,-2.23E-07,-0.06694214,-0.001980114,-0.067749148,-226.3537247,230.7078622,-119.67846,442.4920649,-172.5949534,418.5229552,-0.00036045,-0.025101171,,,,
585.1759996,2285,134.5609059,-47.84917315,-4.44E-07,73.38312138,-2.23E-07,-0.067005141,-0.001981975,-0.06781766,176.2012147,-81.51139675,-18.68652523,-299.8273726,26.82522745,-58.45604554,-0.000360771,-0.025125679,,,,
585.1839996,2285,178.4751641,58.70352989,-4.43E-07,159.6980602,-2.23E-07,-0.06706621,-0.001983779,-0.067884199,20.3697184,76.6699679,213.0883917,135.6905084,13.21929372,177.2529423,-0.000361081,-0.025149458,,,,
585.1919996,2285,-36.85690245,-36.18077071,-4.42E-07,9.868180728,-2.22E-07,-0.067125352,-0.001985526,-0.067948769,-122.1013002,92.16841,-285.5056045,108.2424337,-149.5575415,241.7388995,-0.000361381,-0.025172512,,,,
585.1999996,2285,269.2924195,-3.471461836,-4.42E-07,164.3409445,-2.22E-07,-0.067182574,-0.001987216,-0.068011378,249.376142,-120.8217835,264.7208921,-328.0463197,114.2835471,-120.8513661,-0.00036167,-0.025194842,,,,
585.2079996,2285,-29.29217797,14.24620512,-4.41E-07,36.80116045,-2.22E-07,-0.067237882,-0.001988849,-0.06807203,-248.8990392,203.2274161,-115.8554377,406.7695351,-174.988957,419.2518334,-0.00036195,-0.025216451,,,,
585.2159996,2286,97.45334114,-55.82932678,-4.40E-07,31.54298695,-2.21E-07,-0.067291281,-0.001990426,-0.068130733,151.9319151,-116.2066855,-55.01896887,-341.2670305,26.46093318,-86.89248869,-0.000362219,-0.025237341,,,,
585.2239996,2286,176.8735018,23.79512144,-4.40E-07,131.6503618,-2.21E-07,-0.067342777,-0.001991947,-0.068187492,-4.860361013,55.35385903,215.4065076,107.1368902,4.580957119,148.20944,-0.000362478,-0.025257514,,,,
585.2319996,2286,-50.66824918,-62.94876482,-4.39E-07,-37.59881364,-2.21E-07,-0.067392377,-0.001993412,-0.068242312,-159.6199646,81.93984734,-278.9880625,101.5534781,-163.4512547,227.244786,-0.000362727,-0.025276972,,,,
585.2399996,2286,239.9288221,-11.95225702,-4.38E-07,101.2699949,-2.20E-07,-0.067440086,-0.001994821,-0.0682952,240.9940701,-154.5847331,245.8747801,-370.1137553,132.0291361,-172.9166665,-0.000362966,-0.025295718,,,,
585.2479996,2286,-56.15928227,16.0219692,-4.38E-07,-22.58352001,-2.20E-07,-0.067485911,-0.001996174,-0.068346163,-242.264188,174.3943461,-119.3734992,376.784811,-157.87565,368.7008085,-0.000363195,-0.025313754,,,,
585.2559996,2286,34.53510831,-30.35101393,-4.37E-07,-44.86399289,-2.20E-07,-0.067529858,-0.001997472,-0.068395206,170.5485282,-142.316902,-80.7985003,-376.0428979,28.0330137,-139.9165088,-0.000363413,-0.025331082,,,,
585.2639996,2286,86.9311651,74.37384439,-4.36E-07,53.28525805,-2.19E-07,-0.067571932,-0.001998714,-0.068442335,55.63947134,6.727007369,161.7041642,34.2532507,37.93048432,55.279756,-0.000363622,-0.025347705,,,,
585.2719996,2286,-148.4921726,-25.43115812,-4.36E-07,-107.601603,-2.19E-07,-0.06761214,-0.001999901,-0.068487556,-102.4846897,47.89317803,-339.7649621,56.23709571,-130.7192636,143.9360496,-0.000363821,-0.025363624,,,,
585.2799996,2286,133.2621545,8.8315211,-4.35E-07,28.7209801,-2.19E-07,-0.067650488,-0.002001033,-0.068530876,298.0059622,-187.8033834,185.4267633,-434.7150559,144.4689222,-278.5303993,-0.00036401,-0.025378842,,,,
585.2879996,2286,-152.4583939,19.82096013,-4.34E-07,-74.02890911,-2.18E-07,-0.067686982,-0.00200211,-0.068572301,-185.6196479,140.3577354,-182.1460457,315.4703565,-149.3241345,246.2530741,-0.000364189,-0.025393362,,,,
585.2959996,2286,-28.92955089,-69.69525835,-4.34E-07,-68.98883366,-2.18E-07,-0.067721628,-0.002003133,-0.068611837,198.7289555,-157.0531491,-127.4983717,-393.0526403,30.34452228,-227.5552914,-0.000364358,-0.025407185,,,,
585.3039996,2286,17.2994937,42.13218262,-4.33E-07,12.31112265,-2.17E-07,-0.067754433,-0.002004101,-0.068649491,58.63899325,-17.19121718,146.6693614,2.778234672,32.49460633,-30.68298288,-0.000364517,-0.025420314,,,,
585.3119996,2286,-247.219852,-29.24164383,-4.32E-07,-161.6362405,-2.17E-07,-0.067785403,-0.002005015,-0.068685268,-116.8991443,14.24628953,-381.8787949,22.23932247,-141.9960583,49.10903696,-0.000364666,-0.025432752,,,,
