Time:125Hz,Epoch,FP1,FP2,C3,C4,P7,P8,O1,O2,F7,F8,F3,F4,T7,T8,P3,P4,,,,
572.6399996,2236,1098.929127,1657.082155,1126.347715,1665.198225,588.6290454,-4748.173352,-0.005026102,1775.605223,-5528.382873,-5103.126118,942.8145774,1681.239039,-5165.122355,-4837.432376,3321.508671,4675.259184,,,,
572.6479996,2236,1092.308744,1652.825429,1119.450475,1660.982515,583.0516108,-5317.732106,-0.005009452,1770.724289,-4247.524936,-5983.422373,933.6552236,1677.047362,-5995.567907,-3932.330354,3318.83272,4671.935281,,,,
572.6559996,2236,1085.686179,1648.543281,1112.551434,1656.741018,577.481117,-4348.33134,-0.004991382,1765.817357,-5304.637386,-5486.330584,924.507874,1672.829405,-5539.544021,-4454.843962,3316.083172,4668.50609,,,,
572.6639996,2236,1079.061607,1644.235925,1105.65077,1652.473951,571.9176762,-5038.157434,-0.004973931,1760.88465,-4916.255035,-5291.900443,915.3727109,1668.585372,-5376.450554,-4588.310306,3313.260377,4664.972096,,,,
572.6719996,2237,1072.435206,1639.90356,1098.748669,1648.181514,566.3614002,-4614.828063,-0.004957293,1755.926397,-4457.096626,-5991.67027,906.2499151,1664.315477,-6034.314132,-3852.263655,3310.364686,4661.333789,,,,
572.6799996,2237,1065.80715,1635.546395,1091.845305,1643.863915,560.8124,-4381.746083,-0.004938269,1750.942819,-5528.461045,-4891.027489,897.1396668,1660.019928,-5065.08684,-4871.954936,3307.396456,4657.591662,,,,
572.6879996,2237,1059.177617,1631.164638,1084.940862,1639.521359,555.2707862,-4973.990195,-0.004920166,1745.934137,-4269.139852,-5749.744353,888.0421451,1655.698922,-5900.165397,-3971.072589,3304.356047,4653.746217,,,,
572.6959996,2237,1052.546782,1626.758491,1078.035521,1635.154052,549.7366687,-4047.502163,-0.00490334,1740.900579,-5274.36841,-5217.056358,878.9575282,1651.352679,-5447.625216,-4450.908013,3301.243812,4649.797954,,,,
572.7039996,2237,1045.914808,1622.328164,1071.129459,1630.762203,544.2101567,-4767.325309,-0.004885473,1735.842369,-4889.7168,-4992.128236,869.885993,1646.981405,-5297.810146,-4574.705629,3298.060099,4645.747361,,,,
572.7119996,2237,1039.281873,1617.873857,1064.222848,1626.346016,538.6913591,-4354.830612,-0.004866977,1730.759727,-4546.204692,-5682.056244,860.8277158,1642.585305,-5958.54789,-3931.165199,3294.805268,4641.594934,,,,
572.7199996,2237,1032.648153,1613.395778,1057.315876,1621.905696,533.1803838,-4146.156216,-0.004848597,1725.652876,-5630.982413,-4615.33109,851.7828716,1638.164583,-4989.98332,-4974.428933,3291.479678,4637.341177,,,,
572.7279996,2237,1026.013812,1608.894134,1050.408715,1617.441448,527.6773384,-4766.389168,-0.004831347,1720.52204,-4307.284687,-5546.137225,842.7516346,1633.719448,-5837.940545,-4030.838516,3288.083688,4632.986582,,,,
572.7359996,2237,1019.379032,1604.36913,1043.501533,1612.953481,522.1823298,-3848.601451,-0.00481298,1715.367443,-5313.42885,-5103.69692,833.7341779,1629.250105,-5392.157003,-4506.926442,3284.617652,4628.531653,,,,
572.7439996,2237,1012.743973,1599.820966,1036.594511,1608.441997,516.6954643,-4571.496388,-0.004794598,1710.189304,-4934.632035,-4980.572156,824.7306736,1624.75676,-5238.242848,-4629.756521,3281.08193,4623.97689,,,,
572.7519996,2237,1006.1088,1595.249845,1029.687829,1603.907199,511.2168474,-4171.960766,-0.00477715,1704.987844,-4523.256585,-5751.87169,815.7412928,1620.239627,-5898.702252,-3932.13266,3277.476883,4619.322789,,,,
572.7599996,2237,999.4736943,1590.655976,1022.781657,1599.3493,505.7465844,-3969.833325,-0.004758358,1699.763286,-5566.699327,-4716.018522,806.7662058,1615.698902,-4936.99503,-4931.638822,3273.802865,4614.569854,,,,
572.7679996,2237,992.8388194,1586.039568,1015.876163,1594.768495,500.2847797,-4577.867597,-0.004739379,1694.515852,-4306.448728,-5621.308103,797.8055815,1611.134796,-5784.16577,-4033.063543,3270.060232,4609.718584,,,,
572.7759996,2237,986.2043341,1581.400816,1008.971528,1590.164987,494.8315371,-3655.146345,-0.004721595,1689.245764,-5354.402911,-5109.259352,788.8595881,1606.547514,-5335.190269,-4553.089152,3266.249345,4604.769483,,,,
572.7839996,2237,979.5704137,1576.739925,1002.067918,1585.538992,489.3869599,-4387.213741,-0.004703689,1683.953241,-4920.61879,-4909.30741,779.9283927,1601.937263,-5192.751597,-4640.583907,3262.370571,4599.723051,,,,
572.7919996,2237,972.9372236,1572.057104,995.165499,1580.890706,483.9511508,-3983.516835,-0.004684715,1678.638501,-4490.484805,-5611.266405,771.0121615,1597.304249,-5860.63505,-3933.955153,3258.424267,4594.579793,,,,
572.7999996,2237,966.304925,1567.352549,988.2644485,1576.220331,478.5242118,-3772.897864,-0.004666539,1673.301766,-5555.50753,-4518.121566,762.1110596,1592.648671,-4894.547349,-4955.223127,3254.410788,4589.340213,,,,
572.8079996,2237,959.6736903,1562.626465,981.3649376,1571.528073,473.1062443,-4368.055119,-0.004647967,1667.943258,-4267.875434,-5403.757246,753.2252511,1587.970739,-5740.236689,-4015.983844,3250.330496,4584.004809,,,,
572.8159996,2237,953.0436761,1557.879062,974.4671343,1566.814131,467.6973491,-3419.616517,-0.004628745,1662.563196,-5312.583966,-4909.642218,744.3548991,1583.270656,-5285.487377,-4525.066196,3246.183755,4578.574088,,,,
572.8239996,2237,946.4150467,1553.110531,967.5711984,1562.078714,462.2976265,-4133.478719,-0.004610455,1657.161799,-4897.828519,-4747.175473,735.5001658,1578.548624,-5134.460261,-4636.138858,3241.970926,4573.048564,,,,
572.8319996,2237,939.787965,1548.321076,960.6773072,1557.322026,456.9071762,-3699.260804,-0.00459199,1651.739284,-4520.288475,-5501.216004,726.6612122,1573.804854,-5796.62461,-3961.599796,3237.692367,4567.428731,,,,
572.8399996,2237,933.1625953,1543.510908,953.785626,1552.544262,451.526097,-3452.940903,-0.004573562,1646.295869,-5649.897303,-4473.030938,717.8381985,1569.039546,-4824.806903,-5048.118038,3233.348443,4561.715094,,,,
572.8479996,2237,926.539099,1538.68022,946.896314,1547.745627,446.1544874,-4048.330738,-0.004554799,1640.831776,-4335.627989,-5417.284922,709.0312837,1564.2529,-5669.774414,-4111.00661,3228.939518,4555.908165,,,,
572.8559996,2237,919.9176328,1533.829214,940.0095463,1542.926328,440.7924451,-3109.733499,-0.004535078,1635.347221,-5352.757978,-4945.784291,700.2406259,1559.445121,-5220.819376,-4588.105721,3224.465945,4550.008448,,,,
572.8639996,2237,913.2983613,1528.958091,933.1254812,1538.086561,435.4400675,-3831.410257,-0.004516129,1629.842419,-4966.977099,-4764.314431,691.4663823,1554.616414,-5077.412947,-4721.181665,3219.928093,4544.016457,,,,
572.8719996,2237,906.6814366,1524.067055,926.2442823,1533.226525,430.0974509,-3434.810767,-0.004497759,1624.317592,-4578.116114,-5472.492562,682.708709,1549.76698,-5745.989535,-4047.547265,3215.326329,4537.93269,,,,
572.8799996,2237,900.0670256,1519.156305,919.3661186,1528.346426,424.7646914,-3248.091986,-0.004478695,1618.772953,-5609.66836,-4397.717043,673.967761,1544.897029,-4792.785974,-5030.617727,3210.661006,4531.757653,,,,
572.8879996,2237,893.4552838,1514.226041,912.491148,1523.446466,419.4418844,-3888.238686,-0.004459374,1613.208721,-4280.144527,-5310.751604,665.2436924,1540.006757,-5658.161693,-4059.608738,3205.932489,4525.491861,,,,
572.8959996,2237,886.8463649,1509.276466,905.6195329,1518.526843,414.1291245,-2983.629269,-0.004439724,1607.625113,-5355.326339,-4841.634209,656.5366563,1535.096363,-5211.956146,-4606.072782,3201.141149,4519.135816,,,,
572.9039996,2237,880.2404337,1504.307778,898.7514344,1513.587756,408.8265059,-3751.123899,-0.004421129,1602.022343,-4910.855473,-4720.506091,647.8468047,1530.166049,-5076.453623,-4693.585971,3196.287343,4512.69003,,,,
572.9119996,2237,873.6376364,1499.320172,891.8870117,1508.629404,403.5341221,-3387.715565,-0.004402633,1596.400627,-4487.068274,-5516.792851,639.1742888,1525.216024,-5752.600079,-3968.692358,3191.371437,4506.155015,,,,
572.9199996,2237,867.0381301,1494.313852,885.0264305,1503.651991,398.2520661,-3216.100348,-0.004382912,1590.760179,-5573.056064,-4528.847612,630.5192586,1520.246487,-4791.566712,-5007.980256,3186.393795,4499.531278,,,,
572.9279996,2238,860.4420778,1489.28902,878.1698425,1498.655714,392.9804301,-3889.818258,-0.004364122,1585.101216,-4228.792744,-5525.971003,621.8818631,1515.257633,-5656.189823,-4038.34195,3181.354773,4492.819322,,,,
572.9359996,2238,853.8496236,1484.245867,871.3174085,1493.640777,387.7193058,-3034.629804,-0.004345353,1579.423954,-5259.471039,-5109.867923,613.2622505,1510.249667,-5219.880652,-4535.224025,3176.254748,4486.019662,,,,
572.9439996,2238,847.2609185,1479.184588,864.4692881,1488.607374,382.4687844,-3846.374941,-0.004325485,1573.728603,-4858.153761,-5000.071399,604.6605677,1505.222793,-5092.850512,-4656.441388,3171.094076,4479.132809,,,,
572.9519996,2238,840.6761237,1474.105393,857.6256355,1483.555698,377.2289562,-3549.298781,-0.004305969,1568.015378,-4438.044137,-5784.92264,596.0769609,1500.177203,-5781.488941,-3954.240781,3165.873119,4472.159268,,,,
572.9599996,2238,834.0953898,1469.008475,850.7866093,1478.485955,371.9999112,-3463.738031,-0.004287055,1562.284494,-5449.577654,-4771.582133,587.5115749,1495.113098,-4840.25869,-4928.898362,3160.592249,4465.099554,,,,
572.9679996,2238,827.5188643,1463.894023,843.9523595,1473.398343,366.7817385,-4211.161456,-0.004267571,1556.536162,-4101.225128,-5744.869902,578.964554,1490.030684,-5715.015917,-3935.735262,3155.251823,4457.954179,,,,
572.9759996,2238,820.9466994,1458.762245,837.1230478,1468.293057,361.574527,-3435.462972,-0.004248194,1550.770596,-5093.684005,-5341.683901,570.4360411,1484.930156,-5286.785125,-4394.770673,3149.852211,4450.72365,,,,
572.9839996,2238,814.3790456,1453.613337,830.2988281,1463.170292,356.3783644,-4316.228583,-0.004228564,1544.988008,-4642.405574,-5278.451811,561.9261782,1479.811711,-5173.793443,-4469.817007,3144.39378,4443.408478,,,,
572.9919996,2238,807.8160501,1448.447487,823.4798479,1458.030249,351.1933384,-4070.347252,-0.004208863,1539.188612,-4266.358415,-6124.408336,553.4351064,1474.675553,-5863.978571,-3805.527323,3138.876885,4436.009174,,,,
572.9999996,2238,801.2578626,1443.264893,816.666262,1452.873128,346.0195358,-4038.777749,-0.004190441,1533.372615,-5256.611552,-5198.432388,544.9629657,1469.521879,-4926.285306,-4756.226824,3133.301897,4428.526255,,,,
573.0079996,2238,794.7046277,1438.065759,809.8582233,1447.699116,340.8570426,-4814.185864,-0.004170867,1527.540229,-3914.716142,-6251.113153,536.5098952,1464.350882,-5807.665377,-3767.174614,3127.66918,4420.960224,,,,
573.0159996,2238,788.156493,1432.850273,803.0558829,1442.508413,335.7059446,-4047.878036,-0.004151335,1521.691667,-5021.632266,-5887.515857,528.0760327,1459.162761,-5375.165978,-4344.600066,3121.979098,4413.311592,,,,
573.0239996,2238,781.6136047,1427.618629,796.2593908,1437.301215,330.5663267,-4939.941364,-0.004131798,1515.827139,-4555.861438,-5833.692955,519.6615154,1453.957716,-5254.708891,-4414.624505,3116.232019,4405.58088,,,,
573.0319996,2238,775.0761137,1422.371026,789.468893,1432.07772,325.4382733,-4695.390476,-0.004111478,1509.946853,-4088.624753,-6646.724136,511.2664793,1448.735939,-5931.802434,-3662.33397,3110.428307,4397.768593,,,,
573.0399996,2238,768.5441611,1417.107653,782.6845422,1426.838122,320.3218681,-4650.763621,-0.004092644,1504.051019,-5137.86793,-5652.278852,502.8910593,1443.497631,-4982.074608,-4660.654444,3104.568324,4389.875242,,,,
573.0479996,2238,762.0178876,1411.82871,775.9064876,1421.582611,315.2171944,-5416.206319,-0.004073144,1498.139847,-3845.289802,-6621.857,494.5353895,1438.242988,-5852.513171,-3726.793332,3098.652438,4381.901341,,,,
573.0559996,2238,755.4974434,1406.53439,769.1348781,1416.311386,310.1243347,-4674.445502,-0.004052649,1492.213546,-4818.886878,-6182.440257,486.1996029,1432.972206,-5412.360294,-4190.632701,3092.681014,4373.8474,,,,
573.0639996,2238,748.9829653,1401.224877,762.3698585,1411.024639,305.0433709,-5592.68491,-0.004033106,1486.272323,-4273.431867,-6076.625638,477.8838315,1427.685479,-5293.92229,-4161.463581,3086.654412,4365.713932,,,,
573.0719996,2238,742.4745959,1395.900376,755.6115669,1405.722563,299.9743844,-5324.77532,-0.004013054,1480.316385,-3922.528271,-6851.531568,469.5882062,1422.383,-5963.54199,-3492.09426,3080.573006,4357.501451,,,,
573.0799996,2238,735.9724782,1390.561079,748.8601536,1400.405353,294.9174559,-5223.305081,-0.00399297,1474.345941,-5052.341323,-5821.987846,461.3128572,1417.064971,-4995.368041,-4576.04942,3074.437154,4349.210465,,,,
573.0879996,2238,729.4767553,1385.207164,742.1157661,1395.073196,289.8726655,-5914.275098,-0.00397422,1468.361197,-3701.46086,-6745.913399,453.0579133,1411.731581,-5842.893198,-3592.275982,3068.247219,4340.841487,,,,
573.0959996,2238,722.9875645,1379.838833,735.3785515,1389.726293,284.8400927,-5058.64008,-0.00395427,1462.362357,-4734.60542,-6245.012253,444.8235027,1406.383022,-5373.07753,-4082.426372,3062.003575,4332.395033,,,,
573.1039996,2238,716.5050402,1374.456279,728.6486468,1384.364833,279.8198165,-5837.766108,-0.00393394,1456.349631,-4363.679139,-6058.292372,436.6097524,1401.019494,-5221.941908,-4210.044109,3055.706578,4323.87161,,,,
573.1119996,2238,710.0293276,1369.059687,721.9261905,1378.989008,274.8119152,-5466.129,-0.003914085,1450.323225,-3984.838926,-6740.338902,428.4167882,1395.641184,-5868.960941,-3543.32602,3049.356596,4315.271733,,,,
573.1199996,2238,703.5605658,1363.649253,715.2113305,1373.599003,269.8164664,-5288.566469,-0.003894525,1444.28334,-5034.203372,-5625.655545,420.2447353,1390.248288,-4888.864563,-4556.216671,3042.953993,4306.59591,,,,
573.1279996,2238,697.0988878,1358.225166,708.5042104,1368.195014,264.8335473,-5895.720373,-0.003874714,1438.230182,-3759.996366,-6470.00981,412.0937177,1384.841002,-5715.352131,-3636.28104,3036.499132,4297.844657,,,,
573.1359996,2238,690.6444295,1352.787613,701.8049643,1362.777239,259.8632344,-4967.948463,-0.003853845,1432.163957,-4823.614595,-5901.523453,403.9638584,1379.419512,-5229.05497,-4162.864547,3029.992383,4289.018485,,,,
573.1439996,2238,684.197326,1347.336786,695.1137302,1357.345855,254.9056034,-5679.917382,-0.003833892,1426.084867,-4415.755669,-5663.008289,395.8552794,1373.984013,-5072.625366,-4261.157038,3023.434107,4280.117901,,,,
573.1519996,2238,677.7577167,1341.872873,688.430651,1351.901056,249.9607298,-5238.167009,-0.003814937,1419.993119,-4068.308833,-6304.402837,387.7681017,1368.534699,-5705.193038,-3630.167176,3016.824667,4271.143422,,,,
573.1599996,2238,671.3257315,1336.396063,681.7558616,1346.443039,245.0286881,-5010.731439,-0.003794865,1413.888912,-5175.633667,-5176.368157,379.7024455,1363.071755,-4717.040243,-4697.063762,3010.164427,4262.095557,,,,
573.1679996,2238,664.9015037,1330.906541,675.0895043,1340.971986,240.1095525,-5582.194266,-0.00377396,1407.772447,-3899.087758,-6031.930083,371.6584297,1357.595373,-5550.618899,-3758.962416,3003.453757,4252.974822,,,,
573.1759996,2238,658.4851718,1325.404501,668.4317067,1335.48808,235.2033964,-4635.738699,-0.003753998,1401.643929,-4969.913421,-5480.837857,363.6361724,1352.105746,-5072.792669,-4306.820959,2996.693016,4243.781716,,,,
573.1839996,2239,652.0768608,1319.890129,661.7826099,1329.991516,230.3102927,-5353.561859,-0.003733991,1395.503557,-4541.062677,-5263.874037,355.6357907,1346.603065,-4927.337646,-4410.106208,2989.882566,4234.51676,,,,
573.1919996,2239,645.6767032,1314.363605,655.1423515,1324.482486,225.4303136,-4915.672674,-0.003714443,1389.351534,-4092.848279,-5923.434593,347.6574007,1341.087512,-5568.901886,-3663.911767,2983.022771,4225.180467,,,,
573.1999996,2239,639.2848337,1308.82512,648.5110575,1318.961173,220.5635308,-4688.302719,-0.003694636,1383.18806,-5226.291605,-4809.487161,339.7011173,1335.559283,-4588.127919,-4748.775268,2976.113995,4215.773335,,,,
573.2079996,2239,632.9013811,1303.274865,641.8888693,1313.427762,215.7100154,-5266.398725,-0.003674697,1377.013334,-3983.742192,-5678.656083,331.7670548,1330.018569,-5430.67025,-3866.437654,2969.156606,4206.295885,,,,
573.2159996,2239,626.5264745,1297.713022,635.2759162,1307.882443,210.8698377,-4316.493293,-0.003654708,1370.827557,-4974.663307,-5136.247167,323.8553262,1324.46555,-4955.408809,-4335.662376,2962.150964,4196.748629,,,,
573.2239996,2239,620.1602391,1292.139769,628.6723264,1302.325395,206.0430678,-5017.710038,-0.003633596,1364.630927,-4602.398834,-4930.858462,315.9660437,1318.90042,-4809.31122,-4482.698283,2955.097429,4187.13207,,,,
573.2319996,2239,613.8028028,1286.555299,622.078235,1296.756813,201.2297747,-4566.964925,-0.003613427,1358.423642,-4237.734872,-5606.744622,308.0993183,1313.323363,-5450.4763,-3820.837999,2947.996367,4177.446721,,,,
573.2399996,2239,607.4543001,1280.959798,615.4937747,1291.176878,196.4300273,-4331.425635,-0.00359331,1352.205901,-5270.902672,-4514.990948,300.2552603,1307.734564,-4473.09927,-4813.760806,2940.848139,4167.693093,,,,
573.2479996,2239,601.1148485,1275.353447,608.9190712,1285.585774,191.6438934,-4892.07083,-0.003573562,1345.977902,-4017.582064,-5402.301707,292.4339788,1302.134218,-5316.845931,-3920.118914,2933.653111,4157.871694,,,,
573.2559996,2239,594.7845725,1269.736427,602.3542567,1279.983691,186.8714407,-3930.408006,-0.003554111,1339.739839,-5071.193032,-4863.779956,284.6355819,1296.522507,-4839.316587,-4442.438942,2926.411641,4147.983033,,,,
573.2639996,2239,588.4636101,1264.108927,595.7994517,1274.370801,182.1127359,-4641.207456,-0.003533979,1333.49191,-4570.179899,-4662.481052,276.860177,1290.899611,-4703.025453,-4466.845833,2919.124091,4138.027613,,,,
573.2719996,2239,582.1520761,1258.471126,589.2547912,1268.747294,177.3678453,-4188.095802,-0.003514214,1327.234311,-4188.476627,-5332.997777,269.1078701,1285.265719,-5350.561822,-3782.24756,2911.790824,4128.005951,,,,
573.2799996,2239,575.8500908,1252.8232,582.7204046,1263.11336,172.6368347,-3942.63348,-0.003493535,1320.96724,-5275.13528,-4227.192282,261.3787665,1279.621017,-4371.856076,-4816.719821,2904.4122,4117.918556,,,,
573.2879996,2239,569.5577837,1247.16534,576.1964043,1257.469173,167.9197689,-4507.883002,-0.003472506,1314.69089,-3914.178993,-5110.12659,253.6729705,1273.965689,-5218.664066,-3824.474148,2896.98858,4107.76593,,,,
573.2959996,2239,563.2752737,1241.497727,569.6829264,1251.814918,163.2167127,-3526.478087,-0.003452358,1308.405454,-5039.843734,-4570.755045,245.9905854,1268.29992,-4733.825411,-4399.376067,2889.520327,4097.548582,,,,
573.3039996,2239,557.0026849,1235.820541,563.1800953,1246.15078,158.5277297,-4204.610669,-0.003432109,1302.111128,-4692.561171,-4375.941587,238.3317134,1262.623893,-4586.453003,-4577.200632,2882.0078,4087.267021,,,,
573.3119996,2239,550.7401339,1230.133961,556.6880297,1240.476931,153.8528833,-3748.231345,-0.003412418,1295.808102,-4243.247087,-5060.912374,230.696456,1256.937789,-5234.118522,-3870.358481,2874.451364,4076.921756,,,,
573.3199996,2239,544.4877405,1224.438162,550.2068583,1234.793558,149.1922362,-3496.045592,-0.003391927,1289.496571,-5282.469191,-3964.226287,223.0849134,1251.241789,-4256.577392,-4853.269453,2866.851372,4066.513288,,,,
573.3279996,2239,538.2456277,1218.733328,543.7366976,1229.100843,144.5458504,-4027.682376,-0.003370914,1283.176731,-4020.625154,-4842.191215,215.497185,1245.536085,-5102.748675,-3933.582077,2859.208186,4056.042128,,,,
573.3359996,2239,532.013911,1213.019644,537.2776668,1223.398964,139.9137876,-3032.259547,-0.003351885,1276.848768,-5117.704998,-4288.274986,207.9333692,1239.820849,-4622.347451,-4510.179535,2851.522167,4045.508781,,,,
573.3439996,2239,525.7927096,1207.297278,530.829896,1217.688098,135.2961086,-3711.939432,-0.003331645,1270.512874,-4642.371038,-4081.635101,200.3935635,1234.096258,-4478.776829,-4567.709625,2843.793672,4034.913748,,,,
573.3519996,2239,519.582138,1201.566411,524.3934998,1211.968427,130.6928737,-3229.572844,-0.003310411,1264.169245,-4227.561529,-4751.858641,192.8778643,1228.362502,-5121.737101,-3848.63338,2836.023062,4024.257537,,,,
573.3599996,2239,513.382315,1195.827227,517.9685929,1206.24013,126.1041427,-2961.932584,-0.003290825,1257.818066,-5320.938606,-3647.618735,185.3863672,1222.61976,-4139.456824,-4892.529708,2828.210698,4013.540658,,,,
573.3679996,2239,507.1933589,1190.079902,511.5553028,1200.503383,121.5299747,-3499.124556,-0.003270531,1251.459526,-4029.688705,-4542.797473,177.9191665,1216.868212,-4987.496057,-3969.977555,2820.356933,4002.763612,,,,
573.3759996,2239,501.0153785,1184.324605,505.1537421,1194.758363,116.9704283,-2497.900265,-0.00324978,1245.093816,-5117.168899,-4021.859734,170.476356,1211.108037,-4511.98307,-4518.06862,2812.462128,3991.926901,,,,
573.3839996,2239,494.8484894,1178.561517,498.7640223,1189.005252,112.4255614,-3176.77158,-0.003229489,1238.721126,-4648.750386,-3850.886911,163.0580282,1205.339409,-4369.588582,-4581.686836,2804.526638,3981.031027,,,,
573.3919996,2239,488.6928093,1172.790811,492.3862689,1183.24422,107.8954314,-2702.51416,-0.003209104,1232.341645,-4250.920607,-4552.558095,155.6642747,1199.56251,-5013.462663,-3891.190313,2796.550821,3970.076492,,,,
573.3999996,2239,482.5484466,1167.012664,486.0205975,1177.475446,103.3800951,-2452.783319,-0.003188934,1225.955555,-5331.757686,-3482.656974,148.2951863,1193.777521,-4042.121621,-4921.631597,2788.535034,3959.063809,,,,
573.4079996,2239,476.415514,1161.227255,479.6671151,1171.699107,98.87960877,-3020.375603,-0.00316834,1219.563045,-3992.821919,-4402.597659,140.9508525,1187.984617,-4897.791845,-3959.86646,2780.47963,3947.993471,,,,
573.4159996,2239,470.2941192,1155.434754,473.3259374,1165.915379,94.39402797,-2041.970267,-0.00314838,1213.164304,-5064.035571,-3883.625469,133.6313622,1182.183973,-4426.09633,-4486.106169,2772.384971,3936.865977,,,,
573.4239996,2239,464.1843766,1149.635333,466.9971838,1160.124435,89.92340776,-2742.151449,-0.003127657,1206.759515,-4628.296119,-3708.603886,126.3368032,1176.375763,-4295.830502,-4572.311081,2764.251413,3925.681833,,,,
573.4319996,2239,458.0864033,1143.829165,460.6809582,1154.326444,85.4678026,-2296.951038,-0.003106849,1200.348862,-4225.433814,-4397.315607,119.0672622,1170.560168,-4948.592345,-3888.76029,2756.07931,3914.441545,,,,
573.4399996,2240,452.0002989,1138.01643,454.3773765,1148.521589,81.02726635,-2065.45427,-0.003087573,1193.932535,-5265.049484,-3312.56141,111.8228252,1164.737368,-3981.639687,-4868.010621,2747.869015,3903.145606,,,,
573.4479996,2240,445.9261699,1132.197297,448.0865494,1142.710033,76.60185232,-2636.976517,-0.003067447,1187.510715,-3979.550891,-4232.204501,104.6035771,1158.907526,-4837.650536,-3937.683513,2739.620881,3891.794511,,,,
573.4559996,2240,439.8641273,1126.371931,441.8085842,1136.891956,72.19161321,-1675.391762,-0.003046576,1181.083585,-5094.821201,-3732.810362,97.40960187,1153.070818,-4362.674364,-4531.234822,2731.335262,3880.38877,,,,
573.4639996,2240,433.8142818,1120.540508,435.5435958,1131.067537,67.79660117,-2388.838806,-0.003025567,1174.651326,-4624.131637,-3606.740355,90.24098254,1147.22743,-4231.913855,-4582.750767,2723.012513,3868.928876,,,,
573.4719996,2240,427.7767381,1114.703203,429.2916891,1125.236932,63.41686775,-1943.728595,-0.003005672,1168.214123,-4192.839961,-4353.724962,83.09780117,1141.377529,-4881.68786,-3859.447142,2714.652995,3857.415324,,,,
573.4799996,2240,421.7515947,1108.860179,423.052976,1119.400317,59.05246391,-1726.095429,-0.002985394,1161.772158,-5197.43676,-3319.048117,75.98013888,1135.521281,-3915.089124,-4824.678059,2706.257051,3845.848615,,,,
573.4879996,2240,415.7389629,1103.011611,416.827559,1113.557872,54.70344006,-2299.655157,-0.002964495,1155.325609,-3909.804411,-4268.722923,68.88807584,1129.658865,-4772.077026,-3880.896284,2697.825032,3834.229246,,,,
573.4959996,2240,409.7389472,1097.157665,410.6155433,1107.709757,50.36984603,-1339.697846,-0.002944628,1148.87466,-5022.609279,-3767.985314,61.82169133,1123.790455,-4294.529204,-4477.343161,2689.357298,3822.557712,,,,
573.5039996,2240,403.7516466,1091.29851,404.4170366,1101.856142,46.05173106,-2074.162505,-0.002924607,1142.419492,-4513.501363,-3620.348816,54.78106358,1117.916218,-4165.304584,-4502.038696,2680.854194,3810.834512,,,,
573.5119996,2240,397.7771668,1085.434321,398.2321442,1095.997201,41.74914383,-1633.043022,-0.002904227,1135.960281,-4112.614109,-4322.624859,47.76626999,1112.036327,-4810.52268,-3788.934278,2672.316074,3799.060137,,,,
573.5199996,2240,391.815607,1079.565252,392.0609737,1090.133104,37.46213244,-1414.67586,-0.002884534,1129.497208,-5200.796159,-3230.428554,40.77738694,1106.15095,-3836.099782,-4845.863038,2663.743287,3787.23508,,,,
573.5279996,2240,385.8670721,1073.691479,385.903624,1084.264012,33.19074441,-1986.243489,-0.002864014,1123.030447,-3922.669403,-4128.838296,33.81448991,1100.26026,-4694.08644,-3906.234288,2655.136184,3775.359837,,,,
573.5359996,2240,379.9316638,1067.813172,379.7601957,1078.390097,28.93502669,-991.817402,-0.002842516,1116.560179,-5025.449495,-3580.600849,26.87765343,1094.364426,-4213.916978,-4469.042492,2646.495115,3763.434901,,,,
573.5439996,2240,374.009473,1061.930489,373.6307929,1072.511527,24.69502569,-1678.909347,-0.002823524,1110.086585,-4598.868375,-3390.677717,19.96695111,1088.463618,-4071.044251,-4590.036338,2637.820431,3751.460766,,,,
573.5519996,2240,368.1006017,1056.043602,367.5155182,1066.628462,20.47078722,-1193.204967,-0.002803422,1103.609834,-4234.783526,-4070.660338,13.08245559,1082.558,-4711.555344,-3917.103977,2629.112475,3739.437923,,,,
573.5599996,2240,362.2051578,1050.152672,361.4144715,1060.741078,16.26235653,-937.7276888,-0.002782574,1097.130106,-5273.020868,-2990.084434,6.224238612,1076.647738,-3741.81128,-4919.333666,2620.371595,3727.366861,,,,
573.5679996,2240,356.3232311,1044.257861,355.327755,1054.849534,12.06977828,-1501.418097,-0.002762633,1090.647577,-3910.597752,-3913.018339,-0.607628979,1070.733006,-4596.155,-3914.788869,2611.598148,3715.248073,,,,
573.5759996,2240,350.4549123,1038.359336,349.2554625,1048.953993,7.893096611,-518.4201415,-0.002741287,1084.162419,-4907.977389,-3386.929291,-7.413077347,1064.81397,-4115.972495,-4373.044609,2602.792472,3703.082047,,,,
573.5839996,2240,344.6003069,1032.457264,343.197691,1043.054622,3.732355058,-1210.707952,-0.00272143,1077.674807,-4465.11389,-3227.101636,-14.19203755,1058.890793,-3982.297177,-4461.27238,2593.954913,3690.869271,,,,
573.5919996,2240,338.7595132,1026.551806,337.1545469,1037.151587,-0.41240339,-714.1419245,-0.002701666,1071.184915,-4118.687492,-3918.506506,-20.94444153,1052.96364,-4624.194428,-3800.494054,2585.085823,3678.610236,,,,
573.5999996,2240,332.9326183,1020.643118,331.1261153,1031.245056,-4.541136302,-423.1488687,-0.00268116,1064.692914,-5189.706426,-2800.933907,-27.67022222,1047.032682,-3643.074656,-4840.874589,2576.185547,3666.305433,,,,
573.6079996,2240,327.1197146,1014.73137,325.1124978,1025.335181,-8.65380184,-914.3528003,-0.002661204,1058.198979,-3926.372455,-3649.62339,-34.36931339,1041.09808,-4478.354986,-3928.096873,2567.254423,3653.95534,,,,
573.6159996,2240,321.3208971,1008.81672,319.1137915,1019.422124,-12.75035868,177.1234961,-0.002641171,1051.703279,-5020.189604,-3031.714898,-41.04164982,1035.159993,-3976.117841,-4448.417573,2558.292801,3641.560448,,,,
573.6239996,2240,315.5362613,1002.899325,313.1300867,1013.506056,-16.8307661,-382.6021675,-0.002621334,1045.205987,-4659.397936,-2770.241609,-47.68716716,1029.21859,-3814.153955,-4611.189799,2549.301025,3629.121249,,,,
573.6319996,2240,309.7659003,996.97935,307.161485,1007.587135,-20.89498391,232.5893968,-0.002600637,1038.70727,-4350.826782,-3360.449934,-54.30580197,1023.274033,-4421.455135,-4014.347381,2540.279432,3616.638214,,,,
573.6399996,2240,304.009901,991.0569538,301.2080694,1001.665518,-24.94297249,588.5124837,-0.002580114,1032.207301,-5370.932033,-2189.948448,-60.89749175,1017.326482,-3427.668447,-4997.26686,2531.228372,3604.111833,,,,
573.6479996,2240,298.2683528,985.1322962,295.2699361,995.7413678,-28.97469279,112.6775408,-0.002560432,1025.70625,-4078.422875,-3058.066499,-67.46217486,1011.376104,-4274.041337,-4060.514707,2522.148183,3591.542596,,,,
573.6559996,2240,292.5413492,979.2055319,289.3471758,989.8148419,-32.99010628,1140.549111,-0.002540102,1019.204281,-5160.784981,-2513.68047,-73.99979063,1005.423056,-3787.182934,-4622.287407,2513.039211,3578.93098,,,,
573.6639996,2240,286.8289778,973.2768209,283.4398801,983.8861008,-36.98917501,423.1561636,-0.002520486,1012.701566,-4624.99936,-2386.506409,-80.51027928,999.4674992,-3664.368134,-4630.354793,2503.901795,3566.27746,,,,
573.6719996,2240,281.1313264,967.3463218,277.5481403,977.9553002,-40.97186159,857.8144978,-0.002500597,1006.198272,-4144.422737,-3145.908805,-86.99358191,993.5095931,-4326.776396,-3856.385617,2494.736268,3553.582523,,,,
573.6799996,2240,275.4484833,961.4141899,271.6720411,972.0225984,-44.93812915,1043.490559,-0.002479634,999.6945621,-5182.948332,-2149.041551,-93.44964058,987.5495039,-3376.760085,-4865.51779,2485.542981,3540.846653,,,,
573.6879996,2240,269.7805355,955.4805791,265.8116752,966.0881585,-48.88794139,414.0702927,-0.002459694,993.1906052,-3920.604347,-3176.64575,-99.87839818,981.5873854,-4255.142685,-3953.194484,2476.322262,3528.070322,,,,
573.6959996,2241,264.1275685,949.5456462,259.9671277,960.1521327,-52.82126258,1305.231948,-0.002439772,986.6865638,-4930.247365,-2739.748156,-106.2797986,975.6233915,-3794.539401,-4453.820992,2467.074454,3515.254012,,,,
573.7039996,2241,258.489665,943.6095557,254.1384884,954.2146779,-56.73805751,472.3073085,-0.002419819,980.1826063,-4350.076979,-2677.914933,-112.6537864,969.6576862,-3697.073846,-4421.94458,2457.799899,3502.398203,,,,
573.7119996,2241,252.8669121,937.6724519,248.3258418,948.2759537,-60.63829153,839.0978908,-0.002399705,973.6788952,-3958.737056,-3458.173322,-119.0003074,963.690429,-4369.814328,-3699.998313,2448.498933,3489.503369,,,,
573.7199996,2241,247.2593943,931.7344833,242.5292718,942.3361064,-64.52193052,955.3099323,-0.002379106,967.1755911,-5006.487205,-2449.997562,-125.319308,957.7217739,-3423.931458,-4729.081665,2439.171891,3476.569981,,,,
573.7279996,2241,241.6671985,925.7958179,236.7488672,936.395292,-68.38894093,252.4624138,-0.002358885,960.6728614,-3650.225814,-3470.703499,-131.6107356,951.751869,-4314.806462,-3745.878066,2429.819103,3463.59852,,,,
573.7359996,2241,236.0903977,919.8566042,230.984711,930.4536706,-72.23928974,1113.394542,-0.002338713,954.170868,-4700.586588,-3017.896636,-137.8745386,945.7808806,-3857.74314,-4254.079141,2420.440917,3450.589461,,,,
573.7439996,2241,230.5290779,913.9169869,225.2368805,924.5113899,-76.07294447,261.4147329,-0.002319155,947.6697693,-4180.59069,-2951.100982,-144.110666,939.8089618,-3754.829471,-4270.455944,2411.037663,3437.54327,,,,
573.7519996,2241,224.9833301,907.9771211,219.5054637,918.5686079,-79.8898732,608.2680559,-0.00229971,941.1697254,-3774.965864,-3746.155189,-150.3190681,933.8362651,-4419.682034,-3547.977356,2401.609665,3424.460426,,,,
573.7599996,2241,219.4532201,902.0371621,213.7905457,912.6254703,-83.6900445,714.9042904,-0.002279777,934.6708988,-4850.108304,-2756.919032,-156.4996957,927.8629462,-3467.954708,-4585.791936,2392.157264,3411.341399,,,,
573.7679996,2241,213.9388321,896.0972605,208.0922011,906.6821313,-87.47342755,-5.850915104,-0.002259659,928.1734512,-3514.221907,-3808.133596,-162.6525006,921.8891543,-4354.702623,-3612.614104,2382.680795,3398.186658,,,,
573.7759996,2241,208.4402494,890.1575571,202.4105137,900.738746,-91.23999202,804.3300404,-0.002240177,921.6775379,-4508.934909,-3393.551141,-168.7774357,915.9150506,-3900.932694,-4083.560206,2373.180586,3384.996672,,,,
573.7839996,2241,202.9575441,884.2182088,196.7455618,894.795459,-94.98970812,-122.9283639,-0.002219903,915.1833167,-3991.185689,-3376.636548,-174.8744544,909.9407767,-3816.30977,-4100.730644,2363.656968,3371.771912,,,,
573.7919996,2241,197.4907977,878.2793686,191.097422,888.8524242,-98.72254661,114.5295475,-0.00219914,908.6909498,-3634.050496,-4225.354542,-180.9435112,903.966488,-4495.229363,-3435.792404,2354.110276,3358.512849,,,,
573.7999996,2241,192.0400884,872.341174,185.4661774,882.9097858,-102.4384788,40.31826582,-0.002180389,902.2005885,-4600.202386,-3309.35138,-186.9845615,897.9923431,-3568.856541,-4397.428309,2344.540837,3345.219942,,,,
573.8079996,2241,186.6054865,866.4037748,179.8519061,876.9676959,-106.1374765,-911.8608981,-0.002160929,895.7123907,-3125.373411,-4469.879556,-192.9975616,892.0184823,-4500.005728,-3294.205404,2334.948979,3331.893662,,,,
573.8159996,2241,181.187073,860.4673226,174.2546789,871.0262998,-109.819512,-386.2316599,-0.002140953,889.2265158,-4079.363995,-4198.666346,-198.9824684,886.0450626,-4082.408046,-3734.87888,2325.335037,3318.534473,,,,
573.8239996,2241,175.7849249,854.5319622,168.6745731,865.0857463,-113.4845582,-1671.237124,-0.002121071,882.7431151,-3457.738497,-4402.9847,-204.9392399,880.0722276,-4045.035742,-3669.043173,2315.699331,3305.142836,,,,
573.8319996,2241,170.3991118,848.5978399,163.1116665,859.1461887,-117.1325886,-1839.350236,-0.002100595,876.2623434,-2995.65004,-5547.010356,-210.8678349,874.100125,-4792.494468,-2900.425389,2306.042191,3291.719217,,,,
573.8399996,2241,165.0297041,842.6650989,157.5660337,853.2077655,-120.763577,-2276.654502,-0.002081025,869.7843547,-3934.345203,-4938.146467,-216.7682131,868.1289103,-3931.125505,-3837.334487,2296.363944,3278.264077,,,,
573.8479996,2241,159.6767767,836.7338841,152.0377515,847.2706245,-124.377498,-3341.635326,-0.002061468,863.3093022,-2456.376927,-6265.069201,-222.6403351,862.1587301,-4883.945372,-2694.714729,2286.66491,3264.777881,,,,
573.8559996,2241,154.3404085,830.804344,146.5268851,841.3349124,-127.9743265,-2656.544889,-0.002041934,856.8373365,-3605.516267,-5866.711163,-228.4841621,856.189725,-4411.059253,-3240.446085,2276.945423,3251.261081,,,,
573.8639996,2241,149.0206626,824.8766156,141.0335069,835.4007691,-131.554038,-3753.778872,-0.002022675,850.3686095,-3204.552996,-5808.285179,-234.2996566,850.2220415,-4291.741157,-3393.440313,2267.205804,3237.714141,,,,
573.8719996,2241,143.7176111,818.9508418,135.5576978,829.4683464,-135.1166085,-3709.553667,-0.002003422,843.903276,-2672.650445,-6710.490825,-240.0867814,844.2558318,-4978.233718,-2592.074773,2257.446373,3224.137522,,,,
573.8799996,2241,138.4313265,813.0271692,130.0995211,823.5377825,-138.6620147,-3756.858215,-0.00198295,837.4414829,-3711.760879,-5717.242874,-245.8455007,838.2912352,-4022.505492,-3558.191365,2247.667457,3210.531674,,,,
573.8879996,2241,133.1618757,807.1057412,124.6590498,817.6092153,-142.1902335,-4496.543689,-0.001962634,830.9833808,-2519.394821,-6592.106546,-251.5757792,832.3283995,-4857.614635,-2684.557567,2237.869373,3196.897061,,,,
573.8959996,2241,127.9093268,801.1866925,119.2363569,811.6827973,-145.7012426,-3723.599542,-0.001944268,824.5291193,-3569.941215,-5991.07335,-257.2775825,826.3674681,-4343.787801,-3210.460011,2228.052445,3183.234134,,,,
573.9039996,2241,122.6737479,795.2701628,113.8315042,805.7586606,-149.1950201,-4643.695931,-0.001924597,818.0788444,-3111.290142,-5811.151923,-262.9508771,820.4085832,-4209.672414,-3274.554368,2218.216997,3169.54334,,,,
573.9119996,2241,117.45521,789.3562975,108.4445607,799.8369493,-152.6715445,-4317.016601,-0.00190411,811.6327066,-2785.107591,-6459.016023,-268.5956304,814.4518901,-4830.62666,-2625.114511,2208.363347,3155.825142,,,,
573.9199996,2241,112.2537785,783.4452332,103.0755965,793.9178093,-156.130795,-4229.735167,-0.001884704,805.1908502,-3817.887022,-5316.77666,-274.2118105,808.4975261,-3831.826066,-3630.660813,2198.491812,3142.079994,,,,
573.9279996,2241,107.0695156,777.5371089,97.72467774,788.0013759,-159.5727513,-4854.658618,-0.00186568,798.7534242,-2557.098614,-6166.823767,-279.7993864,802.5456347,-4657.17001,-2706.902026,2188.602707,3128.308334,,,,
573.9359996,2241,101.9024861,771.6320625,92.39187172,782.087782,-162.9973935,-3896.680103,-0.001846723,792.3205718,-3694.518029,-5486.885346,-285.3583279,796.5963559,-4115.811532,-3294.926135,2178.696355,3114.510619,,,,
573.9439996,2241,96.75275824,765.7302368,87.07724324,776.1771746,-166.4047023,-4650.597444,-0.001826933,785.8924375,-3320.372008,-5224.786493,-290.8886058,790.6498339,-3949.980335,-3451.272794,2168.773071,3100.687303,,,,
573.9519996,2242,91.62039341,759.8317587,81.78085307,770.2696931,-169.7946588,-4185.830619,-0.001806875,779.4691697,-2935.940565,-5798.61118,-296.3901914,784.7062084,-4548.667313,-2770.155197,2158.833169,3086.838825,,,,
573.9599996,2242,86.50545294,753.9367655,76.50276829,764.365464,-173.1672447,-4006.046893,-0.001788142,773.0509077,-3913.395634,-4572.242277,-301.8630572,778.7656154,-3539.452684,-3713.324569,2148.876964,3072.965633,,,,
573.9679996,2242,81.4080017,748.0453987,71.2430481,758.464634,-176.5224423,-4591.172619,-0.001769847,766.6377966,-2712.808864,-5400.420697,-307.3071763,772.8281948,-4370.728886,-2834.346904,2138.904771,3059.068172,,,,
573.9759996,2242,76.32810229,742.1577888,66.00175754,752.5673371,-179.8602341,-3627.009772,-0.001750525,760.2299778,-3796.718615,-4739.82959,-312.7225226,766.8940785,-3847.297506,-3394.182919,2128.916901,3045.14689,,,,
573.9839996,2242,71.26581623,736.2740773,60.77896306,746.6737018,-183.1806033,-4384.396192,-0.001730068,753.8275915,-3354.824526,-4500.150493,-318.1090709,760.9634101,-3700.790437,-3484.606295,2118.913668,3031.202233,,,,
573.9919996,2242,66.22119872,730.3943886,55.57471967,740.7838706,-186.4835337,-3910.861722,-0.001710951,747.4307824,-3081.134196,-5107.902063,-323.4667969,755.0363296,-4308.356115,-2892.79614,2108.89539,3017.234632,,,,
573.9999996,2242,61.19430957,724.5188568,50.38908963,734.8979793,-189.7690095,-3731.468126,-0.001692999,741.0396884,-4095.63777,-3927.972964,-328.7956769,749.1129608,-3312.975068,-3897.024331,2098.862373,3003.244532,,,,
574.0079996,2242,56.1852167,718.6476211,45.22213431,729.0161539,-193.0370153,-4321.879522,-0.00167326,734.654448,-2822.006615,-4813.43548,-334.0956882,743.1934462,-4163.01473,-2967.798692,2088.814925,2989.232384,,,,
574.0159996,2242,51.19396812,712.7808073,40.07390764,723.1385316,-196.2875362,-3356.477151,-0.001653451,728.2751995,-3907.320849,-4207.393303,-339.3668088,737.2779257,-3646.788946,-3513.767212,2078.753356,2975.198616,,,,
574.0239996,2242,46.22062416,706.9185489,34.94446923,717.2652431,-199.520558,-4125.254506,-0.001634093,721.9020819,-3403.16426,-4025.557544,-344.6090176,731.3665292,-3511.846156,-3551.293599,2068.677974,2961.14366,,,,
574.0319996,2242,41.26524923,701.0609778,29.83387831,711.3964234,-202.7360669,-3636.501535,-0.001614611,715.5352367,-3067.43677,-4675.0763,-349.8222942,725.459387,-4127.414331,-2893.732495,2058.589089,2947.067962,,,,
574.0399996,2242,36.32788791,695.2082221,24.74218664,705.5322019,-205.9340494,-3405.081376,-0.001596405,709.1747963,-4159.055937,-3506.560042,-355.0066191,719.5566348,-3124.200063,-3943.295019,2048.48701,2932.97196,,,,
574.0479996,2242,31.40860207,689.3604094,19.66945729,699.6727054,-209.1144928,-3943.793557,-0.001578167,702.8208938,-2849.066776,-4376.501001,-360.1619735,713.6584068,-3963.56889,-2986.004423,2038.37204,2918.856078,,,,
574.0559996,2242,26.50745056,683.5176698,14.61574705,693.8180698,-212.2773846,-2900.196701,-0.001558936,696.4736715,-3916.740014,-3708.548898,-365.2883395,707.7648265,-3432.183822,-3491.64584,2028.244479,2904.720756,,,,
574.0639996,2242,21.62447837,677.6801315,9.581104033,687.968419,-215.422713,-3568.541274,-0.001539637,690.1332604,-3548.946121,-3443.386071,-370.3857,701.8760316,-3279.80034,-3638.347941,2018.104636,2890.566421,,,,
574.0719996,2242,16.75974179,671.8479228,4.565583076,682.1238838,-218.5504666,-3002.459326,-0.001520549,683.7997944,-3184.89902,-4015.413773,-375.4540384,695.9921565,-3884.263385,-2989.3742,2007.952815,2876.393505,,,,
574.0799996,2242,11.9132948,666.0211732,-0.430761997,676.284594,-221.6606344,-2713.787181,-0.001501109,677.4734101,-4229.300737,-2787.314145,-380.4933394,690.113322,-2877.281108,-4003.830138,1997.789318,2862.202442,,,,
574.0879996,2242,7.085190114,660.200006,-5.407878667,670.450677,-224.7532061,-3195.51651,-0.001482304,671.1542341,-3031.105013,-3630.218312,-385.503588,684.2396593,-3714.774928,-3137.402649,1987.614445,2847.993651,,,,
574.0959996,2242,2.275482126,654.3845474,-10.36571123,664.6222543,-227.8281718,-2130.169579,-0.001464695,664.8424015,-4087.663328,-2973.794234,-390.4847704,678.3713067,-3188.023229,-3654.986296,1977.428497,2833.767569,,,,
574.1039996,2242,-2.515778408,648.5749193,-15.30420733,658.7994571,-230.8855218,-2812.533723,-0.001445956,658.5380448,-3623.350319,-2765.964925,-395.4368732,672.5083793,-3051.975522,-3728.941942,1967.231773,2819.524617,,,,
574.1119996,2242,-7.28854537,642.7712482,-20.22332391,652.9824125,-233.9252472,-2243.355157,-0.001426926,652.2412923,-3296.336578,-3407.458338,-400.359884,666.6510056,-3666.957151,-3088.411984,1957.024573,2805.265218,,,,
574.1199996,2242,-12.04277268,636.9736596,-25.12300937,647.1712364,-236.9473396,-1955.837272,-0.001408379,645.9522753,-4364.565498,-2252.640883,-405.2537911,660.799321,-2667.9384,-4122.92407,1946.807201,2790.989795,,,,
574.1279996,2242,-16.77840542,631.1822719,-30.00321094,641.3660606,-239.9517909,-2455.822635,-0.001389259,639.6711228,-3115.053887,-3172.785681,-410.1185838,654.953441,-3518.189267,-3236.464288,1936.579947,2776.698773,,,,
574.1359996,2242,-21.49539628,625.3972121,-34.8638876,635.567008,-242.9385934,-1404.855164,-0.001370922,633.3979638,-4160.09748,-2557.737979,-414.9542517,649.1134987,-3002.357537,-3748.778768,1926.343106,2762.392572,,,,
574.1439996,2242,-26.19369669,619.6186009,-39.70498283,629.7741972,-245.9077402,-2079.948959,-0.001352258,627.1329248,-3714.979564,-2366.462705,-419.7607856,643.2796172,-2879.052418,-3823.942639,1916.096976,2748.07161,,,,
574.1519996,2242,-30.87326123,613.8465581,-44.52644746,623.9877549,-248.8592245,-1490.62254,-0.001333074,620.8761317,-3399.638978,-3001.437207,-424.5381768,637.4519181,-3499.092697,-3197.520548,1905.841853,2733.736308,,,,
574.1599996,2242,-35.53404749,608.0812052,-49.32824674,618.2078032,-251.7930402,-1206.495963,-0.001315338,614.6277123,-4384.296389,-1813.966788,-429.2864176,631.6305301,-2505.02427,-4161.253174,1895.578032,2719.38708,,,,
574.1679996,2242,-40.17600342,602.3226651,-54.11033074,612.4344655,-254.7091817,-1671.677882,-0.001297038,608.3877932,-3082.247655,-2690.252995,-434.0055009,625.815568,-3360.548981,-3193.814156,1885.305801,2705.024344,,,,
574.1759996,2242,-44.79908449,596.5710536,-58.87264802,606.6678545,-257.6076436,-527.482802,-0.001277787,602.1564974,-4219.394987,-2004.967866,-438.6954203,620.0071581,-2826.581432,-3788.274018,1875.025452,2690.648514,,,,
574.1839996,2242,-49.40325091,590.8264867,-63.61515353,600.9080908,-260.4884212,-1128.249138,-0.00125955,595.9339508,-3799.072811,-1743.205186,-443.3561703,614.2054251,-2682.531347,-3909.976525,1864.737278,2676.260004,,,,
574.1919996,2242,-53.98845586,585.0890871,-68.33781153,595.1553002,-263.3515102,-459.2978266,-0.001241815,589.720277,-3475.893766,-2327.300492,-447.9877462,608.4104851,-3291.573564,-3264.06158,1854.441569,2661.859227,,,,
574.1999996,2242,-58.55465673,579.3589731,-73.04058244,589.4095958,-266.1969067,-90.52794769,-0.001223097,583.515596,-4539.038799,-1106.747889,-452.5901437,602.6224609,-2286.041626,-4298.503764,1844.138613,2647.446589,,,,
574.2079996,2243,-63.10181067,573.6362587,-77.7234128,583.6710976,-269.0246074,-535.1138727,-0.001204153,577.3200337,-3254.600516,-1998.415915,-457.1633596,596.8414733,-3140.245991,-3370.119639,1833.828697,2633.022505,,,,
574.2159996,2243,-67.62987779,567.9210569,-82.38626125,577.9399248,-271.8346094,562.6436578,-0.00118607,571.1337107,-4293.524899,-1397.42362,-461.7073914,591.0676363,-2623.237031,-3885.717456,1823.51211,2618.587379,,,,
574.2239996,2243,-72.13881719,562.213486,-87.02909532,572.2161887,-274.62691,-154.9975313,-0.00116796,564.9567453,-3780.169953,-1289.716768,-466.2222373,585.3010707,-2514.69653,-3927.070704,1813.189141,2604.141622,,,,
574.2319996,2243,-76.62858254,556.5136637,-91.65187167,566.5000079,-277.4015074,324.8104048,-0.001149471,558.7892585,-3380.410445,-2071.067831,-470.707896,579.541895,-3169.288501,-3224.432411,1802.860067,2589.685637,,,,
574.2399996,2243,-81.09913939,550.8217055,-96.25454819,560.7915023,-280.1583999,468.4436676,-0.001132191,552.6313718,-4339.842505,-1075.61639,-475.1643673,573.790223,-2219.446239,-4163.185326,1792.525175,2575.219824,,,,
574.2479996,2243,-85.55045399,545.1377208,-100.837083,555.0907797,-282.8975864,-189.993739,-0.001115032,546.4832032,-3043.937711,-2182.935231,-479.5916516,568.0461807,-3127.039255,-3206.765982,1782.184758,2560.744599,,,,
574.2559996,2243,-89.98247881,539.4618193,-105.3994395,549.3979571,-285.6190662,710.7467064,-0.001096269,540.3448679,-4088.93421,-1734.373906,-483.9897499,562.3098759,-2650.379846,-3734.949398,1771.839089,2546.260356,,,,
574.2639996,2243,-94.39517302,533.7941188,-109.9415851,543.7131465,-288.3228391,-179.5277449,-0.001078042,534.216485,-3513.153404,-1733.190405,-488.3586641,556.5814232,-2582.527551,-3718.29743,1761.488447,2531.767488,,,,
574.2719996,2243,-98.78851206,528.1347295,-114.4634797,538.0364632,-291.0089053,191.8777356,-0.001060061,528.0981711,-3143.881364,-2559.15627,-492.6983967,550.8609421,-3259.09564,-3021.800411,1751.133117,2517.266399,,,,
574.2799996,2243,-103.1624543,522.4837603,-118.965088,532.3680175,-293.6772655,236.268909,-0.001041994,521.9900439,-4097.396643,-1549.459642,-497.0089511,545.1485361,-2316.149923,-3973.759444,1740.773377,2502.757494,,,,
574.2879996,2243,-107.5169577,516.8413246,-123.446374,526.7079191,-296.3279206,-531.4799926,-0.001024274,515.8922147,-2723.563979,-2645.103328,-501.2903312,539.4443287,-3241.647022,-2950.274016,1730.409512,2488.241166,,,,
574.2959996,2243,-111.8519916,511.2075307,-127.9072991,521.0562886,-298.9608724,280.4897889,-0.001006543,509.8047999,-3783.367853,-2194.960568,-505.5425418,533.748434,-2779.873871,-3465.45779,1720.041793,2473.717804,,,,
574.3039996,2243,-116.1675212,505.5824897,-132.3478277,515.4132246,-301.5761227,-733.583057,-0.000989046,503.7279152,-3216.975076,-2229.714251,-509.7655882,528.0609555,-2720.178335,-3470.332705,1709.670492,2459.187803,,,,
574.3119996,2243,-120.4635126,499.9663064,-136.7679295,509.7788388,-304.173674,-572.0677067,-0.000971153,497.6616696,-2812.284394,-3186.045798,-513.9594765,522.3820096,-3417.846916,-2758.779833,1699.295895,2444.651562,,,,
574.3199996,2243,-124.7399285,494.3590887,-141.1675756,504.1532443,-306.7535291,-762.5032641,-0.000953455,491.6061781,-3709.119908,-2406.150633,-518.1242138,516.7117031,-2520.927863,-3652.544834,1688.918272,2430.109469,,,,
574.3279996,2243,-128.9967423,488.7609499,-145.5467282,498.5365479,-309.3156913,-1607.256846,-0.000935521,485.561552,-2342.299564,-3670.365839,-522.2598074,511.05015,-3470.449523,-2598.697982,1678.537896,2415.56191,,,,
574.3359996,2243,-133.2339231,483.1719897,-149.9053507,492.9288578,-311.8601642,-749.6205256,-0.000918107,479.5279017,-3521.316009,-3196.95076,-526.3662656,505.3974625,-2974.778576,-3196.976014,1668.155044,2401.009278,,,,
574.3439996,2243,-137.4514297,477.5923158,-154.2434196,487.3302758,-314.386952,-1738.602094,-0.000901024,473.5053366,-2974.19788,-3154.238777,-530.4435974,499.7537401,-2883.03787,-3236.623219,1657.769981,2386.451958,,,,
574.3519996,2243,-141.6492348,472.0220365,-158.5609049,481.7409111,-316.8960594,-1489.818459,-0.000882809,467.4939674,-2515.584987,-3992.644145,-534.4918125,494.1190969,-3559.400649,-2469.802322,1647.382979,2371.890336,,,,
574.3599996,2243,-145.8273131,466.4612541,-162.8577716,476.1608737,-319.3874911,-1575.286041,-0.000865534,461.4939033,-3473.213451,-2989.540478,-538.510921,488.4936422,-2618.415504,-3410.05373,1636.994313,2357.324798,,,,
574.3679996,2243,-149.9856309,460.9100702,-167.1339921,470.5902695,-321.8612528,-2473.826544,-0.00084794,455.5052527,-2108.960972,-4113.44158,-542.5009342,482.8774756,-3543.525559,-2389.663452,1626.604246,2342.755723,,,,
574.3759996,2243,-154.1241569,455.3685902,-171.3895363,465.029196,-324.3173501,-1778.359993,-0.000830254,449.5281203,-3179.303834,-3666.44273,-546.4618636,477.270711,-3070.014425,-2902.463819,1616.213046,2328.183491,,,,
574.3839996,2243,-158.2428693,449.8369167,-175.6243819,459.4777582,-326.7557894,-2883.882242,-0.000813091,443.5626139,-2682.48476,-3686.655718,-550.3937217,471.6734493,-3005.085199,-2965.493628,1605.820986,2313.608484,,,,
574.3919996,2243,-162.3417356,444.315155,-179.8384955,453.9360661,-329.1765773,-2686.538147,-0.000795738,437.6088418,-2315.25082,-4569.657586,-554.2965216,466.0857903,-3687.666657,-2279.757104,1595.428329,2299.031085,,,,
574.3999996,2243,-166.4207256,438.8034036,-184.0318509,448.4042154,-331.579721,-2716.601363,-0.000778757,431.6669079,-3256.615107,-3560.845593,-558.170277,460.5078512,-2733.680157,-3200.534573,1585.035334,2284.451668,,,,
574.4079996,2243,-170.4798195,433.3017551,-188.2044253,442.8823071,-333.9652278,-3405.489896,-0.000761767,425.7369165,-1969.070325,-4559.437527,-562.0150023,454.9397285,-3605.992076,-2228.980441,1574.642268,2269.870607,,,,
574.4159996,2243,-174.5189876,427.8103209,-192.35619,437.3704475,-336.3331058,-2466.559549,-0.000745,419.818968,-3151.468711,-3926.853767,-565.8307126,449.3815209,-3058.097219,-2858.759508,1564.249398,2255.288283,,,,
574.4239996,2243,-178.5382034,422.3291993,-196.4871214,431.8687347,-338.6833632,-3354.778119,-0.000727371,413.9131706,-2672.653324,-3768.111321,-569.6174238,443.8333396,-2929.880997,-2952.31237,1553.856981,2240.705058,,,,
574.4319996,2243,-182.5374439,416.8584862,-200.5971921,426.3772675,-341.0160089,-2966.727028,-0.000709954,408.0196261,-2300.909771,-4473.268802,-573.3751522,438.2952811,-3552.409537,-2249.031381,1543.465279,2226.121313,,,,
574.4399996,2243,-186.516683,411.3982813,-204.6863849,420.8961493,-343.3310519,-2905.790135,-0.000693858,402.1384331,-3307.695706,-3357.355896,-577.1039149,432.7674413,-2560.681966,-3237.654389,1533.074552,2211.537417,,,,
574.4479996,2243,-190.4759005,405.9486783,-208.7546726,415.4254756,-345.6285018,-3617.590023,-0.000677117,396.2696982,-2036.212174,-4345.985777,-580.8037298,427.2499315,-3436.704392,-2315.231591,1522.685054,2196.953733,,,,
574.4559996,2243,-194.4150727,400.5097807,-212.8020335,409.9653421,-347.9083685,-2729.614338,-0.000660026,390.4135175,-3087.975199,-3734.976086,-584.4746151,421.7428482,-2914.589491,-2825.458554,1512.297051,2182.370634,,,,
574.4639996,2244,-198.3341698,395.081681,-216.8284411,404.5158537,-350.1706624,-3617.744884,-0.000642386,384.5699901,-2562.697404,-3582.200176,-588.1165901,416.2462826,-2805.710828,-2847.963832,1501.910793,2167.788481,,,,
574.4719996,2244,-202.233177,389.6644718,-220.8338778,399.0771027,-352.4153944,-3191.402518,-0.000625284,378.739217,-2237.763022,-4259.859192,-591.7296744,410.7603408,-3428.046566,-2189.486173,1491.526534,2153.207643,,,,
574.4799996,2244,-206.1120711,384.2582499,-224.8183293,393.6491815,-354.6425754,-3071.824989,-0.00060955,372.9212951,-3267.608126,-3098.337063,-595.3138884,405.285116,-2429.536149,-3201.759146,1481.14454,2138.628483,,,,
574.4879996,2244,-209.970831,378.8631088,-228.7817654,388.2321891,-356.8522171,-3701.483191,-0.000593024,367.1163233,-2027.638098,-4042.688619,-598.869253,399.8207057,-3293.089048,-2298.857096,1470.765054,2124.051365,,,,
574.4959996,2244,-213.8094413,373.4791492,-232.7241752,382.8262168,-359.0443315,-2748.621209,-0.000576286,361.3243976,-3089.388501,-3397.549403,-602.3957901,394.3672134,-2755.112687,-2830.212679,1460.388329,2109.47664,,,,
574.5039996,2244,-217.6278761,368.1064587,-236.6455379,377.4313633,-361.2189309,-3608.907244,-0.000558897,355.5456134,-2546.042865,-3234.834139,-605.8935218,388.9247286,-2644.072911,-2852.691011,1450.014622,2094.90467,,,,
574.5119996,2244,-221.4261203,362.745128,-240.5458274,372.0477284,-363.3760279,-3171.392922,-0.000542587,349.7800659,-2224.448572,-3920.347094,-609.3624712,383.4933433,-3269.894106,-2188.177659,1439.644179,2080.335822,,,,
574.5199996,2244,-225.2041503,357.3952534,-244.4250336,366.6753925,-365.5156358,-3067.133509,-0.000526149,344.0278536,-3218.18126,-2782.777929,-612.8026617,378.0731599,-2281.561549,-3166.069266,1429.277248,2065.770441,,,,
574.5279996,2244,-228.9619518,352.0569179,-248.2831404,361.3144495,-367.6377681,-3741.643194,-0.000508899,338.2890685,-1849.866435,-3777.110118,-616.2141176,372.6642682,-3166.338116,-2160.562389,1418.914079,2051.208884,,,,
574.5359996,2244,-232.6995124,346.73022,-252.1201234,355.9649996,-369.7424387,-2810.349868,-0.000493347,332.5638,-2933.934419,-3194.67546,-619.5968637,367.2667634,-2640.923319,-2682.302325,1408.55492,2036.651503,,,,
574.5439996,2244,-236.4168109,341.4152489,-255.9359742,350.6271276,-371.8296617,-3667.220136,-0.000477059,326.8521451,-2553.096525,-3093.168231,-622.9509255,361.8807362,-2531.847307,-2837.903393,1398.200017,2022.09865,,,,
574.5519996,2244,-240.1138306,336.1120866,-259.7306793,345.3009223,-373.8994521,-3244.168238,-0.000460406,321.1541954,-2209.079669,-3824.942325,-626.276329,356.5062759,-3158.984939,-2179.781466,1387.849614,2007.55068,,,,
574.5599996,2244,-243.7905541,330.8208324,-263.5042159,339.986478,-375.9518246,-3145.449308,-0.000443726,315.4700404,-3165.835142,-2707.273775,-629.573101,351.1434756,-2172.945021,-3116.13243,1377.503958,1993.007939,,,,
574.5679996,2244,-247.4469689,325.5415671,-267.2565779,334.6838832,-377.9867949,-3811.086307,-0.000427039,309.7997725,-1922.134951,-3692.962279,-632.8412687,345.792426,-3056.337498,-2222.137193,1367.163285,1978.470771,,,,
574.5759996,2244,-251.083061,320.2743754,-270.9877517,329.3932203,-380.0043787,-2896.547075,-0.000411181,304.1434816,-2951.571768,-3082.211796,-636.0808601,340.4532242,-2535.391113,-2711.730284,1356.827843,1963.93952,,,,
574.5839996,2244,-254.698818,315.0193523,-274.6977204,324.1145832,-382.0045921,-3757.08857,-0.000395262,298.5012557,-2417.954753,-2942.338443,-639.2919036,335.125951,-2437.466952,-2724.332775,1346.497873,1949.414534,,,,
574.5919996,2244,-258.2942259,309.77658,-278.3864687,318.8480547,-383.9874518,-3303.821792,-0.000379007,292.8731808,-2166.558787,-3623.476297,-642.4744286,329.8106939,-3057.164201,-2156.952283,1336.173615,1934.896157,,,,
574.5999996,2244,-261.8692734,304.5461408,-282.0539899,313.5937214,-385.9529747,-3191.669161,-0.000363448,287.2593477,-3127.180027,-2471.140979,-645.6284646,324.5075472,-2063.797695,-3110.541422,1325.855305,1920.384729,,,,
574.6079996,2244,-265.4239425,299.3281222,-285.700273,308.3516762,-387.901178,-3832.554678,-0.000348059,281.6598448,-1771.832398,-3452.540866,-648.754042,319.2165934,-2949.10636,-2101.970524,1315.543178,1905.880587,,,,
574.6159996,2244,-268.9582231,294.1226092,-289.3253048,303.1219978,-389.8320794,-2858.657195,-0.000331172,276.0747549,-2926.585681,-2843.11149,-651.8511919,313.9379226,-2412.142713,-2698.224964,1305.237475,1891.384072,,,,
574.6239996,2244,-272.4721116,288.9296833,-292.9290791,297.9047751,-391.745697,-3674.963972,-0.000315656,270.5041656,-2452.71483,-2710.126266,-654.9199456,308.6716218,-2302.261857,-2770.872672,1294.938432,1876.89552,,,,
574.6319996,2244,-275.9655909,283.749428,-296.5115826,292.70009,-393.6420492,-3181.769728,-0.00030043,264.9481614,-2102.402547,-3402.991187,-657.9603353,303.4177687,-2924.0607,-2096.129018,1284.646283,1862.415259,,,,
574.6399996,2244,-279.4386519,278.5819212,-300.0728087,287.5080168,-395.5211546,-3010.191021,-0.000284337,259.4068277,-3123.736998,-2253.26649,-660.9723938,298.1764567,-1923.062999,-3085.55447,1274.361259,1847.943631,,,,
574.6479996,2244,-282.8912884,273.4272494,-303.6127512,282.3286485,-397.3830325,-3604.700397,-0.000269388,253.8802471,-1829.823977,-3223.340703,-663.9561544,292.9477724,-2799.806715,-2141.380879,1264.083594,1833.480971,,,,
574.6559996,2244,-286.3234901,268.2854948,-307.1314011,277.1620679,-399.2277023,-2608.585765,-0.000253339,248.3685005,-2900.382313,-2587.097423,-666.9116508,287.7317889,-2263.524934,-2681.822768,1253.813517,1819.027604,,,,
574.6639996,2244,-289.7352477,263.1567334,-310.628748,272.0083546,-401.0551839,-3400.310587,-0.000236996,242.8716733,-2428.031632,-2410.684973,-669.8389177,282.5285911,-2150.49817,-2755.802146,1243.551261,1804.583861,,,,
574.6719996,2244,-293.1265553,258.0410483,-314.1047869,266.8675862,-402.8654973,-2886.189169,-0.000222097,237.3898461,-2102.20675,-3055.363652,-672.7379899,277.3382683,-2765.910786,-2100.987037,1233.297056,1790.150068,,,,
574.6799996,2244,-296.4974046,252.9385163,-317.5595129,261.739841,-404.6586633,-2696.806048,-0.000207052,231.9230995,-3100.253116,-1863.079967,-675.6089032,272.1608971,-1761.701547,-3080.294957,1223.051124,1775.726554,,,,
574.6879996,2244,-299.8477845,247.8492164,-320.9929208,256.625208,-406.4347026,-3255.112266,-0.000190618,226.4715117,-1835.087739,-2794.954564,-678.4516938,266.996556,-2631.967673,-2160.532805,1212.813696,1761.313637,,,,
574.6959996,2244,-303.1776966,242.7732227,-324.405009,251.5237584,-408.1936365,-2215.302358,-0.000175532,221.035163,-2901.743159,-2139.63645,-681.2663982,261.8453322,-2087.310443,-2683.743768,1202.584999,1746.911645,,,,
574.7039996,2244,-306.4871331,237.7106169,-327.795766,246.4355687,-409.9354867,-2952.582287,-0.000160727,215.6141362,-2482.698549,-1962.254759,-684.053054,256.7073007,-1963.259197,-2798.358028,1192.365258,1732.520905,,,,
574.7119996,2244,-309.776088,232.6614776,-331.1651927,241.3607203,-411.6602749,-2392.914484,-0.000145071,210.2085043,-2228.93951,-2621.291208,-686.8116988,251.5825405,-2570.886551,-2225.968211,1182.154695,1718.141729,,,,
574.7199996,2245,-313.0445576,227.6258724,-334.5132872,236.2992912,-413.3680236,-2201.108973,-0.000130067,204.8183445,-3139.57979,-1470.984682,-689.5423713,246.4711332,-1576.008605,-3133.84113,1171.953526,1703.774434,,,,
574.7279996,2245,-316.2925364,222.6038788,-337.8400423,231.2513553,-415.0587554,-2771.490695,-0.000114954,199.4437383,-1840.280589,-2451.230502,-692.2451103,241.373152,-2459.400763,-2170.559791,1161.761985,1689.419343,,,,
574.7359996,2245,-319.5200272,217.5955781,-341.1454605,226.2169853,-416.7324932,-1762.116064,-9.96E-05,194.084758,-2915.382271,-1842.786411,-694.9199553,236.2886738,-1929.028546,-2716.578524,1151.580285,1675.076774,,,,
574.7439996,2245,-322.7270222,212.6010424,-344.4295371,221.1962617,-418.3892602,-2576.126912,-8.44E-05,188.7414779,-2339.239289,-1724.187831,-697.5669466,231.2177831,-1832.821531,-2700.334142,1141.40864,1660.747032,,,,
574.7519996,2245,-325.9135176,207.6203383,-347.6922714,216.1892606,-420.0290802,-2083.322572,-6.99E-05,183.4139752,-2061.833638,-2433.609427,-700.1861246,226.1605528,-2461.365207,-2083.306639,1131.247283,1646.43043,,,,
574.7599996,2245,-329.0795137,202.6535403,-350.9336639,211.19605,-421.6519772,-1933.592663,-5.44E-05,178.1023227,-3074.955059,-1314.780723,-702.7775306,221.1170498,-1472.047916,-3075.549911,1121.096421,1632.127288,,,,
574.7679996,2245,-332.2250068,197.7007236,-354.1537138,206.2166997,-423.2579754,-2572.369309,-3.92E-05,172.8065943,-1714.679577,-2331.424999,-705.3412063,216.0873562,-2366.550694,-2063.352144,1110.956266,1617.83791,,,,
574.7759996,2245,-335.3499991,192.7619578,-357.3524245,201.2512892,-424.8470994,-1634.206757,-2.53E-05,167.5268627,-2746.437272,-1774.540022,-707.8771938,211.0715468,-1855.747778,-2561.479771,1100.82704,1603.5626,,,,
574.7839996,2245,-338.454493,187.837314,-360.5297987,196.2998905,-426.4193743,-2491.006166,-1.11E-05,162.263198,-2194.115309,-1704.223468,-710.3855361,206.0696914,-1775.28345,-2553.946865,1090.708958,1589.301675,,,,
574.7919996,2245,-341.5384824,182.9268628,-363.6858302,191.3625725,-427.9748253,-2034.705102,4.28E-06,157.0156717,-1922.207752,-2452.725386,-712.8662764,201.0818631,-2412.646404,-1944.374308,1080.602225,1575.055428,,,,
574.7999996,2245,-344.6019732,178.0306725,-366.8205215,186.4394071,-429.513478,-1919.816425,1.99E-05,151.7843541,-2962.705712,-1382.084006,-715.3194585,196.1081361,-1434.919445,-2976.769362,1070.507059,1560.824164,,,,
574.8079996,2245,-347.6449683,173.1488154,-369.9338892,181.5304598,-431.0353584,-2581.589526,3.41E-05,146.5693167,-1658.220755,-2443.728362,-717.7451268,191.1485782,-2338.312902,-2027.487703,1060.423672,1546.608194,,,,
574.8159996,2245,-350.6674616,168.2813542,-373.0259241,176.6358051,-432.5404928,-1665.855368,4.79E-05,141.3706295,-2709.637877,-1915.444809,-720.1433261,186.2032631,-1827.892046,-2551.502558,1050.352264,1532.407809,,,,
574.8239996,2245,-353.6694605,163.4283563,-376.0966296,171.7555135,-434.0289077,-2549.473592,6.23E-05,136.1883574,-2115.576651,-1870.963949,-722.5141019,181.2722617,-1747.822448,-2495.785114,1040.293049,1518.223314,,,,
574.8319996,2245,-356.6509718,158.5898961,-379.14602,166.8896452,-435.50063,-2127.584167,7.68E-05,131.0225687,-1802.133698,-2634.867112,-724.8575001,176.3556381,-2386.893258,-1835.32304,1030.246236,1504.054999,,,,
574.8399996,2245,-359.6119961,153.7660349,-382.1740879,162.0382698,-436.955687,-2063.302737,9.12E-05,125.8733339,-2785.970952,-1568.352796,-727.173567,171.4534675,-1415.281474,-2819.284859,1020.212029,1489.903164,,,,
574.8479996,2245,-362.5525341,148.9568357,-385.1808447,157.2014595,-438.3941061,-2789.909587,0.000105383,120.7407176,-1410.148035,-2634.815114,-729.4623497,166.5658169,-2325.70962,-1794.391051,1010.190632,1475.768102,,,,
574.8559996,2245,-365.4725876,144.1623673,-388.1663013,152.3792766,-439.8159153,-1953.451132,0.000119482,115.6247828,-2478.24618,-2118.089217,-731.7238955,161.6927507,-1822.921869,-2315.749258,1000.182249,1461.650104,,,,
574.8639996,2245,-368.372166,139.3826932,-391.1304568,147.5717811,-441.2211426,-2946.092332,0.00013389,110.5255983,-1908.786714,-2108.781083,-733.9582524,156.8343381,-1761.545812,-2300.533027,990.1870868,1447.549463,,,,
574.8719996,2245,-371.2512811,134.6178786,-394.0733165,142.7790477,-442.6098166,-2652.833282,0.000148165,105.4432297,-1538.825877,-2942.191467,-736.1654688,151.9906453,-2430.342391,-1600.254206,980.2053385,1433.466465,,,,
574.8799996,2245,-374.1099314,129.86799,-396.9948933,138.0011397,-443.9819659,-2690.940894,0.000162169,100.3777369,-2523.949209,-1951.655091,-738.3455937,147.161738,-1486.323634,-2566.602643,970.2372091,1419.401404,,,,
574.8879996,2245,-376.9481238,125.1330801,-399.8951952,133.2381143,-445.3376198,-3530.48895,0.000176657,95.32918257,-1139.509303,-3085.071142,-740.4986764,142.347683,-2414.989627,-1548.974379,960.2829032,1405.35456,,,,
574.8959996,2245,-379.7658693,120.4132136,-402.7742285,128.4900418,-446.6768074,-2873.960045,0.000190876,90.29763056,-2170.326942,-2683.974555,-742.6247669,137.5485437,-1942.06457,-2054.269953,950.3426077,1391.32622,,,,
574.9039996,2245,-382.5631675,115.7084615,-405.6320076,123.7569822,-447.9995586,-4077.08546,0.000204912,85.28314312,-1611.799554,-2849.284219,-744.7239155,132.7643826,-1925.922826,-2049.166879,940.4165269,1377.316664,,,,
574.9119996,2245,-385.3400316,111.0188749,-408.4685323,119.0389906,-449.3059032,-3987.154905,0.000218424,80.28578337,-1180.71536,-3853.322117,-746.7961732,127.9952598,-2637.994955,-1301.044329,930.5048586,1363.32618,,,,
574.9199996,2245,-388.0964706,106.3445178,-411.2838183,114.3361339,-450.5958716,-4137.310338,0.00023175,75.30560878,-2092.111188,-2964.856089,-748.8415913,123.2412418,-1724.354697,-2180.834082,920.6077949,1349.355045,,,,
574.9279996,2245,-390.8324892,101.6854501,-414.0778795,109.6484772,-451.8694944,-4907.141149,0.000245119,70.34267825,-757.8171101,-4045.793988,-750.8602217,118.5023946,-2631.923355,-1170.270805,910.725529,1335.403531,,,,
574.9359996,2245,-393.548101,97.04172616,-416.8507166,104.9760742,-453.1268023,-4045.801897,0.000258671,65.39705329,-1913.543978,-3435.866032,-752.8521165,113.7787766,-2084.859278,-1760.609222,900.8582513,1321.471924,,,,
574.9439996,2245,-396.2433162,92.41340701,-419.6023496,100.3189831,-454.3678265,-4977.282812,0.000273144,60.46878903,-1432.254292,-3307.285182,-754.8173287,109.0704443,-1979.589139,-1817.392893,891.0061595,1307.560498,,,,
574.9519996,2245,-398.9181431,87.80055004,-422.3327889,95.67726996,-455.5925985,-4583.618389,0.000286757,55.55794612,-1049.011393,-3982.656572,-756.7559115,104.3774602,-2590.570047,-1117.000153,881.1694355,1293.669522,,,,
574.9599996,2245,-401.5725903,83.20321424,-425.0420483,91.05098533,-456.80115,-4480.322249,0.000299248,50.6645828,-2110.859718,-2804.637197,-758.6679186,99.6998885,-1583.755843,-2135.39402,871.3482724,1279.799264,,,,
574.9679996,2245,-404.2066751,78.62145387,-427.730138,86.44018581,-457.993513,-5133.348915,0.000312864,45.78875212,-851.7504105,-3727.012816,-760.5534041,95.03778173,-2450.252686,-1224.513822,861.5428666,1265.950006,,,,
574.9759996,2246,-406.8204027,74.05532935,-430.3970681,81.84493742,-459.1697198,-4208.691757,0.000326761,40.93051101,-1923.880109,-3080.484377,-762.4124227,90.39120195,-1905.778073,-1767.589598,851.753395,1252.122011,,,,
574.9839996,2246,-409.4137838,69.50488817,-433.0428605,77.26529042,-460.329803,-5022.960957,0.000339718,36.08991543,-1489.76178,-2905.770791,-764.2450295,85.76020447,-1790.364884,-1853.643996,841.980045,1238.315543,,,,
574.9919996,2246,-411.9868413,64.97018743,-435.6675257,72.70130092,-461.4737954,-4529.803874,0.000352789,31.26701801,-1173.556333,-3514.810759,-766.05128,81.14484478,-2380.784866,-1214.331938,832.2230034,1224.530877,,,,
574.9999996,2246,-414.5395825,60.45128733,-438.2710777,68.15302905,-462.6017302,-4357.459317,0.000366667,26.4618739,-2197.348168,-2312.259163,-767.8312302,76.54518564,-1370.537457,-2208.567626,822.4824515,1210.768269,,,,
575.0079996,2246,-417.0720208,55.94823221,-440.8535333,63.62052113,-463.7136407,-4927.399075,0.000379831,21.67453818,-966.6074807,-3211.892965,-769.5849366,71.96128187,-2226.466683,-1318.647605,812.7585755,1197.027986,,,,
575.0159996,2246,-419.5841688,51.46108382,-443.41491,59.10383085,-464.8095607,-3937.537228,0.000392236,16.90505823,-2039.043009,-2530.390401,-771.3124559,67.39318269,-1668.116131,-1867.075536,803.051553,1183.310286,,,,
575.0239996,2246,-422.0760389,46.98988825,-445.9552187,54.60301573,-465.8895242,-4707.924291,0.000405821,12.15348735,-1543.888554,-2329.447407,-773.0138455,62.84094539,-1556.040956,-1902.887073,793.3615641,1169.615426,,,,
575.0319996,2246,-424.5476545,42.53469505,-448.4744762,50.11812883,-466.9535653,-4177.07034,0.000419043,7.419881355,-1251.460151,-2925.957407,-774.6891632,58.3046241,-2152.514235,-1285.424128,783.6887936,1155.943675,,,,
575.0399996,2246,-426.9990265,38.09556612,-450.9727076,45.6492227,-468.0017185,-3977.03406,0.000431507,2.704286575,-2300.594066,-1711.103162,-776.3384672,53.78426978,-1147.252592,-2313.882306,774.0334158,1142.29528,,,,
575.0479996,2246,-429.4301688,33.67253963,-453.4499281,41.1963477,-469.0340186,-4525.497434,0.000444566,-1.993247457,-1001.18693,-2597.458398,-777.961816,49.27994512,-2012.513298,-1354.960445,764.3956038,1128.670498,,,,
575.0559996,2246,-431.8411026,29.2656672,-455.9061484,36.75955462,-470.0505007,-3508.124993,0.000457876,-6.672670078,-2065.109211,-1916.878365,-779.5592687,44.79169359,-1459.050458,-1881.686928,754.7755398,1115.069584,,,,
575.0639996,2246,-434.2318393,24.87500476,-458.3413916,32.33889239,-471.0512,-4243.663444,0.00046996,-11.33393202,-1590.68741,-1712.955013,-781.1308848,40.31956557,-1347.238229,-1934.476476,745.1733977,1101.492781,,,,
575.0719996,2246,-436.6023992,20.50059766,-460.7556815,27.93441159,-472.0361521,-3669.012779,0.000482474,-15.976986,-1208.806065,-2304.127279,-782.6767242,35.86361552,-1944.053859,-1226.782573,735.5893429,1087.940351,,,,
575.0799996,2246,-438.9527972,16.14249327,-463.1490324,23.54615771,-473.0053928,-3373.228524,0.000495556,-20.60178629,-2325.023,-1080.062627,-784.1968471,31.42389331,-925.411329,-2303.144875,726.023555,1074.41254,,,,
575.0879996,2246,-441.2830502,11.800738,-465.5214692,19.17418292,-473.9589581,-3783.991999,0.000508088,-25.20828418,-1235.379932,-1931.739627,-785.6913142,27.00045037,-1764.33672,-1542.948663,716.476208,1060.909588,,,,
575.0959996,2246,-443.5931867,7.475380495,-467.8730094,14.81853947,-474.8968844,-2634.328142,0.000521199,-29.79643381,-2291.311968,-1195.469225,-787.1601868,22.59333001,-1193.748576,-2092.380739,706.947465,1047.431745,,,,
575.1039996,2246,-445.8832175,3.166463446,-470.2036663,10.47926974,-475.8192083,-3208.131873,0.000533557,-34.36619218,-1795.611617,-900.0459366,-788.6035262,18.20258542,-1060.081246,-2125.031021,697.4374992,1033.979253,,,,
575.1119996,2246,-448.1531579,-1.125963036,-472.5134683,6.156416819,-476.7259666,-2462.405797,0.000544796,-38.91751356,-1515.018669,-1379.936466,-790.0213946,13.82826747,-1622.469044,-1508.867812,687.9464794,1020.552356,,,,
575.1199996,2246,-450.4030359,-5.401856836,-474.8024454,1.850031685,-477.6171963,-2036.565805,0.000556661,-43.45035248,-2606.313266,-62.3250286,-791.4138542,9.470416836,-583.0826617,-2575.211678,678.4745731,1007.151294,,,,
575.1279996,2246,-452.6328714,-9.661171626,-477.0706086,-2.439839426,-478.4929348,-2334.439312,0.000568869,-47.96466702,-1444.017431,-827.8865327,-792.7809677,5.129083544,-1410.009117,-1733.841544,669.0219419,993.7763046,,,,
575.1359996,2246,-454.8426803,-13.90386127,-479.3179776,-6.713159215,-479.3532197,-1079.19905,0.000581195,-52.46041257,-2553.047077,-29.45695001,-794.1227983,0.80431651,-825.4323164,-2318.57059,659.5887474,980.4276318,,,,
575.1439996,2246,-457.0324858,-18.12989026,-481.5445849,-10.96987388,-480.1980888,-1580.598359,0.000593951,-56.93754832,-2145.638007,285.9871253,-795.4394096,-3.503842771,-685.6379538,-2440.941216,650.1751576,967.1055032,,,,
575.1519996,2246,-459.2023129,-22.33920806,-483.7504533,-15.20994049,-481.0275801,-803.5785567,0.000605916,-61.39603325,-1837.761403,-214.6600469,-796.7308654,-7.795352425,-1259.694623,-1817.588395,640.7813388,953.8101542,,,,
575.1599996,2246,-461.3521795,-26.53177677,-485.9356032,-19.43332498,-481.8417319,-360.5952693,0.000617326,-65.83582458,-2856.301732,1043.633846,-797.99723,-12.07016306,-246.029437,-2811.306764,631.4074466,940.5418237,,,,
575.1679996,2246,-463.4821092,-30.70755544,-488.1000572,-23.63997694,-482.6405828,-639.8159135,0.000629258,-70.25688535,-1703.569731,203.6658033,-799.2385682,-16.3282314,-1092.876852,-1969.126867,622.0536418,927.3007341,,,,
575.1759996,2246,-465.5921224,-34.86649872,-490.2438447,-27.8298566,-483.4241716,650.7918135,0.00064147,-74.65917308,-2788.6961,923.8383726,-800.454945,-20.56951578,-520.8725202,-2538.229522,612.7200897,914.0871176,,,,
575.1839996,2246,-467.6822439,-39.00857059,-492.3669899,-32.00292364,-484.1925372,203.3932483,0.000652937,-79.04264848,-2323.318762,1181.819492,-801.6464259,-24.79396727,-392.4749778,-2589.973072,603.4069351,900.9012076,,,,
575.1919996,2246,-469.7525012,-43.13373224,-494.4695174,-36.15913519,-484.9457189,1057.340835,0.000665284,-83.4072754,-2075.104187,676.1698465,-802.8130767,-29.00154984,-966.4989439,-2007.758585,594.1143422,887.7432287,,,,
575.1999996,2246,-471.8029125,-47.24194117,-496.5514535,-40.29845498,-485.6837561,1595.933792,0.000677109,-87.75301253,-3094.027503,1986.916447,-803.9549636,-33.19222563,55.26071413,-3025.014078,584.8424716,874.6134021,,,,
575.2079996,2246,-473.8335057,-51.33315759,-498.612827,-44.42083862,-486.4066886,1404.610063,0.000687489,-92.07982595,-1862.825573,1249.383661,-805.0721531,-37.36595102,-787.2105217,-2112.519005,575.5914696,861.5119523,,,,
575.2159996,2246,-475.8443058,-55.40734377,-500.6536625,-48.52624636,-487.1145564,2817.921691,0.000699729,-96.38767935,-3019.807115,2099.686614,-806.1647122,-41.52267747,-205.2853868,-2731.107765,566.3614901,848.4391026,,,,
575.2239996,2246,-477.8353404,-59.4644647,-502.6739811,-52.61463978,-337.343956,2536.891347,0.000711592,-100.6765339,-2652.071647,2499.926429,-807.2327081,-45.66237481,-54.73999764,-2887.028907,557.1526865,835.39507,,,,
575.2319996,2247,-479.8066282,-63.50448752,-504.6738229,-56.6859891,-245.0140276,3562.546236,0.000722524,-104.946357,-2420.369342,2132.955266,-808.2762086,-49.78500649,-601.5416244,-2328.014323,547.9652153,822.3800758,,,,
575.2399996,2247,-481.7581971,-67.52736855,-506.6532116,-60.74025495,-520.9544434,4297.792906,0.000734251,-109.1971121,-3424.213799,3549.920541,-809.2952815,-53.89052373,449.24688,-3305.882494,538.7992254,809.3943379,,,,
575.2479996,2247,-483.6900783,-71.53307471,-508.6121696,-64.77739007,56.89397643,4313.913483,0.000745608,-113.4287659,-2276.350455,2864.921795,-810.2899954,-57.97889625,-361.8384502,-2444.041364,529.6548586,796.4380661,,,,
575.2559996,2247,-485.6022954,-75.52157448,-510.550734,-68.79736592,567.8194937,5847.401298,0.000756825,-117.6412857,-3489.610594,3698.019684,-811.2604188,-62.05008369,237.2333192,-3139.923596,520.5322657,783.5114792,,,,
575.2639996,2247,-487.4948776,-79.4928257,-512.4689312,-72.80015186,169.467668,5557.852265,0.000768484,-121.8346372,-2967.522376,3985.917595,-812.2066208,-66.10404878,370.3851795,-3173.073106,511.4315992,770.6147921,,,,
575.2719996,2247,-489.3678454,-83.4468006,-514.3667892,-76.78570611,995.893443,6400.646395,0.000779429,-126.0087895,-2839.185239,3376.485825,-813.1286709,-70.14075582,-221.2584711,-2718.404801,502.3529949,757.7482089,,,,
575.2799996,2247,-491.2212368,-87.38346699,-516.2443399,-80.75399332,525.9236064,6657.210012,0.000789747,-130.1637113,-3645.783866,4393.945003,-814.0266387,-74.16017028,715.7157972,-3621.986353,493.296601,744.9119416,,,,
575.2879996,2247,-493.0550767,-91.30278711,-518.1016152,-84.70498605,279.1609249,6086.413328,0.00080113,-134.2993716,-1972.901515,3223.149867,-775.4696755,-78.16225964,-272.53679,-2282.781249,484.262563,732.1061985,,,,
575.2959996,2247,-494.8693894,-95.20472637,-519.9386444,-88.63864463,1324.519462,7029.622632,0.000812254,-138.4157373,-3248.459587,3607.14866,-751.9457789,-82.14698306,182.8163085,-3026.036311,475.251019,719.3311871,,,,
575.3039996,2247,-496.6642099,-99.08925797,-521.7554601,-92.55493969,-154.3062801,6064.022873,0.000822568,-142.5127819,-2301.936781,3473.404889,-824.9120015,-86.11430964,162.7085233,-2738.968279,466.2621152,706.5871084,,,,
575.3119996,2247,-498.4395647,-102.9563534,-523.5520927,-96.45383643,406.8550807,6447.939409,0.000834002,-146.5904765,-1876.30985,2527.880524,-652.7039641,-90.06420802,-562.2034415,-1892.71407,457.2959908,693.8741586,,,,
575.3199996,2247,-500.1954884,-106.805974,-525.3285743,-100.3353025,377.663449,6425.957468,0.000845171,-150.6487868,-3003.120645,3379.512247,-506.1888561,-93.99664422,346.8490375,-3081.348113,448.3527817,681.1925537,,,,
575.3279996,2247,-501.9320083,-110.6380976,-527.0849404,-104.1993141,-814.0693678,5587.196819,0.000854563,-154.6876895,-1137.278982,2091.039479,-698.6128358,-97.91158506,-656.1236358,-1596.246896,439.432625,668.5424859,,,,
575.3359996,2247,-503.6491498,-114.4526894,-528.8212209,-108.0458354,608.4435242,6372.589722,0.000865142,-158.7071562,-2490.083523,2364.037109,-621.3710744,-101.8089972,-198.4369575,-2325.416471,430.535659,655.9241507,,,,
575.3439996,2247,-505.3469486,-118.2497211,-530.5374453,-111.8748386,-536.2994532,5243.598078,0.00087664,-162.7071612,-1577.575904,2131.887906,-772.8394688,-105.6888565,-196.3373792,-2111.444507,421.6620197,643.3377526,,,,
575.3519996,2247,-507.0254384,-122.0291705,-532.2336573,-115.686291,-664.8021954,5504.809624,0.000886061,-166.6876792,-1123.147152,1086.834091,-903.9194264,-109.5511291,-912.0766127,-1207.214158,412.8118428,630.7834776,,,,
575.3599996,2247,-508.6846504,-125.7909972,-533.9098842,-119.4801641,-152.9461055,5400.927463,0.000896153,-170.6486806,-2439.597149,1892.639906,-640.7828416,-113.3957768,26.59772338,-2530.01116,403.9852569,618.2615241,,,,
575.3679996,2247,-510.3246138,-129.5351836,-535.566159,-123.2564339,-1050.547582,4448.899772,0.000907319,-174.590142,-463.1255998,599.9718564,-879.3184329,-117.2227822,-952.4164699,-948.0178653,395.1823994,605.7720826,,,,
575.3759996,2247,-511.945361,-133.2617048,-537.2025237,-127.0150704,-208.3517732,5177.255104,0.000917358,-178.5120405,-1945.426902,908.9265707,-882.1582798,-121.0321129,-472.2715472,-1750.439055,386.4033983,593.3153459,,,,
575.3839996,2247,-513.5469259,-136.970527,-538.819004,-130.7560404,-701.4462837,3969.274885,0.000927977,-182.4143522,-1074.399745,757.0741928,-759.1810739,-124.8237322,-446.7288751,-1593.044946,377.6483827,580.8915008,,,,
575.3919996,2247,-515.1293461,-140.6616295,-540.4156441,-134.4793253,-818.20951,4127.064376,0.000938518,-186.297052,-513.9154413,-206.9347493,-904.7282193,-128.5976257,-1149.657574,-615.122919,368.9174849,568.5007316,,,,
575.3999996,2247,-516.6926515,-144.3349859,-541.9924779,-138.1848994,-397.2290994,3969.915923,0.000948686,-190.1601182,-1963.610916,666.9310272,-800.1582975,-132.3537605,-196.6406282,-2065.116389,360.2108272,556.1432286,,,,
575.4079996,2247,-518.2368716,-147.9905716,-543.5495373,-141.8727303,-851.2433083,2966.283643,0.000958986,-194.0035295,-24.77023737,-572.2231179,-843.5657393,-136.0921046,-1167.701189,-548.2302964,351.5285411,543.8191763,,,,
575.4159996,2247,-519.7620488,-151.6283615,-545.0868637,-145.5428021,-529.7804392,3657.126848,0.000968026,-197.8272627,-1508.072934,-226.6546671,-855.3282735,-139.8126417,-679.8809758,-1377.226096,342.8707491,531.5287537,,,,
575.4239996,2247,-521.2682104,-155.2483358,-546.6044913,-149.1950851,-658.6185745,2432.362594,0.000977602,-201.6312962,-698.8049188,-350.8693586,-812.9786566,-143.5153386,-641.5860873,-1283.429827,334.2375783,519.2721413,,,,
575.4319996,2247,-522.7553979,-158.8504672,-548.1024595,-152.829555,-692.7928235,2550.032967,0.000988158,-205.4156129,-82.57525776,-1303.026799,-862.708158,-147.200175,-1344.558612,-260.0756577,325.6291512,507.0495234,,,,
575.4399996,2247,-524.2236468,-162.4347323,-549.5808065,-156.4461896,-563.1411871,2383.488441,0.000998209,-209.1801921,-1521.777133,-418.1190013,-824.9729033,-150.8671254,-393.871571,-1679.752812,317.0455877,494.8610737,,,,
575.4479996,2247,-525.6729834,-166.0011132,-551.0395631,-160.0449625,-711.0178162,1379.59434,0.001007742,-212.9250132,359.5206912,-1636.770056,-844.2536748,-154.5161636,-1350.459202,-205.7067125,308.4870135,482.706972,,,,
575.4559996,2247,-527.1034516,-169.5495886,-552.4787742,-163.6258583,-595.8055031,2074.410739,0.001017694,-216.6500583,-1050.835622,-1291.946809,-843.7028961,-158.1472713,-858.8099185,-950.7460786,299.9535467,470.587389,,,,
575.4639996,2247,-528.5150895,-173.0801385,-553.8984801,-167.188853,-652.2150511,926.4342526,0.001027565,-220.3553082,-418.1757179,-1381.144544,-833.0481158,-161.760418,-800.7914557,-980.4693564,291.4453037,458.502501,,,,
575.4719996,2247,-529.9079306,-176.5927366,-555.2987183,-170.7339239,-648.6894032,1096.347265,0.001036168,-224.0407457,87.34494255,-2258.030457,-848.3251618,-165.3555889,-1466.567815,-71.03784162,282.9624028,446.4524831,,,,
575.4799996,2247,-531.2820095,-180.0873682,-556.6795307,-174.2610512,-615.4509536,1009.605025,0.001045384,-227.7063545,-1323.022715,-1289.861899,-835.620031,-168.9327579,-498.7154835,-1426.159448,274.5049644,434.4374946,,,,
575.4879996,2248,-532.637367,-183.5640154,-558.0409482,-177.7702093,-659.5238635,154.1263915,0.001055029,-231.3521202,397.7620463,-2331.332212,-843.4306182,-172.4919039,-1415.119657,-107.0782804,266.0731039,422.4577116,,,,
575.4959996,2248,-533.9740414,-187.0226541,-559.3830162,-181.2613871,-620.1576721,1024.108225,0.001064256,-234.9780248,-973.778997,-1733.865897,-841.7733383,-176.033013,-874.4417549,-852.6947229,257.6669336,410.5133049,,,,
575.5039996,2248,-535.2920662,-190.4632692,-560.7057778,-184.7345652,-642.0956773,173.343679,0.001074004,-238.5840514,-532.4050065,-1518.836874,-839.5787829,-179.5560562,-756.4438644,-1020.332987,249.2865665,398.6044344,,,,
575.5119996,2248,-536.5914848,-193.885849,-562.0092707,-188.1897149,-635.817049,652.4101658,0.001083061,-242.1701881,-126.673504,-2049.818888,-844.0208432,-183.0610178,-1341.855319,-251.704131,240.9321136,386.7312654,,,,
575.5199996,2248,-537.8723358,-197.2903654,-563.2935354,-191.6268306,-627.9871812,870.4117812,0.001092421,-245.7364199,-1468.365205,-779.712666,-839.9730144,-186.5478799,-309.1859626,-1536.038061,232.6036857,374.8939588,,,,
575.5279996,2248,-539.1346543,-200.6768061,-564.5586189,-195.0458907,-640.0366481,326.7969607,0.001102356,-249.2827334,-25.28182632,-1596.838034,-842.8755249,-190.0166186,-1155.279417,-452.5703862,224.3013982,363.0926768,,,,
575.5359996,2248,-540.3784847,-204.0451583,-565.8045589,-198.4468714,-626.7800628,1356.129085,0.001111327,-252.8091166,-1296.889282,-911.500902,-841.9077052,-193.4672223,-578.3144392,-1169.36819,216.0253616,351.3275817,,,,
575.5439996,2248,-541.603861,-207.3954025,-567.0313917,-201.8297671,-634.3403411,573.0856318,0.001119914,-256.3155543,-707.5997103,-745.4439834,-841.5897124,-196.8996756,-470.9406872,-1188.20383,207.7756785,339.5988276,,,,
575.5519996,2248,-542.8108235,-210.7275315,-568.2391675,-205.1945572,-630.393279,1076.767687,0.001127975,-259.8020366,-414.5581217,-1390.379679,-842.8005779,-200.3139533,-1065.09477,-534.6897229,199.5524554,327.9065717,,,,
575.5599996,2248,-543.9994171,-214.0415209,-569.4279284,-208.5412231,-628.4414462,1230.876668,0.001137405,-263.2685523,-1617.89646,-270.7521624,-841.5178161,-203.7100392,-64.6308192,-1734.978944,191.3558009,316.2509723,,,,
575.5679996,2248,-545.1696801,-217.3373566,-570.5977152,-211.8697557,-631.1111094,609.1698989,0.001146254,-266.7150878,-67.63390006,-1224.192373,-842.4989621,-207.0879255,-962.4339692,-513.809989,183.1858201,304.6321782,,,,
575.5759996,2248,-546.3216508,-220.6150297,-571.7485766,-215.1801388,-626.3848101,1574.832887,0.001154568,-270.1416366,-1409.991807,-613.4887847,-842.0059488,-210.4475944,-411.7588499,-1272.736516,175.0426153,293.0503425,,,,
575.5839996,2248,-547.4553736,-223.8745279,-572.8805477,-218.4723525,-628.4756289,694.7124163,0.001163834,-273.5481887,-701.0824749,-481.3048005,-841.9652104,-213.7890278,-329.1576274,-1210.639809,166.9262872,281.5056205,,,,
575.5919996,2248,-548.5708944,-227.1158404,-573.9936758,-221.7463902,-626.215612,1129.405325,0.001172479,-276.9347323,-341.5835672,-1142.208445,-842.1986254,-217.1122122,-950.5925655,-470.2721948,158.8369428,269.9981546,,,,
575.5999996,2248,-549.6682479,-230.3389496,-575.0880092,-225.0022376,-625.3601502,1232.635752,0.001180755,-280.3012609,-1589.34228,-29.81842639,-841.7221026,-220.4171348,43.63506801,-1714.175028,150.7746809,258.5280928,,,,
575.6079996,2248,-550.7474767,-233.5438457,-576.163584,-228.2398819,-625.3765596,546.3500681,0.001188392,-283.6477663,59.84058766,-1017.939613,-841.9487079,-223.7037822,-866.469769,-422.7869181,142.7395995,247.095585,,,,
575.6159996,2248,-551.8086225,-236.7305219,-577.2204566,-231.4593144,-623.3249174,1486.592719,0.001197517,-286.9742391,-1300.272837,-462.8327242,-841.6349445,-226.9721406,-320.1327015,-1182.440559,134.7317961,235.7007723,,,,
575.6239996,2248,-552.8517332,-239.8989616,-578.2586658,-234.6605173,-623.4264427,589.2874195,0.001205974,-290.2806729,-555.0741514,-399.5385605,-841.5291872,-230.2222001,-232.1485747,-1075.201045,126.7513672,224.343799,,,,
575.6319996,2248,-553.8768507,-243.0491569,-579.2782515,-237.8434824,-621.9659887,1038.167881,0.001213478,-293.5670617,-236.4477933,-1133.305748,-841.430276,-233.4539464,-851.2426943,-326.0228309,118.7984161,213.0248032,,,,
575.6399996,2248,-554.8840101,-246.1811007,-580.2792675,-241.0082031,-621.1791993,1159.889049,0.001222408,-296.8334006,-1601.556336,-70.5700461,-841.1304014,-236.66737,155.6472032,-1693.25132,110.8730299,201.7439252,,,,
575.6479996,2248,-555.873265,-249.2947857,-581.2617603,-244.1546677,-620.4648107,458.4360533,0.001230829,-300.0796838,114.4869122,-1098.909924,-841.0316891,-239.8624608,-752.7560393,-370.9238314,102.9753051,190.5013091,,,,
575.6559996,2248,-556.8446556,-252.3902001,-582.2257724,-247.2828668,-619.2018735,1389.498512,0.00123815,-303.3059035,-1303.672609,-554.7507568,-840.7347073,-243.0392036,-210.424261,-1168.261477,95.10533513,179.297089,,,,
575.6639996,2248,-557.7982231,-255.4673305,-583.1713471,-250.3927895,-618.5914892,459.9580426,0.001246527,-306.5120605,-493.9134347,-476.6523866,-840.5127896,-246.1975939,-134.9048272,-1019.126866,87.26320832,168.1313974,,,,
575.6719996,2248,-558.7340175,-258.5261774,-584.0985376,-253.484427,-617.4401646,879.0761859,0.001254832,-309.6981483,-105.0603852,-1190.341478,-840.257965,-249.3376206,-768.8174812,-218.1922797,79.449029,157.0043662,,,,
575.6799996,2248,-559.6520794,-261.5667341,-585.0073943,-256.557774,-616.5642964,974.1392315,0.001261695,-312.8641592,-1497.474482,-101.5314313,-839.9400662,-252.4592739,235.8870571,-1611.964582,71.66287868,145.9161367,,,,
575.6879996,2248,-560.5524528,-264.5889929,-585.89796,-259.6128241,-615.6410913,249.7149483,0.001269848,-316.010097,312.0314247,-1122.939463,-839.6675457,-255.5625516,-679.0246838,-177.7422484,63.90483721,134.8668352,,,,
575.6959996,2248,-561.4351849,-267.5929448,-586.7702786,-262.6495682,-614.5802473,1194.345754,0.001278267,-319.1359568,-1222.958887,-579.3226778,-839.3164728,-258.6474386,-127.4344366,-1065.150253,56.17500088,123.8565861,,,,
575.7039996,2248,-562.3003262,-270.5785856,-587.6244009,-265.6680017,-613.7055453,262.9230169,0.001286252,-322.2417359,-489.2916876,-521.1771761,-838.9821517,-261.7139304,-44.61046765,-1003.60641,48.47345907,112.8855211,,,,
575.7119996,2248,-563.1479171,-273.5459094,-588.4603778,-268.6681193,-612.6465439,662.916736,0.00129436,-325.327436,6.113356613,-1281.215825,-838.617384,-264.7620243,-688.8366318,-105.0902394,40.80029605,101.9537654,,,,
575.7199996,2248,-563.978002,-276.4949138,-589.2782564,-271.6499125,-611.6877629,736.0199397,0.001301739,-328.3930548,-1326.167454,-224.5925583,-838.2244305,-267.7917079,309.9059097,-1449.396845,33.15559422,91.06144747,,,,
575.7279996,2248,-564.7906279,-279.4255966,-590.0780819,-274.6133793,-610.6879844,-1.99393332,0.001309122,-331.4385902,466.1669404,-1260.255998,-837.8304316,-270.802974,-615.5963827,-22.754767,25.53943403,80.20869116,,,,
575.7359996,2248,-565.5858437,-282.3379477,-590.8599102,-277.5585131,-609.6537649,930.6589137,0.001316478,-334.4640434,-1144.424674,-708.3576789,-837.3983481,-273.7958198,-70.25361459,-990.7820785,17.9519027,69.3956134,,,,
575.7439996,2249,-566.3636994,-285.2319683,-591.6237924,-280.4853077,-608.6659749,-43.91185467,0.001324101,-337.469415,-325.4328403,-626.1811379,-836.9601757,-276.7702472,5.435762502,-877.832402,10.39308315,58.62233664,,,,
575.7519996,2249,-567.1242337,-288.107655,-592.3697698,-283.3937629,-607.6137553,340.6356416,0.001332165,-340.4547065,165.2314075,-1345.300572,-836.4973427,-279.7262452,-645.8312524,47.43478454,2.863053449,47.88898421,,,,
575.7599996,2249,-567.8674968,-290.9650072,-593.0978917,-286.2838826,-606.5924876,421.1789544,0.001338964,-343.4199246,-1332.444863,-236.3973841,-836.014375,-282.6638086,356.8497135,-1446.832513,-4.638107367,37.19566617,,,,
575.7679996,2249,-568.5935398,-293.8040238,-593.8082134,-289.1556561,-605.5464791,-337.7578454,0.001345287,-346.3650656,536.2090167,-1256.905789,-835.5172997,-285.5829369,-572.612217,18.14192656,-12.1103156,26.54250129,,,,
575.7759996,2249,-569.3024057,-296.6247006,-594.5007872,-292.0090787,-604.4890462,590.1031496,0.001352257,-349.2901306,-961.1064024,-714.109991,-834.9955381,-288.483626,-31.40683308,-830.8687393,-19.55349808,15.92960779,,,,
575.7839996,2249,-569.9941456,-299.4270399,-595.1756648,-294.8441563,-603.4379847,-358.366195,0.00135942,-352.1951276,-221.9982942,-646.7174169,-834.4594991,-291.3658772,47.61189946,-776.8319254,-26.96758688,5.357095093,,,,
575.7919996,2249,-570.668814,-302.2110392,-595.8328917,-297.6608809,-602.3614836,44.70753148,0.001366912,-355.0800582,197.1196094,-1400.135542,-833.9023789,-294.2296865,-599.0280783,68.87568554,-34.35249536,-5.174922884,,,,
575.7999996,2249,-571.326448,-304.9766926,-596.4725143,-300.4592572,-601.2904304,125.1044476,0.001373763,-357.9449285,-1273.272717,-329.9804668,-833.3268262,-297.075053,404.5448341,-1399.481411,-41.70815072,-15.66633727,,,,
575.8079996,2249,-571.9671,-307.7240099,-597.0945951,-303.2392876,-600.2042896,-644.216912,0.001380475,-360.789742,645.2367398,-1373.914192,-832.7339,-299.9019734,-531.0028084,118.4291727,-49.03448226,-26.11704192,,,,
575.8159996,2249,-572.5908267,-310.4529941,-597.6991833,-306.0009627,-599.1107651,269.1553677,0.001387769,-363.6145038,-834.7453917,-832.3052452,-832.1207755,-302.7104452,2.974067792,-710.370582,-56.33141629,-36.52691963,,,,
575.8239996,2249,-573.1976661,-313.1636401,-598.2863276,-308.7442872,-598.0128106,-702.2122748,0.001394261,-366.4192191,-111.6724999,-753.3968345,-831.4907656,-305.5004708,76.9691435,-671.4845015,-63.59888492,-46.89587074,,,,
575.8319996,2249,-573.7876726,-315.8559526,-598.8560829,-311.4692671,-596.9017772,-333.9638919,0.00140119,-369.2038947,352.9496181,-1498.531954,-830.8415341,-308.272054,-578.7552692,201.5113915,-70.83681264,-57.2237967,,,,
575.8399996,2249,-574.3609004,-318.5299295,-599.4084976,-314.1759001,-595.7873515,-276.7886649,0.001407669,-371.9685395,-1114.200534,-422.4775985,-830.1743223,-311.0251947,414.4894664,-1251.402827,-78.04513352,-67.51058766,,,,
575.8479996,2249,-574.9173913,-321.1855798,-599.9436252,-316.8641895,-594.6623434,-1067.254813,0.001413785,-374.7131559,723.6243661,-1460.344935,-829.4892222,-313.7598881,-519.1664415,207.7487656,-85.22378092,-77.75614232,,,,
575.8559996,2249,-575.4571982,-323.8229075,-600.4615213,-319.5341381,-593.5302502,-183.2877071,0.001421146,-377.4377537,-707.2005252,-940.8369713,-828.7855796,-316.4761406,8.95236285,-573.8391013,-92.37268168,-87.96036231,,,,
575.8639996,2249,-575.9803773,-326.4419063,-600.9622414,-322.1857485,-592.3911352,-1160.469715,0.001427559,-380.1423436,-17.65892174,-901.5213891,-828.0644541,-319.1739548,76.29877447,-547.7675867,-99.49177489,-98.12315018,,,,
575.8719996,2249,-576.4869741,-329.0425909,-601.4458328,-324.8190229,-591.2428324,-818.7430885,0.001433889,-382.8269321,434.2555246,-1684.943529,-827.3251141,-321.8533368,-576.1292002,304.0099078,-106.5809938,-108.2444017,,,,
575.8799996,2249,-576.9770386,-331.6249656,-601.9123531,-327.433965,-590.0882951,-803.7034562,0.00144036,-385.4915263,-906.3650681,-661.6012075,-826.5681095,-324.5142857,406.6134478,-1040.111047,-113.6402698,-118.3240241,,,,
575.8879996,2249,-577.4506248,-334.1890308,-602.3618571,-330.0305818,-588.9251253,-1602.536342,0.001446484,-388.1361377,893.3529375,-1724.823953,-825.7934318,-327.1568003,-531.7773358,394.818698,-120.6695449,-128.3619268,,,,
575.8959996,2249,-577.9077849,-336.734795,-602.7943938,-332.6088793,-587.7547537,-736.2483796,0.001452708,-390.7607767,-556.6193761,-1193.857682,-825.0009991,-329.7808922,-1.185925067,-419.3468186,-127.6687613,-138.3580143,,,,
575.9039996,2249,-578.3485678,-339.2622604,-603.2100226,-335.168857,-586.5769411,-1740.926469,0.001459186,-393.3654547,160.1043986,-1131.814809,-824.1911804,-332.3865626,67.42918015,-391.2138431,-134.6378533,-148.3121943,,,,
575.9119996,2249,-578.7730243,-341.7714383,-603.6087973,-337.7105244,-585.3912306,-1418.006873,0.001466099,-395.9501823,624.0067166,-1870.854869,-823.3637959,-334.9738191,-584.6036415,470.0928825,-141.5767532,-158.2243752,,,,
575.9199996,2249,-579.1812099,-344.2623388,-603.9907668,-340.233889,-584.1985103,-1391.771002,0.001471775,-398.5149659,-787.7601161,-784.1356041,-822.5191057,-337.5426684,396.1220027,-923.5748375,-148.4854105,-168.0944739,,,,
575.9279996,2249,-579.5731763,-346.7349601,-604.3559885,-342.7389527,-582.9980295,-2168.003382,0.001477441,-401.0598232,930.3078009,-1783.212188,-821.6571364,-340.0931095,-530.6769868,403.4358614,-155.3637661,-177.9223988,,,,
575.9359996,2249,-579.9489718,-349.1893123,-604.7045237,-345.2257307,-581.7903513,-1295.555517,0.001483269,-403.5847641,-445.3101666,-1214.851107,-820.7779448,-342.6251489,3.547092199,-353.4298229,-162.2117601,-187.7080595,,,,
575.9439996,2249,-580.3086512,-351.6254108,-605.0364229,-347.6942267,-580.5753409,-2263.558744,0.001488718,-406.0898015,203.3606085,-1125.023112,-819.8816961,-345.1388019,73.2633564,-353.5971199,-169.0293429,-197.4513809,,,,
575.9519996,2249,-580.6522729,-354.0432552,-605.3517388,-350.1444438,-579.3529537,-1906.682578,0.00149526,-408.5749512,642.9626768,-1839.829095,-818.9683936,-347.6340715,-570.0370609,479.2848659,-175.8164517,-207.1522739,,,,
575.9599996,2249,-580.9798855,-356.4428572,-605.6505327,-352.5763921,-578.1234681,-1851.543645,0.001501505,-411.0402229,-712.8470827,-751.0366238,-818.038186,-350.1109602,411.173708,-835.3032442,-182.5730336,-216.8106544,,,,
575.9679996,2249,-581.291539,-358.8242271,-605.9328617,-354.9900831,-576.886679,-2584.441994,0.00150656,-413.4856338,940.1038845,-1738.069335,-817.0911327,-352.5694852,-508.1429568,453.1040023,-189.299038,-226.4264452,,,,
575.9759996,2249,-581.5872904,-361.1873758,-606.1987729,-357.3855276,-575.6428155,-1691.28026,0.001512259,-415.9111961,-415.2591143,-1147.451582,-816.1273193,-355.0096495,27.89504714,-297.0349815,-195.9944081,-235.9995686,,,,
575.9839996,2249,-581.8671905,-363.532313,-606.4483287,-359.7627337,-574.3918395,-2635.396003,0.00151838,-418.3169248,212.6254088,-1034.593463,-815.1468536,-357.4314616,96.86223543,-298.0008144,-202.6590997,-245.5299478,,,,
575.9919996,2249,-582.1312946,-365.8590485,-606.6815898,-362.1217095,-573.1337912,-2270.535329,0.001523653,-420.702837,683.9377849,-1723.86697,-814.1497978,-359.8349333,-538.7878749,553.43243,-209.2930564,-255.0174996,,,,
575.9999996,2250,-582.3796604,-368.1675989,-606.8986043,-364.462463,-571.8687767,-2210.794496,0.001529,-423.0689478,-639.6505519,-620.7354298,-813.1362606,-362.2200742,443.4101034,-745.6202507,-215.896228,-264.4621536,,,,
576.0079996,2250,-582.6123415,-370.4579686,-607.0994336,-366.7850089,-570.5967656,-2918.99611,0.001533836,-425.4152737,909.1371281,-1598.012552,-812.1063183,-364.5868922,-469.6412248,438.5585392,-222.4685758,-273.8638378,,,,
576.0159996,2250,-582.8293872,-372.7301699,-607.2841383,-369.0893615,-569.3178662,-2019.943359,0.00153946,-427.7418339,-375.9891406,-1010.578207,-811.0600607,-366.9353983,69.17846727,-262.0489032,-229.0100424,-283.2224783,,,,
576.0239996,2250,-583.0308523,-374.984217,-607.4527698,-371.3755286,-568.0320902,-2936.939213,0.001545636,-430.0486423,209.4025804,-904.5659737,-809.9975805,-369.2656057,138.9841604,-296.8409128,-235.5205799,-292.5380021,,,,
576.0319996,2250,-583.2168003,-377.2201263,-607.6053815,-373.6435218,-566.7394893,-2555.394708,0.001549832,-432.3357155,637.2940235,-1587.759629,-808.9189585,-371.5775214,-490.1681138,492.2700642,-242.0001505,-301.81034,,,,
576.0399996,2250,-583.387276,-379.4379121,-607.7420426,-375.8933535,-565.4401236,-2509.865172,0.001555256,-434.6030744,-513.9600354,-479.334618,-807.8242896,-373.8711627,488.6219003,-641.2301638,-248.4487075,-311.0394264,,,,
576.0479996,2250,-583.5423352,-381.6375815,-607.8628065,-378.1250369,-564.134017,-3216.28594,0.00156121,-436.8507354,997.508838,-1449.086308,-806.7136577,-376.1465428,-425.4645059,529.8219964,-254.8662077,-320.2251948,,,,
576.0559996,2250,-583.6820466,-383.8191486,-607.9677267,-380.3385925,-562.821236,-2325.457549,0.001566035,-439.0787202,-323.7548786,-854.9772648,-805.5871524,-378.4036712,110.2532273,-222.0989601,-261.252604,-329.3675788,,,,
576.0639996,2250,-583.8064502,-385.9826308,-608.0568687,-382.5340261,-561.5018139,-3238.176788,0.001571199,-441.2870468,294.6261983,-741.1893608,-804.4448631,-380.6425593,178.3541914,-211.7116925,-267.607855,-338.4665105,,,,
576.0719996,2250,-583.9156062,-388.1280408,-608.130285,-384.7113517,-560.1758009,-2825.166167,0.001575661,-443.4757335,620.1051578,-1418.009286,-803.286876,-382.8632204,-440.3133697,490.7990187,-273.9319307,-347.5219333,,,,
576.0799996,2250,-584.0095755,-390.2553958,-608.188036,-386.8705894,-558.8432462,-2742.964899,0.001580084,-445.644803,-638.284197,-317.7627246,-802.1132818,-385.0656738,543.6821117,-760.6264034,-280.2247806,-356.5337831,,,,
576.0879996,2250,-584.0884023,-392.3647143,-608.2301812,-389.0117475,-557.5041897,-3420.388939,0.001584564,-447.794274,913.1702891,-1296.045364,-800.9241675,-387.2499308,-366.9710063,434.9542768,-286.4863618,-365.5019946,,,,
576.0959996,2250,-584.1521553,-394.456011,-608.2567801,-391.1348456,-556.1586843,-2504.795432,0.001589283,-449.9241669,-313.0236933,-708.797217,-799.7196223,-389.4160004,173.5456616,-218.5864848,-292.7166473,-374.4265195,,,,
576.1039996,2250,-584.2008861,-396.5292972,-608.2678923,-393.2398976,-554.8067716,-3385.660863,0.001594496,-452.034507,288.1383725,-597.5985728,-798.499735,-391.5639106,247.0780277,-216.9549782,-298.9155959,-383.3072979,,,,
576.1119996,2250,-584.2346509,-398.5845915,-608.263571,-395.3269226,-553.4485002,-2957.559557,0.001599397,-454.1253137,672.1040784,-1264.613192,-797.2645937,-393.693671,-368.2210988,523.9486021,-305.0831659,-392.1442635,,,,
576.1199996,2250,-584.2535056,-400.6219163,-608.2438796,-397.3959366,-552.0839167,-2847.554402,0.001603798,-456.1966061,-558.8085508,-145.4778126,-796.0142878,-395.8052901,614.0359438,-674.5944927,-311.2193306,-400.9373698,,,,
576.1279996,2250,-584.2575049,-402.6412845,-608.208884,-399.4469525,-550.713066,-3478.115818,0.001608618,-458.2484108,882.1283103,-1097.327972,-794.7489056,-397.8987933,-288.4034599,420.9410908,-317.3240561,-409.686563,,,,
576.1359996,2250,-584.2467161,-404.6427167,-608.1586362,-401.4799918,-549.3359964,-2544.660878,0.001613905,-460.2807501,-353.2201261,-498.2836042,-793.4685361,-399.9741972,261.1226991,-280.4849878,-323.3973007,-418.391789,,,,
576.1439996,2250,-584.2211854,-406.6262308,-608.0931939,-403.4950704,-547.9527531,-3413.335887,0.0016179,-462.2936465,258.4683282,-404.4339777,-792.1732682,-402.0315156,329.2630965,-248.0586973,-329.4390375,-427.0530037,,,,
576.1519996,2250,-584.1809712,-408.5918421,-608.0126224,-405.4922064,-546.5633833,-2970.051894,0.00162196,-464.2871271,605.123846,-1108.5226,-790.8631908,-404.0707646,-289.2274296,465.6587098,-335.449235,-435.6701488,,,,
576.1599996,2250,-584.1261367,-410.5395721,-607.9169806,-407.4714179,-545.1679336,-2874.999471,0.001626147,-466.2612127,-553.7815671,-48.85365129,-789.5383928,-406.0919633,693.9045987,-698.3632029,-341.4278607,-444.2431759,,,,
576.1679996,2250,-584.056738,-412.4694409,-607.8063295,-409.4327249,-543.7664502,-3511.966667,0.001630473,-468.2159271,943.6029722,-1058.249099,-788.1989632,-408.0951316,-208.4492079,477.6628573,-347.3748909,-452.7720494,,,,
576.1759996,2250,-583.972829,-414.3814671,-607.6807295,-411.3761501,-542.3589802,-2556.509821,0.001634428,-470.1512993,-351.3015203,-474.5830547,-786.844991,-410.0802883,345.862818,-255.2309582,-353.2902897,-461.2567131,,,,
576.1839996,2250,-583.8744677,-416.2756718,-607.5402424,-413.3017055,-540.9455699,-3406.609178,0.001638068,-472.0673516,253.3647928,-350.7974762,-785.4765652,-412.0474537,415.469813,-256.7700633,-359.1740281,-469.6971172,,,,
576.1919996,2250,-583.7617139,-418.1520802,-607.3849302,-415.2094142,-539.5262662,-2937.888061,0.001642444,-473.9641094,540.0794422,-985.0600104,-784.0937748,-413.9966457,-196.6960114,396.8299508,-365.0260877,-478.093234,,,,
576.1999996,2250,-583.6346257,-420.0107075,-607.2148461,-417.0993031,-538.1011157,-2832.545297,0.001646435,-475.8416022,-632.1867191,152.062302,-782.6967091,-415.927879,786.5416971,-783.2521682,-370.8464354,-486.4450142,,,,
576.2079996,2250,-583.4932639,-421.851573,-607.0300522,-418.9713866,-536.6701651,-3467.431029,0.001650902,-477.6998559,976.745929,-807.7124884,-781.285457,-417.8411826,-133.3773821,501.7029818,-376.635049,-494.7524128,,,,
576.2159996,2250,-583.3376847,-423.6747048,-606.8306148,-420.8256859,-535.2334612,-2490.399215,0.001654318,-479.5388958,-377.995937,-212.4990912,-779.8601078,-419.7365761,420.9346521,-276.1052278,-382.3919074,-503.0153981,,,,
576.2239996,2250,-583.167946,-425.4801211,-606.6165947,-422.6622176,-533.7910507,-3336.7615,0.001658034,-481.3587502,244.0299462,-136.7818423,-778.4207505,-421.6140699,495.192625,-269.3217093,-388.116978,-511.2339323,,,,
576.2319996,2250,-582.9841087,-427.2678466,-606.3880548,-424.4810112,-532.3429804,-2849.172036,0.001662046,-483.1594469,626.5520819,-857.6131379,-776.9674743,-423.4736933,-123.1946199,497.9664882,-393.8102442,-519.4079757,,,,
576.2399996,2250,-582.7862295,-429.0379008,-606.1450531,-426.2820922,-530.889297,-2697.803908,0.001665479,-484.9410111,-653.2807312,195.3285228,-775.5003683,-425.3154724,869.9888913,-780.8936633,-399.4716862,-527.5374865,,,,
576.2479996,2250,-582.5743625,-430.7903091,-605.8876516,-428.0654756,-529.4300473,-3305.833132,0.001669728,-486.7034753,913.5539422,-834.4678014,-774.0195219,-427.1394258,-40.11885307,447.5486031,-405.1012813,-535.6224386,,,,
576.2559996,2251,-582.348575,-432.5250985,-605.6159167,-429.8311854,-527.9652782,-2317.363297,0.001673111,-488.4468684,-372.3013936,-270.2031232,-772.525024,-428.9455739,507.5616763,-262.3021073,-410.6990111,-543.6627973,,,,
576.2639996,2251,-582.1089283,-434.2422875,-605.3299048,-431.5792437,-526.4950364,-3166.725785,0.001676503,-490.1712176,293.5444123,-180.0564881,-771.016964,-430.7339362,574.8796728,-225.2493162,-416.2648521,-551.6585337,,,,
576.2719996,2251,-581.8554742,-435.9419035,-605.0296752,-433.309678,-525.0193688,-2687.288362,0.001679967,-491.8765535,661.6443093,-856.2289991,-769.495431,-432.5045408,-45.49432077,538.4135631,-421.7987892,-559.6096147,,,,
576.2799996,2251,-581.5882737,-437.6239657,-604.7152981,-435.0225152,-523.5383221,-2555.536878,0.001683656,-493.5629039,-616.2314123,263.7308648,-767.9605143,-434.2574153,943.331648,-740.8222178,-427.3008079,-567.5160077,,,,
576.2879996,2251,-581.3073902,-439.2885036,-604.3868348,-436.7177722,-522.0519432,-3199.568363,0.001687389,-495.2303012,995.8322051,-698.6736522,-766.4123029,-435.9925761,27.76160421,515.9508603,-432.770891,-575.3776918,,,,
576.2959996,2251,-581.0128756,-440.9355446,-604.0443425,-438.3954751,-520.5602789,-2226.766241,0.001689876,-496.878778,-344.3558589,-91.56671711,-764.8508862,-437.7100463,575.442975,-223.2473531,-438.2090224,-583.194633,,,,
576.3039996,2251,-580.7047946,-442.5651101,-603.6878829,-440.0556572,-519.0633761,-3074.596343,0.001693486,-498.508362,303.5213237,4.774165265,-763.2763533,-439.4098535,639.6351663,-204.2647864,-443.6151859,-590.9668126,,,,
576.3119996,2251,-580.3832129,-444.1772305,-603.3175233,-441.6983344,-517.5612815,-2592.706082,0.001697551,-500.1190844,682.3894645,-700.8036941,-761.6887933,-441.092027,16.44933132,554.9402608,-448.9893693,-598.6942071,,,,
576.3199996,2251,-580.0481812,-445.7719292,-602.9333309,-443.3235335,-516.0540419,-2449.352679,0.001699674,-501.7109814,-622.8760355,357.9577916,-760.0882955,-442.7565894,1003.593689,-739.6065493,-454.3315546,-606.3767812,,,,
576.3279996,2251,-579.6997633,-447.3492309,-602.5353631,-444.9312851,-514.5417043,-3075.694988,0.001702097,-503.2840814,998.0771066,-678.5731018,-758.474949,-444.4035608,83.59757661,529.9354348,-459.6417365,-614.0145222,,,,
576.3359996,2251,-579.3380189,-448.9091635,-602.1236814,-446.521613,-513.0243154,-2104.645598,0.001706533,-504.8384171,-366.7213739,-130.1631494,-756.8488429,-446.032976,632.6419592,-246.4491988,-464.9199062,-621.607414,,,,
576.3439996,2251,-578.9630077,-450.451761,-601.6983472,-448.0945436,-511.5019221,-2982.689157,0.001710508,-506.3740223,349.1176933,-73.13365448,-755.2100664,-447.6448575,686.5384172,-162.8078121,-470.1660473,-629.1554289,,,,
576.3519996,2251,-578.5747956,-451.9770448,-601.2594279,-449.650103,-509.9745711,-2532.971283,0.001712276,-507.8909286,817.2094971,-788.004604,-753.5587086,-449.2392291,51.15751354,696.4073904,-475.3801525,-636.6585553,,,,
576.3599996,2251,-578.1734359,-453.4850385,-600.8069899,-451.1883233,-508.4423092,-2427.66513,0.001714893,-509.389173,-511.0760414,295.4393232,-751.8948585,-450.8161231,1041.352253,-631.2927307,-480.5622113,-644.1167714,,,,
576.3679996,2251,-577.7589908,-454.9757811,-600.3410904,-452.7092306,-506.9051833,-3103.258693,0.001717597,-510.868787,1134.326228,-709.5119341,-750.2186052,-452.3755593,113.915263,654.7637559,-485.712218,-651.5300586,,,,
576.3759996,2251,-577.3315259,-456.4492971,-599.8617943,-454.2128482,-505.3632401,-2166.325041,0.001720279,-512.3298036,-202.8640749,-138.2403246,-748.5300378,-453.9175703,649.9857966,-84.6871522,-490.8301687,-658.8984125,,,,
576.3839996,2251,-576.8911001,-457.9056085,-599.3691643,-455.6992086,-503.8165263,-3066.151498,0.001724229,-513.7722591,449.1755913,-59.75048315,-746.8292452,-455.4421871,706.1135822,-71.63533172,-495.9160524,-666.22181,,,,
576.3919996,2251,-576.43777,-459.3447504,-598.8632683,-457.1683435,-502.2650888,-2645.914745,0.001727162,-515.1961872,884.6997774,-763.7469076,-745.1163164,-456.9494332,67.7704489,753.2083097,-500.9698651,-673.5002406,,,,
576.3999996,2251,-575.9715942,-460.7667588,-598.3441688,-458.6202753,-500.7089743,-2558.748623,0.00172918,-516.6016238,-440.7905021,299.7696353,-743.3913404,-458.439339,1038.268591,-561.8984542,-505.9916053,-680.7337026,,,,
576.4079996,2251,-575.4926467,-462.1716538,-597.8119241,-460.0550368,-499.1482295,-3242.289806,0.001730867,-517.9886065,1163.315301,-742.9346039,-741.6544061,-459.9119323,102.5319302,675.4078462,-510.9812652,-687.9221785,,,,
576.4159996,2251,-575.0009821,-463.5594663,-597.2666018,-461.4726589,-497.5829012,-2331.208681,0.001733503,-519.3571696,-103.6830215,-221.4350333,-739.9056024,-461.3672438,637.4123286,-9.841210715,-515.9388428,-695.0656561,,,,
576.4239996,2251,-574.4966548,-464.9302364,-596.7082681,-462.873168,-496.0130359,-3234.846043,0.001736525,-520.7073479,599.9133681,-199.3364193,-738.145018,-462.8053042,695.1543231,60.77121785,-520.8643377,-702.1641291,,,,
576.4319996,2251,-573.9797324,-466.2839878,-596.1369891,-464.2565998,-494.4386804,-2795.39467,0.001738701,-522.0391781,953.5897876,-951.5081044,-736.3727418,-464.2261438,73.70707037,811.4623342,-525.7577519,-709.217594,,,,
576.4399996,2251,-573.4502778,-467.6207457,-595.5528231,-465.622982,-492.8598814,-2696.899722,0.001741013,-523.3526987,-403.8533486,83.36942989,-734.5888626,-465.6297879,1058.579159,-535.7632966,-530.6190806,-716.2260509,,,,
576.4479996,2251,-572.908354,-468.9405523,-594.9558323,-466.9723465,-491.2766854,-3365.02596,0.001743279,-524.647947,1198.175214,-940.2858387,-732.793469,-467.0162694,134.7762727,705.5199024,-535.4483235,-723.1894906,,,,
576.4559996,2251,-572.3540135,-470.2434357,-594.3460878,-468.3047213,-489.6891391,-2445.348006,0.001745401,-525.9249576,-94.71752146,-367.8948282,-730.9866497,-468.3856228,673.308717,3.75887122,-540.245487,-730.1079078,,,,
576.4639996,2251,-571.7873229,-471.5294244,-593.7236535,-469.6201378,-488.097289,-3362.053742,0.001748013,-527.1837713,574.2735248,-281.2385842,-729.1684933,-469.7378752,720.589646,30.40970726,-545.0105712,-736.9813022,,,,
576.4719996,2251,-571.2083499,-472.7985588,-593.0885918,-470.9186368,-486.5011817,-2964.883898,0.001750477,-528.4244263,1017.24195,-959.1545782,-727.3390884,-471.0730613,89.05992796,846.934812,-549.7435712,-743.8096758,,,,
576.4799996,2251,-570.6171505,-474.050863,-592.4409663,-472.2002427,-484.9008638,-2898.143609,0.00175184,-529.6469572,-265.4989244,130.1795591,-725.4985235,-472.3912122,1063.673608,-406.595362,-554.4444987,-750.5930293,,,,
576.4879996,2251,-570.0137901,-475.2863749,-591.7808429,-473.464987,-483.2963817,-3581.723856,0.001754253,-530.8514074,1312.70877,-867.1359533,-723.646887,-473.6923571,136.0869878,813.0201579,-559.1133628,-757.331357,,,,
576.4959996,2251,-569.3983253,-476.5051271,-591.1082859,-474.7129066,-481.687782,-2675.049564,0.0017567,-532.037816,41.18988033,-317.3150994,-721.7842674,-474.9765286,675.7928566,130.6564524,-563.7501606,-764.0246728,,,,
576.5039996,2251,-568.7708184,-477.70715,-590.4233601,-475.9440348,-480.075111,-3564.391323,0.001757694,-533.2062175,617.2727426,-296.468982,-719.9107529,-476.2437623,727.7234039,103.721314,-568.3549006,-770.6729745,,,,
576.5119996,2252,-568.1313372,-478.8924819,-589.7261315,-477.1584033,-478.4584151,-3148.505254,0.001759579,-534.3566557,1017.974126,-1058.715419,-718.0264319,-477.4940937,103.6388663,856.8023815,-572.9275866,-777.27626,,,,
576.5199996,2252,-567.4799397,-480.0611577,-589.0166638,-478.3560451,-476.8377408,-3082.326055,0.001761299,-535.4891691,-186.3503676,-73.95428073,-716.1313925,-478.7275521,1076.005536,-339.2827443,-577.4682315,-783.8345538,,,,
576.5279996,2252,-566.8166861,-481.2132118,-588.2950203,-479.5369944,-475.2131344,-3752.727731,0.001763265,-536.6037962,1366.331797,-1146.313519,-714.2257229,-479.9441699,150.5431939,873.1233572,-581.9768475,-790.347851,,,,
576.5359996,2252,-566.1416441,-482.3486725,-587.5612686,-480.701286,-473.5846422,-2857.78541,0.001765832,-537.7005802,102.9721264,-613.121833,-712.3095113,-481.1439839,695.3677389,185.3474564,-586.453435,-796.8161569,,,,
576.5439996,2252,-565.4548742,-483.4675809,-586.8154749,-481.8489559,-471.9523104,-3773.413247,0.001768021,-538.7795634,726.4071863,-560.1767695,-710.3828455,-482.3270296,745.5590739,196.7114169,-590.8980049,-803.2394889,,,,
576.5519996,2252,-564.7564396,-484.5699724,-586.0577011,-482.980035,-470.3161854,-3384.736117,0.00176932,-539.8407859,1137.02799,-1245.292468,-708.4458135,-483.4933389,121.9839978,969.8897705,-595.31057,-809.617853,,,,
576.5599996,2252,-564.0464022,-485.655877,-585.2880154,-484.0945652,-468.6763132,-3348.607752,0.001770088,-540.8842848,-124.7883934,-168.2713239,-706.4985033,-484.6429444,1094.401327,-271.6079581,-599.6911415,-815.9512641,,,,
576.5679996,2252,-563.3248199,-486.7253343,-584.5064779,-485.1925803,-467.0327401,-4055.185693,0.001772022,-541.9101069,1392.523603,-1161.555599,-704.5410026,-485.7758887,166.4316658,890.9713953,-604.0397334,-822.2397354,,,,
576.5759996,2252,-562.5917623,-487.7783852,-583.7131602,-486.2741083,-465.3855122,-3193.536776,0.001773235,-542.9182926,190.3611183,-595.1979543,-702.5733991,-486.8922001,704.511137,251.0500112,-608.3563589,-828.4832779,,,,
576.5839996,2252,-561.8472872,-488.8150609,-582.9081257,-487.3391917,-463.7346755,-4108.004445,0.001774721,-543.9088826,701.3736327,-557.5083166,-700.5957804,-487.9919117,755.2770663,177.2578419,-612.6410309,-834.6819021,,,,
576.5919996,2252,-561.0914586,-489.8353928,-582.0914346,-488.3878671,-462.0802761,-3730.426389,0.001776952,-544.8819221,1117.385154,-1301.471112,-698.6082342,-489.075075,130.5000045,949.1554568,-616.8937625,-840.8356335,,,,
576.5999996,2252,-560.3243407,-490.8394248,-581.2631597,-489.4201715,-460.4223599,-3695.884827,0.001777225,-545.8374517,-7.458752766,-315.3053971,-696.6108479,-490.1417113,1095.210867,-158.5659881,-621.1145721,-846.9444861,,,,
576.6079996,2252,-559.5459912,-491.8271975,-580.4233608,-490.4361394,-458.7609729,-4377.91825,0.001778719,-546.7755156,1433.550704,-1378.250699,-694.6037088,-491.191857,179.5715586,942.6199077,-625.3034721,-853.0084744,,,,
576.6159996,2252,-558.7564795,-492.7987474,-579.5721051,-491.4358023,-457.096161,-3519.382584,0.001779863,-547.6961584,330.3369862,-858.479534,-692.5869043,-492.225559,720.7357594,395.2322763,-629.4604831,-859.0276219,,,,
576.6239996,2252,-557.9558678,-493.754105,-578.7094607,-492.4192092,-455.42797,-4409.452255,0.001780404,-548.5994234,892.7944405,-820.3911909,-690.5605216,-493.2428508,771.1179917,390.7514777,-633.5856205,-865.0019465,,,,
576.6319996,2252,-557.144216,-494.6933122,-577.8354937,-493.3863975,-453.7564458,-3994.811466,0.001782508,-549.4853515,1188.574136,-1496.311022,-688.5246478,-494.2437694,167.7586921,1038.195417,-637.6788966,-870.9314716,,,,
576.6399996,2252,-556.3215878,-495.6164106,-576.9502657,-494.3373888,-452.081634,-3934.376039,0.001783497,-550.3539894,49.14591004,-420.6842533,-686.47937,-495.2283444,1143.629322,-84.26287609,-641.7403394,-876.8162188,,,,
576.6479996,2252,-555.4880466,-496.5234331,-576.0538391,-495.2722343,-450.4035803,-4581.34354,0.001784579,-551.2053831,1442.34692,-1373.133381,-684.4247751,-496.1966201,237.8853049,964.4474705,-645.7699725,-882.6562101,,,,
576.6559996,2252,-554.6436544,-497.4144237,-575.1462854,-496.1909763,-448.7223305,-3697.038802,0.001785763,-552.039575,337.3134149,-743.5352923,-682.3609499,-497.1486374,792.1051257,392.6355042,-649.7678057,-888.451468,,,,
576.6639996,2252,-553.788476,-498.2894155,-574.2276732,-497.0936424,-447.03793,-4539.088887,0.001786683,-552.8566106,841.9374895,-629.1947669,-680.2879812,-498.0844326,850.4736792,355.8661909,-653.7338582,-894.2020241,,,,
576.6719996,2252,-552.9225747,-499.1484539,-573.2980632,-497.9802785,-445.3504244,-4070.412912,0.00178772,-553.6565331,1091.655209,-1248.026161,-678.2059557,-499.0040441,257.5841671,952.5059112,-657.6681659,-899.9079042,,,,
576.6799996,2252,-552.04601,-499.9915747,-572.3575205,-498.8509252,-443.6598593,-3960.209547,0.001787631,-554.4393911,-7.544058364,-146.0726423,-676.1149598,-499.9075115,1239.887365,-138.1643583,-661.570746,-905.569132,,,,
576.6879996,2252,-551.1588471,-500.8188163,-571.4061167,-499.7056194,-441.9662799,-4552.665826,0.001788094,-555.2052312,1368.981258,-1116.618332,-674.01508,-500.7948745,334.9687533,903.994571,-665.4416125,-911.1857333,,,,
576.6959996,2252,-550.2611495,-501.6302286,-570.4439108,-500.5443961,-440.2697317,-3623.067838,0.001790107,-555.9540956,280.4759893,-528.3881551,-671.9064027,-501.6661707,885.5798173,334.2908284,-669.2807973,-916.7577421,,,,
576.7039996,2252,-549.3529799,-502.4258413,-569.4709703,-501.3672993,-438.57026,-4407.696408,0.001790204,-556.6860348,745.8698021,-446.017673,-669.7890141,-502.5214398,946.264448,266.1026339,-673.0883275,-922.2851967,,,,
576.7119996,2252,-548.4343997,-503.2056981,-568.4873662,-502.1743736,-436.86791,-3891.850484,0.001790769,-557.4010927,1010.549405,-1077.990805,-667.6630004,-503.360722,356.1882143,875.969086,-676.8642215,-927.7681169,,,,
576.7199996,2252,-547.5054788,-503.9698435,-567.4931532,-502.9656507,-435.1627268,-3746.766318,0.001792246,-558.0993147,-4.213581406,29.44456607,-665.5284474,-504.1840583,1336.010647,-139.2553513,-680.6085134,-933.2065331,,,,
576.7279996,2252,-546.566276,-504.7183134,-566.4884068,-503.7411759,-433.4547557,-4283.341537,0.001792027,-558.7807515,1332.275046,-901.5124244,-663.3854412,-504.991487,442.079309,884.5133175,-684.3212249,-938.6004912,,,,
576.7359996,2252,-545.6168507,-505.4511505,-565.4731943,-504.5009936,-431.7440417,-3306.083504,0.001792242,-559.4454488,227.7376071,-250.385633,-661.2340675,-505.7830529,1007.221667,306.3164494,-688.0023797,-943.9500233,,,,
576.7439996,2252,-544.6572718,-506.1683968,-564.4475693,-505.2451414,-430.0306297,-4059.302351,0.001792871,-560.0934548,736.4339299,-107.991219,-659.074412,-506.5587946,1069.908448,269.2871132,-691.6520175,-949.2551581,,,,
576.7519996,2252,-543.6875974,-506.870095,-563.4116073,-505.9736585,-428.3145648,-3506.960161,0.001793778,-560.7248155,987.074797,-683.8018958,-656.9065603,-507.3187498,483.0386969,874.8208385,-695.2701601,-954.5159319,,,,
576.7599996,2252,-542.7078972,-507.5562873,-562.3653773,-506.6865883,-426.5958916,-3334.775164,0.00179415,-561.3395777,-89.55554562,467.5308037,-654.7305978,-508.0629666,1467.085136,-188.2379507,-698.856837,-959.7323834,,,,
576.7679996,2253,-541.7182292,-508.2270123,-561.3089402,-507.3839751,-424.8746551,-3834.69971,0.001793927,-561.9377927,1162.437651,-432.4933975,-652.5466097,-508.7914863,571.264492,753.3187397,-702.4120781,-964.9045562,,,,
576.7759996,2253,-540.7186574,-508.8823202,-560.2423588,-508.0658554,-423.1509,-2825.000979,0.001794376,-562.5195105,61.33189368,235.8970943,-650.3546814,-509.5043448,1129.737016,161.9626338,-705.9359136,-970.0324917,,,,
576.7839996,2253,-539.7092518,-509.5222462,-559.1657051,-508.7322755,-421.4246709,-3576.509964,0.001795141,-563.0847753,652.9258041,356.3361098,-648.1548979,-510.2015856,1178.526521,189.526394,-709.428384,-975.1162262,,,,
576.7919996,2253,-538.690068,-510.1468342,-558.07904,-509.3832832,-419.6960124,-2999.978078,0.001794783,-563.6336387,848.0977376,-259.1924796,-645.947344,-510.8832574,584.3311526,751.6779137,-712.8895125,-980.1557999,,,,
576.7999996,2253,-537.661172,-510.7561347,-556.9824306,-510.0189141,-417.964969,-2815.078518,0.001794443,-564.1661501,-202.3470634,841.9874525,-643.7321048,-511.5493993,1557.442588,-310.6943255,-716.3193328,-985.1512561,,,,
576.8079996,2253,-536.6226243,-511.3501791,-555.8759476,-510.6392085,-416.2315852,-3313.985784,0.001795268,-564.6823549,1123.275221,-127.05366,-641.5092647,-512.2000493,645.8404211,704.5882013,-719.7178816,-990.1026353,,,,
576.8159996,2253,-535.5744893,-511.9290169,-554.7596514,-511.2442171,-414.4959053,-2288.980166,0.001795235,-565.1823082,-92.14133086,483.9388605,-639.2789085,-512.8352589,1205.053866,27.91892574,-723.0851866,-995.0099855,,,,
576.8239996,2253,-534.5168357,-512.4926938,-553.6336113,-511.83398,-412.7579736,-3069.088342,0.001795166,-565.6660559,560.784126,548.4363881,-637.0411205,-513.4550677,1243.078891,80.84425206,-726.421289,-999.8733533,,,,
576.8319996,2253,-533.4497181,-513.041254,-552.4978895,-512.4085377,-411.0178343,-2531.925498,0.001795758,-566.1336496,827.1642572,-106.5261926,-634.7959849,-514.0595142,634.7604396,713.1203112,-729.7262291,-1004.692782,,,,
576.8399996,2253,-532.3732058,-513.5747425,-551.3525521,-512.967939,-409.2755317,-2419.246772,0.001795558,-566.5851423,-205.8519864,971.9505354,-632.5435861,-514.6486454,1597.445874,-336.2686636,-733.0000375,-1009.468317,,,,
576.8479996,2253,-531.2873655,-514.0931943,-550.1976681,-513.5122277,-407.5311097,-3012.635372,0.001795405,-567.020579,1234.646044,-27.55788829,-630.284008,-515.2225093,658.9356368,791.1236659,-736.2427469,-1014.200008,,,,
576.8559996,2253,-530.1922538,-514.5966641,-549.0333072,-514.0414484,-405.7846123,-2058.977433,0.001794855,-567.4400124,-33.74924077,575.7080733,-628.0173344,-515.7811483,1206.027437,83.76080516,-739.4544013,-1018.887909,,,,
576.8639996,2253,-529.0879359,-515.0851964,-547.8595309,-514.5556464,-404.0360834,-2953.576443,0.001794132,-567.8434953,694.8374676,617.4227739,-625.7436492,-516.3245989,1231.084072,182.8652736,-742.6350389,-1023.532062,,,,
576.8719996,2253,-527.974474,-515.558829,-546.6763966,-515.0548581,-402.285567,-2513.326657,0.001793615,-568.2310759,1020.319753,-90.93213535,-623.4630358,-516.8529187,600.313366,900.6416572,-745.784694,-1028.132522,,,,
576.8799996,2253,-526.851932,-516.0176118,-545.4839792,-515.5391348,-400.5331066,-2481.628844,0.001793317,-568.6028069,-94.06812273,917.3614249,-621.1755779,-517.3661486,1551.276086,-211.1935958,-748.9034097,-1032.689341,,,,
576.8879996,2253,-525.7203721,-516.4615913,-544.2823471,-516.0085263,-398.778746,-3202.484656,0.001793585,-568.9587415,1489.951954,-198.6627627,-618.8813587,-517.8643256,592.4103055,1017.270755,-751.9912238,-1037.202572,,,,
576.8959996,2253,-524.579857,-516.8908121,-543.0715597,-516.4630679,-397.0225288,-2356.97675,0.001793568,-569.2989299,216.2525795,269.6252879,-616.5804613,-518.3475012,1122.322872,318.5467184,-755.0481781,-1041.672264,,,,
576.9039996,2253,-523.430456,-517.3053159,-541.8516832,-516.9028084,-395.2644984,-3361.725168,0.001792622,-569.6234231,890.2586348,171.3326956,-614.2729688,-518.8157185,1133.60224,358.5951107,-758.0743165,-1046.098475,,,,
576.9119996,2253,-522.2722287,-517.7051574,-540.6227881,-517.3278021,-393.5046983,-3063.615204,0.001791682,-569.932273,1292.655593,-669.7330042,-611.9589641,-519.2690272,483.0141894,1122.670454,-761.0696748,-1050.481262,,,,
576.9199996,2253,-521.1052363,-518.0903823,-539.3849353,-517.7380896,-391.7431718,-3163.859636,0.001791399,-570.2255339,68.92764825,239.9186379,-609.6385298,-519.7074741,1420.141056,-84.79985846,-764.0342995,-1054.820676,,,,
576.9279996,2253,-519.9295479,-518.4610263,-538.1381918,-518.1337086,-389.9799621,-4051.44624,0.001791288,-570.5032581,1724.141546,-956.0144288,-607.3117486,-520.1310974,440.0722262,1183.897475,-766.9682348,-1059.116779,,,,
576.9359996,2253,-518.7452174,-518.8171421,-536.8826298,-518.5147155,-388.2151125,-3406.654317,0.001790703,-570.765497,664.0402497,-552.9858101,-604.9787028,-520.5399452,934.8104254,683.1461542,-769.8715251,-1063.369625,,,,
576.9439996,2253,-517.5523133,-519.1587789,-535.6183037,-518.8811553,-386.4486658,-4588.505181,0.001789511,-571.0123025,1213.407387,-699.7157881,-602.6394747,-520.9340729,919.2112111,647.7882963,-772.7442124,-1067.579272,,,,
576.9519996,2253,-516.3509,-519.4859804,-534.345286,-519.2330698,-384.6806653,-4487.210207,0.001789483,-571.2437279,1708.516916,-1612.510839,-600.2941464,-521.3135195,235.5663594,1475.246375,-775.58634,-1071.745788,,,,
576.9599996,2253,-515.1410335,-519.7987988,-533.0636442,-519.5705092,-382.9111536,-4704.769,0.0017888,-571.4598295,638.7532639,-761.4859884,-597.9427999,-521.6783291,1143.011268,429.5609904,-778.397959,-1075.869225,,,,
576.9679996,2253,-513.9227865,-520.0972772,-531.7734332,-519.8935196,-381.1401736,-5608.432023,0.001787886,-571.6606597,2049.421059,-1935.119122,-595.5855169,-522.028555,179.1019586,1505.303111,-781.1791128,-1079.949644,,,,
