Time:125Hz,Epoch,FP1,FP2,C3,C4,P7,P8,O1,O2,F7,F8,F3,F4,T7,T8,P3,P4,,,,
101.5599999,396,-149.3496339,-236.5037472,0,0,67.56453482,130.4966472,125.3880715,87.7052098,-78.41878133,-10.84198417,183.4636851,3581.215828,0,-27.8657607,-51.52406208,14.21962049,,,,
101.5679999,396,47.7923854,96.6365149,0,0,-29.04678856,243.0543157,-50.59554371,-14.00318819,17.85322013,18.69980719,-73.65510267,2406.49814,0,-26.39861854,265.3531069,29.95003214,,,,
101.5759999,396,129.0423801,194.698904,0,0,-37.47414752,220.9471369,-105.9922761,-1.299606801,-18.07254035,27.74596857,300.7062527,3735.61911,0,46.28891122,-5.944063442,-22.05066518,,,,
101.5839999,396,-206.2382821,-321.0801203,0,0,58.65874433,176.6773778,150.621222,55.5228681,-47.00158278,-19.35040169,-33.10758926,2756.551948,0,-65.60513067,100.5134026,41.83657393,,,,
101.5919999,396,245.8404215,401.2132292,0,0,-124.3137289,304.5650308,-236.7592396,-91.88523211,55.7500999,-10.86355914,167.611518,3015.58728,0,-5.686720944,258.0976282,-58.30903831,,,,
101.5999999,396,-147.1124651,-232.7177664,0,0,68.06989265,182.1115531,122.3300354,82.88110503,-59.27859013,0.424777554,188.7472581,3567.474362,0,-18.06830708,-68.0523884,24.29193964,,,,
101.6079999,396,36.04515087,78.46407275,0,0,-33.49167984,287.2405742,-46.37373122,-15.66353463,46.64579956,15.30711715,-83.65735818,2328.879263,0,-26.45821962,263.1142861,37.65847948,,,,
101.6159999,396,137.3789458,209.2346972,0,0,-35.84378623,254.5845245,-103.8388222,4.574911011,15.10041604,17.65367374,311.4689311,3697.560891,0,32.35510702,6.52191054,-26.20295767,,,,
101.6239999,396,-212.4163059,-324.993889,0,0,80.49887985,194.0825345,174.7557188,78.7411898,-20.65785025,-3.117570763,-37.69946465,2711.786062,0,-56.32942788,82.6985125,64.53012017,,,,
101.6319999,397,245.4142405,393.6501453,0,0,-119.3533403,304.8567609,-231.0128948,-87.70305497,77.41199973,6.157194559,146.8635138,2910.30555,0,12.2299591,239.9874179,-36.45914866,,,,
101.6399999,397,-143.3608742,-245.3022259,0,0,64.20606556,156.3457566,111.3308098,70.81843368,-54.06842971,-20.857858,198.5411031,3535.093676,0,-31.82620623,-67.58602884,1.932630971,,,,
101.6479999,397,23.72239367,56.29968224,0,0,-38.12831817,239.7813862,-53.43777873,-31.61551709,39.04626651,-5.642997869,-81.35680838,2276.964857,0,-40.25004446,280.0261828,15.59819886,,,,
101.6559999,397,137.2255017,209.6331374,0,0,-52.75471951,207.9533864,-126.2886874,-14.17714627,8.347232498,9.595541964,317.0742411,3648.159452,0,32.48008577,24.50737687,-37.09381788,,,,
101.6639999,397,-219.0302011,-339.7225065,0,0,64.40461071,155.072829,150.0499543,64.89364103,-29.8423922,-25.53904781,-21.6023965,2697.683847,0,-73.05157316,101.9434274,41.76904713,,,,
101.6719999,397,236.1949501,381.9369805,0,0,-141.6608337,273.3744439,-258.433831,-111.8152386,68.85299375,-9.726470072,148.3862424,2858.733301,0,-6.679406678,264.4644427,-53.80660684,,,,
101.6799999,397,-140.4167062,-243.6567527,0,0,52.46344139,140.8535255,101.2966551,61.07233714,-58.8456702,-22.0584903,207.5895511,3508.514494,0,-41.74109782,-57.72374321,1.454656367,,,,
101.6879999,397,16.27246009,34.00751458,0,0,-41.95989879,241.2822799,-46.82076121,-34.68189316,37.65225731,-7.639544234,-75.49108727,2233.344007,0,-51.87477658,292.0469035,22.33672742,,,,
101.6959999,397,127.1455783,186.7608887,0,0,-75.91254286,197.3866725,-146.1510102,-57.96756142,6.042410026,-14.96908517,328.804966,3614.285192,0,8.282980849,58.47501524,-61.76755869,,,,
101.7039999,397,-226.5043142,-356.192915,0,0,65.12338537,126.4726989,158.5314422,43.51243337,-30.85445067,-42.90549114,-5.184062606,2689.673537,0,-88.00888326,129.2306714,19.26311977,,,,
101.7119999,397,238.6976564,387.4237043,0,0,-121.9207956,255.5661176,-219.8894319,-88.8569084,79.80639192,7.017043558,150.9109059,2802.841296,0,5.04701816,278.2537522,-37.77258507,,,,
101.7199999,397,-138.7494341,-239.4085121,0,0,47.25737808,122.0435968,110.6923176,55.04007176,-46.28675823,-21.61054024,223.2695936,3489.233762,0,-37.27318496,-45.44722195,1.228742867,,,,
101.7279999,397,12.85006906,25.67290424,0,0,-50.27012187,219.3430795,-46.30637654,-51.26552043,51.5301681,-18.73951935,-66.40746322,2210.081868,0,-57.58174187,309.0498261,7.408653873,,,,
101.7359999,397,361.9112121,555.0542847,0,0,-157.6421251,232.6948143,-326.8515878,-101.7475657,65.86703258,7.510563794,530.5770249,4114.013354,0,73.00325414,47.97036924,-118.3948325,,,,
101.7439999,397,-140.9727958,-233.6092715,0,0,42.75533152,123.371901,96.65637987,52.87934744,-8.127178636,-32.59562605,239.434278,3511.602826,0,-30.97837071,-10.66997561,-23.38912381,,,,
101.7519999,397,-34.0717714,-48.45533031,0,0,-29.60874394,221.8149617,-11.87824076,-28.79498499,75.52788497,-27.61283116,-83.45756221,2156.158443,0,-67.86863282,327.8798609,2.994322033,,,,
101.7599999,397,109.754681,153.401404,0,0,-40.04011276,208.2655516,-102.8198265,-17.15814356,49.9479391,-8.274843221,255.190093,3320.587902,0,2.517872063,108.6184132,-54.41741529,,,,
101.7679999,397,-35.51446937,-62.25398078,0,0,18.23122193,177.7212662,31.23768976,29.38580255,49.8101488,15.15627122,132.5361768,3003.487848,0,11.57947931,91.48613754,4.538235864,,,,
101.7759999,397,-56.39902414,-89.18647493,0,0,-18.19246398,183.1592529,13.51479922,-15.43086542,67.1642345,-13.03623073,46.53981826,2614.223651,0,-27.60771091,195.0554181,-13.0499827,,,,
101.7839999,397,114.1801123,170.8709049,0,0,-71.76352074,201.6388765,-130.1803438,-52.67875083,67.13843823,-31.33131623,240.0679127,3136.231135,0,-18.31985944,184.7716841,-82.78426847,,,,
101.7919999,397,-80.36379686,-140.8783055,0,0,42.11784826,162.4338012,82.78855245,57.2339989,17.90868387,10.2377077,123.7195015,2972.165224,0,-10.60363872,81.40337768,16.75262247,,,,
101.7999999,397,34.95947902,42.62838021,0,0,-20.10863985,219.9116895,-10.68167716,-3.161204414,62.79150223,20.72315519,31.15886303,2494.981382,0,3.680424676,208.7154102,17.94801473,,,,
101.8079999,397,101.2478656,135.3250995,0,0,-40.33525196,195.8751115,-70.71309114,-16.98411008,46.68805326,11.72437028,257.716878,3261.492599,0,26.33072164,80.09837497,-36.91243074,,,,
101.8159999,397,-168.5398933,-274.0677377,0,0,53.95702518,158.1737522,142.7742672,46.63334191,11.4307719,-1.890461261,15.2800262,2601.144063,0,-36.98944115,111.346688,28.46488636,,,,
101.8239999,397,192.2746387,296.5808574,0,0,-92.89922815,269.1102607,-162.1415934,-74.25811915,81.58404908,-2.405092159,157.7193844,2724.180833,0,17.83933314,243.3628571,-49.62631144,,,,
101.8319999,397,-89.02414809,-175.566276,0,0,58.98159404,159.6231395,113.7204489,68.832829,-20.97464412,-5.299866811,202.0167012,3215.977967,0,-8.818568608,-14.29235928,-0.391039157,,,,
101.8399999,397,7.241461611,2.916031638,0,0,-6.732650336,230.3743492,15.05209275,2.255322538,37.8226947,20.17843466,-50.22180441,2146.844418,0,-16.40760828,236.7290312,30.52012861,,,,
101.8479999,397,145.8885618,209.5205078,0,0,-48.16499015,218.6886792,-101.6918288,-18.77708114,19.13875805,18.36082972,287.1805956,3259.436239,0,44.30790534,53.84033035,-42.49541252,,,,
101.8559999,397,-212.9732491,-342.4212153,0,0,84.64685435,138.4187381,191.1080401,77.98073535,-22.4195381,-13.79438265,3.839726346,2519.576195,0,-43.2297883,66.55053897,34.48795215,,,,
101.8639999,397,208.2473371,334.8742893,0,0,-108.4812467,258.1806453,-180.4319644,-80.19011496,75.1948884,8.365721233,125.8535214,2495.702774,0,30.58874612,245.0636439,-33.71663973,,,,
101.8719999,397,-108.4888778,-200.5067332,0,0,52.54134805,139.4041116,122.0100899,61.94964919,-46.34231701,-9.744152213,228.0577864,3227.941346,0,-2.516455335,-59.42440083,-3.252950103,,,,
101.8799999,397,-11.33227292,-21.66013099,0,0,-17.44500777,225.2109696,18.25098009,-19.72417752,37.44440451,-2.551531312,-70.64244536,1963.980188,0,-36.21941127,258.4643394,18.08799979,,,,
101.8879999,398,152.1854541,214.7370408,0,0,-73.23420521,220.3580482,-120.9830635,-45.69508206,23.66877765,8.958075066,303.4898483,3201.890325,0,36.49090187,48.65097037,-52.91520578,,,,
101.8959999,398,-226.4796091,-381.2124821,0,0,74.74198097,147.1074035,199.3060779,64.32364719,-31.25114344,-27.28940046,11.06540665,2445.112775,0,-68.01532289,68.18766587,19.0868483,,,,
101.9039999,398,212.6969081,332.799534,0,0,-127.7438314,271.0838155,-199.0145317,-103.6647613,76.09190952,-10.39424031,134.7987142,2395.240764,0,-5.423893566,281.2112536,-66.49667322,,,,
101.9119999,398,-122.0667487,-216.1625595,0,0,37.81142513,129.2528737,107.1001138,47.91392611,-54.24276525,-17.40814922,244.0017371,3195.784285,0,-22.49927965,-56.83585563,-27.74767409,,,,
101.9199999,398,-24.21235415,-32.46230764,0,0,-19.39237685,208.5159692,21.5641793,-14.90793728,20.82345345,-6.876550764,-80.3393062,1850.699721,0,-48.53953232,268.2596032,4.997543793,,,,
101.9279999,398,149.9542587,225.2848346,0,0,-73.65790401,202.3143936,-118.1472497,-33.78050853,12.54537699,9.245088853,310.6627301,3123.504428,0,34.4372666,60.11103931,-60.61437272,,,,
101.9359999,398,-246.1140643,-392.5867707,0,0,81.2567117,120.1297066,212.3471096,75.07421847,-35.99715104,-19.56983062,12.21063883,2363.229241,0,-61.10976971,69.3831659,24.89390474,,,,
101.9439999,398,206.0472228,339.0607587,0,0,-115.2478001,250.9336857,-186.0930484,-89.56630163,74.47229767,2.80980207,116.5685833,2265.748796,0,3.094853351,278.1487304,-48.32510109,,,,
101.9519999,398,-122.7076842,-210.346469,0,0,48.61149461,122.8329897,113.1880068,63.53043722,-56.16676077,-8.247984185,230.0522344,3096.251301,0,-13.73264583,-75.96734791,-8.504569997,,,,
101.9599999,398,-29.74696471,-42.78537286,0,0,-10.25147041,208.1863602,19.93792322,-14.64483764,30.20043262,0.099792053,-100.4893741,1725.846128,0,-41.47601077,251.8423766,18.05367062,,,,
101.9679999,398,163.3389495,240.3242916,0,0,-67.48781223,207.5517013,-129.297764,-39.7926204,31.52466935,24.23296124,292.4472009,2998.396966,0,33.02913365,44.24586102,-50.3221441,,,,
101.9759999,398,-236.237851,-388.3539168,0,0,84.1121509,128.5620107,209.2602068,78.69931804,-25.43265056,-16.7141195,-2.259888101,2260.313791,0,-71.38776402,46.70441529,29.19875932,,,,
101.9839999,398,213.4255948,336.5820099,0,0,-120.8193007,258.8260902,-193.1266316,-97.90166801,93.27950675,1.585341469,106.0841347,2138.980456,0,1.278723518,268.6692006,-50.26681403,,,,
101.9919999,398,-118.7651114,-217.0291065,0,0,28.14114511,128.3340394,92.21944727,30.61531515,-27.26758724,-22.48546511,245.8064061,3017.575558,0,-36.38470436,-68.46384761,-33.40299305,,,,
101.9999999,398,-38.85659702,-63.90322949,0,0,-26.96964583,211.764358,7.190844808,-32.14612085,51.08487702,-38.37400813,-83.86431703,1658.137176,0,-87.65843289,278.7004904,-20.9784266,,,,
102.0079999,398,173.3346256,248.8691666,0,0,-64.28572289,206.5028814,-127.5076497,-25.74617544,51.18511304,17.20309307,294.8692356,2903.222181,0,33.5961996,57.72222973,-55.09422248,,,,
102.0159999,398,-225.9167904,-388.2595111,0,0,103.2563642,119.3527981,229.3327616,100.6042207,-0.886138836,9.606118762,-12.10130378,2158.521323,0,-41.35523532,24.35933887,52.31155459,,,,
102.0239999,398,221.1364429,333.8449999,0,0,-105.0939825,263.727924,-181.2013093,-84.88150447,127.1377174,9.600151724,85.72021509,2003.663393,0,8.216736114,252.6546499,-45.8326921,,,,
102.0319999,398,-104.6456828,-205.782356,0,0,43.59550117,148.0972122,104.6427872,46.48061439,5.416168682,-11.96676238,228.5233651,2896.150859,0,-16.75833977,-96.79713162,-22.26714912,,,,
102.0399999,398,-37.4960784,-75.3837471,0,0,-11.87298252,222.0312351,29.79186579,-21.94109501,70.49069743,-15.72755866,-112.1951813,1511.402637,0,-55.59478806,235.9153955,8.283921786,,,,
102.0479999,398,174.9562396,242.7603309,0,0,-71.79603926,220.1302226,-141.8816977,-49.67309527,67.26312089,8.433288223,280.2899681,2763.071516,0,32.99133027,41.15348166,-61.21080231,,,,
102.0559999,398,-502.0349806,-833.6467389,0,0,206.7054342,60.41815325,447.1027672,174.1754529,-64.84745199,-24.45398927,-55.43580445,2190.131901,0,-98.16835192,-130.4690859,82.46024148,,,,
102.0639999,398,-36.09358645,-70.32733409,0,0,-14.14122734,221.7271045,33.04020124,-15.67483626,63.47438958,-14.72878413,-100.6135326,1498.418754,0,-60.54122727,223.7599633,14.97178753,,,,
102.0719999,398,223.0046043,320.6143275,0,0,-102.3448909,239.1493997,-188.6667062,-79.69105261,47.81801233,-3.844169206,273.3382898,2654.509353,0,20.22459326,68.93535445,-75.52553596,,,,
102.0799999,398,-151.3448755,-273.6940877,0,0,45.32462706,150.8012893,125.6034553,30.4647762,-33.78014177,-22.7093206,24.6368229,2088.275581,0,-55.94658215,31.48182486,9.906439158,,,,
102.0879999,398,1.931434535,-18.23756086,0,0,-24.38619168,192.4135297,-10.34055908,-25.7074253,8.06246688,-25.46785291,58.53582026,2001.394932,0,-42.29053656,134.0352333,-24.10526737,,,,
102.0959999,398,106.0144616,144.421729,0,0,-60.37916315,206.7573749,-101.9144789,-52.88288367,30.35735926,-31.39828135,165.5646232,2260.842117,0,-30.78931584,127.5207475,-62.46148808,,,,
102.1039999,398,-111.8116731,-204.0452461,0,0,30.14831678,142.1049289,83.90749805,33.52768223,-22.36558749,-28.09130689,92.58111724,2217.248448,0,-57.82134056,20.26051757,-4.569095,,,,
102.1119999,398,48.23308455,59.67176528,0,0,-45.09355558,201.7021354,-60.38892006,-30.88225177,33.52853771,-2.078411523,22.67098683,1786.586617,0,-31.89442052,160.7185034,-3.915191013,,,,
102.1199999,398,86.07666899,101.1874486,0,0,-37.37225588,182.4664236,-81.87059896,-11.78135657,23.79717327,2.049340147,183.7688781,2348.943029,0,-0.526315449,43.26281943,-28.68817097,,,,
102.1279999,398,-155.9595539,-266.459564,0,0,55.27946805,123.7561321,115.80596,57.78160061,-10.19356696,-24.82284802,23.71783052,1956.254101,0,-52.849237,32.2024071,21.20690294,,,,
102.1359999,398,161.8271171,254.5667574,0,0,-81.97600986,199.6311353,-158.5048642,-65.16812314,74.00239797,-8.487599826,81.5403062,1813.33975,0,-7.631046423,193.7411016,-28.34297979,,,,
102.1439999,399,-81.48433802,-151.6108512,0,0,51.62701743,93.41816441,85.64232861,68.87374504,-15.44730026,5.545076838,177.9802807,2463.05831,0,-8.457443772,-87.67319441,13.78061899,,,,
102.1519999,399,-24.31103558,-44.38710179,0,0,-2.090805728,161.5124046,23.87168336,7.615092789,46.73835131,7.326137971,-84.78366935,1379.964789,0,-31.41180941,162.0732,40.13657824,,,,
102.1599999,399,164.9602123,226.2581665,0,0,-67.64915638,162.0851453,-123.0059385,-34.69600443,38.104997,4.650703983,226.5116535,2347.456528,0,19.85921701,29.99638489,-38.59474473,,,,
102.1679999,399,-201.5676929,-346.8212512,0,0,77.08978168,73.8151021,189.3672222,85.51000729,-29.72854142,-12.91980777,3.388506982,1867.419801,0,-58.87559861,-17.63440468,37.54551581,,,,
102.1759999,399,187.0319876,289.3344579,0,0,-108.3838533,197.0565316,-177.4845841,-76.82248754,87.02548771,-0.874935775,52.58785972,1584.865834,0,-3.406384202,220.3406264,-27.96419268,,,,
102.1839999,399,-72.73370533,-151.3936326,0,0,32.82637591,74.05973975,62.97785356,48.31507082,-25.27849888,-12.21925762,216.6787997,2501.298668,0,-7.714771387,-106.8242178,-9.293452578,,,,
102.1919999,399,-46.22927876,-82.76008106,0,0,9.168894782,121.8995473,33.0176636,4.249680571,30.91367904,-7.916214416,-124.5221543,1181.610729,0,-52.47479963,179.5917536,30.33062644,,,,
102.1999999,399,187.1070995,270.891074,0,0,-67.47169534,126.1314162,-160.8930883,-40.56101838,42.15060818,8.417520515,234.8244295,2281.612021,0,29.7047692,23.96638141,-46.70605297,,,,
102.2079999,399,-222.0249983,-383.5687943,0,0,96.25459928,32.95043192,191.8278125,88.83416887,-21.6779476,-7.050130913,-11.56194067,1751.748845,0,-43.91660478,-41.75967944,47.38169695,,,,
102.2159999,399,207.2938053,306.7541909,0,0,-90.59611833,170.8762456,-177.2036067,-68.01131669,109.7255735,1.972688698,38.85671987,1429.919514,0,1.543737897,218.9498399,-25.17477425,,,,
102.2239999,399,-64.69928562,-156.7676816,0,0,58.87099628,10.03890092,80.69854382,86.10716697,-26.36825767,1.723357266,441.9743077,3253.406448,0,28.62671088,-316.914743,-28.50063332,,,,
102.2319999,399,-217.402361,-376.7459001,0,0,89.21245573,21.10877684,192.2636778,81.43077578,14.98686765,1.571552474,-12.58724538,1683.812014,0,-45.77165021,-49.52013812,51.87095957,,,,
102.2399999,399,204.7853225,297.277238,0,0,-89.46207594,156.7679102,-164.5154373,-66.46032448,143.6660935,16.12947896,-20.15437224,1171.276968,0,9.020672247,231.9796431,-3.177097975,,,,
102.2479999,399,-35.09135075,-96.07256577,0,0,5.79390621,48.50162421,36.94618524,26.09160108,40.15073387,-8.769142783,176.929392,2129.908581,0,2.206283824,-83.52066494,-5.729354481,,,,
102.2559999,399,-57.36078713,-109.7713694,0,0,-17.90728126,60.01155608,30.01784452,-8.389364761,43.0552787,-32.16843854,45.93774686,1620.124778,0,-43.3238209,36.61270964,-12.89900549,,,,
102.2639999,399,55.98434704,75.54756393,0,0,-49.18067781,101.1531762,-45.0559168,-27.72927027,77.3110574,-7.981791066,5.232910591,1352.990897,0,-19.34054477,126.4774216,-1.932649804,,,,
102.2719999,399,16.47904804,2.976403093,0,0,-21.37072643,66.20957269,-6.117063417,4.389973492,50.71607465,-8.262262643,172.4429645,2002.62042,0,5.521935648,-34.83533467,-17.67398661,,,,
102.2799999,399,-92.68768316,-154.7991857,0,0,10.17125219,69.62081147,78.33186946,23.60173464,57.23162476,-17.40782,-3.759263098,1416.185084,0,-29.68913287,54.08826103,17.63811082,,,,
102.2879999,399,106.4370825,159.8658966,0,0,-66.66356026,120.3586629,-83.16036903,-34.0222827,109.5432139,5.788702803,66.21881784,1454.054063,0,13.68738723,116.007298,-3.361038197,,,,
102.2959999,399,-56.5397309,-113.4367126,0,0,3.355702973,49.0294756,50.598939,23.54756634,44.39439746,-13.70389821,171.6132167,2007.459423,0,-3.488374401,-76.57826102,-2.978347066,,,,
102.3039999,399,-55.04663314,-83.59437205,0,0,-22.00815757,90.30695274,29.99292388,-13.73567439,78.98726242,-20.70896787,-89.3135436,993.303481,0,-43.80272113,151.6535198,26.88324285,,,,
102.3119999,399,135.9491594,204.9132025,0,0,-71.95927369,98.65276633,-114.2968554,-34.50061994,81.92381695,-0.46642775,211.6439727,1921.053249,0,17.15269231,17.28001279,-33.29682964,,,,
102.3199999,399,-194.3935572,-317.5236532,0,0,67.19510269,40.75395339,171.7083403,69.43883364,26.12783481,-4.414558718,-3.621817339,1444.069945,0,-43.61843682,-36.16401618,50.50015191,,,,
102.3279999,399,289.9897222,480.2088031,0,0,-159.9932124,216.9365946,-266.785899,-137.917315,190.6297044,7.304096598,-110.2489082,468.0124947,0,-3.965453616,394.8479739,-9.496218784,,,,
102.3359999,399,212.834419,318.6327816,0,0,-78.74152235,129.2592328,-164.6002123,-37.53483885,116.9464217,16.46671947,215.8439324,1797.097486,0,40.59210205,42.56684753,-20.47583815,,,,
102.3439999,399,-248.362484,-415.6966555,0,0,121.7088249,11.00508123,237.7208325,125.7562591,20.11597433,12.25999509,29.60230247,1583.049101,0,-20.33112404,-139.2676887,83.49502782,,,,
102.3519999,399,85.30536694,145.3279928,0,0,-41.5143424,122.1042605,-74.95166236,-23.65289847,131.0110839,5.051956673,16.83985081,1095.29787,0,-3.978661133,132.6538384,8.161191968,,,,
102.3599999,399,41.63610439,58.53510444,0,0,-17.97714705,97.42502329,-27.6801932,11.54357893,109.3230873,-0.882483418,124.5741274,1520.687543,0,2.11135978,18.09152809,4.595814459,,,,
102.3679999,399,-118.4244861,-204.765722,0,0,32.32740138,53.67749266,90.513346,39.63346559,65.64553729,-23.95650796,94.08023941,1548.1862,0,-32.94664206,-49.61322728,16.65949983,,,,
102.3759999,399,46.40413089,74.96363259,0,0,-43.83514991,118.5719432,-60.24360559,-36.61621466,111.4075098,-15.71110711,-2.190526805,994.2094786,0,-34.76093137,144.6177831,-3.880937595,,,,
102.3839999,399,34.04965646,48.03314818,0,0,-5.719428521,91.48203418,-22.20963361,23.98799472,77.92251772,14.61162162,158.5928342,1627.346014,0,13.13364842,-33.52866804,10.26500585,,,,
102.3919999,399,-132.6854544,-204.5251475,0,0,59.55104174,68.15160727,114.0664791,61.86216583,69.55611335,-4.923269258,18.86527892,1230.560688,0,-32.62518011,-18.88159361,45.21499,,,,
102.3999999,400,120.8360084,194.7708668,0,0,-61.44455723,150.4769821,-106.4217024,-48.67369413,151.7316877,3.31513964,38.05400114,1006.335647,0,-5.903282688,133.4072654,-1.264494843,,,,
102.4079999,400,-76.0344885,-134.6862921,0,0,20.1458511,61.91912591,55.52558842,32.04924633,74.11984324,-12.83829908,190.9205595,1779.703955,0,-16.34746138,-119.4739718,-3.647665974,,,,
102.4159999,400,-260.2958127,-386.221189,0,0,69.74923791,82.21975744,188.2565851,44.64758737,95.4777253,-24.6079363,-314.3455038,44.09362897,0,-113.6748766,198.3321586,87.83670965,,,,
102.4239999,400,104.1111603,171.8495732,0,0,-63.67775736,133.8726186,-113.5428827,-47.20108353,143.5772841,7.07607627,-28.4903733,744.4818916,0,-13.33440184,189.4980777,16.54740763,,,,
102.4319999,400,15.64589988,1.231112361,0,0,-10.11168546,44.06412204,-36.55235283,12.55349525,67.28932708,-20.24370463,288.0124156,2022.504278,0,3.798158993,-126.9654984,-38.06101518,,,,
102.4399999,400,-103.8179458,-163.7023206,0,0,15.8367362,73.2772988,52.28760412,14.19946484,84.82093562,-23.97662946,-56.59467369,832.0500928,0,-61.09997897,85.78444402,22.40554574,,,,
102.4479999,400,41.08753964,64.58198934,0,0,-40.02990074,96.48449379,-67.64773458,-25.88023605,99.09263217,-8.41891128,47.61259531,1065.078415,0,-22.4295373,87.83086325,-2.040877081,,,,
102.4559999,400,26.00114978,40.70879157,0,0,-15.84953507,67.81210221,-38.65983171,1.134159763,72.83173512,-3.283836869,167.201858,1519.582401,0,-5.420950164,-36.31216879,-12.3770161,,,,
102.4639999,400,-132.5122995,-199.1301061,0,0,38.01238401,61.46051156,93.0512122,35.2035162,65.13925125,3.280973431,-45.64859478,855.8377869,0,-33.45962653,31.52252632,48.18916422,,,,
102.4719999,400,102.0738417,160.4631121,0,0,-60.44295479,119.2879816,-109.8129063,-40.59184559,107.9859291,-2.189848578,91.79365687,1108.394055,0,6.074093012,84.83933396,-15.88880448,,,,
102.4799999,400,-51.73244039,-95.71149594,0,0,22.88122133,73.25493244,46.12205785,44.39041053,47.29320004,3.356228416,129.0981284,1439.735491,0,-3.313196794,-76.48798414,15.68359829,,,,
102.4879999,400,-73.98008066,-110.8844676,0,0,0.569101005,105.8469214,40.35984619,5.24480643,67.49458325,1.568367295,-99.2592838,590.3073441,0,-36.52885584,85.80531809,43.76042487,,,,
102.4959999,400,137.9732876,215.6641643,0,0,-76.34565519,120.882111,-141.6897925,-51.57136462,72.53051308,-6.544385518,174.530096,1383.349374,0,2.271864174,4.275816857,-43.20704596,,,,
102.5039999,400,-203.6810476,-321.2152456,0,0,80.77859347,43.88843555,168.1956002,84.75167182,8.919781453,1.019372961,-20.00208481,1003.285371,0,-49.46974268,-78.10066922,49.0653577,,,,
102.5119999,400,96.23910953,174.9035805,0,0,-71.09054076,166.1563538,-115.87162,-51.03188871,130.1814231,19.56223679,-150.0137528,156.7253066,0,-16.53777191,236.2811023,31.69468787,,,,
102.5199999,400,24.93926582,34.68263133,0,0,-24.91244532,104.5016667,-49.47621367,-0.67745604,76.22301113,-0.102353967,98.34243068,1147.709293,0,-2.405172078,8.991449828,5.315474196,,,,
102.5279999,400,-78.45716874,-129.1055063,0,0,14.38209622,74.86513697,43.5429388,26.3814442,66.39914336,-4.046410478,49.01585423,1031.334525,0,-21.80681318,-6.906636565,22.66714677,,,,
102.5359999,400,45.79118018,76.59488994,0,0,-35.06057262,94.04114479,-59.15992411,-13.46019718,92.30453716,-2.876532064,104.7990436,1095.722159,0,-5.56192037,31.71569981,-7.496143901,,,,
102.5439999,400,-94.50669943,-146.742156,0,0,31.15340085,60.14833706,75.64057587,36.93472802,67.8948943,-11.20034466,-31.50366309,741.8967728,0,-37.85937336,40.92814087,37.28406014,,,,
102.5519999,400,108.7013923,166.0755851,0,0,-51.32558663,85.83786472,-96.3284883,-22.77812868,107.8014358,16.58521435,120.547092,1089.705343,0,31.31844429,23.24397438,2.28921811,,,,
102.5599999,400,-140.1095145,-223.5249216,0,0,47.50861647,14.09848122,103.6304786,58.32682108,53.56168497,-2.576052678,23.29888588,962.5662121,0,-17.670229,-52.88000762,40.37097028,,,,
102.5679999,400,68.10582593,111.4677573,0,0,-44.72221283,86.24369125,-79.63582528,-20.58883476,118.5629023,1.433453045,-15.4623436,571.7015096,0,-5.550220895,118.9324298,11.5803613,,,,
102.5759999,400,2.416291512,-10.51365287,0,0,-4.743924963,32.70586524,-19.37836814,26.94840456,64.57865713,3.457037522,185.8311683,1390.352774,0,22.44968284,-109.2404349,1.392074151,,,,
102.5839999,400,-143.4546384,-210.3008366,0,0,20.59233758,46.13861914,67.52445785,20.09691954,71.2193746,-24.06284276,-120.8427665,352.3184714,0,-49.31626668,67.33291736,45.81994447,,,,
102.5919999,400,166.1848457,270.8889254,0,0,-92.66934988,112.0531763,-189.0866963,-59.30607273,102.7100673,-10.92522004,160.4824954,1084.799569,0,25.51802388,31.53015276,-34.54578008,,,,
102.5999999,400,-216.146227,-345.1064101,0,0,79.57142881,29.93671059,156.5145458,79.46406158,6.883548801,-22.26078099,15.4521206,937.1192117,0,-29.22082918,-109.7062718,42.15203761,,,,
102.6079999,400,105.0304276,183.0560267,0,0,-73.03744659,148.3368773,-126.885746,-53.40723863,111.1261229,2.718255591,-44.43156178,330.3230008,0,3.846518052,157.340368,9.879584625,,,,
102.6159999,400,-20.09384118,-32.35541286,0,0,4.136717011,57.25922637,6.5424679,48.19613783,23.32714423,4.504131575,216.4315506,1442.320324,0,28.60124123,-155.0343502,7.007520452,,,,
102.6239999,400,-148.2069792,-208.2141665,0,0,30.42242592,79.84973713,98.24290096,39.39694472,48.46342178,-8.314140612,-153.5120049,163.5395642,0,-32.39703718,67.21266876,70.55190583,,,,
102.6319999,400,203.3189457,328.4319114,0,0,-103.8177106,140.9500518,-202.823538,-63.30250887,96.08700982,15.98616486,167.1939805,1006.358078,0,55.20380116,11.93775186,-20.11968406,,,,
102.6399999,400,-239.4353456,-381.542224,0,0,79.11435878,26.08085167,171.4787866,91.05687502,-11.49362231,-20.11926426,14.40009485,865.8185518,0,-32.25802087,-142.0300687,42.65824405,,,,
102.6479999,400,108.1565938,201.7745122,0,0,-101.6512114,153.111639,-157.9043101,-76.22937621,111.5661104,-3.781912842,-52.10656578,185.6422433,0,-0.631395965,168.3249174,-6.50091081,,,,
102.6559999,401,-40.37938504,-58.11414397,0,0,-20.16644559,50.24540323,-17.68685865,11.24213068,16.78188006,-6.702994272,231.5123207,1403.303488,0,10.15205045,-166.3156634,-27.50448063,,,,
102.6639999,401,-167.4320933,-235.6061373,0,0,12.47920571,76.31834298,73.17672674,13.06583612,26.6199874,-40.69804091,-147.3774266,70.8989118,0,-82.79756075,92.40376116,16.28257051,,,,
102.6719999,401,195.1613684,330.9110296,0,0,-106.6145652,147.3709502,-207.669169,-64.29146202,69.60159191,6.225670136,175.0095803,926.4091527,0,35.5200189,27.73149889,-42.87720847,,,,
102.6799999,401,-253.8893137,-385.9064951,0,0,103.5708885,29.89190259,213.7972482,115.8769072,-22.04002208,14.64996921,1.211050691,761.7620551,0,-5.805796627,-165.8181021,70.80945905,,,,
102.6879999,401,105.6107147,207.6420184,0,0,-71.77752291,171.4954267,-121.2137824,-53.48983115,114.323592,15.46109155,-77.28250582,46.87602074,0,19.17816791,150.6381334,12.10718142,,,,
102.6959999,401,-45.13794866,-63.2762737,0,0,2.584970154,81.06266797,5.786481572,23.99114719,17.25839084,-2.304120015,212.7594539,1301.126639,0,32.90478413,-195.5640023,-15.71002739,,,,
102.7039999,401,-176.8881022,-252.2662819,0,0,29.69250578,92.19090687,102.4568664,33.72356247,33.06672652,-15.37190713,-175.463604,-63.3472643,0,-37.95348788,54.23737758,48.02227914,,,,
102.7119999,401,176.1177263,308.1155383,0,0,-103.9544154,145.3317549,-197.7095259,-60.10104837,82.08041619,3.497690078,158.4719154,803.2288931,0,52.91584702,8.200741022,-44.8822708,,,,
102.7199999,401,-301.9677309,-436.0147245,0,0,80.46944595,14.36991853,192.0253752,80.69692771,-24.54303631,-32.56331931,5.034334824,692.6863812,0,-32.02715886,-170.6372492,23.96129054,,,,
102.7279999,401,67.19522943,165.8105337,0,0,-95.52041271,137.9288887,-148.7741435,-79.68559317,96.45763905,-27.79341081,-71.30261337,-30.59244961,0,-20.68256616,167.1822484,-34.85484622,,,,
102.7359999,401,-58.40026858,-75.06457052,0,0,4.570014844,38.68726908,0.6963664,36.82592999,10.47082848,-15.94591452,219.0748538,1237.595248,0,14.94050406,-186.5545885,-33.65887643,,,,
102.7439999,401,-206.5923447,-284.0443284,0,0,26.07567297,50.17460671,105.0679394,30.8382397,36.79271631,-28.64662196,-182.3009589,-144.0736381,0,-49.88840333,43.95809739,38.83676043,,,,
102.7519999,401,164.2426733,291.9698426,0,0,-121.220439,106.8633729,-219.659565,-80.94778307,81.24484011,-18.09443443,149.4031304,707.6244168,0,25.46111844,12.24245694,-67.95249171,,,,
102.7599999,401,-294.1827135,-429.552897,0,0,91.16229012,-18.8705155,192.253853,101.5342353,-20.56298187,-17.67153437,-6.101882357,612.8603823,0,-30.80843815,-185.16843,35.00673496,,,,
102.7679999,401,10.77837086,81.48078282,0,0,-69.81693204,107.0276317,-83.04563213,-52.90966151,117.0405833,-4.572783808,-244.9850365,-655.5213369,0,-23.33972043,217.0761531,25.52329352,,,,
102.7759999,401,0.035296535,15.86901736,0,0,-31.05590882,33.0202297,-33.61964699,4.48559255,52.49277737,-1.215793996,84.2034599,621.2400176,0,23.79591209,-91.10825184,-8.347945812,,,,
102.7839999,401,-137.7503421,-184.1615201,0,0,18.05359879,19.90320646,82.03691516,33.66236896,45.12012162,-6.626028623,-16.32698068,349.5601858,0,3.494409376,-88.07141622,21.05147802,,,,
102.7919999,401,10.56827083,60.40122447,0,0,-60.439721,61.12326454,-69.55867722,-39.45489541,83.26307259,-22.36282088,69.7542653,468.0004468,0,10.76208329,-29.66923319,-35.17498073,,,,
102.7999999,401,-172.1752986,-240.2277309,0,0,17.7582445,21.52791803,95.02388773,32.28559106,42.03217237,-32.13299529,-54.21113391,202.4337955,0,-28.10992332,-59.04587388,10.88523985,,,,
102.8079999,401,68.36351955,145.8814878,0,0,-77.91796108,91.63730486,-111.3204226,-46.1112004,96.22814747,-21.36811446,72.40533654,394.028683,0,21.79020246,1.471862903,-38.79915027,,,,
102.8159999,401,-179.396783,-253.8708833,0,0,44.72142732,7.977446041,118.213678,54.92217947,37.62263917,-18.11280173,19.611994,464.1112736,0,-3.55772333,-139.9482143,15.12701725,,,,
102.8239999,401,-4.369380235,29.10622893,0,0,-44.17150548,60.33718595,-31.64083277,-26.76747236,109.2141212,-4.538593371,-82.88458927,-108.8933213,0,3.849919225,42.85579369,1.529987969,,,,
102.8319999,401,-2.494733835,7.102940366,0,0,-36.78200218,19.64517939,-33.09761137,-6.712047028,64.49205943,-28.88220248,168.6122825,814.5588947,0,15.03727011,-152.8768157,-57.77358467,,,,
102.8399999,401,-188.0633134,-270.6881645,0,0,31.27713719,19.56622364,123.6893747,45.71932003,53.78323665,-21.88124297,-139.2331654,-168.4077524,0,-36.15035515,-30.41410529,28.12998253,,,,
102.8479999,401,159.4626799,277.3612116,0,0,-106.3358246,91.08883443,-173.8958415,-62.7694103,113.1122969,2.708317849,109.055464,376.7302027,0,33.20715672,-8.972854157,-48.89139204,,,,
102.8559999,401,-228.5460712,-351.3801869,0,0,72.20076731,-17.1800754,166.0411647,83.67604483,18.13096406,-17.12626268,20.47561507,452.3142462,0,-26.15272116,-201.5290759,12.36915222,,,,
102.8639999,401,42.4856021,103.7417687,0,0,-72.37079373,105.7704027,-84.37844154,-44.7466378,128.8156963,0.980146607,-104.8019099,-343.0942498,0,0.6260233,85.15210503,-4.197267362,,,,
102.8719999,401,-10.29656969,-13.26348271,0,0,-36.2805367,37.1916637,-30.08008808,-5.634958354,60.48010332,-29.84996773,211.9409509,885.5489122,0,8.561338236,-186.2276865,-64.11049592,,,,
102.8799999,401,-189.9997363,-293.3524919,0,0,37.0176556,41.51846178,131.8350804,42.01601799,64.80899832,-24.22962652,-165.1023193,-325.9255671,0,-49.67568628,-11.26164273,28.13363738,,,,
102.8879999,401,188.4407927,315.319677,0,0,-115.5972168,124.1642477,-187.4205344,-67.40187378,135.1160798,13.60190284,109.2495061,313.7920643,0,54.08591848,-15.99808116,-39.85911835,,,,
102.8959999,401,-254.7523863,-385.7259605,0,0,76.93566601,-9.675966493,198.0952732,80.59201451,28.92776107,-28.73749907,16.10270984,406.882622,0,-23.9249436,-219.3127347,10.00140041,,,,
102.9039999,401,65.81050908,136.8504928,0,0,-71.85862525,115.7279194,-86.89222548,-52.8217603,152.3310628,0.877907001,-119.2884437,-464.7406958,0,3.995889179,107.1528542,-8.639154088,,,,
102.9119999,402,-15.28241927,-17.16572452,0,0,-24.49514762,46.46522781,-18.87723216,10.78854025,82.09830539,-1.889716468,207.8203536,841.1456548,0,33.33168533,-211.63793,-36.13474522,,,,
102.9199999,402,-214.2637322,-311.9154691,0,0,28.70935258,53.56687131,127.1726273,26.72902594,86.83417238,-32.69496163,-171.744324,-425.6652331,0,-57.87621681,-1.217072482,25.24708013,,,,
102.9279999,402,202.6261153,325.0775209,0,0,-122.1270697,135.4430549,-208.0824812,-83.13233619,143.6614072,-9.481619065,124.649952,261.1623321,0,26.63879933,11.13304888,-65.71910683,,,,
102.9359999,402,-242.0776476,-391.2761623,0,0,81.44550581,2.493111346,197.7698978,90.83506665,27.13010589,-20.42026071,22.62293477,353.9979425,0,-29.9784234,-217.1096831,17.58740367,,,,
102.9439999,402,70.15533445,145.203627,0,0,-75.28645517,131.6391475,-87.56298037,-46.74639801,150.6672216,19.40365163,-123.6839303,-568.1545605,0,15.51568501,107.4844357,7.551343359,,,,
102.9519999,402,-2.781795111,6.561158779,0,0,-18.61570247,59.10041279,-10.47722388,29.39516651,74.86359329,16.99162046,208.5193395,760.1770905,0,51.13446736,-230.8417563,-25.76526394,,,,
102.9599999,402,-203.7010617,-301.0223072,0,0,31.39962282,60.77219197,149.4837994,45.75032427,83.6202889,-19.17825755,-180.2435143,-524.2903887,0,-43.40605339,-27.49961436,33.41116204,,,,
102.9679999,402,207.9673988,338.8519061,0,0,-134.0901827,139.5002186,-196.194335,-78.00860561,148.236011,0.381490929,116.8126344,153.8861142,0,45.74390092,-5.809591413,-57.25494792,,,,
102.9759999,402,-507.2666109,-810.307846,0,0,190.7797937,-73.10355785,434.2548065,197.7990598,-41.58392475,-31.12637207,-26.0766435,375.3663585,0,-58.43081119,-372.1817166,64.67820291,,,,
102.9839999,402,-436.9605596,-672.0756032,0,0,131.7666858,5.521219874,356.1500756,124.0983912,36.04202429,-31.28987946,-354.1980103,-975.1243957,0,-95.41018356,-46.68312167,92.15685339,,,,
102.9919999,402,83.93560575,142.6064991,0,0,-83.68031242,101.4516886,-93.54554297,-36.98510204,114.0564777,-2.023128064,88.34729927,130.8008575,0,34.59947233,-75.63659974,-35.45658726,,,,
102.9999999,402,-3.926979898,12.74873419,0,0,-65.00389761,86.70914831,-38.90728169,-29.59528728,105.8495063,-17.87869869,18.25949228,-68.41955145,0,12.39260383,-55.18221333,-30.1531052,,,,
103.0079999,402,-74.35458865,-98.09307706,0,0,-20.34919731,64.69092445,25.41045743,14.03452225,85.39943392,-26.43984798,33.93003646,54.20330785,0,-5.676936237,-98.78709078,-24.80509095,,,,
103.0159999,402,-50.95958129,-59.4222024,0,0,-10.2110114,95.0275096,30.39430818,35.43814081,104.0621402,15.45602535,-39.41061582,-216.5832594,0,14.20919838,-65.07434875,25.98654259,,,,
103.0239999,402,94.58745058,161.6540515,0,0,-82.14576513,141.8481857,-97.81884055,-25.16876554,129.0181402,28.36566934,29.82228954,-108.9498344,0,55.9077541,-52.63927298,3.917421859,,,,
103.0319999,402,-174.2604148,-269.433986,0,0,18.47128944,53.88717686,107.486027,44.00050824,39.48083348,-30.09845007,18.17324491,85.97687791,0,-15.17605088,-186.0613343,1.014784961,,,,
103.0399999,402,48.88727934,107.5293394,0,0,-76.80632948,139.3107286,-93.88329869,-42.38303582,115.7876847,-8.982024436,-80.74832331,-544.8535816,0,1.99912903,54.09712532,-9.017977893,,,,
103.0479999,402,-8.753767368,-0.359743533,0,0,-21.61211206,86.0187136,-23.76936976,24.28630958,62.60681323,11.237516,146.6243777,383.0617798,0,48.3026278,-190.9468719,-6.939370759,,,,
103.0559999,402,-171.2238584,-241.2796605,0,0,19.96470301,86.01668846,99.14509693,37.48816566,66.1559999,-11.00976583,-132.8993789,-531.4522522,0,-23.60463975,-52.46203666,38.99580617,,,,
103.0639999,402,163.5535933,282.8052231,0,0,-118.489067,165.0257806,-193.2028026,-71.17745866,123.421525,-5.784348002,77.12773508,-95.12933387,0,33.60304642,-3.950913336,-45.9032817,,,,
103.0719999,402,-218.1566979,-328.6982815,0,0,67.47367833,49.72342876,151.7722399,91.93856763,16.10019351,-13.93630125,18.19342611,112.1693658,0,-5.329919384,-235.6213507,28.9132059,,,,
103.0799999,402,47.81126543,112.4455447,0,0,-61.73560374,160.3303564,-78.7854223,-26.79958807,133.1318959,17.8079503,-146.2862287,-807.1104526,0,26.7282558,61.54395511,33.15126613,,,,
103.0879999,402,3.835910006,14.66746706,0,0,-31.46512029,91.86815937,-40.45048209,11.04608041,72.55730518,-9.564389325,181.9252761,441.6538979,0,47.5382402,-214.7431475,-25.55158756,,,,
103.0959999,402,-208.168281,-293.9751191,0,0,46.00991308,86.93662838,130.242081,59.87210709,67.54897264,-23.86334372,-171.3955271,-690.0620716,0,-37.40820762,-52.891229,47.03915697,,,,
103.1039999,402,193.2402403,332.5570941,0,0,-118.0114238,180.5228186,-208.4462657,-60.49917995,141.5382121,22.76615197,69.71514118,-190.7942613,0,55.89105187,-24.11195327,-16.84041707,,,,
103.1119999,402,-224.3468519,-355.2990515,0,0,63.66035504,42.8050983,154.1704933,81.36351687,14.18595331,-11.32921991,21.39159062,54.51839462,0,-13.0308132,-262.5337067,32.55896134,,,,
103.1199999,402,59.92908371,119.2183979,0,0,-64.38719043,149.8593736,-100.7825253,-49.89033015,121.1692682,5.483729587,-148.8513279,-929.5964229,0,-0.139747404,78.73652873,17.33622058,,,,
103.1279999,402,12.52398848,33.70698957,0,0,-37.34115459,71.90781645,-71.09824299,-7.990569429,51.27822798,-8.782714548,201.8944658,415.7919542,0,34.46320357,-226.7856934,-33.01534074,,,,
103.1359999,402,-223.1824677,-316.0058709,0,0,37.6418744,60.06306596,123.7344137,47.39746386,33.01707137,-31.45661536,-173.9187477,-779.554242,0,-49.90264937,-58.22974299,42.81272095,,,,
103.1439999,402,208.2816297,348.7496308,0,0,-116.8071855,156.2661246,-213.3976761,-65.20837867,109.6334054,13.07254832,81.04632193,-257.7266322,0,55.54894255,-19.4014385,-22.14370255,,,,
103.1519999,402,-235.4790183,-365.8808756,0,0,72.9787893,12.02230072,166.9645611,79.04439956,-19.19482084,-16.61037435,19.87131599,-9.779222237,0,-5.849255201,-282.4901547,37.25395532,,,,
103.1599999,402,44.31679819,111.1574969,0,0,-68.98556032,128.2985896,-93.34594676,-55.0875438,85.95628497,-2.326948099,-165.425406,-1030.852122,0,4.005016715,63.3869598,17.64573479,,,,
103.1679999,403,24.796328,53.08701602,0,0,-29.10775653,57.7702455,-59.81559481,3.329495343,32.00253354,-2.540155993,199.4618924,351.5512701,0,45.49738816,-238.7405139,-28.42175131,,,,
103.1759999,403,-222.5602973,-312.3671147,0,0,58.14359038,44.69032175,147.4819525,57.94370835,25.75845821,-9.174778343,-189.5226515,-870.4302959,0,-25.3588648,-82.87612949,64.24479801,,,,
103.1839999,403,204.8905392,365.9970111,0,0,-118.2775331,150.2639304,-218.8303071,-77.95871084,110.0287668,29.33513984,65.93500853,-357.7834847,0,77.14950687,-37.22362765,-12.7941878,,,,
103.1919999,403,-237.7156155,-359.5230387,0,0,67.89274727,4.381634905,152.9124883,75.18830715,-0.023161082,-16.26509711,21.05614825,-62.10304927,0,-11.75922048,-287.5603858,27.63057015,,,,
103.1999999,403,41.55210471,100.9747599,0,0,-66.70166351,111.7128623,-98.92384579,-46.31442493,113.4906633,-14.43475098,-172.5133853,-1104.955904,0,-14.00207985,70.27574523,11.47698216,,,,
103.2079999,403,29.09598474,58.30410695,0,0,-35.60768903,29.36906929,-73.70518541,3.232909088,56.18220546,-3.690495164,188.9700144,276.3913182,0,48.17997984,-241.0456866,-18.81762037,,,,
103.2159999,403,-230.1343057,-331.3895983,0,0,45.10539124,-5.381695185,131.1214055,45.62557426,50.74954966,-20.41054148,-194.9648891,-924.8493875,0,-43.3572957,-82.06732763,59.67742742,,,,
103.2239999,403,212.1531932,365.2587202,0,0,-120.7299627,93.89100051,-235.4327922,-82.81666933,122.8222901,0.772620799,70.22130994,-411.6453438,0,40.42959768,-5.416626649,-30.42976787,,,,
103.2319999,403,-223.0942265,-341.5512878,0,0,82.43121649,-59.70207124,157.8004257,90.74296125,-8.552565523,-10.61627371,28.66850919,-101.7310383,0,-2.338082998,-278.7415693,45.54029192,,,,
103.2399999,403,35.65971798,90.28576149,0,0,-64.97218683,41.35669696,-88.52606214,-56.38206894,111.2330117,2.353408842,-175.3694012,-1182.609944,0,2.335325844,63.91616036,31.65946471,,,,
103.2479999,403,39.70400323,65.51468157,0,0,-38.83057825,-23.36023369,-73.03447528,-21.41831944,62.62551923,-9.028483867,204.1154918,224.2080767,0,33.87290005,-227.080168,-27.6000108,,,,
103.2559999,403,-223.0204129,-328.8576742,0,0,56.8102642,-61.69337894,153.0101717,44.96254102,53.56860435,-24.2697382,-179.1486583,-960.1519442,0,-53.01178021,-75.31690799,56.08039312,,,,
103.2639999,403,209.0844573,360.8296896,0,0,-122.7170784,23.33866239,-221.1860935,-86.69096611,144.4671778,7.022734544,68.21835899,-495.5932756,0,44.8025005,-7.744468787,-23.29187391,,,,
103.2719999,403,-212.7190027,-333.4693569,0,0,83.67232797,-114.6177237,164.7456276,90.51382733,24.82329839,2.013855989,31.50612337,-158.130191,0,6.139396341,-291.1677505,58.02257329,,,,
103.2799999,403,49.63899901,98.17719868,0,0,-49.14564356,6.61710224,-66.76164223,-45.3021399,136.6172531,10.81609684,-183.6039927,-1260.578678,0,9.838941616,56.76955228,36.211465,,,,
103.2879999,403,57.17295531,78.56254533,0,0,-31.94417027,-46.10793436,-59.97219143,-14.73041639,81.12512701,-1.316381983,193.1173458,137.4189411,0,50.73537456,-234.6555491,-25.8431169,,,,
103.2959999,403,-205.4725893,-329.8310986,0,0,71.16900114,-58.98956392,173.0000055,59.39610245,64.42427767,-1.621288614,-196.1464167,-1043.2254,0,-26.68803162,-107.0857171,80.37320552,,,,
103.3039999,403,232.2609019,368.828854,0,0,-112.0833741,59.08413438,-196.5159357,-78.42489012,149.3319251,25.30429032,42.66884573,-611.6320262,0,54.99992407,-35.5706467,-8.205482796,,,,
103.3119999,403,-215.965538,-344.1570756,0,0,61.75651109,-73.85586591,169.2877375,62.77038669,15.88679915,-11.70942642,25.03782301,-225.363669,0,-13.454533,-307.9244389,36.43494081,,,,
103.3199999,403,33.18301471,72.03576286,0,0,-80.93247283,37.68548327,-76.7733121,-82.62693958,119.3070008,-22.20636266,-185.6943228,-1320.432013,0,-26.52000982,59.86425515,4.082446271,,,,
103.3279999,403,65.59504084,85.93322098,0,0,-51.2359767,-19.99576319,-64.40764538,-28.29134357,65.5313308,-14.56784833,195.8553035,88.00663562,0,29.41841182,-227.6300083,-40.99398397,,,,
103.3359999,403,-208.8940966,-341.0024751,0,0,60.16597142,-38.92983422,183.0120108,51.69658888,43.78051139,-0.145355104,-192.977314,-1078.916225,0,-41.77251608,-113.6428333,74.37182761,,,,
103.3439999,403,241.3290955,372.7575443,0,0,-119.1574805,77.98071956,-198.8350941,-88.63842725,127.3802523,22.88395169,40.81446234,-676.991043,0,37.26487841,-27.71426886,-17.52486171,,,,
103.3519999,403,-199.6258348,-321.3414699,0,0,70.40195362,-69.63864695,173.2130212,72.95160757,-5.708833243,2.66833594,29.08913748,-267.0717461,0,-12.50306613,-308.1489814,41.44207336,,,,
103.3599999,403,35.41230569,79.50208297,0,0,-58.96708169,28.67795987,-56.04803504,-58.60266191,100.2469876,13.76428171,-196.8503178,-1400.73528,0,-13.6789115,49.34364969,32.05674411,,,,
103.3679999,403,80.02823086,110.3337592,0,0,-40.33218205,-28.41903581,-67.5045398,-20.30632722,50.10301002,9.191417444,185.5824181,1.931525318,0,41.06375761,-235.3846735,-20.36900435,,,,
103.3759999,403,-213.4031967,-343.8175072,0,0,58.71917096,-64.21844467,166.443993,45.56538826,22.89253052,-7.642527508,-194.1681431,-1128.438086,0,-41.19477942,-118.0080875,69.45168804,,,,
103.3839999,403,233.9888917,361.6275072,0,0,-122.9915071,39.02714828,-216.7468409,-87.29828736,113.2806895,12.97886559,37.41961022,-742.9586557,0,31.6047938,-14.06243017,-24.24335325,,,,
103.3919999,403,-197.8349338,-320.9232094,0,0,77.16681827,-97.19832582,167.6253818,88.02594684,-14.73322463,-0.529657752,30.54291239,-307.9577953,0,-16.03903566,-304.1523539,43.83783337,,,,
103.3999999,403,28.3868817,66.95346846,0,0,-48.75172519,20.72891597,-53.16972308,-46.64098917,86.84807227,11.83447347,-207.2298676,-1469.721735,0,-11.65665052,46.5032994,38.13331116,,,,
103.4079999,403,80.01934317,104.9176948,0,0,-40.68820257,-26.04736382,-72.10052301,-9.766864252,50.52106348,13.54130621,181.7431508,-67.24674575,0,49.92711112,-231.1697591,-14.52470967,,,,
103.4159999,403,-227.2372396,-361.4942431,0,0,62.60938092,-61.7766233,182.5046682,59.27705262,30.62826855,-16.89466805,-188.5972354,-1171.110924,0,-42.75196036,-109.7555372,67.29790659,,,,
103.4239999,404,227.3557046,359.373191,0,0,-122.4954611,43.4271259,-209.2683859,-101.4949214,121.6849551,-1.415049682,37.45744611,-812.9059111,0,26.81531966,9.144830182,-32.6940718,,,,
103.4319999,404,-175.4775865,-308.3892058,0,0,81.8239235,-93.00389656,169.0729456,75.2257904,13.66413975,6.617089125,37.5000383,-350.7707966,0,-5.466295669,-291.7332896,46.92839201,,,,
103.4399999,404,47.66308635,69.85830367,0,0,-32.42630585,24.89329906,-35.37402731,-35.77560049,133.5758074,28.45945045,-210.912346,-1538.666614,0,4.044535608,49.85155955,52.8369723,,,,
103.4479999,404,88.13944572,115.1259065,0,0,-45.70100407,-22.9523684,-93.66491315,-31.48728097,87.01019975,14.80790107,184.1857253,-131.3157411,0,45.64575789,-221.5234102,-25.1232039,,,,
103.4559999,404,-225.8658795,-366.2078975,0,0,57.58089597,-61.53149079,148.6232531,35.60721757,51.24585881,-18.66637121,-179.2099371,-1203.874556,0,-54.16077849,-102.8569935,45.84301123,,,,
103.4639999,404,234.9894784,370.5004556,0,0,-114.7922417,56.85830964,-220.1508658,-89.66260722,143.7585744,13.71749317,29.79294813,-892.0109146,0,43.87964165,10.96969316,-31.4968045,,,,
103.4719999,404,-181.252961,-307.280554,0,0,68.75559847,-72.86126679,157.1439722,68.26891407,15.60916298,7.764702897,35.93858942,-407.6697617,0,8.452913854,-302.169885,41.43124877,,,,
103.4799999,404,32.5953205,47.05928495,0,0,-47.68976288,33.63644579,-35.03056529,-51.1033352,109.8225155,3.437643843,-215.3253278,-1599.266505,0,-10.34068067,50.7974524,33.32249738,,,,
103.4879999,404,98.63197079,140.7105489,0,0,-32.95392748,-18.49551017,-64.68137089,-10.32448305,67.10038393,13.24703004,171.7518681,-202.6049775,0,49.7586413,-222.4332888,-18.81962075,,,,
103.4959999,404,-223.8998508,-353.1654547,0,0,69.93165798,-54.54558322,183.3723634,46.90411008,31.50333062,-0.034336863,-192.7952932,-1268.174023,0,-33.88309183,-122.2895611,70.84841834,,,,
103.5039999,404,230.0724431,361.4271681,0,0,-125.2035867,52.65293209,-222.3792773,-116.434493,116.3445644,2.130732221,23.0471719,-967.0899476,0,36.97498061,20.30117222,-36.49955478,,,,
103.5119999,404,-174.860279,-289.6709333,0,0,79.19514589,-95.96830156,157.7390177,72.53245855,-12.658393,6.194155471,38.07103197,-446.6306911,0,3.665222082,-292.9834142,42.92488306,,,,
103.5199999,404,30.51484623,54.02488265,0,0,-32.27547432,27.02681776,-21.65746916,-40.42494605,87.30748358,23.78097074,-226.0605587,-1670.668318,0,6.141944081,45.60016228,56.20722765,,,,
103.5279999,404,97.45210429,137.4777161,0,0,-48.8133186,-11.86908078,-86.81968267,-41.16528927,44.84053758,-6.860184104,183.6817765,-253.0149837,0,49.85947841,-198.2724188,-35.74701457,,,,
103.5359999,404,-224.6126994,-359.552608,0,0,70.60258517,-64.08329851,184.2672443,49.89706805,11.25673587,-14.02115156,-171.8901485,-1284.377807,0,-37.85268801,-101.1697053,62.42008584,,,,
103.5439999,404,238.9144221,364.3225889,0,0,-117.2506584,63.83783472,-199.3295307,-90.15227732,113.668368,25.01342175,20.38664984,-1037.800301,0,49.01066781,21.44705416,-10.23154469,,,,
103.5519999,404,-162.1647274,-285.3566574,0,0,75.40609439,-71.21177832,153.1951567,75.90312588,-16.65969455,1.904168276,53.80072224,-478.2770325,0,3.321936603,-281.687546,36.96203842,,,,
103.5599999,404,35.84095943,47.00925333,0,0,-27.65927239,32.17211307,-27.86730533,-34.68424881,76.98864684,21.79368561,-212.521917,-1709.897887,0,9.170687215,65.4981173,47.6509408,,,,
103.5679999,404,114.9540288,141.6967601,0,0,-45.53281439,-4.747532656,-84.27887057,-34.956872,41.60831426,14.55114289,184.1670081,-311.9878746,0,67.37628416,-190.5879713,-22.78076444,,,,
103.5759999,404,-222.513966,-364.6060605,0,0,83.06478594,-64.02738202,194.5138528,53.9398622,-3.540369666,-16.60560035,-172.4875578,-1323.528727,0,-40.49072306,-97.09328828,59.39894209,,,,
103.5839999,404,234.825233,366.2573209,0,0,-101.0768159,38.84840786,-195.9159397,-87.52755848,85.1622386,20.55267923,9.006434437,-1110.310459,0,45.90176071,34.59138342,-14.42747329,,,,
103.5919999,404,-155.3056755,-280.3379276,0,0,85.59457211,-104.7487855,158.8186838,77.33391901,-47.94367866,2.88484173,49.82673386,-522.1546281,0,10.39861221,-277.3320871,40.30161332,,,,
103.5999999,404,31.24163843,39.66316227,0,0,-16.23093019,2.984293212,-14.88068152,-31.64926216,50.50740119,21.58474318,-223.3046311,-1772.791722,0,8.54457128,64.27080972,57.06017865,,,,
103.6079999,404,115.8718156,145.8675397,0,0,-44.85914317,-34.62239686,-94.09178262,-35.62701012,21.93948461,23.73786568,173.8317494,-387.7200823,0,66.80251378,-194.2252132,-11.44099888,,,,
103.6159999,404,-222.8646898,-376.0956756,0,0,85.27543773,-83.54179332,186.9108582,57.1758531,-21.39969682,-16.73373563,-169.8344198,-1364.638223,0,-44.32491065,-101.0045274,59.22801564,,,,
103.6239999,404,230.2663002,362.129471,0,0,-97.76069362,46.07770678,-198.654272,-92.657884,81.37746574,19.24212222,10.44876779,-1172.929994,0,42.0969831,42.77768741,-13.71014566,,,,
103.6319999,404,-162.8885722,-282.7992363,0,0,82.05420505,-96.43607385,153.5216839,62.73884179,-47.51858415,7.478240685,55.23600483,-559.832826,0,6.48879929,-277.4209897,41.89101495,,,,
103.6399999,404,22.95092151,30.67736114,0,0,-7.074031899,4.780741757,-0.953193722,-24.7793226,41.5377081,22.37226406,-225.4744458,-1821.336162,0,-3.745163518,70.23043309,52.38650594,,,,
103.6479999,404,125.5314964,174.7532438,0,0,-23.11712553,-26.44959539,-71.97436232,-12.40315541,17.52047111,37.32305674,173.1727001,-440.2904358,0,67.90043542,-181.7301387,-7.939611385,,,,
103.6559999,404,-212.1510598,-357.1161729,0,0,107.2517543,-83.1238244,216.3775403,79.00292833,-17.69680543,8.360455056,-170.7754842,-1402.594699,0,-28.86603426,-104.6215316,73.75898836,,,,
103.6639999,404,532.1562256,820.1643205,0,0,-196.7964924,114.3424476,-411.5177814,-161.7886723,156.3899908,49.08134709,110.1794814,-1147.475178,0,100.6188072,152.2855814,-62.57797327,,,,
103.6719999,404,355.3295057,516.8090563,0,0,-101.5151891,10.71165599,-250.9310482,-64.33735983,61.78624259,41.53221795,384.8939842,73.52484609,0,117.0105391,-195.169269,-72.76259781,,,,
103.6799999,405,-89.45791233,-157.9550591,0,0,56.81105488,-47.93763825,115.8302608,43.62703097,12.71840294,22.60213349,-132.8704123,-1405.475672,0,4.009244402,-76.21301791,56.18015731,,,,
103.6879999,405,-46.07286372,-78.69426039,0,0,24.70957617,-45.18887495,71.84259189,20.98083505,12.01830155,29.58595831,-65.0057762,-1185.956578,0,30.48824737,-121.0233379,36.67704881,,,,
103.6959999,405,30.89275286,43.55240087,0,0,-26.99409431,-29.40806375,-12.29104039,-37.15907458,20.65202819,3.945508151,-45.92881574,-1228.331381,0,13.49110648,-56.30496066,-9.205577169,,,,
103.7039999,405,18.40882189,10.49693158,0,0,-4.670740914,-47.3112276,5.589744519,-18.02425667,7.692262049,-2.899663928,19.58280572,-989.2706303,0,8.914198138,-92.14233368,-22.7026516,,,,
103.7119999,405,-110.6754839,-191.8219996,0,0,59.38332114,-66.97982845,128.9143588,40.47021308,-1.118779472,13.76708128,-88.97687903,-1261.913989,0,3.425479673,-100.9950973,27.6974505,,,,
103.7199999,405,158.7685748,233.8225729,0,0,-58.62592043,14.76432478,-91.35802222,-54.35591314,64.79915121,28.40783997,-19.45058073,-1292.329689,0,47.58020066,4.294972126,-14.32410151,,,,
103.7279999,405,-117.0244494,-216.2701533,0,0,53.25527243,-81.37499993,145.6936029,38.08973087,-21.46350594,4.838708703,20.6372257,-849.5033555,0,8.676526309,-211.0235069,8.328225506,,,,
103.7359999,405,4.025544876,3.082592836,0,0,-21.62239723,-10.37386012,14.72613025,-41.9241879,47.78509028,6.402309077,-166.5218152,-1719.875913,0,-6.708901532,41.76157522,2.160570867,,,,
103.7439999,405,98.8701315,135.1126448,0,0,-30.54897335,-30.60838668,-51.43027279,-28.56746209,29.88398438,19.05294426,129.4695811,-729.5521464,0,45.31187094,-127.9823118,-45.11631009,,,,
103.7519999,405,-196.018226,-324.4456063,0,0,81.43433141,-81.44672608,201.7006727,58.67425634,-11.31673373,11.27342115,-126.4989033,-1407.42616,0,-19.7607845,-104.4150521,38.88843128,,,,
103.7599999,405,202.8077342,318.8225917,0,0,-85.88086671,30.56549403,-133.5257461,-72.45268451,80.40977939,30.40493345,-5.730511211,-1386.939952,0,45.56261243,60.06226205,-28.3240884,,,,
103.7679999,405,-123.6310998,-219.15311,0,0,79.2857245,-96.59708923,176.1718444,74.18896324,-34.56768383,22.90140231,64.61270604,-740.2981958,0,22.00900968,-247.4578131,11.37541427,,,,
103.7759999,405,7.829084862,7.22485765,0,0,-4.727863616,-11.01038814,54.20932295,-16.75001835,52.71804882,40.94551667,-213.307011,-1939.289057,0,9.880880591,45.74930977,38.55221978,,,,
103.7839999,405,132.7833031,183.6814692,0,0,-43.48121319,-36.81027254,-53.97764337,-31.24975626,40.51887143,36.66343281,160.7292071,-696.656925,0,64.96586514,-158.5068108,-37.51554817,,,,
103.7919999,405,-226.6457798,-368.6694245,0,0,82.87990018,-105.4253095,229.4322707,57.88304531,-4.960513372,-3.283294097,-137.0945049,-1482.34325,0,-32.08594159,-117.6769341,26.24199428,,,,
103.7999999,405,214.1424274,333.5490098,0,0,-113.2162252,13.46526211,-159.327194,-101.0165324,109.3684228,11.34741431,6.814507749,-1440.604767,0,32.01685016,73.20308008,-53.86637804,,,,
103.8079999,405,-131.1104235,-241.428872,0,0,56.68833793,-125.899744,148.6264786,50.0381191,-13.08454537,-0.998292105,100.2579091,-701.8620188,0,-3.743475311,-239.3004369,-13.72327686,,,,
103.8159999,405,-6.93109337,-13.18470766,0,0,-16.07701843,-38.65066669,29.73872603,-30.25927399,61.61344928,17.39471912,-209.1915706,-1996.179608,0,-14.5665917,83.99666916,16.70718791,,,,
103.8239999,405,139.2112314,195.4725555,0,0,-51.32600315,-52.85290691,-79.98723707,-36.2132527,43.5053456,24.61027243,184.3607378,-677.0767041,0,58.26953854,-133.7652698,-52.14278988,,,,
103.8319999,405,-222.5712115,-369.0780202,0,0,103.5364924,-101.9249586,234.4312004,84.23755898,-1.09793697,15.4098118,-140.2054471,-1518.420356,0,-28.52850831,-109.6273716,45.52264423,,,,
103.8399999,405,228.7212952,356.7562068,0,0,-78.67432833,28.4296382,-149.366951,-64.41967361,121.1012355,54.81598429,-12.27263794,-1514.053282,0,58.3053506,62.13884314,-16.89356128,,,,
103.8479999,405,-129.5604624,-234.229999,0,0,85.09680543,-113.9757272,159.2225053,73.02394909,0.300419187,15.92920783,92.75101114,-737.2768352,0,12.96383474,-261.8803566,7.145000131,,,,
103.8559999,405,-5.4956568,-10.48698452,0,0,5.973655211,-20.46542893,34.10355536,-12.43085067,77.23358831,20.35947895,-220.6441863,-2060.880628,0,-12.41782134,70.55198893,26.33952854,,,,
103.8639999,405,150.4449941,207.5052168,0,0,-38.35267979,-42.19891411,-89.91783128,-26.68201519,56.89452765,35.26120544,178.3991759,-725.3525177,0,65.68938887,-150.8056041,-47.04475203,,,,
103.8719999,405,-223.2168721,-377.8955493,0,0,106.7092579,-113.3647905,225.6108851,77.11486213,1.018918265,7.027953773,-142.2642468,-1544.38084,0,-37.77617881,-120.1520763,35.49711449,,,,
103.8799999,405,226.8742768,363.9918338,0,0,-90.13190435,17.19821009,-167.975111,-85.09287571,111.4826692,43.62251297,-18.94425175,-1557.818916,0,41.91126747,63.29703621,-36.46200039,,,,
103.8879999,405,-136.5670119,-230.3233905,0,0,67.73883476,-120.7024569,140.4203564,51.59742345,-23.7392456,16.8677148,88.30306515,-757.0225855,0,1.450845502,-268.39936,-14.00145977,,,,
103.8959999,405,-13.18052886,-16.76221304,0,0,5.47955556,-21.5873287,38.68853662,-15.44534559,54.0302623,16.12710323,-228.9347318,-2085.89183,0,-32.50556393,71.50348299,9.98171344,,,,
103.9039999,405,152.6756216,229.111439,0,0,-34.04131478,-32.90193779,-84.87502459,-25.34311368,51.5092578,38.0034822,174.2954948,-761.1588396,0,54.66667811,-151.6154042,-44.22466186,,,,
103.9119999,405,-240.1603081,-391.2446219,0,0,96.77461316,-109.9379782,214.9445846,59.78459483,-6.587886706,9.111615886,-139.0305357,-1564.806609,0,-47.74142646,-133.2515404,37.12727724,,,,
103.9199999,405,213.8813139,341.4899362,0,0,-101.4969994,28.24325328,-190.8235863,-100.2614325,92.698065,14.99667556,-12.17846046,-1577.32913,0,9.748323563,75.29784398,-57.38417649,,,,
103.9279999,405,-134.1568994,-226.4103883,0,0,71.93110364,-103.0619081,134.4199232,59.79447359,-39.41320135,0.190384517,101.2026745,-750.2270251,0,-15.44382599,-259.485392,-14.19333935,,,,
103.9359999,406,-24.68909157,-38.90702059,0,0,0.066511603,-12.52869515,40.12832274,-21.82506282,33.77363157,22.96025687,-227.8496515,-2106.153192,0,-30.69693106,68.72353333,22.21166986,,,,
103.9439999,406,139.5830266,210.2647543,0,0,-65.29088388,-23.13043775,-110.2349926,-57.55570259,12.8669919,12.25247622,185.6601516,-763.6334149,0,34.91686858,-129.2281546,-75.56617066,,,,
103.9519999,406,-249.125994,-395.4948849,0,0,83.10593364,-108.3195133,210.3285009,55.64257114,-48.95276339,-16.25670687,-119.0963553,-1528.733755,0,-64.0018477,-108.0977402,11.40114549,,,,
103.9599999,406,218.1697594,347.9327981,0,0,-105.8418183,20.87286123,-180.7539416,-96.07214101,71.40607466,24.13111967,-7.718050203,-1594.033608,0,27.29242102,93.13384798,-52.5537389,,,,
103.9679999,406,-136.0721438,-223.1932231,0,0,48.36975681,-113.2524084,123.5019513,42.17386656,-48.79947558,-2.254910678,117.6950353,-742.5415714,0,-5.307954373,-246.5810116,-26.14850641,,,,
103.9759999,406,-35.63888638,-45.63993413,0,0,-17.23342811,-29.15699393,26.6982578,-31.30879415,25.51833816,6.342903606,-213.0515398,-2094.65988,0,-49.54481733,90.12265797,2.662681669,,,,
103.9839999,406,156.3394221,237.5843203,0,0,-55.29597296,-43.15604858,-110.9894646,-41.557054,17.16184291,31.18722028,183.7596171,-784.6712978,0,49.93078393,-116.7142471,-63.26035468,,,,
103.9919999,406,-244.8797927,-379.0233309,0,0,105.4560579,-127.6799286,237.0962315,83.65072362,-33.06770973,25.88884031,-132.1844357,-1561.729393,0,-22.82007521,-137.6964895,49.81969953,,,,
103.9999999,406,212.7443981,348.0892197,0,0,-105.318558,8.958562896,-166.4983157,-87.70640269,91.85225239,33.64536958,-21.4301717,-1655.379617,0,23.97852353,75.28365453,-40.38855536,,,,
104.0079999,406,-131.4157521,-216.946983,0,0,43.44294608,-124.247232,120.8454977,43.66383692,-35.70021802,-11.46758735,118.5127109,-763.5961384,0,-16.31681848,-251.4368118,-30.53130918,,,,
104.0159999,406,-47.92157429,-53.78278597,0,0,-12.79849745,-35.58105753,39.3638722,-26.75724622,36.44585108,0.834993031,-218.8353425,-2130.15869,0,-49.42986579,76.05828537,10.60307983,,,,
104.0239999,406,157.2887115,248.7954045,0,0,-54.45843288,-26.86958113,-105.2328059,-38.72886751,37.54121638,23.6751936,185.4280333,-826.1044564,0,33.36729045,-120.2404335,-59.72626043,,,,
104.0319999,406,-244.0646956,-380.8499841,0,0,110.101724,-112.186265,245.3467608,94.27546631,-17.28088493,23.7045855,-124.7166818,-1564.670367,0,-31.00862977,-142.471598,56.93726027,,,,
104.0399999,406,216.7826536,350.103853,0,0,-95.87306281,16.29715581,-153.7866015,-73.19883532,105.2811557,44.2350813,-27.29920829,-1693.011976,0,35.14435781,73.83476301,-22.46412182,,,,
104.0479999,406,-100.4081767,-182.6855561,0,0,63.89636812,-104.4178616,133.9016127,69.62647693,-22.69490842,18.85813821,120.8441784,-788.0923983,0,10.9740417,-262.3241197,-2.929030647,,,,
104.0559999,406,-34.83953988,-46.36448998,0,0,2.510960035,-21.34903098,56.96120947,-4.179405457,41.02533289,33.10046842,-223.631412,-2169.455636,0,-16.13077473,60.36020276,39.18209436,,,,
104.0639999,406,154.6115421,248.6396398,0,0,-70.52342852,-38.606191,-114.2396264,-46.4362228,32.46822857,29.63592908,184.8400223,-867.9137571,0,46.66100848,-117.9009175,-56.69664965,,,,
104.0719999,406,-254.3619462,-394.14689,0,0,87.19068591,-137.4812461,217.0796424,66.67320391,-46.43131986,-3.315154535,-104.7567731,-1556.392219,0,-44.19541841,-129.1172769,29.18103705,,,,
104.0799999,406,208.4986034,338.5510979,0,0,-106.7092031,-0.669805863,-179.1424876,-95.31194343,58.8507063,14.50707455,-12.35881079,-1708.937675,0,13.68007618,98.07478759,-51.10518869,,,,
104.0879999,406,-100.6787287,-173.4349197,0,0,66.15363604,-126.600955,125.7192405,69.32772869,-66.76078265,12.5634213,134.5441383,-792.4439822,0,-1.300263454,-254.0626907,-5.787947052,,,,
104.0959999,406,-36.26892015,-46.66586887,0,0,17.65363493,-53.32314176,60.24182063,3.313434435,0.156397078,39.6427068,-224.3405624,-2200.457951,0,-10.0229471,49.67420657,55.86375788,,,,
104.1039999,406,162.3099846,260.8463353,0,0,-61.66294949,-49.96324333,-130.1968336,-48.46348191,-3.80055068,32.33781786,176.1726111,-925.4085658,0,52.2272564,-132.1921347,-49.50665465,,,,
104.1119999,406,-262.8567695,-397.4594795,0,0,91.10770204,-133.5964681,209.4276664,66.64374828,-71.46169341,-9.740083328,-110.7599794,-1580.797584,0,-55.67104714,-149.4534426,28.95899547,,,,
104.1199999,406,194.059978,326.4509414,0,0,-109.884491,6.169608295,-180.8600502,-100.9886565,49.65962601,11.03895414,-26.40657744,-1755.850597,0,14.53349542,89.40198301,-41.02658596,,,,
104.1279999,406,-118.4743366,-184.7703511,0,0,45.05328977,-115.7529188,98.86038527,43.41662434,-75.2171579,-14.44986571,139.6108317,-792.047415,0,-18.1425978,-247.435296,-25.01044099,,,,
104.1359999,406,-64.65078547,-74.99397638,0,0,-2.270371608,-45.11368465,33.98319949,-18.10164474,-9.90959592,-0.880145035,-218.0432344,-2185.467156,0,-47.09658446,69.13248122,26.2802594,,,,
104.1439999,406,178.336785,271.5276424,0,0,-62.39887043,-49.07434427,-138.7718585,-40.85532295,3.26355116,38.09306113,171.413394,-941.8825375,0,66.84013837,-123.4536736,-35.50388448,,,,
104.1519999,406,-231.7062039,-377.3100205,0,0,110.0312675,-141.5591984,220.3248521,91.34504216,-47.12272433,16.09928854,-113.5461971,-1592.453636,0,-23.3357106,-167.2563582,50.69978618,,,,
104.1599999,406,202.9670898,331.8188956,0,0,-100.8242482,0.004769169,-180.8949593,-93.92196161,88.33253466,24.12827727,-35.94216102,-1807.373192,0,27.06162912,78.25510863,-31.51291062,,,,
104.1679999,406,-282.2852784,-468.8897489,0,0,131.5592746,-197.9789503,247.4395716,125.3427822,-99.89216347,-14.74043726,252.331274,-205.9070825,0,-12.34406765,-466.7932283,-7.504673749,,,,
104.1759999,406,-501.4150719,-800.6969457,0,0,208.9546442,-207.8305785,430.1815091,169.7051309,-105.4016584,-27.60377262,-136.7933905,-1441.587975,0,-93.87497244,-298.7196646,70.87994823,,,,
104.1839999,406,127.2671245,204.723606,0,0,-58.43964587,-22.82367702,-107.3737723,-51.11740879,52.15543655,19.48278795,4.305324023,-1572.406542,0,15.92428909,-15.09690556,-20.26880498,,,,
104.1919999,407,41.01167634,58.06619154,0,0,-7.475479706,-36.67243879,-10.14483484,-4.739454149,24.71905608,25.69170337,-42.58483338,-1623.253175,0,1.7104549,-56.68707689,9.959738879,,,,
104.1999999,407,11.2632382,-2.309494825,0,0,20.02461314,-48.27377159,32.73574616,14.74175677,14.44185232,30.00586816,9.582671526,-1386.520951,0,16.33604203,-130.6569773,7.361792331,,,,
104.2079999,407,-37.65014083,-72.15680003,0,0,34.58026002,-38.39875084,66.02259851,13.32919816,25.21296571,26.57595236,-49.82841493,-1577.19557,0,7.594646545,-109.8004444,21.2706684,,,,
104.2159999,407,95.82520234,160.5326977,0,0,-41.95946986,26.6276068,-72.3652014,-55.8299158,68.22047789,17.07345191,-49.17564569,-1741.307043,0,8.230311044,-4.470267973,-10.02692393,,,,
104.2239999,407,-56.796005,-83.59322694,0,0,30.72704166,-21.83140742,57.66276241,19.1738122,-8.594549911,-0.731667304,80.34145163,-1096.347504,0,-6.228815641,-197.5600629,-16.91704697,,,,
104.2319999,407,-21.36579535,-12.86639031,0,0,1.270668135,53.06327497,20.7783908,-16.65435481,28.00499981,20.93998157,-174.1056523,-2075.124698,0,-24.25103673,12.82007774,28.83655534,,,,
104.2399999,407,122.8910425,198.6970133,0,0,-54.90138631,61.47925174,-103.8802593,-50.96413035,32.35185462,24.84446022,104.1735672,-1180.141941,0,33.81025554,-118.0907068,-32.10264977,,,,
104.2479999,407,-192.3827373,-287.795683,0,0,67.22794326,-5.746825617,152.6858293,39.35146835,-21.95473843,-12.78610135,-83.53169334,-1571.257966,0,-42.34412762,-139.3157307,13.72104493,,,,
104.2559999,407,142.8428766,267.8016686,0,0,-88.3535293,108.0782306,-154.0886822,-95.39127589,71.39668808,7.124453297,-64.2205124,-1854.356619,0,5.555511563,68.24743085,-32.23269081,,,,
104.2639999,407,-83.2383887,-115.0811424,0,0,35.23163945,4.243864085,61.62191918,31.03888497,-27.33665012,1.840925166,108.5593944,-934.4104929,0,7.566404898,-240.1730307,-9.407618769,,,,
104.2719999,407,-60.90435865,-64.49155665,0,0,18.95570333,74.8684712,46.34847426,5.266596174,25.87143089,15.91817856,-228.6263969,-2208.108147,0,-25.80333756,29.32216259,46.60383376,,,,
104.2799999,407,166.9071566,277.0269324,0,0,-64.44817436,95.9486806,-148.5726926,-46.26748106,39.60640419,26.17859633,124.0500018,-1119.458218,0,48.58630968,-113.9385601,-33.38184609,,,,
104.2879999,407,-230.8923775,-351.8436631,0,0,87.62542336,-8.161964481,182.4192003,68.09159393,-36.7086779,-9.980738258,-107.6117265,-1592.412242,0,-42.89872592,-162.9871042,38.40844262,,,,
104.2959999,407,172.2406445,306.4771037,0,0,-95.53415635,112.1604078,-172.701895,-93.48739558,71.8734921,5.318129615,-70.28887015,-1904.813568,0,-1.29064853,96.37241388,-26.81667026,,,,
104.3039999,407,-76.62242594,-115.0993863,0,0,38.44765739,-5.256996715,59.92272974,34.9731217,-46.16054,-6.195439004,123.7133224,-875.5259029,0,-8.144987824,-234.8729945,-12.05892519,,,,
104.3119999,407,-67.835913,-81.91907051,0,0,14.52627468,51.63907223,39.32750634,-12.03242796,-2.251260335,2.595057764,-245.0306958,-2246.233918,0,-41.51738076,54.00137736,38.66574705,,,,
104.3199999,407,189.9819948,302.7832434,0,0,-77.64675447,70.01273305,-179.8070845,-71.81928464,16.79266729,20.76959482,135.7015287,-1088.860533,0,44.96082527,-89.6504284,-45.84812111,,,,
104.3279999,407,-229.1393168,-366.4193964,0,0,93.19764351,-28.44164819,178.0142162,67.62195833,-54.53583447,-5.775364107,-109.5378382,-1579.095085,0,-43.58482021,-157.0195591,42.28036893,,,,
104.3359999,407,193.7683128,328.4934225,0,0,-90.47352676,107.8490198,-187.4103311,-89.92310763,74.02171737,13.98597594,-75.28784843,-1922.826306,0,7.996080407,106.0807743,-22.65636393,,,,
104.3439999,407,-69.36348313,-113.363645,0,0,40.30121199,-12.39222118,52.57058186,35.47560784,-36.14027973,-1.789863352,129.0553191,-860.7650102,0,2.447014352,-242.9183826,-9.185651389,,,,
104.3519999,407,-67.92908922,-94.83585564,0,0,11.6715303,54.8167248,38.74095467,-9.642107793,13.8160283,-2.686306143,-247.0833776,-2266.055548,0,-38.55495238,51.3495868,42.55645203,,,,
104.3599999,407,202.5392332,321.9717132,0,0,-69.94167911,92.51232783,-176.2802527,-54.5438651,43.61009462,29.88135399,137.1424996,-1106.932557,0,54.42920733,-90.81034998,-31.64804517,,,,
104.3679999,407,-235.8712167,-365.3229577,0,0,105.930029,-23.2061523,187.4335937,79.99725177,-31.38972587,5.733927843,-110.4121458,-1590.470479,0,-38.60211112,-172.3434537,54.65867636,,,,
104.3759999,407,198.0454415,332.1723682,0,0,-87.72960438,90.70671117,-195.3392597,-89.9606966,91.73271821,17.22170101,-81.19259611,-1959.835891,0,15.13544656,97.55720736,-18.69881154,,,,
104.3839999,407,-50.7928901,-90.02359454,0,0,58.03318035,-32.49981568,49.86194256,61.11992931,-14.86579261,20.73141161,128.1322614,-883.7538382,0,28.11350428,-260.4539229,9.88098431,,,,
104.3919999,407,-62.24643376,-76.73511791,0,0,35.52206878,20.08036487,48.54216818,25.33889713,35.84015254,37.13145578,-258.6898627,-2320.611916,0,-7.03145367,17.62998199,77.50894766,,,,
104.3999999,407,206.707619,333.3908219,0,0,-75.48823716,35.51705622,-187.5862377,-59.55188323,53.33396415,50.3899783,129.6255266,-1169.447477,0,76.43508064,-115.7641862,-17.20219457,,,,
104.4079999,407,-239.5576263,-368.327033,0,0,101.9656268,-81.17101413,176.242408,75.22171236,-46.72800615,-0.144431599,-100.3520179,-1607.2454,0,-39.7301034,-184.6282289,47.07123272,,,,
104.4159999,407,197.7289357,338.8530966,0,0,-81.49505594,53.07885828,-200.9813864,-77.38450815,63.2469726,17.41776048,-79.37006065,-2002.254894,0,12.32154861,92.40265653,-15.45531837,,,,
104.4239999,407,-53.26975358,-89.23601933,0,0,47.0899257,-52.00534078,38.58343247,49.00048397,-44.26449654,17.13332944,137.9593205,-897.4638082,0,27.84407068,-263.5877225,8.498163127,,,,
104.4319999,407,-81.78821148,-102.8792521,0,0,22.04540049,8.498025354,47.03429722,6.149319865,0.989102274,5.213171838,-240.7656668,-2306.651704,0,-34.14841051,35.04508382,55.73528253,,,,
104.4399999,407,210.0194838,339.1126504,0,0,-79.80462173,32.45782107,-193.7578942,-60.97020705,20.95668808,15.61249852,144.2468293,-1157.408358,0,51.62088186,-84.95045518,-39.52487986,,,,
104.4479999,408,-241.353049,-366.3590483,0,0,104.1775324,-67.73033027,179.2613392,85.86959127,-64.60090839,-6.520614677,-92.35536201,-1583.53777,0,-31.82306521,-182.9254436,50.2843665,,,,
104.4559999,408,175.3705489,319.1531027,0,0,-91.75873968,85.61795346,-195.2701644,-79.43532365,52.61498223,14.67001308,-81.00947453,-2013.191862,0,14.99193667,94.41156181,-9.821943418,,,,
104.4639999,408,-58.64865624,-86.33047791,0,0,33.64272147,-15.69351671,26.49421827,42.26923273,-58.80077937,5.637756221,147.8537763,-875.4113127,0,21.87309262,-251.3911903,-2.771144401,,,,
104.4719999,408,-84.31655006,-98.32014336,0,0,31.13866931,40.59146342,40.08819262,18.97612456,-4.407326635,15.063479,-241.3998659,-2294.484984,0,-24.65035674,32.40122664,61.4336468,,,,
104.4799999,408,212.3450769,354.3518026,0,0,-69.37941196,64.41536329,-194.4507846,-46.46464686,25.18156433,33.35905913,137.3885047,-1179.220878,0,65.28201448,-87.69006956,-24.8105321,,,,
104.4879999,408,-239.6015275,-355.7976007,0,0,112.7775626,-52.23159195,192.678931,98.38201962,-61.37354653,9.077951153,-86.6070949,-1569.862201,0,-7.445476634,-183.8673396,66.70391813,,,,
104.4959999,408,178.0700098,332.8614623,0,0,-75.04272522,69.59044878,-179.0539899,-61.77208554,69.54606568,40.95225039,-86.55081363,-2030.861899,0,46.10691212,97.16660869,17.60087071,,,,
104.5039999,408,-53.31019651,-61.85117365,0,0,42.42868744,-60.17110858,37.07911447,55.86775489,-43.77288657,17.36763207,145.3238294,-884.7960746,0,35.67790206,-253.8397445,8.161599948,,,,
104.5119999,408,-87.59522344,-98.70584667,0,0,27.95523479,-14.45661417,62.12626211,24.66125576,-12.07191793,13.30527116,-241.0613854,-2296.041026,0,-14.22455748,30.18270932,63.59574093,,,,
104.5199999,408,225.6739291,368.8821303,0,0,-71.03749879,14.4809654,-183.0087957,-40.44283048,16.52133683,47.16173445,135.7836479,-1201.327741,0,84.01634789,-84.49837942,-6.837722803,,,,
104.5279999,408,-232.0295284,-347.9310438,0,0,115.0549056,-99.83282908,193.3159771,100.0263514,-65.43254462,8.974710848,-83.25119357,-1568.217587,0,-7.102861522,-189.4085528,69.15597244,,,,
104.5359999,408,184.1551316,332.6046771,0,0,-72.44502576,33.49699931,-181.9303788,-67.39124836,69.7622063,27.4884279,-88.85609181,-2045.487112,0,37.8847624,102.5361867,7.44458271,,,,
104.5439999,408,-27.71540195,-37.57492472,0,0,62.25343192,-94.74377506,32.9656137,62.09903774,-28.2050674,28.45918413,149.9379657,-878.6706893,0,43.76211798,-250.2050015,23.4829982,,,,
104.5519999,408,-77.43195659,-86.90536646,0,0,58.77580165,-63.30778463,64.13798848,35.96122349,18.61917504,26.11258885,-243.4168872,-2300.533371,0,-9.618261605,25.95464192,83.0152111,,,,
104.5599999,408,233.3713487,386.2417448,0,0,-57.94181254,-36.99178685,-194.4319093,-44.50057383,49.78145971,47.10473812,127.1243669,-1225.080286,0,81.24503414,-79.37530744,-5.639786558,,,,
104.5679999,408,-229.9437386,-345.3049573,0,0,123.6122297,-159.3219101,190.7735461,92.83881706,-49.89993237,4.200290381,-81.99386744,-1552.257022,0,-14.9166498,-186.3919506,65.85787546,,,,
104.5759999,408,174.5857262,321.1452387,0,0,-65.04693291,-23.64362066,-176.5364628,-74.33033834,74.71543714,14.08031461,-92.70070029,-2058.658007,0,23.09698499,112.3430117,0.454373364,,,,
104.5839999,408,-32.52451233,-34.75463184,0,0,59.15940966,-133.109565,22.62888568,50.44522703,-19.36642667,17.30837778,154.332662,-875.0853065,0,33.86846308,-243.0363676,10.56292877,,,,
104.5919999,408,-92.40350509,-103.3090821,0,0,56.3150149,-87.0341023,59.52712625,31.43617997,28.58613838,19.23608025,-238.0251259,-2288.965074,0,-19.19689943,30.30155902,70.38033342,,,,
104.5999999,408,230.8263615,383.7747317,0,0,-60.70658467,-38.81815493,-204.0495622,-43.69905462,66.34632474,41.47103377,129.5543146,-1234.289777,0,76.17840968,-69.95845691,-16.02130636,,,,
104.6079999,408,-220.9004703,-339.6998101,0,0,126.1737952,-144.6926746,184.8443373,101.7531577,-25.83920034,15.59311067,-79.06831385,-1541.793463,0,-8.720511411,-196.3632116,69.25948447,,,,
104.6159999,408,182.4953955,324.3642528,0,0,-67.81263695,-4.26487859,-178.1002194,-60.80569953,101.1417736,31.57723057,-102.3047836,-2082.105755,0,34.06765602,107.0878854,8.887836713,,,,
104.6239999,408,-18.18146274,-21.24224637,0,0,46.41747955,-118.6585507,9.264036108,58.0341292,-2.635676243,27.64672291,151.9133532,-878.3118803,0,55.89421159,-245.450948,13.60337028,,,,
104.6319999,408,-91.67812037,-111.5762329,0,0,52.28147049,-84.88428314,54.43729927,31.24832661,26.53538225,26.29938321,-245.355954,-2292.531567,0,-4.08943094,17.95701524,72.67222458,,,,
104.6399999,408,226.0659872,382.0356847,0,0,-70.68097853,-46.51501756,-219.7450205,-58.45466632,54.90632664,34.36237034,122.4807405,-1250.013604,0,68.61303759,-62.84523071,-28.4107345,,,,
104.6479999,408,-226.9077937,-341.1469329,0,0,122.8973814,-170.1851519,169.5392107,95.37790085,-41.91696876,12.11599052,-74.72998299,-1515.29655,0,-9.817281652,-189.0462001,65.33698854,,,,
104.6559999,408,179.0734609,323.9312976,0,0,-50.19017172,-34.27539863,-177.3260458,-54.66510328,85.33712497,42.58745227,-114.8878748,-2096.694728,0,44.39323542,105.3787503,25.20532313,,,,
104.6639999,408,-25.38480245,-16.96527939,0,0,55.2611183,-140.8154633,-0.562934495,46.96336501,-17.50141969,24.08328049,146.5020933,-875.7821371,0,50.21162816,-245.4865666,13.620272,,,,
104.6719999,408,-112.847769,-134.5823193,0,0,54.65177191,-107.1599328,45.43205292,11.41379577,11.42667192,9.367536085,-242.5119075,-2265.32856,0,-19.91653337,29.11766397,61.12476798,,,,
104.6799999,408,224.9086211,375.0567836,0,0,-69.60833624,-61.25814706,-226.2825841,-80.82234724,43.89809284,22.29351349,121.3044615,-1240.549724,0,65.7789867,-41.54746765,-37.67428299,,,,
104.6879999,408,-229.003528,-354.8386431,0,0,116.2642852,-179.2804737,164.9231294,62.60819499,-57.39606203,-8.958902757,-69.22309014,-1473.162699,0,-19.5334878,-175.6132184,41.46526708,,,,
104.6959999,408,179.1368735,308.002485,0,0,-50.09519398,-40.04021618,-164.8917542,-70.56915998,73.14408097,24.5774131,-113.7085927,-2074.461929,0,29.90427906,124.783095,-3.318724002,,,,
104.7039999,409,1.549110996,0.936287147,0,0,68.89191306,-144.2610781,41.01799202,65.24088007,-13.4059954,49.47728327,145.8110914,-863.3981767,0,70.99395719,-251.9507685,19.35427988,,,,
104.7119999,409,-98.15795861,-131.5536687,0,0,66.0889334,-110.3705805,98.36553866,31.33655708,21.6532717,45.77291017,-253.9100887,-2276.400163,0,9.45964169,-4.222643047,80.74005068,,,,
104.7199999,409,239.9128231,386.5335592,0,0,-70.56811842,-61.68374113,-199.7219933,-67.27671699,53.53753283,41.30514788,114.2647154,-1265.309352,0,75.71669233,-56.85961091,-39.66977575,,,,
104.7279999,409,-218.9297768,-349.9158122,0,0,113.2271224,-189.3589969,185.655019,79.17588851,-52.78266088,7.560945506,-62.30241002,-1461.635378,0,-17.26676651,-194.8582306,36.01898636,,,,
104.7359999,409,171.6920707,295.1339185,0,0,-60.16701478,-54.78962065,-160.319735,-82.92916537,74.22550904,22.13469465,-111.688427,-2083.368712,0,19.14656262,120.6945253,-16.82277979,,,,
104.7439999,409,1.426775549,-0.623859016,0,0,51.41767423,-157.9551204,16.48888334,35.2818495,-17.04100415,25.07374248,165.3694128,-835.0942359,0,45.98943696,-230.0969836,-12.30754866,,,,
104.7519999,409,-102.3493013,-148.638514,0,0,56.71579216,-127.0705262,88.74046161,19.14089993,9.67610342,16.733859,-232.7826201,-2234.394266,0,-22.7796265,19.31165873,50.63977125,,,,
104.7599999,409,244.887152,395.1732461,0,0,-66.99218905,-69.34064257,-190.9011332,-67.34202719,47.8946045,31.9016578,119.7867639,-1258.02791,0,65.66193968,-35.84695757,-51.91082468,,,,
104.7679999,409,-218.4728371,-336.6450529,0,0,124.3277152,-187.896033,212.0668952,83.91335789,-51.3980041,20.06573383,-58.66162002,-1441.236094,0,9.812293853,-197.0393337,42.31143778,,,,
104.7759999,409,156.306792,275.9070484,0,0,-73.7079994,-48.60872483,-148.3520478,-99.14253928,70.68804738,10.77885049,-111.1918586,-2083.961522,0,33.53548192,124.8727777,-28.09574653,,,,
104.7839999,409,4.040181791,-1.423302494,0,0,34.74750099,-144.2182948,12.16970018,19.76822073,-31.58778358,-3.112870121,176.1379543,-798.9955695,0,31.86598408,-211.7289201,-41.05458999,,,,
104.7919999,409,-89.62183276,-137.4215019,0,0,75.86349972,-99.30811104,119.5851784,43.46196364,-3.183872255,29.77665865,-238.5292589,-2214.959589,0,-8.872873639,6.253917394,67.19220791,,,,
104.7999999,409,261.1314888,401.0526644,0,0,-62.25903432,-29.03203035,-178.9071424,-60.57087303,50.96075495,46.55350651,104.9874615,-1289.906135,0,84.32951173,-66.24831673,-28.62277934,,,,
104.8079999,409,-212.9052499,-347.7083424,0,0,115.8298865,-150.8596203,194.6585796,74.84244091,-49.65173249,-6.468672263,-47.94390699,-1416.071937,0,-25.55492252,-211.3920787,22.42405621,,,,
104.8159999,409,165.087992,280.056456,0,0,-57.21617483,-12.69007981,-139.7293976,-72.57914388,70.30187465,16.84326359,-111.4611733,-2087.092127,0,16.02782296,114.7093901,-17.82156728,,,,
104.8239999,409,24.7632089,16.48775203,0,0,47.43128101,-111.7856048,27.11878946,42.58510823,-28.17897645,30.71124873,170.1174081,-817.9977347,0,56.06038029,-242.6114604,-10.11650689,,,,
104.8319999,409,-99.57522939,-160.9131062,0,0,66.80719098,-78.00651673,117.107029,34.37053756,-11.78446196,21.20060258,-234.454753,-2207.512004,0,-23.88041612,-7.995388555,49.75155496,,,,
104.8399999,409,248.6506492,390.8969391,0,0,-78.19207126,-16.01480811,-193.9743495,-76.56235972,26.81637238,34.08438858,110.7315511,-1284.29771,0,63.92233175,-52.13430419,-52.57536561,,,,
104.8479999,409,-218.6996492,-348.3218415,0,0,111.250105,-160.3912389,188.8410353,66.67011085,-80.79001658,-2.55279822,-38.2220155,-1384.905848,0,-12.73372297,-211.7976473,20.71148448,,,,
104.8559999,409,153.9124786,264.251804,0,0,-59.99780976,-35.91217644,-145.875722,-84.88503659,44.32894009,4.316707617,-108.3956961,-2080.514287,0,10.88115347,122.6288652,-34.34821747,,,,
104.8639999,409,22.13857912,13.41803545,0,0,38.75721778,-139.3537065,14.22013417,27.67585938,-44.95105101,21.16518774,175.8475419,-797.8253362,0,46.16660829,-231.7474966,-28.13337166,,,,
104.8719999,409,-103.1166578,-171.6547127,0,0,71.93738727,-118.0448628,121.3083449,30.04899735,-20.98149622,17.88028608,-230.1196068,-2181.464393,0,-22.85648144,-6.785999753,46.50774914,,,,
104.8799999,409,265.0150639,399.9361821,0,0,-63.54879605,-46.61178936,-187.4323979,-71.36249138,24.34002314,31.44452427,110.1188857,-1285.507043,0,57.25016619,-43.92032859,-56.54337096,,,,
104.8879999,409,-197.7698624,-332.5553998,0,0,128.035059,-179.1338508,208.9125492,90.03995127,-87.04418497,20.97406474,-47.97219339,-1380.645831,0,-7.182473885,-233.4197613,37.99800171,,,,
104.8959999,409,170.0030629,272.4769297,0,0,-45.79776113,-41.38952015,-117.3382762,-63.32998647,35.85667688,35.33761495,-134.3601403,-2123.477105,0,23.99698014,85.07488653,-7.571055164,,,,
104.9039999,409,38.96639607,29.84033009,0,0,43.04474779,-123.518325,14.75451226,24.19523491,-52.34331263,20.98452963,173.3326955,-811.1141062,0,45.88294464,-250.896228,-36.01753887,,,,
104.9119999,409,-110.5104349,-175.0157789,0,0,74.09215766,-105.615856,115.5134031,23.51031131,-28.0700055,11.04675051,-225.6392426,-2171.956488,0,-23.348386,-16.93446479,35.4878262,,,,
104.9199999,409,269.0752382,407.0486038,0,0,-67.05373787,-36.58732632,-195.0269364,-74.24623922,27.04054076,40.92190478,103.941845,-1310.125982,0,59.56835421,-52.73622264,-50.93925442,,,,
104.9279999,409,-196.5469185,-335.2811557,0,0,118.6140468,-165.5563295,199.000431,79.4397429,-80.02242572,8.456481417,-36.0833094,-1361.297796,0,-18.83072274,-237.100949,22.64742738,,,,
104.9359999,409,145.0077452,254.5464101,0,0,-59.0828719,-42.53320051,-127.2874155,-81.58004069,45.23128123,7.022920127,-122.7223669,-2106.618315,0,1.792384015,106.1832907,-31.19274234,,,,
104.9439999,409,31.81287383,40.57664084,0,0,42.70969403,-133.7710985,13.30012357,29.59984592,-41.4207717,23.12115208,178.4422793,-793.8148328,0,31.31122108,-240.213958,-28.08791396,,,,
104.9519999,409,-118.7548635,-179.960812,0,0,81.65247998,-103.0320352,132.1009016,42.62967513,-21.72368838,20.96907551,-233.7923003,-2171.802019,0,-23.38364888,-36.61709707,57.6757495,,,,
104.9599999,410,253.0213964,402.4720073,0,0,-84.01034133,-18.47868933,-208.6713519,-86.87059728,36.64113246,18.16431144,95.05378732,-1323.964515,0,58.20816619,-52.68294477,-62.81044705,,,,
104.9679999,410,-197.0501742,-322.55967,0,0,120.1524874,-135.6872639,184.4546847,82.09585763,-70.82747413,1.872986465,-38.57845793,-1338.114552,0,-14.82048042,-238.9280684,17.23881982,,,,
104.9759999,410,147.3018589,261.8143754,0,0,-40.12963296,4.045686259,-123.1551904,-61.85320355,53.71368758,31.55523543,-146.6815608,-2142.519389,0,30.38802849,80.2939281,-3.367115466,,,,
104.9839999,410,29.97770559,50.53920147,0,0,36.39464221,-89.96056592,-8.223150609,25.6179018,-30.00370864,17.65461462,172.2626688,-809.85666,0,50.65292328,-254.8607597,-29.78826786,,,,
104.9919999,410,-121.5709134,-182.0354918,0,0,80.2820108,-77.38335614,118.2015661,47.81814158,-12.01457811,16.31957792,-228.0742885,-2160.748414,0,-18.06246021,-40.11902981,54.38560423,,,,
104.9999999,410,258.8278561,414.5196352,0,0,-74.14252732,6.96030527,-203.511747,-73.3860082,47.07866154,39.10080031,90.07177426,-1355.370639,0,77.74657626,-57.71674011,-38.31034307,,,,
105.0079999,410,-190.6723474,-311.3824343,0,0,133.198283,-113.4903022,203.4995094,100.2674645,-64.88314422,14.90232324,-34.59663217,-1339.68545,0,-1.609354658,-253.0870013,39.44715325,,,,
105.0159999,410,156.4912956,255.0088474,0,0,-34.43589273,17.92202721,-99.93785975,-40.41455749,57.2369572,41.5460793,-154.1743337,-2174.701489,0,27.13361232,64.73723082,18.41793426,,,,
105.0239999,410,35.48641035,48.24661969,0,0,17.06247346,-75.1098152,-5.294615551,14.74847336,-23.23194807,11.99009996,170.5494246,-825.7711685,0,35.00823563,-261.1191244,-26.74790827,,,,
105.0319999,410,-132.1834166,-197.2398327,0,0,65.94614223,-70.27059562,118.0489497,28.44997644,-8.254969343,-9.06885265,-216.4365358,-2130.55574,0,-54.97457783,-25.45904048,34.49056635,,,,
105.0399999,410,259.3208167,412.4356632,0,0,-75.26994268,1.329257781,-208.8749002,-73.04219411,47.09165159,29.94349168,93.61872151,-1350.459695,0,51.66254137,-38.90545446,-41.02669746,,,,
105.0479999,410,-209.8110936,-325.237502,0,0,118.8969993,-132.4494241,192.697451,82.09475727,-71.38531411,-1.622809757,-30.65761798,-1312.291767,0,-13.96781673,-250.3009381,36.753649,,,,
105.0559999,410,135.166156,239.5569569,0,0,-43.77611618,-1.645625373,-109.0512833,-67.41031414,52.77808927,9.72642247,-149.5273227,-2148.736476,0,7.146971242,88.89872963,-6.119788943,,,,
105.0639999,410,51.00556411,66.37371293,0,0,34.21469997,-77.31126404,-9.457356795,21.83899463,-21.30876441,23.80917182,173.4724334,-804.5582931,0,49.28643031,-252.288111,-17.63937531,,,,
105.0719999,410,-136.2909209,-202.2946914,0,0,87.36480614,-61.64421084,127.9082941,41.10450264,-15.03783445,13.34230971,-228.5376897,-2132.580577,0,-24.35681549,-50.1954194,66.66419536,,,,
105.0799999,410,251.5178661,411.1493218,0,0,-71.38718614,14.05088234,-214.1536619,-84.2385452,35.94083677,17.55922516,81.10436547,-1373.619913,0,49.03077614,-43.36825075,-45.5206531,,,,
105.0879999,410,-206.722608,-322.846797,0,0,126.7042207,-119.5575784,186.0547378,85.08189101,-75.83095952,-3.682594534,-30.09439651,-1297.104079,0,-19.92786215,-255.3884893,32.18087883,,,,
105.0959999,410,129.6065529,230.9839264,0,0,-27.3481686,10.79955456,-101.1561234,-45.0544235,54.54143256,21.79171155,-161.6153392,-2165.672433,0,14.15506083,80.42303665,12.24628246,,,,
105.1039999,410,51.37253602,67.46966381,0,0,31.026095,-77.01935648,-14.45726665,21.55533851,-22.65870976,9.888644684,172.2830982,-803.1324285,0,41.56051976,-247.1290295,-27.84754976,,,,
105.1119999,410,-143.7839299,-215.2850107,0,0,80.87223119,-82.04037704,135.5583395,39.55918973,-19.13220691,-1.068577086,-224.3255054,-2107.444281,0,-40.4959607,-44.24930227,49.37227222,,,,
105.1199999,410,246.1855094,416.25782,0,0,-71.27358171,-2.364003015,-200.987365,-73.03744238,39.45073153,32.98025452,68.57359472,-1390.399042,0,55.56065704,-46.67796506,-31.48971287,,,,
105.1279999,410,-208.435264,-319.7020743,0,0,117.9731417,-120.0186094,176.0246862,76.12777123,-75.72608052,-3.172686781,-29.49373828,-1280.205777,0,-20.85977288,-263.8618858,28.98045682,,,,
105.1359999,410,122.8785457,215.0523426,0,0,-40.90132208,25.88685921,-120.7676791,-68.03620527,46.46282137,6.29421521,-157.6043323,-2153.523271,0,-8.70488711,88.34848799,-5.602830537,,,,
105.1439999,410,49.40148227,67.116421,0,0,20.56007563,-54.33776507,-26.58148202,7.161430665,-30.24695498,9.407740843,176.2251149,-782.4787655,0,32.3848231,-239.7073337,-24.14764847,,,,
105.1519999,410,-149.6930456,-230.3273343,0,0,70.05045608,-65.27948281,129.3267819,25.65357591,-21.96995254,-20.06547389,-211.4511631,-2057.448263,0,-58.05013676,-30.25457062,40.2043485,,,,
105.1599999,410,256.750154,412.0974898,0,0,-84.45050409,8.159352938,-213.0978506,-84.78129177,46.697258,8.586260335,86.15029156,-1348.37918,0,27.13523371,-10.9787586,-50.14468418,,,,
105.1679999,410,-196.1029174,-316.5287606,0,0,112.8865497,-130.3040172,183.7177149,78.64716135,-65.97451737,-2.800815304,-13.49357531,-1216.927643,0,-30.02627564,-246.706499,33.06163451,,,,
105.1759999,410,124.089951,207.2886917,0,0,-42.77032101,-6.602450941,-112.6317831,-69.53415073,53.74122301,0.20630679,-159.3073113,-2122.400309,0,-19.07439243,98.44399473,-4.836339684,,,,
105.1839999,410,64.90808359,81.6736619,0,0,30.14508148,-94.29028647,-34.34438865,10.66900206,-21.33733303,6.883753443,173.1502258,-753.0441391,0,21.66145269,-232.7085828,-24.9881567,,,,
105.1919999,410,-144.0820029,-226.5525976,0,0,91.48012878,-101.5902143,140.9006464,39.03830959,-12.21955568,-7.590206299,-218.9979035,-2031.131393,0,-56.08803488,-40.78703022,56.4131935,,,,
105.1999999,410,259.1870692,411.3979847,0,0,-78.24366947,-14.94233414,-214.2230938,-88.36858685,55.17711584,7.858949184,75.69464177,-1348.067966,0,25.88039636,-11.24924808,-42.88042096,,,,
105.2079999,410,-196.3889942,-319.5074894,0,0,121.6829704,-150.9848449,173.4303175,79.34801441,-68.99049084,-7.68888638,-12.44492899,-1180.874771,0,-29.58811229,-246.6603495,37.00006584,,,,
105.2159999,411,117.8809874,197.9304231,0,0,-35.4751738,-18.12576058,-108.203632,-62.57503478,43.84060333,0.13497725,-162.4577561,-2109.260742,0,-11.03773817,100.5817852,2.114991726,,,,
105.2239999,411,71.7029843,87.41229635,0,0,19.48438403,-88.83878927,-42.92708157,12.3985339,-25.72480598,4.547730468,180.8934716,-726.0253495,0,29.83737622,-225.2316179,-28.02501042,,,,
105.2319999,411,-151.1132573,-239.9689537,0,0,88.87707949,-91.59653233,127.2682755,52.65205259,-14.82386152,-3.955695098,-214.248244,-1995.587331,0,-42.89262075,-46.01239305,65.47638649,,,,
105.2399999,411,257.6205102,400.8547814,0,0,-85.73201044,-1.285536736,-233.3211427,-86.63535963,50.70489498,1.752294957,67.88330014,-1344.105135,0,33.21706945,-14.5079183,-41.90930568,,,,
105.2479999,411,-187.8152749,-316.3104819,0,0,117.4220861,-137.8067151,166.8693037,85.22428014,-75.80395544,-16.85466998,-17.99875916,-1144.432828,0,-33.00250703,-256.1939203,29.27740461,,,,
105.2559999,411,109.106425,197.4652036,0,0,-27.73571615,-2.105484957,-95.78257088,-40.30867077,43.92947311,22.73090819,-189.4577705,-2116.121095,0,7.155922554,79.20679103,27.93603001,,,,
105.2639999,411,54.28382732,81.24841623,0,0,-1.704770582,-73.5537867,-53.49179146,-9.29900246,-34.03265679,3.726272272,163.8529344,-715.3781862,0,39.48176325,-232.9757348,-31.03646697,,,,
105.2719999,411,-179.4845261,-259.8320116,0,0,60.32778622,-86.94082163,117.4261285,13.04956488,-48.26867628,-45.01537025,-211.9222976,-1925.775308,0,-69.93427117,-26.90765587,21.52046719,,,,
105.2799999,411,242.3477437,414.0168529,0,0,-97.76347342,13.18396973,-225.3597666,-93.39211666,20.16031625,4.412085034,58.04375063,-1308.725465,0,39.7051294,4.463410635,-43.1914416,,,,
105.2879999,411,-196.2701415,-311.159318,0,0,98.5310744,-119.3268512,170.3954657,74.18477507,-104.197444,-12.4770147,-15.81943067,-1082.298344,0,-16.37887042,-244.3575876,26.85723381,,,,
105.2959999,411,95.52396683,178.8628467,0,0,-47.07949258,3.596791509,-98.8859066,-58.94252114,6.62223782,-13.50323782,-178.5829171,-2052.211751,0,-14.67667125,115.7953783,-2.621637426,,,,
105.3039999,411,62.46257204,101.3675149,0,0,8.236924893,-64.06032705,-43.43475078,14.24907491,-57.18959565,11.76546709,162.740943,-673.686054,0,48.95638669,-221.8169483,-11.68570311,,,,
105.3119999,411,-169.7043574,-252.382569,0,0,89.58485966,-75.73135919,143.5207916,54.57949784,-53.49949714,-6.431457448,-227.9117695,-1907.674991,0,-32.40531354,-56.53992729,66.0368746,,,,
105.3199999,411,252.8042923,415.0733892,0,0,-83.32222732,20.35024905,-229.4417692,-80.36375132,14.26867545,13.99081828,44.41524503,-1318.652341,0,48.93955939,-7.027900099,-28.15364274,,,,
105.3279999,411,-191.5975278,-305.5643079,0,0,107.5380457,-115.6768523,152.1917935,76.83963454,-115.7647421,-4.074501488,-19.43625666,-1061.495224,0,-14.91719869,-260.9771097,42.7234521,,,,
105.3359999,411,87.15571319,162.5313882,0,0,-44.30252134,-1.246003478,-108.9120531,-71.19727842,-3.603392807,-13.49200275,-188.7338529,-2047.923303,0,-14.30039515,101.6981727,4.841487987,,,,
105.3439999,411,65.4906695,97.02951722,0,0,-3.893131383,-71.87919042,-66.39982192,-12.52761989,-76.49121361,-17.4397466,168.1286087,-641.7494534,0,28.78642706,-208.1878032,-33.94235233,,,,
105.3519999,411,-183.9830476,-266.889343,0,0,78.17136911,-77.31113655,130.3395455,37.76245805,-81.62296647,-28.61545985,-218.2300212,-1853.596311,0,-54.93336027,-42.44153304,54.16115482,,,,
105.3599999,411,231.8780967,403.6792776,0,0,-98.91284717,21.99077629,-240.4900965,-98.0198833,-7.945659451,-4.942082942,48.14289165,-1290.815017,0,32.47700518,15.0718219,-37.71014935,,,,
105.3679999,411,-198.4086276,-306.843291,0,0,100.4709616,-116.5333252,149.1110071,77.35443148,-140.064322,-19.32852939,-16.49626902,-1011.467261,0,-22.42474503,-254.3631027,39.00255218,,,,
105.3759999,411,81.77701307,159.9875862,0,0,-34.30260747,14.96035422,-93.06341431,-39.99298755,-21.73936104,-1.582108175,-209.4552441,-2049.246553,0,-1.417216288,85.19529425,33.26272439,,,,
105.3839999,411,68.7792686,114.6006538,0,0,-0.765641668,-57.01831093,-65.40390234,10.55272514,-77.68708257,-2.100847558,153.7735872,-651.6230293,0,44.3656864,-224.6711645,-13.83026928,,,,
105.3919999,411,-189.1238358,-272.7400541,0,0,68.0768077,-95.77007116,129.2268175,42.07206588,-78.73327782,-18.84105878,-228.4064623,-1847.042186,0,-51.48278642,-63.93336513,58.1963531,,,,
105.3999999,411,235.913136,400.4575313,0,0,-109.1820697,-2.025859145,-238.041942,-95.37815846,0.922198018,0.70818327,33.27553989,-1306.112798,0,34.31411438,8.377407579,-31.92037671,,,,
105.4079999,411,-186.9041409,-296.7017973,0,0,98.89865751,-139.2266571,151.315585,78.18745051,-124.1989749,-19.06046267,-14.55862259,-985.7152975,0,-12.85117545,-254.5894993,45.27835349,,,,
105.4159999,411,80.24856617,150.3764004,0,0,-42.0308528,-15.43125571,-96.30546281,-55.58163491,-6.77096294,0.764042878,-213.1981827,-2036.500184,0,5.65182654,90.72025824,31.52713192,,,,
105.4239999,411,79.00465225,112.5994152,0,0,-4.603462863,-81.46960094,-72.49665753,-0.47548879,-68.2233141,-9.001148206,155.6618818,-621.8859777,0,43.45764669,-205.2042393,-23.4007876,,,,
105.4319999,411,-174.5154347,-272.7600379,0,0,97.78151503,-108.7661418,157.0788407,72.61990786,-74.33175952,-14.85047935,-230.9471243,-1811.28174,0,-38.3709225,-65.38036152,81.01962162,,,,
105.4399999,411,253.3409988,412.223675,0,0,-78.32950842,-7.061232415,-203.8053355,-58.88314097,13.25259261,33.55164986,11.66569587,-1331.776033,0,66.9982235,-17.24200917,8.40760051,,,,
105.4479999,411,-178.0823197,-294.2601042,0,0,108.4464682,-151.7295862,166.6740159,83.76182616,-104.9540654,-7.317823583,-15.36270835,-969.6474711,0,-5.28851079,-272.2517915,45.84503598,,,,
105.4559999,411,78.21428198,141.8017897,0,0,-34.77592934,-30.71267061,-78.94215487,-51.49341411,14.74427532,2.511346204,-212.2100699,-2024.886205,0,-3.335662172,87.08894842,32.10659053,,,,
105.4639999,411,80.522471,112.9947937,0,0,-13.67417394,-80.42494132,-72.06140398,-1.723277536,-46.32989884,4.676888133,150.1967022,-626.030413,0,52.97787202,-224.2180782,-11.17695093,,,,
105.4719999,412,-190.4624383,-302.7120562,0,0,72.4434616,-97.60908474,139.4747673,43.26110769,-61.83388783,-43.60856181,-221.3413792,-1771.780002,0,-55.71098353,-68.56199217,47.78300386,,,,
105.4799999,412,242.9880112,400.2473955,0,0,-96.58011592,20.34450886,-218.5339978,-86.51874339,28.0725637,-2.148125156,26.58137045,-1290.942034,0,38.039791,14.65923225,-24.97836547,,,,
105.4879999,412,-183.3569342,-296.0374878,0,0,96.63375891,-105.8798281,165.7700366,77.14697911,-87.63981822,-10.71171728,-4.752287431,-918.5923435,0,-3.904787976,-265.4425845,47.47641302,,,,
105.4959999,412,62.85599757,115.3080657,0,0,-50.07819134,4.277369055,-82.19539316,-66.36098757,27.48642926,-24.2318324,-207.0269846,-1984.313409,0,-20.22119796,99.70628911,13.13265292,,,,
105.5039999,412,87.55368751,128.1226944,0,0,-13.14532961,-62.91458296,-73.47095152,-6.187280566,-23.35324764,-13.74375136,167.3725385,-560.7550151,0,34.44550229,-187.9046012,-23.2503581,,,,
105.5119999,412,-175.2515137,-276.8068348,0,0,91.2223319,-82.21713995,161.6749224,68.68716533,-30.61558441,-5.645357394,-212.9768971,-1713.694371,0,-28.51468131,-64.94701619,87.72499195,,,,
105.5199999,412,254.7419355,408.1693074,0,0,-104.794849,29.95054125,-226.267264,-87.92348339,50.91936839,17.13418976,24.37550071,-1274.525131,0,54.90218713,13.22133583,-10.26550012,,,,
105.5279999,412,-175.7827773,-287.1905721,0,0,84.62504564,-104.635546,135.3736405,69.85199059,-78.09090684,-16.26039352,5.273933397,-863.5171365,0,-6.846297556,-264.5712537,36.21532514,,,,
105.5359999,412,62.47212112,121.3062162,0,0,-46.78533575,12.10513506,-102.4301267,-56.59673994,37.03437584,-9.607120012,-208.4926653,-1960.809197,0,-8.190874783,88.16619419,25.0289182,,,,
105.5439999,412,83.38065495,127.8970252,0,0,-29.9308781,-58.13416846,-110.9520745,-23.13557926,-13.60290621,-13.71012725,173.2412815,-535.2835342,0,33.4320951,-191.5498899,-35.06775656,,,,
105.5519999,412,-199.1485062,-308.4343128,0,0,72.02646028,-98.16733116,130.9137539,40.81050895,-31.35384468,-31.13453002,-195.6348211,-1646.942835,0,-48.51403383,-54.17715555,52.63591383,,,,
105.5599999,412,501.1464289,803.5260894,0,0,-226.6007188,68.77136048,-476.2712651,-197.2226091,103.6165481,-9.06722315,178.2891738,-981.1784407,0,81.96462866,111.7199191,-102.1217441,,,,
105.5679999,412,261.1633443,396.0251209,0,0,-97.43392458,-48.44614328,-254.1178932,-73.93134043,-7.183595873,-28.07641294,395.4514103,125.8665485,0,74.07122654,-233.1266488,-104.3276488,,,,
105.5759999,412,179.2365521,291.4763397,0,0,-89.09606628,-4.828045516,-196.3191795,-87.88742823,40.36837191,-21.75152497,2.363155178,-1294.632493,0,20.96686112,36.46436132,-32.61188768,,,,
105.5839999,412,136.0153191,206.9292824,0,0,-54.87807714,-52.17765927,-147.7887988,-49.37458236,-9.436419155,-25.86220223,168.103663,-588.0341184,0,33.64873629,-136.1182776,-48.19597018,,,,
105.5919999,412,-274.8249538,-433.5340128,0,0,115.3801318,-132.2259845,212.0900737,76.99990038,-71.64047988,-36.23295536,-206.9685239,-1539.921398,0,-60.80895099,-109.0814313,68.23933382,,,,
105.5999999,412,199.0004056,328.8044869,0,0,-77.14613005,-6.789750481,-190.3331955,-80.37242897,49.78769938,0.647607101,-68.00234328,-1507.920301,0,28.73070065,83.90710734,-5.389742447,,,,
105.6079999,412,-36.76820663,-76.1096059,0,0,58.6355664,-122.4512001,38.67717625,50.22641548,-41.14800598,2.781819739,107.9998289,-548.5353554,0,36.39278405,-240.208928,18.96799827,,,,
105.6159999,412,-126.6615549,-195.0662627,0,0,56.35055574,-77.98066981,93.16858336,29.58320162,4.608756137,-2.62128164,-260.0159155,-1881.85305,0,-19.80371622,10.8825714,79.12315582,,,,
105.6239999,412,231.5314877,357.0923565,0,0,-89.8279889,-7.092844958,-218.334256,-80.00285133,39.12735832,-9.229970953,106.8625032,-888.9462985,0,50.66207357,-37.02641848,-44.25845709,,,,
105.6319999,412,-189.5871706,-328.2363105,0,0,108.2996443,-113.7582556,163.3112941,78.92945389,-67.3246455,-17.0912035,-65.11299999,-1053.564656,0,-25.20824216,-192.8622553,48.78834331,,,,
105.6399999,412,110.8832003,177.1975399,0,0,-41.65573168,6.790389618,-106.9628344,-51.69768127,47.45773277,11.56958642,-161.2313415,-1756.288515,0,7.229513364,86.51141041,33.38669818,,,,
105.6479999,412,50.96049001,66.79002644,0,0,-2.524987426,-69.87307409,-51.06604926,-4.304062892,-12.93434177,-6.082767187,150.9679753,-516.1286804,0,31.81828176,-189.2385484,-14.6440955,,,,
105.6559999,412,-176.735617,-273.2514449,0,0,67.72844923,-89.22893882,131.8697441,29.16409314,-21.20708899,-22.79898876,-204.7196514,-1642.583505,0,-50.93643909,-26.60963133,55.86065764,,,,
105.6639999,412,230.9017823,368.7617995,0,0,-102.0545615,6.9103171,-212.0476359,-94.91990741,41.73348336,-8.678711861,55.26779391,-1087.506579,0,24.1879204,28.04472205,-34.87518557,,,,
105.6719999,412,-171.2122369,-295.6214675,0,0,87.40678816,-121.3617307,152.1532522,70.63317698,-78.45588552,-28.91646791,4.982488245,-804.6093242,0,-31.3632219,-210.3751587,29.14451995,,,,
105.6799999,412,64.24990046,109.4506614,0,0,-34.13144988,-11.15898139,-68.75785135,-44.02218113,30.45160156,-2.576086195,-190.14048,-1798.505876,0,-11.87488308,111.0324897,29.05578225,,,,
105.6879999,412,88.08453064,128.8004998,0,0,-15.55646767,-57.54978412,-83.03430096,-13.8334958,-17.94912964,-3.538720703,160.0187507,-473.5630008,0,45.41581164,-160.791704,-21.27255733,,,,
105.6959999,412,-186.4506253,-297.6458228,0,0,91.04156164,-85.48829775,142.9795626,52.05560025,-36.81885358,-16.43031759,-194.7634651,-1525.088498,0,-34.42660704,-41.99369107,63.48838171,,,,
105.7039999,412,240.875022,382.5779146,0,0,-94.20487439,29.1788913,-229.5874492,-91.71678012,50.38584742,8.955866864,24.97999225,-1146.761995,0,41.11662369,63.89453013,-25.62838823,,,,
105.7119999,412,-166.9867329,-283.0817487,0,0,82.80869745,-105.6918257,121.8459448,50.85858411,-76.93977206,-33.97525025,32.09787047,-665.0445119,0,-24.9147309,-196.8766181,6.937976775,,,,
105.7199999,412,51.698535,95.54871112,0,0,-18.7136799,3.544396098,-66.99361154,-43.77815302,28.2423531,-6.336075959,-200.1994189,-1775.101775,0,-19.1641432,146.6217654,20.2168391,,,,
105.7279999,413,114.311162,165.8814434,0,0,-3.777996086,-36.34459488,-82.45079296,6.423369832,-11.59426394,26.77568539,158.540371,-426.4539261,0,64.3466344,-145.0685076,-10.28247873,,,,
105.7359999,413,-187.0174938,-308.4044797,0,0,101.0721823,-76.82727883,166.9873922,71.82209928,-37.01379324,-5.744353503,-198.969394,-1468.15622,0,-21.95164048,-47.20284626,61.72647732,,,,
105.7439999,413,254.4013412,398.5193285,0,0,-86.0616595,34.38057759,-208.5173662,-75.8536627,49.33239591,8.821584448,9.848623645,-1150.15217,0,48.43954733,76.51646188,-32.05196335,,,,
105.7519999,413,-147.2618373,-260.0476119,0,0,99.66894763,-115.8628163,155.8416303,85.80979909,-87.65471532,-10.31289174,24.56824969,-619.6191767,0,-1.09116029,-221.6452804,19.98045694,,,,
105.7599999,413,58.01654296,88.26263817,0,0,-6.196033429,-14.95709293,-37.7653484,-23.01541483,18.09760382,7.308800179,-224.0749967,-1795.683902,0,-10.31246141,123.3041126,27.21571225,,,,
105.7679999,413,131.9464537,179.2560993,0,0,-1.108016951,-62.30774486,-77.52236726,4.818459014,-7.003456275,21.93181475,161.7745553,-409.8015836,0,51.8154024,-148.3857838,-21.9641414,,,,
105.7759999,413,-198.1727317,-325.1343186,0,0,99.25592088,-118.6433967,182.0293044,64.36634111,-31.64610925,-13.58080888,-188.7628878,-1423.604845,0,-44.03018666,-50.83861962,51.09282763,,,,
105.7839999,413,239.1097714,379.4221979,0,0,-106.9934899,3.991383676,-219.5450131,-101.5364354,52.6874058,-13.71092614,17.87613353,-1127.749145,0,15.76170841,98.94294756,-56.42940734,,,,
105.7919999,413,-150.1520725,-261.9026882,0,0,91.83523969,-128.9116348,146.1078384,82.6994027,-83.72581296,-26.54217566,47.2382306,-548.5999266,0,-20.86434589,-201.3173224,6.554402622,,,,
105.7999999,413,46.66118941,75.05971707,0,0,-7.894076924,-16.72982451,-20.50588722,-13.77046403,21.49155593,4.525986343,-223.1408277,-1769.888395,0,-6.617504567,129.0621278,37.97622893,,,,
105.8079999,413,128.1293843,178.2102596,0,0,-19.06433303,-54.28883767,-77.03960219,-1.180279005,-14.43701582,2.677201073,161.0561585,-377.2646437,0,48.79765817,-135.2053342,-26.07987607,,,,
105.8159999,413,-204.8111234,-333.8014074,0,0,92.09207275,-121.5396651,185.5701547,74.11894264,-51.23881577,-29.76639634,-187.4537874,-1365.295376,0,-54.5422773,-37.65359841,48.04505854,,,,
105.8239999,413,241.0046236,383.1223324,0,0,-108.2395482,-9.668182014,-214.246939,-86.55304569,45.70663331,-2.501328719,10.39784882,-1114.149953,0,21.3210799,111.3863662,-40.46774288,,,,
105.8319999,413,-147.1200211,-258.6592598,0,0,84.82304882,-142.0753688,139.1922134,75.89237868,-81.11773121,-17.53287717,53.06855819,-507.2113407,0,-17.74194646,-191.905277,15.86622997,,,,
105.8399999,413,35.21103147,48.49894414,0,0,-25.80177637,-37.70969828,-39.66303697,-46.42300522,8.822056915,-21.71159196,-208.0186433,-1724.241261,0,-36.62075575,165.075784,11.73755113,,,,
105.8479999,413,130.6172753,171.34619,0,0,-37.13696659,-67.40941282,-105.9711362,-28.58940733,-39.80997832,-20.88943049,190.9963806,-317.6598399,0,20.49396622,-81.8716406,-58.33967593,,,,
105.8559999,413,-207.6140259,-343.5358251,0,0,94.17366566,-105.6803069,178.4918527,70.50133199,-76.16994101,-24.73259588,-161.5176206,-1297.63348,0,-54.8359997,-6.378412382,45.70415612,,,,
105.8639999,413,238.129537,376.3309461,0,0,-98.69969406,16.05551187,-210.2410907,-87.24133636,20.86667219,0.718844238,16.19847009,-1093.436261,0,24.78056818,136.5299481,-41.26049503,,,,
105.8719999,413,-138.5887889,-252.8997805,0,0,103.1134923,-124.5537723,150.986987,86.89734047,-107.7077978,-8.234065378,54.88953617,-475.4534178,0,-12.87470485,-184.587926,17.14241418,,,,
105.8799999,413,32.01120793,43.08216454,0,0,-3.429179136,-25.58699253,-25.29942681,-27.72151942,-7.339979982,-1.248871563,-222.8866034,-1722.848643,0,-22.83310108,161.1828992,23.39303202,,,,
105.8879999,413,132.5912426,180.654811,0,0,-23.39479141,-64.51349052,-109.2844197,-19.00527906,-42.38821336,-5.383600616,173.747779,-327.6247595,0,39.30446721,-84.51143123,-50.94727158,,,,
105.8959999,413,-204.8284748,-347.7329266,0,0,115.9345739,-109.4009091,184.0455734,81.33266783,-77.62079955,-17.52369176,-174.3595714,-1290.118065,0,-43.85525501,-17.85827078,53.96758768,,,,
105.9039999,413,235.5107935,361.7662566,0,0,-91.8343434,19.58207867,-220.0816433,-94.94442104,22.50738108,-14.90729379,5.645698566,-1102.219385,0,17.55679223,145.2422501,-50.90938476,,,,
105.9119999,413,-146.5232989,-261.7939882,0,0,91.04241439,-117.4206138,129.7343962,69.98711307,-104.0680824,-32.61045342,65.12277302,-433.7575202,0,-22.09155081,-164.3791039,0.617022643,,,,
105.9199999,413,18.49164333,25.5987476,0,0,-10.58231706,-20.45303067,-25.67749206,-35.18368254,-10.24035059,-8.351956072,-218.4101191,-1693.696462,0,-20.34386414,176.2343558,31.5857464,,,,
105.9279999,413,128.9123631,176.56495,0,0,-40.36369735,-65.11838181,-117.989658,-39.05761816,-52.68279287,-13.18093648,175.9489492,-304.6271035,0,39.20756739,-68.33753109,-53.15333117,,,,
105.9359999,413,-212.6169738,-352.3099048,0,0,102.9904651,-122.0984294,194.5533439,74.89200055,-89.29399849,-17.28203606,-173.9790572,-1246.136379,0,-37.46779006,-15.63205153,52.12863622,,,,
105.9439999,413,244.8164097,374.6874775,0,0,-89.13954088,9.874343651,-189.2556395,-77.05839287,20.76029222,8.905666692,-7.812598055,-1101.995382,0,40.67880093,138.8446005,-26.02535122,,,,
105.9519999,413,-116.825446,-233.6067931,0,0,104.1812797,-116.0417117,158.5447194,94.8841006,-107.0221735,-7.228908908,57.67359808,-419.9066916,0,0.241901734,-185.9164693,21.24164667,,,,
105.9599999,413,40.43538073,38.8826902,0,0,7.683048087,-2.276552916,16.18907546,-6.711162138,-6.862751698,25.27167533,-240.276524,-1717.965968,0,13.63219314,134.6418665,57.75596946,,,,
105.9679999,413,148.6820922,195.5257154,0,0,-31.2052891,-35.21521962,-88.91693666,-23.42626032,-22.4672072,9.666532121,164.8206728,-336.4191436,0,71.92773052,-103.0861935,-35.03114139,,,,
105.9759999,413,-206.2739064,-348.9329968,0,0,111.8318079,-109.9089994,203.2721209,77.59058379,-55.89960587,-31.42081564,-156.5670684,-1226.275588,0,-41.25033627,-31.30517191,33.33232437,,,,
105.9839999,414,260.3560305,387.0082347,0,0,-78.31142023,21.31419252,-190.808835,-71.67151982,52.2809546,21.27051344,-2.270561593,-1124.878082,0,50.16127515,121.3124014,-22.40128293,,,,
105.9919999,414,-101.1330495,-220.4099736,0,0,104.5853285,-99.34695651,151.1737299,101.0202945,-70.7517852,22.03996426,64.3507816,-434.1392808,0,33.91856679,-221.23176,43.42939211,,,,
105.9999999,414,27.16050143,16.92735156,0,0,-9.443723857,-8.10993071,-7.728306139,-23.14650485,14.72105835,-4.238809531,-224.8379373,-1712.303501,0,1.356777677,128.0516826,28.43548774,,,,
106.0079999,414,145.8859909,195.2563155,0,0,-46.46120635,-43.78615051,-124.0459759,-37.02981196,-21.42921152,-22.71216838,179.862777,-321.5164649,0,46.24326884,-91.60911664,-63.60291558,,,,
106.0159999,414,-201.5411004,-343.0985847,0,0,120.5547867,-108.403294,204.3064897,101.717946,-57.44345108,-23.5024645,-152.4683012,-1206.376855,0,-31.20661051,-46.83117518,54.58161379,,,,
106.0239999,414,261.1938298,383.89592,0,0,-82.9292342,14.30626253,-178.6104322,-57.97949639,59.55048517,17.38377722,-6.070753016,-1137.883077,0,59.11571879,113.9426977,-9.620193441,,,,
106.0319999,414,-110.8516105,-228.971185,0,0,76.29023517,-119.4710505,148.1764079,81.8949139,-73.0086524,-2.009855786,73.65333822,-405.4077859,0,22.66379007,-215.5221606,30.38176123,,,,
106.0399999,414,11.10887061,5.744369056,0,0,-22.59172561,-19.88430378,-5.385191874,-31.58971646,3.973097406,-21.40902009,-221.2052506,-1683.449695,0,-18.4538507,140.155824,17.95193493,,,,
106.0479999,414,153.4402825,206.9110049,0,0,-54.33803783,-20.40639622,-120.4629137,-26.28634182,-21.73417423,-20.64448012,177.055304,-315.4174536,0,39.87312083,-86.11293744,-55.38259378,,,,
106.0559999,414,-210.5827551,-361.0698532,0,0,100.2647037,-64.55976433,207.5313002,96.73168452,-55.43647625,-24.50620278,-158.5030077,-1193.843872,0,-32.20323194,-60.22217713,68.2241748,,,,
106.0639999,414,232.9107454,355.1474286,0,0,-112.0836403,56.94331055,-205.5708578,-91.79709283,56.6760514,-14.45842539,-12.93511948,-1139.951981,0,35.20738571,121.805164,-32.61613477,,,,
106.0719999,414,-126.7550287,-234.6452127,0,0,57.24558139,-70.74391901,110.0887524,67.14710237,-77.16383601,-33.58378251,81.05593068,-374.0416171,0,-1.886132813,-203.4454225,5.05938989,,,,
106.0799999,414,-2.493416919,-1.085773026,0,0,-25.78289928,29.06610838,-13.26940353,-22.32392106,6.179718316,-24.54869973,-222.3793418,-1678.15727,0,-23.07128166,139.8866937,29.0935337,,,,
106.0879999,414,148.8630159,211.358628,0,0,-68.49196813,11.18821947,-134.0896063,-39.02812663,-19.88454119,-18.27627639,178.2524906,-317.8851114,0,35.87266412,-82.52494746,-53.94525648,,,,
106.0959999,414,-218.173145,-367.5763271,0,0,81.34372653,-44.00188309,193.0197906,82.57846245,-70.28404264,-30.30932244,-149.1193627,-1161.049535,0,-47.17592404,-60.52126792,58.29821384,,,,
106.1039999,414,233.2027345,356.5402683,0,0,-125.6104902,81.44899725,-208.5380143,-92.34814286,33.73349054,-19.96434809,-8.428086868,-1128.523435,0,18.76191189,132.1777067,-33.44250345,,,,
106.1119999,414,-120.3202702,-227.7003117,0,0,48.34582976,-51.84821971,116.2019577,67.79139121,-104.0075373,-30.6850786,93.56009774,-333.6772853,0,-10.93123532,-195.2060874,9.926181208,,,,
106.1199999,414,-13.72602906,-15.9774018,0,0,-27.20341004,44.74885097,9.680619775,-16.62281637,-23.01610378,-19.67078225,-220.655405,-1655.845709,0,-24.50270683,139.7194135,45.36709481,,,,
106.1279999,414,141.0329279,207.3873812,0,0,-77.49355321,22.02361216,-118.5714578,-42.68495388,-45.35397734,-32.55694039,181.3447432,-301.3676338,0,31.82903471,-73.01460581,-52.74463883,,,,
106.1359999,414,-230.7780269,-383.5996196,0,0,71.05685388,-54.12571172,204.7046735,74.82910463,-101.3726474,-55.04673294,-139.5702185,-1109.451044,0,-63.58819511,-48.66508584,41.52181789,,,,
106.1439999,414,228.0055082,352.945868,0,0,-117.2518573,83.92141588,-189.8928974,-80.87612853,7.833552778,-20.3792862,-18.49687125,-1122.872523,0,12.02429014,138.7620475,-28.96788121,,,,
106.1519999,414,-118.4905273,-220.4104233,0,0,63.83218533,-34.62126597,132.157862,81.44863344,-114.0775177,-20.9633476,78.19118921,-327.5721273,0,-6.234204337,-212.3322146,21.54563181,,,,
106.1599999,414,-20.60760251,-28.20531746,0,0,-17.22613999,53.60745642,14.27757982,-11.67225752,-28.32717203,-34.20895564,-236.9178257,-1650.903615,0,-42.57757525,128.0842524,35.08746318,,,,
106.1679999,414,154.4250338,229.3803359,0,0,-54.53729888,46.00798518,-118.935681,-25.9646158,-44.35992676,-29.94403449,169.8368794,-304.7753449,0,22.67126009,-77.03808255,-47.54789859,,,,
106.1759999,414,-219.7977576,-366.8327981,0,0,106.833772,-18.946359,218.5950095,95.48820392,-88.49212284,-10.49860931,-150.4986542,-1111.798644,0,-35.8700541,-82.90539631,82.04503548,,,,
106.1839999,414,227.1210838,349.0487314,0,0,-109.6013117,111.9332321,-198.252966,-87.58228213,31.12653178,-2.508174688,-22.07705448,-1136.597438,0,28.8554388,124.5616503,-11.17423954,,,,
106.1919999,414,-117.7218563,-215.8469611,0,0,56.26380966,-7.786130724,104.2669213,68.52321543,-99.62022804,-39.32814217,100.877411,-282.6979502,0,-9.350646547,-198.1483991,9.994218425,,,,
106.1999999,414,-135.2037373,-199.2953802,0,0,23.19362592,80.96537636,102.1615016,16.86034345,-15.02794304,-31.31958071,-461.5448292,-2392.094265,0,-71.94634731,258.5780476,97.93894228,,,,
106.2079999,414,-32.50760519,-48.8797514,0,0,-14.42526127,60.9059836,14.12163843,4.369141294,-18.01514498,-32.3407959,-206.6409091,-1529.908393,0,-33.57303577,134.2907115,37.57323535,,,,
106.2159999,414,-452.4736792,-725.822475,0,0,173.5674565,-61.83614448,383.7162772,162.388403,-127.9433891,-52.93327473,-276.37187,-1329.336128,0,-93.44212573,-93.78771659,105.02342,,,,
106.2239999,414,143.6038309,236.0507215,0,0,-100.2803554,123.4649494,-146.4405775,-72.54898397,23.2035231,-25.05400042,-162.9501358,-1548.977254,0,0.574834488,209.5786195,5.044751873,,,,
106.2319999,414,105.228327,149.2161945,0,0,-70.07772879,56.89984374,-106.0095531,-25.73782996,-53.86926514,-38.69634395,222.5014159,-24.15561742,0,42.11502451,-123.7795849,-56.57593632,,,,
106.2399999,415,-224.4198547,-363.1202588,0,0,58.84769974,14.38185884,175.5718915,58.62811124,-100.8604695,-57.00576935,-149.4296276,-1052.855436,0,-56.56605876,-40.12430754,33.0379978,,,,
106.2479999,415,165.825373,254.5448803,0,0,-108.9826707,116.4872006,-162.7936215,-86.53517057,-6.129986483,-36.49597632,-59.6553815,-1118.450178,0,-4.702872396,145.6922503,-33.25245384,,,,
106.2559999,415,-22.62297441,-70.50306558,0,0,-2.169725774,16.22498048,29.75159309,19.19925903,-79.9194615,-45.35857993,127.1961208,-192.6504032,0,-3.270932883,-128.0971273,-22.16127016,,,,
106.2639999,415,-109.2134098,-182.7725534,0,0,22.82153171,38.30984284,103.8603614,25.30127807,-37.04588892,-38.12675265,-177.7526084,-1255.67426,0,-49.6899225,61.66113552,46.8636919,,,,
106.2719999,415,179.8858652,276.4383752,0,0,-93.17721863,95.43620505,-151.8604132,-61.64538898,16.220337,-23.73290428,52.97011284,-684.4953461,0,21.81477539,58.37028496,-24.6724591,,,,
106.2799999,415,-127.9522503,-227.1464626,0,0,56.12935091,0.885257364,128.7824242,61.24560898,-75.67087489,-38.49908743,15.62620441,-469.4179297,0,-11.9822231,-127.5256474,27.11527375,,,,
106.2879999,415,35.00054016,51.81761939,0,0,-40.6278365,81.63895606,-32.72090128,-37.46605382,4.714060606,-17.20233382,-176.9142978,-1376.220652,0,-5.42813907,131.4166039,36.15243206,,,,
106.2959999,415,111.3655201,146.8995521,0,0,-49.48790391,47.30326659,-84.79448788,-22.18110222,-23.60862428,-25.58256579,142.1053692,-246.696503,0,47.19205453,-74.74179711,-27.09248265,,,,
106.3039999,415,-178.4490157,-308.9361337,0,0,66.7772097,12.24349368,176.0503593,63.97412137,-52.53558593,-37.10958936,-147.7424994,-1025.886947,0,-16.74708456,-31.7605575,55.95398979,,,,
106.3119999,415,192.0439569,291.8322576,0,0,-114.1521225,123.123672,-162.4649869,-84.10852072,42.28129468,-16.69486662,-19.78983655,-950.0573603,0,48.14831165,119.4304109,-15.3486797,,,,
106.3199999,415,-105.7625917,-205.0277243,0,0,38.31050028,5.087683598,108.2913683,56.31603153,-73.3685609,-49.72943205,73.79620834,-245.6609252,0,14.08928288,-154.3949905,3.563400033,,,,
106.3279999,415,-23.2455462,-50.17018792,0,0,-21.66768048,89.20355422,15.65993265,-14.46786,-4.192222381,-37.72685661,-226.2974351,-1453.188906,0,-8.718475743,133.0846806,35.32452712,,,,
106.3359999,415,134.9054317,186.8931316,0,0,-82.7101217,86.04525035,-134.4983246,-52.104289,-17.29727433,-40.48262575,141.9596909,-237.888752,0,55.03258681,-43.58639211,-46.05901791,,,,
106.3439999,415,-230.1520605,-390.4687048,0,0,67.76109751,5.374486109,179.6394353,56.15946828,-82.65839138,-70.97233217,-139.5143223,-905.9413765,0,-34.28068171,-39.58517732,34.20485622,,,,
106.3519999,415,198.7559807,302.9389388,0,0,-113.2597844,122.4468767,-186.4903598,-91.44566731,28.8006494,-37.72882106,-49.19879699,-1013.301133,0,22.45408614,162.2706819,-32.51080558,,,,
106.3599999,415,-113.1833182,-200.2077266,0,0,38.067825,7.506846196,88.13806929,48.14303708,-86.4594411,-42.37523977,81.76951701,-149.3243807,0,2.26752286,-169.7611824,5.349330488,,,,
106.3679999,415,-59.46549379,-85.95137676,0,0,-26.49942024,88.71131389,4.958081726,-38.65201816,-28.28275943,-54.77449336,-248.1657269,-1457.213028,0,-48.05607931,150.6107979,23.66727068,,,,
106.3759999,415,162.1843744,235.4285397,0,0,-72.3368499,85.09066285,-152.5872761,-50.38366588,-31.86139831,-48.66793204,146.5722709,-194.3811287,0,17.40848677,-10.55702566,-65.19115249,,,,
106.3839999,415,-230.0668899,-378.3679907,0,0,107.3318797,20.16953641,215.0506986,106.3036478,-81.81373159,-10.26562989,-155.7687788,-880.6848947,0,-17.48416492,-69.87352154,87.84436428,,,,
106.3919999,415,191.9725585,305.3041817,0,0,-114.6126129,166.9305021,-178.0932301,-87.27102124,35.74064498,-6.032019393,-75.55876266,-1055.222689,0,33.01489983,154.8163124,-1.083895981,,,,
106.3999999,415,-108.6538074,-201.9337628,0,0,31.19930153,42.30839153,89.47892778,40.44641999,-90.18055096,-64.91183371,97.15451619,-76.14661515,0,-23.65202266,-155.5596,-21.10954313,,,,
106.4079999,415,-59.43473441,-88.96038693,0,0,-9.897332069,118.3832189,34.42000079,-11.97797265,-21.18513407,-30.13842092,-258.1434723,-1447.879753,0,-40.82849071,148.0901981,45.32932295,,,,
106.4159999,415,156.4153525,236.0091095,0,0,-89.99911185,112.3091713,-161.4549338,-59.38492253,-17.36745507,-26.88268098,139.722694,-185.1668019,0,30.10370364,-16.28527335,-50.19598105,,,,
106.4239999,415,-250.9426285,-411.2106046,0,0,71.4987287,17.66045349,180.9171366,66.56702426,-87.29169123,-52.78977691,-140.5023472,-801.0478733,0,-51.94783142,-50.35746253,42.23530832,,,,
106.4319999,415,200.0293825,315.803598,0,0,-118.2053539,153.3323723,-198.7627464,-91.1000826,28.85004556,-24.62212933,-73.02878397,-1010.957426,0,17.90247879,182.4711462,-24.36582168,,,,
106.4399999,415,-81.64730501,-163.810871,0,0,47.07747387,30.55909708,87.30178739,66.12580257,-80.35757069,-26.94825879,96.2399857,-30.9964302,0,12.37257544,-164.5478397,3.353893202,,,,
106.4479999,415,-46.17211574,-76.91759889,0,0,-4.436797496,113.0427728,37.23281846,-3.292140937,-2.870525197,7.420254284,-267.8156957,-1433.542734,0,-10.47863335,131.0239235,70.65523369,,,,
106.4559999,415,184.7494496,270.0556233,0,0,-79.69764722,124.5984874,-158.3181872,-56.50512521,1.363082937,-1.481390792,133.7002941,-174.8794226,0,46.1639257,-21.37212011,-40.409425,,,,
106.4639999,415,-230.2538619,-396.8884313,0,0,86.57862818,34.49993373,195.380191,73.8322101,-70.10203689,-26.38153129,-139.848642,-770.182069,0,-29.64466865,-64.69202806,50.38948182,,,,
106.4719999,415,193.9977938,294.6932846,0,0,-137.0866269,168.1693322,-209.5431526,-117.8857472,44.17889814,-20.22424125,-75.03280484,-1001.992992,0,18.11734582,183.9778167,-31.20935399,,,,
106.4799999,415,-89.9356647,-181.2647307,0,0,26.14983605,27.28773091,55.67068138,33.34614134,-83.48490854,-66.31023407,118.345252,41.40758844,0,-30.1949026,-131.715917,-37.46393254,,,,
106.4879999,415,-54.62782789,-99.60132932,0,0,-1.787822598,89.09231968,20.28854728,-9.728738471,-23.23369696,-36.55805057,-248.4331228,-1360.646587,0,-47.44510072,168.3102484,35.73370005,,,,
106.4959999,416,175.515104,260.0574783,0,0,-89.26307084,100.395202,-179.1736426,-69.99440276,-17.33623813,-17.5099296,137.3937853,-131.8904564,0,38.56866924,-0.534086428,-45.99046101,,,,
106.5039999,416,-239.6123944,-396.8602091,0,0,94.13919846,7.338227085,187.7553277,74.89626347,-86.64568896,-41.49574936,-126.6693816,-686.6733428,0,-49.59735126,-44.15825761,43.09283518,,,,
106.5119999,416,202.4156641,311.2465044,0,0,-113.6656066,151.9718228,-206.5423802,-98.02449234,38.4206432,-23.52809289,-70.36464675,-950.728998,0,6.246074574,208.2770228,-29.0824017,,,,
106.5199999,416,-87.09178072,-164.3457498,0,0,21.4299987,24.69747566,49.44496008,25.48108467,-76.14881974,-42.72103622,114.5493854,88.66531463,0,-15.1235452,-135.0163173,-13.78577352,,,,
106.5279999,416,-68.7527155,-104.7999291,0,0,-12.18462677,83.77394053,18.15711635,-32.33416748,-9.612345721,-37.70977539,-250.4982389,-1302.865606,0,-52.71649362,175.2160344,33.96748474,,,,
106.5359999,416,186.265821,277.0982939,0,0,-92.53205407,106.5388166,-184.1708314,-77.0249507,4.98889212,-27.97482027,141.0985258,-77.78697038,0,29.85937705,26.67209807,-61.12789717,,,,
106.5439999,416,-237.9656646,-392.8465554,0,0,90.60038923,19.24997127,191.5192953,73.3718307,-56.7999074,-28.27874837,-126.1492848,-626.4573544,0,-37.4951585,-43.52729605,51.31800099,,,,
106.5519999,416,199.080643,307.8187542,0,0,-112.7330477,154.4012331,-203.2536566,-105.2551085,70.52992738,-28.24351597,-78.44828088,-920.8470742,0,11.99673382,213.4183437,-33.1665457,,,,
106.5599999,416,-66.44175862,-139.4996415,0,0,34.43779917,30.43816827,53.17273153,41.95440732,-52.96081368,-36.87231878,109.2369579,128.4417116,0,3.346939031,-136.4716303,-12.31890688,,,,
106.5679999,416,-64.81680055,-101.9150821,0,0,-2.163125283,93.83286186,31.59192697,-9.052740147,10.29778697,-7.706225687,-267.8561545,-1288.222707,0,-25.98642107,155.7872219,53.63489455,,,,
106.5759999,416,181.9724738,274.9000333,0,0,-96.68586089,105.7885238,-189.3008135,-81.86535092,27.47538053,-28.12863417,129.944392,-59.97521643,0,23.82304198,28.3017383,-70.85847417,,,,
106.5839999,416,-244.702759,-393.28381,0,0,99.48941337,8.045710969,193.7230277,76.73069605,-44.95787089,-31.53967512,-130.4722701,-572.8835564,0,-48.60240405,-45.26613776,46.16881867,,,,
106.5919999,416,187.9783334,305.4578159,0,0,-101.5757757,144.7633138,-198.8001985,-97.02139081,77.09432858,-18.64170624,-91.79780874,-907.2009677,0,11.28635942,210.589974,-26.18928961,,,,
106.5999999,416,-68.65799178,-136.6137012,0,0,39.44101369,22.48549014,43.85259704,38.30908869,-49.24791412,-40.02443865,114.406344,176.4902964,0,-5.50019208,-133.5679373,-24.59560783,,,,
106.6079999,416,-63.45057938,-100.0207865,0,0,23.25242695,93.62939645,46.18639096,4.853235643,12.7137202,7.593266434,-271.9608425,-1252.279741,0,-20.02832077,141.2525949,69.96131116,,,,
106.6159999,416,199.9853121,298.2634163,0,0,-70.5867424,118.6954626,-175.2287096,-61.6828199,39.95441108,-2.854619109,116.3942661,-68.69004834,0,46.57578165,2.542990217,-38.64104795,,,,
106.6239999,416,-227.6470114,-387.4591161,0,0,110.3982982,19.84934317,193.2811519,82.01030291,-36.1588268,-36.52850303,-128.4119987,-548.8924434,0,-41.91666383,-68.33080771,45.41918333,,,,
106.6319999,416,199.0990339,306.0446095,0,0,-90.22466545,160.6993175,-188.0265108,-92.89688451,83.99334856,-7.628908723,-103.4939891,-917.8642959,0,22.41897307,190.9025627,-10.21089487,,,,
106.6399999,416,-60.18733316,-126.5163261,0,0,50.08354253,46.4739265,62.14162529,44.80883696,-37.64726598,-24.3642676,106.5267369,180.1970165,0,9.349208145,-156.943748,-3.566850538,,,,
106.6479999,416,-71.46952805,-120.0832048,0,0,22.63371491,112.0404645,55.45599333,0.07207433,9.484522496,-20.32951703,-269.6267275,-1227.638829,0,-29.93585064,138.0125076,45.04316413,,,,
106.6559999,416,198.3002004,290.872746,0,0,-83.8951153,137.4475,-178.1925556,-76.67569295,21.64466463,-13.36269837,112.5072396,-63.7555381,0,50.71320694,5.698684865,-58.52841423,,,,
106.6639999,416,-233.562903,-393.9969053,0,0,101.1352439,40.88427554,209.292,77.60253347,-62.12681427,-28.17240618,-126.2110289,-516.2283314,0,-30.91282823,-78.35388575,38.72997323,,,,
106.6719999,416,199.5491533,298.9829101,0,0,-90.30361862,177.6636964,-170.1873066,-87.86598958,61.48514529,-12.65323206,-97.61652367,-896.2234989,0,22.62561525,199.855098,-33.94398961,,,,
