Time:125Hz,Epoch,FP1,FP2,C3,C4,P7,P8,O1,O2,F7,F8,F3,F4,T7,T8,P3,P4,,,,
97.87199993,382,107.4599507,321.9624841,349.039258,-458.3883548,-308.6358802,-302.6938936,-50.18064813,-123.3831956,94.15335444,64.91731774,103.4319054,0,62.28473436,-473.0471404,54.1998891,0,,,,
97.87999993,382,-283.2422265,-292.7536131,-268.3361372,-106.7112419,352.9309788,-131.3352255,399.571362,191.7630271,121.2034702,205.5804731,-656.3975913,0,-115.7313709,-615.8625393,207.6933368,0,,,,
97.88799993,382,6.079918968,92.01672706,30.50911145,-182.7691074,-89.91143293,-461.5801856,129.7967217,-24.15687784,-374.1750629,-324.4835738,1089.898094,0,247.7632996,-159.5265194,-349.8089945,0,,,,
97.89599993,382,-58.12621123,93.28102117,169.6578623,-390.2736907,-54.47043888,-96.37265125,80.03988566,0.371915625,391.4177341,397.245655,-941.8056604,0,-162.2246137,-743.2341847,395.5466413,0,,,,
97.90399993,382,-213.4579439,-257.7441277,-311.7928321,28.89374063,350.5583608,-302.0883183,416.9403528,189.4304937,-337.7507837,-238.0469778,634.7518222,0,144.0910243,-238.0678684,-225.7563636,0,,,,
97.91199993,382,128.123498,344.2884906,359.104382,-435.0361811,-294.7382415,-252.7386267,-57.35542452,-116.3451243,134.6144644,126.773307,131.8591078,0,73.52348186,-455.7177046,92.55726364,0,,,,
97.91999993,382,-295.1992425,-300.7061146,-291.6727114,-80.73268364,356.7799575,-95.52344027,402.7099948,197.8253919,115.4498737,220.1808518,-632.5617096,0,-105.2602344,-598.1428325,211.0882233,0,,,,
97.92799993,382,-17.53423283,81.19345783,5.618070123,-155.3768054,-95.49240309,-438.5327575,134.2767502,-13.56931305,-387.0918706,-326.6827708,1105.825487,0,254.6504473,-147.395359,-363.0394069,0,,,,
97.93599993,382,-68.14667137,98.92700079,164.6423343,-362.7821865,-65.37155684,-92.21044707,85.27571501,8.8537847,381.9120411,389.3500026,-926.5333212,0,-151.5380647,-736.6227892,371.9503648,0,,,,
97.94399993,382,-187.9027944,-215.7075018,-282.5891125,48.66877995,352.4643222,-299.221748,431.1966058,197.8881326,-314.7060864,-220.9714089,653.3462508,0,164.5249217,-240.4847511,-227.7060907,0,,,,
97.95199993,382,126.3399859,353.7810347,361.8422156,-414.1052766,-280.9099819,-252.0057014,-31.63533657,-108.7684895,170.8974319,155.7930284,152.7035643,0,99.43772318,-468.6530527,112.1790852,0,,,,
97.95999993,382,-322.3540332,-321.3570336,-312.076023,-55.64017888,355.5410311,-121.710799,425.6433524,192.8792873,99.34746925,185.1519125,-612.834376,0,-85.86932445,-612.4714719,190.7358254,0,,,,
97.96799993,382,0.172220333,107.5496673,28.33667722,-142.4235573,-98.20404062,-445.7154423,157.890439,-23.33016291,-397.2878031,-369.2197748,1127.14601,0,270.6410454,-161.2189714,-387.1054289,0,,,,
97.97599993,382,-65.50141621,109.3746727,159.4116297,-353.5732053,-55.09529732,-71.8513657,120.6192621,-2.499146714,418.6586219,414.3138171,-886.278937,0,-130.1471252,-752.37678,396.8517388,0,,,,
97.98399993,382,-255.369646,-277.1502928,-370.995434,58.28567261,329.2098215,-326.5359206,443.4329606,167.5266784,-348.9930616,-246.5889409,700.3009895,0,172.9163441,-252.8015346,-258.2985566,0,,,,
97.99199993,382,78.74147072,311.1837652,304.4058478,-428.9960167,-334.6270457,-306.8573835,-60.65365473,-146.2887562,67.23120401,37.37698584,183.2333181,0,85.22109966,-472.8572375,7.396037454,0,,,,
97.99999993,382,-327.8422603,-329.2382349,-308.7467367,-102.9161146,337.1816539,-130.0326462,391.9845014,172.8900224,91.53682313,138.3190137,-575.6121172,0,-94.27952909,-618.3368928,174.3023242,0,,,,
98.00799993,382,-42.47001553,61.99893715,-6.825465012,-211.729523,-100.7401804,-451.1416658,123.4307666,-38.90791677,-388.8884211,-382.5917464,1166.499489,0,270.8559799,-171.2931773,-371.2259893,0,,,,
98.01599993,382,-125.126075,50.95214355,103.5203658,-433.9480731,-85.5899562,-105.7114914,66.12343097,-22.35029501,337.8094381,331.9500048,-871.2813816,0,-143.0526037,-753.9985388,332.9573683,0,,,,
98.02399993,382,-266.8423798,-289.9798349,-363.3004859,-28.77153157,311.9906973,-322.8743419,389.5815729,160.6595082,-377.378565,-289.2588524,705.9767038,0,155.5347568,-249.725279,-278.4244305,0,,,,
98.03199993,382,93.46283348,329.5412669,345.2606628,-523.467354,-318.6706945,-268.5668598,-95.06934759,-141.6503482,99.53137954,36.47655712,194.2942736,0,80.76984083,-469.2424549,56.30854175,0,,,,
98.03999993,382,-316.4632378,-301.5244182,-280.8658278,-194.3811381,353.2000787,-94.1621986,368.3052753,177.8598829,104.9894966,121.7845639,-561.7521278,0,-90.52758376,-605.2881417,208.2347906,0,,,,
98.04799993,383,-22.38546387,105.9674007,35.63892518,-295.6077487,-74.74559146,-397.2957666,116.0272584,-30.07746816,-348.957149,-363.5220428,1184.761605,0,277.5664083,-149.3177878,-328.0965153,0,,,,
98.05599993,383,-126.5676987,68.12255358,126.0462967,-509.8890873,-52.98366009,-57.17456419,79.44556033,-20.16250058,374.1993832,341.4564315,-842.7785471,0,-127.5334864,-722.9479671,377.029909,0,,,,
98.06399993,383,-288.9404225,-299.1703388,-375.1644542,-94.00055181,319.877341,-296.7942262,412.2829951,148.4831576,-386.3766532,-322.8989973,726.8239739,0,169.1753227,-212.7942749,-277.6934118,0,,,,
98.07199993,383,102.91358,351.9292138,359.896359,-581.5199492,-312.5899003,-222.5507075,-61.59590642,-150.7644784,119.9327209,68.92860794,200.8383086,0,83.83001833,-438.2058959,57.00717191,0,,,,
98.07999993,383,-310.2796605,-290.2364639,-276.0947541,-238.5159135,353.974254,-54.86501263,402.3741819,169.9281876,129.2705954,192.5127919,-550.0571943,0,-86.96792776,-579.4618213,201.4001062,0,,,,
98.08799993,383,-2.801536071,123.5876349,52.66354051,-328.6009138,-85.46665409,-365.6852614,144.2937155,-29.49812247,-339.3023147,-314.0184938,1192.188106,0,279.739801,-129.6924341,-342.1771227,0,,,,
98.09599993,383,-42.30809758,149.095928,213.5885066,-544.9194813,-36.78296465,12.64984145,123.5162537,8.332385763,442.4999026,431.9995425,-839.8620266,0,-126.0443714,-717.1180321,418.805686,0,,,,
98.10399993,383,-229.931926,-245.5350734,-320.1799054,-121.7704743,345.5787248,-236.4267358,469.6866918,185.6980154,-305.1003533,-224.9110883,741.2364296,0,181.5595264,-216.7764364,-221.5084392,0,,,,
98.11199993,383,102.025639,353.1172922,353.7097395,-593.4360644,-305.4874756,-201.5326218,-13.29091768,-115.6442713,150.3841172,112.4912921,212.7579602,0,97.38247307,-441.2297608,72.2674897,0,,,,
98.11999993,383,-327.1367176,-298.4833533,-288.6315994,-236.3929648,347.472095,-56.85752437,438.3586081,202.8494443,109.0908425,186.482128,-555.4797631,0,-84.0145542,-573.3128051,181.8549142,0,,,,
98.12799993,383,-56.15036507,66.56154851,1.505940414,-312.2413703,-110.9215508,-402.8072065,172.7049692,-18.04642235,-392.9314484,-359.2309132,1173.062478,0,275.628613,-115.1384982,-387.1047493,0,,,,
98.13599993,383,-115.4345762,69.09862307,144.6594703,-523.3362469,-77.06409979,-50.49585973,141.3822729,0.343099391,386.1161425,371.9910869,-874.2103869,0,-140.564946,-700.8428891,352.3856297,0,,,,
98.14399993,383,-280.4772761,-286.5741478,-354.164368,-98.70335594,306.0914162,-292.6485896,477.7972142,172.7957032,-360.8306594,-275.8098178,692.5075526,0,155.4853912,-201.4198679,-294.1861513,0,,,,
98.15199993,383,74.49548046,340.6378956,346.7787478,-569.4301835,-331.9477583,-228.5264352,-1.908971959,-130.3674555,110.826968,86.6435215,165.3560025,0,71.22270763,-428.7557697,33.4458011,0,,,,
98.15999993,383,-324.1940054,-285.4986811,-261.6943326,-224.0917304,349.0704795,-50.18159658,462.105705,193.6542999,123.3312464,201.7081582,-591.4281889,0,-102.6797056,-567.077073,198.1087366,0,,,,
98.16799993,383,-40.99908831,92.66730921,39.92540416,-306.0215169,-92.75075731,-381.93648,204.2022308,-23.48494632,-349.7094282,-327.2043056,1150.339879,0,263.9743427,-115.1152298,-353.1521355,0,,,,
98.17599993,383,-131.8078957,63.24224531,141.7732232,-506.8196772,-77.73986388,-48.34178233,166.534923,-12.07630884,390.2117148,364.9118418,-888.1407536,0,-149.0143356,-703.2230513,350.6979368,0,,,,
98.18399993,383,-302.7571347,-306.43252,-363.8537927,-79.07637659,295.6110081,-302.151456,481.1986324,162.3782737,-379.1417526,-307.1157622,674.7495735,0,146.6025067,-201.8200126,-309.0906327,0,,,,
98.19199993,383,81.1001371,342.3970849,368.756132,-554.7391159,-325.126242,-223.0278685,-31.34596136,-128.5131961,125.9788451,75.20122055,149.3790523,0,63.93136865,-424.5967432,39.82553991,0,,,,
98.19999993,383,-337.8999228,-306.584646,-273.7540093,-207.8295669,349.8663196,-54.91318919,400.0218656,194.5478003,132.1408778,183.994577,-596.8002539,0,-107.8104094,-559.7575121,185.8726722,0,,,,
98.20799993,383,-72.71205855,60.55271799,-0.154499117,-290.1774038,-110.4093313,-399.1665036,126.2612946,-24.7095369,-378.9669435,-356.9603894,1137.604896,0,253.1050941,-107.5556378,-397.1817206,0,,,,
98.21599993,383,-133.8249568,74.66316909,140.0905644,-497.6700705,-79.43614744,-38.72459532,89.83601385,-2.79857292,380.6993811,379.036052,-903.9394337,0,-160.4401376,-694.3622734,331.6932073,0,,,,
98.22399993,383,-313.375918,-306.8844069,-374.8778324,-69.27648345,304.0096933,-284.2893066,414.818474,171.1964169,-382.9959126,-277.6160648,668.1823375,0,141.0946772,-191.1984394,-316.3086515,0,,,,
98.23199993,383,61.87587183,319.943363,341.3400743,-541.0507401,-336.7254256,-214.8032506,-74.66283905,-125.9831611,93.96898751,55.51948491,135.3386801,0,55.74806154,-415.38158,4.85801665,0,,,,
98.23999993,383,-313.6527503,-286.1407417,-255.7020625,-197.7649882,342.5174244,-7.619370482,389.3419773,205.9686526,150.0939405,173.1413274,-610.6591167,0,-111.1936675,-554.3373574,190.1218091,0,,,,
98.24799993,383,-38.14976912,91.90931813,25.72235965,-277.1660891,-98.83864129,-314.1645865,130.3490438,-7.101391384,-336.7146236,-351.6070319,1136.73715,0,263.779859,-103.6105332,-361.0279681,0,,,,
98.25599993,383,-114.8825587,88.40753415,142.8642381,-476.5789434,-73.14983316,33.87654616,87.73649905,8.828184583,384.2909407,347.6454088,-901.8036148,0,-144.9011857,-689.9084803,342.9608086,0,,,,
98.26399993,383,-282.4937483,-280.017183,-355.6767866,-57.79729985,303.7836784,-215.9560948,399.9358384,174.6644398,-357.2277821,-297.3844966,667.6602515,0,154.4311518,-196.4491205,-297.6723633,0,,,,
98.27199993,383,75.15461776,330.8727065,350.0082257,-543.6417937,-328.9795246,-152.6690833,-101.8228257,-136.5923564,128.8268721,72.37163849,131.3274151,0,64.90801491,-438.1965331,30.17927455,0,,,,
98.27999993,383,-341.089311,-310.8172679,-291.0605265,-199.0557364,343.0662561,1.715125979,360.1978897,176.8218267,120.190261,166.2692795,-624.7509137,0,-111.3754018,-584.765776,169.8149793,0,,,,
98.28799993,383,-53.89635618,79.24099653,3.810121698,-279.0292918,-112.6776375,-336.8789562,96.52110981,-40.59942396,-381.397354,-374.5111786,1109.255987,0,253.1602904,-133.5893179,-409.9911797,0,,,,
98.29599993,383,-103.9624376,99.01400707,156.4112368,-486.8902472,-70.89322391,32.88613957,58.83751444,-10.33591061,402.4592603,382.1073861,-920.9301661,0,-153.9883103,-714.7468453,335.2540784,0,,,,
98.30399993,384,-281.5144566,-274.153013,-356.5805086,-63.63107578,315.053339,-213.6250059,398.1119521,169.447186,-348.4131735,-263.3851402,663.1917676,0,152.9610269,-203.1348469,-302.4570038,0,,,,
98.31199993,384,83.56103652,343.3778764,345.3465046,-533.5620243,-328.0766655,-150.5150506,-82.88433407,-125.2056501,102.5469849,70.87762833,134.5479457,0,69.33989767,-419.8995588,5.010085122,0,,,,
98.31999993,384,-302.0263472,-276.2686558,-259.5281885,-186.6771784,355.4580296,31.69019684,389.8701213,210.4441865,146.1191644,212.9592639,-602.7973986,0,-95.71392115,-549.6054281,193.2089068,0,,,,
98.32799993,384,-47.02485148,73.50498186,10.74329833,-269.8671205,-101.4461198,-317.4825251,125.5747973,-7.53216472,-350.5504972,-335.1112648,1141.17858,0,274.3417567,-92.17076554,-377.2058115,0,,,,
98.33599993,384,-144.9192821,34.1432999,109.1399399,-469.267561,-95.86251773,9.818388719,67.1693213,4.848154051,356.1148493,339.7653571,-900.2155864,0,-145.766273,-673.9708497,304.1817838,0,,,,
98.34399993,384,-292.5474846,-305.7781238,-374.659922,-46.1255691,283.0259466,-235.4280472,401.6777353,184.5530976,-389.1170459,-295.5735685,668.1076181,0,148.7880935,-171.1544404,-333.884798,0,,,,
98.35199993,384,69.22177883,319.3987518,321.2199234,-518.5312984,-355.3115794,-172.6309824,-56.72504268,-114.778029,90.72304619,43.07198672,139.1419289,0,63.03133108,-391.489599,-15.01641579,0,,,,
98.35999993,384,-332.1285912,-311.9994529,-305.7215757,-167.9978587,307.3161328,-10.76299391,428.8608314,202.0340274,90.64015131,118.266664,-601.247015,0,-115.0081442,-517.9526525,122.7843392,0,,,,
98.36799993,384,-4.80912071,109.1815926,39.03778186,-256.8053056,-121.7628662,-322.6628761,186.0851803,-5.483651949,-358.3143382,-367.4909629,1134.827319,0,250.1648978,-69.13443724,-393.0916897,0,,,,
98.37599993,384,-69.62905931,88.42688849,158.8359751,-457.9339467,-63.86536494,38.11155413,166.3899397,22.46196653,420.825486,384.0494425,-881.9809006,0,-148.7922857,-654.0518382,359.6285435,0,,,,
98.38399993,384,-247.7157739,-292.6222077,-363.6190639,-29.92411991,316.126655,-226.6753392,509.8742389,193.5439372,-351.3746398,-287.558673,701.3176862,0,156.6917331,-144.4692745,-316.0543451,0,,,,
98.39199993,384,87.54765705,309.8143044,313.8239619,-495.2406579,-341.5649165,-194.8213378,33.22061295,-116.1224215,103.5956022,51.33760605,157.1668335,0,69.62068223,-370.8498139,-12.33868456,0,,,,
98.39999993,384,-315.7384795,-312.3941979,-312.2760008,-140.9773613,311.3854906,-51.38021857,500.5154834,197.2609796,98.63457722,142.8085607,-590.8722512,0,-106.0832124,-509.2865402,126.0233927,0,,,,
98.40799993,384,14.0775361,131.1543281,45.8270562,-235.4493858,-116.7800178,-349.5569355,243.240385,-6.117685231,-346.9068614,-345.1859929,1140.363012,0,259.3775449,-66.6037965,-394.3002826,0,,,,
98.41599993,384,-61.41505774,119.931728,179.3942448,-441.8726867,-59.43346592,23.9863071,210.3126075,29.84536992,427.1957994,402.6037133,-874.5683491,0,-139.9996852,-649.5195012,367.1551431,0,,,,
98.42399993,384,-253.4914707,-273.0510203,-346.2170807,-16.74952134,311.4162955,-242.6546784,533.3619109,205.0932111,-354.7901389,-270.8135822,715.3045813,0,164.4166655,-137.765159,-303.4644342,0,,,,
98.43199993,384,59.75683941,297.3239333,303.772633,-482.1029536,-348.623515,-202.4257641,28.58624226,-104.3717685,82.33421289,61.73232975,163.7617737,0,71.78051496,-362.5527732,-16.26570379,0,,,,
98.43999993,384,-312.8156993,-296.5445542,-287.6151429,-143.3114212,320.6271192,-26.35257205,477.0957831,212.4390164,73.99466702,153.2738002,-591.8216664,0,-107.9985332,-490.0420983,114.5188136,0,,,,
98.44799993,384,48.49407347,172.4684873,97.72082308,-265.8413556,-90.41552693,-299.6494624,216.8772603,9.17442072,-325.5259918,-297.9221589,1145.337108,0,263.3039438,-36.59031872,-372.2048396,0,,,,
98.45599993,384,-54.21761054,126.9744037,189.1337191,-483.0865277,-34.75209057,54.49985187,177.3267582,32.91709166,447.3626019,443.1020752,-861.3460507,0,-130.390091,-616.9889197,387.4647054,0,,,,
98.46399993,384,-224.9945399,-231.9953757,-305.3359519,-71.35296053,336.2313951,-214.2534892,502.0942315,202.258465,-347.8570777,-250.0574163,724.0793138,0,174.8220021,-108.8653372,-293.3629395,0,,,,
98.47199993,384,132.2348338,388.9211032,398.8877578,-554.5342214,-302.1447822,-141.1579459,36.65344904,-96.62433658,150.6331174,137.3655426,183.7781319,0,93.81239698,-337.7242936,41.71447456,0,,,,
98.47999993,384,-287.7800306,-266.8994362,-247.6943932,-201.2455131,368.9815401,25.83193585,523.4973204,222.4267864,154.1483945,233.6056029,-546.4552662,0,-73.15708879,-466.8543023,182.459776,0,,,,
98.48799993,384,24.82127734,148.5035367,90.58064814,-299.30719,-76.56042299,-278.8817723,277.5846704,11.00859233,-311.37743,-291.7340124,1170.205347,0,289.1278332,-21.02170302,-357.4315191,0,,,,
98.49599993,384,-64.04429199,115.2321927,198.268243,-506.851038,-39.02399555,75.24861122,258.2670664,36.89897374,448.9935275,443.0862315,-865.3159441,0,-116.9560584,-610.3212431,397.1525223,0,,,,
98.50399993,384,-235.5070446,-255.1932775,-306.6157501,-83.85264909,334.6442762,-187.7451414,595.6752019,210.7940727,-331.2836763,-244.3530394,715.3626672,0,184.5815585,-104.7759368,-263.6550307,0,,,,
98.51199993,384,141.7443104,383.6947026,410.3086126,-563.9114699,-296.3712439,-107.4372158,118.8531741,-84.27359202,165.506828,97.3144526,164.8698342,0,99.1578785,-336.4594942,72.15029735,0,,,,
98.51999993,384,-247.7260533,-236.9599478,-212.0770109,-217.418514,382.2314344,59.82083138,581.7754779,239.0226951,180.3555169,201.6811836,-560.0780156,0,-66.20114684,-467.5779085,227.182125,0,,,,
98.52799993,384,35.39726803,148.1645531,86.88270114,-312.1639019,-66.80740924,-263.2590201,299.1377558,22.05026845,-292.0459367,-279.9233112,1168.662959,0,298.1007828,-16.31192257,-317.4109345,0,,,,
98.53599993,384,-78.62667705,85.96646383,163.9759277,-510.288508,-41.51407902,70.08006114,238.4798631,35.15349781,430.8854651,434.2823806,-867.5931021,0,-112.8103058,-598.8813284,391.0846633,0,,,,
98.54399993,384,-247.0192717,-285.0076996,-337.543283,-81.61558095,320.3884526,-211.4785109,544.8918223,197.7953566,-362.0979372,-273.6570048,710.1004756,0,185.7917627,-96.10997035,-292.6557425,0,,,,
98.55199993,384,104.5738291,324.8746211,350.4990731,-553.7395953,-322.9694106,-153.8957937,42.34502986,-107.640909,133.580843,95.88227583,151.784216,0,96.43180843,-331.4149818,41.63589523,0,,,,
98.55999993,385,-290.7233394,-291.5083624,-275.9531695,-200.3848915,339.9692754,-5.726894979,483.7492212,210.3637963,113.3489691,188.8239552,-588.615159,0,-80.62035821,-466.325361,167.063668,0,,,,
98.56799993,385,34.2038433,146.40061,76.6622704,-295.85452,-93.02383538,-308.176661,197.3523451,6.969579996,-328.6930819,-296.9151328,1132.053353,0,279.0155806,-29.83673996,-350.1905261,0,,,,
98.57599993,385,-69.59858385,89.90971133,169.0616323,-492.3683936,-44.42316479,43.84660236,143.5498479,35.87426796,447.6666761,436.2524373,-890.0475446,0,-124.5817871,-619.4917193,396.2812686,0,,,,
98.58399993,385,-245.1603954,-282.621025,-335.2695678,-64.53060899,311.6468598,-245.3065691,459.2983435,200.5494406,-359.8920752,-278.6541747,696.5502616,0,176.30046,-115.4737382,-309.1265824,0,,,,
98.59199993,385,105.748438,338.3085515,364.0860093,-542.4995227,-325.5386941,-180.9672081,-18.74153096,-105.1297599,140.9492581,106.0527979,135.149853,0,87.92278229,-356.2318927,36.18564837,0,,,,
98.59999993,385,-314.3964109,-307.6478982,-283.1210694,-186.2964139,344.5065409,-36.45283252,457.4510211,205.5891647,123.8886896,202.2102912,-598.6272973,0,-84.17624166,-491.806731,169.0226908,0,,,,
98.60799993,385,6.39521888,120.0632992,53.4042546,-274.1852642,-102.8877547,-350.9616429,193.7063035,-9.661127902,-349.4216832,-320.2651133,1122.115405,0,272.682328,-50.18469786,-385.9032816,0,,,,
98.61599993,385,-73.57980973,85.5377168,152.7465233,-472.4202551,-58.99829782,7.248068268,144.8993346,15.09847879,431.8986596,407.4294082,-906.388243,0,-135.1865845,-639.8789304,355.3987878,0,,,,
98.62399993,385,-241.3305199,-286.6905264,-352.8562997,-50.67689769,302.0402091,-268.0401927,455.380727,178.0791202,-360.1590155,-290.7411622,675.030732,0,163.2548396,-139.3632418,-329.9471271,0,,,,
98.63199993,385,129.4785435,348.4520063,364.96985,-527.6709899,-329.6640035,-185.6878637,-30.84039987,-123.6420095,130.5096184,85.53924516,111.9686411,0,71.81065166,-376.9244987,18.65237871,0,,,,
98.63999993,385,-278.5663309,-291.2805575,-269.3237731,-173.8861513,354.5209637,-25.24878397,443.2669337,196.0735102,149.3254722,199.9529223,-608.7836678,0,-89.81870129,-507.6878996,192.3594332,0,,,,
98.64799993,385,3.842451654,99.0743854,35.53520241,-264.3196915,-103.6426105,-357.9142027,181.851247,-22.43283713,-335.9468867,-335.2374917,1111.403493,0,272.9982218,-63.19999573,-369.2584553,0,,,,
98.65599993,385,-97.09022604,59.25078428,129.5017173,-456.4588393,-88.25007797,-25.37609853,139.9925517,-7.229324766,378.3371235,338.7289066,-929.0504313,0,-145.0667856,-643.0282936,321.8977401,0,,,,
98.66399993,385,-236.0470044,-279.7984858,-335.5194458,-35.57665945,273.0200954,-280.6308043,460.0511064,160.7199461,-375.5452434,-339.9870071,658.6298132,0,155.1326234,-135.3004879,-321.3626561,0,,,,
98.67199993,385,139.1898796,355.2691705,381.8866629,-513.0455481,-355.4651745,-185.9211685,-20.77809741,-130.1079905,149.9527541,58.79859977,111.0626646,0,73.34925398,-372.1752859,45.92544365,0,,,,
98.67999993,385,-297.9520014,-309.5964822,-290.0330012,-149.0549053,315.6285823,-53.37433306,457.8787529,186.2004619,131.873495,142.3581378,-603.5455685,0,-91.26010084,-498.3846281,169.3172775,0,,,,
98.68799993,385,5.583269462,100.5196855,39.18816849,-236.4186978,-138.1408842,-386.27598,192.7211045,-39.0773327,-352.8526678,-382.7061123,1107.861534,0,265.2639939,-51.36691336,-398.293347,0,,,,
98.69599993,385,-51.54199827,99.38581645,180.0060531,-436.1519706,-83.85435889,-12.04032535,157.5822003,-13.64936971,421.8580288,394.5843706,-925.4495475,0,-143.3199142,-636.520133,356.8836733,0,,,,
98.70399993,385,-223.2873488,-270.0375279,-326.5753984,-13.87825456,289.6028849,-267.4722655,495.6690404,158.1068079,-333.6182886,-248.5099794,677.3304995,0,167.0696742,-127.5422261,-281.0263591,0,,,,
98.71199993,385,108.2004008,323.46259,344.8907652,-486.055983,-368.3902256,-211.20781,-4.132081021,-152.3626928,121.8225351,78.25057638,116.1316557,0,74.26264885,-357.3729943,10.60187327,0,,,,
98.71999993,385,-297.1553398,-305.7488876,-277.5224749,-132.4495839,304.932761,-69.43975401,439.9791835,161.4467473,118.0558199,170.8515485,-608.7058328,0,-99.87564952,-488.1155894,142.7691443,0,,,,
98.72799993,385,17.21860495,117.902724,67.02340499,-229.9903027,-132.061914,-381.757393,166.0681393,-46.18431809,-323.9027018,-320.8238702,1122.565943,0,264.8671886,-46.39418833,-374.4343057,0,,,,
98.73599993,385,-95.14144613,52.96598079,130.136176,-426.7376339,-86.6743229,-49.97136872,114.032581,-24.71504275,399.1028223,381.5027899,-904.3978417,0,-143.7507826,-629.7782506,339.2405512,0,,,,
98.74399993,385,-279.6046541,-332.463997,-396.3304094,-2.196341866,276.0831483,-343.6458699,420.7763408,140.762476,-402.2461718,-314.0314479,670.9438519,0,151.2954909,-128.3008828,-340.7583432,0,,,,
98.75199993,385,88.74070271,299.7910197,323.3898448,-474.8287499,-375.8521079,-266.9391437,-84.42686773,-153.221966,90.17393628,60.62336671,99.41793728,0,51.49176305,-369.8627925,-13.545759,0,,,,
98.75999993,385,-300.3071041,-324.6092687,-291.8421338,-120.476208,306.9956923,-120.2773435,361.4454955,168.173332,106.7875443,177.1180402,-618.393778,0,-119.8802298,-506.5906143,138.7123718,0,,,,
98.76799993,385,28.21603359,106.7313702,52.06872286,-217.9929458,-133.3178763,-434.7559777,80.14493077,-39.1220877,-339.9284261,-320.7628128,1106.397869,0,248.0604024,-73.57277304,-380.0382441,0,,,,
98.77599993,385,-74.25802757,60.74195321,132.6248733,-410.0165807,-91.25456361,-80.88201815,35.3008624,-7.246822489,398.4924238,396.7943475,-917.4026854,0,-155.9568566,-660.6760484,346.1815054,0,,,,
98.78399993,385,-284.2768335,-344.2917391,-410.5889671,21.74866939,270.3187835,-379.6552693,351.7794712,155.1237051,-401.5398611,-308.8693231,662.3095568,0,141.6469511,-152.7757317,-339.635716,0,,,,
98.79199993,385,67.4880563,270.4534573,296.6600688,-448.4800071,-384.9835805,-315.3425844,-147.8635827,-150.7421651,67.09128019,22.49092127,85.13118492,0,42.40975443,-386.2502055,-30.48767182,0,,,,
98.79999993,385,-319.1763922,-356.4531741,-313.1942921,-92.82383031,296.4990758,-160.9522155,309.9748485,162.2920004,66.93905016,123.7540569,-636.8569634,0,-128.2192382,-512.2912496,108.5647503,0,,,,
98.80799993,385,5.862713543,72.28289947,19.34682019,-188.810509,-146.4501792,-467.9008558,31.24713358,-57.96925459,-377.1927202,-366.1564591,1073.368956,0,233.9301993,-70.19030858,-422.1012638,0,,,,
98.81599993,386,-52.41069773,79.84061547,150.4640524,-387.8725802,-86.85874826,-75.99878825,-11.23097713,-24.49478699,402.7342908,377.2752818,-951.8240973,0,-175.136974,-650.1310314,334.1352235,0,,,,
98.82399993,386,-207.5127026,-274.3692635,-327.6692762,35.02240966,312.2558053,-321.0882288,326.9087712,150.2561901,-335.4371197,-264.9821264,654.1651508,0,134.3748644,-135.2707166,-289.8523983,0,,,,
98.83199993,386,117.0776526,304.0471017,331.445731,-429.7775928,-336.7127188,-259.9698921,-159.7766475,-156.1222036,124.2438928,76.61079135,97.07158891,0,49.72523799,-368.7132725,16.54707273,0,,,,
98.83999993,386,-311.9889683,-354.7268846,-327.9448699,-67.22992292,319.8354264,-129.915507,289.6630622,154.3680996,80.58203738,137.5528914,-627.0583325,0,-123.7295992,-500.4377107,120.6252863,0,,,,
98.84799993,386,13.84601021,87.95698037,27.9543934,-164.3953214,-136.7192245,-432.850336,-7.888961067,-63.32136129,-377.18477,-368.4213828,1069.419219,0,230.5663357,-64.37512374,-420.2563318,0,,,,
98.85599993,386,-52.04084329,86.83463396,159.061701,-363.1705648,-83.67953965,-37.28461427,-78.57040684,-26.12589202,403.8225949,372.419981,-954.0241718,0,-172.6147549,-648.9628796,335.1827643,0,,,,
98.86399993,386,-234.8496892,-296.8678915,-353.449709,60.73553486,294.4932918,-297.0257896,228.8458233,146.9736924,-341.7385745,-277.2302079,655.1270806,0,141.7463102,-137.7309562,-292.9339399,0,,,,
98.87199993,386,88.7847712,290.2714141,303.8088591,-408.3643051,-376.4910034,-251.8960543,-286.3470561,-171.3428947,91.75364491,47.9084518,77.28739981,0,44.91538325,-375.6253974,-7.552561831,0,,,,
98.87999993,386,-333.1034182,-352.9482138,-340.9715185,-55.72000154,278.2987877,-122.4266286,149.925212,131.984631,54.52103435,109.6570215,-657.8521372,0,-138.5356307,-515.9409988,98.62605171,0,,,,
98.88799993,386,-22.75072638,64.72010976,7.251077831,-159.1397717,-161.6760136,-417.3019347,-126.4973176,-79.87436124,-374.8048313,-377.8515209,1044.836545,0,214.3457143,-84.38435962,-411.4818704,0,,,,
98.89599993,386,-91.75368372,48.44466497,132.6315076,-357.1810951,-100.7838505,-27.29364973,-161.4414328,-39.67790104,381.7637322,345.0642159,-979.1401014,0,-191.8733532,-663.1239752,329.783774,0,,,,
98.90399993,386,-261.2844833,-325.4232431,-373.5360385,67.70573401,280.5742082,-298.7105119,170.1072107,135.747381,-388.3639033,-327.0636996,620.1948195,0,121.4156625,-152.0673431,-323.9400592,0,,,,
98.91199993,386,99.77610757,295.0761287,319.2785223,-397.0534944,-356.5667001,-220.4710188,-311.1096448,-156.9347054,103.0003287,54.39905647,49.7237548,0,32.9400451,-388.0193721,14.36141354,0,,,,
98.91999993,386,-277.4533865,-309.8258748,-288.2886974,-32.64954654,329.390367,-45.43660815,166.2140489,172.4596237,107.5060379,161.0380386,-647.8496808,0,-131.6389509,-509.8487749,162.7463133,0,,,,
98.92799993,386,10.24937839,77.5916207,18.05612827,-121.6299525,-123.4350773,-363.4819198,-95.98758139,-48.2367739,-347.3868297,-355.0911272,1076.566832,0,237.0496633,-70.21517149,-375.4794492,0,,,,
98.93599993,386,-94.51390646,24.84458365,90.0384607,-308.2158191,-98.02904179,-29.06924228,-140.7979416,-33.61060068,372.9771849,333.4463095,-958.279951,0,-175.2059025,-652.3896073,316.1291837,0,,,,
98.94399993,386,-257.5138534,-336.8046989,-407.8387939,122.1885133,260.7213435,-319.1388375,178.7483174,124.1922429,-416.7898022,-351.1461711,628.1386567,0,121.9743419,-140.28185,-372.9745071,0,,,,
98.95199993,386,92.2849606,278.0354251,298.7509019,-342.9747195,-374.1278617,-235.8557962,-302.4884561,-175.2577735,96.68998781,42.78986629,52.1407742,0,33.18089601,-379.375013,-18.33701138,0,,,,
98.95999993,386,-292.0261519,-324.8865388,-298.4749335,17.08723292,314.4243906,-59.35050938,174.0281952,150.2137474,107.2048055,146.2398549,-648.394419,0,-128.202482,-499.9344457,139.2249688,0,,,,
98.96799993,386,14.15868229,85.75341944,19.22265746,-73.75709052,-135.8675373,-356.423907,-90.15188496,-72.29673969,-353.9869872,-370.0299605,1074.07332,0,232.2748768,-53.59900216,-401.6176019,0,,,,
98.97599993,386,-74.18175458,50.68194562,101.8087967,-260.6197734,-90.06668804,24.83379009,-117.7650128,-48.21881533,398.1623055,352.3211248,-951.9836744,0,-185.4355373,-634.4128911,323.7039867,0,,,,
98.98399993,386,-226.7962651,-301.2161476,-386.3797626,167.6036838,285.8970477,-234.9927227,224.6857738,121.1710352,-380.929319,-320.9039851,647.5575734,0,113.7709147,-116.1183147,-346.3255409,0,,,,
98.99199993,386,118.2985009,297.1207515,303.8406085,-297.2935645,-350.3741938,-154.9864441,-241.9427448,-176.1400765,103.7735434,49.06693066,73.02703339,0,23.65439127,-347.3473131,-8.349274042,0,,,,
98.99999993,386,-280.7829967,-332.5377559,-320.0282481,63.9105575,326.4533072,4.000375164,244.2275745,148.043431,102.7796611,144.6081123,-629.6370917,0,-140.1699204,-469.3137957,144.1642698,0,,,,
99.00799993,386,23.2631519,79.05578262,8.118764627,-27.00967165,-131.3804871,-304.0720366,-17.75756891,-68.22041196,-359.6053542,-367.2101502,1083.059812,0,223.8729198,-26.2994438,-397.3228722,0,,,,
99.01599993,386,-47.55239781,77.90334952,134.2907668,-215.8207584,-77.58993604,82.09492355,-49.33765456,-30.93625831,386.930334,354.6167305,-943.484239,0,-182.3633322,-609.7488142,325.6008233,0,,,,
99.02399993,386,-190.2270697,-250.5148655,-337.1018335,201.1908248,309.4412115,-164.9507514,284.7176112,146.8840009,-356.7509083,-279.2529269,674.5045936,0,130.6866216,-99.95254646,-302.1239642,0,,,,
99.03199993,386,146.9305545,334.6044913,336.2090316,-274.0498292,-328.1406599,-86.88147466,-192.3772201,-153.3606008,141.1179088,101.0202615,103.3499197,0,41.71063007,-342.439817,46.63010182,0,,,,
99.03999993,386,-277.0851291,-331.9716179,-317.1535646,90.64481413,332.0754272,45.11773038,286.2380186,158.4154013,87.60742504,139.1301347,-608.8495125,0,-127.8071543,-470.0307686,145.3540535,0,,,,
99.04799993,386,15.27264171,65.41222304,0.500919456,-2.271793638,-137.1600705,-279.6938246,20.7088104,-63.45609489,-394.3086664,-384.9674266,1089.595487,0,232.4746235,-27.84748492,-406.0653333,0,,,,
99.05599993,386,-54.03644947,54.5029075,125.2812425,-197.0887963,-84.68064108,100.0244415,-12.90976693,-28.69891256,359.4424692,341.0978459,-948.0106298,0,-177.2800362,-610.8099497,327.786132,0,,,,
99.06399993,386,-220.2405176,-307.6348343,-375.1357753,224.3001829,285.333185,-171.6536847,312.7146544,135.035309,-403.4793336,-335.5989298,657.9606025,0,132.2823434,-99.45226816,-330.5053408,0,,,,
99.07199993,387,109.5840837,292.583104,288.0948848,-250.2357491,-365.7078948,-106.9021296,-179.8711412,-171.8718871,86.54251934,33.13168278,74.48136667,0,36.19157088,-334.2770217,-5.151909223,0,,,,
99.07999993,387,-288.9906288,-321.8178524,-332.107175,108.2574311,305.1442177,44.68331997,287.1420732,147.662965,53.20325539,116.7568734,-629.6530486,0,-137.8553949,-451.3895359,110.0920859,0,,,,
99.08799993,387,28.22335121,102.481557,25.25618729,4.79734781,-139.4474462,-242.3867117,23.0516298,-66.09860406,-386.0536626,-357.0167191,1074.278622,0,225.9365723,-8.060023438,-397.2805817,0,,,,
99.09599993,387,-34.93750915,96.87634746,159.2258261,-203.5232713,-61.65460065,164.77831,-6.449814911,-32.22296013,411.6120338,395.7187742,-950.8254475,0,-176.2894292,-594.0663557,375.7485961,0,,,,
99.10399993,387,-216.0248156,-276.7745093,-353.7820414,211.0326402,308.457735,-111.9097367,312.2763501,125.1202908,-363.0450937,-299.542739,666.5623979,0,134.7500217,-89.49736356,-293.4728914,0,,,,
99.11199993,387,112.0054391,315.7390805,317.7633906,-268.046765,-348.2579306,-54.8531439,-183.8694343,-179.9563572,100.8472509,45.99824192,70.49344657,0,38.48894706,-337.3505889,19.76933665,0,,,,
99.11999993,387,-265.7781041,-283.2682544,-278.6557357,77.00176143,334.9886267,113.5154456,281.9821676,144.2537665,95.72616045,147.4895146,-626.325461,0,-125.4349977,-467.3313366,174.9282035,0,,,,
99.12799993,387,9.935161243,92.79367625,23.83492178,-34.03823816,-124.9163793,-200.5951738,3.728940207,-79.84560811,-355.3140133,-351.5538421,1088.007542,0,240.8375804,-31.38607765,-342.6940371,0,,,,
99.13599993,387,-117.3578915,14.50526104,79.03203055,-233.8713363,-90.08927836,134.1369331,-44.13739556,-62.60195106,354.9176133,310.9798886,-955.4877114,0,-175.5004683,-612.1097671,342.3693793,0,,,,
99.14399993,387,-246.1929454,-301.0787472,-374.6902555,177.4722909,284.6720627,-126.6212841,267.7181512,105.0164921,-414.0257868,-375.527705,648.0663563,0,125.7133978,-99.33063844,-325.6752519,0,,,,
99.15199993,387,104.4313864,307.9940806,319.8075443,-307.1797605,-340.1382839,-25.24690775,-221.6521398,-186.4815766,114.0149414,33.76370847,65.55676393,0,31.56393507,-336.8632589,50.83769141,0,,,,
99.15999993,387,-322.3123308,-347.1545219,-339.8439622,47.00959983,332.5622962,107.8785842,238.8815989,120.5102803,64.75222422,75.25552137,-629.6537335,0,-139.6613646,-451.9916261,158.0059706,0,,,,
99.16799993,387,14.0092901,103.7219332,27.40865199,-68.42900222,-124.6551816,-197.7713493,-48.3331914,-102.3095744,-391.0245243,-420.1623547,1061.846005,0,214.0851824,-10.99818358,-380.5641881,0,,,,
99.17599993,387,-65.43051294,62.04165146,135.3671974,-273.1825289,-54.77975094,188.1067452,-80.79809307,-64.05181815,400.0126758,364.2472949,-961.830574,0,-188.2107922,-589.6766921,385.8636317,0,,,,
99.18399993,387,-247.8595354,-326.0540715,-379.782249,148.5356466,307.2734539,-97.75141862,240.4426298,94.5559506,-392.2948688,-331.6871895,661.3183007,0,129.9190947,-74.38204522,-294.4920307,0,,,,
99.19199993,387,116.4305163,302.8494873,323.7777874,-334.6916025,-343.9595738,-18.72195804,-253.8292285,-205.9500866,88.17989717,35.2526219,52.26573185,0,34.62636925,-314.0840367,28.70761879,0,,,,
99.19999993,387,-264.8137509,-310.3401518,-293.2554691,19.06751333,342.6523405,151.6433073,214.6703414,113.5138428,93.6292427,154.891058,-634.2033183,0,-126.0865984,-433.4223723,183.6091732,0,,,,
99.20799993,387,30.92280833,88.29361045,32.17668001,-77.28471671,-114.6248919,-162.4484017,-65.98559352,-107.2796243,-356.6752233,-346.8063683,1078.48401,0,237.6345497,4.217205688,-340.5710678,0,,,,
99.21599993,387,-43.67080643,58.44050815,148.4597501,-267.5014108,-58.38405994,199.0667095,-105.7079811,-69.113927,377.5307583,338.8184966,-956.6462553,0,-175.2699253,-577.079681,376.0361161,0,,,,
99.22399993,387,-189.4700367,-282.6585598,-329.8175346,155.1408347,317.8147349,-54.61324196,210.2513339,99.37676409,-369.4559868,-318.0647722,667.9669365,0,139.7942606,-71.69450483,-264.0995714,0,,,,
99.23199993,387,119.9984143,285.0227471,316.3402845,-310.423754,-328.9986222,16.7486168,-289.4403458,-198.4435256,129.1796131,70.85299918,70.15835065,0,49.33668309,-314.1560087,79.34844168,0,,,,
99.23999993,387,-279.4784272,-350.313798,-316.0409521,61.48677649,338.3605861,150.396476,169.7871264,125.5057839,57.51479067,95.67239185,-623.5030405,0,-117.6144825,-423.9496507,159.8278661,0,,,,
99.24799993,387,59.62314913,102.3971559,58.6297707,-37.61590986,-109.9967928,-138.1258982,-104.7199903,-78.36033529,-372.3559065,-381.3527663,1073.493481,0,243.376802,19.1546056,-353.6007003,0,,,,
99.25599993,387,-2.861225551,97.14238265,186.7740234,-236.0013072,-29.69240176,254.7221354,-127.193642,-24.85603222,418.2602333,390.0767943,-958.0627642,0,-163.3405098,-553.9371442,418.0302058,0,,,,
99.26399993,387,-150.7652912,-239.1755406,-296.068464,180.40948,348.39869,2.782766785,194.0497971,148.4476188,-340.379961,-261.2559367,677.38228,0,155.048652,-40.76920485,-230.254614,0,,,,
99.27199993,387,150.8977341,325.6583851,354.2196638,-289.0745154,-297.3209715,74.68552353,-301.6867989,-151.5748157,158.552901,122.4262087,80.94142934,0,65.05478399,-284.63321,101.2066409,0,,,,
99.27999993,387,-256.0821584,-306.3137738,-268.6540129,75.98678344,369.5305358,198.0477908,168.0390511,167.4243642,96.26641309,145.6819444,-605.5637336,0,-103.6923222,-404.6547353,183.8595928,0,,,,
99.28799993,387,62.49256062,132.9575487,84.29392823,-25.78214321,-87.24506457,-111.1776127,-100.4951264,-45.54780776,-333.2749867,-333.4916616,1098.037396,0,257.0934558,20.21281616,-321.4975417,0,,,,
99.29599993,387,-46.63960838,74.26695558,156.4399085,-209.8817805,-26.64412436,248.7747411,-128.0089279,-9.807233195,430.2966381,401.2118839,-938.1399174,0,-148.5536472,-567.2471899,414.8724507,0,,,,
99.30399993,387,-193.2361785,-268.5949525,-325.6981419,221.2847903,326.573306,-28.87961427,182.8673277,153.6035742,-375.9988661,-318.3862095,678.459879,0,160.6503443,-62.54519018,-291.7049884,0,,,,
99.31199993,387,135.5740756,318.6313544,345.9771133,-244.8528016,-317.0050905,40.40624746,-315.5964399,-144.5754485,127.6895818,73.16506508,69.46604122,0,64.23976824,-307.4878289,57.69772209,0,,,,
99.31999993,387,-278.8451027,-326.0157334,-294.6655338,120.2043889,363.1116933,162.9844791,144.7462336,166.65818,91.29942106,137.4381737,-620.2501261,0,-101.2644703,-420.4364944,167.7491067,0,,,,
99.32799993,388,68.83575214,145.2826537,87.4164513,15.88808495,-83.67897926,-130.1915305,-146.2633561,-50.73540459,-331.8970836,-330.1185308,1077.278884,0,255.2843395,13.34120194,-345.3008028,0,,,,
99.33599993,388,-12.78942402,115.4782182,187.6729855,-176.3230531,-10.83211966,238.0635294,-189.2144313,-13.18384692,441.090713,426.8723663,-943.6965941,0,-149.5837545,-561.374425,404.4005734,0,,,,
99.34399993,388,-194.7447406,-272.5093468,-326.7258538,247.6873028,344.9872313,-58.0980893,116.8916268,145.2422731,-362.2481282,-294.5456759,684.1837992,0,167.6940685,-44.59384224,-286.3171501,0,,,,
99.35199993,388,112.7933872,288.5629835,328.9492375,-217.190355,-305.2422891,4.713872412,-382.1944641,-155.9629005,126.8929772,68.2648677,68.32585677,0,64.99538283,-282.4669213,55.40381328,0,,,,
99.35999993,388,-297.264313,-351.9688959,-310.5771877,149.2561518,359.0712725,130.3013143,78.32939959,153.1801886,75.24949304,127.6113538,-622.6302228,0,-111.0293051,-391.9750457,152.8361887,0,,,,
99.36799993,388,40.11563799,107.1357167,59.26882369,48.56597083,-108.9732189,-161.230383,-209.4743461,-66.88438712,-369.3320357,-355.2142999,1065.300395,0,243.4327574,41.51754513,-377.5844154,0,,,,
99.37599993,388,-47.67355066,74.20252335,158.7173298,-133.6809501,-38.41852077,222.0882576,-233.9536324,-28.92862826,405.3315889,398.1271035,-960.3508995,0,-162.0924839,-535.1533628,373.2886121,0,,,,
99.38399993,388,-211.9537183,-293.1189392,-337.5473324,291.8880891,325.9864091,-53.41913017,95.70882927,127.2507244,-371.3326873,-312.3708693,665.3577617,0,150.4405558,-24.03238717,-303.3748611,0,,,,
99.39199993,388,107.4494738,284.3641861,319.5433595,-174.9813821,-325.3143207,15.4851934,-391.2376066,-176.1677986,113.4218849,26.6842286,46.79369816,0,46.67988796,-271.7219821,27.38009265,0,,,,
99.39999993,388,-292.5449099,-339.6445173,-314.4034874,188.9076667,341.0622567,149.7713348,87.08885701,141.7817595,62.41399988,91.41581191,-631.9168159,0,-122.6717259,-391.3194183,126.3197662,0,,,,
99.40799993,388,62.14655339,129.0440541,72.52029771,79.15488705,-115.4011898,-131.2058378,-174.616053,-66.59126933,-363.0826987,-383.7182343,1058.841871,0,235.4051914,38.5036737,-385.0339496,0,,,,
99.41599993,388,-35.41117073,79.54397767,156.9325889,-115.5940631,-30.25342688,244.128315,-190.4198122,-27.1083316,427.46925,364.4535518,-956.9900129,0,-166.1070176,-534.0289571,389.5716078,0,,,,
99.42399993,388,-230.0332199,-311.0059569,-367.6992722,303.7068855,326.7326858,-55.42567979,122.9166368,123.4581051,-375.0284357,-334.819664,676.506794,0,147.9605019,-21.46881652,-306.5097415,0,,,,
99.43199993,388,96.11988681,273.739357,305.4555267,-160.3271988,-331.3831507,9.335125369,-376.8326409,-176.4255147,81.48011269,15.4786772,45.79153633,0,42.21492466,-265.5229444,-7.65159824,0,,,,
99.43999993,388,-281.6834045,-334.4908467,-297.1583974,200.4025499,359.0117203,165.7073913,103.7031374,149.425583,84.16420343,127.0098999,-626.309503,0,-116.6332835,-376.6303402,146.9856166,0,,,,
99.44799993,388,38.74185435,98.45475196,55.24949139,96.96887298,-103.8952677,-134.6327288,-164.8043127,-66.02301624,-353.3761767,-356.8317702,1064.484574,0,243.4841426,55.22356433,-368.9831373,0,,,,
99.45599993,388,-66.86308934,42.74100356,129.1887556,-82.0675345,-47.63714991,216.4928593,-187.8210572,-29.04371719,376.5283196,349.3398272,-964.0386929,0,-170.640989,-519.2998152,344.6105273,0,,,,
99.46399993,388,-187.3939577,-274.6025626,-318.1944558,328.6778009,330.559042,-32.29681482,139.7625103,138.2353569,-355.5963165,-285.4650965,675.6112089,0,145.1713986,-12.59078395,-285.261645,0,,,,
99.47199993,388,167.5053385,334.6144895,369.7949547,-151.707696,-301.792281,66.94182257,-351.6116634,-160.1364574,156.2099314,99.11835527,63.70446362,0,49.24907959,-262.1098271,59.92214144,0,,,,
99.47999993,388,-257.2746832,-318.8120618,-297.2214148,199.5571713,365.1856833,184.0008562,106.0195873,138.7635675,118.4401765,155.4677581,-596.7040097,0,-111.0419112,-383.8008863,163.7635166,0,,,,
99.48799993,388,36.04475004,87.55366353,31.13505782,83.44317729,-112.4611917,-140.6684221,-184.8740235,-94.7162662,-333.2815739,-342.3331673,1076.089867,0,240.155312,25.19446592,-367.316517,0,,,,
99.49599993,388,-87.05460308,6.686880501,87.78194644,-97.41651919,-62.69021443,196.333194,-211.7720875,-66.75826655,359.6890221,329.5282225,-970.442014,0,-178.787448,-555.717753,313.741465,0,,,,
99.50399993,388,-233.9595127,-331.6130113,-383.9165754,317.8247655,291.6130098,-79.26963883,112.1309903,88.77532862,-417.1641628,-362.6317563,655.8698306,0,130.9217006,-41.77589658,-354.4713374,0,,,,
99.51199993,388,131.0392814,300.0552162,331.382149,-164.0321868,-332.124546,34.14262889,-377.2054553,-195.0004431,120.5486757,48.43412667,28.27405326,0,30.20104892,-286.5586106,31.25391074,0,,,,
99.51999993,388,-276.3384362,-336.7738581,-309.8374882,192.1209629,354.739875,181.3757195,97.42789473,131.7787236,92.70036622,133.5991938,-622.3139581,0,-124.2189192,-390.1932117,163.0323739,0,,,,
99.52799993,388,16.99296129,66.93465057,13.86147033,85.44981985,-124.8873933,-142.8338916,-183.6582156,-93.11907978,-380.9597625,-378.8260892,1052.338372,0,230.0736012,43.43839556,-381.2854464,0,,,,
99.53599993,388,-63.89518302,32.25992759,111.8189121,-101.3078959,-59.12514677,205.4030945,-218.0802828,-55.12332396,346.6230344,310.296434,-999.7190835,0,-187.0460649,-524.7542735,334.6092664,0,,,,
99.54399993,388,-170.9733215,-264.8566472,-314.2940036,296.5732191,325.1854108,-33.14262641,105.2333328,116.2070143,-350.5527168,-320.8385872,644.2674563,0,134.0779016,-13.39946497,-258.4552855,0,,,,
99.55199993,388,136.3796136,302.7959754,338.1359932,-179.7885243,-315.2525645,54.56468237,-386.8732959,-180.80099,151.4698856,71.31518027,26.86475655,0,38.31883077,-260.2848163,91.27690412,0,,,,
99.55999993,388,-281.5308112,-346.5338314,-323.52471,188.3105867,343.7364848,163.5553419,71.51323349,130.6888491,52.82860701,103.6534656,-632.7040036,0,-123.9213716,-360.5426534,147.3069836,0,,,,
99.56799993,388,101.2662959,150.4600377,91.98106392,65.60428721,-100.9487537,-104.4781834,-205.9080759,-80.15574092,-330.5896136,-324.6726944,1047.629039,0,234.7677184,67.8491522,-327.1244224,0,,,,
99.57599993,388,-6.1106497,82.87035599,152.6399774,-124.3814369,-23.62488666,255.1196129,-233.7343329,-47.36936469,431.9399402,411.8942982,-973.1698668,0,-165.9019564,-503.2163428,416.2546298,0,,,,
99.58399993,389,-184.1417718,-291.208135,-361.0796006,292.1387746,312.6335228,-54.29323716,73.83476891,101.0335501,-367.9696122,-296.0533076,668.1800714,0,148.7861555,11.87248161,-281.2435883,0,,,,
99.59199993,389,178.7880774,339.9273639,357.669947,-185.7759068,-319.9699008,40.76723366,-406.2426748,-187.41869,151.2363372,100.9894986,27.04615042,0,39.33643228,-237.3711868,70.38099416,0,,,,
99.59999993,389,-247.9321412,-312.598595,-299.0880701,183.08119,361.8508309,167.8442232,78.98892196,128.6790732,107.8495505,157.4603916,-615.7444506,0,-112.9493332,-343.2766867,179.2890548,0,,,,
99.60799993,389,49.36966648,102.8670474,42.30516624,78.1982043,-115.6668797,-143.0585587,-208.4112893,-96.518779,-340.2698926,-345.2835483,1063.519128,0,242.8187574,75.04512041,-352.2770856,0,,,,
99.61599993,389,-38.56700983,62.23524227,139.7645265,-107.3521536,-45.96811037,227.5639057,-242.4140344,-57.29224805,400.5312631,365.6491659,-979.0141001,0,-173.8811814,-510.3337302,370.6247541,0,,,,
99.62399993,389,-212.0421287,-311.5549863,-374.958811,311.6818738,293.1897806,-63.57021574,69.80568112,93.79760955,-389.6130982,-327.9067515,665.0786476,0,145.1527358,-1.799928736,-309.3583142,0,,,,
99.63199993,389,141.359344,301.3665637,329.9628338,-165.6347938,-347.9184171,29.68468745,-415.1242984,-195.5962758,118.3252639,67.6764331,21.82208504,0,37.47216433,-253.6273411,41.52632642,0,,,,
99.63999993,389,-246.6488727,-317.2042524,-288.3093332,192.4869881,340.8387101,178.6528689,72.15205284,127.6454407,95.69152586,152.474299,-622.8553351,0,-120.5775843,-360.2972324,179.6180529,0,,,,
99.64799993,389,4.673117708,45.29451091,-16.57105535,92.94958455,-161.7748187,-166.7993781,-216.493991,-113.2098222,-388.8190787,-376.790246,1053.551614,0,233.1083107,68.28211568,-382.3289548,0,,,,
99.65599993,389,-95.10410644,-1.396190287,76.31816082,-87.36149738,-104.6431039,182.6923717,-256.3309066,-77.84924377,327.2256901,302.9008226,-1004.601228,0,-194.2987174,-509.0625777,305.8802494,0,,,,
99.66399993,389,-210.8235002,-304.9945876,-356.3508531,324.34143,268.8557944,-63.02549989,49.70921059,86.94485376,-413.3995672,-345.3266327,640.227073,0,118.6392405,-4.140142003,-328.411506,0,,,,
99.67199993,389,97.62805429,265.5534719,290.5245253,-140.5717993,-373.0792147,12.87804693,-456.4686884,-219.075875,79.49584396,40.27617712,8.441749843,0,17.1255668,-257.6570184,12.1647924,0,,,,
99.67999993,389,-280.156349,-333.0890218,-314.0668208,226.7443566,315.1568209,150.8285112,6.767750276,99.07885369,40.03404248,98.11732654,-641.8376855,0,-143.3402471,-370.6862331,111.2060336,0,,,,
99.68799993,389,73.68362318,140.8274038,82.49547818,113.830741,-121.5949045,-111.2143496,-269.2620853,-108.2568427,-339.5385989,-334.6448936,1042.448634,0,217.5384719,43.71368569,-360.5180217,0,,,,
99.69599993,389,-41.91491156,75.62475848,153.9598343,-69.20622021,-29.00435554,260.5305914,-274.4929737,-59.97012296,426.5536993,388.8444497,-979.0299185,0,-182.6495539,-534.0392301,396.7214343,0,,,,
99.70399993,389,-199.1284462,-270.9231218,-322.990196,344.079284,318.7543442,-29.00965447,55.32042892,101.6304871,-368.2929095,-331.3095075,667.822395,0,137.7263838,-21.02165415,-285.18172,0,,,,
99.71199993,389,120.1409253,305.3271308,336.9962514,-125.8397222,-325.0914275,48.33607416,-422.248488,-190.3288189,133.1807186,66.06486704,19.12495002,0,31.13071593,-266.2384292,57.68327204,0,,,,
99.71999993,389,-272.7447291,-310.6178297,-291.7701022,240.7615405,356.1748911,182.0540372,55.67177943,131.0562453,86.71202124,147.9625557,-621.3987672,0,-124.524555,-369.4519861,159.8879465,0,,,,
99.72799993,389,72.98421626,154.9821706,97.24177562,123.7244344,-111.2433934,-96.44785266,-227.3617436,-83.0555468,-333.6403733,-307.4485288,1059.52611,0,236.1054112,49.30383402,-344.4009572,0,,,,
99.73599993,389,-63.16338287,57.84802096,142.9709874,-60.84069432,-32.05402742,260.5568699,-234.3273865,-40.65864432,429.9765714,416.8001345,-970.8793491,0,-168.6830911,-520.8625749,408.709144,0,,,,
99.74399993,389,-221.994079,-289.6386048,-345.2200203,352.9427741,309.912437,-39.37415771,88.00986501,116.0771434,-387.9659936,-319.4554038,669.0380929,0,142.0082153,-6.989517318,-298.6036411,0,,,,
99.75199993,389,136.9965091,328.363318,357.1596072,-124.0420285,-322.9295481,66.02649874,-393.5023335,-166.054765,134.7654365,93.8061319,15.91505035,0,31.56420802,-263.353056,65.95437018,0,,,,
99.75999993,389,-307.2737745,-356.5502786,-331.5305308,247.1095276,352.0139253,177.3648365,83.76940639,147.9015417,91.48592088,156.0761341,-621.2395811,0,-120.259926,-366.1937652,180.1856361,0,,,,
99.76799993,389,9.708137709,81.74830898,21.10158291,141.2337868,-148.6779435,-152.5451348,-223.356063,-84.11741695,-412.9998776,-396.645855,1025.383534,0,221.4132028,50.18643176,-410.4059697,0,,,,
99.77599993,389,-58.85643141,64.85451299,136.2630628,-43.00983171,-60.4206472,235.0647929,-253.3276403,-34.52160224,374.3790449,363.1318749,-1022.4317,0,-195.4631553,-532.5854377,356.6768261,0,,,,
99.78399993,389,-233.00974,-301.5894927,-374.500307,378.7387492,296.4511134,-44.56684028,61.31130418,118.1756362,-379.889689,-298.6922381,640.7992817,0,126.860843,-19.60948524,-286.9785637,0,,,,
99.79199993,389,113.4550974,307.6878934,321.6194893,-85.72287034,-347.3901289,47.20380341,-434.1097273,-178.8609764,96.18874392,58.92544464,-16.13753774,0,14.46014394,-272.230179,27.77446057,0,,,,
99.79999993,389,-284.6842095,-326.9302276,-305.1864416,282.340172,341.6669097,189.9167426,38.92841388,138.9050419,73.48035941,137.6801087,-648.9854384,0,-135.0239211,-374.6742694,166.6053711,0,,,,
99.80799993,389,6.897662976,79.69098454,17.5018548,174.3551571,-141.8163579,-128.0627014,-253.057921,-96.19195606,-375.0844525,-364.0509615,1019.8885,0,218.7486698,46.70528759,-361.3296198,0,,,,
99.81599993,389,-65.22591106,58.05159147,127.829699,-8.86251591,-54.07276012,247.2193525,-273.6287293,-54.82790392,381.675992,341.3590294,-1022.172206,0,-199.378168,-528.8552622,364.1243329,0,,,,
99.82399993,389,-232.5486917,-308.9325067,-370.7792909,407.9539502,298.8595682,-37.19322914,38.82188376,94.23861757,-381.8729667,-328.3277326,642.507265,0,124.8013878,-14.18824661,-289.1640369,0,,,,
99.83199993,389,65.68625702,241.3585554,265.574896,-54.46318023,-370.4476808,17.35238804,-467.0828977,-215.5253634,64.79601366,19.78219237,-27.88412737,0,4.951448444,-267.3911558,3.984858813,0,,,,
99.83999993,390,-298.6165855,-354.7503783,-329.8881589,309.1106838,308.3278945,160.7655247,-3.723153787,102.7926241,36.39687449,80.60946158,-679.4559473,0,-163.0115191,-370.6893205,122.2882023,0,,,,
99.84799993,390,42.98870146,108.5180017,55.04518355,188.9983784,-154.7317737,-115.001261,-294.0321933,-115.418599,-350.8560101,-357.6807228,993.7752629,0,197.820824,46.45123251,-351.3106163,0,,,,
99.85599993,390,-68.22355031,49.76688211,131.5153006,8.988266347,-73.60077662,252.9589053,-319.8870774,-70.38679352,390.8987738,361.8826785,-1034.091157,0,-205.2729092,-527.8059384,381.2696306,0,,,,
99.86399993,390,-255.6704078,-328.7279069,-381.0279685,427.4108111,264.9562746,-49.25088568,-21.69764274,73.86267622,-398.8434324,-342.3389688,624.0077774,0,118.4410545,-9.127395345,-290.2615828,0,,,,
99.87199993,390,88.03836477,281.993963,312.3329667,-45.08536903,-381.2939186,28.16667544,-518.3691108,-223.0283342,79.37962265,19.44875562,-54.28381,0,1.7319563,-262.7656752,16.96287684,0,,,,
99.87999993,390,-277.5172885,-309.8228819,-280.7543904,317.6973216,318.3369503,180.2537819,-29.36202651,108.1507386,71.65395308,109.6058168,-675.5787739,0,-149.4409514,-361.9141128,152.4676607,0,,,,
99.88799993,390,25.80689595,104.8105871,56.75615204,201.3945529,-145.0227083,-118.7519162,-308.6410364,-114.8237955,-323.9713696,-347.7041368,1012.616803,0,218.0449639,61.45445581,-324.2656282,0,,,,
99.89599993,390,-34.134598,93.49048488,178.6509412,10.50546948,-46.80964975,261.5169265,-332.1422552,-64.47688833,419.4911878,355.3671362,-1027.063639,0,-192.8999948,-510.3948361,395.6322249,0,,,,
99.90399993,390,-169.4365631,-233.7804806,-279.8716048,415.0793009,324.6318247,0.177430263,-28.83753609,95.90817592,-320.8173516,-282.8512881,646.3096408,0,136.7203664,3.448238464,-237.4415776,0,,,,
99.91199993,390,138.9831578,330.1356308,371.3016333,-54.43908885,-312.5192099,78.12225004,-527.9117773,-195.5060605,171.0794123,113.1337716,-8.965162899,0,34.34698995,-257.7081084,96.68909112,0,,,,
99.91999993,390,-250.4917288,-286.5657477,-254.2434061,314.2189572,364.6701614,206.3415794,-55.34984164,134.7900841,105.1144969,149.675466,-630.8065032,0,-116.7302628,-359.5688375,183.1657038,0,,,,
99.92799993,390,44.31729491,122.2265837,72.59912129,201.5118911,-124.417097,-102.6304783,-348.4145958,-91.34580142,-322.1407676,-324.7327084,1038.920643,0,241.5634258,57.29899553,-328.7788038,0,,,,
99.93599993,390,-55.06215409,64.14392226,150.360954,21.88487211,-53.58156266,258.4700543,-366.3382678,-50.80215577,403.783456,377.2364036,-1009.600903,0,-177.2863246,-519.3967691,370.9919369,0,,,,
99.94399993,390,-190.0357254,-263.4252633,-311.9906141,429.995166,295.2417402,-11.39102545,-47.79551231,106.010304,-358.8677775,-290.0712319,652.0015596,0,142.1779912,-3.255751414,-283.6475995,0,,,,
99.95199993,390,126.4383,307.447363,339.3899243,-38.55337515,-342.7298007,66.06151069,-537.6084823,-190.6497826,131.9497323,95.66648158,-17.77325214,0,33.89182627,-258.1031302,57.13650717,0,,,,
99.95999993,390,-295.7237675,-343.7587944,-317.0295155,335.0232768,325.3321618,170.1960272,-63.70398672,122.0439934,61.50944515,127.4782756,-644.7514537,0,-121.8053844,-354.6857412,136.5374232,0,,,,
99.96799993,390,-2.194381652,70.38483724,19.16467941,225.036907,-178.5107934,-148.1061744,-359.3402506,-113.3358639,-374.8617038,-358.3791269,1002.240831,0,220.206792,57.90310541,-392.0563918,0,,,,
99.97599993,390,-83.81403787,31.57371946,109.6589641,50.55117962,-96.06865935,216.5389962,-377.0817108,-72.15798479,350.5121964,346.2165898,-1051.568181,0,-206.6373874,-517.2376727,311.9641899,0,,,,
99.98399993,390,-213.2695554,-288.29946,-344.6827835,450.7860644,264.4739715,-49.42337232,-56.1846416,84.4102965,-386.6624159,-298.6656364,621.2200624,0,117.6515391,2.347169723,-319.2502822,0,,,,
99.99199993,390,95.71426609,280.249153,306.7484806,-28.38519815,-381.2582719,33.86137035,-549.7320873,-217.8452138,116.5714524,72.32517943,-49.40879439,0,8.458067174,-259.7308347,30.54728125,0,,,,
99.99999993,390,-320.7954734,-367.3631019,-346.1792325,341.8508939,288.7157395,138.9994514,-84.04205831,90.53521714,26.93843972,63.43835963,-674.5173765,0,-151.0264097,-359.4996635,100.9510592,0,,,,
100.0079999,390,7.02835064,75.57732378,33.30977933,216.4369485,-187.1732246,-149.9996043,-369.3730526,-130.3515081,-373.0271224,-367.3920872,979.6206137,0,200.9303708,49.76574329,-372.3480132,0,,,,
100.0159999,390,-66.17503596,45.61783986,140.5728297,30.66824536,-85.53796933,244.7737963,-364.7216218,-73.14457393,381.8611325,382.1566396,-1049.629431,0,-206.7069179,-532.1927132,375.6832157,0,,,,
100.0239999,390,-213.5217206,-287.994648,-339.0548415,436.290522,266.6692329,-34.14563502,-37.78734104,84.60113434,-392.2170201,-308.6842291,629.7151075,0,121.268778,-16.32199704,-293.4222308,0,,,,
100.0319999,390,82.2796752,264.8291813,291.7061541,-33.04909193,-381.1433266,41.43507313,-518.1621641,-210.2692584,119.4629386,91.08331617,-51.34748966,0,10.76336635,-277.6367834,54.23680356,0,,,,
100.0399999,390,-318.5067467,-363.8034315,-344.6353382,343.7478084,289.3240161,157.8010748,-37.48873595,104.5315002,30.38478827,106.0336456,-672.1053337,0,-145.8800301,-369.4924654,111.092406,0,,,,
100.0479999,390,17.97979345,91.38575389,39.1174801,223.3015604,-199.1805598,-142.1830165,-338.4189519,-127.5236189,-396.5881176,-376.2038877,976.5589614,0,202.3466146,48.33305893,-400.8824635,0,,,,
100.0559999,390,-102.8165823,0.597742591,92.12111178,43.35349365,-112.4864487,217.7331005,-361.2846599,-95.97362571,385.1859343,367.0868798,-1057.720337,0,-207.5810888,-529.1846795,365.0121156,0,,,,
100.0639999,390,-252.3823286,-335.6853104,-379.1167059,443.0521279,228.8052682,-86.93332678,-58.77958478,38.5086673,-405.6339583,-347.6763502,606.2269256,0,110.0697906,-18.75496345,-325.0837586,0,,,,
100.0719999,390,105.359445,292.5230443,324.6903945,-37.60116235,-399.1694905,3.167299814,-544.6983971,-247.9411045,95.13061,38.5843589,-78.76222441,0,-6.690765959,-287.6446753,27.59232204,0,,,,
100.0799999,390,-280.0268805,-322.7794976,-295.955619,330.9134279,310.295134,155.0495564,-40.72155558,86.22191161,84.70615518,119.2265537,-664.1713676,0,-146.1384205,-375.7167722,178.3781107,0,,,,
100.0879999,390,34.99547586,108.1518336,63.62510062,203.7709173,-165.7759048,-138.1018227,-313.8461921,-139.4849145,-336.5617751,-347.9902894,996.2262342,0,211.0793339,46.40894796,-333.5380273,0,,,,
100.0959999,391,-89.06235527,25.11830116,104.6737595,31.97896426,-86.52148496,216.4902699,-312.8034706,-89.73678814,390.1313057,373.6433038,-1037.226822,0,-200.9499896,-520.7762057,376.0945986,0,,,,
100.1039999,391,-221.4397978,-286.7318211,-345.3218775,436.6721611,254.804147,-57.55840409,10.49000666,69.4743803,-389.7458642,-307.4112028,634.7540243,0,119.8490823,9.276681734,-298.1705745,0,,,,
100.1119999,391,119.3261588,317.204449,358.6984275,-51.32940161,-374.2962539,48.42461854,-477.2564372,-217.3128536,122.3930653,113.0223361,-54.41459469,0,7.119906664,-248.094812,63.55523895,0,,,,
100.1199999,391,-322.9897069,-354.4099555,-312.479227,316.901237,312.0796938,159.4911198,0.752830199,101.1597106,90.44755005,182.1929643,-645.5423308,0,-134.4596009,-331.3298643,188.7687701,0,,,,
100.1279999,391,-14.05632263,87.3461797,45.63288757,179.9134582,-178.8111067,-158.2620767,-294.425664,-128.3989748,-341.8871082,-312.4370587,994.1941212,0,210.2426937,88.88773306,-336.4105336,0,,,,
100.1359999,391,-112.2712536,39.98933891,117.1420073,-11.17654044,-94.99550137,198.0351086,-303.622922,-78.69021104,375.9757212,400.3837108,-1050.105885,0,-206.3653719,-483.6575846,368.2802845,0,,,,
100.1439999,391,-262.4533324,-295.5279879,-360.5206089,387.2667189,242.7705258,-90.32588306,13.75293651,75.26380472,-392.5603655,-279.1886572,628.801682,0,120.204047,47.1077444,-293.1353168,0,,,,
100.1519999,391,82.0377823,300.5661455,330.7821079,-102.0515072,-388.8035925,5.286322323,-470.1442821,-210.5840831,124.477181,104.4634045,-61.65031133,0,5.543097226,-208.2833054,59.31494254,0,,,,
100.1599999,391,-283.9795448,-299.2312988,-272.9643507,256.1383012,314.2863485,146.7377549,29.20443034,118.5954382,104.1513307,180.1278867,-642.8284074,0,-134.1613929,-291.6506902,186.2158974,0,,,,
100.1679999,391,53.81973752,164.5721689,109.9705559,114.6035888,-149.2417097,-128.2316912,-235.2609885,-101.7755647,-277.932,-235.2117068,1017.301561,0,225.9335894,129.9085116,-276.4218079,0,,,,
100.1759999,391,-96.47052504,47.49382004,125.0600188,-58.93507775,-68.60045513,204.5394543,-229.2969936,-63.81155122,409.2394285,451.9538587,-1016.929205,0,-182.6121826,-435.7027726,412.4822702,0,,,,
100.1839999,391,-251.4503168,-301.6750249,-350.0258008,350.6990456,248.8581765,-118.6717866,90.768365,74.1417513,-401.3877897,-293.5833984,646.6997536,0,136.003473,94.36834773,-293.8417991,0,,,,
100.1919999,391,130.9766306,334.0620455,385.934485,-142.6087256,-370.630735,8.364375007,-385.1682531,-207.0861629,163.3735628,108.0478813,-53.24606969,0,18.55403862,-171.0565839,97.40934738,0,,,,
100.1999999,391,-274.0322281,-301.973446,-271.0970517,230.9581971,322.7731847,151.3022426,110.2009418,118.1681247,122.4227762,165.8002437,-622.4533379,0,-115.0486939,-257.5677484,214.6421504,0,,,,
100.2079999,391,12.97679345,113.8435792,52.11126304,112.2738583,-189.4869228,-168.4557487,-174.1442412,-114.769679,-348.7062313,-305.2093487,1016.557328,0,232.7278869,160.6756343,-326.0199473,0,,,,
100.2159999,391,-70.4819734,58.8134295,139.3720202,-65.48090688,-105.9845877,190.8087362,-175.4567053,-60.97413051,368.7652127,418.9206344,-1032.952283,0,-193.2573962,-415.30049,374.4104111,0,,,,
100.2239999,391,-200.2334014,-269.0969638,-316.0416316,332.6870908,235.9892741,-101.4508193,148.4655654,91.61205116,-369.7400228,-254.8191097,651.8567221,0,131.9998699,101.8992893,-268.5849376,0,,,,
100.2319999,391,104.4178584,291.9631179,330.0451856,-154.9455958,-408.444749,-40.9450512,-331.2737651,-202.4020298,131.5120903,125.8857012,-48.14008569,0,15.19429321,-168.9848764,76.23046689,0,,,,
100.2399999,391,-294.6061001,-332.543512,-310.5000011,215.5162053,273.6621006,50.90817587,151.9263419,116.6821959,40.48076206,156.8605861,-633.1636774,0,-135.2677962,-256.2400315,139.3230227,0,,,,
100.2479999,391,12.1146995,115.13843,59.70476589,81.02276992,-208.6713021,-255.7762016,-140.8444782,-112.8054266,-366.6431268,-291.4056347,1004.642288,0,213.1814228,153.99654,-348.1659985,0,,,,
100.2559999,391,-117.2380719,28.5465706,112.890441,-95.67614652,-112.2848643,98.89006575,-144.0047709,-62.8667625,353.829497,403.5241687,-1031.144083,0,-200.2577028,-416.4593096,363.8171621,0,,,,
100.2639999,391,-240.193098,-279.5806276,-330.2449126,308.0501611,234.1906183,-177.3829101,176.3518099,90.42624553,-408.2887037,-285.5783119,652.7872478,0,125.4714932,126.1059514,-305.1038483,0,,,,
100.2719999,391,77.07913443,294.9444325,329.8966899,-176.2415703,-397.4397037,-62.59615716,-307.9517969,-207.3580451,126.8974007,134.7385232,-53.51345306,0,11.99184612,-120.9788563,76.901903,0,,,,
100.2799999,391,-340.607081,-363.1483086,-341.930737,203.6572462,269.1222727,40.13393469,165.2575474,91.6584445,14.54622468,131.3344497,-639.1675268,0,-137.5248927,-191.3717765,127.8778257,0,,,,
100.2879999,391,2.990733927,112.2437346,59.90779212,64.87125001,-220.5023234,-251.4113699,-131.6963334,-141.6697843,-388.9995848,-341.3321053,980.9165177,0,200.5202091,220.9496317,-378.5487234,0,,,,
100.2959999,391,-102.278745,51.90327719,134.9426518,-118.504752,-106.9057845,141.5931242,-133.0331441,-81.33686783,393.0714043,398.5070454,-1045.527016,0,-207.388756,-362.9592886,388.0331798,0,,,,
100.3039999,391,-242.3888235,-270.5095145,-331.8279476,284.4866277,239.0261947,-142.5909033,179.9120688,71.21613464,-383.9397776,-307.0456565,648.3096826,0,123.8775091,159.3303135,-274.9735351,0,,,,
100.3119999,391,96.10342585,320.6148541,350.3560045,-207.3233299,-386.2945876,-42.17742991,-301.2745561,-214.361633,134.10511,100.7262923,-72.11495316,0,6.543386542,-107.5537442,89.82335674,0,,,,
100.3199999,391,-324.6787474,-347.4735657,-323.0406934,173.5873535,286.9231783,55.2536493,181.0031336,101.4915128,51.70479327,145.1866104,-637.668357,0,-132.2241776,-182.7518799,166.0752985,0,,,,
100.3279999,391,-26.65807719,83.02216227,23.54449364,45.54811633,-218.2675683,-262.4161314,-125.4992481,-139.7249091,-381.0017737,-349.8206261,986.3788608,0,207.1003084,236.8430329,-361.5431848,0,,,,
100.3359999,391,-129.5786384,22.234947,94.4245253,-130.3072927,-116.9601049,111.6960171,-147.9441635,-91.02732667,352.2295503,353.2314703,-1064.646786,0,-214.2610841,-336.4374637,367.7832569,0,,,,
100.3439999,391,-267.2503525,-305.090237,-360.208603,280.5848623,219.0322838,-174.9688571,146.2228247,53.20822237,-415.0709733,-318.3995686,621.1689157,0,111.8065956,192.8646261,-277.196625,0,,,,
100.3519999,392,41.37037238,262.2631722,293.8606746,-196.11822,-422.9546952,-81.82753646,-348.4991345,-242.363793,99.15783657,70.26236147,-107.0755429,0,-13.65895738,-79.07700734,70.28976373,0,,,,
100.3599999,392,-347.1414695,-359.509695,-345.2926447,194.653085,254.1871655,34.05085807,129.7590491,78.89470394,24.67446984,102.0443384,-675.2925718,0,-158.7150761,-160.7745427,133.8424207,0,,,,
100.3679999,392,4.002357869,122.7763375,66.4458509,64.80392742,-217.3926771,-236.7867063,-160.9272707,-147.8829611,-363.718222,-324.2872283,955.7646743,0,191.7140595,258.0057375,-342.4757088,0,,,,
100.3759999,392,-90.29797234,58.75097665,140.7347808,-113.0002931,-92.14486172,156.2739336,-153.9954608,-91.56997279,383.877791,404.433612,-1074.776501,0,-212.2029709,-313.1587856,403.4802445,0,,,,
100.3839999,392,-213.0564581,-256.3599833,-307.4532832,295.2757912,257.5312773,-114.697613,161.5371804,62.30223801,-356.0983335,-254.2148185,639.1119573,0,127.141194,218.8083266,-235.4595549,0,,,,
100.3919999,392,94.73733228,312.1985937,348.3505105,-180.1033066,-372.9929253,-4.315191652,-328.9914433,-226.9712236,158.6446194,144.1757312,-70.84485909,0,9.060799811,-47.50813401,116.4235602,0,,,,
100.3999999,392,-340.3733086,-361.9199555,-341.9686402,216.4573262,285.2156122,80.83603536,140.6329544,83.89676556,28.31631186,129.3254087,-637.9044981,0,-138.5050521,-125.6288057,143.0041049,0,,,,
100.4079999,392,-21.09937768,75.98317607,24.14032114,96.08221694,-221.0264343,-238.0746605,-164.468085,-157.4326206,-401.675225,-347.8366106,967.504259,0,196.209978,285.0831958,-377.1333025,0,,,,
100.4159999,392,-108.9550111,17.41571073,103.7691898,-65.96944758,-114.6077515,143.5053977,-170.0825583,-114.4753934,341.2987606,367.7914843,-1078.686701,0,-221.8286598,-292.8304812,357.4717541,0,,,,
100.4239999,392,-235.3072521,-292.7654547,-343.6226933,348.5321148,223.8715112,-128.5463337,137.1968917,16.47233962,-390.3030168,-282.7469142,627.8172364,0,112.678906,227.1366204,-270.7523515,0,,,,
100.4319999,392,86.40690601,283.8169937,312.8336434,-131.0924904,-410.0577779,-27.78012468,-353.3812309,-292.8379703,104.4803904,88.2824997,-104.2433079,0,-10.47859392,-66.21764835,65.50090441,0,,,,
100.4399999,392,-289.5349532,-341.2357662,-323.8384742,254.4539888,269.0938481,88.54421027,119.8130257,13.88941496,22.68326606,95.80835919,-669.0155778,0,-153.126452,-167.2776431,134.4806456,0,,,,
100.4479999,392,44.03118077,113.6931495,60.52188975,121.328197,-212.6208942,-201.53488,-182.6629723,-225.7227255,-326.5507647,-313.2031774,958.2392698,0,194.2502,228.6831364,-320.3448146,0,,,,
100.4559999,392,-74.3454893,26.15026705,99.84246896,-38.99956696,-107.6673511,152.2640641,-182.359898,-179.2609075,369.2070027,362.1275707,-1071.771239,0,-221.6816105,-355.8344672,368.1265036,0,,,,
100.4639999,392,-184.7564232,-270.4068304,-331.5194711,375.801781,230.0768886,-141.1943935,125.7898817,-37.25607972,-400.0116303,-313.2104237,631.1574579,0,107.1635253,164.3749103,-287.8096279,0,,,,
100.4719999,392,157.6740845,327.3774507,359.2218947,-114.214809,-378.8781303,-43.00469957,-362.2718604,-331.4420637,157.1199856,146.7782672,-98.77532355,0,-13.0117197,-121.8671366,103.3687893,0,,,,
100.4799999,392,-251.2430858,-326.6459934,-306.4021173,270.5452541,305.3052082,50.64633896,116.1564477,-22.48252628,73.37923552,174.9485907,-640.9271913,0,-142.8937172,-207.5938335,170.2458216,0,,,,
100.4879999,392,74.83809782,129.9538621,74.53091507,137.128208,-182.4372973,-247.6977537,-184.4854095,-260.6868527,-315.1775443,-272.4053544,977.2601512,0,210.5093593,196.1190598,-308.4481352,0,,,,
100.4959999,392,-32.64991202,56.38257176,130.9175151,-35.18718257,-66.2066355,115.0859821,-180.3360796,-207.8272746,399.6709151,424.1497834,-1063.90578,0,-201.5176961,-384.2053734,402.6544639,0,,,,
100.5039999,392,-173.5112936,-272.8756498,-334.0198395,374.2305048,254.293002,-179.3011381,114.4524729,-74.10678511,-387.8484006,-271.3990613,635.783711,0,128.1142674,140.0667651,-280.0385577,0,,,,
100.5119999,392,159.6298301,316.1344773,342.5373892,-112.0445171,-378.7437026,-63.85491879,-391.1384728,-370.4080687,141.4041596,131.9589312,-108.2187923,0,-1.588266124,-147.8833148,77.05902236,0,,,,
100.5199999,392,-251.2078778,-340.9615804,-325.6858326,274.1255576,299.2210001,42.68708369,92.08814424,-55.39796666,58.24480865,150.0691561,-647.0837018,0,-140.9527113,-230.3197887,153.7896754,0,,,,
100.5279999,392,57.73272805,95.7639888,39.45466822,144.8343171,-200.5906227,-248.3507836,-201.1791731,-292.2509518,-358.7628305,-312.9075839,966.3079763,0,202.7210586,178.5312245,-339.627958,0,,,,
100.5359999,392,-23.20594912,48.73741281,127.6358499,-25.29244712,-86.5135675,140.7243516,-193.6440912,-229.2981418,367.9165061,383.8199497,-1074.13555,0,-210.7115629,-397.2906744,369.5192881,0,,,,
100.5439999,392,-146.299597,-261.8004856,-311.9372808,379.2481112,247.0352854,-146.2086107,113.7421099,-86.01393906,-372.0677271,-285.4282963,642.4263951,0,127.4373016,131.9424865,-277.1620551,0,,,,
100.5519999,392,182.9736258,327.038171,361.8774491,-109.2443635,-362.8094171,-29.66580067,-366.6174809,-370.3473057,165.3092327,128.2070854,-97.27495627,0,2.898208393,-154.6053444,104.1725077,0,,,,
100.5599999,392,-194.1798689,-290.8920732,-276.111389,270.0067324,335.2211873,87.71804601,135.7902034,-41.03343003,90.93329953,168.0826678,-630.5173712,0,-128.5887061,-239.3533102,186.4888682,0,,,,
100.5679999,392,110.1269929,135.3505104,76.9146698,135.939564,-167.9959738,-222.7769434,-152.4063411,-285.526514,-318.9942262,-288.9624097,983.7085233,0,219.8477913,162.7701787,-314.4716295,0,,,,
100.5759999,392,-4.722391037,47.18189329,117.3514754,-29.23666443,-70.84177137,129.1047709,-134.772751,-236.7614426,383.214598,382.3305163,-1061.070335,0,-205.3495811,-418.1549863,377.282417,0,,,,
100.5839999,392,-102.0144631,-233.8385436,-298.3483439,373.3070119,257.2347563,-153.3989111,184.7249597,-92.05819055,-359.0421287,-277.6628862,651.4202886,0,121.2158514,106.5212848,-269.1185996,0,,,,
100.5919999,392,245.3846914,372.0157921,404.5505638,-117.2732059,-337.7315305,-4.210493207,-285.22194,-369.5677889,212.9465121,175.0435921,-82.78519865,0,4.186175034,-180.0979161,139.4346264,0,,,,
100.5999999,392,-143.6990505,-259.7088127,-243.8171213,266.035601,360.1950579,112.2855775,223.9360409,-39.78603532,133.610333,204.7213017,-602.4803992,0,-120.7054046,-257.6336956,219.6012119,0,,,,
100.6079999,393,154.2813082,167.5273064,100.7209119,139.3888568,-151.0089217,-208.650479,-71.20913203,-281.0101606,-285.8545724,-258.0362412,1012.12542,0,228.5723138,151.4940535,-287.7797993,0,,,,
100.6159999,393,36.53301083,80.81296484,142.7456693,-18.52134155,-43.68388293,164.0629309,-60.37635278,-219.2859246,437.7412594,441.2932495,-1024.618824,0,-181.85226,-417.2013686,420.9268465,0,,,,
100.6239999,393,-72.598502,-217.4396542,-294.822652,389.9901048,267.1995608,-123.3955773,252.0282384,-73.03999263,-340.8027129,-254.1626417,687.0253516,0,150.8757722,115.8220422,-261.6421388,0,,,,
100.6319999,393,242.6849945,349.5244603,360.1608285,-92.26828908,-362.8798795,-10.19503464,-242.1812211,-366.850613,187.7957292,155.2035223,-67.36894102,0,21.77485683,-168.8887916,102.8997052,0,,,,
100.6399999,393,-144.7630192,-278.3476219,-279.4791497,281.8944636,323.8083608,108.589388,234.6763009,-50.38734304,111.3136608,177.9194613,-607.5839463,0,-116.5146365,-250.7489244,179.7315597,0,,,,
100.6479999,393,166.332751,157.4453925,85.49027591,137.4234195,-180.2854769,-191.6364445,-81.29081849,-290.0473208,-287.0993954,-274.2304514,988.2935563,0,221.571771,139.3606624,-308.4721852,0,,,,
100.6559999,393,23.13945755,39.65240718,99.60481346,-18.28332005,-75.90840066,157.7741738,-97.20939937,-229.9070119,407.8174098,402.3607619,-1049.398246,0,-195.2848002,-433.7539547,377.8087109,0,,,,
100.6639999,393,-80.04133903,-240.0866838,-321.0122303,388.2124625,239.5284022,-138.1903192,187.8597898,-83.01076229,-387.719865,-301.8842141,654.4008896,0,132.4789278,104.1550917,-307.9551852,0,,,,
100.6719999,393,251.6844803,347.7078569,357.3434746,-97.93832874,-361.2605369,3.908675907,-295.5103536,-357.9958762,190.2312117,153.2899186,-98.48552731,0,5.672977626,-181.2836048,121.2973134,0,,,,
100.6799999,393,-147.9786261,-298.9659456,-296.1086949,290.9972556,325.2929639,116.3430493,203.6068685,-29.62965342,90.45556887,134.0578177,-613.711636,0,-122.9504373,-247.3349977,181.9760057,0,,,,
100.6879999,393,175.8511894,148.9332925,85.53795626,153.1753004,-179.7931152,-184.4821342,-89.56587136,-262.6359945,-319.8755542,-341.1697225,982.9066399,0,220.7229291,156.7931425,-315.1672852,0,,,,
100.6959999,393,30.75261664,29.11139905,90.6639446,-5.044873459,-64.1639315,162.0067262,-77.56493782,-202.5181981,398.7112226,378.4618567,-1057.276934,0,-195.1509139,-416.6004014,395.7623772,0,,,,
100.7039999,393,-79.23123019,-253.4225085,-327.127387,398.432173,246.1687556,-147.7668064,212.5246404,-62.29859433,-400.2407596,-320.8872008,641.7539055,0,129.0768628,117.1115866,-302.6028416,0,,,,
100.7119999,393,255.7669951,343.5754118,373.5046367,-88.91521097,-352.3116492,2.765246278,-283.2946591,-333.1510402,188.3964485,140.7396474,-115.5989645,0,4.039105222,-169.7628826,136.0085,0,,,,
100.7199999,393,-174.0930885,-332.437404,-317.5645136,302.3481098,328.8762945,95.24916329,186.2786073,-8.241876173,80.85897616,132.2703308,-620.992495,0,-122.7186934,-229.9042911,192.0693974,0,,,,
100.7279999,393,165.4920353,136.6718811,82.92477119,157.0335821,-182.2204339,-207.4945938,-143.651305,-244.9347714,-341.0754875,-348.4598255,964.3871726,0,212.63273,180.5925795,-328.9925725,0,,,,
100.7359999,393,72.9019977,71.94536868,144.4749491,-15.12050108,-44.57224385,190.174801,-133.0170731,-169.8902181,423.9827828,395.9176473,-1062.5841,0,-191.2608301,-381.925307,422.3069716,0,,,,
100.7439999,393,-38.64623675,-224.9221983,-295.8086743,379.6570801,278.53874,-113.0086907,177.6135936,-21.35674068,-337.7065443,-281.0027334,666.8805205,0,155.4692557,170.7804918,-241.2340239,0,,,,
100.7519999,393,313.7424504,388.4529877,417.0893876,-114.5359153,-325.4467095,20.63263683,-297.8765565,-292.60297,231.5409953,163.1853829,-94.05178951,0,30.58552123,-99.57506917,160.2603148,0,,,,
100.7599999,393,-112.2550616,-266.2535422,-259.4323061,272.5196843,357.6110417,129.8871822,213.1249412,32.51045067,152.8263681,200.6319595,-587.911484,0,-90.08380797,-156.6174233,242.6696243,0,,,,
100.7679999,393,145.7093039,131.451737,63.10256627,140.2961058,-177.7691053,-205.1619448,-82.36463137,-216.7610704,-303.2740878,-297.9837055,998.9267386,0,245.6681242,246.58292,-292.9642131,0,,,,
100.7759999,393,53.2851464,71.62758588,144.5859002,-23.91346412,-62.05823183,173.2644752,-62.43849363,-144.6010787,396.9716428,373.2182616,-1051.181522,0,-182.5020361,-327.3419526,396.0242059,0,,,,
100.7839999,393,-30.3034473,-198.0884395,-260.4388848,368.6778908,272.757153,-93.1063631,260.2871611,6.980461515,-319.87527,-271.2526892,681.1286252,0,157.0488897,206.9761092,-225.9376762,0,,,,
100.7919999,393,257.7081028,337.5810602,361.4800262,-109.3300249,-345.1282849,5.930201573,-215.4289448,-283.6421144,200.5265657,115.7650761,-80.12136496,0,30.57913821,-78.58787159,135.4961686,0,,,,
100.7999999,393,-137.5649013,-305.3168289,-293.5807529,279.0245389,327.0217069,97.59943675,269.3736475,35.97716231,70.59124976,96.00270044,-595.066019,0,-106.0213044,-141.2525778,162.4112157,0,,,,
100.8079999,393,215.8488387,172.4674624,122.1020151,126.7003096,-167.4984807,-167.3744151,-51.99062139,-191.6142425,-286.9553395,-285.8355943,991.3179451,0,235.4217406,260.9566965,-285.6812675,0,,,,
100.8159999,393,65.27067816,52.17671924,124.491973,-28.70316603,-45.85324519,196.149619,-54.92094351,-125.4435897,406.1330203,412.8504013,-1034.239054,0,-173.144712,-302.709288,406.3651868,0,,,,
100.8239999,393,-88.88145766,-270.3784792,-345.2242804,377.0609883,244.8457627,-129.1740846,233.6147505,3.704850156,-409.8940853,-298.4355062,679.4223358,0,153.5950731,239.7431167,-298.7421073,0,,,,
100.8319999,393,250.4106852,331.0357056,353.7185241,-111.7500611,-365.2269462,-0.909372687,-256.3086402,-275.9829739,151.8563794,141.9608002,-110.2223348,0,11.47987939,-49.73102854,102.9015735,0,,,,
100.8399999,393,-147.5816751,-311.2381715,-298.9235619,277.8887618,327.4632631,95.15426419,246.9873407,53.18718352,75.91098534,160.8610673,-605.5550416,0,-114.8125259,-117.3138424,179.2056939,0,,,,
100.8479999,393,168.7291554,151.0594858,88.98795826,133.6027622,-183.2680529,-204.4188868,-58.92127068,-179.3792707,-326.201048,-277.1411348,974.7691921,0,219.9025516,273.5561291,-309.2386179,0,,,,
100.8559999,393,71.49031598,90.58439792,161.2705629,-34.01066331,-46.8444187,184.3481805,-50.00693287,-100.2395828,400.068629,438.8714867,-1060.917684,0,-195.4286076,-305.5196032,415.7362486,0,,,,
100.8639999,394,-62.29385226,-238.4280752,-291.4850779,365.4640014,273.944972,-111.4066979,254.5802136,43.24821912,-336.9782445,-225.5422957,673.0139144,0,152.3250767,223.5995083,-219.2935989,0,,,,
100.8719999,394,238.3656714,318.7982419,352.4463735,-108.3115754,-345.7983852,-9.352600858,-237.6821791,-235.9240355,164.3341707,159.2160296,-118.7099381,0,19.53714186,-72.28031603,126.6142875,0,,,,
100.8799999,394,-152.5805595,-311.0601539,-302.2776463,284.6037306,333.2699722,71.09368582,254.7003597,90.28626202,40.07239572,151.8047559,-624.7034816,0,-110.0370252,-137.4820957,164.6733479,0,,,,
100.8879999,394,142.4987596,103.4749707,48.89806612,140.0133704,-182.7987354,-228.0009883,-45.77862143,-157.199624,-325.7226559,-271.6876853,952.9508299,0,227.5198765,257.0217439,-294.4858204,0,,,,
100.8959999,394,28.64100514,11.20355654,86.47565356,-16.72710299,-70.68708824,134.5785372,-37.2037849,-96.12676819,350.9773585,354.2344169,-1091.795714,0,-199.1686886,-313.807635,369.5967562,0,,,,
100.9039999,394,-69.56626284,-266.1231579,-328.3073052,381.877132,236.5726716,-160.0958368,262.4802806,43.59537152,-406.4003531,-330.9416919,638.5825902,0,132.1173067,222.3646215,-287.4505012,0,,,,
100.9119999,394,243.6342935,299.4349473,330.5383076,-101.422633,-367.96742,-27.08709859,-213.0821526,-235.0328574,168.5019567,159.1685964,-139.0248642,0,-1.339085872,-70.74784184,129.8283786,0,,,,
100.9199999,394,-99.11743278,-294.8348078,-270.723217,277.7760063,329.5911477,80.45976832,293.7446018,98.53343014,64.86306896,172.2402342,-637.0087021,0,-130.3200374,-134.0472222,179.8131166,0,,,,
100.9279999,394,209.0875905,128.6677137,93.42564415,129.2786625,-181.5368451,-217.5546443,-3.362043521,-142.1211185,-304.9623061,-260.1686697,945.8549262,0,213.4460554,255.8732743,-280.8348437,0,,,,
100.9359999,394,31.9880307,-31.78716924,52.81152995,-15.00292814,-82.80044236,98.83503092,13.66411171,-86.08715777,359.2278458,387.2770457,-1086.907154,0,-204.7330839,-318.8485287,375.4044586,0,,,,
100.9439999,394,-32.62671214,-261.0992292,-319.8741968,377.7844874,222.5189272,-199.0046477,315.6780968,59.04387172,-424.5670037,-315.6169397,624.5527014,0,119.6361304,211.4666568,-315.562939,0,,,,
100.9519999,394,333.9821545,371.9070567,401.7371508,-121.8941343,-359.5233068,-24.86537952,-155.3899414,-205.033601,197.512259,186.5826143,-151.4868508,0,-5.908168494,-93.34593784,141.2509459,0,,,,
100.9599999,394,-80.59848876,-286.2050586,-276.9302814,263.1581701,335.8997424,53.23727192,358.599395,124.792511,119.2384944,209.3178571,-603.6708833,0,-115.0337277,-159.3549696,210.8010705,0,,,,
100.9679999,394,201.4106715,139.2724617,80.22847027,126.2774929,-180.2690735,-271.0354911,45.93055995,-117.8326324,-301.9827627,-265.9182385,988.2733074,0,224.1453577,232.9653189,-300.3470476,0,,,,
100.9759999,394,87.51433309,62.70742966,130.2306283,-24.46512945,-48.54001211,86.05931335,52.00600808,-45.24501015,394.0009701,411.9944391,-1036.900901,0,-191.0985727,-340.7555561,393.4396167,0,,,,
100.9839999,394,-15.45246945,-208.3950067,-275.6179679,361.3429657,270.2032587,-214.3186913,363.2226712,99.35645472,-334.9564817,-247.5275792,698.6739125,0,150.6024465,189.5873263,-241.5043862,0,,,,
100.9919999,394,270.0707049,343.8055011,367.0108765,-125.7504517,-336.2319563,-96.40116929,-118.9603346,-178.1385408,209.0765188,177.5734347,-89.3455674,0,16.76029637,-114.7884761,147.9819592,0,,,,
100.9999999,394,-127.2537914,-291.7087746,-286.3054678,264.9894447,339.6562835,-24.21340109,365.575346,155.5389655,64.05651568,141.3763354,-572.4904419,0,-109.4074576,-176.4963194,169.8133073,0,,,,
101.0079999,394,193.2698837,162.5008178,104.2871897,114.9393037,-173.8598673,-294.5301859,39.00630459,-74.39187555,-296.7321532,-295.4059232,999.1763808,0,227.3029052,219.8339355,-280.0725453,0,,,,
101.0159999,394,50.96799788,43.06505228,105.4573829,-37.94055782,-52.69501729,64.11644594,25.78198595,-1.212957486,408.4227183,385.0631902,-1022.924899,0,-188.2499169,-341.9437332,415.6447172,0,,,,
101.0239999,394,-78.07115048,-261.0406809,-339.3918153,353.3121837,229.0709906,-272.9152431,292.4083311,137.9387078,-401.4487018,-314.3977761,697.2238899,0,141.9193421,203.4545662,-295.3905184,0,,,,
101.0319999,394,238.7549008,318.6163578,337.3179284,-141.4434466,-377.7698971,-129.6637839,-213.0957192,-131.7925547,159.2440979,130.3800981,-110.0358647,0,-2.681085854,-92.32801341,108.9338472,0,,,,
101.0399999,394,-142.0913905,-297.2393932,-302.3881744,233.1318584,315.0593997,-42.13489286,276.3428078,202.8494855,76.19376876,136.5003927,-572.7532606,0,-123.4293545,-146.8276865,173.0306149,0,,,,
101.0479999,394,187.3386492,174.4220617,96.47179148,67.05573329,-200.1225455,-326.0862567,-42.04611486,-30.12103224,-301.9384979,-290.235845,1002.462538,0,216.533843,247.0292194,-307.0098535,0,,,,
101.0559999,394,64.75162048,80.38314539,134.2078166,-99.9394761,-60.35118381,58.66503807,-26.1301365,56.79056684,414.8152732,414.2967142,-1012.510274,0,-194.7579584,-323.2953651,408.1271791,0,,,,
101.0639999,394,-71.62010142,-236.7908859,-310.9493932,281.5448241,243.1335869,-248.9334653,276.8620265,202.3978862,-348.935723,-271.2897609,727.1098861,0,148.2911311,213.722729,-253.3296137,0,,,,
101.0719999,394,236.0958382,324.3536593,348.3377673,-210.142068,-366.8982265,-104.1182245,-214.3530283,-74.15413878,184.0496174,137.7589081,-84.3968847,0,6.038206405,-86.04047672,116.6158521,0,,,,
101.0799999,394,-142.9402429,-287.5470835,-290.9662625,167.246631,313.4218606,-4.980780555,273.2600469,254.4411806,67.11778114,130.0459197,-549.9307628,0,-119.4100512,-140.1670816,151.1917125,0,,,,
101.0879999,394,162.1656233,147.3383382,79.70332611,4.461306943,-207.6421229,-273.5363447,-50.64566183,12.55083254,-300.7575509,-281.7276506,1009.143329,0,219.8503076,247.688458,-304.8937938,0,,,,
101.0959999,394,47.02943385,40.77957886,111.7603904,-150.949016,-69.18588187,100.5891911,-38.48204618,89.751792,391.6615502,393.1457508,-1024.530645,0,-194.8314157,-321.0295985,390.6643107,0,,,,
101.1039999,394,-9.033582295,-189.3739431,-264.85215,223.9209529,248.2270691,-186.9827184,266.3770877,235.4151534,-358.8799576,-277.421871,720.5962883,0,145.9644739,222.2562411,-263.1495907,0,,,,
101.1119999,394,297.1489356,369.7482644,376.4445571,-270.4696526,-341.4406009,-33.15378468,-214.7440485,-42.27805551,225.6372209,197.2320006,-74.09489132,0,15.04022345,-79.44985452,158.9094541,0,,,,
101.1199999,395,-125.5317198,-297.8765213,-306.3810466,119.6311372,338.8241595,24.82051254,284.0517231,282.3115659,89.00215756,170.5324401,-537.0628532,0,-106.9448833,-135.0150176,174.7893482,0,,,,
101.1279999,395,211.8510334,178.1027092,110.9418472,-43.2966525,-176.6931995,-246.6259671,-31.04685355,43.60458293,-289.0065811,-272.5608969,1008.137858,0,224.1436481,253.5054963,-295.3973084,0,,,,
101.1359999,395,103.7096144,96.82220091,152.7822187,-201.2470918,-23.56291654,145.0112331,-11.43157345,123.7892321,437.1239218,430.3668389,-1016.95389,0,-186.8261708,-316.633504,430.2589168,0,,,,
101.1439999,395,13.92092773,-154.0035443,-243.9789805,176.9608469,288.0171182,-147.7679531,300.1472677,268.0649235,-300.2776073,-217.4307694,734.9486132,0,156.3883287,216.4676983,-218.3296886,0,,,,
101.1519999,395,311.0800739,396.5886755,402.846166,-312.3985049,-313.8727772,1.287226897,-169.9854663,-13.28966259,262.3150779,238.2560429,-71.64240031,0,20.59844762,-92.89574026,188.6281332,0,,,,
101.1599999,395,-106.8868639,-276.007913,-281.8192611,79.74029451,364.1958371,61.40127049,340.2645999,308.6220163,114.8616367,193.0186715,-532.7291912,0,-99.09663679,-150.56912,213.6250174,0,,,,
101.1679999,395,214.7398141,185.622244,109.6000625,-79.13073206,-164.3145593,-224.5880368,29.73974774,64.93389086,-273.616542,-263.4442252,1009.556988,0,231.6765581,226.9214531,-268.5790735,0,,,,
101.1759999,395,78.06630101,72.50876741,110.8946451,-227.4635759,-37.2247033,136.2430959,40.78527576,128.6267158,413.1288038,407.3168676,-1022.400172,0,-185.743018,-350.6816121,410.560538,0,,,,
101.1839999,395,-36.90405129,-222.8273544,-326.8178434,158.2403713,250.2521661,-176.8238746,329.3886528,252.1036861,-363.0897418,-281.0949989,713.7851189,0,148.6592021,185.3599311,-269.1473768,0,,,,
101.1919999,395,271.4518282,337.2444772,333.0420391,-326.1264518,-352.0101099,-15.67999695,-154.5701691,-30.4448736,195.7495673,164.9917255,-113.1625729,0,4.58556842,-116.4359949,129.7818027,0,,,,
101.1999999,395,-101.4739317,-278.8139103,-298.2431759,63.82548401,343.9770432,70.50141893,349.5357276,295.711391,84.47854444,156.8911372,-563.8617385,0,-112.1327042,-164.2812776,171.9277905,0,,,,
101.2079999,395,254.5270621,220.3552018,124.0529791,-106.3325515,-167.3120997,-194.7261963,27.37571092,50.78121202,-264.0741096,-257.5055866,990.5996559,0,221.0737317,216.7745989,-280.7593066,0,,,,
101.2159999,395,139.0879643,128.3074052,154.0200212,-263.7851247,-4.471980289,202.273183,50.57396879,132.8730696,470.6440737,469.8657237,-1016.194792,0,-188.7490494,-357.1738816,452.96209,0,,,,
101.2239999,395,21.38990236,-170.8374991,-276.2693973,127.7830138,302.9551585,-106.170428,354.2948137,271.8191317,-305.2257402,-208.2335832,747.4973141,0,160.3641313,186.6958685,-212.1047517,0,,,,
101.2319999,395,322.2059394,378.084614,369.2633321,-348.4369518,-312.1749637,17.63506823,-151.7862495,-17.41173607,225.5772117,197.8492449,-82.58830685,0,17.76525504,-114.6379972,161.9159883,0,,,,
101.2399999,395,-62.55070307,-250.6060213,-281.5085879,38.07667806,366.6634662,78.37526917,315.2729889,296.7505652,118.1626993,184.3247157,-535.3191671,0,-101.7030798,-168.409386,203.5028729,0,,,,
101.2479999,395,246.517146,197.852924,94.05241879,-126.2790405,-171.1516029,-216.0905845,-34.19682293,39.70640832,-270.4930708,-250.7891822,999.8913057,0,225.722584,213.8279601,-286.6481877,0,,,,
101.2559999,395,104.3469984,68.58498001,103.7031287,-270.2004402,-29.97970829,144.0370143,-20.62608127,112.6593001,419.6362359,434.3426932,-1034.597529,0,-191.4759936,-350.7415606,407.696651,0,,,,
101.2639999,395,-7.3483708,-223.1637245,-316.5717578,119.5005919,270.5884477,-179.4374231,283.0380768,246.1555151,-353.2960619,-260.9499351,713.6041072,0,152.4444518,197.6715321,-256.3400927,0,,,,
101.2719999,395,295.0267677,339.9542417,328.0277349,-358.976444,-343.537468,-41.1898725,-215.5894754,-38.65269009,175.7961023,140.6598713,-121.4836512,0,4.287666324,-93.70340507,105.8611011,0,,,,
101.2799999,395,-59.74530153,-251.3146467,-286.4363811,30.13804318,351.1454956,60.70868942,278.8688573,295.817961,92.77722023,140.9354636,-554.95596,0,-112.1089868,-131.1763533,169.1330401,0,,,,
101.2879999,395,285.5135593,230.5920647,134.039692,-140.3512285,-153.538374,-188.0382762,-39.57266735,61.48997257,-235.2816023,-247.7984261,1003.352048,0,224.734451,251.545578,-246.1755361,0,,,,
101.2959999,395,137.3621843,95.02216618,131.2594397,-286.1795897,-1.181860225,185.4660812,-21.57720684,138.890517,456.7395216,461.9788381,-1016.955829,0,-186.0227227,-316.9757755,455.2633327,0,,,,
101.3039999,395,21.22577675,-188.2165772,-296.7126214,105.0848994,275.6162573,-143.2248672,268.1213581,268.7368568,-337.1209045,-232.6315906,724.5970492,0,153.7842515,225.6514471,-241.0565104,0,,,,
101.3119999,395,317.9189243,378.0573315,356.1866298,-378.4897855,-342.5084908,-3.349190995,-232.161475,-9.163842372,218.2025182,205.9673235,-116.368418,0,3.623854925,-86.67410503,148.7368292,0,,,,
101.3199999,395,-87.96589021,-264.1654748,-290.5402398,12.75773194,355.1254646,80.13738689,265.9941265,321.0897806,114.589075,206.1202155,-548.9758644,0,-109.0805466,-143.5021052,199.4748142,0,,,,
101.3279999,395,215.7676029,184.7851459,97.08994199,-145.1085386,-176.1899199,-207.1843075,-62.90755935,66.7884906,-284.0062395,-262.3072083,981.5442314,0,219.6412554,240.4287494,-292.9954383,0,,,,
101.3359999,395,68.68441369,60.62292502,90.55233552,-286.0047483,-39.156259,143.3929339,-59.57753573,130.513506,403.8365553,413.6735794,-1052.413476,0,-197.2062117,-314.4628449,399.2053634,0,,,,
101.3439999,395,-33.19941788,-220.0749754,-328.2514965,98.24056223,250.7229793,-175.9870891,227.2347718,256.2813087,-352.3347673,-256.3061924,688.8264518,0,141.5837955,233.934481,-257.4491567,0,,,,
101.3519999,395,285.5993584,344.6320068,338.1019579,-387.4072066,-358.576251,-24.37382087,-260.659737,-21.1148592,185.527181,156.2472258,-160.9104672,0,-14.4140397,-71.21184537,116.4181153,0,,,,
101.3599999,395,-99.33692776,-280.0885919,-300.5338181,4.817918642,341.1711167,67.25994696,254.0294817,310.590716,80.65458414,163.7484653,-583.4223703,0,-126.4011955,-116.2943992,173.5346153,0,,,,
101.3679999,395,234.8446278,204.378484,111.0582188,-156.5860638,-172.7492431,-179.6603724,-60.66250497,68.90012494,-268.537222,-226.3225422,954.6912285,0,206.5154468,263.1968908,-266.501006,0,,,,
101.3759999,396,131.7892436,118.5259681,152.9768732,-301.0105627,-8.75709162,212.2943203,-35.93998008,156.4396467,440.032804,469.9163863,-1060.201343,0,-201.4686996,-304.3891111,434.5049073,0,,,,
101.3839999,396,40.74434075,-151.8595359,-238.4441755,75.83646556,302.3891015,-88.34279609,268.5349241,296.0608463,-281.0838296,-184.8427755,715.4818279,0,160.5998359,233.2640599,-194.227643,0,,,,
101.3919999,396,314.2774314,378.0420425,380.1337195,-408.6464048,-313.6703623,43.26478476,-234.020872,11.20612809,252.8010006,232.4260237,-120.262148,0,20.37230889,-73.66595603,181.4482826,0,,,,
101.3999999,396,-89.83070537,-263.9942503,-297.6373564,-13.56679301,354.5547958,83.37633689,252.0300994,326.7681605,78.85391663,184.4939406,-551.1228957,0,-100.5049733,-111.3179382,168.1083254,0,,,,
101.4079999,396,253.3889294,213.8738908,118.9990582,-183.6321202,-174.4846942,-189.9645553,-65.18570148,73.7018027,-279.5312429,-223.1033183,969.9083702,0,224.1088655,266.4733552,-279.4996593,0,,,,
101.4159999,396,114.5487038,86.39132009,126.9538818,-327.6764293,-25.70259172,177.5130146,-36.93590021,145.3385022,417.5162038,455.6562115,-1049.72751,0,-187.9933866,-299.9854177,423.548688,0,,,,
101.4239999,396,22.14548017,-175.7156151,-265.239292,50.4727034,275.8170376,-127.5107078,273.0974238,277.0163109,-327.0332299,-212.3597499,717.2356312,0,157.7820664,248.1264318,-224.3782586,0,,,,
101.4319999,396,329.3427529,387.7761006,391.8519732,-433.4643977,-318.2590809,31.40551423,-193.4816627,0.502867161,236.6333752,240.0086184,-118.7560107,0,13.78589859,-57.27705531,183.7499743,0,,,,
101.4399999,396,-94.08727202,-279.5161089,-292.6912244,-25.36583715,358.5699097,65.57588171,317.5227101,318.9096673,66.56562961,187.6636702,-530.9413758,0,-96.88370561,-97.92088815,182.194314,0,,,,
101.4479999,396,228.2659617,178.5623904,118.5343347,-183.5453837,-168.8826826,-208.8025433,-6.257564849,71.35869214,-295.9362897,-233.7025328,988.4876969,0,227.030652,281.3143475,-275.185393,0,,,,
101.4559999,396,111.0619291,85.08427087,145.3621333,-318.7061387,-18.40455675,178.0137716,17.1543064,152.3869896,402.6577431,448.2324475,-1032.011338,0,-184.4517982,-280.4672765,414.4655297,0,,,,
101.4639999,396,21.04880673,-161.8912676,-255.1820144,66.52958849,272.4889671,-126.4089525,323.4819707,283.7602715,-343.6737667,-211.9974102,738.157304,0,168.2258603,266.425422,-244.2859534,0,,,,
101.4719999,396,296.7419042,368.2559566,369.6249339,-415.1195275,-322.9786447,21.50988961,-151.2683339,2.684598777,231.157825,246.5967192,-108.9031345,0,24.35472989,-44.23449728,166.2711336,0,,,,
101.4799999,396,-113.9204969,-284.6534278,-300.007046,-10.4458096,351.9251275,59.6980277,357.638222,317.9882033,60.26182214,178.559105,-527.9803716,0,-88.52424878,-83.1057482,157.3072463,0,,,,
101.4879999,396,250.5762866,225.2722576,150.400858,-177.0282752,-164.1971142,-184.9362536,44.732315,74.50829547,-269.9554781,-215.1957699,994.0054638,0,239.11488,298.7680566,-264.9273938,0,,,,
101.4959999,396,123.545466,117.5606989,155.1713228,-317.7482852,-1.173153599,195.4773568,69.68812646,151.8311259,449.9701474,490.4089402,-1007.899933,0,-169.2017079,-263.1284507,448.1663227,0,,,,
101.5039999,396,-2.876080693,-180.4717234,-288.5415829,68.40405978,268.6298192,-152.7244535,348.4250761,264.8680723,-336.8416036,-208.3439392,766.3952929,0,173.4355911,277.6827076,-250.8915356,0,,,,
101.5119999,396,280.1221419,345.9799313,344.971296,-405.8579873,-341.0879741,-17.61868452,-157.4954745,-21.82908504,206.7972763,210.1214081,-91.39646382,0,18.16116749,-39.59953321,129.6657674,0,,,,
101.5199999,396,-97.49477413,-272.3609384,-288.7942526,-4.388878272,344.797314,40.70665302,331.3767605,304.5363558,61.82002499,148.242314,-502.2581287,0,-91.67757217,-83.12716316,136.2951299,0,,,,
101.5279999,396,234.9845901,220.583888,140.4079545,-177.8191559,-172.2127779,-203.6691952,5.531246256,66.88520335,-254.2918974,-221.3666399,1017.707991,0,239.8591802,283.0665593,-270.427154,0,,,,
101.5359999,396,60.5214943,78.75214982,116.16479,-314.3953078,-13.37521024,153.190911,31.98922637,146.2667017,424.9222928,467.8440766,-998.552172,0,-170.843229,-293.6818155,421.8834507,0,,,,
101.5439999,396,-34.27927759,-183.1481446,-277.5050954,65.67090007,278.7648762,-179.970692,327.5958462,273.2042905,-360.4216315,-238.1353429,758.1630564,0,172.7803275,242.4476086,-274.0393217,0,,,,
101.5519999,396,273.5373839,367.6142576,379.2820288,-421.6575769,-304.2324839,-17.04614852,-157.3640587,1.018076632,230.8632076,223.5731574,-102.781389,0,24.85551365,-75.60285123,155.2743029,0,,,,
101.5599999,396,-127.446982,-272.7632725,-300.1556249,-25.74051978,378.6044767,19.72758592,337.3089476,316.6672489,86.48780228,172.075407,-498.1410403,0,-84.70568758,-120.2838181,162.9434175,0,,,,
101.5679999,396,211.2921941,221.9810627,119.9018335,-196.0379221,-153.3114647,-249.3258314,7.695577921,59.08568859,-253.8893445,-237.9597849,1020.931806,0,239.8679342,244.1800371,-289.2800672,0,,,,
101.5759999,396,67.95003317,97.51869223,132.6579709,-331.4741887,6.438184104,126.704025,43.69620475,139.0182585,447.7069888,439.9723992,-984.2816883,0,-164.5185737,-325.5983156,422.5988564,0,,,,
101.5839999,396,-48.57398712,-190.281855,-277.546624,44.64051082,282.3647232,-194.3448655,347.4468053,262.5462433,-336.6512181,-267.4600449,784.7236593,0,186.6103813,215.7549488,-247.4417721,0,,,,
101.5919999,396,225.4361406,329.3906975,336.1550511,-438.0845765,-333.3659369,-44.06786971,-142.7667896,-26.5935679,200.3314219,175.5210047,-90.29758734,0,31.13476188,-102.4612198,137.8225696,0,,,,
101.5999999,396,-165.9729524,-305.2573515,-338.0416834,-39.44020613,336.6916964,-8.387504385,352.0724338,283.8879651,39.75375177,126.7275012,-495.8033181,0,-85.14442366,-138.7921742,124.6912285,0,,,,
101.6079999,396,192.9693277,204.4209693,101.4522464,-215.0138852,-184.7587504,-262.4416692,30.01608046,36.07176375,-276.0641941,-252.8797517,1016.966108,0,238.2542409,233.8376476,-304.3061482,0,,,,
101.6159999,396,74.38866683,103.8830571,130.7373668,-354.6772962,-4.188341954,127.519169,60.96377892,125.5701123,437.9147199,462.9381138,-984.4239107,0,-165.667462,-328.1186849,412.5606308,0,,,,
101.6239999,396,-45.59900931,-184.284293,-294.037201,20.49828733,276.0082056,-202.8391169,347.3986331,245.8686634,-347.6523296,-245.7723371,785.2894447,0,185.4119831,223.2343527,-264.4555754,0,,,,
101.6319999,397,229.8445825,343.1231568,326.522757,-461.8465277,-329.7625148,-45.19208772,-151.7467661,-35.86786952,206.982171,177.1626958,-95.97242366,0,27.53892918,-92.19351876,137.1217099,0,,,,
101.6399999,397,-145.0885933,-271.0226502,-303.7467813,-62.68440292,361.5692097,20.00955767,336.8257965,291.3780157,70.42102429,138.6939598,-487.7818761,0,-83.44972758,-128.178007,153.5303525,0,,,,
101.6479999,397,183.1516968,213.291797,122.6264029,-233.2495742,-163.5701916,-238.7596424,6.212082748,40.55035467,-272.9432849,-265.003808,1028.87563,0,243.1026816,241.6038534,-279.9878984,0,,,,
101.6559999,397,46.67617806,94.96056729,133.1202675,-367.2489035,0.901708743,138.2048894,33.44546675,123.8331477,413.6853754,413.8193513,-974.4317584,0,-166.0252167,-330.9132892,421.2004009,0,,,,
101.6639999,397,-42.78331989,-176.6133252,-265.5114252,5.145941032,283.4286116,-174.6828535,326.0545109,251.0915038,-332.2316475,-261.625476,798.4572523,0,185.454385,205.1821756,-235.177285,0,,,,
101.6719999,397,257.8785938,370.4544142,372.205142,-480.372455,-310.6825766,0.076888767,-151.0108223,-24.1628063,247.7481084,189.6815752,-79.37661091,0,34.14947352,-119.2979488,169.1844441,0,,,,
101.6799999,397,-127.2008382,-255.9510943,-286.7951007,-78.32237559,359.9875932,46.83258798,343.50318,293.6523851,82.73992418,137.6918709,-465.1538148,0,-73.54215654,-152.7338296,152.1979252,0,,,,
101.6879999,397,194.213482,202.0033801,111.6059557,-248.203245,-183.866981,-224.090353,1.818762415,32.64523279,-262.546243,-264.5816307,1034.24881,0,245.9220003,220.7165365,-284.6898043,0,,,,
101.6959999,397,75.01327466,90.81313161,130.2830967,-381.5537951,-11.07533399,164.204589,35.19348842,113.8539736,433.0484432,415.82055,-982.551809,0,-167.5690276,-342.6795221,420.9462534,0,,,,
101.7039999,397,-22.16658499,-178.6285352,-274.1131395,-3.7306687,266.0402366,-158.8728295,334.5537983,233.2290017,-330.6469277,-271.8445263,788.2123169,0,183.5180041,206.2160583,-252.7593969,0,,,,
101.7119999,397,231.8337444,326.6524401,323.2381943,-477.5569062,-343.3359013,-20.13259041,-146.6912285,-55.39553835,221.5441077,139.4765954,-96.39321971,0,24.74372963,-110.6819047,135.5999739,0,,,,
101.7199999,397,-141.9756089,-282.2831282,-314.247238,-76.79807399,331.0469997,33.53838166,352.3587013,259.804476,52.24546584,76.47774864,-488.2877774,0,-90.94688878,-144.0791926,124.6141293,0,,,,
101.7279999,397,222.9994265,222.9825845,131.9257443,-262.5138683,-187.1133023,-189.909384,33.45472739,13.2524396,-242.1576434,-243.783974,1011.138499,0,232.4217823,223.0132321,-268.0687899,0,,,,
101.7359999,397,69.49616262,73.90338772,105.3793561,-396.2949238,-20.59279733,176.2741647,76.96168211,95.09123848,447.0693595,426.4844613,-991.734145,0,-174.5043593,-338.7607254,424.2896732,0,,,,
101.7439999,397,-24.48591595,-189.4951025,-302.0170006,-20.5236395,233.6697712,-175.086595,360.204369,207.5639348,-360.7114309,-344.4930454,773.4934171,0,166.9475108,205.8792288,-299.9022397,0,,,,
101.7519999,397,276.7457954,360.3768561,345.6103049,-507.5320283,-354.7302727,-2.217260084,-123.0944134,-67.1565809,235.0327169,110.5158164,-110.573799,0,12.04556471,-124.2169528,126.5908108,0,,,,
101.7599999,397,-90.88759316,-243.1276247,-273.243365,-117.0144173,345.5293322,71.89721053,385.3137858,263.8134385,106.6161341,86.90931701,-484.4191584,0,-83.64038669,-162.3377505,160.2646358,0,,,,
101.7679999,397,260.2958011,255.430371,172.0348025,-305.7936298,-174.7399297,-156.7634065,62.81911384,15.47201408,-207.7837803,-265.9335793,1014.057255,0,242.6617325,198.2134751,-246.7873444,0,,,,
101.7759999,397,52.51247575,53.21405108,80.87055658,-426.7843832,-38.2171924,184.261326,90.82059546,80.91676257,446.3362289,420.2953913,-986.6057522,0,-167.3648892,-366.8581549,418.3370849,0,,,,
101.7839999,397,-58.83931187,-226.8279181,-339.0400524,-42.8459772,190.3604018,-186.8656731,354.5434429,183.7194983,-388.7208248,-317.4611148,759.6206752,0,166.1604882,177.4165574,-322.8454019,0,,,,
101.7919999,397,274.5605781,348.8997031,351.5349175,-532.7397276,-390.5310195,-7.598510317,-133.0324676,-90.26041636,211.1932694,150.0825771,-143.2514989,0,2.650923376,-156.6961357,119.0301883,0,,,,
101.7999999,397,-108.7437547,-284.1923561,-309.8094331,-130.7022914,307.9406419,55.34901355,373.724632,238.0137124,80.80271378,121.2322115,-510.1696949,0,-93.82485806,-189.4722576,154.0611733,0,,,,
101.8079999,397,252.6910858,223.5924054,140.6904785,-304.6811926,-198.2513319,-177.3204826,39.89692604,1.160616941,-244.6268507,-256.3599772,973.7017404,0,228.6325475,184.6025077,-268.6659388,0,,,,
101.8159999,397,104.362559,84.86478062,127.1520426,-430.8353367,-15.5924772,205.5204639,62.9021355,91.82210913,461.8362212,452.7380542,-1020.305473,0,-172.4180563,-366.1241369,445.0890539,0,,,,
101.8239999,397,8.024280254,-179.0506816,-285.4717396,-56.8405956,229.8922136,-124.9530334,317.9294341,204.8031428,-323.3668344,-246.6145619,744.0288931,0,176.682502,189.9316046,-256.5007117,0,,,,
101.8319999,397,323.8205821,383.3797061,376.0006458,-543.9235253,-357.2317488,49.19686862,-193.6185656,-77.14613435,256.1985945,210.2021835,-158.4263813,0,11.26393225,-132.5715844,151.9398285,0,,,,
101.8399999,397,-103.652621,-292.7968412,-331.2395922,-140.4332176,306.8887597,64.40526485,285.008353,223.8316325,93.18894461,147.8984558,-523.1595616,0,-97.82389698,-165.3609627,144.9481949,0,,,,
101.8479999,397,216.5724079,174.1021485,76.10722648,-316.3136022,-252.053676,-207.099917,-65.42327773,-39.2896457,-266.1092437,-292.9241922,935.2212201,0,206.4214299,192.8650398,-325.4702058,0,,,,
101.8559999,397,87.36493896,60.12016025,91.02784411,-434.6709591,-72.15100475,174.3311121,-37.43655467,53.12995112,420.9984465,353.735403,-1069.269287,0,-207.573009,-362.6367599,373.5544253,0,,,,
101.8639999,397,-15.87683481,-207.3460469,-308.5261503,-51.18842525,196.097712,-152.715524,243.9146368,174.6534522,-354.41476,-339.0348696,702.2699242,0,138.2237839,195.3945152,-282.4816393,0,,,,
101.8719999,397,283.7058222,341.2506555,334.1517996,-531.4106987,-395.6692194,27.94232508,-230.8366462,-93.11293936,211.9100226,150.6957319,-214.5587568,0,-31.92656752,-123.9831938,124.7193068,0,,,,
101.8799999,397,-96.84034125,-281.6502865,-331.0516271,-123.7960021,282.088061,74.20996569,279.6429271,233.5328558,69.2562074,125.4981651,-573.7584232,0,-135.650967,-143.9432492,120.7817812,0,,,,
101.8879999,398,231.9059608,191.1067342,88.56502824,-297.4615356,-240.3254192,-185.2399796,-48.80178921,-21.12481791,-246.0638998,-270.248222,900.0261615,0,181.2555646,216.6694739,-307.0921019,0,,,,
101.8959999,398,96.02432457,64.72209794,90.80738206,-419.1077397,-64.99074098,177.2397024,-8.67183182,66.47314689,419.1433801,393.0884112,-1099.767732,0,-233.3734882,-351.3769457,364.6349705,0,,,,
101.9039999,398,13.67140122,-182.0305844,-284.7049884,-44.19136042,192.2860993,-155.6035584,275.7649676,186.8360255,-355.3119988,-300.2009613,679.9616503,0,114.8298305,191.0645734,-302.8006144,0,,,,
101.9119999,398,310.7250961,362.5093203,367.5365577,-527.3206523,-369.6098877,29.43026702,-199.0647973,-78.6132532,253.6002128,171.5788593,-215.342923,0,-34.10309278,-140.1957723,157.7540075,0,,,,
101.9199999,398,-69.91466399,-254.4135446,-292.4191167,-124.0970162,315.4998981,86.62638959,305.7385699,249.0659764,109.2238587,120.6098254,-549.3912625,0,-122.5013145,-167.0755044,167.7800824,0,,,,
101.9279999,398,249.0233398,220.1157185,109.3385774,-298.5332037,-244.9489054,-167.9718624,-34.52377189,-11.90786522,-246.4079145,-281.9545356,930.1664496,0,190.5668598,189.8133814,-293.089635,0,,,,
101.9359999,398,104.7380385,85.31953064,102.2948259,-415.6666862,-74.6542087,189.8745084,-5.734855278,73.78469394,424.8272114,415.4789254,-1060.426587,0,-222.5765131,-369.2862845,381.6172056,0,,,,
101.9439999,398,20.28891257,-173.0982643,-276.2441512,-38.55377915,200.3080278,-133.6609403,264.6898378,191.9967362,-320.4621507,-243.7343922,725.6854245,0,132.0144203,182.9134556,-266.7161081,0,,,,
101.9519999,398,281.1437392,332.1211958,324.4397499,-508.5331426,-383.0469775,24.79506484,-226.2375139,-91.49930706,226.380028,186.3170533,-183.0876321,0,-27.62784439,-145.3331965,135.7911727,0,,,,
101.9599999,398,-101.5130205,-289.3468116,-333.7809033,-96.41301059,290.3931199,20.06020005,267.7211291,223.5823936,32.32319908,98.67348062,-534.1678791,0,-130.3792895,-166.389951,96.68618603,0,,,,
101.9679999,398,252.0196461,206.6519265,110.5512197,-280.7707656,-239.5924184,-243.3876795,-71.68893184,-34.05157146,-257.2297965,-270.2783039,934.270323,0,186.8488716,188.9985008,-305.5067588,0,,,,
101.9759999,398,84.63060335,50.01827462,79.24911408,-404.2660569,-64.4558659,124.3961955,-41.02431818,46.24530009,430.9127284,414.4395308,-1050.935798,0,-221.5824853,-375.585895,395.0897837,0,,,,
101.9839999,398,-14.32806822,-200.6620684,-301.0540538,-31.1726404,187.704548,-199.1442005,225.6835526,159.4991103,-375.551824,-298.3602547,726.388376,0,120.2948205,170.5984542,-307.8225907,0,,,,
101.9919999,398,305.3504317,368.1583576,367.4597522,-513.5100478,-377.0683833,7.871763001,-253.6832303,-103.3728316,213.9471877,178.3303042,-179.8276987,0,-35.22873805,-164.667588,131.6118639,0,,,,
101.9999999,398,-37.39901303,-225.1781821,-252.9697743,-111.3510174,331.4663577,72.9137884,256.9613654,237.3821554,111.8116306,175.6858004,-494.7709273,0,-111.3398791,-184.3688503,183.179062,0,,,,
102.0079999,398,284.4536502,232.3216764,153.2473816,-288.7736739,-204.4624317,-177.1345098,-78.10951207,-15.1010864,-207.7623641,-214.4252385,982.3847487,0,217.6178373,180.1818648,-249.2157882,0,,,,
102.0159999,398,91.29867612,42.14077079,79.6875543,-397.9658518,-52.45240995,149.6316379,-41.11169844,63.51117569,419.1560562,410.6865014,-1012.148697,0,-191.5872285,-371.5317627,387.1080196,0,,,,
102.0239999,398,0.098784731,-205.3603362,-311.1378531,-18.89965847,189.2673294,-213.6376673,236.7307925,175.8552501,-380.5636649,-305.2418182,746.0417137,0,147.2796452,184.0120516,-312.4421225,0,,,,
102.0319999,398,286.9805186,336.5731794,317.5875295,-492.8347049,-395.7286174,-43.15014243,-240.6864896,-105.0827153,181.0061562,135.9734273,-184.3705913,0,-22.93727511,-141.4933864,91.93748114,0,,,,
102.0399999,398,-84.42391321,-272.7802848,-316.312754,-86.60179808,293.1726032,8.453900114,260.0667948,214.2181216,32.26726338,82.69736163,-512.5565227,0,-119.8817323,-154.4606919,98.64901045,0,,,,
102.0479999,398,261.6287209,215.9229869,133.1300292,-267.9993463,-220.8308312,-210.168347,-74.48656308,-38.87900452,-258.6910829,-260.5524046,948.6193985,0,200.170171,201.3932565,-288.0539012,0,,,,
102.0559999,398,84.3007694,38.78741758,74.45721209,-376.1794211,-41.64876558,137.7232232,-31.34006823,41.30850822,411.1495115,419.9012439,-1032.081035,0,-201.7593426,-359.44286,399.838327,0,,,,
102.0639999,398,6.110755185,-202.3170368,-306.3244606,4.9327617,197.7864412,-212.5248854,237.4598901,148.4042883,-391.4280788,-314.7831477,744.2823608,0,144.5651787,191.678459,-305.2343819,0,,,,
102.0719999,398,340.5413844,372.7846838,365.2961577,-468.2496212,-372.5425899,0.937193505,-238.2705527,-119.7460618,201.1167023,157.7303968,-182.921981,0,-15.34395915,-141.5053617,126.3868371,0,,,,
102.0799999,398,-33.8360574,-253.4672301,-297.0231576,-58.26997908,323.8070455,49.43265974,273.1723765,210.1765472,101.9035773,175.7476591,-486.7977524,0,-95.21248887,-156.1623965,174.3144878,0,,,,
102.0879999,398,266.3378945,192.3374333,92.35048683,-232.9993331,-228.3894746,-221.7462114,-67.71100986,-47.4034849,-256.8251571,-241.5525501,968.3727149,0,215.7309526,206.3027315,-283.927359,0,,,,
102.0959999,398,117.6412983,49.64865212,70.86383634,-347.5224484,-62.33532261,129.486671,-30.37669874,39.9483927,365.9276493,374.1875784,-1037.279767,0,-205.367771,-349.9706405,355.5496703,0,,,,
102.1039999,398,31.19770179,-208.3669915,-320.4130178,20.64080345,180.7033058,-226.295426,235.0802494,142.5713568,-376.9029799,-296.0475011,738.6649363,0,141.5604801,198.8189482,-304.7513111,0,,,,
102.1119999,398,306.9822883,305.0669297,298.4253493,-454.2997342,-408.3992363,-68.8932696,-258.026735,-140.6796732,190.9316837,136.1379263,-198.9464229,0,-29.80739853,-134.2725874,91.46826942,0,,,,
102.1199999,398,-31.02963596,-267.5691533,-294.6411214,-57.13708526,296.4351756,-10.69725187,239.8770762,196.2765887,61.30420751,98.67716698,-515.1090827,0,-124.261508,-148.2940543,119.5819976,0,,,,
102.1279999,398,303.2826943,226.4488681,147.410363,-247.2071341,-225.0134462,-235.5102841,-93.02709368,-52.48154024,-230.4384999,-242.9995575,952.749147,0,199.1696957,207.8755198,-259.471117,0,,,,
102.1359999,398,134.036649,69.37596333,105.4146004,-360.3133742,-39.79282397,129.2173323,-46.83675638,34.80448938,427.7904055,418.4879491,-1026.228221,0,-202.3997027,-349.5096035,415.1761119,0,,,,
102.1439999,399,64.38071903,-156.9938446,-255.427286,3.725380708,219.1635518,-185.6008403,228.227824,151.3641288,-320.398165,-251.327502,755.6649141,0,152.4230768,197.6829934,-246.1344419,0,,,,
102.1519999,399,338.4810851,353.1517607,366.1362381,-468.7247684,-356.7719014,10.06651464,-238.0576311,-116.9815573,250.2646328,200.4492538,-172.3614545,0,-10.59094351,-138.00131,168.0422841,0,,,,
102.1599999,399,-54.4920638,-291.657943,-299.2993855,-55.60579782,331.9707622,40.36043761,264.4756149,204.4091679,94.04645077,138.8579165,-479.187222,0,-98.2667912,-144.6121738,167.2226761,0,,,,
102.1679999,399,256.3355236,175.7783773,102.1708965,-237.7319192,-227.6223803,-218.8965693,-90.96697078,-67.66642042,-265.0472362,-278.8466152,950.0063192,0,210.9221173,214.3576703,-287.094462,0,,,,
102.1759999,399,109.2863022,34.57337967,70.18600885,-346.406363,-58.59427509,138.278462,-54.15343906,14.23835492,365.9594554,337.8382065,-1049.392395,0,-209.6163109,-342.1466302,364.1928869,0,,,,
102.1839999,399,71.2524352,-174.3796559,-267.5426516,14.70113065,208.6133281,-175.7188014,210.5093818,129.1918375,-346.7123855,-315.1212064,736.1069407,0,140.9559332,210.870832,-262.8962232,0,,,,
102.1919999,399,349.0755639,339.0437789,347.8575607,-463.9328107,-365.4409344,13.50302704,-264.08623,-140.463498,232.6336066,176.7050062,-197.0187407,0,-19.20658882,-121.3056009,165.0771571,0,,,,
102.1999999,399,-34.61282561,-286.9128611,-311.7524904,-52.0395876,314.6999078,37.05415119,251.6544395,187.7045698,51.8846151,128.2257399,-496.4933309,0,-108.6582981,-127.5354648,145.601868,0,,,,
102.2079999,399,315.402268,214.9410172,130.9105095,-241.03275,-220.1755057,-196.2512379,-85.98646393,-69.44048287,-256.7418953,-247.524767,941.1680616,0,205.7550005,228.6463396,-270.486461,0,,,,
102.2159999,399,141.3840932,32.4198847,63.6763611,-348.9549028,-38.3195653,159.3689363,-40.67426229,15.24166556,401.7229495,409.0218935,-1044.620032,0,-200.9288293,-327.0878509,396.3216013,0,,,,
102.2239999,399,46.72248889,-230.3835908,-331.2703107,28.15873061,186.2122396,-195.9671188,220.5931735,117.6711035,-399.4652628,-307.4647971,731.6558089,0,136.3426597,225.2802908,-313.1130666,0,,,,
102.2319999,399,359.1898329,324.9083306,327.5376655,-442.7666886,-393.4967241,6.640596753,-261.8666027,-152.2476594,165.2105788,136.3104731,-224.5317633,0,-41.70611283,-114.2529909,102.4481724,0,,,,
102.2399999,399,22.894907,-259.415274,-279.6603696,-37.18568561,314.414145,75.99173572,250.145865,183.3933123,65.93329976,132.6791046,-513.5341298,0,-121.6213017,-129.0819778,149.2992862,0,,,,
102.2479999,399,342.1093273,211.8648548,145.9345863,-220.852951,-222.9509708,-149.5521782,-85.13221089,-72.44506815,-229.9441742,-218.3162,934.3160492,0,197.5385718,221.7162979,-256.6920961,0,,,,
102.2559999,399,174.1538025,46.33249902,100.635694,-321.8552641,-42.11718534,210.7937984,-40.41019356,18.23772004,401.3066652,420.0528295,-1048.825312,0,-207.8664433,-331.2621222,391.8202417,0,,,,
102.2639999,399,116.9752659,-166.7563345,-249.1702293,45.61638881,208.2541338,-109.9895755,221.392525,130.1703983,-344.2796885,-239.1355558,746.0137057,0,145.6901996,220.440335,-265.8559406,0,,,,
102.2719999,399,379.342265,343.061601,351.2301757,-419.7693739,-368.3865828,77.29982447,-256.0093503,-143.6934131,233.492929,241.0142519,-196.5053194,0,-24.91067402,-120.8780257,154.5773395,0,,,,
102.2799999,399,-5.172446892,-292.155618,-321.8225719,1.995096629,302.0122698,94.1996384,246.3142402,178.6860563,44.62696057,166.6129839,-500.5870222,0,-118.071782,-132.2541053,118.9312742,0,,,,
102.2879999,399,344.5787514,208.8657784,132.1947833,-182.9603993,-242.9510103,-119.3769215,-98.24449688,-75.5308304,-264.4880675,-200.0289724,919.7582634,0,187.9967739,216.7663443,-290.444894,0,,,,
102.2959999,399,191.3518965,53.37813718,105.168587,-289.4755826,-45.14960668,254.3855682,-48.32703079,25.94913077,405.9618314,461.9168601,-1063.165027,0,-216.2754633,-336.4261519,389.2493133,0,,,,
102.3039999,399,103.5010765,-188.0279313,-274.3237409,76.57410888,194.38016,-95.05395899,216.5159073,139.5903498,-343.3811135,-223.8985145,736.6999086,0,142.0611921,214.8518602,-281.2804974,0,,,,
102.3119999,399,416.8383636,380.4399618,388.7792719,-402.6478153,-368.2443429,119.8256432,-254.3334809,-116.0241258,242.8906548,253.7460413,-212.5266961,0,-27.36862244,-126.6997031,154.728032,0,,,,
102.3199999,399,77.60955197,-220.8187015,-238.2899202,1.028496883,338.4076681,168.3540368,256.5598441,227.7130862,103.656986,235.7952501,-493.9103778,0,-106.528743,-130.6554939,180.846558,0,,,,
102.3279999,399,342.5284675,184.5348595,109.8514163,-177.5328552,-229.6122752,-110.3757059,-95.42557991,-43.35659363,-226.3797465,-152.5967098,936.935799,0,207.9716576,221.7394723,-250.8992977,0,,,,
102.3359999,399,182.3477195,32.92465544,69.30581119,-277.6075982,-62.40374874,226.2610891,-58.28801817,40.156239,377.2983741,433.3275859,-1070.616504,0,-216.2726189,-332.3612466,353.0350284,0,,,,
102.3439999,399,158.1460459,-144.1879669,-242.5045524,79.18024995,194.2222383,-82.9549805,208.4640686,154.7028484,-335.6826341,-212.6032252,724.4076107,0,134.5617004,220.7484759,-282.2185739,0,,,,
102.3519999,399,405.9514109,344.5982308,348.0650488,-385.992626,-381.6409303,108.230991,-258.1718855,-117.3042505,252.9494298,265.8965614,-213.9991573,0,-24.81306755,-113.6652655,154.4306796,0,,,,
102.3599999,399,20.99482663,-291.2682612,-316.0262625,34.05326744,285.9325816,110.3608665,247.0577771,202.6103134,39.79947768,143.6884504,-507.175021,0,-116.9054477,-116.3174098,96.29760662,0,,,,
102.3679999,399,362.0123533,217.5998243,134.378778,-154.2797373,-254.5917306,-116.4955211,-91.85445317,-61.04143821,-244.5170633,-216.6767606,912.8221139,0,187.8795218,228.0935947,-293.5912353,0,,,,
102.3759999,399,213.9840651,87.71794416,111.349086,-254.1535504,-45.55026821,266.164382,-29.25598795,35.79305807,429.7745064,462.5356092,-1058.2441,0,-210.1560582,-321.3069783,389.2906237,0,,,,
102.3839999,399,149.7210945,-124.7853716,-236.6886509,104.3527383,209.1851621,-53.47731089,242.3046169,145.6823165,-293.1959468,-190.0192573,759.123506,0,155.027128,233.0340323,-260.389761,0,,,,
102.3919999,399,390.203348,378.1785673,368.1221803,-370.9299863,-357.9791099,146.3473434,-225.6210791,-124.5751578,294.58662,274.7890065,-189.0428744,0,-15.34540362,-111.5786632,173.1559386,0,,,,
102.3999999,400,-7.913701573,-253.6330237,-303.235617,50.04010879,311.8430377,154.0161626,271.7142438,198.008902,59.61820473,156.0193796,-475.5715624,0,-107.1777724,-110.7211378,113.8131181,0,,,,
102.4079999,400,340.5615465,254.0355531,146.18413,-137.4803137,-236.9820944,-64.75411491,-77.07477412,-61.34114577,-222.223216,-184.8630791,948.2693985,0,202.087138,236.8190845,-270.574017,0,,,,
102.4159999,400,179.4307299,90.98870331,102.3244734,-235.4864688,-38.60081779,308.5176551,-20.28990857,35.73460909,455.675634,486.3836241,-1019.166455,0,-201.7703347,-313.5331542,411.0102409,0,,,,
102.4239999,400,85.32250064,-167.1471282,-286.7396853,132.3156549,174.6773296,-64.98593133,226.6806774,126.6871863,-343.9746162,-240.8069494,774.7890124,0,146.6005015,245.1198233,-303.3798985,0,,,,
102.4319999,400,336.415584,333.8548552,311.9649165,-344.4141671,-416.0480504,105.0373643,-263.717926,-162.1036707,241.5159294,220.3802628,-203.3677916,0,-34.86017559,-102.4373356,119.9618831,0,,,,
102.4399999,400,-61.12553271,-298.9133424,-366.9275201,65.18574062,250.3415051,101.4833717,224.2039818,145.6748478,34.29063471,120.4584051,-492.1402798,0,-132.0414116,-112.4410773,65.18836186,0,,,,
102.4479999,400,286.695793,213.6327282,89.55387786,-126.9146018,-302.6349413,-117.9190252,-125.1701578,-117.311293,-281.9166468,-248.359218,908.8122554,0,165.3235889,228.9628853,-355.6521171,0,,,,
102.4559999,400,125.9311738,47.80626916,58.09822579,-222.6040633,-89.84294693,279.749677,-51.80999934,-13.36309605,411.4065686,443.0717791,-1056.859557,0,-231.8440532,-315.5633648,349.3172305,0,,,,
102.4639999,400,52.78238665,-182.3461816,-295.3219767,134.2487223,151.7242868,-53.37430287,220.5281397,92.58401632,-351.8948423,-251.3656443,750.9566014,0,129.0540355,244.4037729,-321.2944017,0,,,,
102.4719999,400,358.2842195,378.1911469,360.5357115,-350.999364,-396.6855567,171.1576534,-237.471809,-162.8742128,246.3674257,229.5129519,-222.4728673,0,-43.60163195,-101.3202115,133.3062322,0,,,,
102.4799999,400,-29.14826802,-265.9361686,-317.1185166,65.28331116,298.7682704,200.6055243,275.902642,163.5616165,79.47043517,173.0878382,-469.0543354,0,-117.1885625,-95.69708818,124.8968557,0,,,,
102.4879999,400,303.6069912,213.9206042,113.8679214,-131.2532874,-264.3386188,-39.31718994,-68.63481976,-107.8393578,-233.7756815,-209.1329453,945.3431219,0,187.8470936,247.0558501,-302.0703857,0,,,,
102.4959999,400,155.1156267,63.52660531,79.5803567,-238.0985291,-65.07007595,326.2837606,-1.71472167,-7.458046741,425.2971072,433.4574483,-1030.591797,0,-219.5825718,-309.5079919,368.9454559,0,,,,
102.5039999,400,70.45064342,-177.4148975,-293.4694177,122.7131277,168.5652219,-21.42930221,255.9928626,97.14485229,-346.0201554,-266.6557121,779.5087321,0,137.435751,248.2833115,-315.0762379,0,,,,
102.5119999,400,340.4537836,344.592426,336.5804854,-354.2986752,-394.7038445,185.8387993,-214.7783313,-162.5049212,233.9887773,203.1791306,-202.45094,0,-38.12656847,-92.37476801,119.7815738,0,,,,
102.5199999,400,-44.22242258,-285.8583274,-323.0170665,56.35008632,300.3300553,217.1045662,297.8899518,170.0692184,73.62694221,145.0761135,-460.4793354,0,-113.4270162,-82.14675271,131.941851,0,,,,
102.5279999,400,262.0148961,177.5618516,81.8225482,-134.8152595,-272.0357186,-39.28718764,-54.43228137,-105.9237749,-258.4813175,-256.7728419,932.4295798,0,187.3693483,265.1077294,-311.1300832,0,,,,
102.5359999,400,115.0859117,35.62043193,55.27626923,-234.2861119,-81.46502348,324.8762289,3.199267207,-6.193645631,380.7845029,379.3269468,-1052.588678,0,-228.6263291,-286.6792677,328.4514187,0,,,,
102.5439999,400,103.4143987,-133.8166251,-242.8892858,110.9288884,176.349068,36.28174452,270.4758886,114.420951,-311.2684963,-242.2676979,770.4083163,0,127.9697334,268.3206613,-290.4417421,0,,,,
102.5519999,400,374.655751,377.0270574,372.2639945,-368.7529406,-376.1655531,249.4409551,-193.5692977,-150.2584552,284.485538,240.0210885,-195.2775885,0,-40.31398997,-76.05194666,148.8583069,0,,,,
102.5599999,400,-6.173552796,-247.8518384,-278.0232045,45.1785228,320.8173009,270.2111545,315.8434028,178.9091154,97.50515561,157.5390782,-440.2193073,0,-109.1123596,-69.08234718,136.6051108,0,,,,
102.5679999,400,323.0897167,238.8168061,154.7104791,-150.024363,-227.4047403,38.28180104,-33.82739204,-82.52737759,-191.7939588,-194.9889627,954.8013747,0,198.9282898,269.8307812,-246.0873088,0,,,,
102.5759999,400,117.931859,31.93097636,57.2868449,-237.7578215,-44.15369014,366.4952481,15.80160068,8.201514666,418.1581085,417.5081517,-1021.233362,0,-206.5899143,-282.1916149,375.1531603,0,,,,
102.5839999,400,73.33258371,-166.5713629,-272.092421,118.0090713,178.1001693,24.72691319,267.7963497,111.1296684,-345.2407472,-282.4923743,789.3955899,0,147.7391898,270.3829995,-315.3535556,0,,,,
102.5919999,400,357.3960478,362.7088205,356.2024496,-356.7312298,-381.2639611,239.6959364,-189.3367969,-151.3613977,256.0493275,205.58751,-194.7895131,0,-32.55422678,-77.6440818,130.7078868,0,,,,
102.5999999,400,-38.16392701,-271.6712855,-319.0300491,64.70977599,296.9884643,259.6858456,325.7448305,171.7388706,59.90057297,131.1433924,-430.4192714,0,-106.6613158,-58.80972904,98.7140426,0,,,,
102.6079999,400,316.851051,239.7890014,142.1534609,-136.6955218,-262.843177,37.65445553,-21.12441253,-93.86333325,-238.5025072,-227.0887229,955.8228876,0,192.3402641,289.5895322,-306.444374,0,,,,
102.6159999,400,138.6735667,44.99512192,69.89838344,-228.8444377,-57.13796403,387.2409261,46.55519605,-0.149897541,408.0658373,410.1555972,-1017.722326,0,-216.8267683,-255.0366598,353.0109341,0,,,,
102.6239999,400,70.64603391,-178.9292817,-290.6098492,134.1867097,162.7283628,33.40777062,301.2221831,91.89606291,-356.4798938,-291.4516021,799.0022957,0,139.4679256,303.7951197,-346.0351944,0,,,,
102.6319999,400,360.1488818,362.2036024,342.8360597,-334.5240399,-396.052813,242.0214545,-166.1082051,-173.2116008,238.1909565,197.4833497,-192.1995163,0,-43.6509091,-48.14275918,84.7583664,0,,,,
102.6399999,400,-46.47736355,-292.4808487,-346.4883295,98.43833296,287.6639415,249.3648452,341.382192,147.0708122,44.09014733,125.7721346,-413.0260749,0,-116.0403805,-37.39685687,63.06261078,0,,,,
102.6479999,400,288.8196979,202.5931201,109.1142461,-90.45323206,-282.3567703,17.18871528,-18.57538101,-122.7693213,-270.2834919,-256.9369602,967.2508822,0,181.6430237,296.9450171,-356.0630682,0,,,,
102.6559999,401,149.0813131,66.25567218,99.43722676,-178.0400379,-61.38596179,400.9381075,37.1589838,-10.5152263,402.9664317,406.3409994,-1006.626496,0,-222.1664081,-254.7320451,335.2832112,0,,,,
102.6639999,401,101.3820078,-137.5152731,-237.2734832,184.6603333,183.9645306,79.69037189,296.0783442,102.051162,-306.0797891,-228.4769593,831.3886498,0,151.3962371,303.8828784,-284.1445468,0,,,,
102.6719999,401,379.3738349,372.3206406,373.6161481,-278.8757926,-376.5527218,284.8582131,-159.9105634,-155.424846,276.1725882,241.4236686,-159.4618304,0,-23.57195638,-48.1848635,145.437885,0,,,,
102.6799999,401,-13.51140303,-283.4155702,-316.4548392,159.1767604,292.2576211,276.0441751,341.3962259,168.0763451,47.41773986,113.3868174,-389.4737021,0,-96.22529781,-28.65911496,83.0114849,0,,,,
102.6879999,401,313.1915177,193.3205354,112.1732254,-33.04214706,-281.2978734,24.89915265,-20.56690927,-103.8967675,-246.9199356,-255.2820748,979.0601715,0,199.9591848,311.4917071,-321.1833615,0,,,,
102.6959999,401,132.9368438,12.25578136,46.46571242,-119.692637,-73.47842783,368.0632062,46.63358647,-3.646861045,397.5145934,384.5263732,-996.8532419,0,-214.3777919,-239.0585918,335.2223932,0,,,,
102.7039999,401,84.55976287,-180.48426,-288.4768905,239.8581819,148.100126,19.74296881,298.1975292,96.11264285,-377.5326021,-332.3797633,828.3749742,0,141.2672426,320.0333331,-348.4625429,0,,,,
102.7119999,401,383.9360713,372.2963272,366.4462975,-239.7125241,-389.9987907,261.0307589,-164.805042,-159.1133176,253.5231399,139.290888,-171.3004488,0,-34.41597287,-39.78311307,128.3530878,0,,,,
102.7199999,401,-9.356128896,-268.2773651,-303.5699591,184.1688634,314.7615684,293.4887817,346.962948,170.0665966,91.52720812,79.35849294,-380.586878,0,-93.52456043,-36.74230484,120.3702718,0,,,,
